TimeStamp,Delta_TP9,Delta_AF7,Delta_AF8,Delta_TP10,Theta_TP9,Theta_AF7,Theta_AF8,Theta_TP10,Alpha_TP9,Alpha_AF7,Alpha_AF8,Alpha_TP10,Beta_TP9,Beta_AF7,Beta_AF8,Beta_TP10,Gamma_TP9,Gamma_AF7,Gamma_AF8,Gamma_TP10,RAW_TP9,RAW_AF7,RAW_AF8,RAW_TP10,AUX_RIGHT,Accelerometer_X,Accelerometer_Y,Accelerometer_Z,Gyro_X,Gyro_Y,Gyro_Z,HeadBandOn,HSI_TP9,HSI_AF7,HSI_AF8,HSI_TP10,Battery,Elements
2024-10-11 20:28:39.631,0.8847501,0.83878726,0.8431422,0.65305024,0.69839144,0.42255893,0.43256626,0.7848216,0.57279295,-0.09108641,-0.012907944,0.8507367,0.53630346,-0.1684985,0.07168682,0.47262397,0.200624,-0.45181116,-0.11018951,0.08730693,797.3993,798.60803,804.2491,802.6374,633.8095,-0.30499267578125,0.0545654296875,0.962158203125,0.6280517578125,2.340240478515625,1.42059326171875,1,1.0,1.0,1.0,1.0,10.00
2024-10-11 20:28:39.632,0.8847501,0.83878726,0.8431422,0.65305024,0.69839144,0.42255893,0.43256626,0.7848216,0.57279295,-0.09108641,-0.012907944,0.8507367,0.53630346,-0.1684985,0.07168682,0.47262397,0.200624,-0.45181116,-0.11018951,0.08730693,796.5934,797.8022,801.4286,794.9817,584.2491,-0.30499267578125,0.0545654296875,0.962158203125,0.6280517578125,2.340240478515625,1.42059326171875,1,1.0,1.0,1.0,1.0,10.00
2024-10-11 20:28:39.632,0.8847501,0.83878726,0.8431422,0.65305024,0.69839144,0.42255893,0.43256626,0.7848216,0.57279295,-0.09108641,-0.012907944,0.8507367,0.53630346,-0.1684985,0.07168682,0.47262397,0.200624,-0.45181116,-0.11018951,0.08730693,793.7729,797.3993,797.3993,796.1905,715.2015,-0.30499267578125,0.0545654296875,0.962158203125,0.6280517578125,2.340240478515625,1.42059326171875,1,1.0,1.0,1.0,1.0,10.00
2024-10-11 20:28:39.633,0.8847501,0.83878726,0.8431422,0.65305024,0.69839144,0.42255893,0.43256626,0.7848216,0.57279295,-0.09108641,-0.012907944,0.8507367,0.53630346,-0.1684985,0.07168682,0.47262397,0.200624,-0.45181116,-0.11018951,0.08730693,800.2198,803.0403,799.81683,807.47253,816.337,-0.30499267578125,0.0545654296875,0.962158203125,0.6280517578125,2.340240478515625,1.42059326171875,1,1.0,1.0,1.0,1.0,10.00
2024-10-11 20:28:39.634,0.8847501,0.83878726,0.8431422,0.65305024,0.69839144,0.42255893,0.43256626,0.7848216,0.57279295,-0.09108641,-0.012907944,0.8507367,0.53630346,-0.1684985,0.07168682,0.47262397,0.200624,-0.45181116,-0.11018951,0.08730693,800.2198,806.26373,808.2784,800.6227,810.696,-0.30499267578125,0.0545654296875,0.962158203125,0.6280517578125,2.340240478515625,1.42059326171875,1,1.0,1.0,1.0,1.0,10.00
2024-10-11 20:28:39.634,0.8847501,0.83878726,0.8431422,0.65305024,0.69839144,0.42255893,0.43256626,0.7848216,0.57279295,-0.09108641,-0.012907944,0.8507367,0.53630346,-0.1684985,0.07168682,0.47262397,0.200624,-0.45181116,-0.11018951,0.08730693,802.6374,794.57874,806.6667,796.99634,837.28937,-0.30499267578125,0.0545654296875,0.962158203125,0.6280517578125,2.340240478515625,1.42059326171875,1,1.0,1.0,1.0,1.0,10.00
2024-10-11 20:28:39.634,0.8847501,0.83878726,0.8431422,0.65305024,0.69839144,0.42255893,0.43256626,0.7848216,0.57279295,-0.09108641,-0.012907944,0.8507367,0.53630346,-0.1684985,0.07168682,0.47262397,0.200624,-0.45181116,-0.11018951,0.08730693,807.47253,792.1612,800.2198,805.05493,957.76556,-0.30499267578125,0.0545654296875,0.962158203125,0.6280517578125,2.340240478515625,1.42059326171875,1,1.0,1.0,1.0,1.0,10.00
2024-10-11 20:28:39.635,0.8847501,0.83878726,0.8431422,0.65305024,0.69839144,0.42255893,0.43256626,0.7848216,0.57279295,-0.09108641,-0.012907944,0.8507367,0.53630346,-0.1684985,0.07168682,0.47262397,0.200624,-0.45181116,-0.11018951,0.08730693,803.0403,796.1905,805.05493,805.05493,1149.1575,-0.30499267578125,0.0545654296875,0.962158203125,0.6280517578125,2.340240478515625,1.42059326171875,1,1.0,1.0,1.0,1.0,10.00
2024-10-11 20:28:39.635,0.8847501,0.83878726,0.8431422,0.65305024,0.69839144,0.42255893,0.43256626,0.7848216,0.57279295,-0.09108641,-0.012907944,0.8507367,0.53630346,-0.1684985,0.07168682,0.47262397,0.200624,-0.45181116,-0.11018951,0.08730693,805.05493,797.3993,805.4579,803.8461,923.5165,-0.30499267578125,0.0545654296875,0.962158203125,0.6280517578125,2.340240478515625,1.42059326171875,1,1.0,1.0,1.0,1.0,10.00
2024-10-11 20:28:39.636,0.8847501,0.83878726,0.8431422,0.65305024,0.69839144,0.42255893,0.43256626,0.7848216,0.57279295,-0.09108641,-0.012907944,0.8507367,0.53630346,-0.1684985,0.07168682,0.47262397,0.200624,-0.45181116,-0.11018951,0.08730693,807.47253,801.8315,801.4286,806.26373,676.1172,-0.30499267578125,0.0545654296875,0.962158203125,0.6280517578125,2.340240478515625,1.42059326171875,1,1.0,1.0,1.0,1.0,10.00
2024-10-11 20:28:39.637,0.8847501,0.83878726,0.8431422,0.65305024,0.69839144,0.42255893,0.43256626,0.7848216,0.57279295,-0.09108641,-0.012907944,0.8507367,0.53630346,-0.1684985,0.07168682,0.47262397,0.200624,-0.45181116,-0.11018951,0.08730693,802.6374,799.011,803.44324,809.4872,883.6264,-0.30499267578125,0.0545654296875,0.962158203125,0.6280517578125,2.340240478515625,1.42059326171875,1,1.0,1.0,1.0,1.0,10.00
2024-10-11 20:28:39.637,0.8847501,0.83878726,0.8431422,0.65305024,0.69839144,0.42255893,0.43256626,0.7848216,0.57279295,-0.09108641,-0.012907944,0.8507367,0.53630346,-0.1684985,0.07168682,0.47262397,0.200624,-0.45181116,-0.11018951,0.08730693,798.20514,793.36993,803.44324,812.3077,1099.597,-0.30499267578125,0.0545654296875,0.962158203125,0.6280517578125,2.340240478515625,1.42059326171875,1,1.0,1.0,1.0,1.0,10.00
2024-10-11 20:28:39.689,0.8847501,0.83878726,0.8431422,0.65305024,0.69839144,0.42255893,0.43256626,0.7848216,0.57279295,-0.09108641,-0.012907944,0.8507367,0.53630346,-0.1684985,0.07168682,0.47262397,0.200624,-0.45181116,-0.11018951,0.08730693,798.60803,796.99634,798.60803,809.0842,749.0476,-0.29522705078125,0.061767578125,0.962646484375,0.186920166015625,2.310333251953125,1.89910888671875,1,1.0,1.0,1.0,1.0,10.00
2024-10-11 20:28:39.690,0.8847501,0.83878726,0.8431422,0.65305024,0.69839144,0.42255893,0.43256626,0.7848216,0.57279295,-0.09108641,-0.012907944,0.8507367,0.53630346,-0.1684985,0.07168682,0.47262397,0.200624,-0.45181116,-0.11018951,0.08730693,798.60803,802.23444,799.81683,807.8755,616.8865,-0.29522705078125,0.061767578125,0.962646484375,0.186920166015625,2.310333251953125,1.89910888671875,1,1.0,1.0,1.0,1.0,10.00
2024-10-11 20:28:39.691,0.8847501,0.83878726,0.8431422,0.65305024,0.69839144,0.42255893,0.43256626,0.7848216,0.57279295,-0.09108641,-0.012907944,0.8507367,0.53630346,-0.1684985,0.07168682,0.47262397,0.200624,-0.45181116,-0.11018951,0.08730693,794.9817,797.3993,812.71063,809.0842,674.90845,-0.29522705078125,0.061767578125,0.962646484375,0.186920166015625,2.310333251953125,1.89910888671875,1,1.0,1.0,1.0,1.0,10.00
2024-10-11 20:28:39.691,0.8847501,0.83878726,0.8431422,0.65305024,0.69839144,0.42255893,0.43256626,0.7848216,0.57279295,-0.09108641,-0.012907944,0.8507367,0.53630346,-0.1684985,0.07168682,0.47262397,0.200624,-0.45181116,-0.11018951,0.08730693,801.4286,793.36993,813.1135,804.2491,626.55676,-0.29522705078125,0.061767578125,0.962646484375,0.186920166015625,2.310333251953125,1.89910888671875,1,1.0,1.0,1.0,1.0,10.00
2024-10-11 20:28:39.692,0.8847501,0.83878726,0.8431422,0.65305024,0.69839144,0.42255893,0.43256626,0.7848216,0.57279295,-0.09108641,-0.012907944,0.8507367,0.53630346,-0.1684985,0.07168682,0.47262397,0.200624,-0.45181116,-0.11018951,0.08730693,804.2491,795.78754,804.65204,801.8315,625.34796,-0.29522705078125,0.061767578125,0.962646484375,0.186920166015625,2.310333251953125,1.89910888671875,1,1.0,1.0,1.0,1.0,10.00
2024-10-11 20:28:39.693,0.8847501,0.83878726,0.8431422,0.65305024,0.69839144,0.42255893,0.43256626,0.7848216,0.57279295,-0.09108641,-0.012907944,0.8507367,0.53630346,-0.1684985,0.07168682,0.47262397,0.200624,-0.45181116,-0.11018951,0.08730693,798.20514,793.36993,800.6227,801.02563,767.5824,-0.29522705078125,0.061767578125,0.962646484375,0.186920166015625,2.310333251953125,1.89910888671875,1,1.0,1.0,1.0,1.0,10.00
2024-10-11 20:28:39.694,0.8847501,0.83878726,0.8431422,0.65305024,0.69839144,0.42255893,0.43256626,0.7848216,0.57279295,-0.09108641,-0.012907944,0.8507367,0.53630346,-0.1684985,0.07168682,0.47262397,0.200624,-0.45181116,-0.11018951,0.08730693,801.8315,790.9524,805.4579,805.8608,1183.4066,-0.29522705078125,0.061767578125,0.962646484375,0.186920166015625,2.310333251953125,1.89910888671875,1,1.0,1.0,1.0,1.0,10.00
2024-10-11 20:28:39.694,0.8847501,0.83878726,0.8431422,0.65305024,0.69839144,0.42255893,0.43256626,0.7848216,0.57279295,-0.09108641,-0.012907944,0.8507367,0.53630346,-0.1684985,0.07168682,0.47262397,0.200624,-0.45181116,-0.11018951,0.08730693,805.8608,795.78754,802.23444,810.696,1039.9634,-0.29522705078125,0.061767578125,0.962646484375,0.186920166015625,2.310333251953125,1.89910888671875,1,1.0,1.0,1.0,1.0,10.00
2024-10-11 20:28:39.695,0.8847501,0.83878726,0.8431422,0.65305024,0.69839144,0.42255893,0.43256626,0.7848216,0.57279295,-0.09108641,-0.012907944,0.8507367,0.53630346,-0.1684985,0.07168682,0.47262397,0.200624,-0.45181116,-0.11018951,0.08730693,811.9048,800.6227,790.54944,807.47253,728.0952,-0.29522705078125,0.061767578125,0.962646484375,0.186920166015625,2.310333251953125,1.89910888671875,1,1.0,1.0,1.0,1.0,10.00
2024-10-11 20:28:39.696,0.8847501,0.83762866,0.8224469,0.65305024,0.69839144,0.42133665,0.41514364,0.7848216,0.57279295,-0.09108641,-0.0034721382,0.8507367,0.53630346,-0.17040814,0.0895524,0.47262397,0.200624,-0.4579788,-0.11719812,0.08730693,812.71063,801.4286,801.4286,802.23444,819.15753,-0.29522705078125,0.061767578125,0.962646484375,0.186920166015625,2.310333251953125,1.89910888671875,1,2.0,1.0,1.0,2.0,10.00
2024-10-11 20:28:39.701,0.8847501,0.83762866,0.8224469,0.65305024,0.69839144,0.42133665,0.41514364,0.7848216,0.57279295,-0.09108641,-0.0034721382,0.8507367,0.53630346,-0.17040814,0.0895524,0.47262397,0.200624,-0.4579788,-0.11719812,0.08730693,804.2491,798.20514,812.3077,802.23444,783.2967,-0.29522705078125,0.061767578125,0.962646484375,0.186920166015625,2.310333251953125,1.89910888671875,1,2.0,1.0,1.0,2.0,10.00
2024-10-11 20:28:39.702,0.8847501,0.83762866,0.8224469,0.65305024,0.69839144,0.42133665,0.41514364,0.7848216,0.57279295,-0.09108641,-0.0034721382,0.8507367,0.53630346,-0.17040814,0.0895524,0.47262397,0.200624,-0.4579788,-0.11719812,0.08730693,799.011,790.9524,804.2491,799.011,622.9304,-0.29522705078125,0.061767578125,0.962646484375,0.186920166015625,2.310333251953125,1.89910888671875,1,2.0,1.0,1.0,2.0,10.00
2024-10-11 20:28:39.765,0.8847501,0.83762866,0.8224469,0.65305024,0.69839144,0.42133665,0.41514364,0.7848216,0.57279295,-0.09108641,-0.0034721382,0.8507367,0.53630346,-0.17040814,0.0895524,0.47262397,0.200624,-0.4579788,-0.11719812,0.08730693,804.2491,794.57874,799.011,792.96704,634.61536,-0.2962646484375,0.05767822265625,0.97320556640625,-1.158905029296875,1.727142333984375,3.446807861328125,1,2.0,1.0,1.0,2.0,10.00
2024-10-11 20:28:39.766,0.8847501,0.83762866,0.8224469,0.65305024,0.69839144,0.42133665,0.41514364,0.7848216,0.57279295,-0.09108641,-0.0034721382,0.8507367,0.53630346,-0.17040814,0.0895524,0.47262397,0.200624,-0.4579788,-0.11719812,0.08730693,804.65204,801.8315,803.0403,795.78754,739.7802,-0.2962646484375,0.05767822265625,0.97320556640625,-1.158905029296875,1.727142333984375,3.446807861328125,1,2.0,1.0,1.0,2.0,10.00
2024-10-11 20:28:39.767,0.8847501,0.83762866,0.8224469,0.65305024,0.69839144,0.42133665,0.41514364,0.7848216,0.57279295,-0.09108641,-0.0034721382,0.8507367,0.53630346,-0.17040814,0.0895524,0.47262397,0.200624,-0.4579788,-0.11719812,0.08730693,809.0842,799.81683,800.2198,801.02563,849.7802,-0.2962646484375,0.05767822265625,0.97320556640625,-1.158905029296875,1.727142333984375,3.446807861328125,1,2.0,1.0,1.0,2.0,10.00
2024-10-11 20:28:39.768,0.8847501,0.83762866,0.8224469,0.65305024,0.69839144,0.42133665,0.41514364,0.7848216,0.57279295,-0.09108641,-0.0034721382,0.8507367,0.53630346,-0.17040814,0.0895524,0.47262397,0.200624,-0.4579788,-0.11719812,0.08730693,814.3223,799.011,783.69965,800.2198,729.707,-0.2962646484375,0.05767822265625,0.97320556640625,-1.158905029296875,1.727142333984375,3.446807861328125,1,2.0,1.0,1.0,2.0,10.00
2024-10-11 20:28:39.769,0.8847501,0.83762866,0.8224469,0.65305024,0.69839144,0.42133665,0.41514364,0.7848216,0.57279295,-0.09108641,-0.0034721382,0.8507367,0.53630346,-0.17040814,0.0895524,0.47262397,0.200624,-0.4579788,-0.11719812,0.08730693,801.02563,797.8022,788.1319,801.4286,638.24176,-0.2962646484375,0.05767822265625,0.97320556640625,-1.158905029296875,1.727142333984375,3.446807861328125,1,2.0,1.0,1.0,2.0,10.00
2024-10-11 20:28:39.770,0.8847501,0.83762866,0.8224469,0.65305024,0.69839144,0.42133665,0.41514364,0.7848216,0.57279295,-0.09108641,-0.0034721382,0.8507367,0.53630346,-0.17040814,0.0895524,0.47262397,0.200624,-0.4579788,-0.11719812,0.08730693,801.02563,792.1612,804.2491,805.4579,964.61536,-0.2962646484375,0.05767822265625,0.97320556640625,-1.158905029296875,1.727142333984375,3.446807861328125,1,2.0,1.0,1.0,2.0,10.00
2024-10-11 20:28:39.771,0.8847501,0.83762866,0.8224469,0.65305024,0.69839144,0.42133665,0.41514364,0.7848216,0.57279295,-0.09108641,-0.0034721382,0.8507367,0.53630346,-0.17040814,0.0895524,0.47262397,0.200624,-0.4579788,-0.11719812,0.08730693,810.696,795.38464,804.2491,808.68134,1168.9011,-0.2962646484375,0.05767822265625,0.97320556640625,-1.158905029296875,1.727142333984375,3.446807861328125,1,2.0,1.0,1.0,2.0,10.00
2024-10-11 20:28:39.772,0.8847501,0.83762866,0.8224469,0.65305024,0.69839144,0.42133665,0.41514364,0.7848216,0.57279295,-0.09108641,-0.0034721382,0.8507367,0.53630346,-0.17040814,0.0895524,0.47262397,0.200624,-0.4579788,-0.11719812,0.08730693,807.47253,798.20514,803.44324,800.6227,792.1612,-0.2962646484375,0.05767822265625,0.97320556640625,-1.158905029296875,1.727142333984375,3.446807861328125,1,2.0,1.0,1.0,2.0,10.00
2024-10-11 20:28:39.773,0.8847501,0.83762866,0.8224469,0.65305024,0.69839144,0.42133665,0.41514364,0.7848216,0.57279295,-0.09108641,-0.0034721382,0.8507367,0.53630346,-0.17040814,0.0895524,0.47262397,0.200624,-0.4579788,-0.11719812,0.08730693,803.0403,798.20514,803.8461,801.02563,647.9121,-0.2962646484375,0.05767822265625,0.97320556640625,-1.158905029296875,1.727142333984375,3.446807861328125,1,2.0,1.0,1.0,2.0,10.00
2024-10-11 20:28:39.774,0.8847501,0.83762866,0.8224469,0.65305024,0.69839144,0.42133665,0.41514364,0.7848216,0.57279295,-0.09108641,-0.0034721382,0.8507367,0.53630346,-0.17040814,0.0895524,0.47262397,0.200624,-0.4579788,-0.11719812,0.08730693,806.26373,797.8022,800.2198,806.6667,902.1612,-0.2962646484375,0.05767822265625,0.97320556640625,-1.158905029296875,1.727142333984375,3.446807861328125,1,2.0,1.0,1.0,2.0,10.00
2024-10-11 20:28:39.775,0.8847501,0.83762866,0.8224469,0.65305024,0.69839144,0.42133665,0.41514364,0.7848216,0.57279295,-0.09108641,-0.0034721382,0.8507367,0.53630346,-0.17040814,0.0895524,0.47262397,0.200624,-0.4579788,-0.11719812,0.08730693,807.0696,795.38464,796.99634,804.65204,970.2564,-0.2962646484375,0.05767822265625,0.97320556640625,-1.158905029296875,1.727142333984375,3.446807861328125,1,2.0,1.0,1.0,2.0,10.00
2024-10-11 20:28:39.775,0.8847501,0.83762866,0.8224469,0.65305024,0.69839144,0.42133665,0.41514364,0.7848216,0.57279295,-0.09108641,-0.0034721382,0.8507367,0.53630346,-0.17040814,0.0895524,0.47262397,0.200624,-0.4579788,-0.11719812,0.08730693,804.65204,797.3993,793.7729,804.2491,756.7033,-0.2962646484375,0.05767822265625,0.97320556640625,-1.158905029296875,1.727142333984375,3.446807861328125,1,2.0,1.0,1.0,2.0,10.00
2024-10-11 20:28:39.776,0.8847501,0.83762866,0.8224469,0.65305024,0.69839144,0.42133665,0.41514364,0.7848216,0.57279295,-0.09108641,-0.0034721382,0.8507367,0.53630346,-0.17040814,0.0895524,0.47262397,0.200624,-0.4579788,-0.11719812,0.08730693,807.47253,799.011,801.4286,805.05493,706.337,-0.2962646484375,0.05767822265625,0.97320556640625,-1.158905029296875,1.727142333984375,3.446807861328125,1,2.0,1.0,1.0,2.0,10.00
2024-10-11 20:28:39.777,0.8847501,0.83762866,0.8224469,0.65305024,0.69839144,0.42133665,0.41514364,0.7848216,0.57279295,-0.09108641,-0.0034721382,0.8507367,0.53630346,-0.17040814,0.0895524,0.47262397,0.200624,-0.4579788,-0.11719812,0.08730693,808.2784,797.3993,806.26373,803.0403,809.4872,-0.2962646484375,0.05767822265625,0.97320556640625,-1.158905029296875,1.727142333984375,3.446807861328125,1,2.0,1.0,1.0,2.0,10.00
2024-10-11 20:28:39.778,0.8847501,0.83762866,0.8224469,0.65305024,0.69839144,0.42133665,0.41514364,0.7848216,0.57279295,-0.09108641,-0.0034721382,0.8507367,0.53630346,-0.17040814,0.0895524,0.47262397,0.200624,-0.4579788,-0.11719812,0.08730693,803.44324,801.8315,802.6374,804.65204,789.34064,-0.2962646484375,0.05767822265625,0.97320556640625,-1.158905029296875,1.727142333984375,3.446807861328125,1,2.0,1.0,1.0,2.0,10.00
2024-10-11 20:28:39.778,0.8847501,0.83762866,0.8224469,0.65305024,0.69839144,0.42133665,0.41514364,0.7848216,0.57279295,-0.09108641,-0.0034721382,0.8507367,0.53630346,-0.17040814,0.0895524,0.47262397,0.200624,-0.4579788,-0.11719812,0.08730693,796.1905,799.011,799.41394,802.6374,703.5165,-0.2962646484375,0.05767822265625,0.97320556640625,-1.158905029296875,1.727142333984375,3.446807861328125,1,2.0,1.0,1.0,2.0,10.00
2024-10-11 20:28:39.779,0.8847501,0.83762866,0.8224469,0.65305024,0.69839144,0.42133665,0.41514364,0.7848216,0.57279295,-0.09108641,-0.0034721382,0.8507367,0.53630346,-0.17040814,0.0895524,0.47262397,0.200624,-0.4579788,-0.11719812,0.08730693,796.1905,795.78754,800.6227,805.8608,766.77655,-0.2962646484375,0.05767822265625,0.97320556640625,-1.158905029296875,1.727142333984375,3.446807861328125,1,2.0,1.0,1.0,2.0,10.00
2024-10-11 20:28:39.780,0.8847501,0.83762866,0.8224469,0.65305024,0.69839144,0.42133665,0.41514364,0.7848216,0.57279295,-0.09108641,-0.0034721382,0.8507367,0.53630346,-0.17040814,0.0895524,0.47262397,0.200624,-0.4579788,-0.11719812,0.08730693,804.2491,797.3993,800.2198,817.1429,1040.3663,-0.2962646484375,0.05767822265625,0.97320556640625,-1.158905029296875,1.727142333984375,3.446807861328125,1,2.0,1.0,1.0,2.0,10.00
2024-10-11 20:28:39.781,0.8847501,0.83762866,0.8224469,0.65305024,0.69839144,0.42133665,0.41514364,0.7848216,0.57279295,-0.09108641,-0.0034721382,0.8507367,0.53630346,-0.17040814,0.0895524,0.47262397,0.200624,-0.4579788,-0.11719812,0.08730693,809.0842,800.6227,804.2491,808.2784,1014.57874,-0.2962646484375,0.05767822265625,0.97320556640625,-1.158905029296875,1.727142333984375,3.446807861328125,1,2.0,1.0,1.0,2.0,10.00
2024-10-11 20:28:39.782,0.8847501,0.83762866,0.8224469,0.65305024,0.69839144,0.42133665,0.41514364,0.7848216,0.57279295,-0.09108641,-0.0034721382,0.8507367,0.53630346,-0.17040814,0.0895524,0.47262397,0.200624,-0.4579788,-0.11719812,0.08730693,801.8315,799.011,809.89014,797.8022,804.2491,-0.2962646484375,0.05767822265625,0.97320556640625,-1.158905029296875,1.727142333984375,3.446807861328125,1,2.0,1.0,1.0,2.0,10.00
2024-10-11 20:28:39.783,0.8847501,0.83762866,0.8224469,0.65305024,0.69839144,0.42133665,0.41514364,0.7848216,0.57279295,-0.09108641,-0.0034721382,0.8507367,0.53630346,-0.17040814,0.0895524,0.47262397,0.200624,-0.4579788,-0.11719812,0.08730693,797.3993,797.3993,808.2784,794.17584,707.9487,-0.2962646484375,0.05767822265625,0.97320556640625,-1.158905029296875,1.727142333984375,3.446807861328125,1,2.0,1.0,1.0,2.0,10.00
2024-10-11 20:28:39.784,0.8847501,0.83762866,0.8224469,0.65305024,0.69839144,0.42133665,0.41514364,0.7848216,0.57279295,-0.09108641,-0.0034721382,0.8507367,0.53630346,-0.17040814,0.0895524,0.47262397,0.200624,-0.4579788,-0.11719812,0.08730693,803.0403,792.96704,797.8022,800.6227,933.1868,-0.2962646484375,0.05767822265625,0.97320556640625,-1.158905029296875,1.727142333984375,3.446807861328125,1,2.0,1.0,1.0,2.0,10.00
2024-10-11 20:28:39.785,0.8847501,0.83762866,0.8224469,0.65305024,0.69839144,0.42133665,0.41514364,0.7848216,0.57279295,-0.09108641,-0.0034721382,0.8507367,0.53630346,-0.17040814,0.0895524,0.47262397,0.200624,-0.4579788,-0.11719812,0.08730693,810.696,792.5641,795.38464,809.0842,834.87177,-0.2962646484375,0.05767822265625,0.97320556640625,-1.158905029296875,1.727142333984375,3.446807861328125,1,2.0,1.0,1.0,2.0,10.00
2024-10-11 20:28:39.786,0.8847501,0.8376413,0.82922316,0.65305024,0.69839144,0.41823316,0.42186135,0.7848216,0.57279295,-0.09610239,0.003217232,0.8507367,0.53630346,-0.17042285,0.11115132,0.47262397,0.200624,-0.4623986,-0.12731919,0.08730693,808.2784,798.60803,803.8461,803.44324,632.6007,-0.2962646484375,0.05767822265625,0.97320556640625,-1.158905029296875,1.727142333984375,3.446807861328125,1,2.0,1.0,1.0,2.0,10.00
2024-10-11 20:28:39.791,0.8847501,0.8376413,0.82922316,0.65305024,0.69839144,0.41823316,0.42186135,0.7848216,0.57279295,-0.09610239,0.003217232,0.8507367,0.53630346,-0.17042285,0.11115132,0.47262397,0.200624,-0.4623986,-0.12731919,0.08730693,804.2491,802.6374,800.2198,796.99634,726.4835,-0.29241943359375,0.05059814453125,0.9569091796875,-2.88604736328125,3.312225341796875,4.493560791015625,1,2.0,1.0,1.0,2.0,10.00
2024-10-11 20:28:39.792,0.8847501,0.8376413,0.82922316,0.65305024,0.69839144,0.41823316,0.42186135,0.7848216,0.57279295,-0.09610239,0.003217232,0.8507367,0.53630346,-0.17042285,0.11115132,0.47262397,0.200624,-0.4623986,-0.12731919,0.08730693,807.0696,802.23444,796.5934,795.38464,907.8022,-0.29241943359375,0.05059814453125,0.9569091796875,-2.88604736328125,3.312225341796875,4.493560791015625,1,2.0,1.0,1.0,2.0,10.00
2024-10-11 20:28:39.793,0.8847501,0.8376413,0.82922316,0.65305024,0.69839144,0.41823316,0.42186135,0.7848216,0.57279295,-0.09610239,0.003217232,0.8507367,0.53630346,-0.17042285,0.11115132,0.47262397,0.200624,-0.4623986,-0.12731919,0.08730693,802.6374,798.60803,795.38464,796.99634,817.9487,-0.29241943359375,0.05059814453125,0.9569091796875,-2.88604736328125,3.312225341796875,4.493560791015625,1,2.0,1.0,1.0,2.0,10.00
2024-10-11 20:28:39.794,0.8847501,0.8376413,0.82922316,0.65305024,0.69839144,0.41823316,0.42186135,0.7848216,0.57279295,-0.09610239,0.003217232,0.8507367,0.53630346,-0.17042285,0.11115132,0.47262397,0.200624,-0.4623986,-0.12731919,0.08730693,804.2491,800.2198,795.78754,801.4286,701.9048,-0.29241943359375,0.05059814453125,0.9569091796875,-2.88604736328125,3.312225341796875,4.493560791015625,1,2.0,1.0,1.0,2.0,10.00
2024-10-11 20:28:39.794,0.8847501,0.8376413,0.82922316,0.65305024,0.69839144,0.41823316,0.42186135,0.7848216,0.57279295,-0.09610239,0.003217232,0.8507367,0.53630346,-0.17042285,0.11115132,0.47262397,0.200624,-0.4623986,-0.12731919,0.08730693,805.05493,801.8315,795.78754,799.81683,832.0513,-0.29241943359375,0.05059814453125,0.9569091796875,-2.88604736328125,3.312225341796875,4.493560791015625,1,2.0,1.0,1.0,2.0,10.00
2024-10-11 20:28:39.795,0.8847501,0.8376413,0.82922316,0.65305024,0.69839144,0.41823316,0.42186135,0.7848216,0.57279295,-0.09610239,0.003217232,0.8507367,0.53630346,-0.17042285,0.11115132,0.47262397,0.200624,-0.4623986,-0.12731919,0.08730693,805.4579,794.9817,794.17584,801.8315,976.7033,-0.29241943359375,0.05059814453125,0.9569091796875,-2.88604736328125,3.312225341796875,4.493560791015625,1,2.0,1.0,1.0,2.0,10.00
2024-10-11 20:28:39.796,0.8847501,0.8376413,0.82922316,0.65305024,0.69839144,0.41823316,0.42186135,0.7848216,0.57279295,-0.09610239,0.003217232,0.8507367,0.53630346,-0.17042285,0.11115132,0.47262397,0.200624,-0.4623986,-0.12731919,0.08730693,810.696,796.5934,796.5934,809.4872,859.45056,-0.29241943359375,0.05059814453125,0.9569091796875,-2.88604736328125,3.312225341796875,4.493560791015625,1,2.0,1.0,1.0,2.0,10.00
2024-10-11 20:28:39.797,0.8847501,0.8376413,0.82922316,0.65305024,0.69839144,0.41823316,0.42186135,0.7848216,0.57279295,-0.09610239,0.003217232,0.8507367,0.53630346,-0.17042285,0.11115132,0.47262397,0.200624,-0.4623986,-0.12731919,0.08730693,810.696,802.6374,801.8315,811.50183,872.3443,-0.29241943359375,0.05059814453125,0.9569091796875,-2.88604736328125,3.312225341796875,4.493560791015625,1,2.0,1.0,1.0,2.0,10.00
2024-10-11 20:28:39.798,0.8847501,0.8376413,0.82922316,0.65305024,0.69839144,0.41823316,0.42186135,0.7848216,0.57279295,-0.09610239,0.003217232,0.8507367,0.53630346,-0.17042285,0.11115132,0.47262397,0.200624,-0.4623986,-0.12731919,0.08730693,808.2784,802.23444,800.6227,803.44324,910.6227,-0.29241943359375,0.05059814453125,0.9569091796875,-2.88604736328125,3.312225341796875,4.493560791015625,1,2.0,1.0,1.0,2.0,10.00
2024-10-11 20:28:39.799,0.8847501,0.8376413,0.82922316,0.65305024,0.69839144,0.41823316,0.42186135,0.7848216,0.57279295,-0.09610239,0.003217232,0.8507367,0.53630346,-0.17042285,0.11115132,0.47262397,0.200624,-0.4623986,-0.12731919,0.08730693,814.7253,799.41394,792.96704,806.26373,779.2674,-0.29241943359375,0.05059814453125,0.9569091796875,-2.88604736328125,3.312225341796875,4.493560791015625,1,2.0,1.0,1.0,2.0,10.00
2024-10-11 20:28:39.799,0.8847501,0.8376413,0.82922316,0.65305024,0.69839144,0.41823316,0.42186135,0.7848216,0.57279295,-0.09610239,0.003217232,0.8507367,0.53630346,-0.17042285,0.11115132,0.47262397,0.200624,-0.4623986,-0.12731919,0.08730693,812.3077,799.011,796.1905,813.91943,657.1795,-0.29241943359375,0.05059814453125,0.9569091796875,-2.88604736328125,3.312225341796875,4.493560791015625,1,2.0,1.0,1.0,2.0,10.00
2024-10-11 20:28:39.800,0.8847501,0.8376413,0.82922316,0.65305024,0.69839144,0.41823316,0.42186135,0.7848216,0.57279295,-0.09610239,0.003217232,0.8507367,0.53630346,-0.17042285,0.11115132,0.47262397,0.200624,-0.4623986,-0.12731919,0.08730693,796.99634,800.6227,807.0696,805.8608,707.1429,-0.29241943359375,0.05059814453125,0.9569091796875,-2.88604736328125,3.312225341796875,4.493560791015625,1,2.0,1.0,1.0,2.0,10.00
2024-10-11 20:28:39.880,0.8847501,0.8376413,0.82922316,0.65305024,0.69839144,0.41823316,0.42186135,0.7848216,0.57279295,-0.09610239,0.003217232,0.8507367,0.53630346,-0.17042285,0.11115132,0.47262397,0.200624,-0.4623986,-0.12731919,0.08730693,792.5641,793.7729,807.0696,802.6374,842.1245,-0.29986572265625,0.04547119140625,0.94757080078125,-3.289794921875,5.944061279296875,5.271148681640625,1,2.0,1.0,1.0,2.0,10.00
2024-10-11 20:28:39.881,0.8847501,0.8376413,0.82922316,0.65305024,0.69839144,0.41823316,0.42186135,0.7848216,0.57279295,-0.09610239,0.003217232,0.8507367,0.53630346,-0.17042285,0.11115132,0.47262397,0.200624,-0.4623986,-0.12731919,0.08730693,792.5641,786.9231,801.02563,803.0403,774.83514,-0.29986572265625,0.04547119140625,0.94757080078125,-3.289794921875,5.944061279296875,5.271148681640625,1,2.0,1.0,1.0,2.0,10.00
2024-10-11 20:28:39.882,0.8847501,0.8376413,0.82922316,0.65305024,0.69839144,0.41823316,0.42186135,0.7848216,0.57279295,-0.09610239,0.003217232,0.8507367,0.53630346,-0.17042285,0.11115132,0.47262397,0.200624,-0.4623986,-0.12731919,0.08730693,796.5934,792.1612,801.02563,808.2784,668.86444,-0.29986572265625,0.04547119140625,0.94757080078125,-3.289794921875,5.944061279296875,5.271148681640625,1,2.0,1.0,1.0,2.0,10.00
2024-10-11 20:28:39.883,0.8847501,0.8376413,0.82922316,0.65305024,0.69839144,0.41823316,0.42186135,0.7848216,0.57279295,-0.09610239,0.003217232,0.8507367,0.53630346,-0.17042285,0.11115132,0.47262397,0.200624,-0.4623986,-0.12731919,0.08730693,807.47253,794.9817,804.65204,808.2784,682.5641,-0.29986572265625,0.04547119140625,0.94757080078125,-3.289794921875,5.944061279296875,5.271148681640625,1,2.0,1.0,1.0,2.0,10.00
2024-10-11 20:28:39.884,0.8847501,0.8376413,0.82922316,0.65305024,0.69839144,0.41823316,0.42186135,0.7848216,0.57279295,-0.09610239,0.003217232,0.8507367,0.53630346,-0.17042285,0.11115132,0.47262397,0.200624,-0.4623986,-0.12731919,0.08730693,807.47253,790.54944,801.02563,807.8755,970.65936,-0.29986572265625,0.04547119140625,0.94757080078125,-3.289794921875,5.944061279296875,5.271148681640625,1,2.0,1.0,1.0,2.0,10.00
2024-10-11 20:28:39.885,0.8847501,0.8376413,0.82922316,0.65305024,0.69839144,0.41823316,0.42186135,0.7848216,0.57279295,-0.09610239,0.003217232,0.8507367,0.53630346,-0.17042285,0.11115132,0.47262397,0.200624,-0.4623986,-0.12731919,0.08730693,811.50183,788.5348,789.34064,816.337,1351.8315,-0.29986572265625,0.04547119140625,0.94757080078125,-3.289794921875,5.944061279296875,5.271148681640625,1,2.0,1.0,1.0,2.0,10.00
2024-10-11 20:28:39.886,0.8847501,0.8376413,0.82922316,0.65305024,0.69839144,0.41823316,0.42186135,0.7848216,0.57279295,-0.09610239,0.003217232,0.8507367,0.53630346,-0.17042285,0.11115132,0.47262397,0.200624,-0.4623986,-0.12731919,0.08730693,816.7399,793.7729,793.7729,817.5458,1105.641,-0.29986572265625,0.04547119140625,0.94757080078125,-3.289794921875,5.944061279296875,5.271148681640625,1,2.0,1.0,1.0,2.0,10.00
2024-10-11 20:28:39.887,0.8847501,0.8376413,0.82922316,0.65305024,0.69839144,0.41823316,0.42186135,0.7848216,0.57279295,-0.09610239,0.003217232,0.8507367,0.53630346,-0.17042285,0.11115132,0.47262397,0.200624,-0.4623986,-0.12731919,0.08730693,814.7253,798.20514,808.68134,813.5165,690.6227,-0.29986572265625,0.04547119140625,0.94757080078125,-3.289794921875,5.944061279296875,5.271148681640625,1,2.0,1.0,1.0,2.0,10.00
2024-10-11 20:28:39.888,0.8847501,0.8376413,0.82922316,0.65305024,0.69839144,0.41823316,0.42186135,0.7848216,0.57279295,-0.09610239,0.003217232,0.8507367,0.53630346,-0.17042285,0.11115132,0.47262397,0.200624,-0.4623986,-0.12731919,0.08730693,814.3223,801.4286,809.0842,813.5165,685.78754,-0.29986572265625,0.04547119140625,0.94757080078125,-3.289794921875,5.944061279296875,5.271148681640625,1,2.0,1.0,1.0,2.0,10.00
2024-10-11 20:28:39.888,0.8847501,0.8376413,0.82922316,0.65305024,0.69839144,0.41823316,0.42186135,0.7848216,0.57279295,-0.09610239,0.003217232,0.8507367,0.53630346,-0.17042285,0.11115132,0.47262397,0.200624,-0.4623986,-0.12731919,0.08730693,816.7399,802.6374,803.0403,806.6667,629.7802,-0.29986572265625,0.04547119140625,0.94757080078125,-3.289794921875,5.944061279296875,5.271148681640625,1,2.0,1.0,1.0,2.0,10.00
2024-10-11 20:28:39.889,0.8847501,0.8376413,0.82922316,0.65305024,0.69839144,0.41823316,0.42186135,0.7848216,0.57279295,-0.09610239,0.003217232,0.8507367,0.53630346,-0.17042285,0.11115132,0.47262397,0.200624,-0.4623986,-0.12731919,0.08730693,806.6667,796.99634,799.41394,799.011,616.8865,-0.29986572265625,0.04547119140625,0.94757080078125,-3.289794921875,5.944061279296875,5.271148681640625,1,2.0,1.0,1.0,2.0,10.00
2024-10-11 20:28:39.890,0.8847501,0.8376413,0.82922316,0.65305024,0.69839144,0.41823316,0.42186135,0.7848216,0.57279295,-0.09610239,0.003217232,0.8507367,0.53630346,-0.17042285,0.11115132,0.47262397,0.200624,-0.4623986,-0.12731919,0.08730693,806.26373,799.41394,800.6227,801.02563,628.97437,-0.29986572265625,0.04547119140625,0.94757080078125,-3.289794921875,5.944061279296875,5.271148681640625,1,2.0,1.0,1.0,2.0,10.00
2024-10-11 20:28:39.926,0.8847501,0.8376413,0.82922316,0.65305024,0.69839144,0.41823316,0.42186135,0.7848216,0.57279295,-0.09610239,0.003217232,0.8507367,0.53630346,-0.17042285,0.11115132,0.47262397,0.200624,-0.4623986,-0.12731919,0.08730693,812.71063,798.20514,804.2491,810.293,676.1172,-0.33026123046875,0.05267333984375,0.96026611328125,-3.132781982421875,9.473114013671875,6.62445068359375,1,2.0,1.0,1.0,2.0,10.00
2024-10-11 20:28:39.927,0.8847501,0.8377996,0.8374254,0.65305024,0.69839144,0.41411427,0.4277854,0.7848216,0.57279295,-0.09909341,0.0041882587,0.8507367,0.53630346,-0.17080948,0.12577051,0.47262397,0.200624,-0.468214,-0.1366466,0.08730693,808.68134,796.5934,803.8461,808.2784,592.3077,-0.33026123046875,0.05267333984375,0.96026611328125,-3.132781982421875,9.473114013671875,6.62445068359375,1,2.0,1.0,1.0,2.0,10.00
2024-10-11 20:28:39.932,0.8847501,0.8377996,0.8374254,0.65305024,0.69839144,0.41411427,0.4277854,0.7848216,0.57279295,-0.09909341,0.0041882587,0.8507367,0.53630346,-0.17080948,0.12577051,0.47262397,0.200624,-0.468214,-0.1366466,0.08730693,808.68134,800.2198,796.99634,803.0403,517.3626,-0.33026123046875,0.05267333984375,0.96026611328125,-3.132781982421875,9.473114013671875,6.62445068359375,1,2.0,1.0,1.0,2.0,10.00
2024-10-11 20:28:39.933,0.8847501,0.8377996,0.8374254,0.65305024,0.69839144,0.41411427,0.4277854,0.7848216,0.57279295,-0.09909341,0.0041882587,0.8507367,0.53630346,-0.17080948,0.12577051,0.47262397,0.200624,-0.468214,-0.1366466,0.08730693,811.0989,799.81683,796.1905,803.44324,636.63007,-0.33026123046875,0.05267333984375,0.96026611328125,-3.132781982421875,9.473114013671875,6.62445068359375,1,2.0,1.0,1.0,2.0,10.00
2024-10-11 20:28:39.934,0.8847501,0.8377996,0.8374254,0.65305024,0.69839144,0.41411427,0.4277854,0.7848216,0.57279295,-0.09909341,0.0041882587,0.8507367,0.53630346,-0.17080948,0.12577051,0.47262397,0.200624,-0.468214,-0.1366466,0.08730693,806.6667,802.6374,801.8315,807.47253,661.6117,-0.33026123046875,0.05267333984375,0.96026611328125,-3.132781982421875,9.473114013671875,6.62445068359375,1,2.0,1.0,1.0,2.0,10.00
2024-10-11 20:28:39.935,0.8847501,0.8377996,0.8374254,0.65305024,0.69839144,0.41411427,0.4277854,0.7848216,0.57279295,-0.09909341,0.0041882587,0.8507367,0.53630346,-0.17080948,0.12577051,0.47262397,0.200624,-0.468214,-0.1366466,0.08730693,804.2491,802.23444,802.6374,810.696,670.4762,-0.33026123046875,0.05267333984375,0.96026611328125,-3.132781982421875,9.473114013671875,6.62445068359375,1,2.0,1.0,1.0,2.0,10.00
2024-10-11 20:28:39.936,0.8847501,0.8377996,0.8374254,0.65305024,0.69839144,0.41411427,0.4277854,0.7848216,0.57279295,-0.09909341,0.0041882587,0.8507367,0.53630346,-0.17080948,0.12577051,0.47262397,0.200624,-0.468214,-0.1366466,0.08730693,806.6667,795.38464,798.20514,806.26373,687.3993,-0.33026123046875,0.05267333984375,0.96026611328125,-3.132781982421875,9.473114013671875,6.62445068359375,1,2.0,1.0,1.0,2.0,10.00
2024-10-11 20:28:39.937,0.8847501,0.8377996,0.8374254,0.65305024,0.69839144,0.41411427,0.4277854,0.7848216,0.57279295,-0.09909341,0.0041882587,0.8507367,0.53630346,-0.17080948,0.12577051,0.47262397,0.200624,-0.468214,-0.1366466,0.08730693,807.0696,794.57874,794.57874,808.2784,758.315,-0.33026123046875,0.05267333984375,0.96026611328125,-3.132781982421875,9.473114013671875,6.62445068359375,1,2.0,1.0,1.0,2.0,10.00
2024-10-11 20:28:39.938,0.8847501,0.8377996,0.8374254,0.65305024,0.69839144,0.41411427,0.4277854,0.7848216,0.57279295,-0.09909341,0.0041882587,0.8507367,0.53630346,-0.17080948,0.12577051,0.47262397,0.200624,-0.468214,-0.1366466,0.08730693,810.293,802.6374,798.60803,817.5458,820.3663,-0.33026123046875,0.05267333984375,0.96026611328125,-3.132781982421875,9.473114013671875,6.62445068359375,1,2.0,1.0,1.0,2.0,10.00
2024-10-11 20:28:39.939,0.8847501,0.8377996,0.8374254,0.65305024,0.69839144,0.41411427,0.4277854,0.7848216,0.57279295,-0.09909341,0.0041882587,0.8507367,0.53630346,-0.17080948,0.12577051,0.47262397,0.200624,-0.468214,-0.1366466,0.08730693,809.0842,803.8461,804.65204,818.7546,628.1685,-0.33026123046875,0.05267333984375,0.96026611328125,-3.132781982421875,9.473114013671875,6.62445068359375,1,2.0,1.0,1.0,2.0,10.00
2024-10-11 20:28:39.939,0.8847501,0.8377996,0.8374254,0.65305024,0.69839144,0.41411427,0.4277854,0.7848216,0.57279295,-0.09909341,0.0041882587,0.8507367,0.53630346,-0.17080948,0.12577051,0.47262397,0.200624,-0.468214,-0.1366466,0.08730693,802.23444,799.81683,807.47253,811.0989,589.0842,-0.33026123046875,0.05267333984375,0.96026611328125,-3.132781982421875,9.473114013671875,6.62445068359375,1,2.0,1.0,1.0,2.0,10.00
2024-10-11 20:28:39.940,0.8847501,0.8377996,0.8374254,0.65305024,0.69839144,0.41411427,0.4277854,0.7848216,0.57279295,-0.09909341,0.0041882587,0.8507367,0.53630346,-0.17080948,0.12577051,0.47262397,0.200624,-0.468214,-0.1366466,0.08730693,800.2198,799.81683,803.0403,806.6667,736.9597,-0.33026123046875,0.05267333984375,0.96026611328125,-3.132781982421875,9.473114013671875,6.62445068359375,1,2.0,1.0,1.0,2.0,10.00
2024-10-11 20:28:40.012,0.8847501,0.8377996,0.8374254,0.65305024,0.69839144,0.41411427,0.4277854,0.7848216,0.57279295,-0.09909341,0.0041882587,0.8507367,0.53630346,-0.17080948,0.12577051,0.47262397,0.200624,-0.468214,-0.1366466,0.08730693,808.2784,801.02563,801.8315,808.68134,801.8315,-0.35638427734375,0.0501708984375,0.94964599609375,-3.506622314453125,9.577789306640625,4.403839111328125,1,2.0,1.0,1.0,2.0,10.00
2024-10-11 20:28:40.013,0.8847501,0.8377996,0.8374254,0.65305024,0.69839144,0.41411427,0.4277854,0.7848216,0.57279295,-0.09909341,0.0041882587,0.8507367,0.53630346,-0.17080948,0.12577051,0.47262397,0.200624,-0.468214,-0.1366466,0.08730693,802.6374,803.44324,795.78754,800.2198,765.56775,-0.35638427734375,0.0501708984375,0.94964599609375,-3.506622314453125,9.577789306640625,4.403839111328125,1,2.0,1.0,1.0,2.0,10.00
2024-10-11 20:28:40.014,0.8847501,0.8377996,0.8374254,0.65305024,0.69839144,0.41411427,0.4277854,0.7848216,0.57279295,-0.09909341,0.0041882587,0.8507367,0.53630346,-0.17080948,0.12577051,0.47262397,0.200624,-0.468214,-0.1366466,0.08730693,801.4286,800.6227,796.5934,790.14655,757.9121,-0.35638427734375,0.0501708984375,0.94964599609375,-3.506622314453125,9.577789306640625,4.403839111328125,1,2.0,1.0,1.0,2.0,10.00
2024-10-11 20:28:40.015,0.8847501,0.8377996,0.8374254,0.65305024,0.69839144,0.41411427,0.4277854,0.7848216,0.57279295,-0.09909341,0.0041882587,0.8507367,0.53630346,-0.17080948,0.12577051,0.47262397,0.200624,-0.468214,-0.1366466,0.08730693,805.4579,796.5934,807.8755,793.7729,918.2784,-0.35638427734375,0.0501708984375,0.94964599609375,-3.506622314453125,9.577789306640625,4.403839111328125,1,2.0,1.0,1.0,2.0,10.00
2024-10-11 20:28:40.016,0.8847501,0.8377996,0.8374254,0.65305024,0.69839144,0.41411427,0.4277854,0.7848216,0.57279295,-0.09909341,0.0041882587,0.8507367,0.53630346,-0.17080948,0.12577051,0.47262397,0.200624,-0.468214,-0.1366466,0.08730693,807.0696,794.9817,803.8461,792.96704,863.47986,-0.35638427734375,0.0501708984375,0.94964599609375,-3.506622314453125,9.577789306640625,4.403839111328125,1,2.0,1.0,1.0,2.0,10.00
2024-10-11 20:28:40.016,0.8847501,0.8377996,0.8374254,0.65305024,0.69839144,0.41411427,0.4277854,0.7848216,0.57279295,-0.09909341,0.0041882587,0.8507367,0.53630346,-0.17080948,0.12577051,0.47262397,0.200624,-0.468214,-0.1366466,0.08730693,808.2784,791.75824,800.6227,793.36993,812.3077,-0.35638427734375,0.0501708984375,0.94964599609375,-3.506622314453125,9.577789306640625,4.403839111328125,1,2.0,1.0,1.0,2.0,10.00
2024-10-11 20:28:40.017,0.8847501,0.8377996,0.8374254,0.65305024,0.69839144,0.41411427,0.4277854,0.7848216,0.57279295,-0.09909341,0.0041882587,0.8507367,0.53630346,-0.17080948,0.12577051,0.47262397,0.200624,-0.468214,-0.1366466,0.08730693,811.0989,796.1905,799.011,797.8022,886.8498,-0.35638427734375,0.0501708984375,0.94964599609375,-3.506622314453125,9.577789306640625,4.403839111328125,1,2.0,1.0,1.0,2.0,10.00
2024-10-11 20:28:40.018,0.8847501,0.8377996,0.8374254,0.65305024,0.69839144,0.41411427,0.4277854,0.7848216,0.57279295,-0.09909341,0.0041882587,0.8507367,0.53630346,-0.17080948,0.12577051,0.47262397,0.200624,-0.468214,-0.1366466,0.08730693,817.9487,800.6227,803.44324,796.5934,872.74725,-0.35638427734375,0.0501708984375,0.94964599609375,-3.506622314453125,9.577789306640625,4.403839111328125,1,2.0,1.0,1.0,2.0,10.00
2024-10-11 20:28:40.019,0.8847501,0.8377996,0.8374254,0.65305024,0.69839144,0.41411427,0.4277854,0.7848216,0.57279295,-0.09909341,0.0041882587,0.8507367,0.53630346,-0.17080948,0.12577051,0.47262397,0.200624,-0.468214,-0.1366466,0.08730693,817.1429,801.02563,806.6667,799.41394,674.10254,-0.35638427734375,0.0501708984375,0.94964599609375,-3.506622314453125,9.577789306640625,4.403839111328125,1,2.0,1.0,1.0,2.0,10.00
2024-10-11 20:28:40.020,0.8847501,0.8377996,0.8374254,0.65305024,0.69839144,0.41411427,0.4277854,0.7848216,0.57279295,-0.09909341,0.0041882587,0.8507367,0.53630346,-0.17080948,0.12577051,0.47262397,0.200624,-0.468214,-0.1366466,0.08730693,809.0842,803.44324,803.44324,805.4579,593.1135,-0.35638427734375,0.0501708984375,0.94964599609375,-3.506622314453125,9.577789306640625,4.403839111328125,1,2.0,1.0,1.0,2.0,10.00
2024-10-11 20:28:40.021,0.8847501,0.8377996,0.8374254,0.65305024,0.69839144,0.41411427,0.4277854,0.7848216,0.57279295,-0.09909341,0.0041882587,0.8507367,0.53630346,-0.17080948,0.12577051,0.47262397,0.200624,-0.468214,-0.1366466,0.08730693,802.23444,799.011,803.8461,803.8461,690.2198,-0.35638427734375,0.0501708984375,0.94964599609375,-3.506622314453125,9.577789306640625,4.403839111328125,1,2.0,1.0,1.0,2.0,10.00
2024-10-11 20:28:40.021,0.8847501,0.8377996,0.8374254,0.65305024,0.69839144,0.41411427,0.4277854,0.7848216,0.57279295,-0.09909341,0.0041882587,0.8507367,0.53630346,-0.17080948,0.12577051,0.47262397,0.200624,-0.468214,-0.1366466,0.08730693,798.20514,793.7729,796.99634,801.4286,815.5311,-0.35638427734375,0.0501708984375,0.94964599609375,-3.506622314453125,9.577789306640625,4.403839111328125,1,2.0,1.0,1.0,2.0,10.00
2024-10-11 20:28:40.096,0.8847501,0.8377996,0.8374254,0.65305024,0.69839144,0.41411427,0.4277854,0.7848216,0.57279295,-0.09909341,0.0041882587,0.8507367,0.53630346,-0.17080948,0.12577051,0.47262397,0.200624,-0.468214,-0.1366466,0.08730693,794.57874,796.1905,790.54944,796.1905,648.71796,-0.35638427734375,0.0501708984375,0.94964599609375,-3.506622314453125,9.577789306640625,4.403839111328125,1,2.0,1.0,1.0,2.0,10.00
2024-10-11 20:28:40.097,0.8847501,0.8377996,0.8374254,0.65305024,0.69839144,0.41411427,0.4277854,0.7848216,0.57279295,-0.09909341,0.0041882587,0.8507367,0.53630346,-0.17080948,0.12577051,0.47262397,0.200624,-0.468214,-0.1366466,0.08730693,796.99634,799.011,802.23444,796.99634,545.16486,-0.35638427734375,0.0501708984375,0.94964599609375,-3.506622314453125,9.577789306640625,4.403839111328125,1,2.0,1.0,1.0,2.0,10.00
2024-10-11 20:28:40.098,0.8847501,0.8377996,0.8374254,0.65305024,0.69839144,0.41411427,0.4277854,0.7848216,0.57279295,-0.09909341,0.0041882587,0.8507367,0.53630346,-0.17080948,0.12577051,0.47262397,0.200624,-0.468214,-0.1366466,0.08730693,798.60803,796.99634,805.4579,801.8315,727.28937,-0.35638427734375,0.0501708984375,0.94964599609375,-3.506622314453125,9.577789306640625,4.403839111328125,1,2.0,1.0,1.0,2.0,10.00
2024-10-11 20:28:40.099,-0.35331142,0.8355194,0.84340036,-0.072701015,0.06458396,0.4093338,0.42960042,0.26560745,0.4390581,-0.09919911,0.0041882587,0.22293909,0.20071627,-0.17420754,0.1327664,0.4389028,-0.16577019,-0.47639093,-0.13862358,-0.08856267,797.3993,795.78754,803.0403,800.6227,927.1429,-0.35638427734375,0.0501708984375,0.94964599609375,-3.506622314453125,9.577789306640625,4.403839111328125,1,2.0,1.0,1.0,2.0,10.00
2024-10-11 20:28:40.105,-0.35331142,0.8355194,0.84340036,-0.072701015,0.06458396,0.4093338,0.42960042,0.26560745,0.4390581,-0.09919911,0.0041882587,0.22293909,0.20071627,-0.17420754,0.1327664,0.4389028,-0.16577019,-0.47639093,-0.13862358,-0.08856267,802.23444,798.60803,810.696,805.05493,847.76556,-0.35638427734375,0.0501708984375,0.94964599609375,-3.506622314453125,9.577789306640625,4.403839111328125,1,2.0,1.0,1.0,2.0,10.00
2024-10-11 20:28:40.106,-0.35331142,0.8355194,0.84340036,-0.072701015,0.06458396,0.4093338,0.42960042,0.26560745,0.4390581,-0.09919911,0.0041882587,0.22293909,0.20071627,-0.17420754,0.1327664,0.4389028,-0.16577019,-0.47639093,-0.13862358,-0.08856267,812.71063,799.011,811.50183,819.9634,761.13556,-0.35638427734375,0.0501708984375,0.94964599609375,-3.506622314453125,9.577789306640625,4.403839111328125,1,2.0,1.0,1.0,2.0,10.00
2024-10-11 20:28:40.106,-0.35331142,0.8355194,0.84340036,-0.072701015,0.06458396,0.4093338,0.42960042,0.26560745,0.4390581,-0.09919911,0.0041882587,0.22293909,0.20071627,-0.17420754,0.1327664,0.4389028,-0.16577019,-0.47639093,-0.13862358,-0.08856267,812.71063,803.0403,804.65204,808.68134,941.2454,-0.35638427734375,0.0501708984375,0.94964599609375,-3.506622314453125,9.577789306640625,4.403839111328125,1,2.0,1.0,1.0,2.0,10.00
2024-10-11 20:28:40.107,-0.35331142,0.8355194,0.84340036,-0.072701015,0.06458396,0.4093338,0.42960042,0.26560745,0.4390581,-0.09919911,0.0041882587,0.22293909,0.20071627,-0.17420754,0.1327664,0.4389028,-0.16577019,-0.47639093,-0.13862358,-0.08856267,808.68134,805.8608,801.8315,794.17584,972.27106,-0.35638427734375,0.0501708984375,0.94964599609375,-3.506622314453125,9.577789306640625,4.403839111328125,1,2.0,1.0,1.0,2.0,10.00
2024-10-11 20:28:40.108,-0.35331142,0.8355194,0.84340036,-0.072701015,0.06458396,0.4093338,0.42960042,0.26560745,0.4390581,-0.09919911,0.0041882587,0.22293909,0.20071627,-0.17420754,0.1327664,0.4389028,-0.16577019,-0.47639093,-0.13862358,-0.08856267,807.47253,803.44324,802.6374,795.78754,782.8938,-0.35638427734375,0.0501708984375,0.94964599609375,-3.506622314453125,9.577789306640625,4.403839111328125,1,2.0,1.0,1.0,2.0,10.00
2024-10-11 20:28:40.109,-0.35331142,0.8355194,0.84340036,-0.072701015,0.06458396,0.4093338,0.42960042,0.26560745,0.4390581,-0.09919911,0.0041882587,0.22293909,0.20071627,-0.17420754,0.1327664,0.4389028,-0.16577019,-0.47639093,-0.13862358,-0.08856267,805.8608,806.26373,803.0403,799.41394,761.9414,-0.35638427734375,0.0501708984375,0.94964599609375,-3.506622314453125,9.577789306640625,4.403839111328125,1,2.0,1.0,1.0,2.0,10.00
2024-10-11 20:28:40.109,-0.35331142,0.8355194,0.84340036,-0.072701015,0.06458396,0.4093338,0.42960042,0.26560745,0.4390581,-0.09919911,0.0041882587,0.22293909,0.20071627,-0.17420754,0.1327664,0.4389028,-0.16577019,-0.47639093,-0.13862358,-0.08856267,809.4872,803.8461,801.02563,809.0842,896.9231,-0.35638427734375,0.0501708984375,0.94964599609375,-3.506622314453125,9.577789306640625,4.403839111328125,1,2.0,1.0,1.0,2.0,10.00
2024-10-11 20:28:40.110,-0.35331142,0.8355194,0.84340036,-0.072701015,0.06458396,0.4093338,0.42960042,0.26560745,0.4390581,-0.09919911,0.0041882587,0.22293909,0.20071627,-0.17420754,0.1327664,0.4389028,-0.16577019,-0.47639093,-0.13862358,-0.08856267,813.5165,799.011,807.0696,809.89014,816.7399,-0.35638427734375,0.0501708984375,0.94964599609375,-3.506622314453125,9.577789306640625,4.403839111328125,1,2.0,1.0,1.0,2.0,10.00
2024-10-11 20:28:40.142,-0.35331142,0.8355194,0.84340036,-0.072701015,0.06458396,0.4093338,0.42960042,0.26560745,0.4390581,-0.09919911,0.0041882587,0.22293909,0.20071627,-0.17420754,0.1327664,0.4389028,-0.16577019,-0.47639093,-0.13862358,-0.08856267,813.91943,802.23444,810.293,807.0696,652.3443,-0.36627197265625,0.04974365234375,0.93255615234375,-2.7813720703125,9.368438720703125,0.052337646484375,1,2.0,1.0,1.0,2.0,10.00
2024-10-11 20:28:40.143,-0.35331142,0.8355194,0.84340036,-0.072701015,0.06458396,0.4093338,0.42960042,0.26560745,0.4390581,-0.09919911,0.0041882587,0.22293909,0.20071627,-0.17420754,0.1327664,0.4389028,-0.16577019,-0.47639093,-0.13862358,-0.08856267,809.0842,800.2198,801.4286,806.26373,692.6374,-0.36627197265625,0.04974365234375,0.93255615234375,-2.7813720703125,9.368438720703125,0.052337646484375,1,2.0,1.0,1.0,2.0,10.00
2024-10-11 20:28:40.143,-0.35331142,0.8355194,0.84340036,-0.072701015,0.06458396,0.4093338,0.42960042,0.26560745,0.4390581,-0.09919911,0.0041882587,0.22293909,0.20071627,-0.17420754,0.1327664,0.4389028,-0.16577019,-0.47639093,-0.13862358,-0.08856267,809.89014,796.99634,801.4286,811.50183,895.7143,-0.36627197265625,0.04974365234375,0.93255615234375,-2.7813720703125,9.368438720703125,0.052337646484375,1,2.0,1.0,1.0,2.0,10.00
2024-10-11 20:28:40.144,-0.35331142,0.8355194,0.84340036,-0.072701015,0.06458396,0.4093338,0.42960042,0.26560745,0.4390581,-0.09919911,0.0041882587,0.22293909,0.20071627,-0.17420754,0.1327664,0.4389028,-0.16577019,-0.47639093,-0.13862358,-0.08856267,809.89014,798.20514,807.47253,811.50183,881.6117,-0.36627197265625,0.04974365234375,0.93255615234375,-2.7813720703125,9.368438720703125,0.052337646484375,1,2.0,1.0,1.0,2.0,10.00
2024-10-11 20:28:40.145,-0.35331142,0.8355194,0.84340036,-0.072701015,0.06458396,0.4093338,0.42960042,0.26560745,0.4390581,-0.09919911,0.0041882587,0.22293909,0.20071627,-0.17420754,0.1327664,0.4389028,-0.16577019,-0.47639093,-0.13862358,-0.08856267,811.50183,801.02563,805.05493,807.8755,687.8022,-0.36627197265625,0.04974365234375,0.93255615234375,-2.7813720703125,9.368438720703125,0.052337646484375,1,2.0,1.0,1.0,2.0,10.00
2024-10-11 20:28:40.146,-0.35331142,0.8355194,0.84340036,-0.072701015,0.06458396,0.4093338,0.42960042,0.26560745,0.4390581,-0.09919911,0.0041882587,0.22293909,0.20071627,-0.17420754,0.1327664,0.4389028,-0.16577019,-0.47639093,-0.13862358,-0.08856267,811.9048,801.8315,805.05493,811.0989,894.5055,-0.36627197265625,0.04974365234375,0.93255615234375,-2.7813720703125,9.368438720703125,0.052337646484375,1,2.0,1.0,1.0,2.0,10.00
2024-10-11 20:28:40.146,-0.35331142,0.8355194,0.84340036,-0.072701015,0.06458396,0.4093338,0.42960042,0.26560745,0.4390581,-0.09919911,0.0041882587,0.22293909,0.20071627,-0.17420754,0.1327664,0.4389028,-0.16577019,-0.47639093,-0.13862358,-0.08856267,806.6667,802.6374,801.8315,814.7253,1224.9084,-0.36627197265625,0.04974365234375,0.93255615234375,-2.7813720703125,9.368438720703125,0.052337646484375,1,2.0,1.0,1.0,2.0,10.00
2024-10-11 20:28:40.147,-0.35331142,0.8355194,0.84340036,-0.072701015,0.06458396,0.4093338,0.42960042,0.26560745,0.4390581,-0.09919911,0.0041882587,0.22293909,0.20071627,-0.17420754,0.1327664,0.4389028,-0.16577019,-0.47639093,-0.13862358,-0.08856267,805.05493,803.44324,797.8022,813.5165,1058.4982,-0.36627197265625,0.04974365234375,0.93255615234375,-2.7813720703125,9.368438720703125,0.052337646484375,1,2.0,1.0,1.0,2.0,10.00
2024-10-11 20:28:40.148,-0.35331142,0.8355194,0.84340036,-0.072701015,0.06458396,0.4093338,0.42960042,0.26560745,0.4390581,-0.09919911,0.0041882587,0.22293909,0.20071627,-0.17420754,0.1327664,0.4389028,-0.16577019,-0.47639093,-0.13862358,-0.08856267,807.47253,805.4579,805.8608,807.47253,803.8461,-0.36627197265625,0.04974365234375,0.93255615234375,-2.7813720703125,9.368438720703125,0.052337646484375,1,2.0,1.0,1.0,2.0,10.00
2024-10-11 20:28:40.149,-0.35331142,0.8355194,0.84340036,-0.072701015,0.06458396,0.4093338,0.42960042,0.26560745,0.4390581,-0.09919911,0.0041882587,0.22293909,0.20071627,-0.17420754,0.1327664,0.4389028,-0.16577019,-0.47639093,-0.13862358,-0.08856267,807.47253,809.0842,807.8755,805.4579,707.9487,-0.36627197265625,0.04974365234375,0.93255615234375,-2.7813720703125,9.368438720703125,0.052337646484375,1,2.0,1.0,1.0,2.0,10.00
2024-10-11 20:28:40.149,-0.35331142,0.8355194,0.84340036,-0.072701015,0.06458396,0.4093338,0.42960042,0.26560745,0.4390581,-0.09919911,0.0041882587,0.22293909,0.20071627,-0.17420754,0.1327664,0.4389028,-0.16577019,-0.47639093,-0.13862358,-0.08856267,805.4579,803.44324,797.8022,809.89014,881.2088,-0.36627197265625,0.04974365234375,0.93255615234375,-2.7813720703125,9.368438720703125,0.052337646484375,1,2.0,1.0,1.0,2.0,10.00
2024-10-11 20:28:40.150,-0.35331142,0.8355194,0.84340036,-0.072701015,0.06458396,0.4093338,0.42960042,0.26560745,0.4390581,-0.09919911,0.0041882587,0.22293909,0.20071627,-0.17420754,0.1327664,0.4389028,-0.16577019,-0.47639093,-0.13862358,-0.08856267,803.0403,797.8022,799.41394,811.0989,811.50183,-0.36627197265625,0.04974365234375,0.93255615234375,-2.7813720703125,9.368438720703125,0.052337646484375,1,2.0,1.0,1.0,2.0,10.00
2024-10-11 20:28:40.152,-0.35331142,0.8355194,0.84340036,-0.072701015,0.06458396,0.4093338,0.42960042,0.26560745,0.4390581,-0.09919911,0.0041882587,0.22293909,0.20071627,-0.17420754,0.1327664,0.4389028,-0.16577019,-0.47639093,-0.13862358,-0.08856267,805.8608,798.60803,804.2491,814.7253,654.7619,-0.38140869140625,0.04718017578125,0.93548583984375,-2.49725341796875,6.691741943359375,-4.508514404296875,1,2.0,1.0,1.0,2.0,10.00
2024-10-11 20:28:40.152,-0.35331142,0.8355194,0.84340036,-0.072701015,0.06458396,0.4093338,0.42960042,0.26560745,0.4390581,-0.09919911,0.0041882587,0.22293909,0.20071627,-0.17420754,0.1327664,0.4389028,-0.16577019,-0.47639093,-0.13862358,-0.08856267,809.89014,794.57874,800.2198,808.2784,704.3223,-0.38140869140625,0.04718017578125,0.93548583984375,-2.49725341796875,6.691741943359375,-4.508514404296875,1,2.0,1.0,1.0,2.0,10.00
2024-10-11 20:28:40.153,-0.35331142,0.8355194,0.84340036,-0.072701015,0.06458396,0.4093338,0.42960042,0.26560745,0.4390581,-0.09919911,0.0041882587,0.22293909,0.20071627,-0.17420754,0.1327664,0.4389028,-0.16577019,-0.47639093,-0.13862358,-0.08856267,809.89014,796.1905,796.5934,800.2198,886.04395,-0.38140869140625,0.04718017578125,0.93548583984375,-2.49725341796875,6.691741943359375,-4.508514404296875,1,2.0,1.0,1.0,2.0,10.00
2024-10-11 20:28:40.154,-0.35331142,0.8355194,0.84340036,-0.072701015,0.06458396,0.4093338,0.42960042,0.26560745,0.4390581,-0.09919911,0.0041882587,0.22293909,0.20071627,-0.17420754,0.1327664,0.4389028,-0.16577019,-0.47639093,-0.13862358,-0.08856267,810.696,807.47253,797.8022,800.6227,785.31134,-0.38140869140625,0.04718017578125,0.93548583984375,-2.49725341796875,6.691741943359375,-4.508514404296875,1,2.0,1.0,1.0,2.0,10.00
2024-10-11 20:28:40.155,-0.35331142,0.8355194,0.84340036,-0.072701015,0.06458396,0.4093338,0.42960042,0.26560745,0.4390581,-0.09919911,0.0041882587,0.22293909,0.20071627,-0.17420754,0.1327664,0.4389028,-0.16577019,-0.47639093,-0.13862358,-0.08856267,807.47253,805.05493,798.60803,804.65204,668.0586,-0.38140869140625,0.04718017578125,0.93548583984375,-2.49725341796875,6.691741943359375,-4.508514404296875,1,2.0,1.0,1.0,2.0,10.00
2024-10-11 20:28:40.156,-0.22480272,0.8258893,0.84311086,-0.10918231,0.10184302,0.39815685,0.41839027,0.2835217,0.4390581,-0.09446152,0.00363531,0.27582115,0.19754545,-0.18214594,0.13342144,0.42653152,-0.18710111,-0.48341066,-0.12892458,-0.09718194,805.4579,801.8315,795.78754,806.26373,882.8205,-0.38140869140625,0.04718017578125,0.93548583984375,-2.49725341796875,6.691741943359375,-4.508514404296875,1,1.0,1.0,1.0,1.0,10.00
2024-10-11 20:28:40.162,-0.22480272,0.8258893,0.84311086,-0.10918231,0.10184302,0.39815685,0.41839027,0.2835217,0.4390581,-0.09446152,0.00363531,0.27582115,0.19754545,-0.18214594,0.13342144,0.42653152,-0.18710111,-0.48341066,-0.12892458,-0.09718194,806.26373,804.2491,793.36993,807.47253,979.12085,-0.38140869140625,0.04718017578125,0.93548583984375,-2.49725341796875,6.691741943359375,-4.508514404296875,1,1.0,1.0,1.0,1.0,10.00
2024-10-11 20:28:40.163,-0.22480272,0.8258893,0.84311086,-0.10918231,0.10184302,0.39815685,0.41839027,0.2835217,0.4390581,-0.09446152,0.00363531,0.27582115,0.19754545,-0.18214594,0.13342144,0.42653152,-0.18710111,-0.48341066,-0.12892458,-0.09718194,806.26373,802.23444,800.2198,803.8461,770.0,-0.38140869140625,0.04718017578125,0.93548583984375,-2.49725341796875,6.691741943359375,-4.508514404296875,1,1.0,1.0,1.0,1.0,10.00
2024-10-11 20:28:40.163,-0.22480272,0.8258893,0.84311086,-0.10918231,0.10184302,0.39815685,0.41839027,0.2835217,0.4390581,-0.09446152,0.00363531,0.27582115,0.19754545,-0.18214594,0.13342144,0.42653152,-0.18710111,-0.48341066,-0.12892458,-0.09718194,802.6374,804.65204,801.4286,799.81683,698.68134,-0.38140869140625,0.04718017578125,0.93548583984375,-2.49725341796875,6.691741943359375,-4.508514404296875,1,1.0,1.0,1.0,1.0,10.00
2024-10-11 20:28:40.164,-0.22480272,0.8258893,0.84311086,-0.10918231,0.10184302,0.39815685,0.41839027,0.2835217,0.4390581,-0.09446152,0.00363531,0.27582115,0.19754545,-0.18214594,0.13342144,0.42653152,-0.18710111,-0.48341066,-0.12892458,-0.09718194,800.6227,804.65204,799.81683,801.4286,928.7546,-0.38140869140625,0.04718017578125,0.93548583984375,-2.49725341796875,6.691741943359375,-4.508514404296875,1,1.0,1.0,1.0,1.0,10.00
2024-10-11 20:28:40.165,-0.22480272,0.8258893,0.84311086,-0.10918231,0.10184302,0.39815685,0.41839027,0.2835217,0.4390581,-0.09446152,0.00363531,0.27582115,0.19754545,-0.18214594,0.13342144,0.42653152,-0.18710111,-0.48341066,-0.12892458,-0.09718194,803.44324,799.81683,802.23444,803.8461,926.337,-0.38140869140625,0.04718017578125,0.93548583984375,-2.49725341796875,6.691741943359375,-4.508514404296875,1,1.0,1.0,1.0,1.0,10.00
2024-10-11 20:28:40.166,-0.22480272,0.8258893,0.84311086,-0.10918231,0.10184302,0.39815685,0.41839027,0.2835217,0.4390581,-0.09446152,0.00363531,0.27582115,0.19754545,-0.18214594,0.13342144,0.42653152,-0.18710111,-0.48341066,-0.12892458,-0.09718194,809.0842,801.02563,803.44324,806.26373,702.71063,-0.38140869140625,0.04718017578125,0.93548583984375,-2.49725341796875,6.691741943359375,-4.508514404296875,1,1.0,1.0,1.0,1.0,10.00
2024-10-11 20:28:40.167,-0.22480272,0.8258893,0.84311086,-0.10918231,0.10184302,0.39815685,0.41839027,0.2835217,0.4390581,-0.09446152,0.00363531,0.27582115,0.19754545,-0.18214594,0.13342144,0.42653152,-0.18710111,-0.48341066,-0.12892458,-0.09718194,811.0989,799.011,799.81683,803.44324,654.35895,-0.38641357421875,0.0380859375,0.928466796875,-1.936492919921875,4.867401123046875,-5.62255859375,1,1.0,1.0,1.0,1.0,10.00
2024-10-11 20:28:40.168,-0.22480272,0.8258893,0.84311086,-0.10918231,0.10184302,0.39815685,0.41839027,0.2835217,0.4390581,-0.09446152,0.00363531,0.27582115,0.19754545,-0.18214594,0.13342144,0.42653152,-0.18710111,-0.48341066,-0.12892458,-0.09718194,805.4579,799.81683,796.1905,799.81683,885.2381,-0.38641357421875,0.0380859375,0.928466796875,-1.936492919921875,4.867401123046875,-5.62255859375,1,1.0,1.0,1.0,1.0,10.00
2024-10-11 20:28:40.169,-0.22480272,0.8258893,0.84311086,-0.10918231,0.10184302,0.39815685,0.41839027,0.2835217,0.4390581,-0.09446152,0.00363531,0.27582115,0.19754545,-0.18214594,0.13342144,0.42653152,-0.18710111,-0.48341066,-0.12892458,-0.09718194,805.05493,807.0696,796.1905,799.41394,879.19415,-0.38641357421875,0.0380859375,0.928466796875,-1.936492919921875,4.867401123046875,-5.62255859375,1,1.0,1.0,1.0,1.0,10.00
2024-10-11 20:28:40.170,-0.22480272,0.8258893,0.84311086,-0.10918231,0.10184302,0.39815685,0.41839027,0.2835217,0.4390581,-0.09446152,0.00363531,0.27582115,0.19754545,-0.18214594,0.13342144,0.42653152,-0.18710111,-0.48341066,-0.12892458,-0.09718194,808.68134,809.89014,804.2491,804.2491,770.0,-0.38641357421875,0.0380859375,0.928466796875,-1.936492919921875,4.867401123046875,-5.62255859375,1,1.0,1.0,1.0,1.0,10.00
2024-10-11 20:28:40.171,-0.22480272,0.8258893,0.84311086,-0.10918231,0.10184302,0.39815685,0.41839027,0.2835217,0.4390581,-0.09446152,0.00363531,0.27582115,0.19754545,-0.18214594,0.13342144,0.42653152,-0.18710111,-0.48341066,-0.12892458,-0.09718194,808.2784,809.0842,802.6374,801.8315,908.60803,-0.38641357421875,0.0380859375,0.928466796875,-1.936492919921875,4.867401123046875,-5.62255859375,1,1.0,1.0,1.0,1.0,10.00
2024-10-11 20:28:40.172,-0.22480272,0.8258893,0.84311086,-0.10918231,0.10184302,0.39815685,0.41839027,0.2835217,0.4390581,-0.09446152,0.00363531,0.27582115,0.19754545,-0.18214594,0.13342144,0.42653152,-0.18710111,-0.48341066,-0.12892458,-0.09718194,802.6374,801.4286,798.20514,795.78754,1079.8535,-0.38641357421875,0.0380859375,0.928466796875,-1.936492919921875,4.867401123046875,-5.62255859375,1,1.0,1.0,1.0,1.0,10.00
2024-10-11 20:28:40.172,-0.22480272,0.8258893,0.84311086,-0.10918231,0.10184302,0.39815685,0.41839027,0.2835217,0.4390581,-0.09446152,0.00363531,0.27582115,0.19754545,-0.18214594,0.13342144,0.42653152,-0.18710111,-0.48341066,-0.12892458,-0.09718194,801.4286,800.2198,809.0842,801.02563,938.8278,-0.38641357421875,0.0380859375,0.928466796875,-1.936492919921875,4.867401123046875,-5.62255859375,1,1.0,1.0,1.0,1.0,10.00
2024-10-11 20:28:40.173,-0.22480272,0.8258893,0.84311086,-0.10918231,0.10184302,0.39815685,0.41839027,0.2835217,0.4390581,-0.09446152,0.00363531,0.27582115,0.19754545,-0.18214594,0.13342144,0.42653152,-0.18710111,-0.48341066,-0.12892458,-0.09718194,805.4579,804.65204,814.7253,808.2784,702.3077,-0.38641357421875,0.0380859375,0.928466796875,-1.936492919921875,4.867401123046875,-5.62255859375,1,1.0,1.0,1.0,1.0,10.00
2024-10-11 20:28:40.174,-0.22480272,0.8258893,0.84311086,-0.10918231,0.10184302,0.39815685,0.41839027,0.2835217,0.4390581,-0.09446152,0.00363531,0.27582115,0.19754545,-0.18214594,0.13342144,0.42653152,-0.18710111,-0.48341066,-0.12892458,-0.09718194,804.2491,803.8461,811.0989,809.0842,772.01465,-0.38641357421875,0.0380859375,0.928466796875,-1.936492919921875,4.867401123046875,-5.62255859375,1,1.0,1.0,1.0,1.0,10.00
2024-10-11 20:28:40.174,-0.22480272,0.8258893,0.84311086,-0.10918231,0.10184302,0.39815685,0.41839027,0.2835217,0.4390581,-0.09446152,0.00363531,0.27582115,0.19754545,-0.18214594,0.13342144,0.42653152,-0.18710111,-0.48341066,-0.12892458,-0.09718194,804.2491,795.38464,802.23444,806.26373,933.5897,-0.38641357421875,0.0380859375,0.928466796875,-1.936492919921875,4.867401123046875,-5.62255859375,1,1.0,1.0,1.0,1.0,10.00
2024-10-11 20:28:40.175,-0.22480272,0.8258893,0.84311086,-0.10918231,0.10184302,0.39815685,0.41839027,0.2835217,0.4390581,-0.09446152,0.00363531,0.27582115,0.19754545,-0.18214594,0.13342144,0.42653152,-0.18710111,-0.48341066,-0.12892458,-0.09718194,806.26373,799.41394,804.65204,806.6667,801.02563,-0.38641357421875,0.0380859375,0.928466796875,-1.936492919921875,4.867401123046875,-5.62255859375,1,1.0,1.0,1.0,1.0,10.00
2024-10-11 20:28:40.176,-0.22480272,0.8258893,0.84311086,-0.10918231,0.10184302,0.39815685,0.41839027,0.2835217,0.4390581,-0.09446152,0.00363531,0.27582115,0.19754545,-0.18214594,0.13342144,0.42653152,-0.18710111,-0.48341066,-0.12892458,-0.09718194,807.8755,807.47253,806.26373,811.9048,591.0989,-0.38641357421875,0.0380859375,0.928466796875,-1.936492919921875,4.867401123046875,-5.62255859375,1,1.0,1.0,1.0,1.0,10.00
2024-10-11 20:28:40.210,-0.22480272,0.8258893,0.84311086,-0.10918231,0.10184302,0.39815685,0.41839027,0.2835217,0.4390581,-0.09446152,0.00363531,0.27582115,0.19754545,-0.18214594,0.13342144,0.42653152,-0.18710111,-0.48341066,-0.12892458,-0.09718194,807.47253,801.8315,802.6374,814.7253,696.26373,-0.40118408203125,0.02880859375,0.9307861328125,-2.4224853515625,4.3963623046875,-3.7982177734375,1,1.0,1.0,1.0,1.0,10.00
2024-10-11 20:28:40.211,-0.22480272,0.8258893,0.84311086,-0.10918231,0.10184302,0.39815685,0.41839027,0.2835217,0.4390581,-0.09446152,0.00363531,0.27582115,0.19754545,-0.18214594,0.13342144,0.42653152,-0.18710111,-0.48341066,-0.12892458,-0.09718194,804.65204,799.81683,799.81683,807.47253,866.30035,-0.40118408203125,0.02880859375,0.9307861328125,-2.4224853515625,4.3963623046875,-3.7982177734375,1,1.0,1.0,1.0,1.0,10.00
2024-10-11 20:28:40.212,-0.22480272,0.8258893,0.84311086,-0.10918231,0.10184302,0.39815685,0.41839027,0.2835217,0.4390581,-0.09446152,0.00363531,0.27582115,0.19754545,-0.18214594,0.13342144,0.42653152,-0.18710111,-0.48341066,-0.12892458,-0.09718194,807.47253,807.8755,799.41394,803.8461,678.1319,-0.40118408203125,0.02880859375,0.9307861328125,-2.4224853515625,4.3963623046875,-3.7982177734375,1,1.0,1.0,1.0,1.0,10.00
2024-10-11 20:28:40.212,-0.22480272,0.8258893,0.84311086,-0.10918231,0.10184302,0.39815685,0.41839027,0.2835217,0.4390581,-0.09446152,0.00363531,0.27582115,0.19754545,-0.18214594,0.13342144,0.42653152,-0.18710111,-0.48341066,-0.12892458,-0.09718194,803.0403,806.26373,808.2784,804.2491,530.65936,-0.40118408203125,0.02880859375,0.9307861328125,-2.4224853515625,4.3963623046875,-3.7982177734375,1,1.0,1.0,1.0,1.0,10.00
2024-10-11 20:28:40.213,-0.22480272,0.8258893,0.84311086,-0.10918231,0.10184302,0.39815685,0.41839027,0.2835217,0.4390581,-0.09446152,0.00363531,0.27582115,0.19754545,-0.18214594,0.13342144,0.42653152,-0.18710111,-0.48341066,-0.12892458,-0.09718194,795.38464,800.6227,804.65204,800.6227,705.12823,-0.40118408203125,0.02880859375,0.9307861328125,-2.4224853515625,4.3963623046875,-3.7982177734375,1,1.0,1.0,1.0,1.0,10.00
2024-10-11 20:28:40.214,-0.22480272,0.8258893,0.84311086,-0.10918231,0.10184302,0.39815685,0.41839027,0.2835217,0.4390581,-0.09446152,0.00363531,0.27582115,0.19754545,-0.18214594,0.13342144,0.42653152,-0.18710111,-0.48341066,-0.12892458,-0.09718194,802.6374,798.20514,805.05493,802.23444,1037.9487,-0.40118408203125,0.02880859375,0.9307861328125,-2.4224853515625,4.3963623046875,-3.7982177734375,1,1.0,1.0,1.0,1.0,10.00
2024-10-11 20:28:40.214,-0.22480272,0.8258893,0.84311086,-0.10918231,0.10184302,0.39815685,0.41839027,0.2835217,0.4390581,-0.09446152,0.00363531,0.27582115,0.19754545,-0.18214594,0.13342144,0.42653152,-0.18710111,-0.48341066,-0.12892458,-0.09718194,801.8315,798.20514,807.0696,802.6374,927.5458,-0.40118408203125,0.02880859375,0.9307861328125,-2.4224853515625,4.3963623046875,-3.7982177734375,1,1.0,1.0,1.0,1.0,10.00
2024-10-11 20:28:40.215,-0.14262626,0.7952674,0.82516354,-0.14138128,0.10334196,0.36310565,0.37983978,0.28036365,0.4390581,-0.083690114,-0.025599645,0.28722927,0.21314004,-0.19422738,0.13174994,0.40807337,-0.2122375,-0.48434246,-0.109982215,-0.103024326,795.38464,795.78754,801.8315,795.78754,734.94507,-0.40118408203125,0.02880859375,0.9307861328125,-2.4224853515625,4.3963623046875,-3.7982177734375,1,1.0,1.0,1.0,1.0,10.00
2024-10-11 20:28:40.222,-0.14262626,0.7952674,0.82516354,-0.14138128,0.10334196,0.36310565,0.37983978,0.28036365,0.4390581,-0.083690114,-0.025599645,0.28722927,0.21314004,-0.19422738,0.13174994,0.40807337,-0.2122375,-0.48434246,-0.109982215,-0.103024326,798.60803,794.57874,800.6227,799.81683,952.52747,-0.40118408203125,0.02880859375,0.9307861328125,-2.4224853515625,4.3963623046875,-3.7982177734375,1,1.0,1.0,1.0,1.0,10.00
2024-10-11 20:28:40.223,-0.14262626,0.7952674,0.82516354,-0.14138128,0.10334196,0.36310565,0.37983978,0.28036365,0.4390581,-0.083690114,-0.025599645,0.28722927,0.21314004,-0.19422738,0.13174994,0.40807337,-0.2122375,-0.48434246,-0.109982215,-0.103024326,800.6227,795.78754,803.8461,813.91943,1239.414,-0.40118408203125,0.02880859375,0.9307861328125,-2.4224853515625,4.3963623046875,-3.7982177734375,1,1.0,1.0,1.0,1.0,10.00
2024-10-11 20:28:40.223,-0.14262626,0.7952674,0.82516354,-0.14138128,0.10334196,0.36310565,0.37983978,0.28036365,0.4390581,-0.083690114,-0.025599645,0.28722927,0.21314004,-0.19422738,0.13174994,0.40807337,-0.2122375,-0.48434246,-0.109982215,-0.103024326,803.0403,795.78754,804.65204,815.5311,1283.3334,-0.40118408203125,0.02880859375,0.9307861328125,-2.4224853515625,4.3963623046875,-3.7982177734375,1,1.0,1.0,1.0,1.0,10.00
2024-10-11 20:28:40.224,-0.14262626,0.7952674,0.82516354,-0.14138128,0.10334196,0.36310565,0.37983978,0.28036365,0.4390581,-0.083690114,-0.025599645,0.28722927,0.21314004,-0.19422738,0.13174994,0.40807337,-0.2122375,-0.48434246,-0.109982215,-0.103024326,802.23444,795.38464,796.99634,809.89014,1171.3187,-0.40118408203125,0.02880859375,0.9307861328125,-2.4224853515625,4.3963623046875,-3.7982177734375,1,1.0,1.0,1.0,1.0,10.00
2024-10-11 20:28:40.225,-0.14262626,0.7952674,0.82516354,-0.14138128,0.10334196,0.36310565,0.37983978,0.28036365,0.4390581,-0.083690114,-0.025599645,0.28722927,0.21314004,-0.19422738,0.13174994,0.40807337,-0.2122375,-0.48434246,-0.109982215,-0.103024326,801.02563,796.99634,798.60803,808.68134,816.7399,-0.40118408203125,0.02880859375,0.9307861328125,-2.4224853515625,4.3963623046875,-3.7982177734375,1,1.0,1.0,1.0,1.0,10.00
2024-10-11 20:28:40.226,-0.14262626,0.7952674,0.82516354,-0.14138128,0.10334196,0.36310565,0.37983978,0.28036365,0.4390581,-0.083690114,-0.025599645,0.28722927,0.21314004,-0.19422738,0.13174994,0.40807337,-0.2122375,-0.48434246,-0.109982215,-0.103024326,802.23444,799.81683,803.0403,805.8608,638.6447,-0.40118408203125,0.02880859375,0.9307861328125,-2.4224853515625,4.3963623046875,-3.7982177734375,1,1.0,1.0,1.0,1.0,10.00
2024-10-11 20:28:40.226,-0.14262626,0.7952674,0.82516354,-0.14138128,0.10334196,0.36310565,0.37983978,0.28036365,0.4390581,-0.083690114,-0.025599645,0.28722927,0.21314004,-0.19422738,0.13174994,0.40807337,-0.2122375,-0.48434246,-0.109982215,-0.103024326,801.4286,799.81683,801.8315,805.8608,549.19415,-0.40118408203125,0.02880859375,0.9307861328125,-2.4224853515625,4.3963623046875,-3.7982177734375,1,1.0,1.0,1.0,1.0,10.00
2024-10-11 20:28:40.227,-0.14262626,0.7952674,0.82516354,-0.14138128,0.10334196,0.36310565,0.37983978,0.28036365,0.4390581,-0.083690114,-0.025599645,0.28722927,0.21314004,-0.19422738,0.13174994,0.40807337,-0.2122375,-0.48434246,-0.109982215,-0.103024326,803.8461,796.5934,802.23444,803.0403,513.3333,-0.40118408203125,0.02880859375,0.9307861328125,-2.4224853515625,4.3963623046875,-3.7982177734375,1,1.0,1.0,1.0,1.0,10.00
2024-10-11 20:28:40.228,-0.14262626,0.7952674,0.82516354,-0.14138128,0.10334196,0.36310565,0.37983978,0.28036365,0.4390581,-0.083690114,-0.025599645,0.28722927,0.21314004,-0.19422738,0.13174994,0.40807337,-0.2122375,-0.48434246,-0.109982215,-0.103024326,804.65204,799.81683,801.8315,798.60803,634.21246,-0.40118408203125,0.02880859375,0.9307861328125,-2.4224853515625,4.3963623046875,-3.7982177734375,1,1.0,1.0,1.0,1.0,10.00
2024-10-11 20:28:40.228,-0.14262626,0.7952674,0.82516354,-0.14138128,0.10334196,0.36310565,0.37983978,0.28036365,0.4390581,-0.083690114,-0.025599645,0.28722927,0.21314004,-0.19422738,0.13174994,0.40807337,-0.2122375,-0.48434246,-0.109982215,-0.103024326,803.0403,804.2491,803.8461,799.41394,676.1172,-0.40118408203125,0.02880859375,0.9307861328125,-2.4224853515625,4.3963623046875,-3.7982177734375,1,1.0,1.0,1.0,1.0,10.00
2024-10-11 20:28:40.229,-0.14262626,0.7952674,0.82516354,-0.14138128,0.10334196,0.36310565,0.37983978,0.28036365,0.4390581,-0.083690114,-0.025599645,0.28722927,0.21314004,-0.19422738,0.13174994,0.40807337,-0.2122375,-0.48434246,-0.109982215,-0.103024326,800.2198,804.2491,803.44324,799.011,724.4689,-0.40118408203125,0.02880859375,0.9307861328125,-2.4224853515625,4.3963623046875,-3.7982177734375,1,1.0,1.0,1.0,1.0,10.00
2024-10-11 20:28:40.230,-0.14262626,0.7952674,0.82516354,-0.14138128,0.10334196,0.36310565,0.37983978,0.28036365,0.4390581,-0.083690114,-0.025599645,0.28722927,0.21314004,-0.19422738,0.13174994,0.40807337,-0.2122375,-0.48434246,-0.109982215,-0.103024326,797.8022,804.65204,799.81683,801.02563,664.83514,-0.40118408203125,0.02880859375,0.9307861328125,-2.4224853515625,4.3963623046875,-3.7982177734375,1,1.0,1.0,1.0,1.0,10.00
2024-10-11 20:28:40.230,-0.14262626,0.7952674,0.82516354,-0.14138128,0.10334196,0.36310565,0.37983978,0.28036365,0.4390581,-0.083690114,-0.025599645,0.28722927,0.21314004,-0.19422738,0.13174994,0.40807337,-0.2122375,-0.48434246,-0.109982215,-0.103024326,798.60803,801.8315,793.36993,809.4872,859.85345,-0.40118408203125,0.02880859375,0.9307861328125,-2.4224853515625,4.3963623046875,-3.7982177734375,1,1.0,1.0,1.0,1.0,10.00
2024-10-11 20:28:40.231,-0.14262626,0.7952674,0.82516354,-0.14138128,0.10334196,0.36310565,0.37983978,0.28036365,0.4390581,-0.083690114,-0.025599645,0.28722927,0.21314004,-0.19422738,0.13174994,0.40807337,-0.2122375,-0.48434246,-0.109982215,-0.103024326,799.011,803.8461,801.02563,809.0842,866.7033,-0.40118408203125,0.02880859375,0.9307861328125,-2.4224853515625,4.3963623046875,-3.7982177734375,1,1.0,1.0,1.0,1.0,10.00
2024-10-11 20:28:40.232,-0.14262626,0.7952674,0.82516354,-0.14138128,0.10334196,0.36310565,0.37983978,0.28036365,0.4390581,-0.083690114,-0.025599645,0.28722927,0.21314004,-0.19422738,0.13174994,0.40807337,-0.2122375,-0.48434246,-0.109982215,-0.103024326,801.8315,804.65204,809.89014,800.6227,626.1539,-0.40118408203125,0.02880859375,0.9307861328125,-2.4224853515625,4.3963623046875,-3.7982177734375,1,1.0,1.0,1.0,1.0,10.00
2024-10-11 20:28:40.233,-0.14262626,0.7952674,0.82516354,-0.14138128,0.10334196,0.36310565,0.37983978,0.28036365,0.4390581,-0.083690114,-0.025599645,0.28722927,0.21314004,-0.19422738,0.13174994,0.40807337,-0.2122375,-0.48434246,-0.109982215,-0.103024326,803.44324,799.011,803.8461,797.3993,692.6374,-0.40118408203125,0.02880859375,0.9307861328125,-2.4224853515625,4.3963623046875,-3.7982177734375,1,1.0,1.0,1.0,1.0,10.00
2024-10-11 20:28:40.300,-0.14262626,0.7952674,0.82516354,-0.14138128,0.10334196,0.36310565,0.37983978,0.28036365,0.4390581,-0.083690114,-0.025599645,0.28722927,0.21314004,-0.19422738,0.13174994,0.40807337,-0.2122375,-0.48434246,-0.109982215,-0.103024326,805.8608,792.5641,805.4579,805.8608,899.7436,-0.40899658203125,0.02764892578125,0.932861328125,-1.353302001953125,2.878570556640625,-2.13836669921875,1,1.0,1.0,1.0,1.0,10.00
2024-10-11 20:28:40.301,-0.14262626,0.7952674,0.82516354,-0.14138128,0.10334196,0.36310565,0.37983978,0.28036365,0.4390581,-0.083690114,-0.025599645,0.28722927,0.21314004,-0.19422738,0.13174994,0.40807337,-0.2122375,-0.48434246,-0.109982215,-0.103024326,807.0696,796.99634,804.65204,806.26373,776.04395,-0.40899658203125,0.02764892578125,0.932861328125,-1.353302001953125,2.878570556640625,-2.13836669921875,1,1.0,1.0,1.0,1.0,10.00
2024-10-11 20:28:40.302,-0.14262626,0.7952674,0.82516354,-0.14138128,0.10334196,0.36310565,0.37983978,0.28036365,0.4390581,-0.083690114,-0.025599645,0.28722927,0.21314004,-0.19422738,0.13174994,0.40807337,-0.2122375,-0.48434246,-0.109982215,-0.103024326,802.23444,796.99634,799.41394,798.60803,675.31134,-0.40899658203125,0.02764892578125,0.932861328125,-1.353302001953125,2.878570556640625,-2.13836669921875,1,1.0,1.0,1.0,1.0,10.00
2024-10-11 20:28:40.303,-0.14262626,0.7952674,0.82516354,-0.14138128,0.10334196,0.36310565,0.37983978,0.28036365,0.4390581,-0.083690114,-0.025599645,0.28722927,0.21314004,-0.19422738,0.13174994,0.40807337,-0.2122375,-0.48434246,-0.109982215,-0.103024326,804.65204,792.96704,797.3993,803.44324,728.0952,-0.40899658203125,0.02764892578125,0.932861328125,-1.353302001953125,2.878570556640625,-2.13836669921875,1,1.0,1.0,1.0,1.0,10.00
2024-10-11 20:28:40.304,-0.14262626,0.7952674,0.82516354,-0.14138128,0.10334196,0.36310565,0.37983978,0.28036365,0.4390581,-0.083690114,-0.025599645,0.28722927,0.21314004,-0.19422738,0.13174994,0.40807337,-0.2122375,-0.48434246,-0.109982215,-0.103024326,805.4579,798.20514,791.75824,804.65204,757.9121,-0.40899658203125,0.02764892578125,0.932861328125,-1.353302001953125,2.878570556640625,-2.13836669921875,1,1.0,1.0,1.0,1.0,10.00
2024-10-11 20:28:40.304,-0.14262626,0.7952674,0.82516354,-0.14138128,0.10334196,0.36310565,0.37983978,0.28036365,0.4390581,-0.083690114,-0.025599645,0.28722927,0.21314004,-0.19422738,0.13174994,0.40807337,-0.2122375,-0.48434246,-0.109982215,-0.103024326,805.4579,801.8315,795.38464,807.8755,869.5238,-0.40899658203125,0.02764892578125,0.932861328125,-1.353302001953125,2.878570556640625,-2.13836669921875,1,1.0,1.0,1.0,1.0,10.00
2024-10-11 20:28:40.306,-0.14262626,0.7952674,0.82516354,-0.14138128,0.10334196,0.36310565,0.37983978,0.28036365,0.4390581,-0.083690114,-0.025599645,0.28722927,0.21314004,-0.19422738,0.13174994,0.40807337,-0.2122375,-0.48434246,-0.109982215,-0.103024326,802.23444,803.44324,803.0403,811.9048,868.71796,-0.40899658203125,0.02764892578125,0.932861328125,-1.353302001953125,2.878570556640625,-2.13836669921875,1,1.0,1.0,1.0,1.0,10.00
2024-10-11 20:28:40.306,-0.14262626,0.7952674,0.82516354,-0.14138128,0.10334196,0.36310565,0.37983978,0.28036365,0.4390581,-0.083690114,-0.025599645,0.28722927,0.21314004,-0.19422738,0.13174994,0.40807337,-0.2122375,-0.48434246,-0.109982215,-0.103024326,799.41394,804.2491,807.0696,817.1429,966.2271,-0.40899658203125,0.02764892578125,0.932861328125,-1.353302001953125,2.878570556640625,-2.13836669921875,1,1.0,1.0,1.0,1.0,10.00
2024-10-11 20:28:40.307,-0.14262626,0.7952674,0.82516354,-0.14138128,0.10334196,0.36310565,0.37983978,0.28036365,0.4390581,-0.083690114,-0.025599645,0.28722927,0.21314004,-0.19422738,0.13174994,0.40807337,-0.2122375,-0.48434246,-0.109982215,-0.103024326,803.44324,802.23444,808.68134,818.3516,1213.2234,-0.40899658203125,0.02764892578125,0.932861328125,-1.353302001953125,2.878570556640625,-2.13836669921875,1,1.0,1.0,1.0,1.0,10.00
2024-10-11 20:28:40.308,-0.10755497,0.7234089,0.77444327,-0.1681169,0.080617316,0.2810546,0.29836202,0.27530625,0.4390581,-0.09021464,-0.09083125,0.3014446,0.24487354,-0.2060913,0.13083938,0.39651424,-0.23545475,-0.479134,-0.09174054,-0.09972958,800.6227,799.81683,808.2784,814.3223,909.81683,-0.40899658203125,0.02764892578125,0.932861328125,-1.353302001953125,2.878570556640625,-2.13836669921875,1,1.0,1.0,1.0,1.0,10.00
2024-10-11 20:28:40.314,-0.10755497,0.7234089,0.77444327,-0.1681169,0.080617316,0.2810546,0.29836202,0.27530625,0.4390581,-0.09021464,-0.09083125,0.3014446,0.24487354,-0.2060913,0.13083938,0.39651424,-0.23545475,-0.479134,-0.09174054,-0.09972958,797.8022,801.4286,806.6667,811.50183,664.0293,-0.40899658203125,0.02764892578125,0.932861328125,-1.353302001953125,2.878570556640625,-2.13836669921875,1,1.0,1.0,1.0,1.0,10.00
2024-10-11 20:28:40.315,-0.10755497,0.7234089,0.77444327,-0.1681169,0.080617316,0.2810546,0.29836202,0.27530625,0.4390581,-0.09021464,-0.09083125,0.3014446,0.24487354,-0.2060913,0.13083938,0.39651424,-0.23545475,-0.479134,-0.09174054,-0.09972958,799.81683,800.6227,804.65204,809.4872,742.6007,-0.40899658203125,0.02764892578125,0.932861328125,-1.353302001953125,2.878570556640625,-2.13836669921875,1,1.0,1.0,1.0,1.0,10.00
2024-10-11 20:28:40.316,-0.10755497,0.7234089,0.77444327,-0.1681169,0.080617316,0.2810546,0.29836202,0.27530625,0.4390581,-0.09021464,-0.09083125,0.3014446,0.24487354,-0.2060913,0.13083938,0.39651424,-0.23545475,-0.479134,-0.09174054,-0.09972958,803.0403,795.38464,802.6374,807.47253,731.31866,-0.412353515625,0.021240234375,0.9222412109375,-1.51031494140625,0.291595458984375,-2.400054931640625,1,1.0,1.0,1.0,1.0,10.00
2024-10-11 20:28:40.317,-0.10755497,0.7234089,0.77444327,-0.1681169,0.080617316,0.2810546,0.29836202,0.27530625,0.4390581,-0.09021464,-0.09083125,0.3014446,0.24487354,-0.2060913,0.13083938,0.39651424,-0.23545475,-0.479134,-0.09174054,-0.09972958,804.2491,795.38464,793.7729,808.2784,662.4176,-0.412353515625,0.021240234375,0.9222412109375,-1.51031494140625,0.291595458984375,-2.400054931640625,1,1.0,1.0,1.0,1.0,10.00
2024-10-11 20:28:40.318,-0.10755497,0.7234089,0.77444327,-0.1681169,0.080617316,0.2810546,0.29836202,0.27530625,0.4390581,-0.09021464,-0.09083125,0.3014446,0.24487354,-0.2060913,0.13083938,0.39651424,-0.23545475,-0.479134,-0.09174054,-0.09972958,802.6374,799.011,795.38464,809.0842,705.9341,-0.412353515625,0.021240234375,0.9222412109375,-1.51031494140625,0.291595458984375,-2.400054931640625,1,1.0,1.0,1.0,1.0,10.00
2024-10-11 20:28:40.319,-0.10755497,0.7234089,0.77444327,-0.1681169,0.080617316,0.2810546,0.29836202,0.27530625,0.4390581,-0.09021464,-0.09083125,0.3014446,0.24487354,-0.2060913,0.13083938,0.39651424,-0.23545475,-0.479134,-0.09174054,-0.09972958,803.44324,796.5934,805.8608,808.2784,777.25275,-0.412353515625,0.021240234375,0.9222412109375,-1.51031494140625,0.291595458984375,-2.400054931640625,1,1.0,1.0,1.0,1.0,10.00
2024-10-11 20:28:40.320,-0.10755497,0.7234089,0.77444327,-0.1681169,0.080617316,0.2810546,0.29836202,0.27530625,0.4390581,-0.09021464,-0.09083125,0.3014446,0.24487354,-0.2060913,0.13083938,0.39651424,-0.23545475,-0.479134,-0.09174054,-0.09972958,802.23444,795.38464,808.68134,808.68134,709.5604,-0.412353515625,0.021240234375,0.9222412109375,-1.51031494140625,0.291595458984375,-2.400054931640625,1,1.0,1.0,1.0,1.0,10.00
2024-10-11 20:28:40.322,-0.10755497,0.7234089,0.77444327,-0.1681169,0.080617316,0.2810546,0.29836202,0.27530625,0.4390581,-0.09021464,-0.09083125,0.3014446,0.24487354,-0.2060913,0.13083938,0.39651424,-0.23545475,-0.479134,-0.09174054,-0.09972958,801.02563,792.96704,809.4872,806.6667,765.16486,-0.412353515625,0.021240234375,0.9222412109375,-1.51031494140625,0.291595458984375,-2.400054931640625,1,1.0,1.0,1.0,1.0,10.00
2024-10-11 20:28:40.323,-0.10755497,0.7234089,0.77444327,-0.1681169,0.080617316,0.2810546,0.29836202,0.27530625,0.4390581,-0.09021464,-0.09083125,0.3014446,0.24487354,-0.2060913,0.13083938,0.39651424,-0.23545475,-0.479134,-0.09174054,-0.09972958,796.99634,792.1612,805.05493,805.4579,981.53845,-0.412353515625,0.021240234375,0.9222412109375,-1.51031494140625,0.291595458984375,-2.400054931640625,1,1.0,1.0,1.0,1.0,10.00
2024-10-11 20:28:40.324,-0.10755497,0.7234089,0.77444327,-0.1681169,0.080617316,0.2810546,0.29836202,0.27530625,0.4390581,-0.09021464,-0.09083125,0.3014446,0.24487354,-0.2060913,0.13083938,0.39651424,-0.23545475,-0.479134,-0.09174054,-0.09972958,796.5934,793.7729,804.65204,811.0989,1074.2124,-0.412353515625,0.021240234375,0.9222412109375,-1.51031494140625,0.291595458984375,-2.400054931640625,1,1.0,1.0,1.0,1.0,10.00
2024-10-11 20:28:40.325,-0.10755497,0.7234089,0.77444327,-0.1681169,0.080617316,0.2810546,0.29836202,0.27530625,0.4390581,-0.09021464,-0.09083125,0.3014446,0.24487354,-0.2060913,0.13083938,0.39651424,-0.23545475,-0.479134,-0.09174054,-0.09972958,798.20514,792.96704,803.44324,810.293,930.3663,-0.412353515625,0.021240234375,0.9222412109375,-1.51031494140625,0.291595458984375,-2.400054931640625,1,1.0,1.0,1.0,1.0,10.00
2024-10-11 20:28:40.325,-0.10755497,0.7234089,0.77444327,-0.1681169,0.080617316,0.2810546,0.29836202,0.27530625,0.4390581,-0.09021464,-0.09083125,0.3014446,0.24487354,-0.2060913,0.13083938,0.39651424,-0.23545475,-0.479134,-0.09174054,-0.09972958,803.0403,796.99634,796.99634,807.47253,767.1795,-0.412353515625,0.021240234375,0.9222412109375,-1.51031494140625,0.291595458984375,-2.400054931640625,1,1.0,1.0,1.0,1.0,10.00
2024-10-11 20:28:40.326,-0.10755497,0.7234089,0.77444327,-0.1681169,0.080617316,0.2810546,0.29836202,0.27530625,0.4390581,-0.09021464,-0.09083125,0.3014446,0.24487354,-0.2060913,0.13083938,0.39651424,-0.23545475,-0.479134,-0.09174054,-0.09972958,800.2198,798.20514,803.44324,805.8608,807.0696,-0.412353515625,0.021240234375,0.9222412109375,-1.51031494140625,0.291595458984375,-2.400054931640625,1,1.0,1.0,1.0,1.0,10.00
2024-10-11 20:28:40.327,-0.10755497,0.7234089,0.77444327,-0.1681169,0.080617316,0.2810546,0.29836202,0.27530625,0.4390581,-0.09021464,-0.09083125,0.3014446,0.24487354,-0.2060913,0.13083938,0.39651424,-0.23545475,-0.479134,-0.09174054,-0.09972958,796.99634,794.17584,809.4872,807.0696,904.9817,-0.412353515625,0.021240234375,0.9222412109375,-1.51031494140625,0.291595458984375,-2.400054931640625,1,1.0,1.0,1.0,1.0,10.00
2024-10-11 20:28:40.364,-0.10755497,0.7234089,0.77444327,-0.1681169,0.080617316,0.2810546,0.29836202,0.27530625,0.4390581,-0.09021464,-0.09083125,0.3014446,0.24487354,-0.2060913,0.13083938,0.39651424,-0.23545475,-0.479134,-0.09174054,-0.09972958,797.8022,792.96704,804.2491,803.44324,820.3663,-0.407470703125,0.01409912109375,0.9163818359375,-2.400054931640625,0.9271240234375,-2.19818115234375,1,1.0,1.0,1.0,1.0,10.00
2024-10-11 20:28:40.365,-0.10755497,0.7234089,0.77444327,-0.1681169,0.080617316,0.2810546,0.29836202,0.27530625,0.4390581,-0.09021464,-0.09083125,0.3014446,0.24487354,-0.2060913,0.13083938,0.39651424,-0.23545475,-0.479134,-0.09174054,-0.09972958,796.1905,792.1612,799.81683,796.5934,714.7985,-0.407470703125,0.01409912109375,0.9163818359375,-2.400054931640625,0.9271240234375,-2.19818115234375,1,1.0,1.0,1.0,1.0,10.00
2024-10-11 20:28:40.366,-0.10755497,0.7234089,0.77444327,-0.1681169,0.080617316,0.2810546,0.29836202,0.27530625,0.4390581,-0.09021464,-0.09083125,0.3014446,0.24487354,-0.2060913,0.13083938,0.39651424,-0.23545475,-0.479134,-0.09174054,-0.09972958,795.78754,791.75824,805.05493,803.8461,791.3553,-0.407470703125,0.01409912109375,0.9163818359375,-2.400054931640625,0.9271240234375,-2.19818115234375,1,1.0,1.0,1.0,1.0,10.00
2024-10-11 20:28:40.366,-0.10755497,0.7234089,0.77444327,-0.1681169,0.080617316,0.2810546,0.29836202,0.27530625,0.4390581,-0.09021464,-0.09083125,0.3014446,0.24487354,-0.2060913,0.13083938,0.39651424,-0.23545475,-0.479134,-0.09174054,-0.09972958,793.7729,795.78754,799.81683,811.0989,909.81683,-0.407470703125,0.01409912109375,0.9163818359375,-2.400054931640625,0.9271240234375,-2.19818115234375,1,1.0,1.0,1.0,1.0,10.00
2024-10-11 20:28:40.368,-0.10755497,0.7234089,0.77444327,-0.1681169,0.080617316,0.2810546,0.29836202,0.27530625,0.4390581,-0.09021464,-0.09083125,0.3014446,0.24487354,-0.2060913,0.13083938,0.39651424,-0.23545475,-0.479134,-0.09174054,-0.09972958,793.7729,797.8022,794.9817,803.0403,770.40295,-0.407470703125,0.01409912109375,0.9163818359375,-2.400054931640625,0.9271240234375,-2.19818115234375,1,1.0,1.0,1.0,1.0,10.00
2024-10-11 20:28:40.369,-0.10755497,0.7234089,0.77444327,-0.1681169,0.080617316,0.2810546,0.29836202,0.27530625,0.4390581,-0.09021464,-0.09083125,0.3014446,0.24487354,-0.2060913,0.13083938,0.39651424,-0.23545475,-0.479134,-0.09174054,-0.09972958,796.1905,796.99634,801.02563,792.5641,777.6557,-0.407470703125,0.01409912109375,0.9163818359375,-2.400054931640625,0.9271240234375,-2.19818115234375,1,1.0,1.0,1.0,1.0,10.00
2024-10-11 20:28:40.370,-0.10755497,0.7234089,0.77444327,-0.1681169,0.080617316,0.2810546,0.29836202,0.27530625,0.4390581,-0.09021464,-0.09083125,0.3014446,0.24487354,-0.2060913,0.13083938,0.39651424,-0.23545475,-0.479134,-0.09174054,-0.09972958,791.3553,797.8022,799.41394,793.36993,902.5641,-0.407470703125,0.01409912109375,0.9163818359375,-2.400054931640625,0.9271240234375,-2.19818115234375,1,1.0,1.0,1.0,1.0,10.00
2024-10-11 20:28:40.371,-0.10755497,0.7234089,0.77444327,-0.1681169,0.080617316,0.2810546,0.29836202,0.27530625,0.4390581,-0.09021464,-0.09083125,0.3014446,0.24487354,-0.2060913,0.13083938,0.39651424,-0.23545475,-0.479134,-0.09174054,-0.09972958,794.57874,795.78754,799.41394,804.65204,1188.6447,-0.407470703125,0.01409912109375,0.9163818359375,-2.400054931640625,0.9271240234375,-2.19818115234375,1,1.0,1.0,1.0,1.0,10.00
2024-10-11 20:28:40.372,-0.10755497,0.7234089,0.77444327,-0.1681169,0.080617316,0.2810546,0.29836202,0.27530625,0.4390581,-0.09021464,-0.09083125,0.3014446,0.24487354,-0.2060913,0.13083938,0.39651424,-0.23545475,-0.479134,-0.09174054,-0.09972958,797.8022,802.23444,797.3993,803.44324,1038.7546,-0.407470703125,0.01409912109375,0.9163818359375,-2.400054931640625,0.9271240234375,-2.19818115234375,1,1.0,1.0,1.0,1.0,10.00
2024-10-11 20:28:40.373,-0.10755497,0.7234089,0.77444327,-0.1681169,0.080617316,0.2810546,0.29836202,0.27530625,0.4390581,-0.09021464,-0.09083125,0.3014446,0.24487354,-0.2060913,0.13083938,0.39651424,-0.23545475,-0.479134,-0.09174054,-0.09972958,792.1612,805.4579,798.20514,798.60803,705.9341,-0.407470703125,0.01409912109375,0.9163818359375,-2.400054931640625,0.9271240234375,-2.19818115234375,1,1.0,1.0,1.0,1.0,10.00
2024-10-11 20:28:40.374,-0.10755497,0.7234089,0.77444327,-0.1681169,0.080617316,0.2810546,0.29836202,0.27530625,0.4390581,-0.09021464,-0.09083125,0.3014446,0.24487354,-0.2060913,0.13083938,0.39651424,-0.23545475,-0.479134,-0.09174054,-0.09972958,791.3553,799.011,806.26373,796.99634,735.7509,-0.407470703125,0.01409912109375,0.9163818359375,-2.400054931640625,0.9271240234375,-2.19818115234375,1,1.0,1.0,1.0,1.0,10.00
2024-10-11 20:28:40.374,-0.08316147,0.58851975,0.6787866,-0.19333881,0.049465735,0.1387273,0.17041983,0.27750188,0.44466764,-0.11551008,-0.13368401,0.30979875,0.2764692,-0.20956707,0.13059732,0.392825,-0.25728163,-0.47491866,-0.08464309,-0.089456566,793.7729,796.1905,805.8608,792.96704,774.43225,-0.407470703125,0.01409912109375,0.9163818359375,-2.400054931640625,0.9271240234375,-2.19818115234375,1,1.0,1.0,1.0,1.0,10.00
2024-10-11 20:28:40.416,-0.08316147,0.58851975,0.6787866,-0.19333881,0.049465735,0.1387273,0.17041983,0.27750188,0.44466764,-0.11551008,-0.13368401,0.30979875,0.2764692,-0.20956707,0.13059732,0.392825,-0.25728163,-0.47491866,-0.08464309,-0.089456566,798.20514,799.011,800.2198,792.5641,715.2015,-0.40435791015625,0.008544921875,0.91754150390625,-2.332763671875,-0.157012939453125,-1.256103515625,1,1.0,1.0,1.0,1.0,10.00
2024-10-11 20:28:40.418,-0.08316147,0.58851975,0.6787866,-0.19333881,0.049465735,0.1387273,0.17041983,0.27750188,0.44466764,-0.11551008,-0.13368401,0.30979875,0.2764692,-0.20956707,0.13059732,0.392825,-0.25728163,-0.47491866,-0.08464309,-0.089456566,796.1905,801.4286,794.17584,796.5934,679.7436,-0.40435791015625,0.008544921875,0.91754150390625,-2.332763671875,-0.157012939453125,-1.256103515625,1,1.0,1.0,1.0,1.0,10.00
2024-10-11 20:28:40.419,-0.08316147,0.58851975,0.6787866,-0.19333881,0.049465735,0.1387273,0.17041983,0.27750188,0.44466764,-0.11551008,-0.13368401,0.30979875,0.2764692,-0.20956707,0.13059732,0.392825,-0.25728163,-0.47491866,-0.08464309,-0.089456566,795.38464,791.75824,792.1612,797.8022,827.619,-0.40435791015625,0.008544921875,0.91754150390625,-2.332763671875,-0.157012939453125,-1.256103515625,1,1.0,1.0,1.0,1.0,10.00
2024-10-11 20:28:40.419,-0.08316147,0.58851975,0.6787866,-0.19333881,0.049465735,0.1387273,0.17041983,0.27750188,0.44466764,-0.11551008,-0.13368401,0.30979875,0.2764692,-0.20956707,0.13059732,0.392825,-0.25728163,-0.47491866,-0.08464309,-0.089456566,796.5934,790.54944,793.36993,798.20514,790.54944,-0.40435791015625,0.008544921875,0.91754150390625,-2.332763671875,-0.157012939453125,-1.256103515625,1,1.0,1.0,1.0,1.0,10.00
2024-10-11 20:28:40.420,-0.08316147,0.58851975,0.6787866,-0.19333881,0.049465735,0.1387273,0.17041983,0.27750188,0.44466764,-0.11551008,-0.13368401,0.30979875,0.2764692,-0.20956707,0.13059732,0.392825,-0.25728163,-0.47491866,-0.08464309,-0.089456566,797.3993,792.96704,797.3993,795.78754,681.3553,-0.40435791015625,0.008544921875,0.91754150390625,-2.332763671875,-0.157012939453125,-1.256103515625,1,1.0,1.0,1.0,1.0,10.00
2024-10-11 20:28:40.421,-0.08316147,0.58851975,0.6787866,-0.19333881,0.049465735,0.1387273,0.17041983,0.27750188,0.44466764,-0.11551008,-0.13368401,0.30979875,0.2764692,-0.20956707,0.13059732,0.392825,-0.25728163,-0.47491866,-0.08464309,-0.089456566,802.23444,791.75824,801.4286,794.57874,788.93774,-0.40435791015625,0.008544921875,0.91754150390625,-2.332763671875,-0.157012939453125,-1.256103515625,1,1.0,1.0,1.0,1.0,10.00
2024-10-11 20:28:40.422,-0.08316147,0.58851975,0.6787866,-0.19333881,0.049465735,0.1387273,0.17041983,0.27750188,0.44466764,-0.11551008,-0.13368401,0.30979875,0.2764692,-0.20956707,0.13059732,0.392825,-0.25728163,-0.47491866,-0.08464309,-0.089456566,797.8022,796.1905,788.5348,793.36993,1016.5934,-0.40435791015625,0.008544921875,0.91754150390625,-2.332763671875,-0.157012939453125,-1.256103515625,1,1.0,1.0,1.0,1.0,10.00
2024-10-11 20:28:40.423,-0.08316147,0.58851975,0.6787866,-0.19333881,0.049465735,0.1387273,0.17041983,0.27750188,0.44466764,-0.11551008,-0.13368401,0.30979875,0.2764692,-0.20956707,0.13059732,0.392825,-0.25728163,-0.47491866,-0.08464309,-0.089456566,792.96704,799.81683,795.38464,793.36993,840.9158,-0.40435791015625,0.008544921875,0.91754150390625,-2.332763671875,-0.157012939453125,-1.256103515625,1,1.0,1.0,1.0,1.0,10.00
2024-10-11 20:28:40.424,-0.08316147,0.58851975,0.6787866,-0.19333881,0.049465735,0.1387273,0.17041983,0.27750188,0.44466764,-0.11551008,-0.13368401,0.30979875,0.2764692,-0.20956707,0.13059732,0.392825,-0.25728163,-0.47491866,-0.08464309,-0.089456566,794.57874,801.02563,805.4579,796.99634,662.4176,-0.40435791015625,0.008544921875,0.91754150390625,-2.332763671875,-0.157012939453125,-1.256103515625,1,1.0,1.0,1.0,1.0,10.00
2024-10-11 20:28:40.425,-0.08316147,0.58851975,0.6787866,-0.19333881,0.049465735,0.1387273,0.17041983,0.27750188,0.44466764,-0.11551008,-0.13368401,0.30979875,0.2764692,-0.20956707,0.13059732,0.392825,-0.25728163,-0.47491866,-0.08464309,-0.089456566,797.8022,799.81683,799.81683,801.02563,714.3956,-0.40435791015625,0.008544921875,0.91754150390625,-2.332763671875,-0.157012939453125,-1.256103515625,1,1.0,1.0,1.0,1.0,10.00
2024-10-11 20:28:40.426,-0.08316147,0.58851975,0.6787866,-0.19333881,0.049465735,0.1387273,0.17041983,0.27750188,0.44466764,-0.11551008,-0.13368401,0.30979875,0.2764692,-0.20956707,0.13059732,0.392825,-0.25728163,-0.47491866,-0.08464309,-0.089456566,799.81683,796.1905,802.6374,801.02563,917.47253,-0.40435791015625,0.008544921875,0.91754150390625,-2.332763671875,-0.157012939453125,-1.256103515625,1,1.0,1.0,1.0,1.0,10.00
2024-10-11 20:28:40.426,-0.08316147,0.58851975,0.6787866,-0.19333881,0.049465735,0.1387273,0.17041983,0.27750188,0.44466764,-0.11551008,-0.13368401,0.30979875,0.2764692,-0.20956707,0.13059732,0.392825,-0.25728163,-0.47491866,-0.08464309,-0.089456566,796.1905,796.99634,802.6374,796.99634,745.42126,-0.40435791015625,0.008544921875,0.91754150390625,-2.332763671875,-0.157012939453125,-1.256103515625,1,1.0,1.0,1.0,1.0,10.00
2024-10-11 20:28:40.460,-0.08316147,0.58851975,0.6787866,-0.19333881,0.049465735,0.1387273,0.17041983,0.27750188,0.44466764,-0.11551008,-0.13368401,0.30979875,0.2764692,-0.20956707,0.13059732,0.392825,-0.25728163,-0.47491866,-0.08464309,-0.089456566,792.96704,794.9817,796.1905,795.78754,595.12823,-0.41131591796875,0.00811767578125,0.93084716796875,-0.979461669921875,-0.456085205078125,0.680389404296875,1,1.0,1.0,1.0,1.0,10.00
2024-10-11 20:28:40.461,-0.08316147,0.58851975,0.6787866,-0.19333881,0.049465735,0.1387273,0.17041983,0.27750188,0.44466764,-0.11551008,-0.13368401,0.30979875,0.2764692,-0.20956707,0.13059732,0.392825,-0.25728163,-0.47491866,-0.08464309,-0.089456566,795.78754,791.75824,796.1905,797.8022,699.89014,-0.41131591796875,0.00811767578125,0.93084716796875,-0.979461669921875,-0.456085205078125,0.680389404296875,1,1.0,1.0,1.0,1.0,10.00
2024-10-11 20:28:40.462,-0.08316147,0.58851975,0.6787866,-0.19333881,0.049465735,0.1387273,0.17041983,0.27750188,0.44466764,-0.11551008,-0.13368401,0.30979875,0.2764692,-0.20956707,0.13059732,0.392825,-0.25728163,-0.47491866,-0.08464309,-0.089456566,796.99634,793.7729,801.4286,798.20514,784.5055,-0.41131591796875,0.00811767578125,0.93084716796875,-0.979461669921875,-0.456085205078125,0.680389404296875,1,1.0,1.0,1.0,1.0,10.00
2024-10-11 20:28:40.462,-0.08316147,0.58851975,0.6787866,-0.19333881,0.049465735,0.1387273,0.17041983,0.27750188,0.44466764,-0.11551008,-0.13368401,0.30979875,0.2764692,-0.20956707,0.13059732,0.392825,-0.25728163,-0.47491866,-0.08464309,-0.089456566,795.38464,797.3993,801.02563,794.9817,672.0879,-0.41131591796875,0.00811767578125,0.93084716796875,-0.979461669921875,-0.456085205078125,0.680389404296875,1,1.0,1.0,1.0,1.0,10.00
2024-10-11 20:28:40.463,-0.08316147,0.58851975,0.6787866,-0.19333881,0.049465735,0.1387273,0.17041983,0.27750188,0.44466764,-0.11551008,-0.13368401,0.30979875,0.2764692,-0.20956707,0.13059732,0.392825,-0.25728163,-0.47491866,-0.08464309,-0.089456566,796.1905,798.20514,792.1612,795.38464,589.89014,-0.41131591796875,0.00811767578125,0.93084716796875,-0.979461669921875,-0.456085205078125,0.680389404296875,1,1.0,1.0,1.0,1.0,10.00
2024-10-11 20:28:40.464,-0.08316147,0.58851975,0.6787866,-0.19333881,0.049465735,0.1387273,0.17041983,0.27750188,0.44466764,-0.11551008,-0.13368401,0.30979875,0.2764692,-0.20956707,0.13059732,0.392825,-0.25728163,-0.47491866,-0.08464309,-0.089456566,799.011,802.6374,790.54944,798.60803,782.49084,-0.41131591796875,0.00811767578125,0.93084716796875,-0.979461669921875,-0.456085205078125,0.680389404296875,1,1.0,1.0,1.0,1.0,10.00
2024-10-11 20:28:40.464,-0.08316147,0.58851975,0.6787866,-0.19333881,0.049465735,0.1387273,0.17041983,0.27750188,0.44466764,-0.11551008,-0.13368401,0.30979875,0.2764692,-0.20956707,0.13059732,0.392825,-0.25728163,-0.47491866,-0.08464309,-0.089456566,805.05493,802.6374,803.0403,801.4286,860.65936,-0.41131591796875,0.00811767578125,0.93084716796875,-0.979461669921875,-0.456085205078125,0.680389404296875,1,1.0,1.0,1.0,1.0,10.00
2024-10-11 20:28:40.465,-0.08316147,0.58851975,0.6787866,-0.19333881,0.049465735,0.1387273,0.17041983,0.27750188,0.44466764,-0.11551008,-0.13368401,0.30979875,0.2764692,-0.20956707,0.13059732,0.392825,-0.25728163,-0.47491866,-0.08464309,-0.089456566,808.2784,799.41394,806.26373,800.6227,748.6447,-0.41131591796875,0.00811767578125,0.93084716796875,-0.979461669921875,-0.456085205078125,0.680389404296875,1,1.0,1.0,1.0,1.0,10.00
2024-10-11 20:28:40.466,-0.08316147,0.58851975,0.6787866,-0.19333881,0.049465735,0.1387273,0.17041983,0.27750188,0.44466764,-0.11551008,-0.13368401,0.30979875,0.2764692,-0.20956707,0.13059732,0.392825,-0.25728163,-0.47491866,-0.08464309,-0.089456566,803.8461,802.23444,800.2198,798.20514,677.326,-0.41131591796875,0.00811767578125,0.93084716796875,-0.979461669921875,-0.456085205078125,0.680389404296875,1,1.0,1.0,1.0,1.0,10.00
2024-10-11 20:28:40.466,-0.08316147,0.58851975,0.6787866,-0.19333881,0.049465735,0.1387273,0.17041983,0.27750188,0.44466764,-0.11551008,-0.13368401,0.30979875,0.2764692,-0.20956707,0.13059732,0.392825,-0.25728163,-0.47491866,-0.08464309,-0.089456566,802.23444,796.99634,797.8022,803.0403,797.3993,-0.41131591796875,0.00811767578125,0.93084716796875,-0.979461669921875,-0.456085205078125,0.680389404296875,1,1.0,1.0,1.0,1.0,10.00
2024-10-11 20:28:40.467,-0.08316147,0.58851975,0.6787866,-0.19333881,0.049465735,0.1387273,0.17041983,0.27750188,0.44466764,-0.11551008,-0.13368401,0.30979875,0.2764692,-0.20956707,0.13059732,0.392825,-0.25728163,-0.47491866,-0.08464309,-0.089456566,800.2198,794.57874,796.5934,801.4286,859.45056,-0.41131591796875,0.00811767578125,0.93084716796875,-0.979461669921875,-0.456085205078125,0.680389404296875,1,1.0,1.0,1.0,1.0,10.00
2024-10-11 20:28:40.468,-0.08316147,0.58851975,0.6787866,-0.19333881,0.049465735,0.1387273,0.17041983,0.27750188,0.44466764,-0.11551008,-0.13368401,0.30979875,0.2764692,-0.20956707,0.13059732,0.392825,-0.25728163,-0.47491866,-0.08464309,-0.089456566,800.2198,797.8022,796.1905,798.20514,657.5824,-0.41131591796875,0.00811767578125,0.93084716796875,-0.979461669921875,-0.456085205078125,0.680389404296875,1,1.0,1.0,1.0,1.0,10.00
2024-10-11 20:28:40.533,-0.08316147,0.58851975,0.6787866,-0.19333881,0.049465735,0.1387273,0.17041983,0.27750188,0.44466764,-0.11551008,-0.13368401,0.30979875,0.2764692,-0.20956707,0.13059732,0.392825,-0.25728163,-0.47491866,-0.08464309,-0.089456566,801.02563,796.99634,796.5934,796.99634,674.5055,-0.41131591796875,0.00811767578125,0.93084716796875,-0.979461669921875,-0.456085205078125,0.680389404296875,1,1.0,1.0,1.0,1.0,10.00
2024-10-11 20:28:40.534,-0.05180322,0.3857252,0.5419157,-0.21226408,0.01963927,-0.058921646,0.018903194,0.28245345,0.44466764,-0.14626868,-0.17340857,0.31119582,0.29258257,-0.19780895,0.12888674,0.3904737,-0.2805683,-0.4795617,-0.09118592,-0.0808078,799.011,794.9817,794.57874,801.02563,980.32965,-0.41131591796875,0.00811767578125,0.93084716796875,-0.979461669921875,-0.456085205078125,0.680389404296875,1,1.0,1.0,1.0,1.0,10.00
2024-10-11 20:28:40.541,-0.05180322,0.3857252,0.5419157,-0.21226408,0.01963927,-0.058921646,0.018903194,0.28245345,0.44466764,-0.14626868,-0.17340857,0.31119582,0.29258257,-0.19780895,0.12888674,0.3904737,-0.2805683,-0.4795617,-0.09118592,-0.0808078,791.75824,796.99634,790.9524,808.2784,999.67035,-0.41131591796875,0.00811767578125,0.93084716796875,-0.979461669921875,-0.456085205078125,0.680389404296875,1,1.0,1.0,1.0,1.0,10.00
2024-10-11 20:28:40.542,-0.05180322,0.3857252,0.5419157,-0.21226408,0.01963927,-0.058921646,0.018903194,0.28245345,0.44466764,-0.14626868,-0.17340857,0.31119582,0.29258257,-0.19780895,0.12888674,0.3904737,-0.2805683,-0.4795617,-0.09118592,-0.0808078,789.7436,799.81683,795.78754,805.4579,643.0769,-0.41131591796875,0.00811767578125,0.93084716796875,-0.979461669921875,-0.456085205078125,0.680389404296875,1,1.0,1.0,1.0,1.0,10.00
2024-10-11 20:28:40.542,-0.05180322,0.3857252,0.5419157,-0.21226408,0.01963927,-0.058921646,0.018903194,0.28245345,0.44466764,-0.14626868,-0.17340857,0.31119582,0.29258257,-0.19780895,0.12888674,0.3904737,-0.2805683,-0.4795617,-0.09118592,-0.0808078,787.326,797.3993,805.4579,800.6227,675.31134,-0.41131591796875,0.00811767578125,0.93084716796875,-0.979461669921875,-0.456085205078125,0.680389404296875,1,1.0,1.0,1.0,1.0,10.00
2024-10-11 20:28:40.543,-0.05180322,0.3857252,0.5419157,-0.21226408,0.01963927,-0.058921646,0.018903194,0.28245345,0.44466764,-0.14626868,-0.17340857,0.31119582,0.29258257,-0.19780895,0.12888674,0.3904737,-0.2805683,-0.4795617,-0.09118592,-0.0808078,785.31134,794.57874,807.0696,802.6374,1050.4396,-0.41131591796875,0.00811767578125,0.93084716796875,-0.979461669921875,-0.456085205078125,0.680389404296875,1,1.0,1.0,1.0,1.0,10.00
2024-10-11 20:28:40.544,-0.05180322,0.3857252,0.5419157,-0.21226408,0.01963927,-0.058921646,0.018903194,0.28245345,0.44466764,-0.14626868,-0.17340857,0.31119582,0.29258257,-0.19780895,0.12888674,0.3904737,-0.2805683,-0.4795617,-0.09118592,-0.0808078,791.75824,798.20514,807.47253,804.2491,965.82416,-0.41131591796875,0.00811767578125,0.93084716796875,-0.979461669921875,-0.456085205078125,0.680389404296875,1,1.0,1.0,1.0,1.0,10.00
2024-10-11 20:28:40.544,-0.05180322,0.3857252,0.5419157,-0.21226408,0.01963927,-0.058921646,0.018903194,0.28245345,0.44466764,-0.14626868,-0.17340857,0.31119582,0.29258257,-0.19780895,0.12888674,0.3904737,-0.2805683,-0.4795617,-0.09118592,-0.0808078,792.96704,801.4286,806.6667,799.81683,753.8828,-0.41131591796875,0.00811767578125,0.93084716796875,-0.979461669921875,-0.456085205078125,0.680389404296875,1,1.0,1.0,1.0,1.0,10.00
2024-10-11 20:28:40.545,-0.05180322,0.3857252,0.5419157,-0.21226408,0.01963927,-0.058921646,0.018903194,0.28245345,0.44466764,-0.14626868,-0.17340857,0.31119582,0.29258257,-0.19780895,0.12888674,0.3904737,-0.2805683,-0.4795617,-0.09118592,-0.0808078,797.3993,797.3993,802.23444,799.011,699.0842,-0.41131591796875,0.00811767578125,0.93084716796875,-0.979461669921875,-0.456085205078125,0.680389404296875,1,1.0,1.0,1.0,1.0,10.00
2024-10-11 20:28:40.546,-0.05180322,0.3857252,0.5419157,-0.21226408,0.01963927,-0.058921646,0.018903194,0.28245345,0.44466764,-0.14626868,-0.17340857,0.31119582,0.29258257,-0.19780895,0.12888674,0.3904737,-0.2805683,-0.4795617,-0.09118592,-0.0808078,798.60803,796.99634,795.78754,801.8315,1008.1319,-0.41131591796875,0.00811767578125,0.93084716796875,-0.979461669921875,-0.456085205078125,0.680389404296875,1,1.0,1.0,1.0,1.0,10.00
2024-10-11 20:28:40.546,-0.05180322,0.3857252,0.5419157,-0.21226408,0.01963927,-0.058921646,0.018903194,0.28245345,0.44466764,-0.14626868,-0.17340857,0.31119582,0.29258257,-0.19780895,0.12888674,0.3904737,-0.2805683,-0.4795617,-0.09118592,-0.0808078,792.5641,798.60803,794.9817,796.1905,967.4359,-0.41131591796875,0.00811767578125,0.93084716796875,-0.979461669921875,-0.456085205078125,0.680389404296875,1,1.0,1.0,1.0,1.0,10.00
2024-10-11 20:28:40.547,-0.05180322,0.3857252,0.5419157,-0.21226408,0.01963927,-0.058921646,0.018903194,0.28245345,0.44466764,-0.14626868,-0.17340857,0.31119582,0.29258257,-0.19780895,0.12888674,0.3904737,-0.2805683,-0.4795617,-0.09118592,-0.0808078,787.72894,797.3993,794.57874,791.3553,700.696,-0.41131591796875,0.00811767578125,0.93084716796875,-0.979461669921875,-0.456085205078125,0.680389404296875,1,1.0,1.0,1.0,1.0,10.00
2024-10-11 20:28:40.581,-0.05180322,0.3857252,0.5419157,-0.21226408,0.01963927,-0.058921646,0.018903194,0.28245345,0.44466764,-0.14626868,-0.17340857,0.31119582,0.29258257,-0.19780895,0.12888674,0.3904737,-0.2805683,-0.4795617,-0.09118592,-0.0808078,789.7436,801.4286,802.23444,794.9817,697.47253,-0.4061279296875,0.01300048828125,0.92742919921875,-0.8074951171875,-1.846771240234375,1.278533935546875,1,1.0,1.0,1.0,1.0,10.00
2024-10-11 20:28:40.582,-0.05180322,0.3857252,0.5419157,-0.21226408,0.01963927,-0.058921646,0.018903194,0.28245345,0.44466764,-0.14626868,-0.17340857,0.31119582,0.29258257,-0.19780895,0.12888674,0.3904737,-0.2805683,-0.4795617,-0.09118592,-0.0808078,792.5641,803.0403,808.2784,794.17584,683.36993,-0.4061279296875,0.01300048828125,0.92742919921875,-0.8074951171875,-1.846771240234375,1.278533935546875,1,1.0,1.0,1.0,1.0,10.00
2024-10-11 20:28:40.582,-0.05180322,0.3857252,0.5419157,-0.21226408,0.01963927,-0.058921646,0.018903194,0.28245345,0.44466764,-0.14626868,-0.17340857,0.31119582,0.29258257,-0.19780895,0.12888674,0.3904737,-0.2805683,-0.4795617,-0.09118592,-0.0808078,799.41394,794.9817,804.65204,794.17584,618.9011,-0.4061279296875,0.01300048828125,0.92742919921875,-0.8074951171875,-1.846771240234375,1.278533935546875,1,1.0,1.0,1.0,1.0,10.00
2024-10-11 20:28:40.583,-0.05180322,0.3857252,0.5419157,-0.21226408,0.01963927,-0.058921646,0.018903194,0.28245345,0.44466764,-0.14626868,-0.17340857,0.31119582,0.29258257,-0.19780895,0.12888674,0.3904737,-0.2805683,-0.4795617,-0.09118592,-0.0808078,801.02563,793.36993,802.23444,794.57874,655.9707,-0.4061279296875,0.01300048828125,0.92742919921875,-0.8074951171875,-1.846771240234375,1.278533935546875,1,1.0,1.0,1.0,1.0,10.00
2024-10-11 20:28:40.584,-0.05180322,0.3857252,0.5419157,-0.21226408,0.01963927,-0.058921646,0.018903194,0.28245345,0.44466764,-0.14626868,-0.17340857,0.31119582,0.29258257,-0.19780895,0.12888674,0.3904737,-0.2805683,-0.4795617,-0.09118592,-0.0808078,797.3993,798.60803,803.0403,798.60803,687.8022,-0.4061279296875,0.01300048828125,0.92742919921875,-0.8074951171875,-1.846771240234375,1.278533935546875,1,1.0,1.0,1.0,1.0,10.00
2024-10-11 20:28:40.584,-0.05180322,0.3857252,0.5419157,-0.21226408,0.01963927,-0.058921646,0.018903194,0.28245345,0.44466764,-0.14626868,-0.17340857,0.31119582,0.29258257,-0.19780895,0.12888674,0.3904737,-0.2805683,-0.4795617,-0.09118592,-0.0808078,800.2198,795.78754,796.5934,802.23444,713.1868,-0.4061279296875,0.01300048828125,0.92742919921875,-0.8074951171875,-1.846771240234375,1.278533935546875,1,1.0,1.0,1.0,1.0,10.00
2024-10-11 20:28:40.585,-0.05180322,0.3857252,0.5419157,-0.21226408,0.01963927,-0.058921646,0.018903194,0.28245345,0.44466764,-0.14626868,-0.17340857,0.31119582,0.29258257,-0.19780895,0.12888674,0.3904737,-0.2805683,-0.4795617,-0.09118592,-0.0808078,804.2491,793.7729,790.14655,805.05493,808.2784,-0.4061279296875,0.01300048828125,0.92742919921875,-0.8074951171875,-1.846771240234375,1.278533935546875,1,1.0,1.0,1.0,1.0,10.00
2024-10-11 20:28:40.586,-0.05180322,0.3857252,0.5419157,-0.21226408,0.01963927,-0.058921646,0.018903194,0.28245345,0.44466764,-0.14626868,-0.17340857,0.31119582,0.29258257,-0.19780895,0.12888674,0.3904737,-0.2805683,-0.4795617,-0.09118592,-0.0808078,805.8608,794.17584,794.57874,808.2784,721.2454,-0.4061279296875,0.01300048828125,0.92742919921875,-0.8074951171875,-1.846771240234375,1.278533935546875,1,1.0,1.0,1.0,1.0,10.00
2024-10-11 20:28:40.587,-0.05180322,0.3857252,0.5419157,-0.21226408,0.01963927,-0.058921646,0.018903194,0.28245345,0.44466764,-0.14626868,-0.17340857,0.31119582,0.29258257,-0.19780895,0.12888674,0.3904737,-0.2805683,-0.4795617,-0.09118592,-0.0808078,802.6374,796.1905,789.7436,811.0989,716.0073,-0.4061279296875,0.01300048828125,0.92742919921875,-0.8074951171875,-1.846771240234375,1.278533935546875,1,1.0,1.0,1.0,1.0,10.00
2024-10-11 20:28:40.588,-0.05180322,0.3857252,0.5419157,-0.21226408,0.01963927,-0.058921646,0.018903194,0.28245345,0.44466764,-0.14626868,-0.17340857,0.31119582,0.29258257,-0.19780895,0.12888674,0.3904737,-0.2805683,-0.4795617,-0.09118592,-0.0808078,796.5934,794.17584,794.17584,802.23444,728.49817,-0.4061279296875,0.01300048828125,0.92742919921875,-0.8074951171875,-1.846771240234375,1.278533935546875,1,1.0,1.0,1.0,1.0,10.00
2024-10-11 20:28:40.588,-0.05180322,0.3857252,0.5419157,-0.21226408,0.01963927,-0.058921646,0.018903194,0.28245345,0.44466764,-0.14626868,-0.17340857,0.31119582,0.29258257,-0.19780895,0.12888674,0.3904737,-0.2805683,-0.4795617,-0.09118592,-0.0808078,796.5934,793.36993,805.05493,796.1905,622.1245,-0.4061279296875,0.01300048828125,0.92742919921875,-0.8074951171875,-1.846771240234375,1.278533935546875,1,1.0,1.0,1.0,1.0,10.00
2024-10-11 20:28:40.589,-0.05180322,0.3857252,0.5419157,-0.21226408,0.01963927,-0.058921646,0.018903194,0.28245345,0.44466764,-0.14626868,-0.17340857,0.31119582,0.29258257,-0.19780895,0.12888674,0.3904737,-0.2805683,-0.4795617,-0.09118592,-0.0808078,798.60803,796.1905,803.44324,800.2198,651.53845,-0.4061279296875,0.01300048828125,0.92742919921875,-0.8074951171875,-1.846771240234375,1.278533935546875,1,1.0,1.0,1.0,1.0,10.00
2024-10-11 20:28:40.667,-0.05180322,0.3857252,0.5419157,-0.21226408,0.01963927,-0.058921646,0.018903194,0.28245345,0.44466764,-0.14626868,-0.17340857,0.31119582,0.29258257,-0.19780895,0.12888674,0.3904737,-0.2805683,-0.4795617,-0.09118592,-0.0808078,792.5641,793.36993,799.011,801.4286,844.94507,-0.411865234375,0.0145263671875,0.92333984375,-1.263580322265625,-2.10845947265625,-0.0,1,1.0,1.0,1.0,1.0,10.00
2024-10-11 20:28:40.668,-0.05180322,0.3857252,0.5419157,-0.21226408,0.01963927,-0.058921646,0.018903194,0.28245345,0.44466764,-0.14626868,-0.17340857,0.31119582,0.29258257,-0.19780895,0.12888674,0.3904737,-0.2805683,-0.4795617,-0.09118592,-0.0808078,793.36993,790.14655,798.20514,802.6374,861.4652,-0.411865234375,0.0145263671875,0.92333984375,-1.263580322265625,-2.10845947265625,-0.0,1,1.0,1.0,1.0,1.0,10.00
2024-10-11 20:28:40.669,-0.05180322,0.3857252,0.5419157,-0.21226408,0.01963927,-0.058921646,0.018903194,0.28245345,0.44466764,-0.14626868,-0.17340857,0.31119582,0.29258257,-0.19780895,0.12888674,0.3904737,-0.2805683,-0.4795617,-0.09118592,-0.0808078,791.3553,790.54944,803.0403,800.2198,662.8205,-0.411865234375,0.0145263671875,0.92333984375,-1.263580322265625,-2.10845947265625,-0.0,1,1.0,1.0,1.0,1.0,10.00
2024-10-11 20:28:40.669,-0.010245976,0.13361804,0.38749525,-0.20894247,-0.005533119,-0.27339047,-0.10124606,0.2840551,0.44466764,-0.211647,-0.18416724,0.31119582,0.28980917,-0.17115273,0.12515464,0.38465622,-0.30528268,-0.49513248,-0.10375011,-0.08055605,790.9524,794.57874,805.8608,798.20514,676.9231,-0.411865234375,0.0145263671875,0.92333984375,-1.263580322265625,-2.10845947265625,-0.0,1,1.0,1.0,1.0,1.0,10.00
2024-10-11 20:28:40.676,-0.010245976,0.13361804,0.38749525,-0.20894247,-0.005533119,-0.27339047,-0.10124606,0.2840551,0.44466764,-0.211647,-0.18416724,0.31119582,0.28980917,-0.17115273,0.12515464,0.38465622,-0.30528268,-0.49513248,-0.10375011,-0.08055605,795.78754,792.1612,801.8315,799.41394,868.315,-0.411865234375,0.0145263671875,0.92333984375,-1.263580322265625,-2.10845947265625,-0.0,1,1.0,1.0,1.0,1.0,10.00
2024-10-11 20:28:40.677,-0.010245976,0.13361804,0.38749525,-0.20894247,-0.005533119,-0.27339047,-0.10124606,0.2840551,0.44466764,-0.211647,-0.18416724,0.31119582,0.28980917,-0.17115273,0.12515464,0.38465622,-0.30528268,-0.49513248,-0.10375011,-0.08055605,798.60803,792.5641,799.81683,796.5934,798.60803,-0.411865234375,0.0145263671875,0.92333984375,-1.263580322265625,-2.10845947265625,-0.0,1,1.0,1.0,1.0,1.0,10.00
2024-10-11 20:28:40.677,-0.010245976,0.13361804,0.38749525,-0.20894247,-0.005533119,-0.27339047,-0.10124606,0.2840551,0.44466764,-0.211647,-0.18416724,0.31119582,0.28980917,-0.17115273,0.12515464,0.38465622,-0.30528268,-0.49513248,-0.10375011,-0.08055605,798.60803,797.3993,798.60803,797.8022,724.4689,-0.411865234375,0.0145263671875,0.92333984375,-1.263580322265625,-2.10845947265625,-0.0,1,1.0,1.0,1.0,1.0,10.00
2024-10-11 20:28:40.678,-0.010245976,0.13361804,0.38749525,-0.20894247,-0.005533119,-0.27339047,-0.10124606,0.2840551,0.44466764,-0.211647,-0.18416724,0.31119582,0.28980917,-0.17115273,0.12515464,0.38465622,-0.30528268,-0.49513248,-0.10375011,-0.08055605,796.5934,794.57874,791.3553,801.4286,798.60803,-0.411865234375,0.0145263671875,0.92333984375,-1.263580322265625,-2.10845947265625,-0.0,1,1.0,1.0,1.0,1.0,10.00
2024-10-11 20:28:40.679,-0.010245976,0.13361804,0.38749525,-0.20894247,-0.005533119,-0.27339047,-0.10124606,0.2840551,0.44466764,-0.211647,-0.18416724,0.31119582,0.28980917,-0.17115273,0.12515464,0.38465622,-0.30528268,-0.49513248,-0.10375011,-0.08055605,796.1905,794.57874,794.57874,800.6227,786.52014,-0.411865234375,0.0145263671875,0.92333984375,-1.263580322265625,-2.10845947265625,-0.0,1,1.0,1.0,1.0,1.0,10.00
2024-10-11 20:28:40.679,-0.010245976,0.13361804,0.38749525,-0.20894247,-0.005533119,-0.27339047,-0.10124606,0.2840551,0.44466764,-0.211647,-0.18416724,0.31119582,0.28980917,-0.17115273,0.12515464,0.38465622,-0.30528268,-0.49513248,-0.10375011,-0.08055605,803.8461,796.5934,798.20514,803.44324,693.8461,-0.411865234375,0.0145263671875,0.92333984375,-1.263580322265625,-2.10845947265625,-0.0,1,1.0,1.0,1.0,1.0,10.00
2024-10-11 20:28:40.680,-0.010245976,0.13361804,0.38749525,-0.20894247,-0.005533119,-0.27339047,-0.10124606,0.2840551,0.44466764,-0.211647,-0.18416724,0.31119582,0.28980917,-0.17115273,0.12515464,0.38465622,-0.30528268,-0.49513248,-0.10375011,-0.08055605,804.2491,795.38464,793.36993,797.8022,626.9597,-0.411865234375,0.0145263671875,0.92333984375,-1.263580322265625,-2.10845947265625,-0.0,1,1.0,1.0,1.0,1.0,10.00
2024-10-11 20:28:40.681,-0.010245976,0.13361804,0.38749525,-0.20894247,-0.005533119,-0.27339047,-0.10124606,0.2840551,0.44466764,-0.211647,-0.18416724,0.31119582,0.28980917,-0.17115273,0.12515464,0.38465622,-0.30528268,-0.49513248,-0.10375011,-0.08055605,798.20514,797.8022,798.60803,792.96704,739.3773,-0.411865234375,0.0145263671875,0.92333984375,-1.263580322265625,-2.10845947265625,-0.0,1,1.0,1.0,1.0,1.0,10.00
2024-10-11 20:28:40.751,-0.010245976,0.13361804,0.38749525,-0.20894247,-0.005533119,-0.27339047,-0.10124606,0.2840551,0.44466764,-0.211647,-0.18416724,0.31119582,0.28980917,-0.17115273,0.12515464,0.38465622,-0.30528268,-0.49513248,-0.10375011,-0.08055605,802.6374,799.41394,802.6374,797.3993,913.44324,-0.40570068359375,0.01141357421875,0.91851806640625,-0.426177978515625,-2.594451904296875,-2.160797119140625,1,1.0,1.0,1.0,1.0,10.00
2024-10-11 20:28:40.752,-0.010245976,0.13361804,0.38749525,-0.20894247,-0.005533119,-0.27339047,-0.10124606,0.2840551,0.44466764,-0.211647,-0.18416724,0.31119582,0.28980917,-0.17115273,0.12515464,0.38465622,-0.30528268,-0.49513248,-0.10375011,-0.08055605,801.4286,801.4286,798.20514,796.5934,738.1685,-0.40570068359375,0.01141357421875,0.91851806640625,-0.426177978515625,-2.594451904296875,-2.160797119140625,1,1.0,1.0,1.0,1.0,10.00
2024-10-11 20:28:40.753,-0.010245976,0.13361804,0.38749525,-0.20894247,-0.005533119,-0.27339047,-0.10124606,0.2840551,0.44466764,-0.211647,-0.18416724,0.31119582,0.28980917,-0.17115273,0.12515464,0.38465622,-0.30528268,-0.49513248,-0.10375011,-0.08055605,803.0403,804.2491,800.6227,801.4286,571.75824,-0.40570068359375,0.01141357421875,0.91851806640625,-0.426177978515625,-2.594451904296875,-2.160797119140625,1,1.0,1.0,1.0,1.0,10.00
2024-10-11 20:28:40.754,-0.010245976,0.13361804,0.38749525,-0.20894247,-0.005533119,-0.27339047,-0.10124606,0.2840551,0.44466764,-0.211647,-0.18416724,0.31119582,0.28980917,-0.17115273,0.12515464,0.38465622,-0.30528268,-0.49513248,-0.10375011,-0.08055605,805.4579,800.2198,796.99634,807.0696,749.85345,-0.40570068359375,0.01141357421875,0.91851806640625,-0.426177978515625,-2.594451904296875,-2.160797119140625,1,1.0,1.0,1.0,1.0,10.00
2024-10-11 20:28:40.755,-0.010245976,0.13361804,0.38749525,-0.20894247,-0.005533119,-0.27339047,-0.10124606,0.2840551,0.44466764,-0.211647,-0.18416724,0.31119582,0.28980917,-0.17115273,0.12515464,0.38465622,-0.30528268,-0.49513248,-0.10375011,-0.08055605,804.2491,799.81683,794.9817,806.6667,937.2161,-0.40570068359375,0.01141357421875,0.91851806640625,-0.426177978515625,-2.594451904296875,-2.160797119140625,1,1.0,1.0,1.0,1.0,10.00
2024-10-11 20:28:40.756,-0.010245976,0.13361804,0.38749525,-0.20894247,-0.005533119,-0.27339047,-0.10124606,0.2840551,0.44466764,-0.211647,-0.18416724,0.31119582,0.28980917,-0.17115273,0.12515464,0.38465622,-0.30528268,-0.49513248,-0.10375011,-0.08055605,802.6374,800.6227,794.17584,803.0403,834.87177,-0.40570068359375,0.01141357421875,0.91851806640625,-0.426177978515625,-2.594451904296875,-2.160797119140625,1,1.0,1.0,1.0,1.0,10.00
2024-10-11 20:28:40.757,-0.010245976,0.13361804,0.38749525,-0.20894247,-0.005533119,-0.27339047,-0.10124606,0.2840551,0.44466764,-0.211647,-0.18416724,0.31119582,0.28980917,-0.17115273,0.12515464,0.38465622,-0.30528268,-0.49513248,-0.10375011,-0.08055605,802.23444,797.3993,791.75824,801.4286,761.53845,-0.40570068359375,0.01141357421875,0.91851806640625,-0.426177978515625,-2.594451904296875,-2.160797119140625,1,1.0,1.0,1.0,1.0,10.00
2024-10-11 20:28:40.758,-0.010245976,0.13361804,0.38749525,-0.20894247,-0.005533119,-0.27339047,-0.10124606,0.2840551,0.44466764,-0.211647,-0.18416724,0.31119582,0.28980917,-0.17115273,0.12515464,0.38465622,-0.30528268,-0.49513248,-0.10375011,-0.08055605,803.0403,798.60803,802.23444,799.011,854.21246,-0.40570068359375,0.01141357421875,0.91851806640625,-0.426177978515625,-2.594451904296875,-2.160797119140625,1,1.0,1.0,1.0,1.0,10.00
2024-10-11 20:28:40.759,-0.010245976,0.13361804,0.38749525,-0.20894247,-0.005533119,-0.27339047,-0.10124606,0.2840551,0.44466764,-0.211647,-0.18416724,0.31119582,0.28980917,-0.17115273,0.12515464,0.38465622,-0.30528268,-0.49513248,-0.10375011,-0.08055605,801.02563,798.20514,805.8608,790.14655,898.93774,-0.40570068359375,0.01141357421875,0.91851806640625,-0.426177978515625,-2.594451904296875,-2.160797119140625,1,1.0,1.0,1.0,1.0,10.00
2024-10-11 20:28:40.760,-0.010245976,0.13361804,0.38749525,-0.20894247,-0.005533119,-0.27339047,-0.10124606,0.2840551,0.44466764,-0.211647,-0.18416724,0.31119582,0.28980917,-0.17115273,0.12515464,0.38465622,-0.30528268,-0.49513248,-0.10375011,-0.08055605,798.60803,797.8022,806.26373,790.14655,759.12085,-0.40570068359375,0.01141357421875,0.91851806640625,-0.426177978515625,-2.594451904296875,-2.160797119140625,1,1.0,1.0,1.0,1.0,10.00
2024-10-11 20:28:40.760,-0.010245976,0.13361804,0.38749525,-0.20894247,-0.005533119,-0.27339047,-0.10124606,0.2840551,0.44466764,-0.211647,-0.18416724,0.31119582,0.28980917,-0.17115273,0.12515464,0.38465622,-0.30528268,-0.49513248,-0.10375011,-0.08055605,796.5934,800.6227,803.8461,796.5934,684.9817,-0.40570068359375,0.01141357421875,0.91851806640625,-0.426177978515625,-2.594451904296875,-2.160797119140625,1,1.0,1.0,1.0,1.0,10.00
2024-10-11 20:28:40.761,-0.010245976,0.13361804,0.38749525,-0.20894247,-0.005533119,-0.27339047,-0.10124606,0.2840551,0.44466764,-0.211647,-0.18416724,0.31119582,0.28980917,-0.17115273,0.12515464,0.38465622,-0.30528268,-0.49513248,-0.10375011,-0.08055605,794.57874,803.44324,803.8461,802.6374,852.1978,-0.40570068359375,0.01141357421875,0.91851806640625,-0.426177978515625,-2.594451904296875,-2.160797119140625,1,1.0,1.0,1.0,1.0,10.00
2024-10-11 20:28:40.794,-0.010245976,0.13361804,0.38749525,-0.20894247,-0.005533119,-0.27339047,-0.10124606,0.2840551,0.44466764,-0.211647,-0.18416724,0.31119582,0.28980917,-0.17115273,0.12515464,0.38465622,-0.30528268,-0.49513248,-0.10375011,-0.08055605,792.96704,800.2198,800.6227,799.41394,911.8315,-0.40093994140625,0.0079345703125,0.92730712890625,-0.13458251953125,-2.086029052734375,-3.60382080078125,1,1.0,1.0,1.0,1.0,10.00
2024-10-11 20:28:40.795,-0.010245976,0.13361804,0.38749525,-0.20894247,-0.005533119,-0.27339047,-0.10124606,0.2840551,0.44466764,-0.211647,-0.18416724,0.31119582,0.28980917,-0.17115273,0.12515464,0.38465622,-0.30528268,-0.49513248,-0.10375011,-0.08055605,794.17584,799.81683,793.36993,788.93774,795.78754,-0.40093994140625,0.0079345703125,0.92730712890625,-0.13458251953125,-2.086029052734375,-3.60382080078125,1,1.0,1.0,1.0,1.0,10.00
2024-10-11 20:28:40.796,-0.010245976,0.13361804,0.38749525,-0.20894247,-0.005533119,-0.27339047,-0.10124606,0.2840551,0.44466764,-0.211647,-0.18416724,0.31119582,0.28980917,-0.17115273,0.12515464,0.38465622,-0.30528268,-0.49513248,-0.10375011,-0.08055605,799.011,802.6374,799.011,786.1172,695.4579,-0.40093994140625,0.0079345703125,0.92730712890625,-0.13458251953125,-2.086029052734375,-3.60382080078125,1,1.0,1.0,1.0,1.0,10.00
2024-10-11 20:28:40.797,-0.010245976,0.13361804,0.38749525,-0.20894247,-0.005533119,-0.27339047,-0.10124606,0.2840551,0.44466764,-0.211647,-0.18416724,0.31119582,0.28980917,-0.17115273,0.12515464,0.38465622,-0.30528268,-0.49513248,-0.10375011,-0.08055605,801.02563,800.2198,805.4579,794.57874,826.0073,-0.40093994140625,0.0079345703125,0.92730712890625,-0.13458251953125,-2.086029052734375,-3.60382080078125,1,1.0,1.0,1.0,1.0,10.00
2024-10-11 20:28:40.798,-0.010245976,0.13361804,0.38749525,-0.20894247,-0.005533119,-0.27339047,-0.10124606,0.2840551,0.44466764,-0.211647,-0.18416724,0.31119582,0.28980917,-0.17115273,0.12515464,0.38465622,-0.30528268,-0.49513248,-0.10375011,-0.08055605,796.1905,801.02563,803.0403,799.41394,834.87177,-0.40093994140625,0.0079345703125,0.92730712890625,-0.13458251953125,-2.086029052734375,-3.60382080078125,1,1.0,1.0,1.0,1.0,10.00
2024-10-11 20:28:40.798,0.03128233,-0.09349841,0.2622414,-0.15902747,-0.024746016,-0.4423152,-0.15401696,0.2820224,0.44466764,-0.22344868,-0.18688342,0.31119582,0.2741299,-0.13807759,0.121572465,0.37447122,-0.3283429,-0.5164991,-0.1122468,-0.087662235,792.1612,798.20514,809.4872,795.38464,781.685,-0.40093994140625,0.0079345703125,0.92730712890625,-0.13458251953125,-2.086029052734375,-3.60382080078125,1,1.0,1.0,1.0,1.0,10.00
2024-10-11 20:28:40.804,0.03128233,-0.09349841,0.2622414,-0.15902747,-0.024746016,-0.4423152,-0.15401696,0.2820224,0.44466764,-0.22344868,-0.18688342,0.31119582,0.2741299,-0.13807759,0.121572465,0.37447122,-0.3283429,-0.5164991,-0.1122468,-0.087662235,794.57874,799.41394,812.71063,798.60803,821.5751,-0.40093994140625,0.0079345703125,0.92730712890625,-0.13458251953125,-2.086029052734375,-3.60382080078125,1,1.0,1.0,1.0,1.0,10.00
