TimeStamp,Delta_TP9,Delta_AF7,Delta_AF8,Delta_TP10,Theta_TP9,Theta_AF7,Theta_AF8,Theta_TP10,Alpha_TP9,Alpha_AF7,Alpha_AF8,Alpha_TP10,Beta_TP9,Beta_AF7,Beta_AF8,Beta_TP10,Gamma_TP9,Gamma_AF7,Gamma_AF8,Gamma_TP10,RAW_TP9,RAW_AF7,RAW_AF8,RAW_TP10,AUX_RIGHT,Accelerometer_X,Accelerometer_Y,Accelerometer_Z,Gyro_X,Gyro_Y,Gyro_Z,HeadBandOn,HSI_TP9,HSI_AF7,HSI_AF8,HSI_TP10,Battery,Elements
2024-10-11 20:13:14.511,0.72694033,-0.23217796,0.3485165,0.7454368,1.0706831,-0.008981219,-0.07679905,1.1658698,1.0733236,0.119076885,0.20197786,1.0613562,1.2332103,0.063380115,0.3384757,1.066082,0.8817589,-0.07937051,0.3323401,0.79003894,805.05493,799.011,796.1905,805.4579,923.91943,-0.13848876953125,0.11468505859375,1.00115966796875,1.09161376953125,8.815155029296875,5.66741943359375,1,1.0,1.0,1.0,1.0,10.00
2024-10-11 20:13:14.513,0.72694033,-0.23217796,0.3485165,0.7454368,1.0706831,-0.008981219,-0.07679905,1.1658698,1.0733236,0.119076885,0.20197786,1.0613562,1.2332103,0.063380115,0.3384757,1.066082,0.8817589,-0.07937051,0.3323401,0.79003894,808.68134,802.23444,796.5934,807.8755,1080.6593,-0.13848876953125,0.11468505859375,1.00115966796875,1.09161376953125,8.815155029296875,5.66741943359375,1,1.0,1.0,1.0,1.0,10.00
2024-10-11 20:13:14.514,0.72694033,-0.23217796,0.3485165,0.7454368,1.0706831,-0.008981219,-0.07679905,1.1658698,1.0733236,0.119076885,0.20197786,1.0613562,1.2332103,0.063380115,0.3384757,1.066082,0.8817589,-0.07937051,0.3323401,0.79003894,805.8608,803.8461,799.011,802.6374,678.5348,-0.13848876953125,0.11468505859375,1.00115966796875,1.09161376953125,8.815155029296875,5.66741943359375,1,1.0,1.0,1.0,1.0,10.00
2024-10-11 20:13:14.515,0.72694033,-0.23217796,0.3485165,0.7454368,1.0706831,-0.008981219,-0.07679905,1.1658698,1.0733236,0.119076885,0.20197786,1.0613562,1.2332103,0.063380115,0.3384757,1.066082,0.8817589,-0.07937051,0.3323401,0.79003894,808.2784,807.0696,800.2198,807.8755,607.2161,-0.13848876953125,0.11468505859375,1.00115966796875,1.09161376953125,8.815155029296875,5.66741943359375,1,1.0,1.0,1.0,1.0,10.00
2024-10-11 20:13:14.516,0.72694033,-0.23217796,0.3485165,0.7454368,1.0706831,-0.008981219,-0.07679905,1.1658698,1.0733236,0.119076885,0.20197786,1.0613562,1.2332103,0.063380115,0.3384757,1.066082,0.8817589,-0.07937051,0.3323401,0.79003894,814.3223,803.44324,801.02563,809.0842,782.0879,-0.13848876953125,0.11468505859375,1.00115966796875,1.09161376953125,8.815155029296875,5.66741943359375,1,1.0,1.0,1.0,1.0,10.00
2024-10-11 20:13:14.517,0.72694033,-0.23217796,0.3485165,0.7454368,1.0706831,-0.008981219,-0.07679905,1.1658698,1.0733236,0.119076885,0.20197786,1.0613562,1.2332103,0.063380115,0.3384757,1.066082,0.8817589,-0.07937051,0.3323401,0.79003894,814.3223,795.78754,796.5934,812.71063,885.64105,-0.13848876953125,0.11468505859375,1.00115966796875,1.09161376953125,8.815155029296875,5.66741943359375,1,1.0,1.0,1.0,1.0,10.00
2024-10-11 20:13:14.518,0.72694033,-0.23217796,0.3485165,0.7454368,1.0706831,-0.008981219,-0.07679905,1.1658698,1.0733236,0.119076885,0.20197786,1.0613562,1.2332103,0.063380115,0.3384757,1.066082,0.8817589,-0.07937051,0.3323401,0.79003894,816.337,793.7729,793.36993,817.1429,761.53845,-0.13848876953125,0.11468505859375,1.00115966796875,1.09161376953125,8.815155029296875,5.66741943359375,1,1.0,1.0,1.0,1.0,10.00
2024-10-11 20:13:14.519,0.74552464,-0.27473313,0.3485165,0.77102023,1.0197172,-0.00878627,-0.07679905,1.1276759,1.057454,0.119076885,0.20197786,0.9913269,1.1969657,0.014910142,0.3384757,1.043301,0.82673186,-0.15478,0.3323401,0.75960743,818.3516,801.02563,794.9817,813.5165,631.79486,-0.13848876953125,0.11468505859375,1.00115966796875,1.09161376953125,8.815155029296875,5.66741943359375,1,1.0,1.0,1.0,1.0,10.00
2024-10-11 20:13:14.524,0.74552464,-0.27473313,0.3485165,0.77102023,1.0197172,-0.00878627,-0.07679905,1.1276759,1.057454,0.119076885,0.20197786,0.9913269,1.1969657,0.014910142,0.3384757,1.043301,0.82673186,-0.15478,0.3323401,0.75960743,815.9341,806.6667,790.54944,820.3663,944.87177,-0.13848876953125,0.11468505859375,1.00115966796875,1.09161376953125,8.815155029296875,5.66741943359375,1,1.0,1.0,1.0,1.0,10.00
2024-10-11 20:13:14.525,0.74552464,-0.27473313,0.3485165,0.77102023,1.0197172,-0.00878627,-0.07679905,1.1276759,1.057454,0.119076885,0.20197786,0.9913269,1.1969657,0.014910142,0.3384757,1.043301,0.82673186,-0.15478,0.3323401,0.75960743,810.293,804.65204,792.1612,827.619,1025.0549,-0.13848876953125,0.11468505859375,1.00115966796875,1.09161376953125,8.815155029296875,5.66741943359375,1,1.0,1.0,1.0,1.0,10.00
2024-10-11 20:13:14.525,0.74552464,-0.27473313,0.3485165,0.77102023,1.0197172,-0.00878627,-0.07679905,1.1276759,1.057454,0.119076885,0.20197786,0.9913269,1.1969657,0.014910142,0.3384757,1.043301,0.82673186,-0.15478,0.3323401,0.75960743,810.696,802.6374,800.2198,818.3516,655.16486,-0.13848876953125,0.11468505859375,1.00115966796875,1.09161376953125,8.815155029296875,5.66741943359375,1,1.0,1.0,1.0,1.0,10.00
2024-10-11 20:13:14.526,0.74552464,-0.27473313,0.3485165,0.77102023,1.0197172,-0.00878627,-0.07679905,1.1276759,1.057454,0.119076885,0.20197786,0.9913269,1.1969657,0.014910142,0.3384757,1.043301,0.82673186,-0.15478,0.3323401,0.75960743,813.91943,801.4286,801.02563,813.5165,625.34796,-0.13848876953125,0.11468505859375,1.00115966796875,1.09161376953125,8.815155029296875,5.66741943359375,1,1.0,1.0,1.0,1.0,10.00
2024-10-11 20:13:14.581,0.74552464,-0.27473313,0.3485165,0.77102023,1.0197172,-0.00878627,-0.07679905,1.1276759,1.057454,0.119076885,0.20197786,0.9913269,1.1969657,0.014910142,0.3384757,1.043301,0.82673186,-0.15478,0.3323401,0.75960743,810.293,799.41394,798.60803,811.0989,700.293,-0.17425537109375,0.12310791015625,0.98541259765625,0.321502685546875,4.747772216796875,5.9515380859375,1,1.0,1.0,1.0,1.0,10.00
2024-10-11 20:13:14.583,0.74552464,-0.27473313,0.3485165,0.77102023,1.0197172,-0.00878627,-0.07679905,1.1276759,1.057454,0.119076885,0.20197786,0.9913269,1.1969657,0.014910142,0.3384757,1.043301,0.82673186,-0.15478,0.3323401,0.75960743,808.2784,795.38464,800.2198,809.4872,745.82416,-0.17425537109375,0.12310791015625,0.98541259765625,0.321502685546875,4.747772216796875,5.9515380859375,1,1.0,1.0,1.0,1.0,10.00
2024-10-11 20:13:14.585,0.74552464,-0.27473313,0.3485165,0.77102023,1.0197172,-0.00878627,-0.07679905,1.1276759,1.057454,0.119076885,0.20197786,0.9913269,1.1969657,0.014910142,0.3384757,1.043301,0.82673186,-0.15478,0.3323401,0.75960743,805.05493,796.1905,797.8022,806.6667,810.293,-0.17425537109375,0.12310791015625,0.98541259765625,0.321502685546875,4.747772216796875,5.9515380859375,1,1.0,1.0,1.0,1.0,10.00
2024-10-11 20:13:14.586,0.74552464,-0.27473313,0.3485165,0.77102023,1.0197172,-0.00878627,-0.07679905,1.1276759,1.057454,0.119076885,0.20197786,0.9913269,1.1969657,0.014910142,0.3384757,1.043301,0.82673186,-0.15478,0.3323401,0.75960743,811.9048,800.2198,796.5934,802.6374,823.1868,-0.17425537109375,0.12310791015625,0.98541259765625,0.321502685546875,4.747772216796875,5.9515380859375,1,1.0,1.0,1.0,1.0,10.00
2024-10-11 20:13:14.587,0.74552464,-0.27473313,0.3485165,0.77102023,1.0197172,-0.00878627,-0.07679905,1.1276759,1.057454,0.119076885,0.20197786,0.9913269,1.1969657,0.014910142,0.3384757,1.043301,0.82673186,-0.15478,0.3323401,0.75960743,815.9341,802.6374,799.41394,807.8755,822.381,-0.17425537109375,0.12310791015625,0.98541259765625,0.321502685546875,4.747772216796875,5.9515380859375,1,1.0,1.0,1.0,1.0,10.00
2024-10-11 20:13:14.588,0.74552464,-0.27473313,0.3485165,0.77102023,1.0197172,-0.00878627,-0.07679905,1.1276759,1.057454,0.119076885,0.20197786,0.9913269,1.1969657,0.014910142,0.3384757,1.043301,0.82673186,-0.15478,0.3323401,0.75960743,809.0842,803.0403,801.4286,816.7399,814.3223,-0.17425537109375,0.12310791015625,0.98541259765625,0.321502685546875,4.747772216796875,5.9515380859375,1,1.0,1.0,1.0,1.0,10.00
2024-10-11 20:13:14.588,0.74552464,-0.27473313,0.3485165,0.77102023,1.0197172,-0.00878627,-0.07679905,1.1276759,1.057454,0.119076885,0.20197786,0.9913269,1.1969657,0.014910142,0.3384757,1.043301,0.82673186,-0.15478,0.3323401,0.75960743,809.89014,799.81683,803.44324,819.9634,850.989,-0.17425537109375,0.12310791015625,0.98541259765625,0.321502685546875,4.747772216796875,5.9515380859375,1,1.0,1.0,1.0,1.0,10.00
2024-10-11 20:13:14.589,0.74552464,-0.27473313,0.3485165,0.77102023,1.0197172,-0.00878627,-0.07679905,1.1276759,1.057454,0.119076885,0.20197786,0.9913269,1.1969657,0.014910142,0.3384757,1.043301,0.82673186,-0.15478,0.3323401,0.75960743,808.68134,797.8022,799.011,815.9341,930.7692,-0.17425537109375,0.12310791015625,0.98541259765625,0.321502685546875,4.747772216796875,5.9515380859375,1,1.0,1.0,1.0,1.0,10.00
2024-10-11 20:13:14.590,0.74552464,-0.27473313,0.3485165,0.77102023,1.0197172,-0.00878627,-0.07679905,1.1276759,1.057454,0.119076885,0.20197786,0.9913269,1.1969657,0.014910142,0.3384757,1.043301,0.82673186,-0.15478,0.3323401,0.75960743,806.6667,802.6374,796.1905,808.68134,865.09155,-0.17425537109375,0.12310791015625,0.98541259765625,0.321502685546875,4.747772216796875,5.9515380859375,1,1.0,1.0,1.0,1.0,10.00
2024-10-11 20:13:14.590,0.74552464,-0.27473313,0.3485165,0.77102023,1.0197172,-0.00878627,-0.07679905,1.1276759,1.057454,0.119076885,0.20197786,0.9913269,1.1969657,0.014910142,0.3384757,1.043301,0.82673186,-0.15478,0.3323401,0.75960743,807.8755,800.6227,798.20514,806.6667,726.08057,-0.17425537109375,0.12310791015625,0.98541259765625,0.321502685546875,4.747772216796875,5.9515380859375,1,1.0,1.0,1.0,1.0,10.00
2024-10-11 20:13:14.591,0.74552464,-0.27473313,0.3485165,0.77102023,1.0197172,-0.00878627,-0.07679905,1.1276759,1.057454,0.119076885,0.20197786,0.9913269,1.1969657,0.014910142,0.3384757,1.043301,0.82673186,-0.15478,0.3323401,0.75960743,808.68134,795.38464,801.02563,806.26373,742.1978,-0.17425537109375,0.12310791015625,0.98541259765625,0.321502685546875,4.747772216796875,5.9515380859375,1,1.0,1.0,1.0,1.0,10.00
2024-10-11 20:13:14.591,0.74552464,-0.27473313,0.3485165,0.77102023,1.0197172,-0.00878627,-0.07679905,1.1276759,1.057454,0.119076885,0.20197786,0.9913269,1.1969657,0.014910142,0.3384757,1.043301,0.82673186,-0.15478,0.3323401,0.75960743,803.8461,797.3993,796.1905,803.8461,904.9817,-0.17425537109375,0.12310791015625,0.98541259765625,0.321502685546875,4.747772216796875,5.9515380859375,1,1.0,1.0,1.0,1.0,10.00
2024-10-11 20:13:14.592,0.74552464,-0.27473313,0.3485165,0.77102023,1.0197172,-0.00878627,-0.07679905,1.1276759,1.057454,0.119076885,0.20197786,0.9913269,1.1969657,0.014910142,0.3384757,1.043301,0.82673186,-0.15478,0.3323401,0.75960743,804.65204,804.65204,793.7729,805.05493,1013.7729,-0.17425537109375,0.12310791015625,0.98541259765625,0.321502685546875,4.747772216796875,5.9515380859375,1,1.0,1.0,1.0,1.0,10.00
2024-10-11 20:13:14.593,0.74552464,-0.27473313,0.3485165,0.77102023,1.0197172,-0.00878627,-0.07679905,1.1276759,1.057454,0.119076885,0.20197786,0.9913269,1.1969657,0.014910142,0.3384757,1.043301,0.82673186,-0.15478,0.3323401,0.75960743,809.0842,808.2784,791.3553,800.2198,798.20514,-0.17425537109375,0.12310791015625,0.98541259765625,0.321502685546875,4.747772216796875,5.9515380859375,1,1.0,1.0,1.0,1.0,10.00
2024-10-11 20:13:14.593,0.74552464,-0.27473313,0.3485165,0.77102023,1.0197172,-0.00878627,-0.07679905,1.1276759,1.057454,0.119076885,0.20197786,0.9913269,1.1969657,0.014910142,0.3384757,1.043301,0.82673186,-0.15478,0.3323401,0.75960743,812.3077,804.2491,785.31134,798.20514,747.8388,-0.17425537109375,0.12310791015625,0.98541259765625,0.321502685546875,4.747772216796875,5.9515380859375,1,1.0,1.0,1.0,1.0,10.00
2024-10-11 20:13:14.594,0.74552464,-0.27473313,0.3485165,0.77102023,1.0197172,-0.00878627,-0.07679905,1.1276759,1.057454,0.119076885,0.20197786,0.9913269,1.1969657,0.014910142,0.3384757,1.043301,0.82673186,-0.15478,0.3323401,0.75960743,807.0696,794.57874,792.1612,798.60803,732.1245,-0.17425537109375,0.12310791015625,0.98541259765625,0.321502685546875,4.747772216796875,5.9515380859375,1,1.0,1.0,1.0,1.0,10.00
2024-10-11 20:13:14.595,0.74552464,-0.27473313,0.3485165,0.77102023,1.0197172,-0.00878627,-0.07679905,1.1276759,1.057454,0.119076885,0.20197786,0.9913269,1.1969657,0.014910142,0.3384757,1.043301,0.82673186,-0.15478,0.3323401,0.75960743,804.2491,785.7143,793.36993,800.2198,765.56775,-0.17425537109375,0.12310791015625,0.98541259765625,0.321502685546875,4.747772216796875,5.9515380859375,1,1.0,1.0,1.0,1.0,10.00
2024-10-11 20:13:14.595,0.74552464,-0.27473313,0.3485165,0.77102023,1.0197172,-0.00878627,-0.07679905,1.1276759,1.057454,0.119076885,0.20197786,0.9913269,1.1969657,0.014910142,0.3384757,1.043301,0.82673186,-0.15478,0.3323401,0.75960743,805.05493,794.57874,786.9231,801.4286,871.9414,-0.17425537109375,0.12310791015625,0.98541259765625,0.321502685546875,4.747772216796875,5.9515380859375,1,1.0,1.0,1.0,1.0,10.00
2024-10-11 20:13:14.596,0.74552464,-0.27473313,0.3485165,0.77102023,1.0197172,-0.00878627,-0.07679905,1.1276759,1.057454,0.119076885,0.20197786,0.9913269,1.1969657,0.014910142,0.3384757,1.043301,0.82673186,-0.15478,0.3323401,0.75960743,801.02563,795.38464,789.7436,798.60803,830.0366,-0.17425537109375,0.12310791015625,0.98541259765625,0.321502685546875,4.747772216796875,5.9515380859375,1,1.0,1.0,1.0,1.0,10.00
2024-10-11 20:13:14.597,0.74552464,-0.27473313,0.3485165,0.77102023,1.0197172,-0.00878627,-0.07679905,1.1276759,1.057454,0.119076885,0.20197786,0.9913269,1.1969657,0.014910142,0.3384757,1.043301,0.82673186,-0.15478,0.3323401,0.75960743,800.6227,785.31134,792.96704,805.8608,1059.7069,-0.17425537109375,0.12310791015625,0.98541259765625,0.321502685546875,4.747772216796875,5.9515380859375,1,1.0,1.0,1.0,1.0,10.00
2024-10-11 20:13:14.597,0.74552464,-0.27473313,0.3485165,0.77102023,1.0197172,-0.00878627,-0.07679905,1.1276759,1.057454,0.119076885,0.20197786,0.9913269,1.1969657,0.014910142,0.3384757,1.043301,0.82673186,-0.15478,0.3323401,0.75960743,798.60803,788.5348,791.3553,811.0989,1035.9341,-0.17425537109375,0.12310791015625,0.98541259765625,0.321502685546875,4.747772216796875,5.9515380859375,1,1.0,1.0,1.0,1.0,10.00
2024-10-11 20:13:14.598,0.76702964,-0.3175104,0.3485165,0.79927063,0.9341673,-0.0068300506,-0.07679905,1.0360047,1.0236162,0.119076885,0.20197786,0.86904275,1.123079,-0.04779708,0.3384757,0.9800615,0.73415923,-0.23745842,0.3323401,0.6760788,800.6227,794.9817,791.3553,802.6374,579.011,-0.17425537109375,0.12310791015625,0.98541259765625,0.321502685546875,4.747772216796875,5.9515380859375,1,1.0,1.0,1.0,1.0,10.00
2024-10-11 20:13:14.604,0.76702964,-0.3175104,0.3485165,0.79927063,0.9341673,-0.0068300506,-0.07679905,1.0360047,1.0236162,0.119076885,0.20197786,0.86904275,1.123079,-0.04779708,0.3384757,0.9800615,0.73415923,-0.23745842,0.3323401,0.6760788,804.2491,793.36993,792.5641,803.44324,711.978,-0.17425537109375,0.12310791015625,0.98541259765625,0.321502685546875,4.747772216796875,5.9515380859375,1,1.0,1.0,1.0,1.0,10.00
2024-10-11 20:13:14.604,0.76702964,-0.3175104,0.3485165,0.79927063,0.9341673,-0.0068300506,-0.07679905,1.0360047,1.0236162,0.119076885,0.20197786,0.86904275,1.123079,-0.04779708,0.3384757,0.9800615,0.73415923,-0.23745842,0.3323401,0.6760788,801.4286,790.54944,791.3553,799.011,911.4286,-0.17425537109375,0.12310791015625,0.98541259765625,0.321502685546875,4.747772216796875,5.9515380859375,1,1.0,1.0,1.0,1.0,10.00
2024-10-11 20:13:14.628,0.76702964,-0.3175104,0.3485165,0.79927063,0.9341673,-0.0068300506,-0.07679905,1.0360047,1.0236162,0.119076885,0.20197786,0.86904275,1.123079,-0.04779708,0.3384757,0.9800615,0.73415923,-0.23745842,0.3323401,0.6760788,805.8608,791.75824,789.7436,795.78754,747.8388,-0.1890869140625,0.1221923828125,0.991943359375,-0.58319091796875,-3.058013916015625,4.53094482421875,1,1.0,1.0,1.0,1.0,10.00
2024-10-11 20:13:14.629,0.76702964,-0.3175104,0.3485165,0.79927063,0.9341673,-0.0068300506,-0.07679905,1.0360047,1.0236162,0.119076885,0.20197786,0.86904275,1.123079,-0.04779708,0.3384757,0.9800615,0.73415923,-0.23745842,0.3323401,0.6760788,807.47253,792.1612,790.14655,792.5641,609.6337,-0.1890869140625,0.1221923828125,0.991943359375,-0.58319091796875,-3.058013916015625,4.53094482421875,1,1.0,1.0,1.0,1.0,10.00
2024-10-11 20:13:14.630,0.76702964,-0.3175104,0.3485165,0.79927063,0.9341673,-0.0068300506,-0.07679905,1.0360047,1.0236162,0.119076885,0.20197786,0.86904275,1.123079,-0.04779708,0.3384757,0.9800615,0.73415923,-0.23745842,0.3323401,0.6760788,810.293,792.1612,791.75824,797.3993,743.8095,-0.1890869140625,0.1221923828125,0.991943359375,-0.58319091796875,-3.058013916015625,4.53094482421875,1,1.0,1.0,1.0,1.0,10.00
2024-10-11 20:13:14.630,0.76702964,-0.3175104,0.3485165,0.79927063,0.9341673,-0.0068300506,-0.07679905,1.0360047,1.0236162,0.119076885,0.20197786,0.86904275,1.123079,-0.04779708,0.3384757,0.9800615,0.73415923,-0.23745842,0.3323401,0.6760788,808.68134,788.1319,789.7436,811.0989,891.28204,-0.1890869140625,0.1221923828125,0.991943359375,-0.58319091796875,-3.058013916015625,4.53094482421875,1,1.0,1.0,1.0,1.0,10.00
2024-10-11 20:13:14.631,0.76702964,-0.3175104,0.3485165,0.79927063,0.9341673,-0.0068300506,-0.07679905,1.0360047,1.0236162,0.119076885,0.20197786,0.86904275,1.123079,-0.04779708,0.3384757,0.9800615,0.73415923,-0.23745842,0.3323401,0.6760788,805.4579,782.8938,793.36993,814.3223,803.8461,-0.1890869140625,0.1221923828125,0.991943359375,-0.58319091796875,-3.058013916015625,4.53094482421875,1,1.0,1.0,1.0,1.0,10.00
2024-10-11 20:13:14.632,0.76702964,-0.3175104,0.3485165,0.79927063,0.9341673,-0.0068300506,-0.07679905,1.0360047,1.0236162,0.119076885,0.20197786,0.86904275,1.123079,-0.04779708,0.3384757,0.9800615,0.73415923,-0.23745842,0.3323401,0.6760788,809.0842,787.326,802.23444,814.7253,791.75824,-0.1890869140625,0.1221923828125,0.991943359375,-0.58319091796875,-3.058013916015625,4.53094482421875,1,1.0,1.0,1.0,1.0,10.00
2024-10-11 20:13:14.632,0.76702964,-0.3175104,0.3485165,0.79927063,0.9341673,-0.0068300506,-0.07679905,1.0360047,1.0236162,0.119076885,0.20197786,0.86904275,1.123079,-0.04779708,0.3384757,0.9800615,0.73415923,-0.23745842,0.3323401,0.6760788,815.9341,791.3553,803.0403,820.3663,941.2454,-0.1890869140625,0.1221923828125,0.991943359375,-0.58319091796875,-3.058013916015625,4.53094482421875,1,1.0,1.0,1.0,1.0,10.00
2024-10-11 20:13:14.633,0.76702964,-0.3175104,0.3485165,0.79927063,0.9341673,-0.0068300506,-0.07679905,1.0360047,1.0236162,0.119076885,0.20197786,0.86904275,1.123079,-0.04779708,0.3384757,0.9800615,0.73415923,-0.23745842,0.3323401,0.6760788,819.15753,791.75824,800.2198,821.5751,908.60803,-0.1890869140625,0.1221923828125,0.991943359375,-0.58319091796875,-3.058013916015625,4.53094482421875,1,1.0,1.0,1.0,1.0,10.00
2024-10-11 20:13:14.634,0.76702964,-0.3175104,0.3485165,0.79927063,0.9341673,-0.0068300506,-0.07679905,1.0360047,1.0236162,0.119076885,0.20197786,0.86904275,1.123079,-0.04779708,0.3384757,0.9800615,0.73415923,-0.23745842,0.3323401,0.6760788,815.9341,793.7729,805.8608,817.1429,718.4249,-0.1890869140625,0.1221923828125,0.991943359375,-0.58319091796875,-3.058013916015625,4.53094482421875,1,1.0,1.0,1.0,1.0,10.00
2024-10-11 20:13:14.634,0.76702964,-0.3175104,0.3485165,0.79927063,0.9341673,-0.0068300506,-0.07679905,1.0360047,1.0236162,0.119076885,0.20197786,0.86904275,1.123079,-0.04779708,0.3384757,0.9800615,0.73415923,-0.23745842,0.3323401,0.6760788,809.89014,795.38464,809.0842,813.5165,574.57874,-0.1890869140625,0.1221923828125,0.991943359375,-0.58319091796875,-3.058013916015625,4.53094482421875,1,1.0,1.0,1.0,1.0,10.00
2024-10-11 20:13:14.635,0.76702964,-0.3175104,0.3485165,0.79927063,0.9341673,-0.0068300506,-0.07679905,1.0360047,1.0236162,0.119076885,0.20197786,0.86904275,1.123079,-0.04779708,0.3384757,0.9800615,0.73415923,-0.23745842,0.3323401,0.6760788,816.7399,788.5348,804.65204,826.4103,787.326,-0.1890869140625,0.1221923828125,0.991943359375,-0.58319091796875,-3.058013916015625,4.53094482421875,1,1.0,1.0,1.0,1.0,10.00
2024-10-11 20:13:14.635,0.76702964,-0.3175104,0.3485165,0.79927063,0.9341673,-0.0068300506,-0.07679905,1.0360047,1.0236162,0.119076885,0.20197786,0.86904275,1.123079,-0.04779708,0.3384757,0.9800615,0.73415923,-0.23745842,0.3323401,0.6760788,826.8132,786.9231,804.65204,838.49817,1167.2894,-0.1890869140625,0.1221923828125,0.991943359375,-0.58319091796875,-3.058013916015625,4.53094482421875,1,1.0,1.0,1.0,1.0,10.00
2024-10-11 20:13:14.688,0.76702964,-0.3175104,0.3485165,0.79927063,0.9341673,-0.0068300506,-0.07679905,1.0360047,1.0236162,0.119076885,0.20197786,0.86904275,1.123079,-0.04779708,0.3384757,0.9800615,0.73415923,-0.23745842,0.3323401,0.6760788,812.3077,798.60803,798.60803,812.71063,957.76556,-0.1707763671875,0.11529541015625,0.9881591796875,-1.443023681640625,-5.854339599609375,2.930908203125,1,1.0,1.0,1.0,1.0,10.00
2024-10-11 20:13:14.689,0.76702964,-0.3175104,0.3485165,0.79927063,0.9341673,-0.0068300506,-0.07679905,1.0360047,1.0236162,0.119076885,0.20197786,0.86904275,1.123079,-0.04779708,0.3384757,0.9800615,0.73415923,-0.23745842,0.3323401,0.6760788,808.68134,801.8315,794.57874,799.41394,736.9597,-0.1707763671875,0.11529541015625,0.9881591796875,-1.443023681640625,-5.854339599609375,2.930908203125,1,1.0,1.0,1.0,1.0,10.00
2024-10-11 20:13:14.689,0.76702964,-0.3175104,0.3485165,0.79927063,0.9341673,-0.0068300506,-0.07679905,1.0360047,1.0236162,0.119076885,0.20197786,0.86904275,1.123079,-0.04779708,0.3384757,0.9800615,0.73415923,-0.23745842,0.3323401,0.6760788,810.293,799.81683,801.4286,801.02563,778.46155,-0.1707763671875,0.11529541015625,0.9881591796875,-1.443023681640625,-5.854339599609375,2.930908203125,1,1.0,1.0,1.0,1.0,10.00
2024-10-11 20:13:14.690,0.76702964,-0.3175104,0.3485165,0.79927063,0.9341673,-0.0068300506,-0.07679905,1.0360047,1.0236162,0.119076885,0.20197786,0.86904275,1.123079,-0.04779708,0.3384757,0.9800615,0.73415923,-0.23745842,0.3323401,0.6760788,807.8755,801.4286,798.60803,802.23444,834.4689,-0.1707763671875,0.11529541015625,0.9881591796875,-1.443023681640625,-5.854339599609375,2.930908203125,1,1.0,1.0,1.0,1.0,10.00
2024-10-11 20:13:14.690,0.76702964,-0.3175104,0.3485165,0.79927063,0.9341673,-0.0068300506,-0.07679905,1.0360047,1.0236162,0.119076885,0.20197786,0.86904275,1.123079,-0.04779708,0.3384757,0.9800615,0.73415923,-0.23745842,0.3323401,0.6760788,816.7399,800.6227,793.7729,811.9048,756.30035,-0.1707763671875,0.11529541015625,0.9881591796875,-1.443023681640625,-5.854339599609375,2.930908203125,1,1.0,1.0,1.0,1.0,10.00
2024-10-11 20:13:14.691,0.76702964,-0.3175104,0.3485165,0.79927063,0.9341673,-0.0068300506,-0.07679905,1.0360047,1.0236162,0.119076885,0.20197786,0.86904275,1.123079,-0.04779708,0.3384757,0.9800615,0.73415923,-0.23745842,0.3323401,0.6760788,821.5751,802.6374,798.20514,810.293,859.85345,-0.1707763671875,0.11529541015625,0.9881591796875,-1.443023681640625,-5.854339599609375,2.930908203125,1,1.0,1.0,1.0,1.0,10.00
2024-10-11 20:13:14.692,0.76702964,-0.3175104,0.3485165,0.79927063,0.9341673,-0.0068300506,-0.07679905,1.0360047,1.0236162,0.119076885,0.20197786,0.86904275,1.123079,-0.04779708,0.3384757,0.9800615,0.73415923,-0.23745842,0.3323401,0.6760788,826.0073,802.6374,800.6227,802.6374,980.7326,-0.1707763671875,0.11529541015625,0.9881591796875,-1.443023681640625,-5.854339599609375,2.930908203125,1,1.0,1.0,1.0,1.0,10.00
2024-10-11 20:13:14.692,0.76702964,-0.3175104,0.3485165,0.79927063,0.9341673,-0.0068300506,-0.07679905,1.0360047,1.0236162,0.119076885,0.20197786,0.86904275,1.123079,-0.04779708,0.3384757,0.9800615,0.73415923,-0.23745842,0.3323401,0.6760788,817.5458,802.23444,797.3993,804.65204,823.9927,-0.1707763671875,0.11529541015625,0.9881591796875,-1.443023681640625,-5.854339599609375,2.930908203125,1,1.0,1.0,1.0,1.0,10.00
2024-10-11 20:13:14.693,0.76702964,-0.3175104,0.3485165,0.79927063,0.9341673,-0.0068300506,-0.07679905,1.0360047,1.0236162,0.119076885,0.20197786,0.86904275,1.123079,-0.04779708,0.3384757,0.9800615,0.73415923,-0.23745842,0.3323401,0.6760788,807.47253,801.8315,795.38464,807.8755,724.87177,-0.1707763671875,0.11529541015625,0.9881591796875,-1.443023681640625,-5.854339599609375,2.930908203125,1,1.0,1.0,1.0,1.0,10.00
2024-10-11 20:13:14.693,0.76702964,-0.3175104,0.3485165,0.79927063,0.9341673,-0.0068300506,-0.07679905,1.0360047,1.0236162,0.119076885,0.20197786,0.86904275,1.123079,-0.04779708,0.3384757,0.9800615,0.73415923,-0.23745842,0.3323401,0.6760788,813.91943,794.9817,795.38464,804.65204,823.9927,-0.1707763671875,0.11529541015625,0.9881591796875,-1.443023681640625,-5.854339599609375,2.930908203125,1,1.0,1.0,1.0,1.0,10.00
2024-10-11 20:13:14.694,0.76702964,-0.3175104,0.3485165,0.79927063,0.9341673,-0.0068300506,-0.07679905,1.0360047,1.0236162,0.119076885,0.20197786,0.86904275,1.123079,-0.04779708,0.3384757,0.9800615,0.73415923,-0.23745842,0.3323401,0.6760788,821.978,792.96704,795.38464,801.8315,917.8755,-0.1707763671875,0.11529541015625,0.9881591796875,-1.443023681640625,-5.854339599609375,2.930908203125,1,1.0,1.0,1.0,1.0,10.00
2024-10-11 20:13:14.695,0.7752431,-0.33414596,0.28233838,0.79927063,0.81841046,-0.0024198086,-0.08109687,1.0360047,1.0000343,0.101243205,0.18025266,0.86904275,1.0225438,-0.10787789,0.2509329,0.9800615,0.61852497,-0.30448857,0.13514705,0.6760788,826.8132,803.44324,799.41394,801.8315,831.2454,-0.1707763671875,0.11529541015625,0.9881591796875,-1.443023681640625,-5.854339599609375,2.930908203125,1,1.0,1.0,1.0,1.0,10.00
2024-10-11 20:13:14.701,0.7752431,-0.33414596,0.28233838,0.79927063,0.81841046,-0.0024198086,-0.08109687,1.0360047,1.0000343,0.101243205,0.18025266,0.86904275,1.0225438,-0.10787789,0.2509329,0.9800615,0.61852497,-0.30448857,0.13514705,0.6760788,812.3077,800.6227,801.8315,807.8755,828.8278,-0.15118408203125,0.10858154296875,0.98834228515625,-0.800018310546875,-1.18133544921875,2.175750732421875,1,1.0,1.0,1.0,1.0,10.00
2024-10-11 20:13:14.701,0.7752431,-0.33414596,0.28233838,0.79927063,0.81841046,-0.0024198086,-0.08109687,1.0360047,1.0000343,0.101243205,0.18025266,0.86904275,1.0225438,-0.10787789,0.2509329,0.9800615,0.61852497,-0.30448857,0.13514705,0.6760788,795.78754,789.34064,799.011,811.9048,949.707,-0.15118408203125,0.10858154296875,0.98834228515625,-0.800018310546875,-1.18133544921875,2.175750732421875,1,1.0,1.0,1.0,1.0,10.00
2024-10-11 20:13:14.702,0.7752431,-0.33414596,0.28233838,0.79927063,0.81841046,-0.0024198086,-0.08109687,1.0360047,1.0000343,0.101243205,0.18025266,0.86904275,1.0225438,-0.10787789,0.2509329,0.9800615,0.61852497,-0.30448857,0.13514705,0.6760788,803.0403,790.54944,796.99634,815.5311,1074.6154,-0.15118408203125,0.10858154296875,0.98834228515625,-0.800018310546875,-1.18133544921875,2.175750732421875,1,1.0,1.0,1.0,1.0,10.00
2024-10-11 20:13:14.703,0.7752431,-0.33414596,0.28233838,0.79927063,0.81841046,-0.0024198086,-0.08109687,1.0360047,1.0000343,0.101243205,0.18025266,0.86904275,1.0225438,-0.10787789,0.2509329,0.9800615,0.61852497,-0.30448857,0.13514705,0.6760788,805.4579,794.57874,794.57874,816.7399,932.7839,-0.15118408203125,0.10858154296875,0.98834228515625,-0.800018310546875,-1.18133544921875,2.175750732421875,1,1.0,1.0,1.0,1.0,10.00
2024-10-11 20:13:14.703,0.7752431,-0.33414596,0.28233838,0.79927063,0.81841046,-0.0024198086,-0.08109687,1.0360047,1.0000343,0.101243205,0.18025266,0.86904275,1.0225438,-0.10787789,0.2509329,0.9800615,0.61852497,-0.30448857,0.13514705,0.6760788,797.8022,795.38464,792.5641,815.9341,706.337,-0.15118408203125,0.10858154296875,0.98834228515625,-0.800018310546875,-1.18133544921875,2.175750732421875,1,1.0,1.0,1.0,1.0,10.00
2024-10-11 20:13:14.704,0.7752431,-0.33414596,0.28233838,0.79927063,0.81841046,-0.0024198086,-0.08109687,1.0360047,1.0000343,0.101243205,0.18025266,0.86904275,1.0225438,-0.10787789,0.2509329,0.9800615,0.61852497,-0.30448857,0.13514705,0.6760788,794.57874,796.99634,798.20514,814.3223,893.2967,-0.15118408203125,0.10858154296875,0.98834228515625,-0.800018310546875,-1.18133544921875,2.175750732421875,1,1.0,1.0,1.0,1.0,10.00
2024-10-11 20:13:14.704,0.7752431,-0.33414596,0.28233838,0.79927063,0.81841046,-0.0024198086,-0.08109687,1.0360047,1.0000343,0.101243205,0.18025266,0.86904275,1.0225438,-0.10787789,0.2509329,0.9800615,0.61852497,-0.30448857,0.13514705,0.6760788,799.81683,799.41394,802.23444,814.7253,1040.3663,-0.15118408203125,0.10858154296875,0.98834228515625,-0.800018310546875,-1.18133544921875,2.175750732421875,1,1.0,1.0,1.0,1.0,10.00
2024-10-11 20:13:14.705,0.7752431,-0.33414596,0.28233838,0.79927063,0.81841046,-0.0024198086,-0.08109687,1.0360047,1.0000343,0.101243205,0.18025266,0.86904275,1.0225438,-0.10787789,0.2509329,0.9800615,0.61852497,-0.30448857,0.13514705,0.6760788,812.3077,803.44324,803.44324,813.91943,751.8681,-0.15118408203125,0.10858154296875,0.98834228515625,-0.800018310546875,-1.18133544921875,2.175750732421875,1,1.0,1.0,1.0,1.0,10.00
2024-10-11 20:13:14.706,0.7752431,-0.33414596,0.28233838,0.79927063,0.81841046,-0.0024198086,-0.08109687,1.0360047,1.0000343,0.101243205,0.18025266,0.86904275,1.0225438,-0.10787789,0.2509329,0.9800615,0.61852497,-0.30448857,0.13514705,0.6760788,819.15753,807.8755,804.2491,815.12823,681.3553,-0.15118408203125,0.10858154296875,0.98834228515625,-0.800018310546875,-1.18133544921875,2.175750732421875,1,1.0,1.0,1.0,1.0,10.00
2024-10-11 20:13:14.706,0.7752431,-0.33414596,0.28233838,0.79927063,0.81841046,-0.0024198086,-0.08109687,1.0360047,1.0000343,0.101243205,0.18025266,0.86904275,1.0225438,-0.10787789,0.2509329,0.9800615,0.61852497,-0.30448857,0.13514705,0.6760788,821.1722,803.0403,803.0403,816.7399,946.8865,-0.15118408203125,0.10858154296875,0.98834228515625,-0.800018310546875,-1.18133544921875,2.175750732421875,1,1.0,1.0,1.0,1.0,10.00
2024-10-11 20:13:14.707,0.7752431,-0.33414596,0.28233838,0.79927063,0.81841046,-0.0024198086,-0.08109687,1.0360047,1.0000343,0.101243205,0.18025266,0.86904275,1.0225438,-0.10787789,0.2509329,0.9800615,0.61852497,-0.30448857,0.13514705,0.6760788,816.337,797.8022,796.99634,814.3223,944.4689,-0.15118408203125,0.10858154296875,0.98834228515625,-0.800018310546875,-1.18133544921875,2.175750732421875,1,1.0,1.0,1.0,1.0,10.00
2024-10-11 20:13:14.708,0.7752431,-0.33414596,0.28233838,0.79927063,0.81841046,-0.0024198086,-0.08109687,1.0360047,1.0000343,0.101243205,0.18025266,0.86904275,1.0225438,-0.10787789,0.2509329,0.9800615,0.61852497,-0.30448857,0.13514705,0.6760788,809.89014,802.23444,799.41394,813.5165,653.5531,-0.15118408203125,0.10858154296875,0.98834228515625,-0.800018310546875,-1.18133544921875,2.175750732421875,1,1.0,1.0,1.0,1.0,10.00
2024-10-11 20:13:14.801,0.7752431,-0.33414596,0.28233838,0.79927063,0.81841046,-0.0024198086,-0.08109687,1.0360047,1.0000343,0.101243205,0.18025266,0.86904275,1.0225438,-0.10787789,0.2509329,0.9800615,0.61852497,-0.30448857,0.13514705,0.6760788,817.5458,806.6667,805.8608,819.5604,801.02563,-0.1558837890625,0.10821533203125,0.9967041015625,0.127105712890625,2.489776611328125,0.6878662109375,1,1.0,1.0,1.0,1.0,10.00
2024-10-11 20:13:14.802,0.7752431,-0.33414596,0.28233838,0.79927063,0.81841046,-0.0024198086,-0.08109687,1.0360047,1.0000343,0.101243205,0.18025266,0.86904275,1.0225438,-0.10787789,0.2509329,0.9800615,0.61852497,-0.30448857,0.13514705,0.6760788,817.9487,803.44324,805.05493,820.3663,1111.6849,-0.1558837890625,0.10821533203125,0.9967041015625,0.127105712890625,2.489776611328125,0.6878662109375,1,1.0,1.0,1.0,1.0,10.00
2024-10-11 20:13:14.803,0.7752431,-0.33414596,0.28233838,0.79927063,0.81841046,-0.0024198086,-0.08109687,1.0360047,1.0000343,0.101243205,0.18025266,0.86904275,1.0225438,-0.10787789,0.2509329,0.9800615,0.61852497,-0.30448857,0.13514705,0.6760788,818.7546,805.4579,804.2491,819.5604,939.6337,-0.1558837890625,0.10821533203125,0.9967041015625,0.127105712890625,2.489776611328125,0.6878662109375,1,1.0,1.0,1.0,1.0,10.00
2024-10-11 20:13:14.803,0.7752431,-0.33414596,0.28233838,0.79927063,0.81841046,-0.0024198086,-0.08109687,1.0360047,1.0000343,0.101243205,0.18025266,0.86904275,1.0225438,-0.10787789,0.2509329,0.9800615,0.61852497,-0.30448857,0.13514705,0.6760788,826.0073,804.2491,809.0842,820.3663,706.7399,-0.1558837890625,0.10821533203125,0.9967041015625,0.127105712890625,2.489776611328125,0.6878662109375,1,1.0,1.0,1.0,1.0,10.00
2024-10-11 20:13:14.804,0.7752431,-0.33414596,0.28233838,0.79927063,0.81841046,-0.0024198086,-0.08109687,1.0360047,1.0000343,0.101243205,0.18025266,0.86904275,1.0225438,-0.10787789,0.2509329,0.9800615,0.61852497,-0.30448857,0.13514705,0.6760788,821.5751,798.20514,808.68134,818.3516,809.0842,-0.1558837890625,0.10821533203125,0.9967041015625,0.127105712890625,2.489776611328125,0.6878662109375,1,1.0,1.0,1.0,1.0,10.00
2024-10-11 20:13:14.805,0.7752431,-0.33414596,0.28233838,0.79927063,0.81841046,-0.0024198086,-0.08109687,1.0360047,1.0000343,0.101243205,0.18025266,0.86904275,1.0225438,-0.10787789,0.2509329,0.9800615,0.61852497,-0.30448857,0.13514705,0.6760788,822.7839,805.4579,802.23444,819.9634,1232.967,-0.1558837890625,0.10821533203125,0.9967041015625,0.127105712890625,2.489776611328125,0.6878662109375,1,1.0,1.0,1.0,1.0,10.00
2024-10-11 20:13:14.805,0.7752431,-0.33414596,0.28233838,0.79927063,0.81841046,-0.0024198086,-0.08109687,1.0360047,1.0000343,0.101243205,0.18025266,0.86904275,1.0225438,-0.10787789,0.2509329,0.9800615,0.61852497,-0.30448857,0.13514705,0.6760788,824.7985,803.8461,798.20514,819.15753,1397.7656,-0.1558837890625,0.10821533203125,0.9967041015625,0.127105712890625,2.489776611328125,0.6878662109375,1,1.0,1.0,1.0,1.0,10.00
2024-10-11 20:13:14.806,0.7752431,-0.33414596,0.28233838,0.79927063,0.81841046,-0.0024198086,-0.08109687,1.0360047,1.0000343,0.101243205,0.18025266,0.86904275,1.0225438,-0.10787789,0.2509329,0.9800615,0.61852497,-0.30448857,0.13514705,0.6760788,821.1722,801.02563,801.4286,814.7253,876.77655,-0.1558837890625,0.10821533203125,0.9967041015625,0.127105712890625,2.489776611328125,0.6878662109375,1,1.0,1.0,1.0,1.0,10.00
2024-10-11 20:13:14.806,0.7752431,-0.33414596,0.28233838,0.79927063,0.81841046,-0.0024198086,-0.08109687,1.0360047,1.0000343,0.101243205,0.18025266,0.86904275,1.0225438,-0.10787789,0.2509329,0.9800615,0.61852497,-0.30448857,0.13514705,0.6760788,815.9341,799.81683,804.65204,815.12823,666.04395,-0.1558837890625,0.10821533203125,0.9967041015625,0.127105712890625,2.489776611328125,0.6878662109375,1,1.0,1.0,1.0,1.0,10.00
2024-10-11 20:13:14.807,0.7752431,-0.33414596,0.28233838,0.79927063,0.81841046,-0.0024198086,-0.08109687,1.0360047,1.0000343,0.101243205,0.18025266,0.86904275,1.0225438,-0.10787789,0.2509329,0.9800615,0.61852497,-0.30448857,0.13514705,0.6760788,812.3077,796.5934,801.8315,818.3516,827.2161,-0.1558837890625,0.10821533203125,0.9967041015625,0.127105712890625,2.489776611328125,0.6878662109375,1,1.0,1.0,1.0,1.0,10.00
2024-10-11 20:13:14.808,0.7752431,-0.33414596,0.28233838,0.79927063,0.81841046,-0.0024198086,-0.08109687,1.0360047,1.0000343,0.101243205,0.18025266,0.86904275,1.0225438,-0.10787789,0.2509329,0.9800615,0.61852497,-0.30448857,0.13514705,0.6760788,811.9048,799.81683,804.2491,817.9487,781.685,-0.1558837890625,0.10821533203125,0.9967041015625,0.127105712890625,2.489776611328125,0.6878662109375,1,1.0,1.0,1.0,1.0,10.00
2024-10-11 20:13:14.808,0.7752431,-0.33414596,0.28233838,0.79927063,0.81841046,-0.0024198086,-0.08109687,1.0360047,1.0000343,0.101243205,0.18025266,0.86904275,1.0225438,-0.10787789,0.2509329,0.9800615,0.61852497,-0.30448857,0.13514705,0.6760788,808.68134,801.4286,804.2491,816.337,628.97437,-0.1558837890625,0.10821533203125,0.9967041015625,0.127105712890625,2.489776611328125,0.6878662109375,1,1.0,1.0,1.0,1.0,10.00
2024-10-11 20:13:14.834,0.7752431,-0.33414596,0.28233838,0.79927063,0.81841046,-0.0024198086,-0.08109687,1.0360047,1.0000343,0.101243205,0.18025266,0.86904275,1.0225438,-0.10787789,0.2509329,0.9800615,0.61852497,-0.30448857,0.13514705,0.6760788,809.89014,792.96704,805.8608,819.15753,657.1795,-0.1558837890625,0.10821533203125,0.9967041015625,0.127105712890625,2.489776611328125,0.6878662109375,1,1.0,1.0,1.0,1.0,10.00
2024-10-11 20:13:14.835,0.7472867,-0.32762122,0.20549446,0.79927063,0.67133677,-0.008861798,-0.10163652,1.0360047,0.9752938,0.07548779,0.14690925,0.86904275,0.92185175,-0.15247062,0.17697681,0.9800615,0.49629062,-0.33989426,-0.04046511,0.6760788,806.26373,790.54944,806.26373,819.15753,744.61536,-0.1558837890625,0.10821533203125,0.9967041015625,0.127105712890625,2.489776611328125,0.6878662109375,1,1.0,1.0,1.0,1.0,10.00
2024-10-11 20:13:14.840,0.7472867,-0.32762122,0.20549446,0.79927063,0.67133677,-0.008861798,-0.10163652,1.0360047,0.9752938,0.07548779,0.14690925,0.86904275,0.92185175,-0.15247062,0.17697681,0.9800615,0.49629062,-0.33989426,-0.04046511,0.6760788,804.2491,801.8315,803.8461,811.50183,720.0366,-0.1558837890625,0.10821533203125,0.9967041015625,0.127105712890625,2.489776611328125,0.6878662109375,1,1.0,1.0,1.0,1.0,10.00
2024-10-11 20:13:14.841,0.7472867,-0.32762122,0.20549446,0.79927063,0.67133677,-0.008861798,-0.10163652,1.0360047,0.9752938,0.07548779,0.14690925,0.86904275,0.92185175,-0.15247062,0.17697681,0.9800615,0.49629062,-0.33989426,-0.04046511,0.6760788,803.44324,799.81683,802.23444,805.8608,729.707,-0.1558837890625,0.10821533203125,0.9967041015625,0.127105712890625,2.489776611328125,0.6878662109375,1,1.0,1.0,1.0,1.0,10.00
2024-10-11 20:13:14.841,0.7472867,-0.32762122,0.20549446,0.79927063,0.67133677,-0.008861798,-0.10163652,1.0360047,0.9752938,0.07548779,0.14690925,0.86904275,0.92185175,-0.15247062,0.17697681,0.9800615,0.49629062,-0.33989426,-0.04046511,0.6760788,798.20514,792.96704,799.41394,807.0696,839.707,-0.1558837890625,0.10821533203125,0.9967041015625,0.127105712890625,2.489776611328125,0.6878662109375,1,1.0,1.0,1.0,1.0,10.00
2024-10-11 20:13:14.842,0.7472867,-0.32762122,0.20549446,0.79927063,0.67133677,-0.008861798,-0.10163652,1.0360047,0.9752938,0.07548779,0.14690925,0.86904275,0.92185175,-0.15247062,0.17697681,0.9800615,0.49629062,-0.33989426,-0.04046511,0.6760788,802.6374,794.57874,801.8315,814.7253,969.85345,-0.1558837890625,0.10821533203125,0.9967041015625,0.127105712890625,2.489776611328125,0.6878662109375,1,1.0,1.0,1.0,1.0,10.00
2024-10-11 20:13:14.843,0.7472867,-0.32762122,0.20549446,0.79927063,0.67133677,-0.008861798,-0.10163652,1.0360047,0.9752938,0.07548779,0.14690925,0.86904275,0.92185175,-0.15247062,0.17697681,0.9800615,0.49629062,-0.33989426,-0.04046511,0.6760788,807.47253,797.3993,802.23444,813.1135,969.45056,-0.1558837890625,0.10821533203125,0.9967041015625,0.127105712890625,2.489776611328125,0.6878662109375,1,1.0,1.0,1.0,1.0,10.00
2024-10-11 20:13:14.843,0.7472867,-0.32762122,0.20549446,0.79927063,0.67133677,-0.008861798,-0.10163652,1.0360047,0.9752938,0.07548779,0.14690925,0.86904275,0.92185175,-0.15247062,0.17697681,0.9800615,0.49629062,-0.33989426,-0.04046511,0.6760788,804.65204,793.36993,800.6227,808.2784,802.23444,-0.1558837890625,0.10821533203125,0.9967041015625,0.127105712890625,2.489776611328125,0.6878662109375,1,1.0,1.0,1.0,1.0,10.00
2024-10-11 20:13:14.844,0.7472867,-0.32762122,0.20549446,0.79927063,0.67133677,-0.008861798,-0.10163652,1.0360047,0.9752938,0.07548779,0.14690925,0.86904275,0.92185175,-0.15247062,0.17697681,0.9800615,0.49629062,-0.33989426,-0.04046511,0.6760788,813.91943,789.34064,801.02563,814.7253,795.38464,-0.1558837890625,0.10821533203125,0.9967041015625,0.127105712890625,2.489776611328125,0.6878662109375,1,1.0,1.0,1.0,1.0,10.00
2024-10-11 20:13:14.844,0.7472867,-0.32762122,0.20549446,0.79927063,0.67133677,-0.008861798,-0.10163652,1.0360047,0.9752938,0.07548779,0.14690925,0.86904275,0.92185175,-0.15247062,0.17697681,0.9800615,0.49629062,-0.33989426,-0.04046511,0.6760788,815.5311,782.8938,794.9817,812.71063,926.7399,-0.1558837890625,0.10821533203125,0.9967041015625,0.127105712890625,2.489776611328125,0.6878662109375,1,1.0,1.0,1.0,1.0,10.00
2024-10-11 20:13:14.845,0.7472867,-0.32762122,0.20549446,0.79927063,0.67133677,-0.008861798,-0.10163652,1.0360047,0.9752938,0.07548779,0.14690925,0.86904275,0.92185175,-0.15247062,0.17697681,0.9800615,0.49629062,-0.33989426,-0.04046511,0.6760788,806.26373,788.93774,792.1612,802.23444,772.01465,-0.1558837890625,0.10821533203125,0.9967041015625,0.127105712890625,2.489776611328125,0.6878662109375,1,1.0,1.0,1.0,1.0,10.00
2024-10-11 20:13:14.846,0.7472867,-0.32762122,0.20549446,0.79927063,0.67133677,-0.008861798,-0.10163652,1.0360047,0.9752938,0.07548779,0.14690925,0.86904275,0.92185175,-0.15247062,0.17697681,0.9800615,0.49629062,-0.33989426,-0.04046511,0.6760788,803.8461,801.4286,793.36993,804.65204,697.47253,-0.1558837890625,0.10821533203125,0.9967041015625,0.127105712890625,2.489776611328125,0.6878662109375,1,1.0,1.0,1.0,1.0,10.00
2024-10-11 20:13:14.847,0.7472867,-0.32762122,0.20549446,0.79927063,0.67133677,-0.008861798,-0.10163652,1.0360047,0.9752938,0.07548779,0.14690925,0.86904275,0.92185175,-0.15247062,0.17697681,0.9800615,0.49629062,-0.33989426,-0.04046511,0.6760788,803.44324,799.011,796.5934,809.4872,749.45056,-0.16912841796875,0.109130859375,0.98602294921875,0.478515625,0.635528564453125,0.590667724609375,1,1.0,1.0,1.0,1.0,10.00
2024-10-11 20:13:14.847,0.7472867,-0.32762122,0.20549446,0.79927063,0.67133677,-0.008861798,-0.10163652,1.0360047,0.9752938,0.07548779,0.14690925,0.86904275,0.92185175,-0.15247062,0.17697681,0.9800615,0.49629062,-0.33989426,-0.04046511,0.6760788,809.0842,796.5934,797.3993,804.65204,760.32965,-0.16912841796875,0.109130859375,0.98602294921875,0.478515625,0.635528564453125,0.590667724609375,1,1.0,1.0,1.0,1.0,10.00
2024-10-11 20:13:14.848,0.7472867,-0.32762122,0.20549446,0.79927063,0.67133677,-0.008861798,-0.10163652,1.0360047,0.9752938,0.07548779,0.14690925,0.86904275,0.92185175,-0.15247062,0.17697681,0.9800615,0.49629062,-0.33989426,-0.04046511,0.6760788,809.0842,799.41394,792.5641,797.3993,656.77655,-0.16912841796875,0.109130859375,0.98602294921875,0.478515625,0.635528564453125,0.590667724609375,1,1.0,1.0,1.0,1.0,10.00
2024-10-11 20:13:14.849,0.7472867,-0.32762122,0.20549446,0.79927063,0.67133677,-0.008861798,-0.10163652,1.0360047,0.9752938,0.07548779,0.14690925,0.86904275,0.92185175,-0.15247062,0.17697681,0.9800615,0.49629062,-0.33989426,-0.04046511,0.6760788,806.26373,801.02563,794.57874,801.02563,620.10986,-0.16912841796875,0.109130859375,0.98602294921875,0.478515625,0.635528564453125,0.590667724609375,1,1.0,1.0,1.0,1.0,10.00
2024-10-11 20:13:14.849,0.7472867,-0.32762122,0.20549446,0.79927063,0.67133677,-0.008861798,-0.10163652,1.0360047,0.9752938,0.07548779,0.14690925,0.86904275,0.92185175,-0.15247062,0.17697681,0.9800615,0.49629062,-0.33989426,-0.04046511,0.6760788,812.3077,797.8022,796.99634,809.0842,727.28937,-0.16912841796875,0.109130859375,0.98602294921875,0.478515625,0.635528564453125,0.590667724609375,1,1.0,1.0,1.0,1.0,10.00
2024-10-11 20:13:14.850,0.7472867,-0.32762122,0.20549446,0.79927063,0.67133677,-0.008861798,-0.10163652,1.0360047,0.9752938,0.07548779,0.14690925,0.86904275,0.92185175,-0.15247062,0.17697681,0.9800615,0.49629062,-0.33989426,-0.04046511,0.6760788,815.9341,795.38464,794.17584,806.26373,943.2601,-0.16912841796875,0.109130859375,0.98602294921875,0.478515625,0.635528564453125,0.590667724609375,1,1.0,1.0,1.0,1.0,10.00
2024-10-11 20:13:14.850,0.7472867,-0.32762122,0.20549446,0.79927063,0.67133677,-0.008861798,-0.10163652,1.0360047,0.9752938,0.07548779,0.14690925,0.86904275,0.92185175,-0.15247062,0.17697681,0.9800615,0.49629062,-0.33989426,-0.04046511,0.6760788,816.7399,796.5934,797.8022,808.68134,875.9707,-0.16912841796875,0.109130859375,0.98602294921875,0.478515625,0.635528564453125,0.590667724609375,1,1.0,1.0,1.0,1.0,10.00
2024-10-11 20:13:14.851,0.7472867,-0.32762122,0.20549446,0.79927063,0.67133677,-0.008861798,-0.10163652,1.0360047,0.9752938,0.07548779,0.14690925,0.86904275,0.92185175,-0.15247062,0.17697681,0.9800615,0.49629062,-0.33989426,-0.04046511,0.6760788,815.9341,799.011,802.6374,812.3077,861.06226,-0.16912841796875,0.109130859375,0.98602294921875,0.478515625,0.635528564453125,0.590667724609375,1,1.0,1.0,1.0,1.0,10.00
2024-10-11 20:13:14.852,0.7472867,-0.32762122,0.20549446,0.79927063,0.67133677,-0.008861798,-0.10163652,1.0360047,0.9752938,0.07548779,0.14690925,0.86904275,0.92185175,-0.15247062,0.17697681,0.9800615,0.49629062,-0.33989426,-0.04046511,0.6760788,814.7253,799.81683,798.20514,803.8461,938.4249,-0.16912841796875,0.109130859375,0.98602294921875,0.478515625,0.635528564453125,0.590667724609375,1,1.0,1.0,1.0,1.0,10.00
2024-10-11 20:13:14.852,0.7472867,-0.32762122,0.20549446,0.79927063,0.67133677,-0.008861798,-0.10163652,1.0360047,0.9752938,0.07548779,0.14690925,0.86904275,0.92185175,-0.15247062,0.17697681,0.9800615,0.49629062,-0.33989426,-0.04046511,0.6760788,818.3516,794.57874,798.60803,808.68134,765.16486,-0.16912841796875,0.109130859375,0.98602294921875,0.478515625,0.635528564453125,0.590667724609375,1,1.0,1.0,1.0,1.0,10.00
2024-10-11 20:13:14.853,0.7472867,-0.32762122,0.20549446,0.79927063,0.67133677,-0.008861798,-0.10163652,1.0360047,0.9752938,0.07548779,0.14690925,0.86904275,0.92185175,-0.15247062,0.17697681,0.9800615,0.49629062,-0.33989426,-0.04046511,0.6760788,822.7839,796.5934,799.81683,812.71063,649.92676,-0.16912841796875,0.109130859375,0.98602294921875,0.478515625,0.635528564453125,0.590667724609375,1,1.0,1.0,1.0,1.0,10.00
2024-10-11 20:13:14.853,0.7472867,-0.32762122,0.20549446,0.79927063,0.67133677,-0.008861798,-0.10163652,1.0360047,0.9752938,0.07548779,0.14690925,0.86904275,0.92185175,-0.15247062,0.17697681,0.9800615,0.49629062,-0.33989426,-0.04046511,0.6760788,814.3223,796.99634,796.1905,807.0696,736.55676,-0.16912841796875,0.109130859375,0.98602294921875,0.478515625,0.635528564453125,0.590667724609375,1,1.0,1.0,1.0,1.0,10.00
2024-10-11 20:13:14.876,0.7472867,-0.32762122,0.20549446,0.79927063,0.67133677,-0.008861798,-0.10163652,1.0360047,0.9752938,0.07548779,0.14690925,0.86904275,0.92185175,-0.15247062,0.17697681,0.9800615,0.49629062,-0.33989426,-0.04046511,0.6760788,805.05493,792.96704,796.1905,813.91943,999.67035,-0.1800537109375,0.1109619140625,0.99249267578125,0.22430419921875,-2.49725341796875,0.7476806640625,1,1.0,1.0,1.0,1.0,10.00
2024-10-11 20:13:14.877,0.7472867,-0.32762122,0.20549446,0.79927063,0.67133677,-0.008861798,-0.10163652,1.0360047,0.9752938,0.07548779,0.14690925,0.86904275,0.92185175,-0.15247062,0.17697681,0.9800615,0.49629062,-0.33989426,-0.04046511,0.6760788,798.60803,796.99634,799.011,807.47253,887.6557,-0.1800537109375,0.1109619140625,0.99249267578125,0.22430419921875,-2.49725341796875,0.7476806640625,1,1.0,1.0,1.0,1.0,10.00
2024-10-11 20:13:14.878,0.7472867,-0.32762122,0.20549446,0.79927063,0.67133677,-0.008861798,-0.10163652,1.0360047,0.9752938,0.07548779,0.14690925,0.86904275,0.92185175,-0.15247062,0.17697681,0.9800615,0.49629062,-0.33989426,-0.04046511,0.6760788,796.5934,796.5934,805.05493,805.05493,648.71796,-0.1800537109375,0.1109619140625,0.99249267578125,0.22430419921875,-2.49725341796875,0.7476806640625,1,1.0,1.0,1.0,1.0,10.00
2024-10-11 20:13:14.878,0.64755344,-0.31849805,0.12806201,0.79927063,0.46767715,-0.042200238,-0.14416865,1.0360047,0.92443913,0.04610477,0.090838976,0.86904275,0.8362475,-0.18117806,0.12943605,0.9800615,0.3574266,-0.34936944,-0.14242017,0.6760788,796.99634,799.41394,803.44324,813.5165,776.4469,-0.1800537109375,0.1109619140625,0.99249267578125,0.22430419921875,-2.49725341796875,0.7476806640625,1,1.0,1.0,1.0,1.0,10.00
2024-10-11 20:13:14.883,0.64755344,-0.31849805,0.12806201,0.79927063,0.46767715,-0.042200238,-0.14416865,1.0360047,0.92443913,0.04610477,0.090838976,0.86904275,0.8362475,-0.18117806,0.12943605,0.9800615,0.3574266,-0.34936944,-0.14242017,0.6760788,796.1905,803.8461,801.4286,809.4872,873.1502,-0.1800537109375,0.1109619140625,0.99249267578125,0.22430419921875,-2.49725341796875,0.7476806640625,1,1.0,1.0,1.0,1.0,10.00
2024-10-11 20:13:14.884,0.64755344,-0.31849805,0.12806201,0.79927063,0.46767715,-0.042200238,-0.14416865,1.0360047,0.92443913,0.04610477,0.090838976,0.86904275,0.8362475,-0.18117806,0.12943605,0.9800615,0.3574266,-0.34936944,-0.14242017,0.6760788,801.4286,803.0403,803.44324,806.6667,855.0183,-0.1800537109375,0.1109619140625,0.99249267578125,0.22430419921875,-2.49725341796875,0.7476806640625,1,1.0,1.0,1.0,1.0,10.00
2024-10-11 20:13:14.885,0.64755344,-0.31849805,0.12806201,0.79927063,0.46767715,-0.042200238,-0.14416865,1.0360047,0.92443913,0.04610477,0.090838976,0.86904275,0.8362475,-0.18117806,0.12943605,0.9800615,0.3574266,-0.34936944,-0.14242017,0.6760788,804.65204,799.41394,801.02563,805.05493,735.34796,-0.1800537109375,0.1109619140625,0.99249267578125,0.22430419921875,-2.49725341796875,0.7476806640625,1,1.0,1.0,1.0,1.0,10.00
2024-10-11 20:13:14.885,0.64755344,-0.31849805,0.12806201,0.79927063,0.46767715,-0.042200238,-0.14416865,1.0360047,0.92443913,0.04610477,0.090838976,0.86904275,0.8362475,-0.18117806,0.12943605,0.9800615,0.3574266,-0.34936944,-0.14242017,0.6760788,809.0842,796.1905,801.8315,808.68134,871.13556,-0.1800537109375,0.1109619140625,0.99249267578125,0.22430419921875,-2.49725341796875,0.7476806640625,1,1.0,1.0,1.0,1.0,10.00
2024-10-11 20:13:14.886,0.64755344,-0.31849805,0.12806201,0.79927063,0.46767715,-0.042200238,-0.14416865,1.0360047,0.92443913,0.04610477,0.090838976,0.86904275,0.8362475,-0.18117806,0.12943605,0.9800615,0.3574266,-0.34936944,-0.14242017,0.6760788,808.2784,792.96704,800.2198,813.91943,1098.7913,-0.1800537109375,0.1109619140625,0.99249267578125,0.22430419921875,-2.49725341796875,0.7476806640625,1,1.0,1.0,1.0,1.0,10.00
2024-10-11 20:13:14.886,0.64755344,-0.31849805,0.12806201,0.79927063,0.46767715,-0.042200238,-0.14416865,1.0360047,0.92443913,0.04610477,0.090838976,0.86904275,0.8362475,-0.18117806,0.12943605,0.9800615,0.3574266,-0.34936944,-0.14242017,0.6760788,800.2198,796.5934,801.4286,806.26373,861.8681,-0.1800537109375,0.1109619140625,0.99249267578125,0.22430419921875,-2.49725341796875,0.7476806640625,1,1.0,1.0,1.0,1.0,10.00
2024-10-11 20:13:14.887,0.64755344,-0.31849805,0.12806201,0.79927063,0.46767715,-0.042200238,-0.14416865,1.0360047,0.92443913,0.04610477,0.090838976,0.86904275,0.8362475,-0.18117806,0.12943605,0.9800615,0.3574266,-0.34936944,-0.14242017,0.6760788,803.0403,799.41394,803.0403,799.81683,642.674,-0.1800537109375,0.1109619140625,0.99249267578125,0.22430419921875,-2.49725341796875,0.7476806640625,1,1.0,1.0,1.0,1.0,10.00
2024-10-11 20:13:14.888,0.64755344,-0.31849805,0.12806201,0.79927063,0.46767715,-0.042200238,-0.14416865,1.0360047,0.92443913,0.04610477,0.090838976,0.86904275,0.8362475,-0.18117806,0.12943605,0.9800615,0.3574266,-0.34936944,-0.14242017,0.6760788,805.05493,796.5934,802.23444,807.47253,833.2601,-0.1800537109375,0.1109619140625,0.99249267578125,0.22430419921875,-2.49725341796875,0.7476806640625,1,1.0,1.0,1.0,1.0,10.00
2024-10-11 20:13:14.934,0.64755344,-0.31849805,0.12806201,0.79927063,0.46767715,-0.042200238,-0.14416865,1.0360047,0.92443913,0.04610477,0.090838976,0.86904275,0.8362475,-0.18117806,0.12943605,0.9800615,0.3574266,-0.34936944,-0.14242017,0.6760788,800.6227,790.54944,799.41394,813.5165,1155.6044,-0.1707763671875,0.10906982421875,0.99017333984375,-0.396270751953125,-2.534637451171875,-0.052337646484375,1,1.0,1.0,1.0,1.0,10.00
2024-10-11 20:13:14.935,0.64755344,-0.31849805,0.12806201,0.79927063,0.46767715,-0.042200238,-0.14416865,1.0360047,0.92443913,0.04610477,0.090838976,0.86904275,0.8362475,-0.18117806,0.12943605,0.9800615,0.3574266,-0.34936944,-0.14242017,0.6760788,800.2198,792.96704,797.8022,805.05493,852.6007,-0.1707763671875,0.10906982421875,0.99017333984375,-0.396270751953125,-2.534637451171875,-0.052337646484375,1,1.0,1.0,1.0,1.0,10.00
2024-10-11 20:13:14.936,0.64755344,-0.31849805,0.12806201,0.79927063,0.46767715,-0.042200238,-0.14416865,1.0360047,0.92443913,0.04610477,0.090838976,0.86904275,0.8362475,-0.18117806,0.12943605,0.9800615,0.3574266,-0.34936944,-0.14242017,0.6760788,794.9817,796.1905,800.6227,793.7729,637.03296,-0.1707763671875,0.10906982421875,0.99017333984375,-0.396270751953125,-2.534637451171875,-0.052337646484375,1,1.0,1.0,1.0,1.0,10.00
2024-10-11 20:13:14.937,0.64755344,-0.31849805,0.12806201,0.79927063,0.46767715,-0.042200238,-0.14416865,1.0360047,0.92443913,0.04610477,0.090838976,0.86904275,0.8362475,-0.18117806,0.12943605,0.9800615,0.3574266,-0.34936944,-0.14242017,0.6760788,794.57874,792.5641,798.60803,790.14655,777.25275,-0.1707763671875,0.10906982421875,0.99017333984375,-0.396270751953125,-2.534637451171875,-0.052337646484375,1,1.0,1.0,1.0,1.0,10.00
2024-10-11 20:13:14.938,0.64755344,-0.31849805,0.12806201,0.79927063,0.46767715,-0.042200238,-0.14416865,1.0360047,0.92443913,0.04610477,0.090838976,0.86904275,0.8362475,-0.18117806,0.12943605,0.9800615,0.3574266,-0.34936944,-0.14242017,0.6760788,791.75824,787.72894,798.60803,792.5641,772.8205,-0.1707763671875,0.10906982421875,0.99017333984375,-0.396270751953125,-2.534637451171875,-0.052337646484375,1,1.0,1.0,1.0,1.0,10.00
2024-10-11 20:13:14.938,0.64755344,-0.31849805,0.12806201,0.79927063,0.46767715,-0.042200238,-0.14416865,1.0360047,0.92443913,0.04610477,0.090838976,0.86904275,0.8362475,-0.18117806,0.12943605,0.9800615,0.3574266,-0.34936944,-0.14242017,0.6760788,792.1612,788.93774,802.23444,794.9817,781.685,-0.1707763671875,0.10906982421875,0.99017333984375,-0.396270751953125,-2.534637451171875,-0.052337646484375,1,1.0,1.0,1.0,1.0,10.00
2024-10-11 20:13:14.939,0.64755344,-0.31849805,0.12806201,0.79927063,0.46767715,-0.042200238,-0.14416865,1.0360047,0.92443913,0.04610477,0.090838976,0.86904275,0.8362475,-0.18117806,0.12943605,0.9800615,0.3574266,-0.34936944,-0.14242017,0.6760788,797.8022,799.81683,801.8315,793.36993,787.72894,-0.1707763671875,0.10906982421875,0.99017333984375,-0.396270751953125,-2.534637451171875,-0.052337646484375,1,1.0,1.0,1.0,1.0,10.00
2024-10-11 20:13:14.940,0.64755344,-0.31849805,0.12806201,0.79927063,0.46767715,-0.042200238,-0.14416865,1.0360047,0.92443913,0.04610477,0.090838976,0.86904275,0.8362475,-0.18117806,0.12943605,0.9800615,0.3574266,-0.34936944,-0.14242017,0.6760788,796.1905,796.1905,800.2198,797.3993,756.7033,-0.1707763671875,0.10906982421875,0.99017333984375,-0.396270751953125,-2.534637451171875,-0.052337646484375,1,1.0,1.0,1.0,1.0,10.00
2024-10-11 20:13:14.940,0.64755344,-0.31849805,0.12806201,0.79927063,0.46767715,-0.042200238,-0.14416865,1.0360047,0.92443913,0.04610477,0.090838976,0.86904275,0.8362475,-0.18117806,0.12943605,0.9800615,0.3574266,-0.34936944,-0.14242017,0.6760788,798.20514,792.96704,799.41394,809.4872,773.6264,-0.1707763671875,0.10906982421875,0.99017333984375,-0.396270751953125,-2.534637451171875,-0.052337646484375,1,1.0,1.0,1.0,1.0,10.00
2024-10-11 20:13:14.941,0.64755344,-0.31849805,0.12806201,0.79927063,0.46767715,-0.042200238,-0.14416865,1.0360047,0.92443913,0.04610477,0.090838976,0.86904275,0.8362475,-0.18117806,0.12943605,0.9800615,0.3574266,-0.34936944,-0.14242017,0.6760788,800.2198,795.38464,796.5934,807.0696,769.59705,-0.1707763671875,0.10906982421875,0.99017333984375,-0.396270751953125,-2.534637451171875,-0.052337646484375,1,1.0,1.0,1.0,1.0,10.00
2024-10-11 20:13:14.941,0.64755344,-0.31849805,0.12806201,0.79927063,0.46767715,-0.042200238,-0.14416865,1.0360047,0.92443913,0.04610477,0.090838976,0.86904275,0.8362475,-0.18117806,0.12943605,0.9800615,0.3574266,-0.34936944,-0.14242017,0.6760788,804.2491,794.9817,800.2198,801.8315,730.10986,-0.1707763671875,0.10906982421875,0.99017333984375,-0.396270751953125,-2.534637451171875,-0.052337646484375,1,1.0,1.0,1.0,1.0,10.00
2024-10-11 20:13:14.942,0.64755344,-0.31849805,0.12806201,0.79927063,0.46767715,-0.042200238,-0.14416865,1.0360047,0.92443913,0.04610477,0.090838976,0.86904275,0.8362475,-0.18117806,0.12943605,0.9800615,0.3574266,-0.34936944,-0.14242017,0.6760788,803.0403,797.8022,802.23444,806.26373,1080.6593,-0.1707763671875,0.10906982421875,0.99017333984375,-0.396270751953125,-2.534637451171875,-0.052337646484375,1,1.0,1.0,1.0,1.0,10.00
2024-10-11 20:13:15.038,0.64755344,-0.31849805,0.12806201,0.79927063,0.46767715,-0.042200238,-0.14416865,1.0360047,0.92443913,0.04610477,0.090838976,0.86904275,0.8362475,-0.18117806,0.12943605,0.9800615,0.3574266,-0.34936944,-0.14242017,0.6760788,801.4286,798.60803,798.20514,805.05493,1125.3846,-0.165771484375,0.1038818359375,0.98956298828125,-0.10467529296875,-2.4224853515625,-0.16448974609375,1,1.0,1.0,1.0,1.0,10.00
2024-10-11 20:13:15.039,0.64755344,-0.31849805,0.12806201,0.79927063,0.46767715,-0.042200238,-0.14416865,1.0360047,0.92443913,0.04610477,0.090838976,0.86904275,0.8362475,-0.18117806,0.12943605,0.9800615,0.3574266,-0.34936944,-0.14242017,0.6760788,805.05493,795.38464,799.81683,800.2198,735.34796,-0.165771484375,0.1038818359375,0.98956298828125,-0.10467529296875,-2.4224853515625,-0.16448974609375,1,1.0,1.0,1.0,1.0,10.00
2024-10-11 20:13:15.040,0.64755344,-0.31849805,0.12806201,0.79927063,0.46767715,-0.042200238,-0.14416865,1.0360047,0.92443913,0.04610477,0.090838976,0.86904275,0.8362475,-0.18117806,0.12943605,0.9800615,0.3574266,-0.34936944,-0.14242017,0.6760788,804.2491,798.60803,798.60803,801.8315,784.10254,-0.165771484375,0.1038818359375,0.98956298828125,-0.10467529296875,-2.4224853515625,-0.16448974609375,1,1.0,1.0,1.0,1.0,10.00
2024-10-11 20:13:15.041,0.64755344,-0.31849805,0.12806201,0.79927063,0.46767715,-0.042200238,-0.14416865,1.0360047,0.92443913,0.04610477,0.090838976,0.86904275,0.8362475,-0.18117806,0.12943605,0.9800615,0.3574266,-0.34936944,-0.14242017,0.6760788,812.71063,801.4286,797.8022,805.05493,805.4579,-0.165771484375,0.1038818359375,0.98956298828125,-0.10467529296875,-2.4224853515625,-0.16448974609375,1,1.0,1.0,1.0,1.0,10.00
2024-10-11 20:13:15.041,0.64755344,-0.31849805,0.12806201,0.79927063,0.46767715,-0.042200238,-0.14416865,1.0360047,0.92443913,0.04610477,0.090838976,0.86904275,0.8362475,-0.18117806,0.12943605,0.9800615,0.3574266,-0.34936944,-0.14242017,0.6760788,808.2784,796.99634,799.81683,800.6227,694.2491,-0.165771484375,0.1038818359375,0.98956298828125,-0.10467529296875,-2.4224853515625,-0.16448974609375,1,1.0,1.0,1.0,1.0,10.00
2024-10-11 20:13:15.042,0.64755344,-0.30216318,0.048080903,0.79927063,0.46767715,-0.10376857,-0.20565617,1.0360047,0.92443913,0.025429266,0.016152335,0.86904275,0.8362475,-0.19392395,0.100211665,0.9800615,0.3574266,-0.34969732,-0.20297024,0.6760788,798.20514,793.7729,799.011,801.4286,847.76556,-0.165771484375,0.1038818359375,0.98956298828125,-0.10467529296875,-2.4224853515625,-0.16448974609375,1,1.0,1.0,1.0,1.0,10.00
2024-10-11 20:13:15.047,0.64755344,-0.30216318,0.048080903,0.79927063,0.46767715,-0.10376857,-0.20565617,1.0360047,0.92443913,0.025429266,0.016152335,0.86904275,0.8362475,-0.19392395,0.100211665,0.9800615,0.3574266,-0.34969732,-0.20297024,0.6760788,807.0696,792.5641,801.8315,811.0989,976.7033,-0.165771484375,0.1038818359375,0.98956298828125,-0.10467529296875,-2.4224853515625,-0.16448974609375,1,1.0,1.0,1.0,1.0,10.00
2024-10-11 20:13:15.048,0.64755344,-0.30216318,0.048080903,0.79927063,0.46767715,-0.10376857,-0.20565617,1.0360047,0.92443913,0.025429266,0.016152335,0.86904275,0.8362475,-0.19392395,0.100211665,0.9800615,0.3574266,-0.34969732,-0.20297024,0.6760788,814.3223,797.3993,802.6374,815.12823,828.022,-0.165771484375,0.1038818359375,0.98956298828125,-0.10467529296875,-2.4224853515625,-0.16448974609375,1,1.0,1.0,1.0,1.0,10.00
2024-10-11 20:13:15.048,0.64755344,-0.30216318,0.048080903,0.79927063,0.46767715,-0.10376857,-0.20565617,1.0360047,0.92443913,0.025429266,0.016152335,0.86904275,0.8362475,-0.19392395,0.100211665,0.9800615,0.3574266,-0.34969732,-0.20297024,0.6760788,816.7399,803.44324,805.05493,814.7253,652.74725,-0.165771484375,0.1038818359375,0.98956298828125,-0.10467529296875,-2.4224853515625,-0.16448974609375,1,1.0,1.0,1.0,1.0,10.00
2024-10-11 20:13:15.049,0.64755344,-0.30216318,0.048080903,0.79927063,0.46767715,-0.10376857,-0.20565617,1.0360047,0.92443913,0.025429266,0.016152335,0.86904275,0.8362475,-0.19392395,0.100211665,0.9800615,0.3574266,-0.34969732,-0.20297024,0.6760788,814.7253,800.6227,806.26373,814.3223,614.4689,-0.165771484375,0.1038818359375,0.98956298828125,-0.10467529296875,-2.4224853515625,-0.16448974609375,1,1.0,1.0,1.0,1.0,10.00
2024-10-11 20:13:15.050,0.64755344,-0.30216318,0.048080903,0.79927063,0.46767715,-0.10376857,-0.20565617,1.0360047,0.92443913,0.025429266,0.016152335,0.86904275,0.8362475,-0.19392395,0.100211665,0.9800615,0.3574266,-0.34969732,-0.20297024,0.6760788,814.7253,796.5934,803.8461,815.12823,821.5751,-0.165771484375,0.1038818359375,0.98956298828125,-0.10467529296875,-2.4224853515625,-0.16448974609375,1,1.0,1.0,1.0,1.0,10.00
2024-10-11 20:13:15.050,0.64755344,-0.30216318,0.048080903,0.79927063,0.46767715,-0.10376857,-0.20565617,1.0360047,0.92443913,0.025429266,0.016152335,0.86904275,0.8362475,-0.19392395,0.100211665,0.9800615,0.3574266,-0.34969732,-0.20297024,0.6760788,812.71063,798.20514,809.89014,819.9634,911.8315,-0.165771484375,0.1038818359375,0.98956298828125,-0.10467529296875,-2.4224853515625,-0.16448974609375,1,1.0,1.0,1.0,1.0,10.00
2024-10-11 20:13:15.051,0.64755344,-0.30216318,0.048080903,0.79927063,0.46767715,-0.10376857,-0.20565617,1.0360047,0.92443913,0.025429266,0.016152335,0.86904275,0.8362475,-0.19392395,0.100211665,0.9800615,0.3574266,-0.34969732,-0.20297024,0.6760788,806.26373,801.4286,808.68134,813.5165,568.5348,-0.165771484375,0.1038818359375,0.98956298828125,-0.10467529296875,-2.4224853515625,-0.16448974609375,1,1.0,1.0,1.0,1.0,10.00
2024-10-11 20:13:15.051,0.64755344,-0.30216318,0.048080903,0.79927063,0.46767715,-0.10376857,-0.20565617,1.0360047,0.92443913,0.025429266,0.016152335,0.86904275,0.8362475,-0.19392395,0.100211665,0.9800615,0.3574266,-0.34969732,-0.20297024,0.6760788,798.60803,805.05493,805.05493,812.3077,583.0403,-0.165771484375,0.1038818359375,0.98956298828125,-0.10467529296875,-2.4224853515625,-0.16448974609375,1,1.0,1.0,1.0,1.0,10.00
2024-10-11 20:13:15.052,0.64755344,-0.30216318,0.048080903,0.79927063,0.46767715,-0.10376857,-0.20565617,1.0360047,0.92443913,0.025429266,0.016152335,0.86904275,0.8362475,-0.19392395,0.100211665,0.9800615,0.3574266,-0.34969732,-0.20297024,0.6760788,805.4579,804.2491,805.8608,819.5604,846.1539,-0.165771484375,0.1038818359375,0.98956298828125,-0.10467529296875,-2.4224853515625,-0.16448974609375,1,1.0,1.0,1.0,1.0,10.00
2024-10-11 20:13:15.053,0.64755344,-0.30216318,0.048080903,0.79927063,0.46767715,-0.10376857,-0.20565617,1.0360047,0.92443913,0.025429266,0.016152335,0.86904275,0.8362475,-0.19392395,0.100211665,0.9800615,0.3574266,-0.34969732,-0.20297024,0.6760788,811.50183,796.99634,804.65204,815.9341,810.293,-0.165771484375,0.1038818359375,0.98956298828125,-0.10467529296875,-2.4224853515625,-0.16448974609375,1,1.0,1.0,1.0,1.0,10.00
2024-10-11 20:13:15.053,0.64755344,-0.30216318,0.048080903,0.79927063,0.46767715,-0.10376857,-0.20565617,1.0360047,0.92443913,0.025429266,0.016152335,0.86904275,0.8362475,-0.19392395,0.100211665,0.9800615,0.3574266,-0.34969732,-0.20297024,0.6760788,803.44324,798.20514,801.8315,806.26373,618.0952,-0.165771484375,0.1038818359375,0.98956298828125,-0.10467529296875,-2.4224853515625,-0.16448974609375,1,1.0,1.0,1.0,1.0,10.00
2024-10-11 20:13:15.054,0.64755344,-0.30216318,0.048080903,0.79927063,0.46767715,-0.10376857,-0.20565617,1.0360047,0.92443913,0.025429266,0.016152335,0.86904275,0.8362475,-0.19392395,0.100211665,0.9800615,0.3574266,-0.34969732,-0.20297024,0.6760788,797.3993,801.4286,799.41394,804.65204,817.1429,-0.165771484375,0.1038818359375,0.98956298828125,-0.10467529296875,-2.4224853515625,-0.16448974609375,1,1.0,1.0,1.0,1.0,10.00
2024-10-11 20:13:15.055,0.64755344,-0.30216318,0.048080903,0.79927063,0.46767715,-0.10376857,-0.20565617,1.0360047,0.92443913,0.025429266,0.016152335,0.86904275,0.8362475,-0.19392395,0.100211665,0.9800615,0.3574266,-0.34969732,-0.20297024,0.6760788,799.011,799.011,801.8315,802.6374,1100.0,-0.165771484375,0.1038818359375,0.98956298828125,-0.10467529296875,-2.4224853515625,-0.16448974609375,1,1.0,1.0,1.0,1.0,10.00
2024-10-11 20:13:15.055,0.64755344,-0.30216318,0.048080903,0.79927063,0.46767715,-0.10376857,-0.20565617,1.0360047,0.92443913,0.025429266,0.016152335,0.86904275,0.8362475,-0.19392395,0.100211665,0.9800615,0.3574266,-0.34969732,-0.20297024,0.6760788,799.81683,801.02563,799.41394,798.20514,942.8571,-0.165771484375,0.1038818359375,0.98956298828125,-0.10467529296875,-2.4224853515625,-0.16448974609375,1,1.0,1.0,1.0,1.0,10.00
2024-10-11 20:13:15.056,0.64755344,-0.30216318,0.048080903,0.79927063,0.46767715,-0.10376857,-0.20565617,1.0360047,0.92443913,0.025429266,0.016152335,0.86904275,0.8362475,-0.19392395,0.100211665,0.9800615,0.3574266,-0.34969732,-0.20297024,0.6760788,801.8315,799.81683,796.5934,805.05493,662.8205,-0.165771484375,0.1038818359375,0.98956298828125,-0.10467529296875,-2.4224853515625,-0.16448974609375,1,1.0,1.0,1.0,1.0,10.00
2024-10-11 20:13:15.056,0.64755344,-0.30216318,0.048080903,0.79927063,0.46767715,-0.10376857,-0.20565617,1.0360047,0.92443913,0.025429266,0.016152335,0.86904275,0.8362475,-0.19392395,0.100211665,0.9800615,0.3574266,-0.34969732,-0.20297024,0.6760788,808.68134,804.65204,797.3993,806.26373,752.27106,-0.165771484375,0.1038818359375,0.98956298828125,-0.10467529296875,-2.4224853515625,-0.16448974609375,1,1.0,1.0,1.0,1.0,10.00
2024-10-11 20:13:15.057,0.64755344,-0.30216318,0.048080903,0.79927063,0.46767715,-0.10376857,-0.20565617,1.0360047,0.92443913,0.025429266,0.016152335,0.86904275,0.8362475,-0.19392395,0.100211665,0.9800615,0.3574266,-0.34969732,-0.20297024,0.6760788,809.4872,807.8755,798.60803,805.05493,882.4176,-0.165771484375,0.1038818359375,0.98956298828125,-0.10467529296875,-2.4224853515625,-0.16448974609375,1,1.0,1.0,1.0,1.0,10.00
2024-10-11 20:13:15.058,0.64755344,-0.30216318,0.048080903,0.79927063,0.46767715,-0.10376857,-0.20565617,1.0360047,0.92443913,0.025429266,0.016152335,0.86904275,0.8362475,-0.19392395,0.100211665,0.9800615,0.3574266,-0.34969732,-0.20297024,0.6760788,810.293,804.2491,798.20514,808.2784,713.9927,-0.165771484375,0.1038818359375,0.98956298828125,-0.10467529296875,-2.4224853515625,-0.16448974609375,1,1.0,1.0,1.0,1.0,10.00
2024-10-11 20:13:15.086,0.64755344,-0.30216318,0.048080903,0.79927063,0.46767715,-0.10376857,-0.20565617,1.0360047,0.92443913,0.025429266,0.016152335,0.86904275,0.8362475,-0.19392395,0.100211665,0.9800615,0.3574266,-0.34969732,-0.20297024,0.6760788,807.0696,807.8755,799.81683,805.05493,628.97437,-0.167724609375,0.103515625,0.992919921875,0.007476806640625,-3.3795166015625,0.22430419921875,1,1.0,1.0,1.0,1.0,10.00
2024-10-11 20:13:15.087,0.64755344,-0.30216318,0.048080903,0.79927063,0.46767715,-0.10376857,-0.20565617,1.0360047,0.92443913,0.025429266,0.016152335,0.86904275,0.8362475,-0.19392395,0.100211665,0.9800615,0.3574266,-0.34969732,-0.20297024,0.6760788,805.05493,805.4579,796.5934,806.6667,761.13556,-0.167724609375,0.103515625,0.992919921875,0.007476806640625,-3.3795166015625,0.22430419921875,1,1.0,1.0,1.0,1.0,10.00
2024-10-11 20:13:15.088,0.64755344,-0.30216318,0.048080903,0.79927063,0.46767715,-0.10376857,-0.20565617,1.0360047,0.92443913,0.025429266,0.016152335,0.86904275,0.8362475,-0.19392395,0.100211665,0.9800615,0.3574266,-0.34969732,-0.20297024,0.6760788,810.696,804.2491,793.7729,805.05493,874.7619,-0.167724609375,0.103515625,0.992919921875,0.007476806640625,-3.3795166015625,0.22430419921875,1,1.0,1.0,1.0,1.0,10.00
2024-10-11 20:13:15.089,0.64755344,-0.30216318,0.048080903,0.79927063,0.46767715,-0.10376857,-0.20565617,1.0360047,0.92443913,0.025429266,0.016152335,0.86904275,0.8362475,-0.19392395,0.100211665,0.9800615,0.3574266,-0.34969732,-0.20297024,0.6760788,807.0696,804.65204,802.23444,798.60803,738.1685,-0.167724609375,0.103515625,0.992919921875,0.007476806640625,-3.3795166015625,0.22430419921875,1,1.0,1.0,1.0,1.0,10.00
2024-10-11 20:13:15.090,0.64755344,-0.30216318,0.048080903,0.79927063,0.46767715,-0.10376857,-0.20565617,1.0360047,0.92443913,0.025429266,0.016152335,0.86904275,0.8362475,-0.19392395,0.100211665,0.9800615,0.3574266,-0.34969732,-0.20297024,0.6760788,805.8608,794.17584,803.8461,796.1905,569.34064,-0.167724609375,0.103515625,0.992919921875,0.007476806640625,-3.3795166015625,0.22430419921875,1,1.0,1.0,1.0,1.0,10.00
2024-10-11 20:13:15.090,0.64755344,-0.30216318,0.048080903,0.79927063,0.46767715,-0.10376857,-0.20565617,1.0360047,0.92443913,0.025429266,0.016152335,0.86904275,0.8362475,-0.19392395,0.100211665,0.9800615,0.3574266,-0.34969732,-0.20297024,0.6760788,802.6374,792.1612,796.5934,799.41394,809.0842,-0.167724609375,0.103515625,0.992919921875,0.007476806640625,-3.3795166015625,0.22430419921875,1,1.0,1.0,1.0,1.0,10.00
2024-10-11 20:13:15.091,0.64755344,-0.30216318,0.048080903,0.79927063,0.46767715,-0.10376857,-0.20565617,1.0360047,0.92443913,0.025429266,0.016152335,0.86904275,0.8362475,-0.19392395,0.100211665,0.9800615,0.3574266,-0.34969732,-0.20297024,0.6760788,794.9817,796.1905,793.7729,800.2198,1156.0073,-0.167724609375,0.103515625,0.992919921875,0.007476806640625,-3.3795166015625,0.22430419921875,1,1.0,1.0,1.0,1.0,10.00
2024-10-11 20:13:15.092,0.64755344,-0.27538133,-0.013570348,0.79927063,0.46767715,-0.17536497,-0.26973873,1.0360047,0.92443913,-0.004798046,-0.033777826,0.86904275,0.8362475,-0.18079896,0.07604727,0.9800615,0.3574266,-0.3449479,-0.2505776,0.6760788,799.81683,799.41394,796.99634,797.8022,870.7326,-0.167724609375,0.103515625,0.992919921875,0.007476806640625,-3.3795166015625,0.22430419921875,1,1.0,1.0,1.0,1.0,10.00
2024-10-11 20:13:15.097,0.64755344,-0.27538133,-0.013570348,0.79927063,0.46767715,-0.17536497,-0.26973873,1.0360047,0.92443913,-0.004798046,-0.033777826,0.86904275,0.8362475,-0.18079896,0.07604727,0.9800615,0.3574266,-0.3449479,-0.2505776,0.6760788,805.05493,804.2491,797.3993,801.4286,599.9634,-0.167724609375,0.103515625,0.992919921875,0.007476806640625,-3.3795166015625,0.22430419921875,1,1.0,1.0,1.0,1.0,10.00
2024-10-11 20:13:15.098,0.64755344,-0.27538133,-0.013570348,0.79927063,0.46767715,-0.17536497,-0.26973873,1.0360047,0.92443913,-0.004798046,-0.033777826,0.86904275,0.8362475,-0.18079896,0.07604727,0.9800615,0.3574266,-0.3449479,-0.2505776,0.6760788,809.89014,799.41394,796.99634,804.2491,786.52014,-0.167724609375,0.103515625,0.992919921875,0.007476806640625,-3.3795166015625,0.22430419921875,1,1.0,1.0,1.0,1.0,10.00
2024-10-11 20:13:15.098,0.64755344,-0.27538133,-0.013570348,0.79927063,0.46767715,-0.17536497,-0.26973873,1.0360047,0.92443913,-0.004798046,-0.033777826,0.86904275,0.8362475,-0.18079896,0.07604727,0.9800615,0.3574266,-0.3449479,-0.2505776,0.6760788,814.3223,793.7729,798.20514,805.05493,989.19415,-0.167724609375,0.103515625,0.992919921875,0.007476806640625,-3.3795166015625,0.22430419921875,1,1.0,1.0,1.0,1.0,10.00
2024-10-11 20:13:15.099,0.64755344,-0.27538133,-0.013570348,0.79927063,0.46767715,-0.17536497,-0.26973873,1.0360047,0.92443913,-0.004798046,-0.033777826,0.86904275,0.8362475,-0.18079896,0.07604727,0.9800615,0.3574266,-0.3449479,-0.2505776,0.6760788,811.0989,797.8022,794.17584,802.23444,702.71063,-0.167724609375,0.103515625,0.992919921875,0.007476806640625,-3.3795166015625,0.22430419921875,1,1.0,1.0,1.0,1.0,10.00
2024-10-11 20:13:15.187,0.64755344,-0.27538133,-0.013570348,0.79927063,0.46767715,-0.17536497,-0.26973873,1.0360047,0.92443913,-0.004798046,-0.033777826,0.86904275,0.8362475,-0.18079896,0.07604727,0.9800615,0.3574266,-0.3449479,-0.2505776,0.6760788,807.8755,801.4286,794.17584,800.2198,527.4359,-0.15509033203125,0.1053466796875,0.99169921875,-0.500946044921875,-2.818756103515625,-0.19439697265625,1,1.0,1.0,1.0,1.0,10.00
2024-10-11 20:13:15.188,0.64755344,-0.27538133,-0.013570348,0.79927063,0.46767715,-0.17536497,-0.26973873,1.0360047,0.92443913,-0.004798046,-0.033777826,0.86904275,0.8362475,-0.18079896,0.07604727,0.9800615,0.3574266,-0.3449479,-0.2505776,0.6760788,804.2491,800.2198,799.41394,804.2491,757.1062,-0.15509033203125,0.1053466796875,0.99169921875,-0.500946044921875,-2.818756103515625,-0.19439697265625,1,1.0,1.0,1.0,1.0,10.00
2024-10-11 20:13:15.189,0.64755344,-0.27538133,-0.013570348,0.79927063,0.46767715,-0.17536497,-0.26973873,1.0360047,0.92443913,-0.004798046,-0.033777826,0.86904275,0.8362475,-0.18079896,0.07604727,0.9800615,0.3574266,-0.3449479,-0.2505776,0.6760788,801.8315,796.99634,801.02563,812.3077,963.4066,-0.15509033203125,0.1053466796875,0.99169921875,-0.500946044921875,-2.818756103515625,-0.19439697265625,1,1.0,1.0,1.0,1.0,10.00
2024-10-11 20:13:15.189,0.64755344,-0.27538133,-0.013570348,0.79927063,0.46767715,-0.17536497,-0.26973873,1.0360047,0.92443913,-0.004798046,-0.033777826,0.86904275,0.8362475,-0.18079896,0.07604727,0.9800615,0.3574266,-0.3449479,-0.2505776,0.6760788,801.8315,799.81683,796.5934,809.4872,741.39197,-0.15509033203125,0.1053466796875,0.99169921875,-0.500946044921875,-2.818756103515625,-0.19439697265625,1,1.0,1.0,1.0,1.0,10.00
2024-10-11 20:13:15.190,0.64755344,-0.27538133,-0.013570348,0.79927063,0.46767715,-0.17536497,-0.26973873,1.0360047,0.92443913,-0.004798046,-0.033777826,0.86904275,0.8362475,-0.18079896,0.07604727,0.9800615,0.3574266,-0.3449479,-0.2505776,0.6760788,801.4286,802.6374,794.17584,804.65204,567.72894,-0.15509033203125,0.1053466796875,0.99169921875,-0.500946044921875,-2.818756103515625,-0.19439697265625,1,1.0,1.0,1.0,1.0,10.00
2024-10-11 20:13:15.190,0.64755344,-0.27538133,-0.013570348,0.79927063,0.46767715,-0.17536497,-0.26973873,1.0360047,0.92443913,-0.004798046,-0.033777826,0.86904275,0.8362475,-0.18079896,0.07604727,0.9800615,0.3574266,-0.3449479,-0.2505776,0.6760788,803.8461,800.6227,799.81683,811.50183,887.25275,-0.15509033203125,0.1053466796875,0.99169921875,-0.500946044921875,-2.818756103515625,-0.19439697265625,1,1.0,1.0,1.0,1.0,10.00
2024-10-11 20:13:15.191,0.64755344,-0.27538133,-0.013570348,0.79927063,0.46767715,-0.17536497,-0.26973873,1.0360047,0.92443913,-0.004798046,-0.033777826,0.86904275,0.8362475,-0.18079896,0.07604727,0.9800615,0.3574266,-0.3449479,-0.2505776,0.6760788,806.26373,799.011,809.89014,818.3516,968.24176,-0.15509033203125,0.1053466796875,0.99169921875,-0.500946044921875,-2.818756103515625,-0.19439697265625,1,1.0,1.0,1.0,1.0,10.00
2024-10-11 20:13:15.192,0.64755344,-0.27538133,-0.013570348,0.79927063,0.46767715,-0.17536497,-0.26973873,1.0360047,0.92443913,-0.004798046,-0.033777826,0.86904275,0.8362475,-0.18079896,0.07604727,0.9800615,0.3574266,-0.3449479,-0.2505776,0.6760788,809.89014,803.8461,808.68134,815.5311,621.7216,-0.15509033203125,0.1053466796875,0.99169921875,-0.500946044921875,-2.818756103515625,-0.19439697265625,1,1.0,1.0,1.0,1.0,10.00
2024-10-11 20:13:15.192,0.64755344,-0.27538133,-0.013570348,0.79927063,0.46767715,-0.17536497,-0.26973873,1.0360047,0.92443913,-0.004798046,-0.033777826,0.86904275,0.8362475,-0.18079896,0.07604727,0.9800615,0.3574266,-0.3449479,-0.2505776,0.6760788,812.71063,803.44324,801.8315,817.1429,647.50916,-0.15509033203125,0.1053466796875,0.99169921875,-0.500946044921875,-2.818756103515625,-0.19439697265625,1,1.0,1.0,1.0,1.0,10.00
2024-10-11 20:13:15.193,0.64755344,-0.27538133,-0.013570348,0.79927063,0.46767715,-0.17536497,-0.26973873,1.0360047,0.92443913,-0.004798046,-0.033777826,0.86904275,0.8362475,-0.18079896,0.07604727,0.9800615,0.3574266,-0.3449479,-0.2505776,0.6760788,813.1135,798.20514,804.2491,819.15753,772.01465,-0.15509033203125,0.1053466796875,0.99169921875,-0.500946044921875,-2.818756103515625,-0.19439697265625,1,1.0,1.0,1.0,1.0,10.00
2024-10-11 20:13:15.193,0.64755344,-0.27538133,-0.013570348,0.79927063,0.46767715,-0.17536497,-0.26973873,1.0360047,0.92443913,-0.004798046,-0.033777826,0.86904275,0.8362475,-0.18079896,0.07604727,0.9800615,0.3574266,-0.3449479,-0.2505776,0.6760788,809.0842,792.1612,805.05493,815.5311,757.1062,-0.15509033203125,0.1053466796875,0.99169921875,-0.500946044921875,-2.818756103515625,-0.19439697265625,1,1.0,1.0,1.0,1.0,10.00
2024-10-11 20:13:15.194,0.64755344,-0.27538133,-0.013570348,0.79927063,0.46767715,-0.17536497,-0.26973873,1.0360047,0.92443913,-0.004798046,-0.033777826,0.86904275,0.8362475,-0.18079896,0.07604727,0.9800615,0.3574266,-0.3449479,-0.2505776,0.6760788,806.26373,794.17584,803.44324,813.1135,705.5311,-0.15509033203125,0.1053466796875,0.99169921875,-0.500946044921875,-2.818756103515625,-0.19439697265625,1,1.0,1.0,1.0,1.0,10.00
2024-10-11 20:13:15.220,0.64755344,-0.27538133,-0.013570348,0.79927063,0.46767715,-0.17536497,-0.26973873,1.0360047,0.92443913,-0.004798046,-0.033777826,0.86904275,0.8362475,-0.18079896,0.07604727,0.9800615,0.3574266,-0.3449479,-0.2505776,0.6760788,810.293,800.2198,805.8608,810.293,842.9304,-0.15374755859375,0.10430908203125,0.99542236328125,0.16448974609375,-3.0804443359375,-0.538330078125,1,1.0,1.0,1.0,1.0,10.00
2024-10-11 20:13:15.221,0.64755344,-0.27538133,-0.013570348,0.79927063,0.46767715,-0.17536497,-0.26973873,1.0360047,0.92443913,-0.004798046,-0.033777826,0.86904275,0.8362475,-0.18079896,0.07604727,0.9800615,0.3574266,-0.3449479,-0.2505776,0.6760788,807.8755,793.7729,807.47253,805.05493,949.304,-0.15374755859375,0.10430908203125,0.99542236328125,0.16448974609375,-3.0804443359375,-0.538330078125,1,1.0,1.0,1.0,1.0,10.00
2024-10-11 20:13:15.222,0.64755344,-0.27538133,-0.013570348,0.79927063,0.46767715,-0.17536497,-0.26973873,1.0360047,0.92443913,-0.004798046,-0.033777826,0.86904275,0.8362475,-0.18079896,0.07604727,0.9800615,0.3574266,-0.3449479,-0.2505776,0.6760788,799.81683,795.38464,807.47253,803.8461,796.1905,-0.15374755859375,0.10430908203125,0.99542236328125,0.16448974609375,-3.0804443359375,-0.538330078125,1,1.0,1.0,1.0,1.0,10.00
2024-10-11 20:13:15.223,0.64755344,-0.27538133,-0.013570348,0.79927063,0.46767715,-0.17536497,-0.26973873,1.0360047,0.92443913,-0.004798046,-0.033777826,0.86904275,0.8362475,-0.18079896,0.07604727,0.9800615,0.3574266,-0.3449479,-0.2505776,0.6760788,802.23444,803.8461,805.05493,803.8461,763.5531,-0.15374755859375,0.10430908203125,0.99542236328125,0.16448974609375,-3.0804443359375,-0.538330078125,1,1.0,1.0,1.0,1.0,10.00
2024-10-11 20:13:15.223,0.64755344,-0.27538133,-0.013570348,0.79927063,0.46767715,-0.17536497,-0.26973873,1.0360047,0.92443913,-0.004798046,-0.033777826,0.86904275,0.8362475,-0.18079896,0.07604727,0.9800615,0.3574266,-0.3449479,-0.2505776,0.6760788,805.8608,803.0403,801.4286,803.8461,843.73627,-0.15374755859375,0.10430908203125,0.99542236328125,0.16448974609375,-3.0804443359375,-0.538330078125,1,1.0,1.0,1.0,1.0,10.00
2024-10-11 20:13:15.224,0.64755344,-0.27538133,-0.013570348,0.79927063,0.46767715,-0.17536497,-0.26973873,1.0360047,0.92443913,-0.004798046,-0.033777826,0.86904275,0.8362475,-0.18079896,0.07604727,0.9800615,0.3574266,-0.3449479,-0.2505776,0.6760788,806.26373,797.8022,797.3993,809.4872,933.1868,-0.15374755859375,0.10430908203125,0.99542236328125,0.16448974609375,-3.0804443359375,-0.538330078125,1,1.0,1.0,1.0,1.0,10.00
2024-10-11 20:13:15.224,0.64755344,-0.27538133,-0.013570348,0.79927063,0.46767715,-0.17536497,-0.26973873,1.0360047,0.92443913,-0.004798046,-0.033777826,0.86904275,0.8362475,-0.18079896,0.07604727,0.9800615,0.3574266,-0.3449479,-0.2505776,0.6760788,800.2198,797.3993,794.57874,807.8755,973.47986,-0.15374755859375,0.10430908203125,0.99542236328125,0.16448974609375,-3.0804443359375,-0.538330078125,1,1.0,1.0,1.0,1.0,10.00
2024-10-11 20:13:15.225,0.64755344,-0.27538133,-0.013570348,0.79927063,0.46767715,-0.17536497,-0.26973873,1.0360047,0.92443913,-0.004798046,-0.033777826,0.86904275,0.8362475,-0.18079896,0.07604727,0.9800615,0.3574266,-0.3449479,-0.2505776,0.6760788,802.23444,801.8315,796.5934,804.2491,912.23444,-0.15374755859375,0.10430908203125,0.99542236328125,0.16448974609375,-3.0804443359375,-0.538330078125,1,1.0,1.0,1.0,1.0,10.00
2024-10-11 20:13:15.225,0.64755344,-0.27538133,-0.013570348,0.79927063,0.46767715,-0.17536497,-0.26973873,1.0360047,0.92443913,-0.004798046,-0.033777826,0.86904275,0.8362475,-0.18079896,0.07604727,0.9800615,0.3574266,-0.3449479,-0.2505776,0.6760788,809.89014,802.23444,801.02563,809.0842,986.77655,-0.15374755859375,0.10430908203125,0.99542236328125,0.16448974609375,-3.0804443359375,-0.538330078125,1,1.0,1.0,1.0,1.0,10.00
2024-10-11 20:13:15.226,0.64755344,-0.08873753,0.0029291436,0.79927063,0.46767715,-0.15415682,-0.15892962,1.0360047,0.92443913,0.12035426,0.16873848,0.86904275,0.8362475,-0.13000982,-0.0074691363,0.9800615,0.3574266,-0.28396899,-0.29959446,0.6760788,805.8608,800.6227,800.6227,809.0842,979.5238,-0.15374755859375,0.10430908203125,0.99542236328125,0.16448974609375,-3.0804443359375,-0.538330078125,1,1.0,1.0,1.0,1.0,10.00
2024-10-11 20:13:15.230,0.64755344,-0.08873753,0.0029291436,0.79927063,0.46767715,-0.15415682,-0.15892962,1.0360047,0.92443913,0.12035426,0.16873848,0.86904275,0.8362475,-0.13000982,-0.0074691363,0.9800615,0.3574266,-0.28396899,-0.29959446,0.6760788,807.47253,799.81683,799.81683,803.44324,817.5458,-0.15374755859375,0.10430908203125,0.99542236328125,0.16448974609375,-3.0804443359375,-0.538330078125,1,1.0,1.0,1.0,1.0,10.00
2024-10-11 20:13:15.231,0.64755344,-0.08873753,0.0029291436,0.79927063,0.46767715,-0.15415682,-0.15892962,1.0360047,0.92443913,0.12035426,0.16873848,0.86904275,0.8362475,-0.13000982,-0.0074691363,0.9800615,0.3574266,-0.28396899,-0.29959446,0.6760788,802.6374,793.36993,799.011,800.2198,800.2198,-0.15374755859375,0.10430908203125,0.99542236328125,0.16448974609375,-3.0804443359375,-0.538330078125,1,1.0,1.0,1.0,1.0,10.00
2024-10-11 20:13:15.232,0.64755344,-0.08873753,0.0029291436,0.79927063,0.46767715,-0.15415682,-0.15892962,1.0360047,0.92443913,0.12035426,0.16873848,0.86904275,0.8362475,-0.13000982,-0.0074691363,0.9800615,0.3574266,-0.28396899,-0.29959446,0.6760788,788.93774,791.3553,800.2198,805.8608,935.6044,-0.1446533203125,0.1016845703125,0.99127197265625,0.186920166015625,-2.654266357421875,-0.82244873046875,1,1.0,1.0,1.0,1.0,10.00
2024-10-11 20:13:15.233,0.64755344,-0.08873753,0.0029291436,0.79927063,0.46767715,-0.15415682,-0.15892962,1.0360047,0.92443913,0.12035426,0.16873848,0.86904275,0.8362475,-0.13000982,-0.0074691363,0.9800615,0.3574266,-0.28396899,-0.29959446,0.6760788,783.69965,794.9817,800.6227,804.2491,931.5751,-0.1446533203125,0.1016845703125,0.99127197265625,0.186920166015625,-2.654266357421875,-0.82244873046875,1,1.0,1.0,1.0,1.0,10.00
2024-10-11 20:13:15.233,0.64755344,-0.08873753,0.0029291436,0.79927063,0.46767715,-0.15415682,-0.15892962,1.0360047,0.92443913,0.12035426,0.16873848,0.86904275,0.8362475,-0.13000982,-0.0074691363,0.9800615,0.3574266,-0.28396899,-0.29959446,0.6760788,782.49084,788.93774,800.6227,794.9817,696.6667,-0.1446533203125,0.1016845703125,0.99127197265625,0.186920166015625,-2.654266357421875,-0.82244873046875,1,1.0,1.0,1.0,1.0,10.00
2024-10-11 20:13:15.234,0.64755344,-0.08873753,0.0029291436,0.79927063,0.46767715,-0.15415682,-0.15892962,1.0360047,0.92443913,0.12035426,0.16873848,0.86904275,0.8362475,-0.13000982,-0.0074691363,0.9800615,0.3574266,-0.28396899,-0.29959446,0.6760788,781.28204,784.5055,796.5934,795.38464,647.9121,-0.1446533203125,0.1016845703125,0.99127197265625,0.186920166015625,-2.654266357421875,-0.82244873046875,1,1.0,1.0,1.0,1.0,10.00
2024-10-11 20:13:15.234,0.64755344,-0.08873753,0.0029291436,0.79927063,0.46767715,-0.15415682,-0.15892962,1.0360047,0.92443913,0.12035426,0.16873848,0.86904275,0.8362475,-0.13000982,-0.0074691363,0.9800615,0.3574266,-0.28396899,-0.29959446,0.6760788,788.5348,791.75824,797.3993,803.44324,829.6337,-0.1446533203125,0.1016845703125,0.99127197265625,0.186920166015625,-2.654266357421875,-0.82244873046875,1,1.0,1.0,1.0,1.0,10.00
2024-10-11 20:13:15.235,0.64755344,-0.08873753,0.0029291436,0.79927063,0.46767715,-0.15415682,-0.15892962,1.0360047,0.92443913,0.12035426,0.16873848,0.86904275,0.8362475,-0.13000982,-0.0074691363,0.9800615,0.3574266,-0.28396899,-0.29959446,0.6760788,796.99634,795.38464,797.8022,805.05493,962.6007,-0.1446533203125,0.1016845703125,0.99127197265625,0.186920166015625,-2.654266357421875,-0.82244873046875,1,1.0,1.0,1.0,1.0,10.00
2024-10-11 20:13:15.235,0.64755344,-0.08873753,0.0029291436,0.79927063,0.46767715,-0.15415682,-0.15892962,1.0360047,0.92443913,0.12035426,0.16873848,0.86904275,0.8362475,-0.13000982,-0.0074691363,0.9800615,0.3574266,-0.28396899,-0.29959446,0.6760788,793.7729,796.1905,795.38464,800.6227,921.9048,-0.1446533203125,0.1016845703125,0.99127197265625,0.186920166015625,-2.654266357421875,-0.82244873046875,1,1.0,1.0,1.0,1.0,10.00
2024-10-11 20:13:15.236,0.64755344,-0.08873753,0.0029291436,0.79927063,0.46767715,-0.15415682,-0.15892962,1.0360047,0.92443913,0.12035426,0.16873848,0.86904275,0.8362475,-0.13000982,-0.0074691363,0.9800615,0.3574266,-0.28396899,-0.29959446,0.6760788,794.57874,796.1905,795.38464,796.99634,811.0989,-0.1446533203125,0.1016845703125,0.99127197265625,0.186920166015625,-2.654266357421875,-0.82244873046875,1,1.0,1.0,1.0,1.0,10.00
2024-10-11 20:13:15.237,0.64755344,-0.08873753,0.0029291436,0.79927063,0.46767715,-0.15415682,-0.15892962,1.0360047,0.92443913,0.12035426,0.16873848,0.86904275,0.8362475,-0.13000982,-0.0074691363,0.9800615,0.3574266,-0.28396899,-0.29959446,0.6760788,803.8461,798.20514,795.38464,802.6374,873.95605,-0.1446533203125,0.1016845703125,0.99127197265625,0.186920166015625,-2.654266357421875,-0.82244873046875,1,1.0,1.0,1.0,1.0,10.00
2024-10-11 20:13:15.237,0.64755344,-0.08873753,0.0029291436,0.79927063,0.46767715,-0.15415682,-0.15892962,1.0360047,0.92443913,0.12035426,0.16873848,0.86904275,0.8362475,-0.13000982,-0.0074691363,0.9800615,0.3574266,-0.28396899,-0.29959446,0.6760788,809.0842,801.4286,796.99634,806.26373,877.98535,-0.1446533203125,0.1016845703125,0.99127197265625,0.186920166015625,-2.654266357421875,-0.82244873046875,1,1.0,1.0,1.0,1.0,10.00
2024-10-11 20:13:15.238,0.64755344,-0.08873753,0.0029291436,0.79927063,0.46767715,-0.15415682,-0.15892962,1.0360047,0.92443913,0.12035426,0.16873848,0.86904275,0.8362475,-0.13000982,-0.0074691363,0.9800615,0.3574266,-0.28396899,-0.29959446,0.6760788,807.8755,804.2491,803.44324,808.68134,736.1539,-0.1446533203125,0.1016845703125,0.99127197265625,0.186920166015625,-2.654266357421875,-0.82244873046875,1,1.0,1.0,1.0,1.0,10.00
2024-10-11 20:13:15.238,0.64755344,-0.08873753,0.0029291436,0.79927063,0.46767715,-0.15415682,-0.15892962,1.0360047,0.92443913,0.12035426,0.16873848,0.86904275,0.8362475,-0.13000982,-0.0074691363,0.9800615,0.3574266,-0.28396899,-0.29959446,0.6760788,807.0696,801.8315,805.05493,810.293,720.4396,-0.1446533203125,0.1016845703125,0.99127197265625,0.186920166015625,-2.654266357421875,-0.82244873046875,1,1.0,1.0,1.0,1.0,10.00
2024-10-11 20:13:15.261,0.64755344,-0.08873753,0.0029291436,0.79927063,0.46767715,-0.15415682,-0.15892962,1.0360047,0.92443913,0.12035426,0.16873848,0.86904275,0.8362475,-0.13000982,-0.0074691363,0.9800615,0.3574266,-0.28396899,-0.29959446,0.6760788,806.26373,795.78754,804.65204,812.3077,840.9158,-0.13958740234375,0.10223388671875,0.9921875,0.34393310546875,-1.308441162109375,-0.142059326171875,1,1.0,1.0,1.0,1.0,10.00
2024-10-11 20:13:15.262,0.64755344,-0.08873753,0.0029291436,0.79927063,0.46767715,-0.15415682,-0.15892962,1.0360047,0.92443913,0.12035426,0.16873848,0.86904275,0.8362475,-0.13000982,-0.0074691363,0.9800615,0.3574266,-0.28396899,-0.29959446,0.6760788,804.65204,796.1905,801.8315,812.3077,865.09155,-0.13958740234375,0.10223388671875,0.9921875,0.34393310546875,-1.308441162109375,-0.142059326171875,1,1.0,1.0,1.0,1.0,10.00
2024-10-11 20:13:15.262,0.64755344,-0.08873753,0.0029291436,0.79927063,0.46767715,-0.15415682,-0.15892962,1.0360047,0.92443913,0.12035426,0.16873848,0.86904275,0.8362475,-0.13000982,-0.0074691363,0.9800615,0.3574266,-0.28396899,-0.29959446,0.6760788,803.44324,790.9524,796.99634,808.68134,791.3553,-0.13958740234375,0.10223388671875,0.9921875,0.34393310546875,-1.308441162109375,-0.142059326171875,1,1.0,1.0,1.0,1.0,10.00
2024-10-11 20:13:15.263,0.64755344,-0.08873753,0.0029291436,0.79927063,0.46767715,-0.15415682,-0.15892962,1.0360047,0.92443913,0.12035426,0.16873848,0.86904275,0.8362475,-0.13000982,-0.0074691363,0.9800615,0.3574266,-0.28396899,-0.29959446,0.6760788,802.6374,789.34064,801.8315,809.0842,786.1172,-0.13958740234375,0.10223388671875,0.9921875,0.34393310546875,-1.308441162109375,-0.142059326171875,1,1.0,1.0,1.0,1.0,10.00
2024-10-11 20:13:15.263,0.64755344,-0.08873753,0.0029291436,0.79927063,0.46767715,-0.15415682,-0.15892962,1.0360047,0.92443913,0.12035426,0.16873848,0.86904275,0.8362475,-0.13000982,-0.0074691363,0.9800615,0.3574266,-0.28396899,-0.29959446,0.6760788,803.44324,794.17584,800.2198,809.89014,891.28204,-0.13958740234375,0.10223388671875,0.9921875,0.34393310546875,-1.308441162109375,-0.142059326171875,1,1.0,1.0,1.0,1.0,10.00
2024-10-11 20:13:15.264,0.64755344,-0.08873753,0.0029291436,0.79927063,0.46767715,-0.15415682,-0.15892962,1.0360047,0.92443913,0.12035426,0.16873848,0.86904275,0.8362475,-0.13000982,-0.0074691363,0.9800615,0.3574266,-0.28396899,-0.29959446,0.6760788,806.26373,795.78754,792.96704,809.4872,893.69965,-0.13958740234375,0.10223388671875,0.9921875,0.34393310546875,-1.308441162109375,-0.142059326171875,1,1.0,1.0,1.0,1.0,10.00
2024-10-11 20:13:15.264,0.64755344,-0.08873753,0.0029291436,0.79927063,0.46767715,-0.15415682,-0.15892962,1.0360047,0.92443913,0.12035426,0.16873848,0.86904275,0.8362475,-0.13000982,-0.0074691363,0.9800615,0.3574266,-0.28396899,-0.29959446,0.6760788,803.44324,792.96704,798.20514,807.8755,762.3443,-0.13958740234375,0.10223388671875,0.9921875,0.34393310546875,-1.308441162109375,-0.142059326171875,1,1.0,1.0,1.0,1.0,10.00
2024-10-11 20:13:15.265,0.64755344,-0.08873753,0.0029291436,0.79927063,0.46767715,-0.15415682,-0.15892962,1.0360047,0.92443913,0.12035426,0.16873848,0.86904275,0.8362475,-0.13000982,-0.0074691363,0.9800615,0.3574266,-0.28396899,-0.29959446,0.6760788,812.71063,794.9817,799.81683,806.26373,702.71063,-0.13958740234375,0.10223388671875,0.9921875,0.34393310546875,-1.308441162109375,-0.142059326171875,1,1.0,1.0,1.0,1.0,10.00
2024-10-11 20:13:15.265,0.64755344,-0.08873753,0.0029291436,0.79927063,0.46767715,-0.15415682,-0.15892962,1.0360047,0.92443913,0.12035426,0.16873848,0.86904275,0.8362475,-0.13000982,-0.0074691363,0.9800615,0.3574266,-0.28396899,-0.29959446,0.6760788,814.3223,799.011,800.6227,805.4579,760.7326,-0.13958740234375,0.10223388671875,0.9921875,0.34393310546875,-1.308441162109375,-0.142059326171875,1,1.0,1.0,1.0,1.0,10.00
2024-10-11 20:13:15.266,0.64755344,-0.08873753,0.0029291436,0.79927063,0.46767715,-0.15415682,-0.15892962,1.0360047,0.92443913,0.12035426,0.16873848,0.86904275,0.8362475,-0.13000982,-0.0074691363,0.9800615,0.3574266,-0.28396899,-0.29959446,0.6760788,807.0696,796.5934,801.02563,805.05493,708.7546,-0.13958740234375,0.10223388671875,0.9921875,0.34393310546875,-1.308441162109375,-0.142059326171875,1,1.0,1.0,1.0,1.0,10.00
2024-10-11 20:13:15.267,0.64755344,-0.08873753,0.0029291436,0.79927063,0.46767715,-0.15415682,-0.15892962,1.0360047,0.92443913,0.12035426,0.16873848,0.86904275,0.8362475,-0.13000982,-0.0074691363,0.9800615,0.3574266,-0.28396899,-0.29959446,0.6760788,812.3077,796.99634,798.60803,802.6374,702.71063,-0.13958740234375,0.10223388671875,0.9921875,0.34393310546875,-1.308441162109375,-0.142059326171875,1,1.0,1.0,1.0,1.0,10.00
2024-10-11 20:13:15.267,0.64755344,0.008959338,0.032191414,0.79927063,0.46767715,-0.11377041,-0.049382325,1.0360047,0.92443913,0.12240381,0.18224163,0.86904275,0.8362475,-0.09293195,-0.1087576,0.9800615,0.3574266,-0.26483825,-0.32486755,0.6760788,802.23444,792.5641,801.4286,800.2198,783.69965,-0.13958740234375,0.10223388671875,0.9921875,0.34393310546875,-1.308441162109375,-0.142059326171875,1,1.0,1.0,1.0,1.0,10.00
2024-10-11 20:13:15.321,0.64755344,0.008959338,0.032191414,0.79927063,0.46767715,-0.11377041,-0.049382325,1.0360047,0.92443913,0.12240381,0.18224163,0.86904275,0.8362475,-0.09293195,-0.1087576,0.9800615,0.3574266,-0.26483825,-0.32486755,0.6760788,792.1612,787.326,801.8315,804.2491,798.60803,-0.13958740234375,0.10223388671875,0.9921875,0.34393310546875,-1.308441162109375,-0.142059326171875,1,1.0,1.0,1.0,1.0,10.00
2024-10-11 20:13:15.322,0.64755344,0.008959338,0.032191414,0.79927063,0.46767715,-0.11377041,-0.049382325,1.0360047,0.92443913,0.12240381,0.18224163,0.86904275,0.8362475,-0.09293195,-0.1087576,0.9800615,0.3574266,-0.26483825,-0.32486755,0.6760788,801.4286,791.75824,803.0403,805.05493,751.4652,-0.13958740234375,0.10223388671875,0.9921875,0.34393310546875,-1.308441162109375,-0.142059326171875,1,1.0,1.0,1.0,1.0,10.00
2024-10-11 20:13:15.322,0.64755344,0.008959338,0.032191414,0.79927063,0.46767715,-0.11377041,-0.049382325,1.0360047,0.92443913,0.12240381,0.18224163,0.86904275,0.8362475,-0.09293195,-0.1087576,0.9800615,0.3574266,-0.26483825,-0.32486755,0.6760788,803.44324,791.3553,803.44324,807.47253,721.6484,-0.13958740234375,0.10223388671875,0.9921875,0.34393310546875,-1.308441162109375,-0.142059326171875,1,1.0,1.0,1.0,1.0,10.00
2024-10-11 20:13:15.323,0.64755344,0.008959338,0.032191414,0.79927063,0.46767715,-0.11377041,-0.049382325,1.0360047,0.92443913,0.12240381,0.18224163,0.86904275,0.8362475,-0.09293195,-0.1087576,0.9800615,0.3574266,-0.26483825,-0.32486755,0.6760788,811.0989,791.3553,803.44324,815.5311,939.6337,-0.13958740234375,0.10223388671875,0.9921875,0.34393310546875,-1.308441162109375,-0.142059326171875,1,1.0,1.0,1.0,1.0,10.00
2024-10-11 20:13:15.323,0.64755344,0.008959338,0.032191414,0.79927063,0.46767715,-0.11377041,-0.049382325,1.0360047,0.92443913,0.12240381,0.18224163,0.86904275,0.8362475,-0.09293195,-0.1087576,0.9800615,0.3574266,-0.26483825,-0.32486755,0.6760788,818.7546,792.1612,803.0403,821.5751,1207.9854,-0.13958740234375,0.10223388671875,0.9921875,0.34393310546875,-1.308441162109375,-0.142059326171875,1,1.0,1.0,1.0,1.0,10.00
2024-10-11 20:13:15.324,0.64755344,0.008959338,0.032191414,0.79927063,0.46767715,-0.11377041,-0.049382325,1.0360047,0.92443913,0.12240381,0.18224163,0.86904275,0.8362475,-0.09293195,-0.1087576,0.9800615,0.3574266,-0.26483825,-0.32486755,0.6760788,803.44324,793.7729,799.011,823.5897,1346.5934,-0.13958740234375,0.10223388671875,0.9921875,0.34393310546875,-1.308441162109375,-0.142059326171875,1,1.0,1.0,1.0,1.0,10.00
2024-10-11 20:13:15.325,0.64755344,0.008959338,0.032191414,0.79927063,0.46767715,-0.11377041,-0.049382325,1.0360047,0.92443913,0.12240381,0.18224163,0.86904275,0.8362475,-0.09293195,-0.1087576,0.9800615,0.3574266,-0.26483825,-0.32486755,0.6760788,796.99634,797.8022,801.02563,822.7839,1236.1904,-0.13958740234375,0.10223388671875,0.9921875,0.34393310546875,-1.308441162109375,-0.142059326171875,1,1.0,1.0,1.0,1.0,10.00
2024-10-11 20:13:15.325,0.64755344,0.008959338,0.032191414,0.79927063,0.46767715,-0.11377041,-0.049382325,1.0360047,0.92443913,0.12240381,0.18224163,0.86904275,0.8362475,-0.09293195,-0.1087576,0.9800615,0.3574266,-0.26483825,-0.32486755,0.6760788,801.4286,800.2198,803.0403,820.7692,826.0073,-0.13958740234375,0.10223388671875,0.9921875,0.34393310546875,-1.308441162109375,-0.142059326171875,1,1.0,1.0,1.0,1.0,10.00
2024-10-11 20:13:15.326,0.64755344,0.008959338,0.032191414,0.79927063,0.46767715,-0.11377041,-0.049382325,1.0360047,0.92443913,0.12240381,0.18224163,0.86904275,0.8362475,-0.09293195,-0.1087576,0.9800615,0.3574266,-0.26483825,-0.32486755,0.6760788,800.6227,798.60803,800.6227,816.337,597.5458,-0.13958740234375,0.10223388671875,0.9921875,0.34393310546875,-1.308441162109375,-0.142059326171875,1,1.0,1.0,1.0,1.0,10.00
2024-10-11 20:13:15.326,0.64755344,0.008959338,0.032191414,0.79927063,0.46767715,-0.11377041,-0.049382325,1.0360047,0.92443913,0.12240381,0.18224163,0.86904275,0.8362475,-0.09293195,-0.1087576,0.9800615,0.3574266,-0.26483825,-0.32486755,0.6760788,801.4286,799.81683,798.60803,809.4872,516.55676,-0.13958740234375,0.10223388671875,0.9921875,0.34393310546875,-1.308441162109375,-0.142059326171875,1,1.0,1.0,1.0,1.0,10.00
2024-10-11 20:13:15.327,0.64755344,0.008959338,0.032191414,0.79927063,0.46767715,-0.11377041,-0.049382325,1.0360047,0.92443913,0.12240381,0.18224163,0.86904275,0.8362475,-0.09293195,-0.1087576,0.9800615,0.3574266,-0.26483825,-0.32486755,0.6760788,803.0403,800.2198,798.20514,813.91943,615.6777,-0.13958740234375,0.10223388671875,0.9921875,0.34393310546875,-1.308441162109375,-0.142059326171875,1,1.0,1.0,1.0,1.0,10.00
2024-10-11 20:13:15.328,0.64755344,0.008959338,0.032191414,0.79927063,0.46767715,-0.11377041,-0.049382325,1.0360047,0.92443913,0.12240381,0.18224163,0.86904275,0.8362475,-0.09293195,-0.1087576,0.9800615,0.3574266,-0.26483825,-0.32486755,0.6760788,803.0403,796.1905,799.41394,808.2784,617.28937,-0.13958740234375,0.10223388671875,0.9921875,0.34393310546875,-1.308441162109375,-0.142059326171875,1,1.0,1.0,1.0,1.0,10.00
2024-10-11 20:13:15.388,0.64755344,0.008959338,0.032191414,0.79927063,0.46767715,-0.11377041,-0.049382325,1.0360047,0.92443913,0.12240381,0.18224163,0.86904275,0.8362475,-0.09293195,-0.1087576,0.9800615,0.3574266,-0.26483825,-0.32486755,0.6760788,805.4579,797.8022,804.2491,809.0842,504.8718,-0.1419677734375,0.10198974609375,0.98699951171875,0.366363525390625,-0.485992431640625,0.2093505859375,1,1.0,1.0,1.0,1.0,10.00
2024-10-11 20:13:15.389,0.64755344,0.008959338,0.032191414,0.79927063,0.46767715,-0.11377041,-0.049382325,1.0360047,0.92443913,0.12240381,0.18224163,0.86904275,0.8362475,-0.09293195,-0.1087576,0.9800615,0.3574266,-0.26483825,-0.32486755,0.6760788,806.6667,801.4286,810.696,815.5311,483.11356,-0.1419677734375,0.10198974609375,0.98699951171875,0.366363525390625,-0.485992431640625,0.2093505859375,1,1.0,1.0,1.0,1.0,10.00
2024-10-11 20:13:15.389,0.64755344,0.008959338,0.032191414,0.79927063,0.46767715,-0.11377041,-0.049382325,1.0360047,0.92443913,0.12240381,0.18224163,0.86904275,0.8362475,-0.09293195,-0.1087576,0.9800615,0.3574266,-0.26483825,-0.32486755,0.6760788,810.293,797.3993,806.6667,811.9048,602.381,-0.1419677734375,0.10198974609375,0.98699951171875,0.366363525390625,-0.485992431640625,0.2093505859375,1,1.0,1.0,1.0,1.0,10.00
2024-10-11 20:13:15.390,0.64755344,0.008959338,0.032191414,0.79927063,0.46767715,-0.11377041,-0.049382325,1.0360047,0.92443913,0.12240381,0.18224163,0.86904275,0.8362475,-0.09293195,-0.1087576,0.9800615,0.3574266,-0.26483825,-0.32486755,0.6760788,809.0842,792.96704,804.2491,817.9487,724.87177,-0.1419677734375,0.10198974609375,0.98699951171875,0.366363525390625,-0.485992431640625,0.2093505859375,1,1.0,1.0,1.0,1.0,10.00
2024-10-11 20:13:15.390,0.64755344,0.008959338,0.032191414,0.79927063,0.46767715,-0.11377041,-0.049382325,1.0360047,0.92443913,0.12240381,0.18224163,0.86904275,0.8362475,-0.09293195,-0.1087576,0.9800615,0.3574266,-0.26483825,-0.32486755,0.6760788,809.0842,792.1612,809.0842,821.1722,627.3626,-0.1419677734375,0.10198974609375,0.98699951171875,0.366363525390625,-0.485992431640625,0.2093505859375,1,1.0,1.0,1.0,1.0,10.00
2024-10-11 20:13:15.391,0.64755344,0.008959338,0.032191414,0.79927063,0.46767715,-0.11377041,-0.049382325,1.0360047,0.92443913,0.12240381,0.18224163,0.86904275,0.8362475,-0.09293195,-0.1087576,0.9800615,0.3574266,-0.26483825,-0.32486755,0.6760788,817.1429,795.78754,809.0842,817.9487,567.326,-0.1419677734375,0.10198974609375,0.98699951171875,0.366363525390625,-0.485992431640625,0.2093505859375,1,1.0,1.0,1.0,1.0,10.00
2024-10-11 20:13:15.391,0.64755344,0.008959338,0.032191414,0.79927063,0.46767715,-0.11377041,-0.049382325,1.0360047,0.92443913,0.12240381,0.18224163,0.86904275,0.8362475,-0.09293195,-0.1087576,0.9800615,0.3574266,-0.26483825,-0.32486755,0.6760788,820.3663,794.9817,805.4579,817.5458,818.3516,-0.1419677734375,0.10198974609375,0.98699951171875,0.366363525390625,-0.485992431640625,0.2093505859375,1,1.0,1.0,1.0,1.0,10.00
2024-10-11 20:13:15.392,0.64755344,0.008959338,0.032191414,0.79927063,0.46767715,-0.11377041,-0.049382325,1.0360047,0.92443913,0.12240381,0.18224163,0.86904275,0.8362475,-0.09293195,-0.1087576,0.9800615,0.3574266,-0.26483825,-0.32486755,0.6760788,819.9634,796.5934,804.2491,822.7839,993.22345,-0.1419677734375,0.10198974609375,0.98699951171875,0.366363525390625,-0.485992431640625,0.2093505859375,1,1.0,1.0,1.0,1.0,10.00
2024-10-11 20:13:15.393,0.64755344,0.008959338,0.032191414,0.79927063,0.46767715,-0.11377041,-0.049382325,1.0360047,0.92443913,0.12240381,0.18224163,0.86904275,0.8362475,-0.09293195,-0.1087576,0.9800615,0.3574266,-0.26483825,-0.32486755,0.6760788,820.7692,803.8461,803.0403,815.9341,705.12823,-0.1419677734375,0.10198974609375,0.98699951171875,0.366363525390625,-0.485992431640625,0.2093505859375,1,1.0,1.0,1.0,1.0,10.00
2024-10-11 20:13:15.393,0.64755344,0.008959338,0.032191414,0.79927063,0.46767715,-0.11377041,-0.049382325,1.0360047,0.92443913,0.12240381,0.18224163,0.86904275,0.8362475,-0.09293195,-0.1087576,0.9800615,0.3574266,-0.26483825,-0.32486755,0.6760788,814.3223,796.1905,804.2491,809.89014,531.06226,-0.1419677734375,0.10198974609375,0.98699951171875,0.366363525390625,-0.485992431640625,0.2093505859375,1,1.0,1.0,1.0,1.0,10.00
2024-10-11 20:13:15.394,0.64755344,0.008959338,0.032191414,0.79927063,0.46767715,-0.11377041,-0.049382325,1.0360047,0.92443913,0.12240381,0.18224163,0.86904275,0.8362475,-0.09293195,-0.1087576,0.9800615,0.3574266,-0.26483825,-0.32486755,0.6760788,805.05493,792.96704,804.2491,816.337,704.7253,-0.1419677734375,0.10198974609375,0.98699951171875,0.366363525390625,-0.485992431640625,0.2093505859375,1,1.0,1.0,1.0,1.0,10.00
2024-10-11 20:13:15.394,0.64755344,0.008959338,0.032191414,0.79927063,0.46767715,-0.11377041,-0.049382325,1.0360047,0.92443913,0.12240381,0.18224163,0.86904275,0.8362475,-0.09293195,-0.1087576,0.9800615,0.3574266,-0.26483825,-0.32486755,0.6760788,801.4286,798.20514,803.8461,815.5311,853.4066,-0.1419677734375,0.10198974609375,0.98699951171875,0.366363525390625,-0.485992431640625,0.2093505859375,1,1.0,1.0,1.0,1.0,10.00
2024-10-11 20:13:15.455,0.64755344,0.008959338,0.032191414,0.79927063,0.46767715,-0.11377041,-0.049382325,1.0360047,0.92443913,0.12240381,0.18224163,0.86904275,0.8362475,-0.09293195,-0.1087576,0.9800615,0.3574266,-0.26483825,-0.32486755,0.6760788,809.4872,803.0403,809.89014,812.71063,715.6044,-0.1536865234375,0.1065673828125,0.9957275390625,1.024322509765625,-0.31402587890625,0.777587890625,1,1.0,1.0,1.0,1.0,10.00
2024-10-11 20:13:15.455,0.64755344,0.07041514,0.043798175,0.79927063,0.46767715,-0.09189143,0.045105033,1.0360047,0.92443913,0.07847053,0.17209609,0.86904275,0.8362475,-0.075985596,-0.2050932,0.9800615,0.3574266,-0.2766469,-0.3511673,0.6760788,814.7253,801.02563,811.50183,806.6667,596.7399,-0.1536865234375,0.1065673828125,0.9957275390625,1.024322509765625,-0.31402587890625,0.777587890625,1,1.0,1.0,1.0,1.0,10.00
2024-10-11 20:13:15.460,0.64755344,0.07041514,0.043798175,0.79927063,0.46767715,-0.09189143,0.045105033,1.0360047,0.92443913,0.07847053,0.17209609,0.86904275,0.8362475,-0.075985596,-0.2050932,0.9800615,0.3574266,-0.2766469,-0.3511673,0.6760788,813.5165,794.17584,807.47253,805.05493,745.42126,-0.1536865234375,0.1065673828125,0.9957275390625,1.024322509765625,-0.31402587890625,0.777587890625,1,1.0,1.0,1.0,1.0,10.00
2024-10-11 20:13:15.461,0.64755344,0.07041514,0.043798175,0.79927063,0.46767715,-0.09189143,0.045105033,1.0360047,0.92443913,0.07847053,0.17209609,0.86904275,0.8362475,-0.075985596,-0.2050932,0.9800615,0.3574266,-0.2766469,-0.3511673,0.6760788,817.1429,799.011,803.44324,809.89014,878.3883,-0.1536865234375,0.1065673828125,0.9957275390625,1.024322509765625,-0.31402587890625,0.777587890625,1,1.0,1.0,1.0,1.0,10.00
2024-10-11 20:13:15.461,0.64755344,0.07041514,0.043798175,0.79927063,0.46767715,-0.09189143,0.045105033,1.0360047,0.92443913,0.07847053,0.17209609,0.86904275,0.8362475,-0.075985596,-0.2050932,0.9800615,0.3574266,-0.2766469,-0.3511673,0.6760788,813.5165,799.81683,801.4286,806.26373,770.80585,-0.1536865234375,0.1065673828125,0.9957275390625,1.024322509765625,-0.31402587890625,0.777587890625,1,1.0,1.0,1.0,1.0,10.00
2024-10-11 20:13:15.462,0.64755344,0.07041514,0.043798175,0.79927063,0.46767715,-0.09189143,0.045105033,1.0360047,0.92443913,0.07847053,0.17209609,0.86904275,0.8362475,-0.075985596,-0.2050932,0.9800615,0.3574266,-0.2766469,-0.3511673,0.6760788,808.68134,793.7729,798.60803,806.6667,865.09155,-0.1536865234375,0.1065673828125,0.9957275390625,1.024322509765625,-0.31402587890625,0.777587890625,1,1.0,1.0,1.0,1.0,10.00
2024-10-11 20:13:15.462,0.64755344,0.07041514,0.043798175,0.79927063,0.46767715,-0.09189143,0.045105033,1.0360047,0.92443913,0.07847053,0.17209609,0.86904275,0.8362475,-0.075985596,-0.2050932,0.9800615,0.3574266,-0.2766469,-0.3511673,0.6760788,810.293,790.9524,796.1905,810.696,1047.619,-0.1536865234375,0.1065673828125,0.9957275390625,1.024322509765625,-0.31402587890625,0.777587890625,1,1.0,1.0,1.0,1.0,10.00
2024-10-11 20:13:15.463,0.64755344,0.07041514,0.043798175,0.79927063,0.46767715,-0.09189143,0.045105033,1.0360047,0.92443913,0.07847053,0.17209609,0.86904275,0.8362475,-0.075985596,-0.2050932,0.9800615,0.3574266,-0.2766469,-0.3511673,0.6760788,813.5165,790.54944,799.011,810.293,902.1612,-0.1536865234375,0.1065673828125,0.9957275390625,1.024322509765625,-0.31402587890625,0.777587890625,1,1.0,1.0,1.0,1.0,10.00
2024-10-11 20:13:15.464,0.64755344,0.07041514,0.043798175,0.79927063,0.46767715,-0.09189143,0.045105033,1.0360047,0.92443913,0.07847053,0.17209609,0.86904275,0.8362475,-0.075985596,-0.2050932,0.9800615,0.3574266,-0.2766469,-0.3511673,0.6760788,808.68134,790.54944,799.81683,809.89014,770.40295,-0.1536865234375,0.1065673828125,0.9957275390625,1.024322509765625,-0.31402587890625,0.777587890625,1,1.0,1.0,1.0,1.0,10.00
2024-10-11 20:13:15.464,0.64755344,0.07041514,0.043798175,0.79927063,0.46767715,-0.09189143,0.045105033,1.0360047,0.92443913,0.07847053,0.17209609,0.86904275,0.8362475,-0.075985596,-0.2050932,0.9800615,0.3574266,-0.2766469,-0.3511673,0.6760788,805.05493,790.14655,799.81683,805.8608,822.7839,-0.1536865234375,0.1065673828125,0.9957275390625,1.024322509765625,-0.31402587890625,0.777587890625,1,1.0,1.0,1.0,1.0,10.00
2024-10-11 20:13:15.465,0.64755344,0.07041514,0.043798175,0.79927063,0.46767715,-0.09189143,0.045105033,1.0360047,0.92443913,0.07847053,0.17209609,0.86904275,0.8362475,-0.075985596,-0.2050932,0.9800615,0.3574266,-0.2766469,-0.3511673,0.6760788,800.6227,786.1172,799.41394,800.6227,895.7143,-0.1536865234375,0.1065673828125,0.9957275390625,1.024322509765625,-0.31402587890625,0.777587890625,1,1.0,1.0,1.0,1.0,10.00
2024-10-11 20:13:15.465,0.64755344,0.07041514,0.043798175,0.79927063,0.46767715,-0.09189143,0.045105033,1.0360047,0.92443913,0.07847053,0.17209609,0.86904275,0.8362475,-0.075985596,-0.2050932,0.9800615,0.3574266,-0.2766469,-0.3511673,0.6760788,793.7729,792.96704,799.41394,801.8315,925.12823,-0.1536865234375,0.1065673828125,0.9957275390625,1.024322509765625,-0.31402587890625,0.777587890625,1,1.0,1.0,1.0,1.0,10.00
2024-10-11 20:13:15.489,0.64755344,0.07041514,0.043798175,0.79927063,0.46767715,-0.09189143,0.045105033,1.0360047,0.92443913,0.07847053,0.17209609,0.86904275,0.8362475,-0.075985596,-0.2050932,0.9800615,0.3574266,-0.2766469,-0.3511673,0.6760788,783.69965,795.78754,801.8315,804.65204,812.3077,-0.15643310546875,0.10980224609375,0.99249267578125,0.46356201171875,0.575714111328125,1.069183349609375,1,1.0,1.0,1.0,1.0,10.00
2024-10-11 20:13:15.490,0.64755344,0.07041514,0.043798175,0.79927063,0.46767715,-0.09189143,0.045105033,1.0360047,0.92443913,0.07847053,0.17209609,0.86904275,0.8362475,-0.075985596,-0.2050932,0.9800615,0.3574266,-0.2766469,-0.3511673,0.6760788,776.4469,788.1319,804.2491,806.26373,805.05493,-0.15643310546875,0.10980224609375,0.99249267578125,0.46356201171875,0.575714111328125,1.069183349609375,1,1.0,1.0,1.0,1.0,10.00
2024-10-11 20:13:15.490,0.64755344,0.07041514,0.043798175,0.79927063,0.46767715,-0.09189143,0.045105033,1.0360047,0.92443913,0.07847053,0.17209609,0.86904275,0.8362475,-0.075985596,-0.2050932,0.9800615,0.3574266,-0.2766469,-0.3511673,0.6760788,782.49084,792.96704,801.4286,803.44324,868.71796,-0.15643310546875,0.10980224609375,0.99249267578125,0.46356201171875,0.575714111328125,1.069183349609375,1,1.0,1.0,1.0,1.0,10.00
2024-10-11 20:13:15.491,0.64755344,0.07041514,0.043798175,0.79927063,0.46767715,-0.09189143,0.045105033,1.0360047,0.92443913,0.07847053,0.17209609,0.86904275,0.8362475,-0.075985596,-0.2050932,0.9800615,0.3574266,-0.2766469,-0.3511673,0.6760788,791.75824,800.6227,798.60803,805.05493,756.30035,-0.15643310546875,0.10980224609375,0.99249267578125,0.46356201171875,0.575714111328125,1.069183349609375,1,1.0,1.0,1.0,1.0,10.00
2024-10-11 20:13:15.491,0.64755344,0.07041514,0.043798175,0.79927063,0.46767715,-0.09189143,0.045105033,1.0360047,0.92443913,0.07847053,0.17209609,0.86904275,0.8362475,-0.075985596,-0.2050932,0.9800615,0.3574266,-0.2766469,-0.3511673,0.6760788,795.38464,801.02563,803.44324,812.71063,705.9341,-0.15643310546875,0.10980224609375,0.99249267578125,0.46356201171875,0.575714111328125,1.069183349609375,1,1.0,1.0,1.0,1.0,10.00
2024-10-11 20:13:15.492,0.64755344,0.07041514,0.043798175,0.79927063,0.46767715,-0.09189143,0.045105033,1.0360047,0.92443913,0.07847053,0.17209609,0.86904275,0.8362475,-0.075985596,-0.2050932,0.9800615,0.3574266,-0.2766469,-0.3511673,0.6760788,795.38464,795.78754,804.2491,812.3077,954.94507,-0.15643310546875,0.10980224609375,0.99249267578125,0.46356201171875,0.575714111328125,1.069183349609375,1,1.0,1.0,1.0,1.0,10.00
2024-10-11 20:13:15.493,0.64755344,0.07041514,0.043798175,0.79927063,0.46767715,-0.09189143,0.045105033,1.0360047,0.92443913,0.07847053,0.17209609,0.86904275,0.8362475,-0.075985596,-0.2050932,0.9800615,0.3574266,-0.2766469,-0.3511673,0.6760788,800.6227,789.7436,801.4286,809.4872,1081.0623,-0.15643310546875,0.10980224609375,0.99249267578125,0.46356201171875,0.575714111328125,1.069183349609375,1,1.0,1.0,1.0,1.0,10.00
2024-10-11 20:13:15.493,0.64755344,0.07041514,0.043798175,0.79927063,0.46767715,-0.09189143,0.045105033,1.0360047,0.92443913,0.07847053,0.17209609,0.86904275,0.8362475,-0.075985596,-0.2050932,0.9800615,0.3574266,-0.2766469,-0.3511673,0.6760788,799.41394,795.78754,802.23444,810.293,769.59705,-0.15643310546875,0.10980224609375,0.99249267578125,0.46356201171875,0.575714111328125,1.069183349609375,1,1.0,1.0,1.0,1.0,10.00
2024-10-11 20:13:15.494,0.64755344,0.07041514,0.043798175,0.79927063,0.46767715,-0.09189143,0.045105033,1.0360047,0.92443913,0.07847053,0.17209609,0.86904275,0.8362475,-0.075985596,-0.2050932,0.9800615,0.3574266,-0.2766469,-0.3511673,0.6760788,802.23444,794.9817,801.8315,814.7253,632.1978,-0.15643310546875,0.10980224609375,0.99249267578125,0.46356201171875,0.575714111328125,1.069183349609375,1,1.0,1.0,1.0,1.0,10.00
2024-10-11 20:13:15.494,0.64755344,0.07041514,0.043798175,0.79927063,0.46767715,-0.09189143,0.045105033,1.0360047,0.92443913,0.07847053,0.17209609,0.86904275,0.8362475,-0.075985596,-0.2050932,0.9800615,0.3574266,-0.2766469,-0.3511673,0.6760788,803.8461,788.93774,801.8315,820.7692,806.6667,-0.15643310546875,0.10980224609375,0.99249267578125,0.46356201171875,0.575714111328125,1.069183349609375,1,1.0,1.0,1.0,1.0,10.00
2024-10-11 20:13:15.495,0.64755344,0.07041514,0.043798175,0.79927063,0.46767715,-0.09189143,0.045105033,1.0360047,0.92443913,0.07847053,0.17209609,0.86904275,0.8362475,-0.075985596,-0.2050932,0.9800615,0.3574266,-0.2766469,-0.3511673,0.6760788,793.7729,795.38464,802.6374,817.5458,861.8681,-0.15643310546875,0.10980224609375,0.99249267578125,0.46356201171875,0.575714111328125,1.069183349609375,1,1.0,1.0,1.0,1.0,10.00
2024-10-11 20:13:15.495,0.64755344,0.07041514,0.043798175,0.79927063,0.46767715,-0.09189143,0.045105033,1.0360047,0.92443913,0.07847053,0.17209609,0.86904275,0.8362475,-0.075985596,-0.2050932,0.9800615,0.3574266,-0.2766469,-0.3511673,0.6760788,795.78754,799.011,806.26373,813.91943,552.01465,-0.15643310546875,0.10980224609375,0.99249267578125,0.46356201171875,0.575714111328125,1.069183349609375,1,1.0,1.0,1.0,1.0,10.00
2024-10-11 20:13:15.623,0.64755344,0.07041514,0.043798175,0.79927063,0.46767715,-0.09189143,0.045105033,1.0360047,0.92443913,0.07847053,0.17209609,0.86904275,0.8362475,-0.075985596,-0.2050932,0.9800615,0.3574266,-0.2766469,-0.3511673,0.6760788,808.2784,796.1905,805.8608,813.5165,624.1392,-0.16522216796875,0.107421875,0.99102783203125,0.34393310546875,1.12152099609375,0.2093505859375,1,1.0,1.0,1.0,1.0,10.00
2024-10-11 20:13:15.624,0.64755344,0.07041514,0.043798175,0.79927063,0.46767715,-0.09189143,0.045105033,1.0360047,0.92443913,0.07847053,0.17209609,0.86904275,0.8362475,-0.075985596,-0.2050932,0.9800615,0.3574266,-0.2766469,-0.3511673,0.6760788,809.0842,795.38464,802.6374,808.68134,809.89014,-0.16522216796875,0.107421875,0.99102783203125,0.34393310546875,1.12152099609375,0.2093505859375,1,1.0,1.0,1.0,1.0,10.00
2024-10-11 20:13:15.624,0.64755344,0.07041514,0.043798175,0.79927063,0.46767715,-0.09189143,0.045105033,1.0360047,0.92443913,0.07847053,0.17209609,0.86904275,0.8362475,-0.075985596,-0.2050932,0.9800615,0.3574266,-0.2766469,-0.3511673,0.6760788,809.4872,795.38464,799.81683,807.47253,704.7253,-0.16522216796875,0.107421875,0.99102783203125,0.34393310546875,1.12152099609375,0.2093505859375,1,1.0,1.0,1.0,1.0,10.00
2024-10-11 20:13:15.625,0.46023238,0.012978714,-0.17599793,0.79927063,0.31967136,-0.12255413,0.07231331,1.0360047,0.6591331,0.04363192,0.14668691,0.86904275,0.44083935,-0.061217476,-0.27279675,0.9800615,-0.012365373,-0.3195417,-0.40104392,0.6760788,817.9487,795.38464,799.011,811.50183,625.7509,-0.16522216796875,0.107421875,0.99102783203125,0.34393310546875,1.12152099609375,0.2093505859375,1,1.0,1.0,1.0,1.0,10.00
2024-10-11 20:13:15.630,0.46023238,0.012978714,-0.17599793,0.79927063,0.31967136,-0.12255413,0.07231331,1.0360047,0.6591331,0.04363192,0.14668691,0.86904275,0.44083935,-0.061217476,-0.27279675,0.9800615,-0.012365373,-0.3195417,-0.40104392,0.6760788,819.15753,795.78754,801.4286,814.7253,635.42126,-0.16522216796875,0.107421875,0.99102783203125,0.34393310546875,1.12152099609375,0.2093505859375,1,1.0,1.0,1.0,1.0,10.00
2024-10-11 20:13:15.630,0.46023238,0.012978714,-0.17599793,0.79927063,0.31967136,-0.12255413,0.07231331,1.0360047,0.6591331,0.04363192,0.14668691,0.86904275,0.44083935,-0.061217476,-0.27279675,0.9800615,-0.012365373,-0.3195417,-0.40104392,0.6760788,815.9341,795.78754,805.4579,815.9341,873.95605,-0.16522216796875,0.107421875,0.99102783203125,0.34393310546875,1.12152099609375,0.2093505859375,1,1.0,1.0,1.0,1.0,10.00
2024-10-11 20:13:15.631,0.46023238,0.012978714,-0.17599793,0.79927063,0.31967136,-0.12255413,0.07231331,1.0360047,0.6591331,0.04363192,0.14668691,0.86904275,0.44083935,-0.061217476,-0.27279675,0.9800615,-0.012365373,-0.3195417,-0.40104392,0.6760788,818.3516,797.8022,804.2491,815.5311,957.76556,-0.16522216796875,0.107421875,0.99102783203125,0.34393310546875,1.12152099609375,0.2093505859375,1,1.0,1.0,1.0,1.0,10.00
2024-10-11 20:13:15.631,0.46023238,0.012978714,-0.17599793,0.79927063,0.31967136,-0.12255413,0.07231331,1.0360047,0.6591331,0.04363192,0.14668691,0.86904275,0.44083935,-0.061217476,-0.27279675,0.9800615,-0.012365373,-0.3195417,-0.40104392,0.6760788,816.337,802.23444,800.6227,814.3223,693.0403,-0.16522216796875,0.107421875,0.99102783203125,0.34393310546875,1.12152099609375,0.2093505859375,1,1.0,1.0,1.0,1.0,10.00
2024-10-11 20:13:15.632,0.46023238,0.012978714,-0.17599793,0.79927063,0.31967136,-0.12255413,0.07231331,1.0360047,0.6591331,0.04363192,0.14668691,0.86904275,0.44083935,-0.061217476,-0.27279675,0.9800615,-0.012365373,-0.3195417,-0.40104392,0.6760788,805.8608,801.8315,805.05493,811.0989,618.0952,-0.16522216796875,0.107421875,0.99102783203125,0.34393310546875,1.12152099609375,0.2093505859375,1,1.0,1.0,1.0,1.0,10.00
2024-10-11 20:13:15.632,0.46023238,0.012978714,-0.17599793,0.79927063,0.31967136,-0.12255413,0.07231331,1.0360047,0.6591331,0.04363192,0.14668691,0.86904275,0.44083935,-0.061217476,-0.27279675,0.9800615,-0.012365373,-0.3195417,-0.40104392,0.6760788,804.2491,802.23444,807.0696,812.71063,952.52747,-0.16522216796875,0.107421875,0.99102783203125,0.34393310546875,1.12152099609375,0.2093505859375,1,1.0,1.0,1.0,1.0,10.00
2024-10-11 20:13:15.633,0.46023238,0.012978714,-0.17599793,0.79927063,0.31967136,-0.12255413,0.07231331,1.0360047,0.6591331,0.04363192,0.14668691,0.86904275,0.44083935,-0.061217476,-0.27279675,0.9800615,-0.012365373,-0.3195417,-0.40104392,0.6760788,809.89014,799.011,805.8608,809.0842,898.5348,-0.16522216796875,0.107421875,0.99102783203125,0.34393310546875,1.12152099609375,0.2093505859375,1,1.0,1.0,1.0,1.0,10.00
2024-10-11 20:13:15.634,0.46023238,0.012978714,-0.17599793,0.79927063,0.31967136,-0.12255413,0.07231331,1.0360047,0.6591331,0.04363192,0.14668691,0.86904275,0.44083935,-0.061217476,-0.27279675,0.9800615,-0.012365373,-0.3195417,-0.40104392,0.6760788,804.65204,794.17584,806.26373,802.23444,581.4286,-0.16522216796875,0.107421875,0.99102783203125,0.34393310546875,1.12152099609375,0.2093505859375,1,1.0,1.0,1.0,1.0,10.00
2024-10-11 20:13:15.634,0.46023238,0.012978714,-0.17599793,0.79927063,0.31967136,-0.12255413,0.07231331,1.0360047,0.6591331,0.04363192,0.14668691,0.86904275,0.44083935,-0.061217476,-0.27279675,0.9800615,-0.012365373,-0.3195417,-0.40104392,0.6760788,804.2491,792.1612,803.0403,811.9048,678.1319,-0.16522216796875,0.107421875,0.99102783203125,0.34393310546875,1.12152099609375,0.2093505859375,1,1.0,1.0,1.0,1.0,10.00
2024-10-11 20:13:15.635,0.46023238,0.012978714,-0.17599793,0.79927063,0.31967136,-0.12255413,0.07231331,1.0360047,0.6591331,0.04363192,0.14668691,0.86904275,0.44083935,-0.061217476,-0.27279675,0.9800615,-0.012365373,-0.3195417,-0.40104392,0.6760788,811.50183,796.5934,800.2198,818.7546,1027.4725,-0.16522216796875,0.107421875,0.99102783203125,0.34393310546875,1.12152099609375,0.2093505859375,1,1.0,1.0,1.0,1.0,10.00
2024-10-11 20:13:15.635,0.46023238,0.012978714,-0.17599793,0.79927063,0.31967136,-0.12255413,0.07231331,1.0360047,0.6591331,0.04363192,0.14668691,0.86904275,0.44083935,-0.061217476,-0.27279675,0.9800615,-0.012365373,-0.3195417,-0.40104392,0.6760788,807.8755,806.6667,801.8315,817.1429,898.93774,-0.16522216796875,0.107421875,0.99102783203125,0.34393310546875,1.12152099609375,0.2093505859375,1,1.0,1.0,1.0,1.0,10.00
2024-10-11 20:13:15.636,0.46023238,0.012978714,-0.17599793,0.79927063,0.31967136,-0.12255413,0.07231331,1.0360047,0.6591331,0.04363192,0.14668691,0.86904275,0.44083935,-0.061217476,-0.27279675,0.9800615,-0.012365373,-0.3195417,-0.40104392,0.6760788,808.68134,804.2491,799.011,817.9487,672.49084,-0.16522216796875,0.107421875,0.99102783203125,0.34393310546875,1.12152099609375,0.2093505859375,1,1.0,1.0,1.0,1.0,10.00
2024-10-11 20:13:15.636,0.46023238,0.012978714,-0.17599793,0.79927063,0.31967136,-0.12255413,0.07231331,1.0360047,0.6591331,0.04363192,0.14668691,0.86904275,0.44083935,-0.061217476,-0.27279675,0.9800615,-0.012365373,-0.3195417,-0.40104392,0.6760788,815.9341,798.20514,795.38464,821.5751,876.3736,-0.16522216796875,0.107421875,0.99102783203125,0.34393310546875,1.12152099609375,0.2093505859375,1,1.0,1.0,1.0,1.0,10.00
2024-10-11 20:13:15.637,0.46023238,0.012978714,-0.17599793,0.79927063,0.31967136,-0.12255413,0.07231331,1.0360047,0.6591331,0.04363192,0.14668691,0.86904275,0.44083935,-0.061217476,-0.27279675,0.9800615,-0.012365373,-0.3195417,-0.40104392,0.6760788,819.9634,796.5934,796.99634,823.9927,1079.0476,-0.16522216796875,0.107421875,0.99102783203125,0.34393310546875,1.12152099609375,0.2093505859375,1,1.0,1.0,1.0,1.0,10.00
2024-10-11 20:13:15.638,0.46023238,0.012978714,-0.17599793,0.79927063,0.31967136,-0.12255413,0.07231331,1.0360047,0.6591331,0.04363192,0.14668691,0.86904275,0.44083935,-0.061217476,-0.27279675,0.9800615,-0.012365373,-0.3195417,-0.40104392,0.6760788,817.9487,795.78754,795.38464,815.9341,1038.3517,-0.16522216796875,0.107421875,0.99102783203125,0.34393310546875,1.12152099609375,0.2093505859375,1,1.0,1.0,1.0,1.0,10.00
2024-10-11 20:13:15.638,0.46023238,0.012978714,-0.17599793,0.79927063,0.31967136,-0.12255413,0.07231331,1.0360047,0.6591331,0.04363192,0.14668691,0.86904275,0.44083935,-0.061217476,-0.27279675,0.9800615,-0.012365373,-0.3195417,-0.40104392,0.6760788,823.9927,798.60803,800.2198,811.50183,806.26373,-0.16522216796875,0.107421875,0.99102783203125,0.34393310546875,1.12152099609375,0.2093505859375,1,1.0,1.0,1.0,1.0,10.00
2024-10-11 20:13:15.639,0.46023238,0.012978714,-0.17599793,0.79927063,0.31967136,-0.12255413,0.07231331,1.0360047,0.6591331,0.04363192,0.14668691,0.86904275,0.44083935,-0.061217476,-0.27279675,0.9800615,-0.012365373,-0.3195417,-0.40104392,0.6760788,814.7253,793.36993,803.0403,816.337,791.75824,-0.16522216796875,0.107421875,0.99102783203125,0.34393310546875,1.12152099609375,0.2093505859375,1,1.0,1.0,1.0,1.0,10.00
