TimeStamp,Delta_TP9,Delta_AF7,Delta_AF8,Delta_TP10,Theta_TP9,Theta_AF7,Theta_AF8,Theta_TP10,Alpha_TP9,Alpha_AF7,Alpha_AF8,Alpha_TP10,Beta_TP9,Beta_AF7,Beta_AF8,Beta_TP10,Gamma_TP9,Gamma_AF7,Gamma_AF8,Gamma_TP10,RAW_TP9,RAW_AF7,RAW_AF8,RAW_TP10,AUX_RIGHT,Accelerometer_X,Accelerometer_Y,Accelerometer_Z,Gyro_X,Gyro_Y,Gyro_Z,HeadBandOn,HSI_TP9,HSI_AF7,HSI_AF8,HSI_TP10,Battery,Elements
2024-10-11 20:27:29.427,0.36950755,-0.28068683,-0.0036730962,0.35692617,0.2664443,-0.34314463,-0.10126762,0.39537168,0.6714006,-0.10877516,0.045194946,0.6742195,0.56960756,-0.114524,0.21598777,0.11695358,-0.031472642,-0.5863807,-0.33212137,-0.10159833,813.91943,798.20514,797.8022,810.293,714.7985,-0.25640869140625,0.0467529296875,0.98052978515625,2.1234130859375,-2.669219970703125,4.56085205078125,1,1.0,1.0,1.0,1.0,10.00
2024-10-11 20:27:29.429,0.36950755,-0.28068683,-0.0036730962,0.35692617,0.2664443,-0.34314463,-0.10126762,0.39537168,0.6714006,-0.10877516,0.045194946,0.6742195,0.56960756,-0.114524,0.21598777,0.11695358,-0.031472642,-0.5863807,-0.33212137,-0.10159833,804.65204,796.1905,798.60803,800.2198,574.17584,-0.25640869140625,0.0467529296875,0.98052978515625,2.1234130859375,-2.669219970703125,4.56085205078125,1,1.0,1.0,1.0,1.0,10.00
2024-10-11 20:27:29.430,0.36950755,-0.28068683,-0.0036730962,0.35692617,0.2664443,-0.34314463,-0.10126762,0.39537168,0.6714006,-0.10877516,0.045194946,0.6742195,0.56960756,-0.114524,0.21598777,0.11695358,-0.031472642,-0.5863807,-0.33212137,-0.10159833,796.99634,791.75824,804.65204,794.9817,682.1612,-0.25640869140625,0.0467529296875,0.98052978515625,2.1234130859375,-2.669219970703125,4.56085205078125,1,1.0,1.0,1.0,1.0,10.00
2024-10-11 20:27:29.431,0.36950755,-0.28068683,-0.0036730962,0.35692617,0.2664443,-0.34314463,-0.10126762,0.39537168,0.6714006,-0.10877516,0.045194946,0.6742195,0.56960756,-0.114524,0.21598777,0.11695358,-0.031472642,-0.5863807,-0.33212137,-0.10159833,802.23444,792.96704,804.65204,807.0696,1048.8279,-0.25640869140625,0.0467529296875,0.98052978515625,2.1234130859375,-2.669219970703125,4.56085205078125,1,1.0,1.0,1.0,1.0,10.00
2024-10-11 20:27:29.432,0.36950755,-0.28068683,-0.0036730962,0.35692617,0.2664443,-0.34314463,-0.10126762,0.39537168,0.6714006,-0.10877516,0.045194946,0.6742195,0.56960756,-0.114524,0.21598777,0.11695358,-0.031472642,-0.5863807,-0.33212137,-0.10159833,803.44324,797.8022,804.2491,806.6667,924.3223,-0.25640869140625,0.0467529296875,0.98052978515625,2.1234130859375,-2.669219970703125,4.56085205078125,1,1.0,1.0,1.0,1.0,10.00
2024-10-11 20:27:29.433,0.35804477,-0.22964355,0.0062881066,0.41233483,0.24206677,-0.349657,-0.1241145,0.3665653,0.6714006,-0.10138392,-0.010032904,0.6742195,0.55776256,-0.122917905,0.21796921,0.103149645,-0.050151728,-0.59634286,-0.3463783,-0.12614407,801.02563,792.96704,804.2491,795.38464,791.3553,-0.25640869140625,0.0467529296875,0.98052978515625,2.1234130859375,-2.669219970703125,4.56085205078125,1,1.0,1.0,1.0,1.0,10.00
2024-10-11 20:27:29.438,0.35804477,-0.22964355,0.0062881066,0.41233483,0.24206677,-0.349657,-0.1241145,0.3665653,0.6714006,-0.10138392,-0.010032904,0.6742195,0.55776256,-0.122917905,0.21796921,0.103149645,-0.050151728,-0.59634286,-0.3463783,-0.12614407,805.05493,790.9524,799.81683,795.78754,980.32965,-0.25640869140625,0.0467529296875,0.98052978515625,2.1234130859375,-2.669219970703125,4.56085205078125,1,1.0,1.0,1.0,1.0,10.00
2024-10-11 20:27:29.439,0.35804477,-0.22964355,0.0062881066,0.41233483,0.24206677,-0.349657,-0.1241145,0.3665653,0.6714006,-0.10138392,-0.010032904,0.6742195,0.55776256,-0.122917905,0.21796921,0.103149645,-0.050151728,-0.59634286,-0.3463783,-0.12614407,809.0842,794.57874,799.011,799.41394,811.50183,-0.25640869140625,0.0467529296875,0.98052978515625,2.1234130859375,-2.669219970703125,4.56085205078125,1,1.0,1.0,1.0,1.0,10.00
2024-10-11 20:27:29.440,0.35804477,-0.22964355,0.0062881066,0.41233483,0.24206677,-0.349657,-0.1241145,0.3665653,0.6714006,-0.10138392,-0.010032904,0.6742195,0.55776256,-0.122917905,0.21796921,0.103149645,-0.050151728,-0.59634286,-0.3463783,-0.12614407,808.68134,797.3993,797.8022,797.8022,654.35895,-0.25640869140625,0.0467529296875,0.98052978515625,2.1234130859375,-2.669219970703125,4.56085205078125,1,1.0,1.0,1.0,1.0,10.00
2024-10-11 20:27:29.441,0.35804477,-0.22964355,0.0062881066,0.41233483,0.24206677,-0.349657,-0.1241145,0.3665653,0.6714006,-0.10138392,-0.010032904,0.6742195,0.55776256,-0.122917905,0.21796921,0.103149645,-0.050151728,-0.59634286,-0.3463783,-0.12614407,812.3077,797.3993,794.57874,797.8022,713.9927,-0.25640869140625,0.0467529296875,0.98052978515625,2.1234130859375,-2.669219970703125,4.56085205078125,1,1.0,1.0,1.0,1.0,10.00
2024-10-11 20:27:29.442,0.35804477,-0.22964355,0.0062881066,0.41233483,0.24206677,-0.349657,-0.1241145,0.3665653,0.6714006,-0.10138392,-0.010032904,0.6742195,0.55776256,-0.122917905,0.21796921,0.103149645,-0.050151728,-0.59634286,-0.3463783,-0.12614407,812.71063,797.3993,794.57874,797.8022,782.0879,-0.25640869140625,0.0467529296875,0.98052978515625,2.1234130859375,-2.669219970703125,4.56085205078125,1,1.0,1.0,1.0,1.0,10.00
2024-10-11 20:27:29.443,0.35804477,-0.22964355,0.0062881066,0.41233483,0.24206677,-0.349657,-0.1241145,0.3665653,0.6714006,-0.10138392,-0.010032904,0.6742195,0.55776256,-0.122917905,0.21796921,0.103149645,-0.050151728,-0.59634286,-0.3463783,-0.12614407,805.05493,799.41394,799.011,797.8022,709.15753,-0.25640869140625,0.0467529296875,0.98052978515625,2.1234130859375,-2.669219970703125,4.56085205078125,1,1.0,1.0,1.0,1.0,10.00
2024-10-11 20:27:29.519,0.35804477,-0.22964355,0.0062881066,0.41233483,0.24206677,-0.349657,-0.1241145,0.3665653,0.6714006,-0.10138392,-0.010032904,0.6742195,0.55776256,-0.122917905,0.21796921,0.103149645,-0.050151728,-0.59634286,-0.3463783,-0.12614407,802.6374,799.011,801.02563,796.5934,611.2454,-0.25970458984375,0.04339599609375,0.977783203125,0.49346923828125,-2.1234130859375,4.29168701171875,1,1.0,1.0,1.0,1.0,10.00
2024-10-11 20:27:29.520,0.35804477,-0.22964355,0.0062881066,0.41233483,0.24206677,-0.349657,-0.1241145,0.3665653,0.6714006,-0.10138392,-0.010032904,0.6742195,0.55776256,-0.122917905,0.21796921,0.103149645,-0.050151728,-0.59634286,-0.3463783,-0.12614407,806.6667,799.41394,799.011,798.20514,693.8461,-0.25970458984375,0.04339599609375,0.977783203125,0.49346923828125,-2.1234130859375,4.29168701171875,1,1.0,1.0,1.0,1.0,10.00
2024-10-11 20:27:29.521,0.35804477,-0.22964355,0.0062881066,0.41233483,0.24206677,-0.349657,-0.1241145,0.3665653,0.6714006,-0.10138392,-0.010032904,0.6742195,0.55776256,-0.122917905,0.21796921,0.103149645,-0.050151728,-0.59634286,-0.3463783,-0.12614407,809.0842,799.41394,798.20514,799.011,852.1978,-0.25970458984375,0.04339599609375,0.977783203125,0.49346923828125,-2.1234130859375,4.29168701171875,1,1.0,1.0,1.0,1.0,10.00
2024-10-11 20:27:29.522,0.35804477,-0.22964355,0.0062881066,0.41233483,0.24206677,-0.349657,-0.1241145,0.3665653,0.6714006,-0.10138392,-0.010032904,0.6742195,0.55776256,-0.122917905,0.21796921,0.103149645,-0.050151728,-0.59634286,-0.3463783,-0.12614407,808.68134,797.3993,800.6227,796.5934,761.53845,-0.25970458984375,0.04339599609375,0.977783203125,0.49346923828125,-2.1234130859375,4.29168701171875,1,1.0,1.0,1.0,1.0,10.00
2024-10-11 20:27:29.524,0.35804477,-0.22964355,0.0062881066,0.41233483,0.24206677,-0.349657,-0.1241145,0.3665653,0.6714006,-0.10138392,-0.010032904,0.6742195,0.55776256,-0.122917905,0.21796921,0.103149645,-0.050151728,-0.59634286,-0.3463783,-0.12614407,806.26373,796.1905,801.02563,796.1905,587.8755,-0.25970458984375,0.04339599609375,0.977783203125,0.49346923828125,-2.1234130859375,4.29168701171875,1,1.0,1.0,1.0,1.0,10.00
2024-10-11 20:27:29.526,0.35804477,-0.22964355,0.0062881066,0.41233483,0.24206677,-0.349657,-0.1241145,0.3665653,0.6714006,-0.10138392,-0.010032904,0.6742195,0.55776256,-0.122917905,0.21796921,0.103149645,-0.050151728,-0.59634286,-0.3463783,-0.12614407,801.02563,796.99634,797.8022,798.20514,738.97437,-0.25970458984375,0.04339599609375,0.977783203125,0.49346923828125,-2.1234130859375,4.29168701171875,1,1.0,1.0,1.0,1.0,10.00
2024-10-11 20:27:29.527,0.35804477,-0.22964355,0.0062881066,0.41233483,0.24206677,-0.349657,-0.1241145,0.3665653,0.6714006,-0.10138392,-0.010032904,0.6742195,0.55776256,-0.122917905,0.21796921,0.103149645,-0.050151728,-0.59634286,-0.3463783,-0.12614407,803.44324,797.3993,794.57874,808.68134,1077.4359,-0.25970458984375,0.04339599609375,0.977783203125,0.49346923828125,-2.1234130859375,4.29168701171875,1,1.0,1.0,1.0,1.0,10.00
2024-10-11 20:27:29.528,0.35804477,-0.22964355,0.0062881066,0.41233483,0.24206677,-0.349657,-0.1241145,0.3665653,0.6714006,-0.10138392,-0.010032904,0.6742195,0.55776256,-0.122917905,0.21796921,0.103149645,-0.050151728,-0.59634286,-0.3463783,-0.12614407,801.02563,797.3993,801.8315,815.12823,1231.7583,-0.25970458984375,0.04339599609375,0.977783203125,0.49346923828125,-2.1234130859375,4.29168701171875,1,1.0,1.0,1.0,1.0,10.00
2024-10-11 20:27:29.529,0.35804477,-0.22964355,0.0062881066,0.41233483,0.24206677,-0.349657,-0.1241145,0.3665653,0.6714006,-0.10138392,-0.010032904,0.6742195,0.55776256,-0.122917905,0.21796921,0.103149645,-0.050151728,-0.59634286,-0.3463783,-0.12614407,794.57874,798.20514,808.68134,802.23444,828.8278,-0.25970458984375,0.04339599609375,0.977783203125,0.49346923828125,-2.1234130859375,4.29168701171875,1,1.0,1.0,1.0,1.0,10.00
2024-10-11 20:27:29.530,0.35804477,-0.22964355,0.0062881066,0.41233483,0.24206677,-0.349657,-0.1241145,0.3665653,0.6714006,-0.10138392,-0.010032904,0.6742195,0.55776256,-0.122917905,0.21796921,0.103149645,-0.050151728,-0.59634286,-0.3463783,-0.12614407,800.2198,800.2198,810.696,800.2198,694.65204,-0.25970458984375,0.04339599609375,0.977783203125,0.49346923828125,-2.1234130859375,4.29168701171875,1,1.0,1.0,1.0,1.0,10.00
2024-10-11 20:27:29.531,0.35804477,-0.22964355,0.0062881066,0.41233483,0.24206677,-0.349657,-0.1241145,0.3665653,0.6714006,-0.10138392,-0.010032904,0.6742195,0.55776256,-0.122917905,0.21796921,0.103149645,-0.050151728,-0.59634286,-0.3463783,-0.12614407,802.23444,801.8315,808.68134,807.47253,871.9414,-0.25970458984375,0.04339599609375,0.977783203125,0.49346923828125,-2.1234130859375,4.29168701171875,1,1.0,1.0,1.0,1.0,10.00
2024-10-11 20:27:29.531,0.35804477,-0.22964355,0.0062881066,0.41233483,0.24206677,-0.349657,-0.1241145,0.3665653,0.6714006,-0.10138392,-0.010032904,0.6742195,0.55776256,-0.122917905,0.21796921,0.103149645,-0.050151728,-0.59634286,-0.3463783,-0.12614407,800.6227,799.011,805.4579,807.8755,729.304,-0.25970458984375,0.04339599609375,0.977783203125,0.49346923828125,-2.1234130859375,4.29168701171875,1,1.0,1.0,1.0,1.0,10.00
2024-10-11 20:27:29.563,0.35804477,-0.22964355,0.0062881066,0.41233483,0.24206677,-0.349657,-0.1241145,0.3665653,0.6714006,-0.10138392,-0.010032904,0.6742195,0.55776256,-0.122917905,0.21796921,0.103149645,-0.050151728,-0.59634286,-0.3463783,-0.12614407,803.0403,803.0403,802.23444,806.26373,667.6557,-0.26177978515625,0.04388427734375,0.97845458984375,0.500946044921875,-2.52716064453125,2.489776611328125,1,1.0,1.0,1.0,1.0,10.00
2024-10-11 20:27:29.564,0.35804477,-0.22964355,0.0062881066,0.41233483,0.24206677,-0.349657,-0.1241145,0.3665653,0.6714006,-0.10138392,-0.010032904,0.6742195,0.55776256,-0.122917905,0.21796921,0.103149645,-0.050151728,-0.59634286,-0.3463783,-0.12614407,800.2198,801.4286,800.2198,802.6374,731.7216,-0.26177978515625,0.04388427734375,0.97845458984375,0.500946044921875,-2.52716064453125,2.489776611328125,1,1.0,1.0,1.0,1.0,10.00
2024-10-11 20:27:29.565,0.35804477,-0.22964355,0.0062881066,0.41233483,0.24206677,-0.349657,-0.1241145,0.3665653,0.6714006,-0.10138392,-0.010032904,0.6742195,0.55776256,-0.122917905,0.21796921,0.103149645,-0.050151728,-0.59634286,-0.3463783,-0.12614407,799.81683,799.41394,802.23444,806.6667,803.44324,-0.26177978515625,0.04388427734375,0.97845458984375,0.500946044921875,-2.52716064453125,2.489776611328125,1,1.0,1.0,1.0,1.0,10.00
2024-10-11 20:27:29.567,0.35804477,-0.22964355,0.0062881066,0.41233483,0.24206677,-0.349657,-0.1241145,0.3665653,0.6714006,-0.10138392,-0.010032904,0.6742195,0.55776256,-0.122917905,0.21796921,0.103149645,-0.050151728,-0.59634286,-0.3463783,-0.12614407,806.26373,802.23444,794.57874,806.6667,701.50183,-0.26177978515625,0.04388427734375,0.97845458984375,0.500946044921875,-2.52716064453125,2.489776611328125,1,1.0,1.0,1.0,1.0,10.00
2024-10-11 20:27:29.568,0.35804477,-0.22964355,0.0062881066,0.41233483,0.24206677,-0.349657,-0.1241145,0.3665653,0.6714006,-0.10138392,-0.010032904,0.6742195,0.55776256,-0.122917905,0.21796921,0.103149645,-0.050151728,-0.59634286,-0.3463783,-0.12614407,802.23444,796.1905,791.3553,796.5934,585.4579,-0.26177978515625,0.04388427734375,0.97845458984375,0.500946044921875,-2.52716064453125,2.489776611328125,1,1.0,1.0,1.0,1.0,10.00
2024-10-11 20:27:29.569,0.35804477,-0.22964355,0.0062881066,0.41233483,0.24206677,-0.349657,-0.1241145,0.3665653,0.6714006,-0.10138392,-0.010032904,0.6742195,0.55776256,-0.122917905,0.21796921,0.103149645,-0.050151728,-0.59634286,-0.3463783,-0.12614407,799.41394,792.96704,798.60803,794.57874,831.6484,-0.26177978515625,0.04388427734375,0.97845458984375,0.500946044921875,-2.52716064453125,2.489776611328125,1,1.0,1.0,1.0,1.0,10.00
2024-10-11 20:27:29.570,0.35804477,-0.22964355,0.0062881066,0.41233483,0.24206677,-0.349657,-0.1241145,0.3665653,0.6714006,-0.10138392,-0.010032904,0.6742195,0.55776256,-0.122917905,0.21796921,0.103149645,-0.050151728,-0.59634286,-0.3463783,-0.12614407,802.6374,795.78754,799.011,801.02563,989.59705,-0.26177978515625,0.04388427734375,0.97845458984375,0.500946044921875,-2.52716064453125,2.489776611328125,1,1.0,1.0,1.0,1.0,10.00
2024-10-11 20:27:29.571,0.35349244,-0.19527784,0.024316391,0.44259366,0.22232488,-0.34325343,-0.13860522,0.3469629,0.6714006,-0.09009802,-0.027032832,0.6742195,0.55160266,-0.13085736,0.21880457,0.09004222,-0.06023141,-0.6073828,-0.35066995,-0.14676501,797.8022,794.9817,799.011,802.6374,734.5421,-0.26177978515625,0.04388427734375,0.97845458984375,0.500946044921875,-2.52716064453125,2.489776611328125,1,1.0,1.0,1.0,1.0,10.00
2024-10-11 20:27:29.576,0.35349244,-0.19527784,0.024316391,0.44259366,0.22232488,-0.34325343,-0.13860522,0.3469629,0.6714006,-0.09009802,-0.027032832,0.6742195,0.55160266,-0.13085736,0.21880457,0.09004222,-0.06023141,-0.6073828,-0.35066995,-0.14676501,795.78754,792.1612,803.8461,798.20514,702.3077,-0.26177978515625,0.04388427734375,0.97845458984375,0.500946044921875,-2.52716064453125,2.489776611328125,1,1.0,1.0,1.0,1.0,10.00
2024-10-11 20:27:29.577,0.35349244,-0.19527784,0.024316391,0.44259366,0.22232488,-0.34325343,-0.13860522,0.3469629,0.6714006,-0.09009802,-0.027032832,0.6742195,0.55160266,-0.13085736,0.21880457,0.09004222,-0.06023141,-0.6073828,-0.35066995,-0.14676501,800.2198,792.1612,801.8315,801.02563,828.8278,-0.26177978515625,0.04388427734375,0.97845458984375,0.500946044921875,-2.52716064453125,2.489776611328125,1,1.0,1.0,1.0,1.0,10.00
2024-10-11 20:27:29.579,0.35349244,-0.19527784,0.024316391,0.44259366,0.22232488,-0.34325343,-0.13860522,0.3469629,0.6714006,-0.09009802,-0.027032832,0.6742195,0.55160266,-0.13085736,0.21880457,0.09004222,-0.06023141,-0.6073828,-0.35066995,-0.14676501,801.02563,795.78754,794.57874,803.44324,938.8278,-0.26177978515625,0.04388427734375,0.97845458984375,0.500946044921875,-2.52716064453125,2.489776611328125,1,1.0,1.0,1.0,1.0,10.00
2024-10-11 20:27:29.580,0.35349244,-0.19527784,0.024316391,0.44259366,0.22232488,-0.34325343,-0.13860522,0.3469629,0.6714006,-0.09009802,-0.027032832,0.6742195,0.55160266,-0.13085736,0.21880457,0.09004222,-0.06023141,-0.6073828,-0.35066995,-0.14676501,803.0403,800.2198,798.20514,803.8461,788.5348,-0.26177978515625,0.04388427734375,0.97845458984375,0.500946044921875,-2.52716064453125,2.489776611328125,1,1.0,1.0,1.0,1.0,10.00
2024-10-11 20:27:29.581,0.35349244,-0.19527784,0.024316391,0.44259366,0.22232488,-0.34325343,-0.13860522,0.3469629,0.6714006,-0.09009802,-0.027032832,0.6742195,0.55160266,-0.13085736,0.21880457,0.09004222,-0.06023141,-0.6073828,-0.35066995,-0.14676501,797.8022,801.02563,800.6227,798.60803,738.5714,-0.26177978515625,0.04388427734375,0.97845458984375,0.500946044921875,-2.52716064453125,2.489776611328125,1,1.0,1.0,1.0,1.0,10.00
2024-10-11 20:27:29.582,0.35349244,-0.19527784,0.024316391,0.44259366,0.22232488,-0.34325343,-0.13860522,0.3469629,0.6714006,-0.09009802,-0.027032832,0.6742195,0.55160266,-0.13085736,0.21880457,0.09004222,-0.06023141,-0.6073828,-0.35066995,-0.14676501,801.02563,799.81683,799.011,788.5348,849.7802,-0.26177978515625,0.04388427734375,0.97845458984375,0.500946044921875,-2.52716064453125,2.489776611328125,1,1.0,1.0,1.0,1.0,10.00
2024-10-11 20:27:29.583,0.35349244,-0.19527784,0.024316391,0.44259366,0.22232488,-0.34325343,-0.13860522,0.3469629,0.6714006,-0.09009802,-0.027032832,0.6742195,0.55160266,-0.13085736,0.21880457,0.09004222,-0.06023141,-0.6073828,-0.35066995,-0.14676501,810.293,798.60803,792.1612,795.38464,819.5604,-0.26177978515625,0.04388427734375,0.97845458984375,0.500946044921875,-2.52716064453125,2.489776611328125,1,1.0,1.0,1.0,1.0,10.00
2024-10-11 20:27:29.584,0.35349244,-0.19527784,0.024316391,0.44259366,0.22232488,-0.34325343,-0.13860522,0.3469629,0.6714006,-0.09009802,-0.027032832,0.6742195,0.55160266,-0.13085736,0.21880457,0.09004222,-0.06023141,-0.6073828,-0.35066995,-0.14676501,812.3077,796.99634,796.99634,807.47253,852.1978,-0.26177978515625,0.04388427734375,0.97845458984375,0.500946044921875,-2.52716064453125,2.489776611328125,1,1.0,1.0,1.0,1.0,10.00
2024-10-11 20:27:29.585,0.35349244,-0.19527784,0.024316391,0.44259366,0.22232488,-0.34325343,-0.13860522,0.3469629,0.6714006,-0.09009802,-0.027032832,0.6742195,0.55160266,-0.13085736,0.21880457,0.09004222,-0.06023141,-0.6073828,-0.35066995,-0.14676501,808.68134,800.6227,805.4579,801.8315,749.85345,-0.26177978515625,0.04388427734375,0.97845458984375,0.500946044921875,-2.52716064453125,2.489776611328125,1,1.0,1.0,1.0,1.0,10.00
2024-10-11 20:27:29.587,0.35349244,-0.19527784,0.024316391,0.44259366,0.22232488,-0.34325343,-0.13860522,0.3469629,0.6714006,-0.09009802,-0.027032832,0.6742195,0.55160266,-0.13085736,0.21880457,0.09004222,-0.06023141,-0.6073828,-0.35066995,-0.14676501,797.8022,796.99634,800.2198,791.75824,1005.31134,-0.26177978515625,0.04388427734375,0.97845458984375,0.500946044921875,-2.52716064453125,2.489776611328125,1,1.0,1.0,1.0,1.0,10.00
2024-10-11 20:27:29.588,0.35349244,-0.19527784,0.024316391,0.44259366,0.22232488,-0.34325343,-0.13860522,0.3469629,0.6714006,-0.09009802,-0.027032832,0.6742195,0.55160266,-0.13085736,0.21880457,0.09004222,-0.06023141,-0.6073828,-0.35066995,-0.14676501,792.5641,793.36993,796.99634,789.34064,1099.597,-0.26177978515625,0.04388427734375,0.97845458984375,0.500946044921875,-2.52716064453125,2.489776611328125,1,1.0,1.0,1.0,1.0,10.00
2024-10-11 20:27:29.589,0.35349244,-0.19527784,0.024316391,0.44259366,0.22232488,-0.34325343,-0.13860522,0.3469629,0.6714006,-0.09009802,-0.027032832,0.6742195,0.55160266,-0.13085736,0.21880457,0.09004222,-0.06023141,-0.6073828,-0.35066995,-0.14676501,794.17584,797.8022,794.9817,787.326,766.3736,-0.26177978515625,0.04388427734375,0.97845458984375,0.500946044921875,-2.52716064453125,2.489776611328125,1,1.0,1.0,1.0,1.0,10.00
2024-10-11 20:27:29.590,0.35349244,-0.19527784,0.024316391,0.44259366,0.22232488,-0.34325343,-0.13860522,0.3469629,0.6714006,-0.09009802,-0.027032832,0.6742195,0.55160266,-0.13085736,0.21880457,0.09004222,-0.06023141,-0.6073828,-0.35066995,-0.14676501,799.011,798.20514,792.5641,794.17584,704.7253,-0.26177978515625,0.04388427734375,0.97845458984375,0.500946044921875,-2.52716064453125,2.489776611328125,1,1.0,1.0,1.0,1.0,10.00
2024-10-11 20:27:29.591,0.35349244,-0.19527784,0.024316391,0.44259366,0.22232488,-0.34325343,-0.13860522,0.3469629,0.6714006,-0.09009802,-0.027032832,0.6742195,0.55160266,-0.13085736,0.21880457,0.09004222,-0.06023141,-0.6073828,-0.35066995,-0.14676501,797.8022,796.5934,792.5641,804.65204,888.86444,-0.26177978515625,0.04388427734375,0.97845458984375,0.500946044921875,-2.52716064453125,2.489776611328125,1,1.0,1.0,1.0,1.0,10.00
2024-10-11 20:27:29.592,0.35349244,-0.19527784,0.024316391,0.44259366,0.22232488,-0.34325343,-0.13860522,0.3469629,0.6714006,-0.09009802,-0.027032832,0.6742195,0.55160266,-0.13085736,0.21880457,0.09004222,-0.06023141,-0.6073828,-0.35066995,-0.14676501,800.2198,796.5934,793.36993,803.0403,840.10986,-0.26177978515625,0.04388427734375,0.97845458984375,0.500946044921875,-2.52716064453125,2.489776611328125,1,1.0,1.0,1.0,1.0,10.00
2024-10-11 20:27:29.593,0.35349244,-0.19527784,0.024316391,0.44259366,0.22232488,-0.34325343,-0.13860522,0.3469629,0.6714006,-0.09009802,-0.027032832,0.6742195,0.55160266,-0.13085736,0.21880457,0.09004222,-0.06023141,-0.6073828,-0.35066995,-0.14676501,805.4579,796.99634,793.7729,803.8461,733.73627,-0.26177978515625,0.04388427734375,0.97845458984375,0.500946044921875,-2.52716064453125,2.489776611328125,1,1.0,1.0,1.0,1.0,10.00
2024-10-11 20:27:29.637,0.35349244,-0.19527784,0.024316391,0.44259366,0.22232488,-0.34325343,-0.13860522,0.3469629,0.6714006,-0.09009802,-0.027032832,0.6742195,0.55160266,-0.13085736,0.21880457,0.09004222,-0.06023141,-0.6073828,-0.35066995,-0.14676501,798.60803,796.99634,794.57874,808.2784,857.03296,-0.2620849609375,0.03912353515625,0.98260498046875,0.0299072265625,-1.742095947265625,1.33087158203125,1,1.0,1.0,1.0,1.0,10.00
2024-10-11 20:27:29.638,0.35349244,-0.19527784,0.024316391,0.44259366,0.22232488,-0.34325343,-0.13860522,0.3469629,0.6714006,-0.09009802,-0.027032832,0.6742195,0.55160266,-0.13085736,0.21880457,0.09004222,-0.06023141,-0.6073828,-0.35066995,-0.14676501,793.36993,793.7729,799.81683,807.8755,956.55676,-0.2620849609375,0.03912353515625,0.98260498046875,0.0299072265625,-1.742095947265625,1.33087158203125,1,1.0,1.0,1.0,1.0,10.00
2024-10-11 20:27:29.638,0.35349244,-0.19527784,0.024316391,0.44259366,0.22232488,-0.34325343,-0.13860522,0.3469629,0.6714006,-0.09009802,-0.027032832,0.6742195,0.55160266,-0.13085736,0.21880457,0.09004222,-0.06023141,-0.6073828,-0.35066995,-0.14676501,792.1612,794.17584,804.65204,803.0403,695.4579,-0.2620849609375,0.03912353515625,0.98260498046875,0.0299072265625,-1.742095947265625,1.33087158203125,1,1.0,1.0,1.0,1.0,10.00
2024-10-11 20:27:29.639,0.35349244,-0.19527784,0.024316391,0.44259366,0.22232488,-0.34325343,-0.13860522,0.3469629,0.6714006,-0.09009802,-0.027032832,0.6742195,0.55160266,-0.13085736,0.21880457,0.09004222,-0.06023141,-0.6073828,-0.35066995,-0.14676501,800.2198,797.3993,807.47253,798.60803,582.23444,-0.2620849609375,0.03912353515625,0.98260498046875,0.0299072265625,-1.742095947265625,1.33087158203125,1,1.0,1.0,1.0,1.0,10.00
2024-10-11 20:27:29.639,0.35349244,-0.19527784,0.024316391,0.44259366,0.22232488,-0.34325343,-0.13860522,0.3469629,0.6714006,-0.09009802,-0.027032832,0.6742195,0.55160266,-0.13085736,0.21880457,0.09004222,-0.06023141,-0.6073828,-0.35066995,-0.14676501,807.47253,796.1905,807.47253,798.60803,696.26373,-0.2620849609375,0.03912353515625,0.98260498046875,0.0299072265625,-1.742095947265625,1.33087158203125,1,1.0,1.0,1.0,1.0,10.00
2024-10-11 20:27:29.640,0.35349244,-0.19527784,0.024316391,0.44259366,0.22232488,-0.34325343,-0.13860522,0.3469629,0.6714006,-0.09009802,-0.027032832,0.6742195,0.55160266,-0.13085736,0.21880457,0.09004222,-0.06023141,-0.6073828,-0.35066995,-0.14676501,805.4579,792.5641,802.6374,796.99634,761.9414,-0.2620849609375,0.03912353515625,0.98260498046875,0.0299072265625,-1.742095947265625,1.33087158203125,1,1.0,1.0,1.0,1.0,10.00
2024-10-11 20:27:29.640,0.35349244,-0.19527784,0.024316391,0.44259366,0.22232488,-0.34325343,-0.13860522,0.3469629,0.6714006,-0.09009802,-0.027032832,0.6742195,0.55160266,-0.13085736,0.21880457,0.09004222,-0.06023141,-0.6073828,-0.35066995,-0.14676501,803.8461,797.3993,801.8315,796.99634,686.5934,-0.2620849609375,0.03912353515625,0.98260498046875,0.0299072265625,-1.742095947265625,1.33087158203125,1,1.0,1.0,1.0,1.0,10.00
2024-10-11 20:27:29.641,0.35349244,-0.19527784,0.024316391,0.44259366,0.22232488,-0.34325343,-0.13860522,0.3469629,0.6714006,-0.09009802,-0.027032832,0.6742195,0.55160266,-0.13085736,0.21880457,0.09004222,-0.06023141,-0.6073828,-0.35066995,-0.14676501,802.23444,799.011,804.65204,800.6227,728.0952,-0.2620849609375,0.03912353515625,0.98260498046875,0.0299072265625,-1.742095947265625,1.33087158203125,1,1.0,1.0,1.0,1.0,10.00
2024-10-11 20:27:29.641,0.35349244,-0.19527784,0.024316391,0.44259366,0.22232488,-0.34325343,-0.13860522,0.3469629,0.6714006,-0.09009802,-0.027032832,0.6742195,0.55160266,-0.13085736,0.21880457,0.09004222,-0.06023141,-0.6073828,-0.35066995,-0.14676501,798.60803,794.57874,800.2198,798.20514,823.1868,-0.2620849609375,0.03912353515625,0.98260498046875,0.0299072265625,-1.742095947265625,1.33087158203125,1,1.0,1.0,1.0,1.0,10.00
2024-10-11 20:27:29.642,0.3545631,-0.18662925,0.022460366,0.454671,0.2046689,-0.32913047,-0.15354748,0.3467072,0.6714006,-0.07896653,-0.04315298,0.6742195,0.5515287,-0.13751231,0.21853669,0.08677373,-0.05925604,-0.6200856,-0.34801978,-0.1586835,797.3993,794.17584,796.1905,796.99634,805.4579,-0.2620849609375,0.03912353515625,0.98260498046875,0.0299072265625,-1.742095947265625,1.33087158203125,1,1.0,1.0,1.0,1.0,10.00
2024-10-11 20:27:29.646,0.3545631,-0.18662925,0.022460366,0.454671,0.2046689,-0.32913047,-0.15354748,0.3467072,0.6714006,-0.07896653,-0.04315298,0.6742195,0.5515287,-0.13751231,0.21853669,0.08677373,-0.05925604,-0.6200856,-0.34801978,-0.1586835,806.26373,797.3993,804.65204,799.011,643.0769,-0.2620849609375,0.03912353515625,0.98260498046875,0.0299072265625,-1.742095947265625,1.33087158203125,1,1.0,1.0,1.0,1.0,10.00
2024-10-11 20:27:29.647,0.3545631,-0.18662925,0.022460366,0.454671,0.2046689,-0.32913047,-0.15354748,0.3467072,0.6714006,-0.07896653,-0.04315298,0.6742195,0.5515287,-0.13751231,0.21853669,0.08677373,-0.05925604,-0.6200856,-0.34801978,-0.1586835,803.0403,796.1905,808.68134,802.23444,576.1905,-0.2620849609375,0.03912353515625,0.98260498046875,0.0299072265625,-1.742095947265625,1.33087158203125,1,1.0,1.0,1.0,1.0,10.00
2024-10-11 20:27:29.684,0.3545631,-0.18662925,0.022460366,0.454671,0.2046689,-0.32913047,-0.15354748,0.3467072,0.6714006,-0.07896653,-0.04315298,0.6742195,0.5515287,-0.13751231,0.21853669,0.08677373,-0.05925604,-0.6200856,-0.34801978,-0.1586835,796.5934,797.3993,803.8461,803.0403,791.75824,-0.26251220703125,0.03485107421875,0.982666015625,-0.1495361328125,-1.854248046875,0.37384033203125,1,1.0,1.0,1.0,1.0,10.00
2024-10-11 20:27:29.685,0.3545631,-0.18662925,0.022460366,0.454671,0.2046689,-0.32913047,-0.15354748,0.3467072,0.6714006,-0.07896653,-0.04315298,0.6742195,0.5515287,-0.13751231,0.21853669,0.08677373,-0.05925604,-0.6200856,-0.34801978,-0.1586835,802.6374,801.02563,803.0403,802.6374,913.8461,-0.26251220703125,0.03485107421875,0.982666015625,-0.1495361328125,-1.854248046875,0.37384033203125,1,1.0,1.0,1.0,1.0,10.00
2024-10-11 20:27:29.687,0.3545631,-0.18662925,0.022460366,0.454671,0.2046689,-0.32913047,-0.15354748,0.3467072,0.6714006,-0.07896653,-0.04315298,0.6742195,0.5515287,-0.13751231,0.21853669,0.08677373,-0.05925604,-0.6200856,-0.34801978,-0.1586835,804.2491,799.41394,801.02563,797.3993,784.90845,-0.26251220703125,0.03485107421875,0.982666015625,-0.1495361328125,-1.854248046875,0.37384033203125,1,1.0,1.0,1.0,1.0,10.00
2024-10-11 20:27:29.688,0.3545631,-0.18662925,0.022460366,0.454671,0.2046689,-0.32913047,-0.15354748,0.3467072,0.6714006,-0.07896653,-0.04315298,0.6742195,0.5515287,-0.13751231,0.21853669,0.08677373,-0.05925604,-0.6200856,-0.34801978,-0.1586835,804.65204,799.81683,799.81683,795.38464,766.77655,-0.26251220703125,0.03485107421875,0.982666015625,-0.1495361328125,-1.854248046875,0.37384033203125,1,1.0,1.0,1.0,1.0,10.00
2024-10-11 20:27:29.689,0.3545631,-0.18662925,0.022460366,0.454671,0.2046689,-0.32913047,-0.15354748,0.3467072,0.6714006,-0.07896653,-0.04315298,0.6742195,0.5515287,-0.13751231,0.21853669,0.08677373,-0.05925604,-0.6200856,-0.34801978,-0.1586835,803.8461,797.3993,802.6374,799.41394,955.34796,-0.26251220703125,0.03485107421875,0.982666015625,-0.1495361328125,-1.854248046875,0.37384033203125,1,1.0,1.0,1.0,1.0,10.00
2024-10-11 20:27:29.690,0.3545631,-0.18662925,0.022460366,0.454671,0.2046689,-0.32913047,-0.15354748,0.3467072,0.6714006,-0.07896653,-0.04315298,0.6742195,0.5515287,-0.13751231,0.21853669,0.08677373,-0.05925604,-0.6200856,-0.34801978,-0.1586835,807.47253,795.38464,802.6374,793.7729,1102.0146,-0.26251220703125,0.03485107421875,0.982666015625,-0.1495361328125,-1.854248046875,0.37384033203125,1,1.0,1.0,1.0,1.0,10.00
2024-10-11 20:27:29.690,0.3545631,-0.18662925,0.022460366,0.454671,0.2046689,-0.32913047,-0.15354748,0.3467072,0.6714006,-0.07896653,-0.04315298,0.6742195,0.5515287,-0.13751231,0.21853669,0.08677373,-0.05925604,-0.6200856,-0.34801978,-0.1586835,806.6667,799.41394,805.05493,788.93774,919.89014,-0.26251220703125,0.03485107421875,0.982666015625,-0.1495361328125,-1.854248046875,0.37384033203125,1,1.0,1.0,1.0,1.0,10.00
2024-10-11 20:27:29.691,0.3545631,-0.18662925,0.022460366,0.454671,0.2046689,-0.32913047,-0.15354748,0.3467072,0.6714006,-0.07896653,-0.04315298,0.6742195,0.5515287,-0.13751231,0.21853669,0.08677373,-0.05925604,-0.6200856,-0.34801978,-0.1586835,798.20514,798.20514,805.8608,790.9524,751.8681,-0.26251220703125,0.03485107421875,0.982666015625,-0.1495361328125,-1.854248046875,0.37384033203125,1,1.0,1.0,1.0,1.0,10.00
2024-10-11 20:27:29.691,0.3545631,-0.18662925,0.022460366,0.454671,0.2046689,-0.32913047,-0.15354748,0.3467072,0.6714006,-0.07896653,-0.04315298,0.6742195,0.5515287,-0.13751231,0.21853669,0.08677373,-0.05925604,-0.6200856,-0.34801978,-0.1586835,797.3993,797.3993,801.8315,792.5641,979.12085,-0.26251220703125,0.03485107421875,0.982666015625,-0.1495361328125,-1.854248046875,0.37384033203125,1,1.0,1.0,1.0,1.0,10.00
2024-10-11 20:27:29.692,0.3545631,-0.18662925,0.022460366,0.454671,0.2046689,-0.32913047,-0.15354748,0.3467072,0.6714006,-0.07896653,-0.04315298,0.6742195,0.5515287,-0.13751231,0.21853669,0.08677373,-0.05925604,-0.6200856,-0.34801978,-0.1586835,798.20514,801.4286,807.8755,790.54944,941.2454,-0.26251220703125,0.03485107421875,0.982666015625,-0.1495361328125,-1.854248046875,0.37384033203125,1,1.0,1.0,1.0,1.0,10.00
2024-10-11 20:27:29.692,0.3545631,-0.18662925,0.022460366,0.454671,0.2046689,-0.32913047,-0.15354748,0.3467072,0.6714006,-0.07896653,-0.04315298,0.6742195,0.5515287,-0.13751231,0.21853669,0.08677373,-0.05925604,-0.6200856,-0.34801978,-0.1586835,793.7729,796.1905,809.0842,790.14655,671.28204,-0.26251220703125,0.03485107421875,0.982666015625,-0.1495361328125,-1.854248046875,0.37384033203125,1,1.0,1.0,1.0,1.0,10.00
2024-10-11 20:27:29.692,0.3545631,-0.18662925,0.022460366,0.454671,0.2046689,-0.32913047,-0.15354748,0.3467072,0.6714006,-0.07896653,-0.04315298,0.6742195,0.5515287,-0.13751231,0.21853669,0.08677373,-0.05925604,-0.6200856,-0.34801978,-0.1586835,794.9817,794.17584,806.6667,796.99634,685.38464,-0.26251220703125,0.03485107421875,0.982666015625,-0.1495361328125,-1.854248046875,0.37384033203125,1,1.0,1.0,1.0,1.0,10.00
2024-10-11 20:27:29.732,0.3545631,-0.18662925,0.022460366,0.454671,0.2046689,-0.32913047,-0.15354748,0.3467072,0.6714006,-0.07896653,-0.04315298,0.6742195,0.5515287,-0.13751231,0.21853669,0.08677373,-0.05925604,-0.6200856,-0.34801978,-0.1586835,794.9817,795.38464,804.2491,802.23444,932.381,-0.25750732421875,0.029296875,0.9683837890625,0.426177978515625,-3.058013916015625,-1.4056396484375,1,1.0,1.0,1.0,1.0,10.00
2024-10-11 20:27:29.732,0.3545631,-0.18662925,0.022460366,0.454671,0.2046689,-0.32913047,-0.15354748,0.3467072,0.6714006,-0.07896653,-0.04315298,0.6742195,0.5515287,-0.13751231,0.21853669,0.08677373,-0.05925604,-0.6200856,-0.34801978,-0.1586835,795.38464,794.9817,801.8315,803.0403,896.1172,-0.25750732421875,0.029296875,0.9683837890625,0.426177978515625,-3.058013916015625,-1.4056396484375,1,1.0,1.0,1.0,1.0,10.00
2024-10-11 20:27:29.733,0.3545631,-0.18662925,0.022460366,0.454671,0.2046689,-0.32913047,-0.15354748,0.3467072,0.6714006,-0.07896653,-0.04315298,0.6742195,0.5515287,-0.13751231,0.21853669,0.08677373,-0.05925604,-0.6200856,-0.34801978,-0.1586835,796.5934,796.99634,803.0403,796.99634,705.12823,-0.25750732421875,0.029296875,0.9683837890625,0.426177978515625,-3.058013916015625,-1.4056396484375,1,1.0,1.0,1.0,1.0,10.00
2024-10-11 20:27:29.733,0.3545631,-0.18662925,0.022460366,0.454671,0.2046689,-0.32913047,-0.15354748,0.3467072,0.6714006,-0.07896653,-0.04315298,0.6742195,0.5515287,-0.13751231,0.21853669,0.08677373,-0.05925604,-0.6200856,-0.34801978,-0.1586835,794.57874,797.3993,807.47253,796.99634,697.0696,-0.25750732421875,0.029296875,0.9683837890625,0.426177978515625,-3.058013916015625,-1.4056396484375,1,1.0,1.0,1.0,1.0,10.00
2024-10-11 20:27:29.734,0.3545631,-0.18662925,0.022460366,0.454671,0.2046689,-0.32913047,-0.15354748,0.3467072,0.6714006,-0.07896653,-0.04315298,0.6742195,0.5515287,-0.13751231,0.21853669,0.08677373,-0.05925604,-0.6200856,-0.34801978,-0.1586835,793.36993,798.60803,809.4872,804.65204,813.5165,-0.25750732421875,0.029296875,0.9683837890625,0.426177978515625,-3.058013916015625,-1.4056396484375,1,1.0,1.0,1.0,1.0,10.00
2024-10-11 20:27:29.734,0.3545631,-0.18662925,0.022460366,0.454671,0.2046689,-0.32913047,-0.15354748,0.3467072,0.6714006,-0.07896653,-0.04315298,0.6742195,0.5515287,-0.13751231,0.21853669,0.08677373,-0.05925604,-0.6200856,-0.34801978,-0.1586835,791.75824,800.6227,801.8315,801.8315,858.24176,-0.25750732421875,0.029296875,0.9683837890625,0.426177978515625,-3.058013916015625,-1.4056396484375,1,1.0,1.0,1.0,1.0,10.00
2024-10-11 20:27:29.735,0.3545631,-0.18662925,0.022460366,0.454671,0.2046689,-0.32913047,-0.15354748,0.3467072,0.6714006,-0.07896653,-0.04315298,0.6742195,0.5515287,-0.13751231,0.21853669,0.08677373,-0.05925604,-0.6200856,-0.34801978,-0.1586835,794.17584,799.81683,806.26373,795.78754,895.31134,-0.25750732421875,0.029296875,0.9683837890625,0.426177978515625,-3.058013916015625,-1.4056396484375,1,1.0,1.0,1.0,1.0,10.00
2024-10-11 20:27:29.735,0.3545631,-0.18662925,0.022460366,0.454671,0.2046689,-0.32913047,-0.15354748,0.3467072,0.6714006,-0.07896653,-0.04315298,0.6742195,0.5515287,-0.13751231,0.21853669,0.08677373,-0.05925604,-0.6200856,-0.34801978,-0.1586835,799.41394,800.6227,811.50183,792.1612,856.2271,-0.25750732421875,0.029296875,0.9683837890625,0.426177978515625,-3.058013916015625,-1.4056396484375,1,1.0,1.0,1.0,1.0,10.00
2024-10-11 20:27:29.736,0.3545631,-0.18662925,0.022460366,0.454671,0.2046689,-0.32913047,-0.15354748,0.3467072,0.6714006,-0.07896653,-0.04315298,0.6742195,0.5515287,-0.13751231,0.21853669,0.08677373,-0.05925604,-0.6200856,-0.34801978,-0.1586835,801.8315,803.0403,805.4579,795.38464,823.5897,-0.25750732421875,0.029296875,0.9683837890625,0.426177978515625,-3.058013916015625,-1.4056396484375,1,1.0,1.0,1.0,1.0,10.00
2024-10-11 20:27:29.736,0.3545631,-0.18662925,0.022460366,0.454671,0.2046689,-0.32913047,-0.15354748,0.3467072,0.6714006,-0.07896653,-0.04315298,0.6742195,0.5515287,-0.13751231,0.21853669,0.08677373,-0.05925604,-0.6200856,-0.34801978,-0.1586835,800.2198,804.65204,803.44324,797.8022,731.7216,-0.25750732421875,0.029296875,0.9683837890625,0.426177978515625,-3.058013916015625,-1.4056396484375,1,1.0,1.0,1.0,1.0,10.00
2024-10-11 20:27:29.737,0.3545631,-0.18662925,0.022460366,0.454671,0.2046689,-0.32913047,-0.15354748,0.3467072,0.6714006,-0.07896653,-0.04315298,0.6742195,0.5515287,-0.13751231,0.21853669,0.08677373,-0.05925604,-0.6200856,-0.34801978,-0.1586835,801.02563,798.60803,802.6374,796.1905,696.26373,-0.25750732421875,0.029296875,0.9683837890625,0.426177978515625,-3.058013916015625,-1.4056396484375,1,1.0,1.0,1.0,1.0,10.00
2024-10-11 20:27:29.737,0.360819,-0.1982614,0.003425312,0.46086633,0.18688655,-0.31647494,-0.17026594,0.36570913,0.6714006,-0.076121494,-0.053085193,0.6742195,0.5527893,-0.14318125,0.21727957,0.09502172,-0.050942708,-0.6336902,-0.34411114,-0.16214135,801.8315,795.38464,803.8461,794.9817,830.4396,-0.25750732421875,0.029296875,0.9683837890625,0.426177978515625,-3.058013916015625,-1.4056396484375,1,1.0,1.0,1.0,1.0,10.00
2024-10-11 20:27:29.766,0.360819,-0.1982614,0.003425312,0.46086633,0.18688655,-0.31647494,-0.17026594,0.36570913,0.6714006,-0.076121494,-0.053085193,0.6742195,0.5527893,-0.14318125,0.21727957,0.09502172,-0.050942708,-0.6336902,-0.34411114,-0.16214135,798.60803,800.6227,802.23444,796.1905,798.60803,-0.25030517578125,0.03240966796875,0.96990966796875,1.1663818359375,-2.9010009765625,-2.6318359375,1,1.0,1.0,1.0,1.0,10.00
2024-10-11 20:27:29.767,0.360819,-0.1982614,0.003425312,0.46086633,0.18688655,-0.31647494,-0.17026594,0.36570913,0.6714006,-0.076121494,-0.053085193,0.6742195,0.5527893,-0.14318125,0.21727957,0.09502172,-0.050942708,-0.6336902,-0.34411114,-0.16214135,802.23444,801.8315,797.8022,795.78754,675.31134,-0.25030517578125,0.03240966796875,0.96990966796875,1.1663818359375,-2.9010009765625,-2.6318359375,1,1.0,1.0,1.0,1.0,10.00
2024-10-11 20:27:29.767,0.360819,-0.1982614,0.003425312,0.46086633,0.18688655,-0.31647494,-0.17026594,0.36570913,0.6714006,-0.076121494,-0.053085193,0.6742195,0.5527893,-0.14318125,0.21727957,0.09502172,-0.050942708,-0.6336902,-0.34411114,-0.16214135,801.4286,799.011,786.1172,791.3553,722.8571,-0.25030517578125,0.03240966796875,0.96990966796875,1.1663818359375,-2.9010009765625,-2.6318359375,1,1.0,1.0,1.0,1.0,10.00
2024-10-11 20:27:29.768,0.360819,-0.1982614,0.003425312,0.46086633,0.18688655,-0.31647494,-0.17026594,0.36570913,0.6714006,-0.076121494,-0.053085193,0.6742195,0.5527893,-0.14318125,0.21727957,0.09502172,-0.050942708,-0.6336902,-0.34411114,-0.16214135,797.3993,792.96704,791.3553,785.7143,813.1135,-0.25030517578125,0.03240966796875,0.96990966796875,1.1663818359375,-2.9010009765625,-2.6318359375,1,1.0,1.0,1.0,1.0,10.00
2024-10-11 20:27:29.768,0.360819,-0.1982614,0.003425312,0.46086633,0.18688655,-0.31647494,-0.17026594,0.36570913,0.6714006,-0.076121494,-0.053085193,0.6742195,0.5527893,-0.14318125,0.21727957,0.09502172,-0.050942708,-0.6336902,-0.34411114,-0.16214135,802.23444,794.9817,802.6374,787.72894,770.0,-0.25030517578125,0.03240966796875,0.96990966796875,1.1663818359375,-2.9010009765625,-2.6318359375,1,1.0,1.0,1.0,1.0,10.00
2024-10-11 20:27:29.769,0.360819,-0.1982614,0.003425312,0.46086633,0.18688655,-0.31647494,-0.17026594,0.36570913,0.6714006,-0.076121494,-0.053085193,0.6742195,0.5527893,-0.14318125,0.21727957,0.09502172,-0.050942708,-0.6336902,-0.34411114,-0.16214135,801.4286,797.8022,799.41394,792.96704,813.91943,-0.25030517578125,0.03240966796875,0.96990966796875,1.1663818359375,-2.9010009765625,-2.6318359375,1,1.0,1.0,1.0,1.0,10.00
2024-10-11 20:27:29.770,0.360819,-0.1982614,0.003425312,0.46086633,0.18688655,-0.31647494,-0.17026594,0.36570913,0.6714006,-0.076121494,-0.053085193,0.6742195,0.5527893,-0.14318125,0.21727957,0.09502172,-0.050942708,-0.6336902,-0.34411114,-0.16214135,794.9817,792.5641,799.81683,797.3993,918.2784,-0.25030517578125,0.03240966796875,0.96990966796875,1.1663818359375,-2.9010009765625,-2.6318359375,1,1.0,1.0,1.0,1.0,10.00
2024-10-11 20:27:29.770,0.360819,-0.1982614,0.003425312,0.46086633,0.18688655,-0.31647494,-0.17026594,0.36570913,0.6714006,-0.076121494,-0.053085193,0.6742195,0.5527893,-0.14318125,0.21727957,0.09502172,-0.050942708,-0.6336902,-0.34411114,-0.16214135,793.7729,796.5934,801.4286,803.0403,994.43225,-0.25030517578125,0.03240966796875,0.96990966796875,1.1663818359375,-2.9010009765625,-2.6318359375,1,1.0,1.0,1.0,1.0,10.00
2024-10-11 20:27:29.771,0.360819,-0.1982614,0.003425312,0.46086633,0.18688655,-0.31647494,-0.17026594,0.36570913,0.6714006,-0.076121494,-0.053085193,0.6742195,0.5527893,-0.14318125,0.21727957,0.09502172,-0.050942708,-0.6336902,-0.34411114,-0.16214135,792.1612,799.81683,801.02563,795.38464,749.85345,-0.25030517578125,0.03240966796875,0.96990966796875,1.1663818359375,-2.9010009765625,-2.6318359375,1,1.0,1.0,1.0,1.0,10.00
2024-10-11 20:27:29.771,0.360819,-0.1982614,0.003425312,0.46086633,0.18688655,-0.31647494,-0.17026594,0.36570913,0.6714006,-0.076121494,-0.053085193,0.6742195,0.5527893,-0.14318125,0.21727957,0.09502172,-0.050942708,-0.6336902,-0.34411114,-0.16214135,794.9817,797.8022,798.20514,795.38464,560.4762,-0.25030517578125,0.03240966796875,0.96990966796875,1.1663818359375,-2.9010009765625,-2.6318359375,1,1.0,1.0,1.0,1.0,10.00
2024-10-11 20:27:29.772,0.360819,-0.1982614,0.003425312,0.46086633,0.18688655,-0.31647494,-0.17026594,0.36570913,0.6714006,-0.076121494,-0.053085193,0.6742195,0.5527893,-0.14318125,0.21727957,0.09502172,-0.050942708,-0.6336902,-0.34411114,-0.16214135,798.20514,796.99634,798.60803,796.5934,696.26373,-0.25030517578125,0.03240966796875,0.96990966796875,1.1663818359375,-2.9010009765625,-2.6318359375,1,1.0,1.0,1.0,1.0,10.00
2024-10-11 20:27:29.772,0.360819,-0.1982614,0.003425312,0.46086633,0.18688655,-0.31647494,-0.17026594,0.36570913,0.6714006,-0.076121494,-0.053085193,0.6742195,0.5527893,-0.14318125,0.21727957,0.09502172,-0.050942708,-0.6336902,-0.34411114,-0.16214135,797.8022,796.99634,792.1612,791.75824,935.2015,-0.25030517578125,0.03240966796875,0.96990966796875,1.1663818359375,-2.9010009765625,-2.6318359375,1,1.0,1.0,1.0,1.0,10.00
2024-10-11 20:27:29.800,0.360819,-0.1982614,0.003425312,0.46086633,0.18688655,-0.31647494,-0.17026594,0.36570913,0.6714006,-0.076121494,-0.053085193,0.6742195,0.5527893,-0.14318125,0.21727957,0.09502172,-0.050942708,-0.6336902,-0.34411114,-0.16214135,792.96704,800.2198,789.34064,790.9524,821.978,-0.243408203125,0.03204345703125,0.9798583984375,2.70660400390625,-3.895416259765625,-2.3028564453125,1,1.0,1.0,1.0,1.0,10.00
2024-10-11 20:27:29.801,0.360819,-0.1982614,0.003425312,0.46086633,0.18688655,-0.31647494,-0.17026594,0.36570913,0.6714006,-0.076121494,-0.053085193,0.6742195,0.5527893,-0.14318125,0.21727957,0.09502172,-0.050942708,-0.6336902,-0.34411114,-0.16214135,793.36993,799.81683,800.2198,798.20514,644.2857,-0.243408203125,0.03204345703125,0.9798583984375,2.70660400390625,-3.895416259765625,-2.3028564453125,1,1.0,1.0,1.0,1.0,10.00
2024-10-11 20:27:29.801,0.360819,-0.1982614,0.003425312,0.46086633,0.18688655,-0.31647494,-0.17026594,0.36570913,0.6714006,-0.076121494,-0.053085193,0.6742195,0.5527893,-0.14318125,0.21727957,0.09502172,-0.050942708,-0.6336902,-0.34411114,-0.16214135,796.1905,796.99634,804.2491,802.6374,858.24176,-0.243408203125,0.03204345703125,0.9798583984375,2.70660400390625,-3.895416259765625,-2.3028564453125,1,1.0,1.0,1.0,1.0,10.00
2024-10-11 20:27:29.802,0.360819,-0.1982614,0.003425312,0.46086633,0.18688655,-0.31647494,-0.17026594,0.36570913,0.6714006,-0.076121494,-0.053085193,0.6742195,0.5527893,-0.14318125,0.21727957,0.09502172,-0.050942708,-0.6336902,-0.34411114,-0.16214135,796.99634,797.8022,801.8315,799.011,977.1062,-0.243408203125,0.03204345703125,0.9798583984375,2.70660400390625,-3.895416259765625,-2.3028564453125,1,1.0,1.0,1.0,1.0,10.00
2024-10-11 20:27:29.802,0.360819,-0.1982614,0.003425312,0.46086633,0.18688655,-0.31647494,-0.17026594,0.36570913,0.6714006,-0.076121494,-0.053085193,0.6742195,0.5527893,-0.14318125,0.21727957,0.09502172,-0.050942708,-0.6336902,-0.34411114,-0.16214135,799.81683,799.41394,802.23444,800.6227,754.68866,-0.243408203125,0.03204345703125,0.9798583984375,2.70660400390625,-3.895416259765625,-2.3028564453125,1,1.0,1.0,1.0,1.0,10.00
2024-10-11 20:27:29.803,0.360819,-0.1982614,0.003425312,0.46086633,0.18688655,-0.31647494,-0.17026594,0.36570913,0.6714006,-0.076121494,-0.053085193,0.6742195,0.5527893,-0.14318125,0.21727957,0.09502172,-0.050942708,-0.6336902,-0.34411114,-0.16214135,799.41394,798.60803,803.44324,802.23444,706.337,-0.243408203125,0.03204345703125,0.9798583984375,2.70660400390625,-3.895416259765625,-2.3028564453125,1,1.0,1.0,1.0,1.0,10.00
2024-10-11 20:27:29.803,0.360819,-0.1982614,0.003425312,0.46086633,0.18688655,-0.31647494,-0.17026594,0.36570913,0.6714006,-0.076121494,-0.053085193,0.6742195,0.5527893,-0.14318125,0.21727957,0.09502172,-0.050942708,-0.6336902,-0.34411114,-0.16214135,794.9817,798.60803,801.02563,799.81683,905.38464,-0.243408203125,0.03204345703125,0.9798583984375,2.70660400390625,-3.895416259765625,-2.3028564453125,1,1.0,1.0,1.0,1.0,10.00
2024-10-11 20:27:29.804,0.360819,-0.1982614,0.003425312,0.46086633,0.18688655,-0.31647494,-0.17026594,0.36570913,0.6714006,-0.076121494,-0.053085193,0.6742195,0.5527893,-0.14318125,0.21727957,0.09502172,-0.050942708,-0.6336902,-0.34411114,-0.16214135,792.96704,795.78754,799.81683,802.23444,1023.8461,-0.243408203125,0.03204345703125,0.9798583984375,2.70660400390625,-3.895416259765625,-2.3028564453125,1,1.0,1.0,1.0,1.0,10.00
2024-10-11 20:27:29.804,0.360819,-0.1982614,0.003425312,0.46086633,0.18688655,-0.31647494,-0.17026594,0.36570913,0.6714006,-0.076121494,-0.053085193,0.6742195,0.5527893,-0.14318125,0.21727957,0.09502172,-0.050942708,-0.6336902,-0.34411114,-0.16214135,800.2198,798.60803,797.8022,800.2198,831.2454,-0.243408203125,0.03204345703125,0.9798583984375,2.70660400390625,-3.895416259765625,-2.3028564453125,1,1.0,1.0,1.0,1.0,10.00
2024-10-11 20:27:29.805,0.360819,-0.1982614,0.003425312,0.46086633,0.18688655,-0.31647494,-0.17026594,0.36570913,0.6714006,-0.076121494,-0.053085193,0.6742195,0.5527893,-0.14318125,0.21727957,0.09502172,-0.050942708,-0.6336902,-0.34411114,-0.16214135,801.02563,803.0403,794.17584,796.1905,669.67035,-0.243408203125,0.03204345703125,0.9798583984375,2.70660400390625,-3.895416259765625,-2.3028564453125,1,1.0,1.0,1.0,1.0,10.00
2024-10-11 20:27:29.805,0.360819,-0.1982614,0.003425312,0.46086633,0.18688655,-0.31647494,-0.17026594,0.36570913,0.6714006,-0.076121494,-0.053085193,0.6742195,0.5527893,-0.14318125,0.21727957,0.09502172,-0.050942708,-0.6336902,-0.34411114,-0.16214135,799.81683,800.6227,798.60803,801.8315,814.7253,-0.243408203125,0.03204345703125,0.9798583984375,2.70660400390625,-3.895416259765625,-2.3028564453125,1,1.0,1.0,1.0,1.0,10.00
2024-10-11 20:27:29.806,0.360819,-0.1982614,0.003425312,0.46086633,0.18688655,-0.31647494,-0.17026594,0.36570913,0.6714006,-0.076121494,-0.053085193,0.6742195,0.5527893,-0.14318125,0.21727957,0.09502172,-0.050942708,-0.6336902,-0.34411114,-0.16214135,806.26373,796.5934,806.26373,809.4872,945.2747,-0.243408203125,0.03204345703125,0.9798583984375,2.70660400390625,-3.895416259765625,-2.3028564453125,1,1.0,1.0,1.0,1.0,10.00
2024-10-11 20:27:29.806,0.360819,-0.1982614,0.003425312,0.46086633,0.18688655,-0.31647494,-0.17026594,0.36570913,0.6714006,-0.076121494,-0.053085193,0.6742195,0.5527893,-0.14318125,0.21727957,0.09502172,-0.050942708,-0.6336902,-0.34411114,-0.16214135,805.4579,797.3993,802.23444,803.8461,739.3773,-0.243408203125,0.03204345703125,0.9798583984375,2.70660400390625,-3.895416259765625,-2.3028564453125,1,1.0,1.0,1.0,1.0,10.00
2024-10-11 20:27:29.807,0.36686027,-0.22085866,-0.020288084,0.467675,0.16850545,-0.31200913,-0.18676144,0.38920078,0.676025,-0.076121494,-0.061482646,0.6742195,0.5500778,-0.14823277,0.21656677,0.10934568,-0.04112926,-0.6478391,-0.34471947,-0.1603486,799.41394,802.6374,796.1905,795.38464,646.7033,-0.243408203125,0.03204345703125,0.9798583984375,2.70660400390625,-3.895416259765625,-2.3028564453125,1,1.0,1.0,1.0,1.0,10.00
2024-10-11 20:27:29.811,0.36686027,-0.22085866,-0.020288084,0.467675,0.16850545,-0.31200913,-0.18676144,0.38920078,0.676025,-0.076121494,-0.061482646,0.6742195,0.5500778,-0.14823277,0.21656677,0.10934568,-0.04112926,-0.6478391,-0.34471947,-0.1603486,800.6227,797.8022,796.99634,796.5934,794.57874,-0.243408203125,0.03204345703125,0.9798583984375,2.70660400390625,-3.895416259765625,-2.3028564453125,1,1.0,1.0,1.0,1.0,10.00
2024-10-11 20:27:29.811,0.36686027,-0.22085866,-0.020288084,0.467675,0.16850545,-0.31200913,-0.18676144,0.38920078,0.676025,-0.076121494,-0.061482646,0.6742195,0.5500778,-0.14823277,0.21656677,0.10934568,-0.04112926,-0.6478391,-0.34471947,-0.1603486,801.02563,794.9817,799.41394,796.5934,822.7839,-0.243408203125,0.03204345703125,0.9798583984375,2.70660400390625,-3.895416259765625,-2.3028564453125,1,1.0,1.0,1.0,1.0,10.00
2024-10-11 20:27:29.812,0.36686027,-0.22085866,-0.020288084,0.467675,0.16850545,-0.31200913,-0.18676144,0.38920078,0.676025,-0.076121494,-0.061482646,0.6742195,0.5500778,-0.14823277,0.21656677,0.10934568,-0.04112926,-0.6478391,-0.34471947,-0.1603486,795.78754,799.011,794.9817,788.93774,655.56775,-0.243408203125,0.03204345703125,0.9798583984375,2.70660400390625,-3.895416259765625,-2.3028564453125,1,1.0,1.0,1.0,1.0,10.00
2024-10-11 20:27:29.812,0.36686027,-0.22085866,-0.020288084,0.467675,0.16850545,-0.31200913,-0.18676144,0.38920078,0.676025,-0.076121494,-0.061482646,0.6742195,0.5500778,-0.14823277,0.21656677,0.10934568,-0.04112926,-0.6478391,-0.34471947,-0.1603486,788.93774,795.78754,795.78754,787.326,740.18317,-0.243408203125,0.03204345703125,0.9798583984375,2.70660400390625,-3.895416259765625,-2.3028564453125,1,1.0,1.0,1.0,1.0,10.00
2024-10-11 20:27:29.813,0.36686027,-0.22085866,-0.020288084,0.467675,0.16850545,-0.31200913,-0.18676144,0.38920078,0.676025,-0.076121494,-0.061482646,0.6742195,0.5500778,-0.14823277,0.21656677,0.10934568,-0.04112926,-0.6478391,-0.34471947,-0.1603486,792.96704,793.36993,795.38464,793.36993,1038.3517,-0.243408203125,0.03204345703125,0.9798583984375,2.70660400390625,-3.895416259765625,-2.3028564453125,1,1.0,1.0,1.0,1.0,10.00
2024-10-11 20:27:29.813,0.36686027,-0.22085866,-0.020288084,0.467675,0.16850545,-0.31200913,-0.18676144,0.38920078,0.676025,-0.076121494,-0.061482646,0.6742195,0.5500778,-0.14823277,0.21656677,0.10934568,-0.04112926,-0.6478391,-0.34471947,-0.1603486,801.4286,794.9817,792.1612,794.9817,853.8095,-0.243408203125,0.03204345703125,0.9798583984375,2.70660400390625,-3.895416259765625,-2.3028564453125,1,1.0,1.0,1.0,1.0,10.00
2024-10-11 20:27:29.814,0.36686027,-0.22085866,-0.020288084,0.467675,0.16850545,-0.31200913,-0.18676144,0.38920078,0.676025,-0.076121494,-0.061482646,0.6742195,0.5500778,-0.14823277,0.21656677,0.10934568,-0.04112926,-0.6478391,-0.34471947,-0.1603486,800.2198,797.3993,801.02563,801.4286,585.05493,-0.243408203125,0.03204345703125,0.9798583984375,2.70660400390625,-3.895416259765625,-2.3028564453125,1,1.0,1.0,1.0,1.0,10.00
2024-10-11 20:27:29.814,0.36686027,-0.22085866,-0.020288084,0.467675,0.16850545,-0.31200913,-0.18676144,0.38920078,0.676025,-0.076121494,-0.061482646,0.6742195,0.5500778,-0.14823277,0.21656677,0.10934568,-0.04112926,-0.6478391,-0.34471947,-0.1603486,791.3553,797.8022,802.23444,802.23444,638.6447,-0.243408203125,0.03204345703125,0.9798583984375,2.70660400390625,-3.895416259765625,-2.3028564453125,1,1.0,1.0,1.0,1.0,10.00
2024-10-11 20:27:29.815,0.36686027,-0.22085866,-0.020288084,0.467675,0.16850545,-0.31200913,-0.18676144,0.38920078,0.676025,-0.076121494,-0.061482646,0.6742195,0.5500778,-0.14823277,0.21656677,0.10934568,-0.04112926,-0.6478391,-0.34471947,-0.1603486,789.34064,792.5641,800.6227,798.60803,788.1319,-0.243408203125,0.03204345703125,0.9798583984375,2.70660400390625,-3.895416259765625,-2.3028564453125,1,1.0,1.0,1.0,1.0,10.00
2024-10-11 20:27:29.816,0.36686027,-0.22085866,-0.020288084,0.467675,0.16850545,-0.31200913,-0.18676144,0.38920078,0.676025,-0.076121494,-0.061482646,0.6742195,0.5500778,-0.14823277,0.21656677,0.10934568,-0.04112926,-0.6478391,-0.34471947,-0.1603486,792.5641,793.7729,804.65204,800.6227,670.07324,-0.243408203125,0.03204345703125,0.9798583984375,2.70660400390625,-3.895416259765625,-2.3028564453125,1,1.0,1.0,1.0,1.0,10.00
2024-10-11 20:27:29.899,0.36686027,-0.22085866,-0.020288084,0.467675,0.16850545,-0.31200913,-0.18676144,0.38920078,0.676025,-0.076121494,-0.061482646,0.6742195,0.5500778,-0.14823277,0.21656677,0.10934568,-0.04112926,-0.6478391,-0.34471947,-0.1603486,794.17584,799.011,805.05493,797.3993,537.9121,-0.239990234375,0.03912353515625,0.97943115234375,4.59075927734375,-5.15899658203125,-1.68975830078125,1,1.0,1.0,1.0,1.0,10.00
2024-10-11 20:27:29.900,0.36686027,-0.22085866,-0.020288084,0.467675,0.16850545,-0.31200913,-0.18676144,0.38920078,0.676025,-0.076121494,-0.061482646,0.6742195,0.5500778,-0.14823277,0.21656677,0.10934568,-0.04112926,-0.6478391,-0.34471947,-0.1603486,794.57874,799.81683,800.6227,799.41394,618.9011,-0.239990234375,0.03912353515625,0.97943115234375,4.59075927734375,-5.15899658203125,-1.68975830078125,1,1.0,1.0,1.0,1.0,10.00
2024-10-11 20:27:29.901,0.36686027,-0.22085866,-0.020288084,0.467675,0.16850545,-0.31200913,-0.18676144,0.38920078,0.676025,-0.076121494,-0.061482646,0.6742195,0.5500778,-0.14823277,0.21656677,0.10934568,-0.04112926,-0.6478391,-0.34471947,-0.1603486,795.78754,795.78754,800.2198,799.011,772.4176,-0.239990234375,0.03912353515625,0.97943115234375,4.59075927734375,-5.15899658203125,-1.68975830078125,1,1.0,1.0,1.0,1.0,10.00
2024-10-11 20:27:29.901,0.36686027,-0.22085866,-0.020288084,0.467675,0.16850545,-0.31200913,-0.18676144,0.38920078,0.676025,-0.076121494,-0.061482646,0.6742195,0.5500778,-0.14823277,0.21656677,0.10934568,-0.04112926,-0.6478391,-0.34471947,-0.1603486,796.5934,798.20514,796.1905,794.17584,703.5165,-0.239990234375,0.03912353515625,0.97943115234375,4.59075927734375,-5.15899658203125,-1.68975830078125,1,1.0,1.0,1.0,1.0,10.00
2024-10-11 20:27:29.902,0.36686027,-0.22085866,-0.020288084,0.467675,0.16850545,-0.31200913,-0.18676144,0.38920078,0.676025,-0.076121494,-0.061482646,0.6742195,0.5500778,-0.14823277,0.21656677,0.10934568,-0.04112926,-0.6478391,-0.34471947,-0.1603486,792.96704,802.6374,796.5934,793.36993,640.65936,-0.239990234375,0.03912353515625,0.97943115234375,4.59075927734375,-5.15899658203125,-1.68975830078125,1,1.0,1.0,1.0,1.0,10.00
2024-10-11 20:27:29.902,0.36686027,-0.22085866,-0.020288084,0.467675,0.16850545,-0.31200913,-0.18676144,0.38920078,0.676025,-0.076121494,-0.061482646,0.6742195,0.5500778,-0.14823277,0.21656677,0.10934568,-0.04112926,-0.6478391,-0.34471947,-0.1603486,792.5641,796.99634,798.20514,790.14655,867.9121,-0.239990234375,0.03912353515625,0.97943115234375,4.59075927734375,-5.15899658203125,-1.68975830078125,1,1.0,1.0,1.0,1.0,10.00
2024-10-11 20:27:29.903,0.36686027,-0.22085866,-0.020288084,0.467675,0.16850545,-0.31200913,-0.18676144,0.38920078,0.676025,-0.076121494,-0.061482646,0.6742195,0.5500778,-0.14823277,0.21656677,0.10934568,-0.04112926,-0.6478391,-0.34471947,-0.1603486,797.3993,786.52014,791.3553,795.38464,1240.6227,-0.239990234375,0.03912353515625,0.97943115234375,4.59075927734375,-5.15899658203125,-1.68975830078125,1,1.0,1.0,1.0,1.0,10.00
2024-10-11 20:27:29.903,0.36686027,-0.22085866,-0.020288084,0.467675,0.16850545,-0.31200913,-0.18676144,0.38920078,0.676025,-0.076121494,-0.061482646,0.6742195,0.5500778,-0.14823277,0.21656677,0.10934568,-0.04112926,-0.6478391,-0.34471947,-0.1603486,796.5934,790.54944,796.99634,802.23444,1346.1904,-0.239990234375,0.03912353515625,0.97943115234375,4.59075927734375,-5.15899658203125,-1.68975830078125,1,1.0,1.0,1.0,1.0,10.00
2024-10-11 20:27:29.904,0.36686027,-0.22085866,-0.020288084,0.467675,0.16850545,-0.31200913,-0.18676144,0.38920078,0.676025,-0.076121494,-0.061482646,0.6742195,0.5500778,-0.14823277,0.21656677,0.10934568,-0.04112926,-0.6478391,-0.34471947,-0.1603486,794.57874,800.2198,804.65204,801.02563,1135.8608,-0.239990234375,0.03912353515625,0.97943115234375,4.59075927734375,-5.15899658203125,-1.68975830078125,1,1.0,1.0,1.0,1.0,10.00
2024-10-11 20:27:29.904,0.36686027,-0.22085866,-0.020288084,0.467675,0.16850545,-0.31200913,-0.18676144,0.38920078,0.676025,-0.076121494,-0.061482646,0.6742195,0.5500778,-0.14823277,0.21656677,0.10934568,-0.04112926,-0.6478391,-0.34471947,-0.1603486,796.5934,802.6374,805.05493,798.20514,772.8205,-0.239990234375,0.03912353515625,0.97943115234375,4.59075927734375,-5.15899658203125,-1.68975830078125,1,1.0,1.0,1.0,1.0,10.00
2024-10-11 20:27:29.905,0.36686027,-0.22085866,-0.020288084,0.467675,0.16850545,-0.31200913,-0.18676144,0.38920078,0.676025,-0.076121494,-0.061482646,0.6742195,0.5500778,-0.14823277,0.21656677,0.10934568,-0.04112926,-0.6478391,-0.34471947,-0.1603486,800.2198,802.6374,803.0403,797.3993,622.52747,-0.239990234375,0.03912353515625,0.97943115234375,4.59075927734375,-5.15899658203125,-1.68975830078125,1,1.0,1.0,1.0,1.0,10.00
2024-10-11 20:27:29.905,0.36686027,-0.22085866,-0.020288084,0.467675,0.16850545,-0.31200913,-0.18676144,0.38920078,0.676025,-0.076121494,-0.061482646,0.6742195,0.5500778,-0.14823277,0.21656677,0.10934568,-0.04112926,-0.6478391,-0.34471947,-0.1603486,796.1905,803.0403,801.4286,793.36993,530.65936,-0.239990234375,0.03912353515625,0.97943115234375,4.59075927734375,-5.15899658203125,-1.68975830078125,1,1.0,1.0,1.0,1.0,10.00
2024-10-11 20:27:29.940,0.36686027,-0.22085866,-0.020288084,0.467675,0.16850545,-0.31200913,-0.18676144,0.38920078,0.676025,-0.076121494,-0.061482646,0.6742195,0.5500778,-0.14823277,0.21656677,0.10934568,-0.04112926,-0.6478391,-0.34471947,-0.1603486,793.36993,807.8755,799.41394,795.38464,528.6447,-0.22314453125,0.044921875,0.96868896484375,5.555267333984375,-6.826324462890625,-0.979461669921875,1,1.0,1.0,1.0,1.0,10.00
2024-10-11 20:27:29.941,0.36686027,-0.22085866,-0.020288084,0.467675,0.16850545,-0.31200913,-0.18676144,0.38920078,0.676025,-0.076121494,-0.061482646,0.6742195,0.5500778,-0.14823277,0.21656677,0.10934568,-0.04112926,-0.6478391,-0.34471947,-0.1603486,798.60803,807.0696,803.0403,799.41394,674.90845,-0.22314453125,0.044921875,0.96868896484375,5.555267333984375,-6.826324462890625,-0.979461669921875,1,1.0,1.0,1.0,1.0,10.00
2024-10-11 20:27:29.942,0.36686027,-0.22085866,-0.020288084,0.467675,0.16850545,-0.31200913,-0.18676144,0.38920078,0.676025,-0.076121494,-0.061482646,0.6742195,0.5500778,-0.14823277,0.21656677,0.10934568,-0.04112926,-0.6478391,-0.34471947,-0.1603486,802.23444,809.0842,811.0989,802.6374,699.89014,-0.22314453125,0.044921875,0.96868896484375,5.555267333984375,-6.826324462890625,-0.979461669921875,1,1.0,1.0,1.0,1.0,10.00
2024-10-11 20:27:29.942,0.32476434,-0.25155234,-0.035681523,0.47044456,0.13247587,-0.30912843,-0.20012443,0.40138668,0.68365854,-0.076121494,-0.088370085,0.6742195,0.5178245,-0.14962235,0.21851231,0.123374246,-0.02782628,-0.6650056,-0.35276502,-0.157142,797.3993,815.12823,803.44324,790.9524,543.95605,-0.22314453125,0.044921875,0.96868896484375,5.555267333984375,-6.826324462890625,-0.979461669921875,1,1.0,1.0,1.0,1.0,10.00
2024-10-11 20:27:29.948,0.32476434,-0.25155234,-0.035681523,0.47044456,0.13247587,-0.30912843,-0.20012443,0.40138668,0.68365854,-0.076121494,-0.088370085,0.6742195,0.5178245,-0.14962235,0.21851231,0.123374246,-0.02782628,-0.6650056,-0.35276502,-0.157142,803.0403,808.2784,788.5348,794.17584,649.92676,-0.22314453125,0.044921875,0.96868896484375,5.555267333984375,-6.826324462890625,-0.979461669921875,1,1.0,1.0,1.0,1.0,10.00
2024-10-11 20:27:29.949,0.32476434,-0.25155234,-0.035681523,0.47044456,0.13247587,-0.30912843,-0.20012443,0.40138668,0.68365854,-0.076121494,-0.088370085,0.6742195,0.5178245,-0.14962235,0.21851231,0.123374246,-0.02782628,-0.6650056,-0.35276502,-0.157142,817.5458,795.38464,807.47253,824.3956,924.7253,-0.22314453125,0.044921875,0.96868896484375,5.555267333984375,-6.826324462890625,-0.979461669921875,1,1.0,1.0,1.0,1.0,10.00
2024-10-11 20:27:29.950,0.32476434,-0.25155234,-0.035681523,0.47044456,0.13247587,-0.30912843,-0.20012443,0.40138668,0.68365854,-0.076121494,-0.088370085,0.6742195,0.5178245,-0.14962235,0.21851231,0.123374246,-0.02782628,-0.6650056,-0.35276502,-0.157142,792.96704,803.44324,822.381,806.6667,870.7326,-0.22314453125,0.044921875,0.96868896484375,5.555267333984375,-6.826324462890625,-0.979461669921875,1,1.0,1.0,1.0,1.0,10.00
2024-10-11 20:27:29.951,0.32476434,-0.25155234,-0.035681523,0.47044456,0.13247587,-0.30912843,-0.20012443,0.40138668,0.68365854,-0.076121494,-0.088370085,0.6742195,0.5178245,-0.14962235,0.21851231,0.123374246,-0.02782628,-0.6650056,-0.35276502,-0.157142,765.16486,819.9634,822.7839,776.8498,603.1868,-0.22314453125,0.044921875,0.96868896484375,5.555267333984375,-6.826324462890625,-0.979461669921875,1,1.0,1.0,1.0,1.0,10.00
2024-10-11 20:27:29.951,0.32476434,-0.25155234,-0.035681523,0.47044456,0.13247587,-0.30912843,-0.20012443,0.40138668,0.68365854,-0.076121494,-0.088370085,0.6742195,0.5178245,-0.14962235,0.21851231,0.123374246,-0.02782628,-0.6650056,-0.35276502,-0.157142,753.0769,823.9927,820.3663,766.77655,571.75824,-0.22314453125,0.044921875,0.96868896484375,5.555267333984375,-6.826324462890625,-0.979461669921875,1,1.0,1.0,1.0,1.0,10.00
2024-10-11 20:27:29.952,0.32476434,-0.25155234,-0.035681523,0.47044456,0.13247587,-0.30912843,-0.20012443,0.40138668,0.68365854,-0.076121494,-0.088370085,0.6742195,0.5178245,-0.14962235,0.21851231,0.123374246,-0.02782628,-0.6650056,-0.35276502,-0.157142,739.7802,825.2015,816.337,763.5531,840.10986,-0.22314453125,0.044921875,0.96868896484375,5.555267333984375,-6.826324462890625,-0.979461669921875,1,1.0,1.0,1.0,1.0,10.00
2024-10-11 20:27:29.953,0.32476434,-0.25155234,-0.035681523,0.47044456,0.13247587,-0.30912843,-0.20012443,0.40138668,0.68365854,-0.076121494,-0.088370085,0.6742195,0.5178245,-0.14962235,0.21851231,0.123374246,-0.02782628,-0.6650056,-0.35276502,-0.157142,727.28937,825.2015,825.2015,751.4652,857.03296,-0.22314453125,0.044921875,0.96868896484375,5.555267333984375,-6.826324462890625,-0.979461669921875,1,1.0,1.0,1.0,1.0,10.00
2024-10-11 20:27:29.953,0.32476434,-0.25155234,-0.035681523,0.47044456,0.13247587,-0.30912843,-0.20012443,0.40138668,0.68365854,-0.076121494,-0.088370085,0.6742195,0.5178245,-0.14962235,0.21851231,0.123374246,-0.02782628,-0.6650056,-0.35276502,-0.157142,699.4872,830.4396,827.2161,725.2747,668.0586,-0.22314453125,0.044921875,0.96868896484375,5.555267333984375,-6.826324462890625,-0.979461669921875,1,1.0,1.0,1.0,1.0,10.00
2024-10-11 20:27:29.954,0.32476434,-0.25155234,-0.035681523,0.47044456,0.13247587,-0.30912843,-0.20012443,0.40138668,0.68365854,-0.076121494,-0.088370085,0.6742195,0.5178245,-0.14962235,0.21851231,0.123374246,-0.02782628,-0.6650056,-0.35276502,-0.157142,686.1905,834.4689,832.0513,718.8278,599.5604,-0.21917724609375,0.05328369140625,0.97454833984375,6.243133544921875,-6.2506103515625,2.265472412109375,1,1.0,1.0,1.0,1.0,10.00
2024-10-11 20:27:29.955,0.32476434,-0.25155234,-0.035681523,0.47044456,0.13247587,-0.30912843,-0.20012443,0.40138668,0.68365854,-0.076121494,-0.088370085,0.6742195,0.5178245,-0.14962235,0.21851231,0.123374246,-0.02782628,-0.6650056,-0.35276502,-0.157142,685.78754,838.9011,838.9011,711.5751,745.82416,-0.21917724609375,0.05328369140625,0.97454833984375,6.243133544921875,-6.2506103515625,2.265472412109375,1,1.0,1.0,1.0,1.0,10.00
2024-10-11 20:27:29.956,0.32476434,-0.25155234,-0.035681523,0.47044456,0.13247587,-0.30912843,-0.20012443,0.40138668,0.68365854,-0.076121494,-0.088370085,0.6742195,0.5178245,-0.14962235,0.21851231,0.123374246,-0.02782628,-0.6650056,-0.35276502,-0.157142,674.10254,836.08057,836.4835,689.011,703.91943,-0.21917724609375,0.05328369140625,0.97454833984375,6.243133544921875,-6.2506103515625,2.265472412109375,1,1.0,1.0,1.0,1.0,10.00
2024-10-11 20:27:29.956,0.32476434,-0.25155234,-0.035681523,0.47044456,0.13247587,-0.30912843,-0.20012443,0.40138668,0.68365854,-0.076121494,-0.088370085,0.6742195,0.5178245,-0.14962235,0.21851231,0.123374246,-0.02782628,-0.6650056,-0.35276502,-0.157142,677.72894,827.2161,841.31866,684.17584,610.84247,-0.21917724609375,0.05328369140625,0.97454833984375,6.243133544921875,-6.2506103515625,2.265472412109375,1,1.0,1.0,1.0,1.0,10.00
2024-10-11 20:27:29.957,0.32476434,-0.25155234,-0.035681523,0.47044456,0.13247587,-0.30912843,-0.20012443,0.40138668,0.68365854,-0.076121494,-0.088370085,0.6742195,0.5178245,-0.14962235,0.21851231,0.123374246,-0.02782628,-0.6650056,-0.35276502,-0.157142,662.01465,830.84247,851.39197,689.011,709.15753,-0.21917724609375,0.05328369140625,0.97454833984375,6.243133544921875,-6.2506103515625,2.265472412109375,1,1.0,1.0,1.0,1.0,10.00
2024-10-11 20:27:29.958,0.32476434,-0.25155234,-0.035681523,0.47044456,0.13247587,-0.30912843,-0.20012443,0.40138668,0.68365854,-0.076121494,-0.088370085,0.6742195,0.5178245,-0.14962235,0.21851231,0.123374246,-0.02782628,-0.6650056,-0.35276502,-0.157142,643.8828,828.8278,854.61536,689.81683,962.1978,-0.21917724609375,0.05328369140625,0.97454833984375,6.243133544921875,-6.2506103515625,2.265472412109375,1,1.0,1.0,1.0,1.0,10.00
2024-10-11 20:27:29.959,0.32476434,-0.25155234,-0.035681523,0.47044456,0.13247587,-0.30912843,-0.20012443,0.40138668,0.68365854,-0.076121494,-0.088370085,0.6742195,0.5178245,-0.14962235,0.21851231,0.123374246,-0.02782628,-0.6650056,-0.35276502,-0.157142,650.7326,823.9927,853.8095,695.8608,920.696,-0.21917724609375,0.05328369140625,0.97454833984375,6.243133544921875,-6.2506103515625,2.265472412109375,1,1.0,1.0,1.0,1.0,10.00
2024-10-11 20:27:29.959,0.32476434,-0.25155234,-0.035681523,0.47044456,0.13247587,-0.30912843,-0.20012443,0.40138668,0.68365854,-0.076121494,-0.088370085,0.6742195,0.5178245,-0.14962235,0.21851231,0.123374246,-0.02782628,-0.6650056,-0.35276502,-0.157142,651.9414,825.2015,856.2271,692.6374,705.12823,-0.21917724609375,0.05328369140625,0.97454833984375,6.243133544921875,-6.2506103515625,2.265472412109375,1,1.0,1.0,1.0,1.0,10.00
2024-10-11 20:27:29.960,0.32476434,-0.25155234,-0.035681523,0.47044456,0.13247587,-0.30912843,-0.20012443,0.40138668,0.68365854,-0.076121494,-0.088370085,0.6742195,0.5178245,-0.14962235,0.21851231,0.123374246,-0.02782628,-0.6650056,-0.35276502,-0.157142,651.9414,817.5458,867.50916,688.60803,732.1245,-0.21917724609375,0.05328369140625,0.97454833984375,6.243133544921875,-6.2506103515625,2.265472412109375,1,1.0,1.0,1.0,1.0,10.00
2024-10-11 20:27:29.961,0.32476434,-0.25155234,-0.035681523,0.47044456,0.13247587,-0.30912843,-0.20012443,0.40138668,0.68365854,-0.076121494,-0.088370085,0.6742195,0.5178245,-0.14962235,0.21851231,0.123374246,-0.02782628,-0.6650056,-0.35276502,-0.157142,658.7912,811.50183,871.9414,694.65204,948.0952,-0.21917724609375,0.05328369140625,0.97454833984375,6.243133544921875,-6.2506103515625,2.265472412109375,1,1.0,1.0,1.0,1.0,10.00
2024-10-11 20:27:29.962,0.32476434,-0.25155234,-0.035681523,0.47044456,0.13247587,-0.30912843,-0.20012443,0.40138668,0.68365854,-0.076121494,-0.088370085,0.6742195,0.5178245,-0.14962235,0.21851231,0.123374246,-0.02782628,-0.6650056,-0.35276502,-0.157142,657.98535,807.8755,871.13556,690.2198,770.40295,-0.21917724609375,0.05328369140625,0.97454833984375,6.243133544921875,-6.2506103515625,2.265472412109375,1,1.0,1.0,1.0,1.0,10.00
2024-10-11 20:27:29.962,0.32476434,-0.25155234,-0.035681523,0.47044456,0.13247587,-0.30912843,-0.20012443,0.40138668,0.68365854,-0.076121494,-0.088370085,0.6742195,0.5178245,-0.14962235,0.21851231,0.123374246,-0.02782628,-0.6650056,-0.35276502,-0.157142,656.77655,805.05493,875.9707,693.44324,684.9817,-0.21917724609375,0.05328369140625,0.97454833984375,6.243133544921875,-6.2506103515625,2.265472412109375,1,1.0,1.0,1.0,1.0,10.00
2024-10-11 20:27:30.056,0.32476434,-0.25155234,-0.035681523,0.47044456,0.13247587,-0.30912843,-0.20012443,0.40138668,0.68365854,-0.076121494,-0.088370085,0.6742195,0.5178245,-0.14962235,0.21851231,0.123374246,-0.02782628,-0.6650056,-0.35276502,-0.157142,657.98535,805.4579,882.8205,699.89014,856.2271,-0.232666015625,0.06536865234375,0.98748779296875,7.768402099609375,-5.674896240234375,4.26177978515625,1,1.0,1.0,1.0,1.0,10.00
2024-10-11 20:27:30.057,0.32476434,-0.25155234,-0.035681523,0.47044456,0.13247587,-0.30912843,-0.20012443,0.40138668,0.68365854,-0.076121494,-0.088370085,0.6742195,0.5178245,-0.14962235,0.21851231,0.123374246,-0.02782628,-0.6650056,-0.35276502,-0.157142,655.9707,795.78754,885.2381,702.71063,1016.99634,-0.232666015625,0.06536865234375,0.98748779296875,7.768402099609375,-5.674896240234375,4.26177978515625,1,1.0,1.0,1.0,1.0,10.00
2024-10-11 20:27:30.058,0.32476434,-0.25155234,-0.035681523,0.47044456,0.13247587,-0.30912843,-0.20012443,0.40138668,0.68365854,-0.076121494,-0.088370085,0.6742195,0.5178245,-0.14962235,0.21851231,0.123374246,-0.02782628,-0.6650056,-0.35276502,-0.157142,663.22345,788.5348,877.98535,708.7546,900.9524,-0.232666015625,0.06536865234375,0.98748779296875,7.768402099609375,-5.674896240234375,4.26177978515625,1,1.0,1.0,1.0,1.0,10.00
2024-10-11 20:27:30.058,0.32476434,-0.25155234,-0.035681523,0.47044456,0.13247587,-0.30912843,-0.20012443,0.40138668,0.68365854,-0.076121494,-0.088370085,0.6742195,0.5178245,-0.14962235,0.21851231,0.123374246,-0.02782628,-0.6650056,-0.35276502,-0.157142,671.28204,784.90845,872.3443,715.2015,744.61536,-0.232666015625,0.06536865234375,0.98748779296875,7.768402099609375,-5.674896240234375,4.26177978515625,1,1.0,1.0,1.0,1.0,10.00
2024-10-11 20:27:30.059,0.32476434,-0.25155234,-0.035681523,0.47044456,0.13247587,-0.30912843,-0.20012443,0.40138668,0.68365854,-0.076121494,-0.088370085,0.6742195,0.5178245,-0.14962235,0.21851231,0.123374246,-0.02782628,-0.6650056,-0.35276502,-0.157142,689.011,779.67035,877.5824,730.5128,897.326,-0.232666015625,0.06536865234375,0.98748779296875,7.768402099609375,-5.674896240234375,4.26177978515625,1,1.0,1.0,1.0,1.0,10.00
2024-10-11 20:27:30.059,0.28603917,-0.25412807,0.009629267,0.47044456,0.10577706,-0.30168784,-0.19752006,0.40138668,0.68365854,-0.076121494,-0.095595494,0.6742195,0.49095434,-0.15137117,0.22447169,0.123374246,-0.027265696,-0.6822762,-0.36439288,-0.157142,702.71063,781.685,880.0,741.39197,964.21246,-0.232666015625,0.06536865234375,0.98748779296875,7.768402099609375,-5.674896240234375,4.26177978515625,1,1.0,1.0,1.0,1.0,10.00
2024-10-11 20:27:30.064,0.28603917,-0.25412807,0.009629267,0.47044456,0.10577706,-0.30168784,-0.19752006,0.40138668,0.68365854,-0.076121494,-0.095595494,0.6742195,0.49095434,-0.15137117,0.22447169,0.123374246,-0.027265696,-0.6822762,-0.36439288,-0.157142,701.9048,780.07324,872.3443,741.39197,713.1868,-0.232666015625,0.06536865234375,0.98748779296875,7.768402099609375,-5.674896240234375,4.26177978515625,1,1.0,1.0,1.0,1.0,10.00
2024-10-11 20:27:30.065,0.28603917,-0.25412807,0.009629267,0.47044456,0.10577706,-0.30168784,-0.19752006,0.40138668,0.68365854,-0.076121494,-0.095595494,0.6742195,0.49095434,-0.15137117,0.22447169,0.123374246,-0.027265696,-0.6822762,-0.36439288,-0.157142,717.619,772.8205,866.30035,756.7033,735.34796,-0.232666015625,0.06536865234375,0.98748779296875,7.768402099609375,-5.674896240234375,4.26177978515625,1,1.0,1.0,1.0,1.0,10.00
2024-10-11 20:27:30.065,0.28603917,-0.25412807,0.009629267,0.47044456,0.10577706,-0.30168784,-0.19752006,0.40138668,0.68365854,-0.076121494,-0.095595494,0.6742195,0.49095434,-0.15137117,0.22447169,0.123374246,-0.027265696,-0.6822762,-0.36439288,-0.157142,728.49817,764.7619,863.47986,767.1795,967.4359,-0.232666015625,0.06536865234375,0.98748779296875,7.768402099609375,-5.674896240234375,4.26177978515625,1,1.0,1.0,1.0,1.0,10.00
2024-10-11 20:27:30.066,0.28603917,-0.25412807,0.009629267,0.47044456,0.10577706,-0.30168784,-0.19752006,0.40138668,0.68365854,-0.076121494,-0.095595494,0.6742195,0.49095434,-0.15137117,0.22447169,0.123374246,-0.027265696,-0.6822762,-0.36439288,-0.157142,736.1539,761.9414,856.63007,774.83514,882.8205,-0.232666015625,0.06536865234375,0.98748779296875,7.768402099609375,-5.674896240234375,4.26177978515625,1,1.0,1.0,1.0,1.0,10.00
2024-10-11 20:27:30.066,0.28603917,-0.25412807,0.009629267,0.47044456,0.10577706,-0.30168784,-0.19752006,0.40138668,0.68365854,-0.076121494,-0.095595494,0.6742195,0.49095434,-0.15137117,0.22447169,0.123374246,-0.027265696,-0.6822762,-0.36439288,-0.157142,753.47986,764.35895,852.1978,792.1612,684.9817,-0.232666015625,0.06536865234375,0.98748779296875,7.768402099609375,-5.674896240234375,4.26177978515625,1,1.0,1.0,1.0,1.0,10.00
2024-10-11 20:27:30.067,0.28603917,-0.25412807,0.009629267,0.47044456,0.10577706,-0.30168784,-0.19752006,0.40138668,0.68365854,-0.076121494,-0.095595494,0.6742195,0.49095434,-0.15137117,0.22447169,0.123374246,-0.027265696,-0.6822762,-0.36439288,-0.157142,764.35895,765.9707,844.1392,803.0403,755.09155,-0.232666015625,0.06536865234375,0.98748779296875,7.768402099609375,-5.674896240234375,4.26177978515625,1,1.0,1.0,1.0,1.0,10.00
2024-10-11 20:27:30.068,0.28603917,-0.25412807,0.009629267,0.47044456,0.10577706,-0.30168784,-0.19752006,0.40138668,0.68365854,-0.076121494,-0.095595494,0.6742195,0.49095434,-0.15137117,0.22447169,0.123374246,-0.027265696,-0.6822762,-0.36439288,-0.157142,769.59705,765.56775,832.4542,801.02563,755.09155,-0.232666015625,0.06536865234375,0.98748779296875,7.768402099609375,-5.674896240234375,4.26177978515625,1,1.0,1.0,1.0,1.0,10.00
2024-10-11 20:27:30.068,0.28603917,-0.25412807,0.009629267,0.47044456,0.10577706,-0.30168784,-0.19752006,0.40138668,0.68365854,-0.076121494,-0.095595494,0.6742195,0.49095434,-0.15137117,0.22447169,0.123374246,-0.027265696,-0.6822762,-0.36439288,-0.157142,774.83514,763.1502,836.8865,802.6374,673.69965,-0.232666015625,0.06536865234375,0.98748779296875,7.768402099609375,-5.674896240234375,4.26177978515625,1,1.0,1.0,1.0,1.0,10.00
2024-10-11 20:27:30.069,0.28603917,-0.25412807,0.009629267,0.47044456,0.10577706,-0.30168784,-0.19752006,0.40138668,0.68365854,-0.076121494,-0.095595494,0.6742195,0.49095434,-0.15137117,0.22447169,0.123374246,-0.027265696,-0.6822762,-0.36439288,-0.157142,780.87915,762.3443,830.0366,801.4286,583.8461,-0.232666015625,0.06536865234375,0.98748779296875,7.768402099609375,-5.674896240234375,4.26177978515625,1,1.0,1.0,1.0,1.0,10.00
2024-10-11 20:27:30.069,0.28603917,-0.25412807,0.009629267,0.47044456,0.10577706,-0.30168784,-0.19752006,0.40138668,0.68365854,-0.076121494,-0.095595494,0.6742195,0.49095434,-0.15137117,0.22447169,0.123374246,-0.027265696,-0.6822762,-0.36439288,-0.157142,799.011,763.5531,824.7985,810.696,670.07324,-0.232666015625,0.06536865234375,0.98748779296875,7.768402099609375,-5.674896240234375,4.26177978515625,1,1.0,1.0,1.0,1.0,10.00
2024-10-11 20:27:30.070,0.28603917,-0.25412807,0.009629267,0.47044456,0.10577706,-0.30168784,-0.19752006,0.40138668,0.68365854,-0.076121494,-0.095595494,0.6742195,0.49095434,-0.15137117,0.22447169,0.123374246,-0.027265696,-0.6822762,-0.36439288,-0.157142,808.68134,767.1795,825.2015,826.0073,826.4103,-0.232666015625,0.06536865234375,0.98748779296875,7.768402099609375,-5.674896240234375,4.26177978515625,1,1.0,1.0,1.0,1.0,10.00
2024-10-11 20:27:30.070,0.28603917,-0.25412807,0.009629267,0.47044456,0.10577706,-0.30168784,-0.19752006,0.40138668,0.68365854,-0.076121494,-0.095595494,0.6742195,0.49095434,-0.15137117,0.22447169,0.123374246,-0.027265696,-0.6822762,-0.36439288,-0.157142,809.89014,765.16486,821.978,830.0366,857.4359,-0.232666015625,0.06536865234375,0.98748779296875,7.768402099609375,-5.674896240234375,4.26177978515625,1,1.0,1.0,1.0,1.0,10.00
2024-10-11 20:27:30.071,0.28603917,-0.25412807,0.009629267,0.47044456,0.10577706,-0.30168784,-0.19752006,0.40138668,0.68365854,-0.076121494,-0.095595494,0.6742195,0.49095434,-0.15137117,0.22447169,0.123374246,-0.027265696,-0.6822762,-0.36439288,-0.157142,812.3077,766.77655,819.9634,831.2454,938.4249,-0.232666015625,0.06536865234375,0.98748779296875,7.768402099609375,-5.674896240234375,4.26177978515625,1,1.0,1.0,1.0,1.0,10.00
2024-10-11 20:27:30.071,0.28603917,-0.25412807,0.009629267,0.47044456,0.10577706,-0.30168784,-0.19752006,0.40138668,0.68365854,-0.076121494,-0.095595494,0.6742195,0.49095434,-0.15137117,0.22447169,0.123374246,-0.027265696,-0.6822762,-0.36439288,-0.157142,819.15753,769.59705,816.7399,835.2747,984.35895,-0.232666015625,0.06536865234375,0.98748779296875,7.768402099609375,-5.674896240234375,4.26177978515625,1,1.0,1.0,1.0,1.0,10.00
2024-10-11 20:27:30.072,0.28603917,-0.25412807,0.009629267,0.47044456,0.10577706,-0.30168784,-0.19752006,0.40138668,0.68365854,-0.076121494,-0.095595494,0.6742195,0.49095434,-0.15137117,0.22447169,0.123374246,-0.027265696,-0.6822762,-0.36439288,-0.157142,825.2015,766.77655,814.7253,838.9011,952.9304,-0.232666015625,0.06536865234375,0.98748779296875,7.768402099609375,-5.674896240234375,4.26177978515625,1,1.0,1.0,1.0,1.0,10.00
2024-10-11 20:27:30.073,0.28603917,-0.25412807,0.009629267,0.47044456,0.10577706,-0.30168784,-0.19752006,0.40138668,0.68365854,-0.076121494,-0.095595494,0.6742195,0.49095434,-0.15137117,0.22447169,0.123374246,-0.027265696,-0.6822762,-0.36439288,-0.157142,830.4396,770.0,804.2491,836.8865,790.14655,-0.232666015625,0.06536865234375,0.98748779296875,7.768402099609375,-5.674896240234375,4.26177978515625,1,1.0,1.0,1.0,1.0,10.00
2024-10-11 20:27:30.073,0.28603917,-0.25412807,0.009629267,0.47044456,0.10577706,-0.30168784,-0.19752006,0.40138668,0.68365854,-0.076121494,-0.095595494,0.6742195,0.49095434,-0.15137117,0.22447169,0.123374246,-0.027265696,-0.6822762,-0.36439288,-0.157142,832.0513,768.7912,799.41394,831.6484,724.4689,-0.232666015625,0.06536865234375,0.98748779296875,7.768402099609375,-5.674896240234375,4.26177978515625,1,1.0,1.0,1.0,1.0,10.00
2024-10-11 20:27:30.074,0.28603917,-0.25412807,0.009629267,0.47044456,0.10577706,-0.30168784,-0.19752006,0.40138668,0.68365854,-0.076121494,-0.095595494,0.6742195,0.49095434,-0.15137117,0.22447169,0.123374246,-0.027265696,-0.6822762,-0.36439288,-0.157142,832.8571,768.3883,811.0989,840.10986,883.22345,-0.232666015625,0.06536865234375,0.98748779296875,7.768402099609375,-5.674896240234375,4.26177978515625,1,1.0,1.0,1.0,1.0,10.00
2024-10-11 20:27:30.075,0.28603917,-0.25412807,0.009629267,0.47044456,0.10577706,-0.30168784,-0.19752006,0.40138668,0.68365854,-0.076121494,-0.095595494,0.6742195,0.49095434,-0.15137117,0.22447169,0.123374246,-0.027265696,-0.6822762,-0.36439288,-0.157142,834.87177,774.83514,807.8755,840.9158,978.315,-0.2198486328125,0.090087890625,0.98638916015625,9.233856201171875,-7.76092529296875,4.0972900390625,1,1.0,1.0,1.0,1.0,10.00
2024-10-11 20:27:30.075,0.28603917,-0.25412807,0.009629267,0.47044456,0.10577706,-0.30168784,-0.19752006,0.40138668,0.68365854,-0.076121494,-0.095595494,0.6742195,0.49095434,-0.15137117,0.22447169,0.123374246,-0.027265696,-0.6822762,-0.36439288,-0.157142,836.4835,779.67035,805.05493,835.2747,780.4762,-0.2198486328125,0.090087890625,0.98638916015625,9.233856201171875,-7.76092529296875,4.0972900390625,1,1.0,1.0,1.0,1.0,10.00
2024-10-11 20:27:30.076,0.28603917,-0.25412807,0.009629267,0.47044456,0.10577706,-0.30168784,-0.19752006,0.40138668,0.68365854,-0.076121494,-0.095595494,0.6742195,0.49095434,-0.15137117,0.22447169,0.123374246,-0.027265696,-0.6822762,-0.36439288,-0.157142,835.2747,780.87915,805.8608,838.49817,714.7985,-0.2198486328125,0.090087890625,0.98638916015625,9.233856201171875,-7.76092529296875,4.0972900390625,1,1.0,1.0,1.0,1.0,10.00
2024-10-11 20:27:30.076,0.28603917,-0.25412807,0.009629267,0.47044456,0.10577706,-0.30168784,-0.19752006,0.40138668,0.68365854,-0.076121494,-0.095595494,0.6742195,0.49095434,-0.15137117,0.22447169,0.123374246,-0.027265696,-0.6822762,-0.36439288,-0.157142,830.0366,779.2674,799.41394,841.31866,985.56775,-0.2198486328125,0.090087890625,0.98638916015625,9.233856201171875,-7.76092529296875,4.0972900390625,1,1.0,1.0,1.0,1.0,10.00
2024-10-11 20:27:30.077,0.28603917,-0.25412807,0.009629267,0.47044456,0.10577706,-0.30168784,-0.19752006,0.40138668,0.68365854,-0.076121494,-0.095595494,0.6742195,0.49095434,-0.15137117,0.22447169,0.123374246,-0.027265696,-0.6822762,-0.36439288,-0.157142,825.2015,776.04395,798.60803,839.707,1040.3663,-0.2198486328125,0.090087890625,0.98638916015625,9.233856201171875,-7.76092529296875,4.0972900390625,1,1.0,1.0,1.0,1.0,10.00
2024-10-11 20:27:30.078,0.28603917,-0.25412807,0.009629267,0.47044456,0.10577706,-0.30168784,-0.19752006,0.40138668,0.68365854,-0.076121494,-0.095595494,0.6742195,0.49095434,-0.15137117,0.22447169,0.123374246,-0.027265696,-0.6822762,-0.36439288,-0.157142,827.619,775.64105,800.6227,837.6923,929.9634,-0.2198486328125,0.090087890625,0.98638916015625,9.233856201171875,-7.76092529296875,4.0972900390625,1,1.0,1.0,1.0,1.0,10.00
2024-10-11 20:27:30.078,0.28603917,-0.25412807,0.009629267,0.47044456,0.10577706,-0.30168784,-0.19752006,0.40138668,0.68365854,-0.076121494,-0.095595494,0.6742195,0.49095434,-0.15137117,0.22447169,0.123374246,-0.027265696,-0.6822762,-0.36439288,-0.157142,825.6044,778.46155,794.17584,834.4689,979.5238,-0.2198486328125,0.090087890625,0.98638916015625,9.233856201171875,-7.76092529296875,4.0972900390625,1,1.0,1.0,1.0,1.0,10.00
2024-10-11 20:27:30.079,0.25428873,-0.20060864,0.016316049,0.47128376,0.061988443,-0.21870984,-0.19790806,0.39498526,0.68365854,-0.08697105,-0.11083824,0.6742195,0.47074875,-0.15588222,0.23358865,0.11609286,-0.033464625,-0.6996742,-0.36386895,-0.1682082,825.2015,782.0879,792.5641,837.6923,1139.0842,-0.2198486328125,0.090087890625,0.98638916015625,9.233856201171875,-7.76092529296875,4.0972900390625,1,1.0,1.0,1.0,1.0,10.00
2024-10-11 20:27:30.083,0.25428873,-0.20060864,0.016316049,0.47128376,0.061988443,-0.21870984,-0.19790806,0.39498526,0.68365854,-0.08697105,-0.11083824,0.6742195,0.47074875,-0.15588222,0.23358865,0.11609286,-0.033464625,-0.6996742,-0.36386895,-0.1682082,836.08057,781.685,798.60803,837.28937,1014.9817,-0.2198486328125,0.090087890625,0.98638916015625,9.233856201171875,-7.76092529296875,4.0972900390625,1,1.0,1.0,1.0,1.0,10.00
2024-10-11 20:27:30.084,0.25428873,-0.20060864,0.016316049,0.47128376,0.061988443,-0.21870984,-0.19790806,0.39498526,0.68365854,-0.08697105,-0.11083824,0.6742195,0.47074875,-0.15588222,0.23358865,0.11609286,-0.033464625,-0.6996742,-0.36386895,-0.1682082,838.49817,785.31134,803.44324,835.6777,807.47253,-0.2198486328125,0.090087890625,0.98638916015625,9.233856201171875,-7.76092529296875,4.0972900390625,1,1.0,1.0,1.0,1.0,10.00
2024-10-11 20:27:30.085,0.25428873,-0.20060864,0.016316049,0.47128376,0.061988443,-0.21870984,-0.19790806,0.39498526,0.68365854,-0.08697105,-0.11083824,0.6742195,0.47074875,-0.15588222,0.23358865,0.11609286,-0.033464625,-0.6996742,-0.36386895,-0.1682082,833.663,782.8938,807.47253,837.28937,776.8498,-0.2198486328125,0.090087890625,0.98638916015625,9.233856201171875,-7.76092529296875,4.0972900390625,1,1.0,1.0,1.0,1.0,10.00
2024-10-11 20:27:30.085,0.25428873,-0.20060864,0.016316049,0.47128376,0.061988443,-0.21870984,-0.19790806,0.39498526,0.68365854,-0.08697105,-0.11083824,0.6742195,0.47074875,-0.15588222,0.23358865,0.11609286,-0.033464625,-0.6996742,-0.36386895,-0.1682082,837.6923,783.2967,802.6374,844.5421,1042.7839,-0.2198486328125,0.090087890625,0.98638916015625,9.233856201171875,-7.76092529296875,4.0972900390625,1,1.0,1.0,1.0,1.0,10.00
2024-10-11 20:27:30.144,0.25428873,-0.20060864,0.016316049,0.47128376,0.061988443,-0.21870984,-0.19790806,0.39498526,0.68365854,-0.08697105,-0.11083824,0.6742195,0.47074875,-0.15588222,0.23358865,0.11609286,-0.033464625,-0.6996742,-0.36386895,-0.1682082,840.9158,783.2967,799.011,848.1685,1170.5128,-0.21185302734375,0.10675048828125,0.99298095703125,6.392669677734375,-7.8057861328125,6.759033203125,1,1.0,1.0,1.0,1.0,10.00
2024-10-11 20:27:30.145,0.25428873,-0.20060864,0.016316049,0.47128376,0.061988443,-0.21870984,-0.19790806,0.39498526,0.68365854,-0.08697105,-0.11083824,0.6742195,0.47074875,-0.15588222,0.23358865,0.11609286,-0.033464625,-0.6996742,-0.36386895,-0.1682082,832.4542,784.10254,799.41394,839.304,727.6923,-0.21185302734375,0.10675048828125,0.99298095703125,6.392669677734375,-7.8057861328125,6.759033203125,1,1.0,1.0,1.0,1.0,10.00
2024-10-11 20:27:30.146,0.25428873,-0.20060864,0.016316049,0.47128376,0.061988443,-0.21870984,-0.19790806,0.39498526,0.68365854,-0.08697105,-0.11083824,0.6742195,0.47074875,-0.15588222,0.23358865,0.11609286,-0.033464625,-0.6996742,-0.36386895,-0.1682082,831.6484,788.93774,794.57874,836.08057,584.65204,-0.21185302734375,0.10675048828125,0.99298095703125,6.392669677734375,-7.8057861328125,6.759033203125,1,1.0,1.0,1.0,1.0,10.00
2024-10-11 20:27:30.147,0.25428873,-0.20060864,0.016316049,0.47128376,0.061988443,-0.21870984,-0.19790806,0.39498526,0.68365854,-0.08697105,-0.11083824,0.6742195,0.47074875,-0.15588222,0.23358865,0.11609286,-0.033464625,-0.6996742,-0.36386895,-0.1682082,832.4542,786.9231,802.23444,836.08057,643.47986,-0.21185302734375,0.10675048828125,0.99298095703125,6.392669677734375,-7.8057861328125,6.759033203125,1,1.0,1.0,1.0,1.0,10.00
2024-10-11 20:27:30.148,0.25428873,-0.20060864,0.016316049,0.47128376,0.061988443,-0.21870984,-0.19790806,0.39498526,0.68365854,-0.08697105,-0.11083824,0.6742195,0.47074875,-0.15588222,0.23358865,0.11609286,-0.033464625,-0.6996742,-0.36386895,-0.1682082,832.4542,785.31134,808.68134,837.28937,612.8571,-0.21185302734375,0.10675048828125,0.99298095703125,6.392669677734375,-7.8057861328125,6.759033203125,1,1.0,1.0,1.0,1.0,10.00
2024-10-11 20:27:30.148,0.25428873,-0.20060864,0.016316049,0.47128376,0.061988443,-0.21870984,-0.19790806,0.39498526,0.68365854,-0.08697105,-0.11083824,0.6742195,0.47074875,-0.15588222,0.23358865,0.11609286,-0.033464625,-0.6996742,-0.36386895,-0.1682082,832.8571,785.31134,804.65204,836.8865,650.7326,-0.21185302734375,0.10675048828125,0.99298095703125,6.392669677734375,-7.8057861328125,6.759033203125,1,1.0,1.0,1.0,1.0,10.00
2024-10-11 20:27:30.149,0.25428873,-0.20060864,0.016316049,0.47128376,0.061988443,-0.21870984,-0.19790806,0.39498526,0.68365854,-0.08697105,-0.11083824,0.6742195,0.47074875,-0.15588222,0.23358865,0.11609286,-0.033464625,-0.6996742,-0.36386895,-0.1682082,833.663,780.07324,804.2491,835.6777,797.8022,-0.21185302734375,0.10675048828125,0.99298095703125,6.392669677734375,-7.8057861328125,6.759033203125,1,1.0,1.0,1.0,1.0,10.00
2024-10-11 20:27:30.150,0.25428873,-0.20060864,0.016316049,0.47128376,0.061988443,-0.21870984,-0.19790806,0.39498526,0.68365854,-0.08697105,-0.11083824,0.6742195,0.47074875,-0.15588222,0.23358865,0.11609286,-0.033464625,-0.6996742,-0.36386895,-0.1682082,833.2601,780.4762,803.0403,841.7216,998.0586,-0.21185302734375,0.10675048828125,0.99298095703125,6.392669677734375,-7.8057861328125,6.759033203125,1,1.0,1.0,1.0,1.0,10.00
2024-10-11 20:27:30.151,0.25428873,-0.20060864,0.016316049,0.47128376,0.061988443,-0.21870984,-0.19790806,0.39498526,0.68365854,-0.08697105,-0.11083824,0.6742195,0.47074875,-0.15588222,0.23358865,0.11609286,-0.033464625,-0.6996742,-0.36386895,-0.1682082,830.4396,784.10254,801.02563,836.08057,818.7546,-0.21185302734375,0.10675048828125,0.99298095703125,6.392669677734375,-7.8057861328125,6.759033203125,1,1.0,1.0,1.0,1.0,10.00
2024-10-11 20:27:30.152,0.25428873,-0.20060864,0.016316049,0.47128376,0.061988443,-0.21870984,-0.19790806,0.39498526,0.68365854,-0.08697105,-0.11083824,0.6742195,0.47074875,-0.15588222,0.23358865,0.11609286,-0.033464625,-0.6996742,-0.36386895,-0.1682082,830.0366,785.7143,804.2491,827.619,751.06226,-0.21185302734375,0.10675048828125,0.99298095703125,6.392669677734375,-7.8057861328125,6.759033203125,1,1.0,1.0,1.0,1.0,10.00
2024-10-11 20:27:30.152,0.25428873,-0.20060864,0.016316049,0.47128376,0.061988443,-0.21870984,-0.19790806,0.39498526,0.68365854,-0.08697105,-0.11083824,0.6742195,0.47074875,-0.15588222,0.23358865,0.11609286,-0.033464625,-0.6996742,-0.36386895,-0.1682082,834.0659,786.52014,800.2198,830.0366,832.8571,-0.21185302734375,0.10675048828125,0.99298095703125,6.392669677734375,-7.8057861328125,6.759033203125,1,1.0,1.0,1.0,1.0,10.00
2024-10-11 20:27:30.153,0.25428873,-0.20060864,0.016316049,0.47128376,0.061988443,-0.21870984,-0.19790806,0.39498526,0.68365854,-0.08697105,-0.11083824,0.6742195,0.47074875,-0.15588222,0.23358865,0.11609286,-0.033464625,-0.6996742,-0.36386895,-0.1682082,839.304,790.9524,790.9524,831.6484,736.9597,-0.21185302734375,0.10675048828125,0.99298095703125,6.392669677734375,-7.8057861328125,6.759033203125,1,1.0,1.0,1.0,1.0,10.00
2024-10-11 20:27:30.181,0.25428873,-0.20060864,0.016316049,0.47128376,0.061988443,-0.21870984,-0.19790806,0.39498526,0.68365854,-0.08697105,-0.11083824,0.6742195,0.47074875,-0.15588222,0.23358865,0.11609286,-0.033464625,-0.6996742,-0.36386895,-0.1682082,837.28937,792.1612,800.2198,828.4249,657.98535,-0.21319580078125,0.11248779296875,0.99169921875,2.893524169921875,-8.710479736328125,6.975860595703125,1,1.0,1.0,1.0,1.0,10.00
2024-10-11 20:27:30.182,0.25428873,-0.20060864,0.016316049,0.47128376,0.061988443,-0.21870984,-0.19790806,0.39498526,0.68365854,-0.08697105,-0.11083824,0.6742195,0.47074875,-0.15588222,0.23358865,0.11609286,-0.033464625,-0.6996742,-0.36386895,-0.1682082,834.4689,790.14655,801.02563,827.619,729.707,-0.21319580078125,0.11248779296875,0.99169921875,2.893524169921875,-8.710479736328125,6.975860595703125,1,1.0,1.0,1.0,1.0,10.00
2024-10-11 20:27:30.183,0.25428873,-0.20060864,0.016316049,0.47128376,0.061988443,-0.21870984,-0.19790806,0.39498526,0.68365854,-0.08697105,-0.11083824,0.6742195,0.47074875,-0.15588222,0.23358865,0.11609286,-0.033464625,-0.6996742,-0.36386895,-0.1682082,830.84247,786.9231,795.78754,826.0073,794.57874,-0.21319580078125,0.11248779296875,0.99169921875,2.893524169921875,-8.710479736328125,6.975860595703125,1,1.0,1.0,1.0,1.0,10.00
2024-10-11 20:27:30.184,0.25428873,-0.20060864,0.016316049,0.47128376,0.061988443,-0.21870984,-0.19790806,0.39498526,0.68365854,-0.08697105,-0.11083824,0.6742195,0.47074875,-0.15588222,0.23358865,0.11609286,-0.033464625,-0.6996742,-0.36386895,-0.1682082,820.7692,785.31134,797.3993,820.3663,717.619,-0.21319580078125,0.11248779296875,0.99169921875,2.893524169921875,-8.710479736328125,6.975860595703125,1,1.0,1.0,1.0,1.0,10.00
2024-10-11 20:27:30.185,0.25428873,-0.20060864,0.016316049,0.47128376,0.061988443,-0.21870984,-0.19790806,0.39498526,0.68365854,-0.08697105,-0.11083824,0.6742195,0.47074875,-0.15588222,0.23358865,0.11609286,-0.033464625,-0.6996742,-0.36386895,-0.1682082,819.5604,785.31134,796.1905,819.5604,602.381,-0.21319580078125,0.11248779296875,0.99169921875,2.893524169921875,-8.710479736328125,6.975860595703125,1,1.0,1.0,1.0,1.0,10.00
2024-10-11 20:27:30.185,0.25428873,-0.20060864,0.016316049,0.47128376,0.061988443,-0.21870984,-0.19790806,0.39498526,0.68365854,-0.08697105,-0.11083824,0.6742195,0.47074875,-0.15588222,0.23358865,0.11609286,-0.033464625,-0.6996742,-0.36386895,-0.1682082,816.337,785.31134,798.20514,821.5751,808.68134,-0.21319580078125,0.11248779296875,0.99169921875,2.893524169921875,-8.710479736328125,6.975860595703125,1,1.0,1.0,1.0,1.0,10.00
2024-10-11 20:27:30.186,0.25428873,-0.20060864,0.016316049,0.47128376,0.061988443,-0.21870984,-0.19790806,0.39498526,0.68365854,-0.08697105,-0.11083824,0.6742195,0.47074875,-0.15588222,0.23358865,0.11609286,-0.033464625,-0.6996742,-0.36386895,-0.1682082,808.2784,786.52014,795.78754,824.7985,1133.4432,-0.21319580078125,0.11248779296875,0.99169921875,2.893524169921875,-8.710479736328125,6.975860595703125,1,1.0,1.0,1.0,1.0,10.00
2024-10-11 20:27:30.187,0.25428873,-0.20060864,0.016316049,0.47128376,0.061988443,-0.21870984,-0.19790806,0.39498526,0.68365854,-0.08697105,-0.11083824,0.6742195,0.47074875,-0.15588222,0.23358865,0.11609286,-0.033464625,-0.6996742,-0.36386895,-0.1682082,807.8755,786.52014,790.54944,820.3663,857.03296,-0.21319580078125,0.11248779296875,0.99169921875,2.893524169921875,-8.710479736328125,6.975860595703125,1,1.0,1.0,1.0,1.0,10.00
2024-10-11 20:27:30.187,0.25428873,-0.20060864,0.016316049,0.47128376,0.061988443,-0.21870984,-0.19790806,0.39498526,0.68365854,-0.08697105,-0.11083824,0.6742195,0.47074875,-0.15588222,0.23358865,0.11609286,-0.033464625,-0.6996742,-0.36386895,-0.1682082,811.0989,787.72894,795.38464,816.7399,542.74725,-0.21319580078125,0.11248779296875,0.99169921875,2.893524169921875,-8.710479736328125,6.975860595703125,1,1.0,1.0,1.0,1.0,10.00
2024-10-11 20:27:30,,,,,,,,,,,,,,,,,,,,,,,,,,,,,,,,,,,,,,/muse/elements/blink
2024-10-11 20:27:30.188,0.23318163,0.036478568,0.02455221,0.48705557,3.370823E-4,0.025632864,-0.19377674,0.37984067,0.67556137,0.114094466,-0.12119821,0.6742195,0.4650217,-0.1605245,0.24662086,0.11782876,-0.046477403,-0.7173495,-0.36190134,-0.1845826,815.5311,787.326,798.60803,820.7692,624.5421,-0.21319580078125,0.11248779296875,0.99169921875,2.893524169921875,-8.710479736328125,6.975860595703125,1,1.0,1.0,1.0,1.0,10.00
2024-10-11 20:27:30.194,0.23318163,0.036478568,0.02455221,0.48705557,3.370823E-4,0.025632864,-0.19377674,0.37984067,0.67556137,0.114094466,-0.12119821,0.6742195,0.4650217,-0.1605245,0.24662086,0.11782876,-0.046477403,-0.7173495,-0.36190134,-0.1845826,824.3956,788.5348,797.3993,828.8278,879.59705,-0.21319580078125,0.11248779296875,0.99169921875,2.893524169921875,-8.710479736328125,6.975860595703125,1,1.0,1.0,1.0,1.0,10.00
2024-10-11 20:27:30.195,0.23318163,0.036478568,0.02455221,0.48705557,3.370823E-4,0.025632864,-0.19377674,0.37984067,0.67556137,0.114094466,-0.12119821,0.6742195,0.4650217,-0.1605245,0.24662086,0.11782876,-0.046477403,-0.7173495,-0.36190134,-0.1845826,824.7985,792.1612,798.20514,830.0366,909.41394,-0.21319580078125,0.11248779296875,0.99169921875,2.893524169921875,-8.710479736328125,6.975860595703125,1,1.0,1.0,1.0,1.0,10.00
2024-10-11 20:27:30.223,0.23318163,0.036478568,0.02455221,0.48705557,3.370823E-4,0.025632864,-0.19377674,0.37984067,0.67556137,0.114094466,-0.12119821,0.6742195,0.4650217,-0.1605245,0.24662086,0.11782876,-0.046477403,-0.7173495,-0.36190134,-0.1845826,818.3516,789.34064,798.20514,822.7839,796.1905,-0.20208740234375,0.10675048828125,0.98980712890625,-0.64300537109375,-9.73480224609375,3.117828369140625,1,1.0,1.0,1.0,1.0,10.00
2024-10-11 20:27:30.224,0.23318163,0.036478568,0.02455221,0.48705557,3.370823E-4,0.025632864,-0.19377674,0.37984067,0.67556137,0.114094466,-0.12119821,0.6742195,0.4650217,-0.1605245,0.24662086,0.11782876,-0.046477403,-0.7173495,-0.36190134,-0.1845826,816.337,790.14655,792.96704,820.3663,762.3443,-0.20208740234375,0.10675048828125,0.98980712890625,-0.64300537109375,-9.73480224609375,3.117828369140625,1,1.0,1.0,1.0,1.0,10.00
2024-10-11 20:27:30.224,0.23318163,0.036478568,0.02455221,0.48705557,3.370823E-4,0.025632864,-0.19377674,0.37984067,0.67556137,0.114094466,-0.12119821,0.6742195,0.4650217,-0.1605245,0.24662086,0.11782876,-0.046477403,-0.7173495,-0.36190134,-0.1845826,811.9048,787.72894,791.75824,821.978,1000.87915,-0.20208740234375,0.10675048828125,0.98980712890625,-0.64300537109375,-9.73480224609375,3.117828369140625,1,1.0,1.0,1.0,1.0,10.00
2024-10-11 20:27:30.225,0.23318163,0.036478568,0.02455221,0.48705557,3.370823E-4,0.025632864,-0.19377674,0.37984067,0.67556137,0.114094466,-0.12119821,0.6742195,0.4650217,-0.1605245,0.24662086,0.11782876,-0.046477403,-0.7173495,-0.36190134,-0.1845826,811.50183,785.7143,790.54944,820.3663,872.74725,-0.20208740234375,0.10675048828125,0.98980712890625,-0.64300537109375,-9.73480224609375,3.117828369140625,1,1.0,1.0,1.0,1.0,10.00
2024-10-11 20:27:30.226,0.23318163,0.036478568,0.02455221,0.48705557,3.370823E-4,0.025632864,-0.19377674,0.37984067,0.67556137,0.114094466,-0.12119821,0.6742195,0.4650217,-0.1605245,0.24662086,0.11782876,-0.046477403,-0.7173495,-0.36190134,-0.1845826,814.3223,790.54944,795.38464,817.9487,594.7253,-0.20208740234375,0.10675048828125,0.98980712890625,-0.64300537109375,-9.73480224609375,3.117828369140625,1,1.0,1.0,1.0,1.0,10.00
2024-10-11 20:27:30.227,0.23318163,0.036478568,0.02455221,0.48705557,3.370823E-4,0.025632864,-0.19377674,0.37984067,0.67556137,0.114094466,-0.12119821,0.6742195,0.4650217,-0.1605245,0.24662086,0.11782876,-0.046477403,-0.7173495,-0.36190134,-0.1845826,815.12823,790.9524,805.4579,823.5897,763.95605,-0.20208740234375,0.10675048828125,0.98980712890625,-0.64300537109375,-9.73480224609375,3.117828369140625,1,1.0,1.0,1.0,1.0,10.00
2024-10-11 20:27:30.227,0.23318163,0.036478568,0.02455221,0.48705557,3.370823E-4,0.025632864,-0.19377674,0.37984067,0.67556137,0.114094466,-0.12119821,0.6742195,0.4650217,-0.1605245,0.24662086,0.11782876,-0.046477403,-0.7173495,-0.36190134,-0.1845826,805.05493,787.72894,800.6227,823.9927,1248.2784,-0.20208740234375,0.10675048828125,0.98980712890625,-0.64300537109375,-9.73480224609375,3.117828369140625,1,1.0,1.0,1.0,1.0,10.00
2024-10-11 20:27:30.228,0.23318163,0.036478568,0.02455221,0.48705557,3.370823E-4,0.025632864,-0.19377674,0.37984067,0.67556137,0.114094466,-0.12119821,0.6742195,0.4650217,-0.1605245,0.24662086,0.11782876,-0.046477403,-0.7173495,-0.36190134,-0.1845826,801.4286,793.7729,798.20514,821.1722,1218.0586,-0.20208740234375,0.10675048828125,0.98980712890625,-0.64300537109375,-9.73480224609375,3.117828369140625,1,1.0,1.0,1.0,1.0,10.00
2024-10-11 20:27:30.229,0.23318163,0.036478568,0.02455221,0.48705557,3.370823E-4,0.025632864,-0.19377674,0.37984067,0.67556137,0.114094466,-0.12119821,0.6742195,0.4650217,-0.1605245,0.24662086,0.11782876,-0.046477403,-0.7173495,-0.36190134,-0.1845826,812.3077,798.60803,801.8315,816.337,678.5348,-0.20208740234375,0.10675048828125,0.98980712890625,-0.64300537109375,-9.73480224609375,3.117828369140625,1,1.0,1.0,1.0,1.0,10.00
2024-10-11 20:27:30.229,0.23318163,0.036478568,0.02455221,0.48705557,3.370823E-4,0.025632864,-0.19377674,0.37984067,0.67556137,0.114094466,-0.12119821,0.6742195,0.4650217,-0.1605245,0.24662086,0.11782876,-0.046477403,-0.7173495,-0.36190134,-0.1845826,813.91943,792.96704,798.60803,807.47253,573.7729,-0.20208740234375,0.10675048828125,0.98980712890625,-0.64300537109375,-9.73480224609375,3.117828369140625,1,1.0,1.0,1.0,1.0,10.00
2024-10-11 20:27:30.230,0.23318163,0.036478568,0.02455221,0.48705557,3.370823E-4,0.025632864,-0.19377674,0.37984067,0.67556137,0.114094466,-0.12119821,0.6742195,0.4650217,-0.1605245,0.24662086,0.11782876,-0.046477403,-0.7173495,-0.36190134,-0.1845826,810.293,792.96704,793.36993,805.05493,673.69965,-0.20208740234375,0.10675048828125,0.98980712890625,-0.64300537109375,-9.73480224609375,3.117828369140625,1,1.0,1.0,1.0,1.0,10.00
2024-10-11 20:27:30.231,0.23318163,0.036478568,0.02455221,0.48705557,3.370823E-4,0.025632864,-0.19377674,0.37984067,0.67556137,0.114094466,-0.12119821,0.6742195,0.4650217,-0.1605245,0.24662086,0.11782876,-0.046477403,-0.7173495,-0.36190134,-0.1845826,809.4872,796.1905,795.78754,803.44324,589.4872,-0.20208740234375,0.10675048828125,0.98980712890625,-0.64300537109375,-9.73480224609375,3.117828369140625,1,1.0,1.0,1.0,1.0,10.00
2024-10-11 20:27:30.293,0.23318163,0.036478568,0.02455221,0.48705557,3.370823E-4,0.025632864,-0.19377674,0.37984067,0.67556137,0.114094466,-0.12119821,0.6742195,0.4650217,-0.1605245,0.24662086,0.11782876,-0.046477403,-0.7173495,-0.36190134,-0.1845826,809.89014,800.6227,790.9524,802.6374,544.7619,-0.20208740234375,0.10675048828125,0.98980712890625,-0.64300537109375,-9.73480224609375,3.117828369140625,1,1.0,1.0,1.0,1.0,10.00
2024-10-11 20:27:30.294,0.23318163,0.036478568,0.02455221,0.48705557,3.370823E-4,0.025632864,-0.19377674,0.37984067,0.67556137,0.114094466,-0.12119821,0.6742195,0.4650217,-0.1605245,0.24662086,0.11782876,-0.046477403,-0.7173495,-0.36190134,-0.1845826,815.12823,800.6227,788.1319,806.6667,684.17584,-0.20208740234375,0.10675048828125,0.98980712890625,-0.64300537109375,-9.73480224609375,3.117828369140625,1,1.0,1.0,1.0,1.0,10.00
2024-10-11 20:27:30.295,0.23318163,0.036478568,0.02455221,0.48705557,3.370823E-4,0.025632864,-0.19377674,0.37984067,0.67556137,0.114094466,-0.12119821,0.6742195,0.4650217,-0.1605245,0.24662086,0.11782876,-0.046477403,-0.7173495,-0.36190134,-0.1845826,815.12823,796.99634,800.2198,806.6667,749.0476,-0.20208740234375,0.10675048828125,0.98980712890625,-0.64300537109375,-9.73480224609375,3.117828369140625,1,1.0,1.0,1.0,1.0,10.00
2024-10-11 20:27:30.296,0.23318163,0.036478568,0.02455221,0.48705557,3.370823E-4,0.025632864,-0.19377674,0.37984067,0.67556137,0.114094466,-0.12119821,0.6742195,0.4650217,-0.1605245,0.24662086,0.11782876,-0.046477403,-0.7173495,-0.36190134,-0.1845826,813.1135,795.78754,808.68134,805.8608,800.2198,-0.20208740234375,0.10675048828125,0.98980712890625,-0.64300537109375,-9.73480224609375,3.117828369140625,1,1.0,1.0,1.0,1.0,10.00
2024-10-11 20:27:30.296,0.23318163,0.036478568,0.02455221,0.48705557,3.370823E-4,0.025632864,-0.19377674,0.37984067,0.67556137,0.114094466,-0.12119821,0.6742195,0.4650217,-0.1605245,0.24662086,0.11782876,-0.046477403,-0.7173495,-0.36190134,-0.1845826,813.1135,796.5934,806.26373,810.293,797.8022,-0.20208740234375,0.10675048828125,0.98980712890625,-0.64300537109375,-9.73480224609375,3.117828369140625,1,1.0,1.0,1.0,1.0,10.00
2024-10-11 20:27:30.297,0.23318163,0.036478568,0.02455221,0.48705557,3.370823E-4,0.025632864,-0.19377674,0.37984067,0.67556137,0.114094466,-0.12119821,0.6742195,0.4650217,-0.1605245,0.24662086,0.11782876,-0.046477403,-0.7173495,-0.36190134,-0.1845826,813.91943,791.75824,805.05493,812.3077,1003.2967,-0.20208740234375,0.10675048828125,0.98980712890625,-0.64300537109375,-9.73480224609375,3.117828369140625,1,1.0,1.0,1.0,1.0,10.00
2024-10-11 20:27:30.298,0.23318163,0.036478568,0.02455221,0.48705557,3.370823E-4,0.025632864,-0.19377674,0.37984067,0.67556137,0.114094466,-0.12119821,0.6742195,0.4650217,-0.1605245,0.24662086,0.11782876,-0.046477403,-0.7173495,-0.36190134,-0.1845826,808.2784,794.9817,805.4579,808.2784,1079.8535,-0.20208740234375,0.10675048828125,0.98980712890625,-0.64300537109375,-9.73480224609375,3.117828369140625,1,1.0,1.0,1.0,1.0,10.00
2024-10-11 20:27:30.299,0.23318163,0.036478568,0.02455221,0.48705557,3.370823E-4,0.025632864,-0.19377674,0.37984067,0.67556137,0.114094466,-0.12119821,0.6742195,0.4650217,-0.1605245,0.24662086,0.11782876,-0.046477403,-0.7173495,-0.36190134,-0.1845826,805.4579,799.41394,806.26373,807.47253,909.41394,-0.20208740234375,0.10675048828125,0.98980712890625,-0.64300537109375,-9.73480224609375,3.117828369140625,1,1.0,1.0,1.0,1.0,10.00
2024-10-11 20:27:30.299,0.23318163,0.036478568,0.02455221,0.48705557,3.370823E-4,0.025632864,-0.19377674,0.37984067,0.67556137,0.114094466,-0.12119821,0.6742195,0.4650217,-0.1605245,0.24662086,0.11782876,-0.046477403,-0.7173495,-0.36190134,-0.1845826,802.6374,794.57874,799.011,800.6227,844.94507,-0.20208740234375,0.10675048828125,0.98980712890625,-0.64300537109375,-9.73480224609375,3.117828369140625,1,1.0,1.0,1.0,1.0,10.00
2024-10-11 20:27:30.300,0.23318163,0.036478568,0.02455221,0.48705557,3.370823E-4,0.025632864,-0.19377674,0.37984067,0.67556137,0.114094466,-0.12119821,0.6742195,0.4650217,-0.1605245,0.24662086,0.11782876,-0.046477403,-0.7173495,-0.36190134,-0.1845826,807.0696,791.75824,792.96704,801.4286,988.7912,-0.20208740234375,0.10675048828125,0.98980712890625,-0.64300537109375,-9.73480224609375,3.117828369140625,1,1.0,1.0,1.0,1.0,10.00
2024-10-11 20:27:30.301,0.23318163,0.036478568,0.02455221,0.48705557,3.370823E-4,0.025632864,-0.19377674,0.37984067,0.67556137,0.114094466,-0.12119821,0.6742195,0.4650217,-0.1605245,0.24662086,0.11782876,-0.046477403,-0.7173495,-0.36190134,-0.1845826,807.0696,796.1905,796.99634,804.65204,864.68866,-0.20208740234375,0.10675048828125,0.98980712890625,-0.64300537109375,-9.73480224609375,3.117828369140625,1,1.0,1.0,1.0,1.0,10.00
2024-10-11 20:27:30.301,0.23053364,0.37654957,0.033499755,0.51369077,-0.0716537,0.3367651,-0.19833899,0.36144987,0.61077136,0.381082,-0.12906972,0.66557556,0.47160524,-0.16195224,0.25956017,0.12626101,-0.062551,-0.7299861,-0.35836443,-0.20282139,806.6667,801.02563,801.8315,798.60803,716.0073,-0.20208740234375,0.10675048828125,0.98980712890625,-0.64300537109375,-9.73480224609375,3.117828369140625,1,1.0,1.0,1.0,1.0,10.00
2024-10-11 20:27:30.334,0.23053364,0.37654957,0.033499755,0.51369077,-0.0716537,0.3367651,-0.19833899,0.36144987,0.61077136,0.381082,-0.12906972,0.66557556,0.47160524,-0.16195224,0.25956017,0.12626101,-0.062551,-0.7299861,-0.35836443,-0.20282139,810.293,798.60803,802.6374,799.81683,786.9231,-0.18804931640625,0.09161376953125,0.99359130859375,-3.910369873046875,-7.005767822265625,2.130889892578125,1,1.0,1.0,1.0,1.0,10.00
2024-10-11 20:27:30.335,0.23053364,0.37654957,0.033499755,0.51369077,-0.0716537,0.3367651,-0.19833899,0.36144987,0.61077136,0.381082,-0.12906972,0.66557556,0.47160524,-0.16195224,0.25956017,0.12626101,-0.062551,-0.7299861,-0.35836443,-0.20282139,808.68134,796.99634,800.6227,802.6374,743.00366,-0.18804931640625,0.09161376953125,0.99359130859375,-3.910369873046875,-7.005767822265625,2.130889892578125,1,1.0,1.0,1.0,1.0,10.00
2024-10-11 20:27:30.336,0.23053364,0.37654957,0.033499755,0.51369077,-0.0716537,0.3367651,-0.19833899,0.36144987,0.61077136,0.381082,-0.12906972,0.66557556,0.47160524,-0.16195224,0.25956017,0.12626101,-0.062551,-0.7299861,-0.35836443,-0.20282139,804.2491,794.57874,799.011,805.05493,646.7033,-0.18804931640625,0.09161376953125,0.99359130859375,-3.910369873046875,-7.005767822265625,2.130889892578125,1,1.0,1.0,1.0,1.0,10.00
2024-10-11 20:27:30.337,0.23053364,0.37654957,0.033499755,0.51369077,-0.0716537,0.3367651,-0.19833899,0.36144987,0.61077136,0.381082,-0.12906972,0.66557556,0.47160524,-0.16195224,0.25956017,0.12626101,-0.062551,-0.7299861,-0.35836443,-0.20282139,802.6374,796.99634,799.011,808.68134,667.6557,-0.18804931640625,0.09161376953125,0.99359130859375,-3.910369873046875,-7.005767822265625,2.130889892578125,1,1.0,1.0,1.0,1.0,10.00
2024-10-11 20:27:30.338,0.23053364,0.37654957,0.033499755,0.51369077,-0.0716537,0.3367651,-0.19833899,0.36144987,0.61077136,0.381082,-0.12906972,0.66557556,0.47160524,-0.16195224,0.25956017,0.12626101,-0.062551,-0.7299861,-0.35836443,-0.20282139,804.2491,798.20514,801.8315,808.68134,767.98535,-0.18804931640625,0.09161376953125,0.99359130859375,-3.910369873046875,-7.005767822265625,2.130889892578125,1,1.0,1.0,1.0,1.0,10.00
2024-10-11 20:27:30.339,0.23053364,0.37654957,0.033499755,0.51369077,-0.0716537,0.3367651,-0.19833899,0.36144987,0.61077136,0.381082,-0.12906972,0.66557556,0.47160524,-0.16195224,0.25956017,0.12626101,-0.062551,-0.7299861,-0.35836443,-0.20282139,804.65204,796.99634,801.8315,806.6667,851.79486,-0.18804931640625,0.09161376953125,0.99359130859375,-3.910369873046875,-7.005767822265625,2.130889892578125,1,1.0,1.0,1.0,1.0,10.00
2024-10-11 20:27:30.342,0.23053364,0.37654957,0.033499755,0.51369077,-0.0716537,0.3367651,-0.19833899,0.36144987,0.61077136,0.381082,-0.12906972,0.66557556,0.47160524,-0.16195224,0.25956017,0.12626101,-0.062551,-0.7299861,-0.35836443,-0.20282139,801.8315,796.1905,801.8315,806.26373,761.9414,-0.18804931640625,0.09161376953125,0.99359130859375,-3.910369873046875,-7.005767822265625,2.130889892578125,1,1.0,1.0,1.0,1.0,10.00
2024-10-11 20:27:30.344,0.23053364,0.37654957,0.033499755,0.51369077,-0.0716537,0.3367651,-0.19833899,0.36144987,0.61077136,0.381082,-0.12906972,0.66557556,0.47160524,-0.16195224,0.25956017,0.12626101,-0.062551,-0.7299861,-0.35836443,-0.20282139,802.6374,795.78754,795.38464,805.8608,749.85345,-0.18804931640625,0.09161376953125,0.99359130859375,-3.910369873046875,-7.005767822265625,2.130889892578125,1,1.0,1.0,1.0,1.0,10.00
2024-10-11 20:27:30.344,0.23053364,0.37654957,0.033499755,0.51369077,-0.0716537,0.3367651,-0.19833899,0.36144987,0.61077136,0.381082,-0.12906972,0.66557556,0.47160524,-0.16195224,0.25956017,0.12626101,-0.062551,-0.7299861,-0.35836443,-0.20282139,803.44324,791.75824,794.9817,805.05493,709.15753,-0.18804931640625,0.09161376953125,0.99359130859375,-3.910369873046875,-7.005767822265625,2.130889892578125,1,1.0,1.0,1.0,1.0,10.00
2024-10-11 20:27:30.345,0.23053364,0.37654957,0.033499755,0.51369077,-0.0716537,0.3367651,-0.19833899,0.36144987,0.61077136,0.381082,-0.12906972,0.66557556,0.47160524,-0.16195224,0.25956017,0.12626101,-0.062551,-0.7299861,-0.35836443,-0.20282139,799.011,791.75824,799.81683,805.8608,733.3333,-0.18804931640625,0.09161376953125,0.99359130859375,-3.910369873046875,-7.005767822265625,2.130889892578125,1,1.0,1.0,1.0,1.0,10.00
2024-10-11 20:27:30.346,0.23053364,0.37654957,0.033499755,0.51369077,-0.0716537,0.3367651,-0.19833899,0.36144987,0.61077136,0.381082,-0.12906972,0.66557556,0.47160524,-0.16195224,0.25956017,0.12626101,-0.062551,-0.7299861,-0.35836443,-0.20282139,801.02563,797.8022,798.20514,803.44324,750.65936,-0.18804931640625,0.09161376953125,0.99359130859375,-3.910369873046875,-7.005767822265625,2.130889892578125,1,1.0,1.0,1.0,1.0,10.00
2024-10-11 20:27:30.347,0.23053364,0.37654957,0.033499755,0.51369077,-0.0716537,0.3367651,-0.19833899,0.36144987,0.61077136,0.381082,-0.12906972,0.66557556,0.47160524,-0.16195224,0.25956017,0.12626101,-0.062551,-0.7299861,-0.35836443,-0.20282139,808.68134,799.011,794.9817,803.8461,598.3516,-0.18804931640625,0.09161376953125,0.99359130859375,-3.910369873046875,-7.005767822265625,2.130889892578125,1,1.0,1.0,1.0,1.0,10.00
2024-10-11 20:27:30.380,0.23053364,0.37654957,0.033499755,0.51369077,-0.0716537,0.3367651,-0.19833899,0.36144987,0.61077136,0.381082,-0.12906972,0.66557556,0.47160524,-0.16195224,0.25956017,0.12626101,-0.062551,-0.7299861,-0.35836443,-0.20282139,810.293,797.8022,796.1905,808.2784,810.293,-0.1844482421875,0.073974609375,0.9896240234375,-5.585174560546875,-4.3963623046875,3.46923828125,1,1.0,1.0,1.0,1.0,10.00
2024-10-11 20:27:30.381,0.23053364,0.37654957,0.033499755,0.51369077,-0.0716537,0.3367651,-0.19833899,0.36144987,0.61077136,0.381082,-0.12906972,0.66557556,0.47160524,-0.16195224,0.25956017,0.12626101,-0.062551,-0.7299861,-0.35836443,-0.20282139,803.0403,794.9817,794.9817,802.23444,1002.49084,-0.1844482421875,0.073974609375,0.9896240234375,-5.585174560546875,-4.3963623046875,3.46923828125,1,1.0,1.0,1.0,1.0,10.00
2024-10-11 20:27:30.382,0.23053364,0.37654957,0.033499755,0.51369077,-0.0716537,0.3367651,-0.19833899,0.36144987,0.61077136,0.381082,-0.12906972,0.66557556,0.47160524,-0.16195224,0.25956017,0.12626101,-0.062551,-0.7299861,-0.35836443,-0.20282139,800.2198,797.3993,794.9817,795.38464,655.56775,-0.1844482421875,0.073974609375,0.9896240234375,-5.585174560546875,-4.3963623046875,3.46923828125,1,1.0,1.0,1.0,1.0,10.00
2024-10-11 20:27:30.383,0.23053364,0.37654957,0.033499755,0.51369077,-0.0716537,0.3367651,-0.19833899,0.36144987,0.61077136,0.381082,-0.12906972,0.66557556,0.47160524,-0.16195224,0.25956017,0.12626101,-0.062551,-0.7299861,-0.35836443,-0.20282139,806.6667,794.17584,791.3553,801.4286,568.5348,-0.1844482421875,0.073974609375,0.9896240234375,-5.585174560546875,-4.3963623046875,3.46923828125,1,1.0,1.0,1.0,1.0,10.00
2024-10-11 20:27:30.384,0.23053364,0.37654957,0.033499755,0.51369077,-0.0716537,0.3367651,-0.19833899,0.36144987,0.61077136,0.381082,-0.12906972,0.66557556,0.47160524,-0.16195224,0.25956017,0.12626101,-0.062551,-0.7299861,-0.35836443,-0.20282139,807.8755,792.5641,790.54944,798.60803,726.4835,-0.1844482421875,0.073974609375,0.9896240234375,-5.585174560546875,-4.3963623046875,3.46923828125,1,1.0,1.0,1.0,1.0,10.00
2024-10-11 20:27:30.385,0.23053364,0.37654957,0.033499755,0.51369077,-0.0716537,0.3367651,-0.19833899,0.36144987,0.61077136,0.381082,-0.12906972,0.66557556,0.47160524,-0.16195224,0.25956017,0.12626101,-0.062551,-0.7299861,-0.35836443,-0.20282139,804.65204,792.5641,796.99634,796.1905,959.7802,-0.1844482421875,0.073974609375,0.9896240234375,-5.585174560546875,-4.3963623046875,3.46923828125,1,1.0,1.0,1.0,1.0,10.00
2024-10-11 20:27:30.386,0.23053364,0.37654957,0.033499755,0.51369077,-0.0716537,0.3367651,-0.19833899,0.36144987,0.61077136,0.381082,-0.12906972,0.66557556,0.47160524,-0.16195224,0.25956017,0.12626101,-0.062551,-0.7299861,-0.35836443,-0.20282139,803.0403,792.5641,796.99634,800.2198,923.1135,-0.1844482421875,0.073974609375,0.9896240234375,-5.585174560546875,-4.3963623046875,3.46923828125,1,1.0,1.0,1.0,1.0,10.00
2024-10-11 20:27:30.387,0.23053364,0.37654957,0.033499755,0.51369077,-0.0716537,0.3367651,-0.19833899,0.36144987,0.61077136,0.381082,-0.12906972,0.66557556,0.47160524,-0.16195224,0.25956017,0.12626101,-0.062551,-0.7299861,-0.35836443,-0.20282139,799.41394,792.96704,796.5934,798.20514,707.9487,-0.1844482421875,0.073974609375,0.9896240234375,-5.585174560546875,-4.3963623046875,3.46923828125,1,1.0,1.0,1.0,1.0,10.00
2024-10-11 20:27:30.388,0.23053364,0.37654957,0.033499755,0.51369077,-0.0716537,0.3367651,-0.19833899,0.36144987,0.61077136,0.381082,-0.12906972,0.66557556,0.47160524,-0.16195224,0.25956017,0.12626101,-0.062551,-0.7299861,-0.35836443,-0.20282139,807.47253,792.5641,802.23444,800.2198,786.52014,-0.1844482421875,0.073974609375,0.9896240234375,-5.585174560546875,-4.3963623046875,3.46923828125,1,1.0,1.0,1.0,1.0,10.00
2024-10-11 20:27:30.389,0.23053364,0.37654957,0.033499755,0.51369077,-0.0716537,0.3367651,-0.19833899,0.36144987,0.61077136,0.381082,-0.12906972,0.66557556,0.47160524,-0.16195224,0.25956017,0.12626101,-0.062551,-0.7299861,-0.35836443,-0.20282139,806.6667,793.36993,800.2198,796.5934,734.1392,-0.1844482421875,0.073974609375,0.9896240234375,-5.585174560546875,-4.3963623046875,3.46923828125,1,1.0,1.0,1.0,1.0,10.00
2024-10-11 20:27:30.390,0.23053364,0.37654957,0.033499755,0.51369077,-0.0716537,0.3367651,-0.19833899,0.36144987,0.61077136,0.381082,-0.12906972,0.66557556,0.47160524,-0.16195224,0.25956017,0.12626101,-0.062551,-0.7299861,-0.35836443,-0.20282139,794.17584,791.75824,795.78754,787.72894,609.6337,-0.1844482421875,0.073974609375,0.9896240234375,-5.585174560546875,-4.3963623046875,3.46923828125,1,1.0,1.0,1.0,1.0,10.00
2024-10-11 20:27:30.391,0.23053364,0.37654957,0.033499755,0.51369077,-0.0716537,0.3367651,-0.19833899,0.36144987,0.61077136,0.381082,-0.12906972,0.66557556,0.47160524,-0.16195224,0.25956017,0.12626101,-0.062551,-0.7299861,-0.35836443,-0.20282139,806.6667,791.3553,793.36993,792.1612,686.1905,-0.1844482421875,0.073974609375,0.9896240234375,-5.585174560546875,-4.3963623046875,3.46923828125,1,1.0,1.0,1.0,1.0,10.00
2024-10-11 20:27:30.419,0.23053364,0.37654957,0.033499755,0.51369077,-0.0716537,0.3367651,-0.19833899,0.36144987,0.61077136,0.381082,-0.12906972,0.66557556,0.47160524,-0.16195224,0.25956017,0.12626101,-0.062551,-0.7299861,-0.35836443,-0.20282139,817.5458,788.1319,794.9817,812.71063,862.674,-0.1885986328125,0.0682373046875,0.9940185546875,-6.08612060546875,-2.160797119140625,4.538421630859375,1,1.0,1.0,1.0,1.0,10.00
2024-10-11 20:27:30.420,0.24189383,0.6640009,0.047334436,0.5462478,-0.13496122,0.58789974,-0.2266394,0.3480424,0.561794,0.52986264,-0.15286751,0.62743455,0.48080733,-0.1611961,0.267706,0.13496704,-0.07594183,-0.72902465,-0.35523683,-0.2188585,800.2198,785.31134,797.3993,804.2491,799.41394,-0.1885986328125,0.0682373046875,0.9940185546875,-6.08612060546875,-2.160797119140625,4.538421630859375,1,1.0,1.0,1.0,1.0,10.00
2024-10-11 20:27:30.426,0.24189383,0.6640009,0.047334436,0.5462478,-0.13496122,0.58789974,-0.2266394,0.3480424,0.561794,0.52986264,-0.15286751,0.62743455,0.48080733,-0.1611961,0.267706,0.13496704,-0.07594183,-0.72902465,-0.35523683,-0.2188585,790.9524,788.93774,791.3553,785.31134,686.99634,-0.1885986328125,0.0682373046875,0.9940185546875,-6.08612060546875,-2.160797119140625,4.538421630859375,1,1.0,1.0,1.0,1.0,10.00
2024-10-11 20:27:30.427,0.24189383,0.6640009,0.047334436,0.5462478,-0.13496122,0.58789974,-0.2266394,0.3480424,0.561794,0.52986264,-0.15286751,0.62743455,0.48080733,-0.1611961,0.267706,0.13496704,-0.07594183,-0.72902465,-0.35523683,-0.2188585,797.3993,787.72894,799.81683,789.34064,749.85345,-0.1885986328125,0.0682373046875,0.9940185546875,-6.08612060546875,-2.160797119140625,4.538421630859375,1,1.0,1.0,1.0,1.0,10.00
2024-10-11 20:27:30.428,0.24189383,0.6640009,0.047334436,0.5462478,-0.13496122,0.58789974,-0.2266394,0.3480424,0.561794,0.52986264,-0.15286751,0.62743455,0.48080733,-0.1611961,0.267706,0.13496704,-0.07594183,-0.72902465,-0.35523683,-0.2188585,791.75824,786.9231,815.5311,802.23444,1096.7766,-0.1885986328125,0.0682373046875,0.9940185546875,-6.08612060546875,-2.160797119140625,4.538421630859375,1,1.0,1.0,1.0,1.0,10.00
2024-10-11 20:27:30.428,0.24189383,0.6640009,0.047334436,0.5462478,-0.13496122,0.58789974,-0.2266394,0.3480424,0.561794,0.52986264,-0.15286751,0.62743455,0.48080733,-0.1611961,0.267706,0.13496704,-0.07594183,-0.72902465,-0.35523683,-0.2188585,779.2674,787.326,815.9341,801.02563,1058.0952,-0.1885986328125,0.0682373046875,0.9940185546875,-6.08612060546875,-2.160797119140625,4.538421630859375,1,1.0,1.0,1.0,1.0,10.00
2024-10-11 20:27:30.429,0.24189383,0.6640009,0.047334436,0.5462478,-0.13496122,0.58789974,-0.2266394,0.3480424,0.561794,0.52986264,-0.15286751,0.62743455,0.48080733,-0.1611961,0.267706,0.13496704,-0.07594183,-0.72902465,-0.35523683,-0.2188585,779.67035,781.685,815.5311,794.17584,732.1245,-0.1885986328125,0.0682373046875,0.9940185546875,-6.08612060546875,-2.160797119140625,4.538421630859375,1,1.0,1.0,1.0,1.0,10.00
2024-10-11 20:27:30.430,0.24189383,0.6640009,0.047334436,0.5462478,-0.13496122,0.58789974,-0.2266394,0.3480424,0.561794,0.52986264,-0.15286751,0.62743455,0.48080733,-0.1611961,0.267706,0.13496704,-0.07594183,-0.72902465,-0.35523683,-0.2188585,779.67035,782.49084,813.91943,791.3553,801.4286,-0.1885986328125,0.0682373046875,0.9940185546875,-6.08612060546875,-2.160797119140625,4.538421630859375,1,1.0,1.0,1.0,1.0,10.00
2024-10-11 20:27:30.430,0.24189383,0.6640009,0.047334436,0.5462478,-0.13496122,0.58789974,-0.2266394,0.3480424,0.561794,0.52986264,-0.15286751,0.62743455,0.48080733,-0.1611961,0.267706,0.13496704,-0.07594183,-0.72902465,-0.35523683,-0.2188585,789.7436,783.2967,819.15753,802.6374,779.67035,-0.1885986328125,0.0682373046875,0.9940185546875,-6.08612060546875,-2.160797119140625,4.538421630859375,1,1.0,1.0,1.0,1.0,10.00
2024-10-11 20:27:30.431,0.24189383,0.6640009,0.047334436,0.5462478,-0.13496122,0.58789974,-0.2266394,0.3480424,0.561794,0.52986264,-0.15286751,0.62743455,0.48080733,-0.1611961,0.267706,0.13496704,-0.07594183,-0.72902465,-0.35523683,-0.2188585,793.7729,780.07324,822.381,809.89014,662.8205,-0.1885986328125,0.0682373046875,0.9940185546875,-6.08612060546875,-2.160797119140625,4.538421630859375,1,1.0,1.0,1.0,1.0,10.00
2024-10-11 20:27:30.432,0.24189383,0.6640009,0.047334436,0.5462478,-0.13496122,0.58789974,-0.2266394,0.3480424,0.561794,0.52986264,-0.15286751,0.62743455,0.48080733,-0.1611961,0.267706,0.13496704,-0.07594183,-0.72902465,-0.35523683,-0.2188585,782.8938,781.685,819.15753,801.8315,689.011,-0.1885986328125,0.0682373046875,0.9940185546875,-6.08612060546875,-2.160797119140625,4.538421630859375,1,1.0,1.0,1.0,1.0,10.00
2024-10-11 20:27:30.432,0.24189383,0.6640009,0.047334436,0.5462478,-0.13496122,0.58789974,-0.2266394,0.3480424,0.561794,0.52986264,-0.15286751,0.62743455,0.48080733,-0.1611961,0.267706,0.13496704,-0.07594183,-0.72902465,-0.35523683,-0.2188585,776.8498,779.67035,821.978,803.0403,909.41394,-0.1885986328125,0.0682373046875,0.9940185546875,-6.08612060546875,-2.160797119140625,4.538421630859375,1,1.0,1.0,1.0,1.0,10.00
2024-10-11 20:27:30.461,0.24189383,0.6640009,0.047334436,0.5462478,-0.13496122,0.58789974,-0.2266394,0.3480424,0.561794,0.52986264,-0.15286751,0.62743455,0.48080733,-0.1611961,0.267706,0.13496704,-0.07594183,-0.72902465,-0.35523683,-0.2188585,779.2674,772.8205,824.7985,814.3223,1156.8132,-0.18365478515625,0.055419921875,0.980224609375,-7.394561767578125,-1.48040771484375,7.274932861328125,1,1.0,1.0,1.0,1.0,10.00
2024-10-11 20:27:30.462,0.24189383,0.6640009,0.047334436,0.5462478,-0.13496122,0.58789974,-0.2266394,0.3480424,0.561794,0.52986264,-0.15286751,0.62743455,0.48080733,-0.1611961,0.267706,0.13496704,-0.07594183,-0.72902465,-0.35523683,-0.2188585,788.1319,777.6557,823.5897,817.9487,880.0,-0.18365478515625,0.055419921875,0.980224609375,-7.394561767578125,-1.48040771484375,7.274932861328125,1,1.0,1.0,1.0,1.0,10.00
2024-10-11 20:27:30.463,0.24189383,0.6640009,0.047334436,0.5462478,-0.13496122,0.58789974,-0.2266394,0.3480424,0.561794,0.52986264,-0.15286751,0.62743455,0.48080733,-0.1611961,0.267706,0.13496704,-0.07594183,-0.72902465,-0.35523683,-0.2188585,792.5641,781.28204,821.5751,816.7399,709.5604,-0.18365478515625,0.055419921875,0.980224609375,-7.394561767578125,-1.48040771484375,7.274932861328125,1,1.0,1.0,1.0,1.0,10.00
2024-10-11 20:27:30.464,0.24189383,0.6640009,0.047334436,0.5462478,-0.13496122,0.58789974,-0.2266394,0.3480424,0.561794,0.52986264,-0.15286751,0.62743455,0.48080733,-0.1611961,0.267706,0.13496704,-0.07594183,-0.72902465,-0.35523683,-0.2188585,789.7436,778.86444,813.5165,813.1135,756.7033,-0.18365478515625,0.055419921875,0.980224609375,-7.394561767578125,-1.48040771484375,7.274932861328125,1,1.0,1.0,1.0,1.0,10.00
2024-10-11 20:27:30.464,0.24189383,0.6640009,0.047334436,0.5462478,-0.13496122,0.58789974,-0.2266394,0.3480424,0.561794,0.52986264,-0.15286751,0.62743455,0.48080733,-0.1611961,0.267706,0.13496704,-0.07594183,-0.72902465,-0.35523683,-0.2188585,788.93774,782.49084,805.8608,809.0842,774.0293,-0.18365478515625,0.055419921875,0.980224609375,-7.394561767578125,-1.48040771484375,7.274932861328125,1,1.0,1.0,1.0,1.0,10.00
