TimeStamp,Delta_TP9,Delta_AF7,Delta_AF8,Delta_TP10,Theta_TP9,Theta_AF7,Theta_AF8,Theta_TP10,Alpha_TP9,Alpha_AF7,Alpha_AF8,Alpha_TP10,Beta_TP9,Beta_AF7,Beta_AF8,Beta_TP10,Gamma_TP9,Gamma_AF7,Gamma_AF8,Gamma_TP10,RAW_TP9,RAW_AF7,RAW_AF8,RAW_TP10,AUX_RIGHT,Accelerometer_X,Accelerometer_Y,Accelerometer_Z,Gyro_X,Gyro_Y,Gyro_Z,HeadBandOn,HSI_TP9,HSI_AF7,HSI_AF8,HSI_TP10,Battery,Elements
2024-10-11 20:17:58.916,0.21083759,1.3669397,1.0862851,0.42238423,0.19916807,0.88673496,0.49880466,0.18693659,0.9141424,0.75599825,0.41227615,0.07288527,0.5846316,0.47307786,0.16049446,0.14107443,0.24372447,0.07710346,-0.18056549,-0.113357544,806.6667,799.011,799.011,800.2198,714.3956,-0.200927734375,0.07293701171875,0.98553466796875,0.336456298828125,-2.310333251953125,1.5850830078125,1,2.0,1.0,1.0,2.0,10.00
2024-10-11 20:17:58.918,0.21083759,1.3669397,1.0862851,0.42238423,0.19916807,0.88673496,0.49880466,0.18693659,0.9141424,0.75599825,0.41227615,0.07288527,0.5846316,0.47307786,0.16049446,0.14107443,0.24372447,0.07710346,-0.18056549,-0.113357544,813.5165,794.9817,800.6227,799.41394,637.4359,-0.200927734375,0.07293701171875,0.98553466796875,0.336456298828125,-2.310333251953125,1.5850830078125,1,2.0,1.0,1.0,2.0,10.00
2024-10-11 20:17:58.920,0.21083759,1.3669397,1.0862851,0.42238423,0.19916807,0.88673496,0.49880466,0.18693659,0.9141424,0.75599825,0.41227615,0.07288527,0.5846316,0.47307786,0.16049446,0.14107443,0.24372447,0.07710346,-0.18056549,-0.113357544,813.1135,798.20514,793.36993,791.75824,561.685,-0.200927734375,0.07293701171875,0.98553466796875,0.336456298828125,-2.310333251953125,1.5850830078125,1,2.0,1.0,1.0,2.0,10.00
2024-10-11 20:17:58.922,0.21083759,1.3669397,1.0862851,0.42238423,0.19916807,0.88673496,0.49880466,0.18693659,0.9141424,0.75599825,0.41227615,0.07288527,0.5846316,0.47307786,0.16049446,0.14107443,0.24372447,0.07710346,-0.18056549,-0.113357544,804.65204,799.011,789.7436,789.34064,573.36993,-0.200927734375,0.07293701171875,0.98553466796875,0.336456298828125,-2.310333251953125,1.5850830078125,1,2.0,1.0,1.0,2.0,10.00
2024-10-11 20:17:58.924,0.21083759,1.3669397,1.0862851,0.42238423,0.19916807,0.88673496,0.49880466,0.18693659,0.9141424,0.75599825,0.41227615,0.07288527,0.5846316,0.47307786,0.16049446,0.14107443,0.24372447,0.07710346,-0.18056549,-0.113357544,808.68134,790.14655,794.17584,794.17584,655.16486,-0.200927734375,0.07293701171875,0.98553466796875,0.336456298828125,-2.310333251953125,1.5850830078125,1,2.0,1.0,1.0,2.0,10.00
2024-10-11 20:17:58.926,0.21083759,1.3669397,1.0862851,0.42238423,0.19916807,0.88673496,0.49880466,0.18693659,0.9141424,0.75599825,0.41227615,0.07288527,0.5846316,0.47307786,0.16049446,0.14107443,0.24372447,0.07710346,-0.18056549,-0.113357544,813.91943,792.1612,802.23444,797.3993,792.5641,-0.200927734375,0.07293701171875,0.98553466796875,0.336456298828125,-2.310333251953125,1.5850830078125,1,2.0,1.0,1.0,2.0,10.00
2024-10-11 20:17:58.928,0.21083759,1.3669397,1.0862851,0.42238423,0.19916807,0.88673496,0.49880466,0.18693659,0.9141424,0.75599825,0.41227615,0.07288527,0.5846316,0.47307786,0.16049446,0.14107443,0.24372447,0.07710346,-0.18056549,-0.113357544,809.89014,797.3993,798.60803,809.0842,861.06226,-0.200927734375,0.07293701171875,0.98553466796875,0.336456298828125,-2.310333251953125,1.5850830078125,1,2.0,1.0,1.0,2.0,10.00
2024-10-11 20:17:58.929,0.21083759,1.3669397,1.0862851,0.42238423,0.19916807,0.88673496,0.49880466,0.18693659,0.9141424,0.75599825,0.41227615,0.07288527,0.5846316,0.47307786,0.16049446,0.14107443,0.24372447,0.07710346,-0.18056549,-0.113357544,800.2198,794.9817,798.60803,814.7253,785.31134,-0.200927734375,0.07293701171875,0.98553466796875,0.336456298828125,-2.310333251953125,1.5850830078125,1,2.0,1.0,1.0,2.0,10.00
2024-10-11 20:17:58.930,0.21083759,1.3669397,1.0862851,0.42238423,0.19916807,0.88673496,0.49880466,0.18693659,0.9141424,0.75599825,0.41227615,0.07288527,0.5846316,0.47307786,0.16049446,0.14107443,0.24372447,0.07710346,-0.18056549,-0.113357544,814.7253,789.34064,806.6667,805.8608,886.04395,-0.200927734375,0.07293701171875,0.98553466796875,0.336456298828125,-2.310333251953125,1.5850830078125,1,2.0,1.0,1.0,2.0,10.00
2024-10-11 20:17:58.932,0.21083759,1.3669397,1.0862851,0.42238423,0.19916807,0.88673496,0.49880466,0.18693659,0.9141424,0.75599825,0.41227615,0.07288527,0.5846316,0.47307786,0.16049446,0.14107443,0.24372447,0.07710346,-0.18056549,-0.113357544,813.91943,788.93774,808.68134,805.05493,894.5055,-0.200927734375,0.07293701171875,0.98553466796875,0.336456298828125,-2.310333251953125,1.5850830078125,1,2.0,1.0,1.0,2.0,10.00
2024-10-11 20:17:58.933,0.21083759,1.3669397,1.0862851,0.42238423,0.19916807,0.88673496,0.49880466,0.18693659,0.9141424,0.75599825,0.41227615,0.07288527,0.5846316,0.47307786,0.16049446,0.14107443,0.24372447,0.07710346,-0.18056549,-0.113357544,803.0403,795.38464,794.9817,801.4286,598.3516,-0.200927734375,0.07293701171875,0.98553466796875,0.336456298828125,-2.310333251953125,1.5850830078125,1,2.0,1.0,1.0,2.0,10.00
2024-10-11 20:17:58.934,0.21083759,1.3669397,1.0862851,0.42238423,0.19916807,0.88673496,0.49880466,0.18693659,0.9141424,0.75599825,0.41227615,0.07288527,0.5846316,0.47307786,0.16049446,0.14107443,0.24372447,0.07710346,-0.18056549,-0.113357544,809.0842,796.1905,797.8022,795.78754,574.9817,-0.200927734375,0.07293701171875,0.98553466796875,0.336456298828125,-2.310333251953125,1.5850830078125,1,2.0,1.0,1.0,2.0,10.00
2024-10-11 20:17:59.045,0.21083759,1.3669397,1.0862851,0.42238423,0.19916807,0.88673496,0.49880466,0.18693659,0.9141424,0.75599825,0.41227615,0.07288527,0.5846316,0.47307786,0.16049446,0.14107443,0.24372447,0.07710346,-0.18056549,-0.113357544,805.8608,797.3993,796.99634,806.6667,1048.022,-0.2010498046875,0.07012939453125,0.98480224609375,0.897216796875,-1.024322509765625,2.175750732421875,1,2.0,1.0,1.0,2.0,10.00
2024-10-11 20:17:59.048,0.21083759,1.3669397,1.0862851,0.42238423,0.19916807,0.88673496,0.49880466,0.18693659,0.9141424,0.75599825,0.41227615,0.07288527,0.5846316,0.47307786,0.16049446,0.14107443,0.24372447,0.07710346,-0.18056549,-0.113357544,797.8022,801.4286,793.7729,819.5604,1245.8608,-0.2010498046875,0.07012939453125,0.98480224609375,0.897216796875,-1.024322509765625,2.175750732421875,1,2.0,1.0,1.0,2.0,10.00
2024-10-11 20:17:59.049,0.21083759,1.3669397,1.0862851,0.42238423,0.19916807,0.88673496,0.49880466,0.18693659,0.9141424,0.75599825,0.41227615,0.07288527,0.5846316,0.47307786,0.16049446,0.14107443,0.24372447,0.07710346,-0.18056549,-0.113357544,801.8315,802.6374,802.6374,810.293,821.978,-0.2010498046875,0.07012939453125,0.98480224609375,0.897216796875,-1.024322509765625,2.175750732421875,1,2.0,1.0,1.0,2.0,10.00
2024-10-11 20:17:59.051,0.21083759,1.3669397,1.069643,0.42238423,0.19916807,0.88673496,0.5429126,0.18693659,0.9141424,0.75599825,0.530559,0.07288527,0.5846316,0.47307786,0.16841428,0.14107443,0.24372447,0.07710346,-0.20411573,-0.113357544,801.8315,799.81683,810.696,796.1905,703.1135,-0.2010498046875,0.07012939453125,0.98480224609375,0.897216796875,-1.024322509765625,2.175750732421875,1,2.0,1.0,1.0,2.0,10.00
2024-10-11 20:17:59.055,0.21083759,1.3669397,1.069643,0.42238423,0.19916807,0.88673496,0.5429126,0.18693659,0.9141424,0.75599825,0.530559,0.07288527,0.5846316,0.47307786,0.16841428,0.14107443,0.24372447,0.07710346,-0.20411573,-0.113357544,792.96704,794.17584,792.96704,801.4286,828.4249,-0.2010498046875,0.07012939453125,0.98480224609375,0.897216796875,-1.024322509765625,2.175750732421875,1,2.0,1.0,1.0,2.0,10.00
2024-10-11 20:17:59.056,0.21083759,1.3669397,1.069643,0.42238423,0.19916807,0.88673496,0.5429126,0.18693659,0.9141424,0.75599825,0.530559,0.07288527,0.5846316,0.47307786,0.16841428,0.14107443,0.24372447,0.07710346,-0.20411573,-0.113357544,813.91943,788.5348,793.7729,833.663,855.42126,-0.2010498046875,0.07012939453125,0.98480224609375,0.897216796875,-1.024322509765625,2.175750732421875,1,2.0,1.0,1.0,2.0,10.00
2024-10-11 20:17:59.059,0.21083759,1.3669397,1.069643,0.42238423,0.19916807,0.88673496,0.5429126,0.18693659,0.9141424,0.75599825,0.530559,0.07288527,0.5846316,0.47307786,0.16841428,0.14107443,0.24372447,0.07710346,-0.20411573,-0.113357544,812.3077,800.2198,805.4579,821.978,820.3663,-0.2010498046875,0.07012939453125,0.98480224609375,0.897216796875,-1.024322509765625,2.175750732421875,1,2.0,1.0,1.0,2.0,10.00
2024-10-11 20:17:59.061,0.21083759,1.3669397,1.069643,0.42238423,0.19916807,0.88673496,0.5429126,0.18693659,0.9141424,0.75599825,0.530559,0.07288527,0.5846316,0.47307786,0.16841428,0.14107443,0.24372447,0.07710346,-0.20411573,-0.113357544,783.69965,805.05493,801.8315,792.1612,825.2015,-0.2010498046875,0.07012939453125,0.98480224609375,0.897216796875,-1.024322509765625,2.175750732421875,1,2.0,1.0,1.0,2.0,10.00
2024-10-11 20:17:59.062,0.21083759,1.3669397,1.069643,0.42238423,0.19916807,0.88673496,0.5429126,0.18693659,0.9141424,0.75599825,0.530559,0.07288527,0.5846316,0.47307786,0.16841428,0.14107443,0.24372447,0.07710346,-0.20411573,-0.113357544,786.52014,803.44324,794.57874,790.54944,1065.348,-0.2010498046875,0.07012939453125,0.98480224609375,0.897216796875,-1.024322509765625,2.175750732421875,1,2.0,1.0,1.0,2.0,10.00
2024-10-11 20:17:59.063,0.21083759,1.3669397,1.069643,0.42238423,0.19916807,0.88673496,0.5429126,0.18693659,0.9141424,0.75599825,0.530559,0.07288527,0.5846316,0.47307786,0.16841428,0.14107443,0.24372447,0.07710346,-0.20411573,-0.113357544,770.0,807.0696,796.99634,778.46155,968.24176,-0.2010498046875,0.07012939453125,0.98480224609375,0.897216796875,-1.024322509765625,2.175750732421875,1,2.0,1.0,1.0,2.0,10.00
2024-10-11 20:17:59.065,0.21083759,1.3669397,1.069643,0.42238423,0.19916807,0.88673496,0.5429126,0.18693659,0.9141424,0.75599825,0.530559,0.07288527,0.5846316,0.47307786,0.16841428,0.14107443,0.24372447,0.07710346,-0.20411573,-0.113357544,754.68866,809.4872,797.8022,758.315,650.7326,-0.2010498046875,0.07012939453125,0.98480224609375,0.897216796875,-1.024322509765625,2.175750732421875,1,2.0,1.0,1.0,2.0,10.00
2024-10-11 20:17:59.066,0.21083759,1.3669397,1.069643,0.42238423,0.19916807,0.88673496,0.5429126,0.18693659,0.9141424,0.75599825,0.530559,0.07288527,0.5846316,0.47307786,0.16841428,0.14107443,0.24372447,0.07710346,-0.20411573,-0.113357544,757.50916,811.0989,786.1172,754.68866,589.89014,-0.2010498046875,0.07012939453125,0.98480224609375,0.897216796875,-1.024322509765625,2.175750732421875,1,2.0,1.0,1.0,2.0,10.00
2024-10-11 20:17:59.068,0.21083759,1.3669397,1.069643,0.42238423,0.19916807,0.88673496,0.5429126,0.18693659,0.9141424,0.75599825,0.530559,0.07288527,0.5846316,0.47307786,0.16841428,0.14107443,0.24372447,0.07710346,-0.20411573,-0.113357544,755.89746,804.2491,779.67035,753.0769,863.47986,-0.2010498046875,0.07012939453125,0.98480224609375,0.897216796875,-1.024322509765625,2.175750732421875,1,2.0,1.0,1.0,2.0,10.00
2024-10-11 20:17:59.069,0.21083759,1.3669397,1.069643,0.42238423,0.19916807,0.88673496,0.5429126,0.18693659,0.9141424,0.75599825,0.530559,0.07288527,0.5846316,0.47307786,0.16841428,0.14107443,0.24372447,0.07710346,-0.20411573,-0.113357544,747.4359,806.6667,776.4469,746.2271,924.7253,-0.2010498046875,0.07012939453125,0.98480224609375,0.897216796875,-1.024322509765625,2.175750732421875,1,2.0,1.0,1.0,2.0,10.00
2024-10-11 20:17:59.070,0.21083759,1.3669397,1.069643,0.42238423,0.19916807,0.88673496,0.5429126,0.18693659,0.9141424,0.75599825,0.530559,0.07288527,0.5846316,0.47307786,0.16841428,0.14107443,0.24372447,0.07710346,-0.20411573,-0.113357544,724.87177,809.4872,779.2674,732.9304,730.10986,-0.2010498046875,0.07012939453125,0.98480224609375,0.897216796875,-1.024322509765625,2.175750732421875,1,2.0,1.0,1.0,2.0,10.00
2024-10-11 20:17:59.071,0.21083759,1.3669397,1.069643,0.42238423,0.19916807,0.88673496,0.5429126,0.18693659,0.9141424,0.75599825,0.530559,0.07288527,0.5846316,0.47307786,0.16841428,0.14107443,0.24372447,0.07710346,-0.20411573,-0.113357544,732.1245,811.50183,772.8205,722.4542,866.30035,-0.2010498046875,0.07012939453125,0.98480224609375,0.897216796875,-1.024322509765625,2.175750732421875,1,2.0,1.0,1.0,2.0,10.00
2024-10-11 20:17:59.071,0.21083759,1.3669397,1.069643,0.42238423,0.19916807,0.88673496,0.5429126,0.18693659,0.9141424,0.75599825,0.530559,0.07288527,0.5846316,0.47307786,0.16841428,0.14107443,0.24372447,0.07710346,-0.20411573,-0.113357544,734.5421,817.9487,768.3883,718.4249,988.3883,-0.2010498046875,0.07012939453125,0.98480224609375,0.897216796875,-1.024322509765625,2.175750732421875,1,2.0,1.0,1.0,2.0,10.00
2024-10-11 20:17:59.072,0.21083759,1.3669397,1.069643,0.42238423,0.19916807,0.88673496,0.5429126,0.18693659,0.9141424,0.75599825,0.530559,0.07288527,0.5846316,0.47307786,0.16841428,0.14107443,0.24372447,0.07710346,-0.20411573,-0.113357544,729.707,817.1429,775.2381,726.08057,1022.6374,-0.2010498046875,0.07012939453125,0.98480224609375,0.897216796875,-1.024322509765625,2.175750732421875,1,2.0,1.0,1.0,2.0,10.00
2024-10-11 20:17:59.073,0.21083759,1.3669397,1.069643,0.42238423,0.19916807,0.88673496,0.5429126,0.18693659,0.9141424,0.75599825,0.530559,0.07288527,0.5846316,0.47307786,0.16841428,0.14107443,0.24372447,0.07710346,-0.20411573,-0.113357544,741.39197,813.5165,782.49084,733.73627,833.663,-0.2010498046875,0.07012939453125,0.98480224609375,0.897216796875,-1.024322509765625,2.175750732421875,1,2.0,1.0,1.0,2.0,10.00
2024-10-11 20:17:59.074,0.21083759,1.3669397,1.069643,0.42238423,0.19916807,0.88673496,0.5429126,0.18693659,0.9141424,0.75599825,0.530559,0.07288527,0.5846316,0.47307786,0.16841428,0.14107443,0.24372447,0.07710346,-0.20411573,-0.113357544,736.9597,812.3077,787.326,736.55676,670.07324,-0.2010498046875,0.07012939453125,0.98480224609375,0.897216796875,-1.024322509765625,2.175750732421875,1,2.0,1.0,1.0,2.0,10.00
2024-10-11 20:17:59.075,0.21083759,1.3669397,1.069643,0.42238423,0.19916807,0.88673496,0.5429126,0.18693659,0.9141424,0.75599825,0.530559,0.07288527,0.5846316,0.47307786,0.16841428,0.14107443,0.24372447,0.07710346,-0.20411573,-0.113357544,756.7033,811.9048,775.64105,754.2857,857.4359,-0.2010498046875,0.07012939453125,0.98480224609375,0.897216796875,-1.024322509765625,2.175750732421875,1,2.0,1.0,1.0,2.0,10.00
2024-10-11 20:17:59.076,0.21083759,1.3669397,1.069643,0.42238423,0.19916807,0.88673496,0.5429126,0.18693659,0.9141424,0.75599825,0.530559,0.07288527,0.5846316,0.47307786,0.16841428,0.14107443,0.24372447,0.07710346,-0.20411573,-0.113357544,776.8498,812.3077,786.9231,765.16486,674.90845,-0.2010498046875,0.07012939453125,0.98480224609375,0.897216796875,-1.024322509765625,2.175750732421875,1,2.0,1.0,1.0,2.0,10.00
2024-10-11 20:17:59.077,0.21083759,1.3669397,1.069643,0.42238423,0.19916807,0.88673496,0.5429126,0.18693659,0.9141424,0.75599825,0.530559,0.07288527,0.5846316,0.47307786,0.16841428,0.14107443,0.24372447,0.07710346,-0.20411573,-0.113357544,767.98535,809.89014,793.36993,761.9414,563.69965,-0.2010498046875,0.07012939453125,0.98480224609375,0.897216796875,-1.024322509765625,2.175750732421875,1,2.0,1.0,1.0,2.0,10.00
2024-10-11 20:17:59.078,0.21083759,1.3669397,1.069643,0.42238423,0.19916807,0.88673496,0.5429126,0.18693659,0.9141424,0.75599825,0.530559,0.07288527,0.5846316,0.47307786,0.16841428,0.14107443,0.24372447,0.07710346,-0.20411573,-0.113357544,767.98535,804.65204,792.5641,753.8828,644.2857,-0.2010498046875,0.07012939453125,0.98480224609375,0.897216796875,-1.024322509765625,2.175750732421875,1,2.0,1.0,1.0,2.0,10.00
2024-10-11 20:17:59.080,0.21083759,1.3669397,1.069643,0.42238423,0.19916807,0.88673496,0.5429126,0.18693659,0.9141424,0.75599825,0.530559,0.07288527,0.5846316,0.47307786,0.16841428,0.14107443,0.24372447,0.07710346,-0.20411573,-0.113357544,773.22345,803.8461,792.5641,751.4652,539.12085,-0.2012939453125,0.0753173828125,0.98651123046875,0.55328369140625,-1.2860107421875,2.429962158203125,1,2.0,1.0,1.0,2.0,10.00
2024-10-11 20:17:59.081,0.21083759,1.3669397,1.069643,0.42238423,0.19916807,0.88673496,0.5429126,0.18693659,0.9141424,0.75599825,0.530559,0.07288527,0.5846316,0.47307786,0.16841428,0.14107443,0.24372447,0.07710346,-0.20411573,-0.113357544,774.43225,808.2784,786.52014,769.19415,519.7802,-0.2012939453125,0.0753173828125,0.98651123046875,0.55328369140625,-1.2860107421875,2.429962158203125,1,2.0,1.0,1.0,2.0,10.00
2024-10-11 20:17:59.081,0.21083759,1.3669397,1.069643,0.42238423,0.19916807,0.88673496,0.5429126,0.18693659,0.9141424,0.75599825,0.530559,0.07288527,0.5846316,0.47307786,0.16841428,0.14107443,0.24372447,0.07710346,-0.20411573,-0.113357544,773.22345,811.50183,786.52014,778.0586,689.81683,-0.2012939453125,0.0753173828125,0.98651123046875,0.55328369140625,-1.2860107421875,2.429962158203125,1,2.0,1.0,1.0,2.0,10.00
2024-10-11 20:17:59.082,0.21083759,1.3669397,1.069643,0.42238423,0.19916807,0.88673496,0.5429126,0.18693659,0.9141424,0.75599825,0.530559,0.07288527,0.5846316,0.47307786,0.16841428,0.14107443,0.24372447,0.07710346,-0.20411573,-0.113357544,775.2381,809.0842,799.81683,774.83514,734.1392,-0.2012939453125,0.0753173828125,0.98651123046875,0.55328369140625,-1.2860107421875,2.429962158203125,1,2.0,1.0,1.0,2.0,10.00
2024-10-11 20:17:59.084,0.21083759,1.3669397,1.069643,0.42238423,0.19916807,0.88673496,0.5429126,0.18693659,0.9141424,0.75599825,0.530559,0.07288527,0.5846316,0.47307786,0.16841428,0.14107443,0.24372447,0.07710346,-0.20411573,-0.113357544,779.2674,802.6374,787.72894,776.04395,609.6337,-0.2012939453125,0.0753173828125,0.98651123046875,0.55328369140625,-1.2860107421875,2.429962158203125,1,2.0,1.0,1.0,2.0,10.00
2024-10-11 20:17:59.085,0.21083759,1.3669397,1.0480845,0.42238423,0.19916807,0.88673496,0.5689521,0.18693659,0.9141424,0.75599825,0.57146263,0.07288527,0.5846316,0.47307786,0.1664687,0.14107443,0.24372447,0.07710346,-0.22440013,-0.113357544,770.0,803.8461,781.28204,784.90845,647.9121,-0.2012939453125,0.0753173828125,0.98651123046875,0.55328369140625,-1.2860107421875,2.429962158203125,1,2.0,1.0,1.0,2.0,10.00
2024-10-11 20:17:59.090,0.21083759,1.3669397,1.0480845,0.42238423,0.19916807,0.88673496,0.5689521,0.18693659,0.9141424,0.75599825,0.57146263,0.07288527,0.5846316,0.47307786,0.1664687,0.14107443,0.24372447,0.07710346,-0.22440013,-0.113357544,765.16486,797.8022,794.57874,789.34064,838.49817,-0.2012939453125,0.0753173828125,0.98651123046875,0.55328369140625,-1.2860107421875,2.429962158203125,1,2.0,1.0,1.0,2.0,10.00
2024-10-11 20:17:59.092,0.21083759,1.3669397,1.0480845,0.42238423,0.19916807,0.88673496,0.5689521,0.18693659,0.9141424,0.75599825,0.57146263,0.07288527,0.5846316,0.47307786,0.1664687,0.14107443,0.24372447,0.07710346,-0.22440013,-0.113357544,775.64105,794.17584,790.9524,797.8022,1220.0732,-0.2012939453125,0.0753173828125,0.98651123046875,0.55328369140625,-1.2860107421875,2.429962158203125,1,2.0,1.0,1.0,2.0,10.00
2024-10-11 20:17:59.093,0.21083759,1.3669397,1.0480845,0.42238423,0.19916807,0.88673496,0.5689521,0.18693659,0.9141424,0.75599825,0.57146263,0.07288527,0.5846316,0.47307786,0.1664687,0.14107443,0.24372447,0.07710346,-0.22440013,-0.113357544,767.98535,803.8461,796.5934,791.3553,1023.44324,-0.2012939453125,0.0753173828125,0.98651123046875,0.55328369140625,-1.2860107421875,2.429962158203125,1,2.0,1.0,1.0,2.0,10.00
2024-10-11 20:17:59.093,0.21083759,1.3669397,1.0480845,0.42238423,0.19916807,0.88673496,0.5689521,0.18693659,0.9141424,0.75599825,0.57146263,0.07288527,0.5846316,0.47307786,0.1664687,0.14107443,0.24372447,0.07710346,-0.22440013,-0.113357544,757.50916,804.2491,799.011,767.98535,552.8205,-0.2012939453125,0.0753173828125,0.98651123046875,0.55328369140625,-1.2860107421875,2.429962158203125,1,2.0,1.0,1.0,2.0,10.00
2024-10-11 20:17:59.094,0.21083759,1.3669397,1.0480845,0.42238423,0.19916807,0.88673496,0.5689521,0.18693659,0.9141424,0.75599825,0.57146263,0.07288527,0.5846316,0.47307786,0.1664687,0.14107443,0.24372447,0.07710346,-0.22440013,-0.113357544,768.3883,799.41394,792.96704,766.77655,622.9304,-0.2012939453125,0.0753173828125,0.98651123046875,0.55328369140625,-1.2860107421875,2.429962158203125,1,2.0,1.0,1.0,2.0,10.00
2024-10-11 20:17:59.095,0.21083759,1.3669397,1.0480845,0.42238423,0.19916807,0.88673496,0.5689521,0.18693659,0.9141424,0.75599825,0.57146263,0.07288527,0.5846316,0.47307786,0.1664687,0.14107443,0.24372447,0.07710346,-0.22440013,-0.113357544,780.07324,798.60803,792.5641,788.93774,764.35895,-0.2012939453125,0.0753173828125,0.98651123046875,0.55328369140625,-1.2860107421875,2.429962158203125,1,2.0,1.0,1.0,2.0,10.00
2024-10-11 20:17:59.133,0.21083759,1.3669397,1.0480845,0.42238423,0.19916807,0.88673496,0.5689521,0.18693659,0.9141424,0.75599825,0.57146263,0.07288527,0.5846316,0.47307786,0.1664687,0.14107443,0.24372447,0.07710346,-0.22440013,-0.113357544,777.6557,799.81683,802.6374,786.9231,701.9048,-0.197998046875,0.07720947265625,0.97918701171875,0.2691650390625,-2.25799560546875,2.25799560546875,1,2.0,1.0,1.0,2.0,10.00
2024-10-11 20:17:59.134,0.21083759,1.3669397,1.0480845,0.42238423,0.19916807,0.88673496,0.5689521,0.18693659,0.9141424,0.75599825,0.57146263,0.07288527,0.5846316,0.47307786,0.1664687,0.14107443,0.24372447,0.07710346,-0.22440013,-0.113357544,781.28204,805.8608,794.17584,780.4762,639.85345,-0.197998046875,0.07720947265625,0.97918701171875,0.2691650390625,-2.25799560546875,2.25799560546875,1,2.0,1.0,1.0,2.0,10.00
2024-10-11 20:17:59.135,0.21083759,1.3669397,1.0480845,0.42238423,0.19916807,0.88673496,0.5689521,0.18693659,0.9141424,0.75599825,0.57146263,0.07288527,0.5846316,0.47307786,0.1664687,0.14107443,0.24372447,0.07710346,-0.22440013,-0.113357544,782.8938,804.2491,794.17584,782.49084,769.59705,-0.197998046875,0.07720947265625,0.97918701171875,0.2691650390625,-2.25799560546875,2.25799560546875,1,2.0,1.0,1.0,2.0,10.00
2024-10-11 20:17:59.136,0.21083759,1.3669397,1.0480845,0.42238423,0.19916807,0.88673496,0.5689521,0.18693659,0.9141424,0.75599825,0.57146263,0.07288527,0.5846316,0.47307786,0.1664687,0.14107443,0.24372447,0.07710346,-0.22440013,-0.113357544,781.685,802.23444,800.6227,786.1172,855.0183,-0.197998046875,0.07720947265625,0.97918701171875,0.2691650390625,-2.25799560546875,2.25799560546875,1,2.0,1.0,1.0,2.0,10.00
2024-10-11 20:17:59.137,0.21083759,1.3669397,1.0480845,0.42238423,0.19916807,0.88673496,0.5689521,0.18693659,0.9141424,0.75599825,0.57146263,0.07288527,0.5846316,0.47307786,0.1664687,0.14107443,0.24372447,0.07710346,-0.22440013,-0.113357544,782.0879,805.8608,796.1905,790.9524,714.3956,-0.197998046875,0.07720947265625,0.97918701171875,0.2691650390625,-2.25799560546875,2.25799560546875,1,2.0,1.0,1.0,2.0,10.00
2024-10-11 20:17:59.137,0.21083759,1.3669397,1.0480845,0.42238423,0.19916807,0.88673496,0.5689521,0.18693659,0.9141424,0.75599825,0.57146263,0.07288527,0.5846316,0.47307786,0.1664687,0.14107443,0.24372447,0.07710346,-0.22440013,-0.113357544,776.04395,796.5934,803.44324,784.10254,600.7692,-0.197998046875,0.07720947265625,0.97918701171875,0.2691650390625,-2.25799560546875,2.25799560546875,1,2.0,1.0,1.0,2.0,10.00
2024-10-11 20:17:59.138,0.21083759,1.3669397,1.0480845,0.42238423,0.19916807,0.88673496,0.5689521,0.18693659,0.9141424,0.75599825,0.57146263,0.07288527,0.5846316,0.47307786,0.1664687,0.14107443,0.24372447,0.07710346,-0.22440013,-0.113357544,781.685,799.41394,792.5641,790.9524,871.53845,-0.197998046875,0.07720947265625,0.97918701171875,0.2691650390625,-2.25799560546875,2.25799560546875,1,2.0,1.0,1.0,2.0,10.00
2024-10-11 20:17:59.138,0.21083759,1.3669397,1.0480845,0.42238423,0.19916807,0.88673496,0.5689521,0.18693659,0.9141424,0.75599825,0.57146263,0.07288527,0.5846316,0.47307786,0.1664687,0.14107443,0.24372447,0.07710346,-0.22440013,-0.113357544,782.49084,803.0403,787.72894,801.02563,1096.7766,-0.197998046875,0.07720947265625,0.97918701171875,0.2691650390625,-2.25799560546875,2.25799560546875,1,2.0,1.0,1.0,2.0,10.00
2024-10-11 20:17:59.139,0.21083759,1.3669397,1.0480845,0.42238423,0.19916807,0.88673496,0.5689521,0.18693659,0.9141424,0.75599825,0.57146263,0.07288527,0.5846316,0.47307786,0.1664687,0.14107443,0.24372447,0.07710346,-0.22440013,-0.113357544,781.28204,797.8022,809.0842,790.14655,746.2271,-0.197998046875,0.07720947265625,0.97918701171875,0.2691650390625,-2.25799560546875,2.25799560546875,1,2.0,1.0,1.0,2.0,10.00
2024-10-11 20:17:59.139,0.21083759,1.3669397,1.0480845,0.42238423,0.19916807,0.88673496,0.5689521,0.18693659,0.9141424,0.75599825,0.57146263,0.07288527,0.5846316,0.47307786,0.1664687,0.14107443,0.24372447,0.07710346,-0.22440013,-0.113357544,787.326,797.3993,804.65204,786.1172,573.36993,-0.197998046875,0.07720947265625,0.97918701171875,0.2691650390625,-2.25799560546875,2.25799560546875,1,2.0,1.0,1.0,2.0,10.00
2024-10-11 20:17:59.140,0.21083759,1.3669397,1.0480845,0.42238423,0.19916807,0.88673496,0.5689521,0.18693659,0.9141424,0.75599825,0.57146263,0.07288527,0.5846316,0.47307786,0.1664687,0.14107443,0.24372447,0.07710346,-0.22440013,-0.113357544,786.52014,803.44324,798.20514,788.5348,763.95605,-0.197998046875,0.07720947265625,0.97918701171875,0.2691650390625,-2.25799560546875,2.25799560546875,1,2.0,1.0,1.0,2.0,10.00
2024-10-11 20:17:59.141,0.21083759,1.3669397,1.0480845,0.42238423,0.19916807,0.88673496,0.5689521,0.18693659,0.9141424,0.75599825,0.57146263,0.07288527,0.5846316,0.47307786,0.1664687,0.14107443,0.24372447,0.07710346,-0.22440013,-0.113357544,792.1612,808.68134,798.60803,790.9524,847.3626,-0.197998046875,0.07720947265625,0.97918701171875,0.2691650390625,-2.25799560546875,2.25799560546875,1,2.0,1.0,1.0,2.0,10.00
2024-10-11 20:17:59.142,0.21083759,1.3669397,1.0480845,0.42238423,0.19916807,0.88673496,0.5689521,0.18693659,0.9141424,0.75599825,0.57146263,0.07288527,0.5846316,0.47307786,0.1664687,0.14107443,0.24372447,0.07710346,-0.22440013,-0.113357544,798.60803,806.6667,798.20514,798.60803,679.7436,-0.20257568359375,0.07855224609375,0.98492431640625,0.01495361328125,-2.130889892578125,1.383209228515625,1,2.0,1.0,1.0,2.0,10.00
2024-10-11 20:17:59.143,0.21083759,1.3669397,1.0480845,0.42238423,0.19916807,0.88673496,0.5689521,0.18693659,0.9141424,0.75599825,0.57146263,0.07288527,0.5846316,0.47307786,0.1664687,0.14107443,0.24372447,0.07710346,-0.22440013,-0.113357544,796.5934,804.2491,801.4286,796.5934,595.12823,-0.20257568359375,0.07855224609375,0.98492431640625,0.01495361328125,-2.130889892578125,1.383209228515625,1,2.0,1.0,1.0,2.0,10.00
2024-10-11 20:17:59.144,0.21083759,1.3669397,1.0480845,0.42238423,0.19916807,0.88673496,0.5689521,0.18693659,0.9141424,0.75599825,0.57146263,0.07288527,0.5846316,0.47307786,0.1664687,0.14107443,0.24372447,0.07710346,-0.22440013,-0.113357544,791.75824,801.8315,808.68134,799.41394,728.9011,-0.20257568359375,0.07855224609375,0.98492431640625,0.01495361328125,-2.130889892578125,1.383209228515625,1,2.0,1.0,1.0,2.0,10.00
2024-10-11 20:17:59.144,0.21083759,1.3669397,1.0480845,0.42238423,0.19916807,0.88673496,0.5689521,0.18693659,0.9141424,0.75599825,0.57146263,0.07288527,0.5846316,0.47307786,0.1664687,0.14107443,0.24372447,0.07710346,-0.22440013,-0.113357544,794.17584,803.0403,796.99634,808.2784,789.34064,-0.20257568359375,0.07855224609375,0.98492431640625,0.01495361328125,-2.130889892578125,1.383209228515625,1,2.0,1.0,1.0,2.0,10.00
2024-10-11 20:17:59.145,0.21083759,1.3669397,1.0480845,0.42238423,0.19916807,0.88673496,0.5689521,0.18693659,0.9141424,0.75599825,0.57146263,0.07288527,0.5846316,0.47307786,0.1664687,0.14107443,0.24372447,0.07710346,-0.22440013,-0.113357544,797.8022,805.05493,788.1319,806.26373,661.2088,-0.20257568359375,0.07855224609375,0.98492431640625,0.01495361328125,-2.130889892578125,1.383209228515625,1,2.0,1.0,1.0,2.0,10.00
2024-10-11 20:17:59.146,0.21083759,1.3669397,1.0480845,0.42238423,0.19916807,0.88673496,0.5689521,0.18693659,0.9141424,0.75599825,0.57146263,0.07288527,0.5846316,0.47307786,0.1664687,0.14107443,0.24372447,0.07710346,-0.22440013,-0.113357544,803.0403,803.8461,792.5641,800.6227,751.8681,-0.20257568359375,0.07855224609375,0.98492431640625,0.01495361328125,-2.130889892578125,1.383209228515625,1,2.0,1.0,1.0,2.0,10.00
2024-10-11 20:17:59.146,0.21083759,1.3669397,1.0480845,0.42238423,0.19916807,0.88673496,0.5689521,0.18693659,0.9141424,0.75599825,0.57146263,0.07288527,0.5846316,0.47307786,0.1664687,0.14107443,0.24372447,0.07710346,-0.22440013,-0.113357544,802.23444,798.60803,806.26373,794.9817,1060.1099,-0.20257568359375,0.07855224609375,0.98492431640625,0.01495361328125,-2.130889892578125,1.383209228515625,1,2.0,1.0,1.0,2.0,10.00
2024-10-11 20:17:59.147,0.21083759,1.3669397,1.0222133,0.42238423,0.19916807,0.88673496,0.5710728,0.18693659,0.9141424,0.75599825,0.57146263,0.07288527,0.5846316,0.47307786,0.16295202,0.14107443,0.24372447,0.07710346,-0.23527348,-0.113357544,806.6667,796.99634,808.2784,796.5934,921.9048,-0.20257568359375,0.07855224609375,0.98492431640625,0.01495361328125,-2.130889892578125,1.383209228515625,1,2.0,1.0,1.0,2.0,10.00
2024-10-11 20:17:59.151,0.21083759,1.3669397,1.0222133,0.42238423,0.19916807,0.88673496,0.5710728,0.18693659,0.9141424,0.75599825,0.57146263,0.07288527,0.5846316,0.47307786,0.16295202,0.14107443,0.24372447,0.07710346,-0.23527348,-0.113357544,811.50183,802.23444,790.54944,803.8461,670.87915,-0.20257568359375,0.07855224609375,0.98492431640625,0.01495361328125,-2.130889892578125,1.383209228515625,1,2.0,1.0,1.0,2.0,10.00
2024-10-11 20:17:59.151,0.21083759,1.3669397,1.0222133,0.42238423,0.19916807,0.88673496,0.5710728,0.18693659,0.9141424,0.75599825,0.57146263,0.07288527,0.5846316,0.47307786,0.16295202,0.14107443,0.24372447,0.07710346,-0.23527348,-0.113357544,797.3993,802.23444,786.9231,807.0696,691.4286,-0.20257568359375,0.07855224609375,0.98492431640625,0.01495361328125,-2.130889892578125,1.383209228515625,1,2.0,1.0,1.0,2.0,10.00
2024-10-11 20:17:59.152,0.21083759,1.3669397,1.0222133,0.42238423,0.19916807,0.88673496,0.5710728,0.18693659,0.9141424,0.75599825,0.57146263,0.07288527,0.5846316,0.47307786,0.16295202,0.14107443,0.24372447,0.07710346,-0.23527348,-0.113357544,800.2198,794.57874,803.0403,807.47253,891.28204,-0.20257568359375,0.07855224609375,0.98492431640625,0.01495361328125,-2.130889892578125,1.383209228515625,1,2.0,1.0,1.0,2.0,10.00
2024-10-11 20:17:59.153,0.21083759,1.3669397,1.0222133,0.42238423,0.19916807,0.88673496,0.5710728,0.18693659,0.9141424,0.75599825,0.57146263,0.07288527,0.5846316,0.47307786,0.16295202,0.14107443,0.24372447,0.07710346,-0.23527348,-0.113357544,802.23444,796.5934,805.8608,799.81683,892.0879,-0.20257568359375,0.07855224609375,0.98492431640625,0.01495361328125,-2.130889892578125,1.383209228515625,1,2.0,1.0,1.0,2.0,10.00
2024-10-11 20:17:59.153,0.21083759,1.3669397,1.0222133,0.42238423,0.19916807,0.88673496,0.5710728,0.18693659,0.9141424,0.75599825,0.57146263,0.07288527,0.5846316,0.47307786,0.16295202,0.14107443,0.24372447,0.07710346,-0.23527348,-0.113357544,795.38464,798.20514,801.8315,794.57874,803.8461,-0.2059326171875,0.0838623046875,0.9923095703125,0.725250244140625,-2.340240478515625,0.770111083984375,1,2.0,1.0,1.0,2.0,10.00
2024-10-11 20:17:59.154,0.21083759,1.3669397,1.0222133,0.42238423,0.19916807,0.88673496,0.5710728,0.18693659,0.9141424,0.75599825,0.57146263,0.07288527,0.5846316,0.47307786,0.16295202,0.14107443,0.24372447,0.07710346,-0.23527348,-0.113357544,794.17584,795.38464,800.6227,796.1905,788.5348,-0.2059326171875,0.0838623046875,0.9923095703125,0.725250244140625,-2.340240478515625,0.770111083984375,1,2.0,1.0,1.0,2.0,10.00
2024-10-11 20:17:59.154,0.21083759,1.3669397,1.0222133,0.42238423,0.19916807,0.88673496,0.5710728,0.18693659,0.9141424,0.75599825,0.57146263,0.07288527,0.5846316,0.47307786,0.16295202,0.14107443,0.24372447,0.07710346,-0.23527348,-0.113357544,784.5055,801.02563,802.23444,786.52014,853.4066,-0.2059326171875,0.0838623046875,0.9923095703125,0.725250244140625,-2.340240478515625,0.770111083984375,1,2.0,1.0,1.0,2.0,10.00
2024-10-11 20:17:59.155,0.21083759,1.3669397,1.0222133,0.42238423,0.19916807,0.88673496,0.5710728,0.18693659,0.9141424,0.75599825,0.57146263,0.07288527,0.5846316,0.47307786,0.16295202,0.14107443,0.24372447,0.07710346,-0.23527348,-0.113357544,792.1612,805.05493,802.6374,791.3553,777.6557,-0.2059326171875,0.0838623046875,0.9923095703125,0.725250244140625,-2.340240478515625,0.770111083984375,1,2.0,1.0,1.0,2.0,10.00
2024-10-11 20:17:59.156,0.21083759,1.3669397,1.0222133,0.42238423,0.19916807,0.88673496,0.5710728,0.18693659,0.9141424,0.75599825,0.57146263,0.07288527,0.5846316,0.47307786,0.16295202,0.14107443,0.24372447,0.07710346,-0.23527348,-0.113357544,798.20514,801.02563,794.17584,801.4286,720.4396,-0.2059326171875,0.0838623046875,0.9923095703125,0.725250244140625,-2.340240478515625,0.770111083984375,1,2.0,1.0,1.0,2.0,10.00
2024-10-11 20:17:59.156,0.21083759,1.3669397,1.0222133,0.42238423,0.19916807,0.88673496,0.5710728,0.18693659,0.9141424,0.75599825,0.57146263,0.07288527,0.5846316,0.47307786,0.16295202,0.14107443,0.24372447,0.07710346,-0.23527348,-0.113357544,795.38464,793.36993,795.78754,801.4286,949.707,-0.2059326171875,0.0838623046875,0.9923095703125,0.725250244140625,-2.340240478515625,0.770111083984375,1,2.0,1.0,1.0,2.0,10.00
2024-10-11 20:17:59.157,0.21083759,1.3669397,1.0222133,0.42238423,0.19916807,0.88673496,0.5710728,0.18693659,0.9141424,0.75599825,0.57146263,0.07288527,0.5846316,0.47307786,0.16295202,0.14107443,0.24372447,0.07710346,-0.23527348,-0.113357544,798.60803,795.78754,794.9817,804.2491,1119.3407,-0.2059326171875,0.0838623046875,0.9923095703125,0.725250244140625,-2.340240478515625,0.770111083984375,1,2.0,1.0,1.0,2.0,10.00
2024-10-11 20:17:59.158,0.21083759,1.3669397,1.0222133,0.42238423,0.19916807,0.88673496,0.5710728,0.18693659,0.9141424,0.75599825,0.57146263,0.07288527,0.5846316,0.47307786,0.16295202,0.14107443,0.24372447,0.07710346,-0.23527348,-0.113357544,797.3993,801.4286,796.99634,798.60803,827.2161,-0.2059326171875,0.0838623046875,0.9923095703125,0.725250244140625,-2.340240478515625,0.770111083984375,1,2.0,1.0,1.0,2.0,10.00
2024-10-11 20:17:59.159,0.21083759,1.3669397,1.0222133,0.42238423,0.19916807,0.88673496,0.5710728,0.18693659,0.9141424,0.75599825,0.57146263,0.07288527,0.5846316,0.47307786,0.16295202,0.14107443,0.24372447,0.07710346,-0.23527348,-0.113357544,797.8022,804.65204,800.6227,798.60803,790.54944,-0.2059326171875,0.0838623046875,0.9923095703125,0.725250244140625,-2.340240478515625,0.770111083984375,1,2.0,1.0,1.0,2.0,10.00
2024-10-11 20:17:59.160,0.21083759,1.3669397,1.0222133,0.42238423,0.19916807,0.88673496,0.5710728,0.18693659,0.9141424,0.75599825,0.57146263,0.07288527,0.5846316,0.47307786,0.16295202,0.14107443,0.24372447,0.07710346,-0.23527348,-0.113357544,801.02563,799.011,804.65204,805.05493,972.674,-0.2059326171875,0.0838623046875,0.9923095703125,0.725250244140625,-2.340240478515625,0.770111083984375,1,2.0,1.0,1.0,2.0,10.00
2024-10-11 20:17:59.160,0.21083759,1.3669397,1.0222133,0.42238423,0.19916807,0.88673496,0.5710728,0.18693659,0.9141424,0.75599825,0.57146263,0.07288527,0.5846316,0.47307786,0.16295202,0.14107443,0.24372447,0.07710346,-0.23527348,-0.113357544,804.65204,790.9524,799.011,813.91943,850.58606,-0.2059326171875,0.0838623046875,0.9923095703125,0.725250244140625,-2.340240478515625,0.770111083984375,1,2.0,1.0,1.0,2.0,10.00
2024-10-11 20:17:59.161,0.21083759,1.3669397,1.0222133,0.42238423,0.19916807,0.88673496,0.5710728,0.18693659,0.9141424,0.75599825,0.57146263,0.07288527,0.5846316,0.47307786,0.16295202,0.14107443,0.24372447,0.07710346,-0.23527348,-0.113357544,799.81683,793.36993,802.6374,811.0989,658.3883,-0.2059326171875,0.0838623046875,0.9923095703125,0.725250244140625,-2.340240478515625,0.770111083984375,1,2.0,1.0,1.0,2.0,10.00
2024-10-11 20:17:59.248,0.21083759,1.3669397,1.0222133,0.42238423,0.19916807,0.88673496,0.5710728,0.18693659,0.9141424,0.75599825,0.57146263,0.07288527,0.5846316,0.47307786,0.16295202,0.14107443,0.24372447,0.07710346,-0.23527348,-0.113357544,784.5055,795.38464,803.8461,800.6227,705.5311,-0.19635009765625,0.08526611328125,0.9818115234375,0.478515625,-2.1533203125,-0.82244873046875,1,2.0,1.0,1.0,2.0,10.00
2024-10-11 20:17:59.248,0.21083759,1.3669397,1.0222133,0.42238423,0.19916807,0.88673496,0.5710728,0.18693659,0.9141424,0.75599825,0.57146263,0.07288527,0.5846316,0.47307786,0.16295202,0.14107443,0.24372447,0.07710346,-0.23527348,-0.113357544,788.5348,794.57874,798.60803,806.26373,809.4872,-0.19635009765625,0.08526611328125,0.9818115234375,0.478515625,-2.1533203125,-0.82244873046875,1,2.0,1.0,1.0,2.0,10.00
2024-10-11 20:17:59.249,0.21083759,1.3669397,1.0222133,0.42238423,0.19916807,0.88673496,0.5710728,0.18693659,0.9141424,0.75599825,0.57146263,0.07288527,0.5846316,0.47307786,0.16295202,0.14107443,0.24372447,0.07710346,-0.23527348,-0.113357544,792.5641,805.05493,802.23444,805.4579,786.9231,-0.19635009765625,0.08526611328125,0.9818115234375,0.478515625,-2.1533203125,-0.82244873046875,1,2.0,1.0,1.0,2.0,10.00
2024-10-11 20:17:59.250,0.21083759,1.3669397,1.0222133,0.42238423,0.19916807,0.88673496,0.5710728,0.18693659,0.9141424,0.75599825,0.57146263,0.07288527,0.5846316,0.47307786,0.16295202,0.14107443,0.24372447,0.07710346,-0.23527348,-0.113357544,791.75824,797.3993,796.5934,796.5934,618.9011,-0.19635009765625,0.08526611328125,0.9818115234375,0.478515625,-2.1533203125,-0.82244873046875,1,2.0,1.0,1.0,2.0,10.00
2024-10-11 20:17:59.251,0.21083759,1.3669397,1.0222133,0.42238423,0.19916807,0.88673496,0.5710728,0.18693659,0.9141424,0.75599825,0.57146263,0.07288527,0.5846316,0.47307786,0.16295202,0.14107443,0.24372447,0.07710346,-0.23527348,-0.113357544,817.5458,791.3553,801.8315,824.3956,682.5641,-0.19635009765625,0.08526611328125,0.9818115234375,0.478515625,-2.1533203125,-0.82244873046875,1,2.0,1.0,1.0,2.0,10.00
2024-10-11 20:17:59.251,0.21083759,1.3669397,1.0222133,0.42238423,0.19916807,0.88673496,0.5710728,0.18693659,0.9141424,0.75599825,0.57146263,0.07288527,0.5846316,0.47307786,0.16295202,0.14107443,0.24372447,0.07710346,-0.23527348,-0.113357544,814.7253,795.38464,809.0842,835.2747,1070.1831,-0.19635009765625,0.08526611328125,0.9818115234375,0.478515625,-2.1533203125,-0.82244873046875,1,2.0,1.0,1.0,2.0,10.00
2024-10-11 20:17:59.252,0.21083759,1.3669397,1.0222133,0.42238423,0.19916807,0.88673496,0.5710728,0.18693659,0.9141424,0.75599825,0.57146263,0.07288527,0.5846316,0.47307786,0.16295202,0.14107443,0.24372447,0.07710346,-0.23527348,-0.113357544,781.28204,800.2198,807.47253,790.9524,1019.41394,-0.19635009765625,0.08526611328125,0.9818115234375,0.478515625,-2.1533203125,-0.82244873046875,1,2.0,1.0,1.0,2.0,10.00
2024-10-11 20:17:59.252,0.21083759,1.3669397,1.0222133,0.42238423,0.19916807,0.88673496,0.5710728,0.18693659,0.9141424,0.75599825,0.57146263,0.07288527,0.5846316,0.47307786,0.16295202,0.14107443,0.24372447,0.07710346,-0.23527348,-0.113357544,781.28204,806.26373,804.2491,781.685,736.9597,-0.19635009765625,0.08526611328125,0.9818115234375,0.478515625,-2.1533203125,-0.82244873046875,1,2.0,1.0,1.0,2.0,10.00
2024-10-11 20:17:59.253,0.21083759,1.3669397,1.0222133,0.42238423,0.19916807,0.88673496,0.5710728,0.18693659,0.9141424,0.75599825,0.57146263,0.07288527,0.5846316,0.47307786,0.16295202,0.14107443,0.24372447,0.07710346,-0.23527348,-0.113357544,783.69965,802.6374,801.02563,783.2967,692.6374,-0.19635009765625,0.08526611328125,0.9818115234375,0.478515625,-2.1533203125,-0.82244873046875,1,2.0,1.0,1.0,2.0,10.00
2024-10-11 20:17:59,,,,,,,,,,,,,,,,,,,,,,,,,,,,,,,,,,,,,,/muse/elements/blink
2024-10-11 20:17:59.253,0.21083759,1.3669397,0.9970817,0.42238423,0.19916807,0.88673496,0.5588978,0.18693659,0.9141424,0.75599825,0.5745737,0.07288527,0.5846316,0.47307786,0.16430733,0.14107443,0.24372447,0.07710346,-0.23420948,-0.113357544,764.35895,796.5934,795.78754,768.7912,777.6557,-0.19635009765625,0.08526611328125,0.9818115234375,0.478515625,-2.1533203125,-0.82244873046875,1,2.0,1.0,1.0,2.0,10.00
2024-10-11 20:17:59.258,0.21083759,1.3669397,0.9970817,0.42238423,0.19916807,0.88673496,0.5588978,0.18693659,0.9141424,0.75599825,0.5745737,0.07288527,0.5846316,0.47307786,0.16430733,0.14107443,0.24372447,0.07710346,-0.23420948,-0.113357544,755.4945,804.65204,792.96704,752.674,691.02563,-0.19635009765625,0.08526611328125,0.9818115234375,0.478515625,-2.1533203125,-0.82244873046875,1,2.0,1.0,1.0,2.0,10.00
2024-10-11 20:17:59.258,0.21083759,1.3669397,0.9970817,0.42238423,0.19916807,0.88673496,0.5588978,0.18693659,0.9141424,0.75599825,0.5745737,0.07288527,0.5846316,0.47307786,0.16430733,0.14107443,0.24372447,0.07710346,-0.23420948,-0.113357544,761.13556,808.68134,799.81683,743.00366,574.9817,-0.19635009765625,0.08526611328125,0.9818115234375,0.478515625,-2.1533203125,-0.82244873046875,1,2.0,1.0,1.0,2.0,10.00
2024-10-11 20:17:59.280,0.21083759,1.3669397,0.9970817,0.42238423,0.19916807,0.88673496,0.5588978,0.18693659,0.9141424,0.75599825,0.5745737,0.07288527,0.5846316,0.47307786,0.16430733,0.14107443,0.24372447,0.07710346,-0.23420948,-0.113357544,760.32965,799.41394,797.8022,742.1978,604.3956,-0.19635009765625,0.08526611328125,0.9818115234375,0.478515625,-2.1533203125,-0.82244873046875,1,2.0,1.0,1.0,2.0,10.00
2024-10-11 20:17:59.281,0.21083759,1.3669397,0.9970817,0.42238423,0.19916807,0.88673496,0.5588978,0.18693659,0.9141424,0.75599825,0.5745737,0.07288527,0.5846316,0.47307786,0.16430733,0.14107443,0.24372447,0.07710346,-0.23420948,-0.113357544,753.0769,799.011,786.52014,734.1392,861.06226,-0.19635009765625,0.08526611328125,0.9818115234375,0.478515625,-2.1533203125,-0.82244873046875,1,2.0,1.0,1.0,2.0,10.00
2024-10-11 20:17:59.282,0.21083759,1.3669397,0.9970817,0.42238423,0.19916807,0.88673496,0.5588978,0.18693659,0.9141424,0.75599825,0.5745737,0.07288527,0.5846316,0.47307786,0.16430733,0.14107443,0.24372447,0.07710346,-0.23420948,-0.113357544,752.674,797.3993,780.07324,741.39197,788.5348,-0.19635009765625,0.08526611328125,0.9818115234375,0.478515625,-2.1533203125,-0.82244873046875,1,2.0,1.0,1.0,2.0,10.00
2024-10-11 20:17:59.283,0.21083759,1.3669397,0.9970817,0.42238423,0.19916807,0.88673496,0.5588978,0.18693659,0.9141424,0.75599825,0.5745737,0.07288527,0.5846316,0.47307786,0.16430733,0.14107443,0.24372447,0.07710346,-0.23420948,-0.113357544,762.3443,798.60803,780.4762,764.7619,587.47253,-0.19635009765625,0.08526611328125,0.9818115234375,0.478515625,-2.1533203125,-0.82244873046875,1,2.0,1.0,1.0,2.0,10.00
2024-10-11 20:17:59.284,0.21083759,1.3669397,0.9970817,0.42238423,0.19916807,0.88673496,0.5588978,0.18693659,0.9141424,0.75599825,0.5745737,0.07288527,0.5846316,0.47307786,0.16430733,0.14107443,0.24372447,0.07710346,-0.23420948,-0.113357544,765.56775,799.011,789.34064,771.2088,653.1502,-0.19635009765625,0.08526611328125,0.9818115234375,0.478515625,-2.1533203125,-0.82244873046875,1,2.0,1.0,1.0,2.0,10.00
2024-10-11 20:17:59.284,0.21083759,1.3669397,0.9970817,0.42238423,0.19916807,0.88673496,0.5588978,0.18693659,0.9141424,0.75599825,0.5745737,0.07288527,0.5846316,0.47307786,0.16430733,0.14107443,0.24372447,0.07710346,-0.23420948,-0.113357544,773.22345,796.99634,796.1905,777.6557,887.6557,-0.19635009765625,0.08526611328125,0.9818115234375,0.478515625,-2.1533203125,-0.82244873046875,1,2.0,1.0,1.0,2.0,10.00
2024-10-11 20:17:59.285,0.21083759,1.3669397,0.9970817,0.42238423,0.19916807,0.88673496,0.5588978,0.18693659,0.9141424,0.75599825,0.5745737,0.07288527,0.5846316,0.47307786,0.16430733,0.14107443,0.24372447,0.07710346,-0.23420948,-0.113357544,781.685,799.41394,796.99634,776.8498,963.00366,-0.19635009765625,0.08526611328125,0.9818115234375,0.478515625,-2.1533203125,-0.82244873046875,1,2.0,1.0,1.0,2.0,10.00
2024-10-11 20:17:59.286,0.21083759,1.3669397,0.9970817,0.42238423,0.19916807,0.88673496,0.5588978,0.18693659,0.9141424,0.75599825,0.5745737,0.07288527,0.5846316,0.47307786,0.16430733,0.14107443,0.24372447,0.07710346,-0.23420948,-0.113357544,785.7143,790.14655,799.81683,776.8498,878.7912,-0.19635009765625,0.08526611328125,0.9818115234375,0.478515625,-2.1533203125,-0.82244873046875,1,2.0,1.0,1.0,2.0,10.00
2024-10-11 20:17:59.287,0.21083759,1.3669397,0.9970817,0.42238423,0.19916807,0.88673496,0.5588978,0.18693659,0.9141424,0.75599825,0.5745737,0.07288527,0.5846316,0.47307786,0.16430733,0.14107443,0.24372447,0.07710346,-0.23420948,-0.113357544,788.1319,789.7436,794.9817,788.93774,885.2381,-0.19635009765625,0.08526611328125,0.9818115234375,0.478515625,-2.1533203125,-0.82244873046875,1,2.0,1.0,1.0,2.0,10.00
2024-10-11 20:17:59.288,0.21083759,1.3669397,0.9970817,0.42238423,0.19916807,0.88673496,0.5588978,0.18693659,0.9141424,0.75599825,0.5745737,0.07288527,0.5846316,0.47307786,0.16430733,0.14107443,0.24372447,0.07710346,-0.23420948,-0.113357544,786.52014,802.23444,795.38464,793.7729,917.8755,-0.19635009765625,0.08526611328125,0.9818115234375,0.478515625,-2.1533203125,-0.82244873046875,1,2.0,1.0,1.0,2.0,10.00
2024-10-11 20:17:59.289,0.21083759,1.3669397,0.9970817,0.42238423,0.19916807,0.88673496,0.5588978,0.18693659,0.9141424,0.75599825,0.5745737,0.07288527,0.5846316,0.47307786,0.16430733,0.14107443,0.24372447,0.07710346,-0.23420948,-0.113357544,794.9817,802.6374,802.6374,793.36993,746.2271,-0.19635009765625,0.08526611328125,0.9818115234375,0.478515625,-2.1533203125,-0.82244873046875,1,2.0,1.0,1.0,2.0,10.00
2024-10-11 20:17:59.289,0.21083759,1.3669397,0.9970817,0.42238423,0.19916807,0.88673496,0.5588978,0.18693659,0.9141424,0.75599825,0.5745737,0.07288527,0.5846316,0.47307786,0.16430733,0.14107443,0.24372447,0.07710346,-0.23420948,-0.113357544,794.17584,803.8461,799.81683,790.9524,645.4945,-0.19635009765625,0.08526611328125,0.9818115234375,0.478515625,-2.1533203125,-0.82244873046875,1,2.0,1.0,1.0,2.0,10.00
2024-10-11 20:17:59.315,0.21083759,1.3669397,0.9970817,0.42238423,0.19916807,0.88673496,0.5588978,0.18693659,0.9141424,0.75599825,0.5745737,0.07288527,0.5846316,0.47307786,0.16430733,0.14107443,0.24372447,0.07710346,-0.23420948,-0.113357544,784.90845,802.23444,801.4286,794.17584,838.0952,-0.198974609375,0.0838623046875,0.99005126953125,-0.13458251953125,-0.500946044921875,-0.95703125,1,2.0,1.0,1.0,2.0,10.00
2024-10-11 20:17:59.316,0.21083759,1.3669397,0.9970817,0.42238423,0.19916807,0.88673496,0.5588978,0.18693659,0.9141424,0.75599825,0.5745737,0.07288527,0.5846316,0.47307786,0.16430733,0.14107443,0.24372447,0.07710346,-0.23420948,-0.113357544,784.90845,795.78754,805.8608,800.2198,824.3956,-0.198974609375,0.0838623046875,0.99005126953125,-0.13458251953125,-0.500946044921875,-0.95703125,1,2.0,1.0,1.0,2.0,10.00
2024-10-11 20:17:59.316,0.21083759,1.3669397,0.9970817,0.42238423,0.19916807,0.88673496,0.5588978,0.18693659,0.9141424,0.75599825,0.5745737,0.07288527,0.5846316,0.47307786,0.16430733,0.14107443,0.24372447,0.07710346,-0.23420948,-0.113357544,788.1319,795.38464,807.0696,790.14655,721.6484,-0.198974609375,0.0838623046875,0.99005126953125,-0.13458251953125,-0.500946044921875,-0.95703125,1,2.0,1.0,1.0,2.0,10.00
2024-10-11 20:17:59.317,0.21083759,1.3669397,0.9970817,0.42238423,0.19916807,0.88673496,0.5588978,0.18693659,0.9141424,0.75599825,0.5745737,0.07288527,0.5846316,0.47307786,0.16430733,0.14107443,0.24372447,0.07710346,-0.23420948,-0.113357544,791.75824,803.44324,800.2198,793.7729,751.06226,-0.198974609375,0.0838623046875,0.99005126953125,-0.13458251953125,-0.500946044921875,-0.95703125,1,2.0,1.0,1.0,2.0,10.00
2024-10-11 20:17:59.318,0.21083759,1.3669397,0.9970817,0.42238423,0.19916807,0.88673496,0.5588978,0.18693659,0.9141424,0.75599825,0.5745737,0.07288527,0.5846316,0.47307786,0.16430733,0.14107443,0.24372447,0.07710346,-0.23420948,-0.113357544,780.87915,803.44324,803.8461,804.2491,875.16486,-0.198974609375,0.0838623046875,0.99005126953125,-0.13458251953125,-0.500946044921875,-0.95703125,1,2.0,1.0,1.0,2.0,10.00
2024-10-11 20:17:59.318,0.21083759,1.3669397,0.9970817,0.42238423,0.19916807,0.88673496,0.5588978,0.18693659,0.9141424,0.75599825,0.5745737,0.07288527,0.5846316,0.47307786,0.16430733,0.14107443,0.24372447,0.07710346,-0.23420948,-0.113357544,782.0879,803.0403,801.8315,803.0403,1038.7546,-0.198974609375,0.0838623046875,0.99005126953125,-0.13458251953125,-0.500946044921875,-0.95703125,1,2.0,1.0,1.0,2.0,10.00
2024-10-11 20:17:59.319,0.21083759,1.3669397,0.9970817,0.42238423,0.19916807,0.88673496,0.5588978,0.18693659,0.9141424,0.75599825,0.5745737,0.07288527,0.5846316,0.47307786,0.16430733,0.14107443,0.24372447,0.07710346,-0.23420948,-0.113357544,794.57874,804.2491,797.8022,799.011,993.22345,-0.198974609375,0.0838623046875,0.99005126953125,-0.13458251953125,-0.500946044921875,-0.95703125,1,2.0,1.0,1.0,2.0,10.00
2024-10-11 20:17:59.320,0.21083759,1.3669397,0.9970817,0.42238423,0.19916807,0.88673496,0.5588978,0.18693659,0.9141424,0.75599825,0.5745737,0.07288527,0.5846316,0.47307786,0.16430733,0.14107443,0.24372447,0.07710346,-0.23420948,-0.113357544,793.36993,799.011,803.0403,802.23444,970.2564,-0.198974609375,0.0838623046875,0.99005126953125,-0.13458251953125,-0.500946044921875,-0.95703125,1,2.0,1.0,1.0,2.0,10.00
2024-10-11 20:17:59.321,0.21083759,1.3669397,0.9970817,0.42238423,0.19916807,0.88673496,0.5588978,0.18693659,0.9141424,0.75599825,0.5745737,0.07288527,0.5846316,0.47307786,0.16430733,0.14107443,0.24372447,0.07710346,-0.23420948,-0.113357544,793.36993,794.17584,808.2784,811.9048,1185.0183,-0.198974609375,0.0838623046875,0.99005126953125,-0.13458251953125,-0.500946044921875,-0.95703125,1,2.0,1.0,1.0,2.0,10.00
2024-10-11 20:17:59.321,0.21083759,1.3669397,0.9970817,0.42238423,0.19916807,0.88673496,0.5588978,0.18693659,0.9141424,0.75599825,0.5745737,0.07288527,0.5846316,0.47307786,0.16430733,0.14107443,0.24372447,0.07710346,-0.23420948,-0.113357544,801.8315,800.2198,804.2491,812.71063,883.22345,-0.198974609375,0.0838623046875,0.99005126953125,-0.13458251953125,-0.500946044921875,-0.95703125,1,2.0,1.0,1.0,2.0,10.00
2024-10-11 20:17:59.322,0.21083759,1.3669397,0.9970817,0.42238423,0.19916807,0.88673496,0.5588978,0.18693659,0.9141424,0.75599825,0.5745737,0.07288527,0.5846316,0.47307786,0.16430733,0.14107443,0.24372447,0.07710346,-0.23420948,-0.113357544,797.3993,803.0403,804.2491,806.26373,688.20514,-0.198974609375,0.0838623046875,0.99005126953125,-0.13458251953125,-0.500946044921875,-0.95703125,1,2.0,1.0,1.0,2.0,10.00
2024-10-11 20:17:59.323,0.21083759,1.3669397,0.97791845,0.42238423,0.19916807,0.88673496,0.546918,0.18693659,0.9141424,0.75599825,0.58903736,0.07288527,0.5846316,0.47307786,0.17133258,0.14107443,0.24372447,0.07710346,-0.22685096,-0.113357544,795.38464,793.36993,804.65204,789.34064,880.0,-0.198974609375,0.0838623046875,0.99005126953125,-0.13458251953125,-0.500946044921875,-0.95703125,1,2.0,1.0,1.0,2.0,10.00
2024-10-11 20:17:59.416,0.21083759,1.3669397,0.97791845,0.42238423,0.19916807,0.88673496,0.546918,0.18693659,0.9141424,0.75599825,0.58903736,0.07288527,0.5846316,0.47307786,0.17133258,0.14107443,0.24372447,0.07710346,-0.22685096,-0.113357544,798.20514,792.96704,791.3553,796.99634,926.337,-0.21026611328125,0.08563232421875,0.9884033203125,-0.82244873046875,0.46356201171875,-1.31591796875,1,2.0,1.0,1.0,2.0,10.00
2024-10-11 20:17:59.417,0.21083759,1.3669397,0.97791845,0.42238423,0.19916807,0.88673496,0.546918,0.18693659,0.9141424,0.75599825,0.58903736,0.07288527,0.5846316,0.47307786,0.17133258,0.14107443,0.24372447,0.07710346,-0.22685096,-0.113357544,801.4286,802.6374,796.1905,810.696,709.15753,-0.21026611328125,0.08563232421875,0.9884033203125,-0.82244873046875,0.46356201171875,-1.31591796875,1,2.0,1.0,1.0,2.0,10.00
2024-10-11 20:17:59.417,0.21083759,1.3669397,0.97791845,0.42238423,0.19916807,0.88673496,0.546918,0.18693659,0.9141424,0.75599825,0.58903736,0.07288527,0.5846316,0.47307786,0.17133258,0.14107443,0.24372447,0.07710346,-0.22685096,-0.113357544,800.2198,803.0403,802.23444,809.89014,647.1062,-0.21026611328125,0.08563232421875,0.9884033203125,-0.82244873046875,0.46356201171875,-1.31591796875,1,2.0,1.0,1.0,2.0,10.00
2024-10-11 20:17:59.418,0.21083759,1.3669397,0.97791845,0.42238423,0.19916807,0.88673496,0.546918,0.18693659,0.9141424,0.75599825,0.58903736,0.07288527,0.5846316,0.47307786,0.17133258,0.14107443,0.24372447,0.07710346,-0.22685096,-0.113357544,799.011,801.02563,798.20514,809.0842,833.2601,-0.21026611328125,0.08563232421875,0.9884033203125,-0.82244873046875,0.46356201171875,-1.31591796875,1,2.0,1.0,1.0,2.0,10.00
2024-10-11 20:17:59.419,0.21083759,1.3669397,0.97791845,0.42238423,0.19916807,0.88673496,0.546918,0.18693659,0.9141424,0.75599825,0.58903736,0.07288527,0.5846316,0.47307786,0.17133258,0.14107443,0.24372447,0.07710346,-0.22685096,-0.113357544,802.6374,803.44324,789.7436,807.0696,917.8755,-0.21026611328125,0.08563232421875,0.9884033203125,-0.82244873046875,0.46356201171875,-1.31591796875,1,2.0,1.0,1.0,2.0,10.00
2024-10-11 20:17:59.420,0.21083759,1.3669397,0.97791845,0.42238423,0.19916807,0.88673496,0.546918,0.18693659,0.9141424,0.75599825,0.58903736,0.07288527,0.5846316,0.47307786,0.17133258,0.14107443,0.24372447,0.07710346,-0.22685096,-0.113357544,789.7436,805.05493,790.9524,805.4579,808.68134,-0.21026611328125,0.08563232421875,0.9884033203125,-0.82244873046875,0.46356201171875,-1.31591796875,1,2.0,1.0,1.0,2.0,10.00
2024-10-11 20:17:59.422,0.21083759,1.3669397,0.97791845,0.42238423,0.19916807,0.88673496,0.546918,0.18693659,0.9141424,0.75599825,0.58903736,0.07288527,0.5846316,0.47307786,0.17133258,0.14107443,0.24372447,0.07710346,-0.22685096,-0.113357544,778.86444,800.6227,803.44324,804.2491,822.7839,-0.21026611328125,0.08563232421875,0.9884033203125,-0.82244873046875,0.46356201171875,-1.31591796875,1,2.0,1.0,1.0,2.0,10.00
2024-10-11 20:17:59.423,0.21083759,1.3669397,0.97791845,0.42238423,0.19916807,0.88673496,0.546918,0.18693659,0.9141424,0.75599825,0.58903736,0.07288527,0.5846316,0.47307786,0.17133258,0.14107443,0.24372447,0.07710346,-0.22685096,-0.113357544,775.64105,799.011,808.2784,800.6227,913.0403,-0.21026611328125,0.08563232421875,0.9884033203125,-0.82244873046875,0.46356201171875,-1.31591796875,1,2.0,1.0,1.0,2.0,10.00
2024-10-11 20:17:59.424,0.21083759,1.3669397,0.97791845,0.42238423,0.19916807,0.88673496,0.546918,0.18693659,0.9141424,0.75599825,0.58903736,0.07288527,0.5846316,0.47307786,0.17133258,0.14107443,0.24372447,0.07710346,-0.22685096,-0.113357544,785.31134,801.02563,799.41394,806.26373,856.2271,-0.21026611328125,0.08563232421875,0.9884033203125,-0.82244873046875,0.46356201171875,-1.31591796875,1,2.0,1.0,1.0,2.0,10.00
2024-10-11 20:17:59.425,0.21083759,1.3669397,0.97791845,0.42238423,0.19916807,0.88673496,0.546918,0.18693659,0.9141424,0.75599825,0.58903736,0.07288527,0.5846316,0.47307786,0.17133258,0.14107443,0.24372447,0.07710346,-0.22685096,-0.113357544,790.9524,799.011,803.0403,803.0403,653.95605,-0.21026611328125,0.08563232421875,0.9884033203125,-0.82244873046875,0.46356201171875,-1.31591796875,1,2.0,1.0,1.0,2.0,10.00
2024-10-11 20:17:59.425,0.21083759,1.3669397,0.97791845,0.42238423,0.19916807,0.88673496,0.546918,0.18693659,0.9141424,0.75599825,0.58903736,0.07288527,0.5846316,0.47307786,0.17133258,0.14107443,0.24372447,0.07710346,-0.22685096,-0.113357544,790.54944,795.38464,806.6667,794.17584,614.0659,-0.21026611328125,0.08563232421875,0.9884033203125,-0.82244873046875,0.46356201171875,-1.31591796875,1,2.0,1.0,1.0,2.0,10.00
2024-10-11 20:17:59.426,0.21083759,1.3669397,0.97791845,0.42238423,0.19916807,0.88673496,0.546918,0.18693659,0.9141424,0.75599825,0.58903736,0.07288527,0.5846316,0.47307786,0.17133258,0.14107443,0.24372447,0.07710346,-0.22685096,-0.113357544,795.78754,789.7436,790.9524,796.1905,834.87177,-0.21026611328125,0.08563232421875,0.9884033203125,-0.82244873046875,0.46356201171875,-1.31591796875,1,2.0,1.0,1.0,2.0,10.00
2024-10-11 20:17:59.455,0.21083759,1.3669397,0.97791845,0.42238423,0.19916807,0.88673496,0.546918,0.18693659,0.9141424,0.75599825,0.58903736,0.07288527,0.5846316,0.47307786,0.17133258,0.14107443,0.24372447,0.07710346,-0.22685096,-0.113357544,795.38464,785.7143,792.5641,798.60803,892.8938,-0.2215576171875,0.08282470703125,0.98748779296875,-1.12152099609375,1.79443359375,-2.265472412109375,1,2.0,1.0,1.0,2.0,10.00
2024-10-11 20:17:59.456,0.21083759,1.3669397,0.97791845,0.42238423,0.19916807,0.88673496,0.546918,0.18693659,0.9141424,0.75599825,0.58903736,0.07288527,0.5846316,0.47307786,0.17133258,0.14107443,0.24372447,0.07710346,-0.22685096,-0.113357544,794.17584,790.9524,803.8461,801.02563,701.0989,-0.2215576171875,0.08282470703125,0.98748779296875,-1.12152099609375,1.79443359375,-2.265472412109375,1,2.0,1.0,1.0,2.0,10.00
2024-10-11 20:17:59.457,0.21083759,1.3669397,0.97791845,0.42238423,0.19916807,0.88673496,0.546918,0.18693659,0.9141424,0.75599825,0.58903736,0.07288527,0.5846316,0.47307786,0.17133258,0.14107443,0.24372447,0.07710346,-0.22685096,-0.113357544,794.9817,792.1612,801.02563,798.20514,593.5165,-0.2215576171875,0.08282470703125,0.98748779296875,-1.12152099609375,1.79443359375,-2.265472412109375,1,2.0,1.0,1.0,2.0,10.00
2024-10-11 20:17:59.458,0.21083759,1.3669397,0.97791845,0.42238423,0.19916807,0.88673496,0.546918,0.18693659,0.9141424,0.75599825,0.58903736,0.07288527,0.5846316,0.47307786,0.17133258,0.14107443,0.24372447,0.07710346,-0.22685096,-0.113357544,799.41394,788.5348,801.4286,804.2491,847.76556,-0.2215576171875,0.08282470703125,0.98748779296875,-1.12152099609375,1.79443359375,-2.265472412109375,1,2.0,1.0,1.0,2.0,10.00
2024-10-11 20:17:59.459,0.21083759,1.3669397,0.97791845,0.42238423,0.19916807,0.88673496,0.546918,0.18693659,0.9141424,0.75599825,0.58903736,0.07288527,0.5846316,0.47307786,0.17133258,0.14107443,0.24372447,0.07710346,-0.22685096,-0.113357544,807.47253,791.75824,802.23444,814.3223,774.0293,-0.2215576171875,0.08282470703125,0.98748779296875,-1.12152099609375,1.79443359375,-2.265472412109375,1,2.0,1.0,1.0,2.0,10.00
2024-10-11 20:17:59.459,0.21083759,1.3669397,0.97791845,0.42238423,0.19916807,0.88673496,0.546918,0.18693659,0.9141424,0.75599825,0.58903736,0.07288527,0.5846316,0.47307786,0.17133258,0.14107443,0.24372447,0.07710346,-0.22685096,-0.113357544,806.6667,793.36993,801.4286,801.8315,675.31134,-0.2215576171875,0.08282470703125,0.98748779296875,-1.12152099609375,1.79443359375,-2.265472412109375,1,2.0,1.0,1.0,2.0,10.00
2024-10-11 20:17:59.460,0.21083759,1.3669397,0.97791845,0.42238423,0.19916807,0.88673496,0.546918,0.18693659,0.9141424,0.75599825,0.58903736,0.07288527,0.5846316,0.47307786,0.17133258,0.14107443,0.24372447,0.07710346,-0.22685096,-0.113357544,801.02563,790.9524,807.8755,797.3993,733.3333,-0.2215576171875,0.08282470703125,0.98748779296875,-1.12152099609375,1.79443359375,-2.265472412109375,1,2.0,1.0,1.0,2.0,10.00
2024-10-11 20:17:59.461,0.21083759,1.3669397,0.97791845,0.42238423,0.19916807,0.88673496,0.546918,0.18693659,0.9141424,0.75599825,0.58903736,0.07288527,0.5846316,0.47307786,0.17133258,0.14107443,0.24372447,0.07710346,-0.22685096,-0.113357544,797.8022,794.9817,798.60803,807.8755,816.7399,-0.2215576171875,0.08282470703125,0.98748779296875,-1.12152099609375,1.79443359375,-2.265472412109375,1,2.0,1.0,1.0,2.0,10.00
2024-10-11 20:17:59.462,0.21083759,1.3669397,0.97791845,0.42238423,0.19916807,0.88673496,0.546918,0.18693659,0.9141424,0.75599825,0.58903736,0.07288527,0.5846316,0.47307786,0.17133258,0.14107443,0.24372447,0.07710346,-0.22685096,-0.113357544,798.20514,798.20514,798.20514,803.0403,840.5128,-0.2215576171875,0.08282470703125,0.98748779296875,-1.12152099609375,1.79443359375,-2.265472412109375,1,2.0,1.0,1.0,2.0,10.00
2024-10-11 20:17:59.463,0.21083759,1.3669397,0.97791845,0.42238423,0.19916807,0.88673496,0.546918,0.18693659,0.9141424,0.75599825,0.58903736,0.07288527,0.5846316,0.47307786,0.17133258,0.14107443,0.24372447,0.07710346,-0.22685096,-0.113357544,801.02563,795.38464,804.65204,797.3993,633.8095,-0.2215576171875,0.08282470703125,0.98748779296875,-1.12152099609375,1.79443359375,-2.265472412109375,1,2.0,1.0,1.0,2.0,10.00
2024-10-11 20:17:59.464,0.21083759,1.3669397,0.97791845,0.42238423,0.19916807,0.88673496,0.546918,0.18693659,0.9141424,0.75599825,0.58903736,0.07288527,0.5846316,0.47307786,0.17133258,0.14107443,0.24372447,0.07710346,-0.22685096,-0.113357544,806.26373,794.57874,799.011,806.6667,651.53845,-0.2215576171875,0.08282470703125,0.98748779296875,-1.12152099609375,1.79443359375,-2.265472412109375,1,2.0,1.0,1.0,2.0,10.00
2024-10-11 20:17:59.464,0.21083759,1.3669397,0.97791845,0.42238423,0.19916807,0.88673496,0.546918,0.18693659,0.9141424,0.75599825,0.58903736,0.07288527,0.5846316,0.47307786,0.17133258,0.14107443,0.24372447,0.07710346,-0.22685096,-0.113357544,816.337,793.7729,797.8022,811.9048,873.1502,-0.2215576171875,0.08282470703125,0.98748779296875,-1.12152099609375,1.79443359375,-2.265472412109375,1,2.0,1.0,1.0,2.0,10.00
2024-10-11 20:17:59.466,0.21083759,1.3669397,0.97791845,0.42238423,0.19916807,0.88673496,0.546918,0.18693659,0.9141424,0.75599825,0.58903736,0.07288527,0.5846316,0.47307786,0.17133258,0.14107443,0.24372447,0.07710346,-0.22685096,-0.113357544,824.7985,796.99634,796.1905,810.293,900.54944,-0.22540283203125,0.08209228515625,0.99359130859375,-2.788848876953125,0.777587890625,-5.38330078125,1,2.0,1.0,1.0,2.0,10.00
2024-10-11 20:17:59.467,0.21083759,1.3669397,0.9313009,0.42238423,0.19916807,0.88673496,0.4723736,0.18693659,0.9141424,0.75599825,0.6042337,0.07288527,0.5846316,0.47307786,0.19182181,0.14107443,0.24372447,0.07710346,-0.21384582,-0.113357544,823.5897,799.011,805.4579,806.6667,825.6044,-0.22540283203125,0.08209228515625,0.99359130859375,-2.788848876953125,0.777587890625,-5.38330078125,1,2.0,1.0,1.0,2.0,10.00
2024-10-11 20:17:59.472,0.21083759,1.3669397,0.9313009,0.42238423,0.19916807,0.88673496,0.4723736,0.18693659,0.9141424,0.75599825,0.6042337,0.07288527,0.5846316,0.47307786,0.19182181,0.14107443,0.24372447,0.07710346,-0.21384582,-0.113357544,814.3223,797.8022,813.1135,807.8755,891.685,-0.22540283203125,0.08209228515625,0.99359130859375,-2.788848876953125,0.777587890625,-5.38330078125,1,2.0,1.0,1.0,2.0,10.00
2024-10-11 20:17:59.473,0.21083759,1.3669397,0.9313009,0.42238423,0.19916807,0.88673496,0.4723736,0.18693659,0.9141424,0.75599825,0.6042337,0.07288527,0.5846316,0.47307786,0.19182181,0.14107443,0.24372447,0.07710346,-0.21384582,-0.113357544,806.26373,796.5934,797.8022,817.9487,941.6484,-0.22540283203125,0.08209228515625,0.99359130859375,-2.788848876953125,0.777587890625,-5.38330078125,1,2.0,1.0,1.0,2.0,10.00
2024-10-11 20:17:59.474,0.21083759,1.3669397,0.9313009,0.42238423,0.19916807,0.88673496,0.4723736,0.18693659,0.9141424,0.75599825,0.6042337,0.07288527,0.5846316,0.47307786,0.19182181,0.14107443,0.24372447,0.07710346,-0.21384582,-0.113357544,804.65204,794.17584,804.2491,821.1722,864.2857,-0.22540283203125,0.08209228515625,0.99359130859375,-2.788848876953125,0.777587890625,-5.38330078125,1,2.0,1.0,1.0,2.0,10.00
2024-10-11 20:17:59.475,0.21083759,1.3669397,0.9313009,0.42238423,0.19916807,0.88673496,0.4723736,0.18693659,0.9141424,0.75599825,0.6042337,0.07288527,0.5846316,0.47307786,0.19182181,0.14107443,0.24372447,0.07710346,-0.21384582,-0.113357544,809.89014,792.5641,813.5165,816.337,867.9121,-0.22540283203125,0.08209228515625,0.99359130859375,-2.788848876953125,0.777587890625,-5.38330078125,1,2.0,1.0,1.0,2.0,10.00
2024-10-11 20:17:59.476,0.21083759,1.3669397,0.9313009,0.42238423,0.19916807,0.88673496,0.4723736,0.18693659,0.9141424,0.75599825,0.6042337,0.07288527,0.5846316,0.47307786,0.19182181,0.14107443,0.24372447,0.07710346,-0.21384582,-0.113357544,812.71063,793.36993,801.8315,811.50183,834.87177,-0.22540283203125,0.08209228515625,0.99359130859375,-2.788848876953125,0.777587890625,-5.38330078125,1,2.0,1.0,1.0,2.0,10.00
2024-10-11 20:17:59.477,0.21083759,1.3669397,0.9313009,0.42238423,0.19916807,0.88673496,0.4723736,0.18693659,0.9141424,0.75599825,0.6042337,0.07288527,0.5846316,0.47307786,0.19182181,0.14107443,0.24372447,0.07710346,-0.21384582,-0.113357544,798.20514,794.17584,794.17584,809.89014,805.8608,-0.22540283203125,0.08209228515625,0.99359130859375,-2.788848876953125,0.777587890625,-5.38330078125,1,2.0,1.0,1.0,2.0,10.00
2024-10-11 20:17:59.478,0.21083759,1.3669397,0.9313009,0.42238423,0.19916807,0.88673496,0.4723736,0.18693659,0.9141424,0.75599825,0.6042337,0.07288527,0.5846316,0.47307786,0.19182181,0.14107443,0.24372447,0.07710346,-0.21384582,-0.113357544,789.7436,789.34064,802.23444,812.3077,733.3333,-0.22540283203125,0.08209228515625,0.99359130859375,-2.788848876953125,0.777587890625,-5.38330078125,1,2.0,1.0,1.0,2.0,10.00
2024-10-11 20:17:59.480,0.21083759,1.3669397,0.9313009,0.42238423,0.19916807,0.88673496,0.4723736,0.18693659,0.9141424,0.75599825,0.6042337,0.07288527,0.5846316,0.47307786,0.19182181,0.14107443,0.24372447,0.07710346,-0.21384582,-0.113357544,796.1905,782.0879,809.0842,825.2015,705.9341,-0.22540283203125,0.08209228515625,0.99359130859375,-2.788848876953125,0.777587890625,-5.38330078125,1,2.0,1.0,1.0,2.0,10.00
2024-10-11 20:17:59.481,0.21083759,1.3669397,0.9313009,0.42238423,0.19916807,0.88673496,0.4723736,0.18693659,0.9141424,0.75599825,0.6042337,0.07288527,0.5846316,0.47307786,0.19182181,0.14107443,0.24372447,0.07710346,-0.21384582,-0.113357544,790.9524,791.75824,812.71063,823.5897,875.56775,-0.22540283203125,0.08209228515625,0.99359130859375,-2.788848876953125,0.777587890625,-5.38330078125,1,2.0,1.0,1.0,2.0,10.00
2024-10-11 20:17:59.482,0.21083759,1.3669397,0.9313009,0.42238423,0.19916807,0.88673496,0.4723736,0.18693659,0.9141424,0.75599825,0.6042337,0.07288527,0.5846316,0.47307786,0.19182181,0.14107443,0.24372447,0.07710346,-0.21384582,-0.113357544,778.46155,807.47253,801.02563,803.0403,850.18317,-0.22540283203125,0.08209228515625,0.99359130859375,-2.788848876953125,0.777587890625,-5.38330078125,1,2.0,1.0,1.0,2.0,10.00
2024-10-11 20:17:59.483,0.21083759,1.3669397,0.9313009,0.42238423,0.19916807,0.88673496,0.4723736,0.18693659,0.9141424,0.75599825,0.6042337,0.07288527,0.5846316,0.47307786,0.19182181,0.14107443,0.24372447,0.07710346,-0.21384582,-0.113357544,775.2381,813.5165,793.36993,794.9817,649.92676,-0.22540283203125,0.08209228515625,0.99359130859375,-2.788848876953125,0.777587890625,-5.38330078125,1,2.0,1.0,1.0,2.0,10.00
2024-10-11 20:17:59.484,0.21083759,1.3669397,0.9313009,0.42238423,0.19916807,0.88673496,0.4723736,0.18693659,0.9141424,0.75599825,0.6042337,0.07288527,0.5846316,0.47307786,0.19182181,0.14107443,0.24372447,0.07710346,-0.21384582,-0.113357544,774.0293,809.89014,796.99634,792.5641,789.34064,-0.22540283203125,0.08209228515625,0.99359130859375,-2.788848876953125,0.777587890625,-5.38330078125,1,2.0,1.0,1.0,2.0,10.00
2024-10-11 20:17:59.485,0.21083759,1.3669397,0.9313009,0.42238423,0.19916807,0.88673496,0.4723736,0.18693659,0.9141424,0.75599825,0.6042337,0.07288527,0.5846316,0.47307786,0.19182181,0.14107443,0.24372447,0.07710346,-0.21384582,-0.113357544,777.6557,805.05493,797.8022,786.9231,1029.0842,-0.22540283203125,0.08209228515625,0.99359130859375,-2.788848876953125,0.777587890625,-5.38330078125,1,2.0,1.0,1.0,2.0,10.00
2024-10-11 20:17:59.486,0.21083759,1.3669397,0.9313009,0.42238423,0.19916807,0.88673496,0.4723736,0.18693659,0.9141424,0.75599825,0.6042337,0.07288527,0.5846316,0.47307786,0.19182181,0.14107443,0.24372447,0.07710346,-0.21384582,-0.113357544,772.8205,805.8608,787.326,773.6264,835.2747,-0.22540283203125,0.08209228515625,0.99359130859375,-2.788848876953125,0.777587890625,-5.38330078125,1,2.0,1.0,1.0,2.0,10.00
2024-10-11 20:17:59.487,0.21083759,1.3669397,0.9313009,0.42238423,0.19916807,0.88673496,0.4723736,0.18693659,0.9141424,0.75599825,0.6042337,0.07288527,0.5846316,0.47307786,0.19182181,0.14107443,0.24372447,0.07710346,-0.21384582,-0.113357544,759.92676,807.0696,790.14655,764.35895,666.8498,-0.22540283203125,0.08209228515625,0.99359130859375,-2.788848876953125,0.777587890625,-5.38330078125,1,2.0,1.0,1.0,2.0,10.00
2024-10-11 20:17:59.488,0.21083759,1.3669397,0.9313009,0.42238423,0.19916807,0.88673496,0.4723736,0.18693659,0.9141424,0.75599825,0.6042337,0.07288527,0.5846316,0.47307786,0.19182181,0.14107443,0.24372447,0.07710346,-0.21384582,-0.113357544,776.4469,810.293,789.7436,779.2674,893.69965,-0.22540283203125,0.08209228515625,0.99359130859375,-2.788848876953125,0.777587890625,-5.38330078125,1,2.0,1.0,1.0,2.0,10.00
2024-10-11 20:17:59.489,0.21083759,1.3669397,0.9313009,0.42238423,0.19916807,0.88673496,0.4723736,0.18693659,0.9141424,0.75599825,0.6042337,0.07288527,0.5846316,0.47307786,0.19182181,0.14107443,0.24372447,0.07710346,-0.21384582,-0.113357544,766.3736,812.71063,786.1172,765.16486,1038.3517,-0.22540283203125,0.08209228515625,0.99359130859375,-2.788848876953125,0.777587890625,-5.38330078125,1,2.0,1.0,1.0,2.0,10.00
2024-10-11 20:17:59.490,0.21083759,1.3669397,0.9313009,0.42238423,0.19916807,0.88673496,0.4723736,0.18693659,0.9141424,0.75599825,0.6042337,0.07288527,0.5846316,0.47307786,0.19182181,0.14107443,0.24372447,0.07710346,-0.21384582,-0.113357544,758.315,807.47253,780.07324,750.65936,796.5934,-0.22540283203125,0.08209228515625,0.99359130859375,-2.788848876953125,0.777587890625,-5.38330078125,1,2.0,1.0,1.0,2.0,10.00
2024-10-11 20:17:59.491,0.21083759,1.3669397,0.9313009,0.42238423,0.19916807,0.88673496,0.4723736,0.18693659,0.9141424,0.75599825,0.6042337,0.07288527,0.5846316,0.47307786,0.19182181,0.14107443,0.24372447,0.07710346,-0.21384582,-0.113357544,771.6117,807.0696,773.22345,759.12085,609.6337,-0.22540283203125,0.08209228515625,0.99359130859375,-2.788848876953125,0.777587890625,-5.38330078125,1,2.0,1.0,1.0,2.0,10.00
2024-10-11 20:17:59.492,0.21083759,1.3669397,0.9313009,0.42238423,0.19916807,0.88673496,0.4723736,0.18693659,0.9141424,0.75599825,0.6042337,0.07288527,0.5846316,0.47307786,0.19182181,0.14107443,0.24372447,0.07710346,-0.21384582,-0.113357544,762.74725,802.23444,779.67035,754.68866,758.71796,-0.22540283203125,0.08209228515625,0.99359130859375,-2.788848876953125,0.777587890625,-5.38330078125,1,2.0,1.0,1.0,2.0,10.00
2024-10-11 20:17:59.493,0.21083759,1.3669397,0.9313009,0.42238423,0.19916807,0.88673496,0.4723736,0.18693659,0.9141424,0.75599825,0.6042337,0.07288527,0.5846316,0.47307786,0.19182181,0.14107443,0.24372447,0.07710346,-0.21384582,-0.113357544,761.53845,799.41394,788.1319,766.77655,995.2381,-0.22540283203125,0.08209228515625,0.99359130859375,-2.788848876953125,0.777587890625,-5.38330078125,1,2.0,1.0,1.0,2.0,10.00
2024-10-11 20:17:59.494,0.21083759,1.3669397,0.9313009,0.42238423,0.19916807,0.88673496,0.4723736,0.18693659,0.9141424,0.75599825,0.6042337,0.07288527,0.5846316,0.47307786,0.19182181,0.14107443,0.24372447,0.07710346,-0.21384582,-0.113357544,770.80585,801.02563,793.7729,775.64105,843.73627,-0.22540283203125,0.08209228515625,0.99359130859375,-2.788848876953125,0.777587890625,-5.38330078125,1,2.0,1.0,1.0,2.0,10.00
2024-10-11 20:17:59.525,0.21083759,1.3669397,0.9313009,0.42238423,0.19916807,0.88673496,0.4723736,0.18693659,0.9141424,0.75599825,0.6042337,0.07288527,0.5846316,0.47307786,0.19182181,0.14107443,0.24372447,0.07710346,-0.21384582,-0.113357544,779.2674,799.81683,793.36993,774.0293,660.0,-0.22088623046875,0.0679931640625,0.994873046875,-4.83001708984375,0.261688232421875,-9.757232666015625,1,2.0,1.0,1.0,2.0,10.00
2024-10-11 20:17:59.526,0.21083759,1.3669397,0.9313009,0.42238423,0.19916807,0.88673496,0.4723736,0.18693659,0.9141424,0.75599825,0.6042337,0.07288527,0.5846316,0.47307786,0.19182181,0.14107443,0.24372447,0.07710346,-0.21384582,-0.113357544,786.9231,796.1905,797.8022,782.49084,779.2674,-0.22088623046875,0.0679931640625,0.994873046875,-4.83001708984375,0.261688232421875,-9.757232666015625,1,2.0,1.0,1.0,2.0,10.00
2024-10-11 20:17:59.526,0.21083759,1.3669397,0.9313009,0.42238423,0.19916807,0.88673496,0.4723736,0.18693659,0.9141424,0.75599825,0.6042337,0.07288527,0.5846316,0.47307786,0.19182181,0.14107443,0.24372447,0.07710346,-0.21384582,-0.113357544,787.326,796.1905,790.14655,784.10254,932.7839,-0.22088623046875,0.0679931640625,0.994873046875,-4.83001708984375,0.261688232421875,-9.757232666015625,1,2.0,1.0,1.0,2.0,10.00
2024-10-11 20:17:59.527,0.21083759,1.3669397,0.9135428,0.42238423,0.19916807,0.88673496,0.46627507,0.18693659,0.9141424,0.75599825,0.61085653,0.07288527,0.5846316,0.47307786,0.21155691,0.14107443,0.24372447,0.07710346,-0.20536792,-0.113357544,796.1905,801.8315,789.7436,783.69965,784.5055,-0.22088623046875,0.0679931640625,0.994873046875,-4.83001708984375,0.261688232421875,-9.757232666015625,1,2.0,1.0,1.0,2.0,10.00
2024-10-11 20:17:59.532,0.21083759,1.3669397,0.9135428,0.42238423,0.19916807,0.88673496,0.46627507,0.18693659,0.9141424,0.75599825,0.61085653,0.07288527,0.5846316,0.47307786,0.21155691,0.14107443,0.24372447,0.07710346,-0.20536792,-0.113357544,794.9817,798.60803,800.6227,776.8498,655.16486,-0.22088623046875,0.0679931640625,0.994873046875,-4.83001708984375,0.261688232421875,-9.757232666015625,1,2.0,1.0,1.0,2.0,10.00
2024-10-11 20:17:59.533,0.21083759,1.3669397,0.9135428,0.42238423,0.19916807,0.88673496,0.46627507,0.18693659,0.9141424,0.75599825,0.61085653,0.07288527,0.5846316,0.47307786,0.21155691,0.14107443,0.24372447,0.07710346,-0.20536792,-0.113357544,794.9817,792.5641,795.78754,777.25275,906.99634,-0.22088623046875,0.0679931640625,0.994873046875,-4.83001708984375,0.261688232421875,-9.757232666015625,1,2.0,1.0,1.0,2.0,10.00
2024-10-11 20:17:59.534,0.21083759,1.3669397,0.9135428,0.42238423,0.19916807,0.88673496,0.46627507,0.18693659,0.9141424,0.75599825,0.61085653,0.07288527,0.5846316,0.47307786,0.21155691,0.14107443,0.24372447,0.07710346,-0.20536792,-0.113357544,797.8022,796.99634,786.1172,786.1172,1131.8315,-0.22088623046875,0.0679931640625,0.994873046875,-4.83001708984375,0.261688232421875,-9.757232666015625,1,2.0,1.0,1.0,2.0,10.00
2024-10-11 20:17:59.535,0.21083759,1.3669397,0.9135428,0.42238423,0.19916807,0.88673496,0.46627507,0.18693659,0.9141424,0.75599825,0.61085653,0.07288527,0.5846316,0.47307786,0.21155691,0.14107443,0.24372447,0.07710346,-0.20536792,-0.113357544,783.69965,795.78754,793.7729,784.90845,983.5531,-0.22088623046875,0.0679931640625,0.994873046875,-4.83001708984375,0.261688232421875,-9.757232666015625,1,2.0,1.0,1.0,2.0,10.00
2024-10-11 20:17:59.536,0.21083759,1.3669397,0.9135428,0.42238423,0.19916807,0.88673496,0.46627507,0.18693659,0.9141424,0.75599825,0.61085653,0.07288527,0.5846316,0.47307786,0.21155691,0.14107443,0.24372447,0.07710346,-0.20536792,-0.113357544,778.0586,789.34064,796.99634,782.8938,703.5165,-0.22088623046875,0.0679931640625,0.994873046875,-4.83001708984375,0.261688232421875,-9.757232666015625,1,2.0,1.0,1.0,2.0,10.00
2024-10-11 20:17:59.537,0.21083759,1.3669397,0.9135428,0.42238423,0.19916807,0.88673496,0.46627507,0.18693659,0.9141424,0.75599825,0.61085653,0.07288527,0.5846316,0.47307786,0.21155691,0.14107443,0.24372447,0.07710346,-0.20536792,-0.113357544,791.75824,794.57874,796.5934,782.0879,691.4286,-0.22088623046875,0.0679931640625,0.994873046875,-4.83001708984375,0.261688232421875,-9.757232666015625,1,2.0,1.0,1.0,2.0,10.00
2024-10-11 20:17:59.538,0.21083759,1.3669397,0.9135428,0.42238423,0.19916807,0.88673496,0.46627507,0.18693659,0.9141424,0.75599825,0.61085653,0.07288527,0.5846316,0.47307786,0.21155691,0.14107443,0.24372447,0.07710346,-0.20536792,-0.113357544,794.57874,800.2198,798.60803,789.34064,732.9304,-0.22088623046875,0.0679931640625,0.994873046875,-4.83001708984375,0.261688232421875,-9.757232666015625,1,2.0,1.0,1.0,2.0,10.00
2024-10-11 20:17:59.539,0.21083759,1.3669397,0.9135428,0.42238423,0.19916807,0.88673496,0.46627507,0.18693659,0.9141424,0.75599825,0.61085653,0.07288527,0.5846316,0.47307786,0.21155691,0.14107443,0.24372447,0.07710346,-0.20536792,-0.113357544,791.75824,805.05493,791.3553,794.9817,639.45056,-0.22088623046875,0.0679931640625,0.994873046875,-4.83001708984375,0.261688232421875,-9.757232666015625,1,2.0,1.0,1.0,2.0,10.00
2024-10-11 20:17:59.541,0.21083759,1.3669397,0.9135428,0.42238423,0.19916807,0.88673496,0.46627507,0.18693659,0.9141424,0.75599825,0.61085653,0.07288527,0.5846316,0.47307786,0.21155691,0.14107443,0.24372447,0.07710346,-0.20536792,-0.113357544,792.96704,803.0403,792.96704,792.5641,520.58606,-0.20550537109375,0.06048583984375,0.99090576171875,-6.990814208984375,1.951446533203125,-12.568511962890625,1,2.0,1.0,1.0,2.0,10.00
2024-10-11 20:17:59.541,0.21083759,1.3669397,0.9135428,0.42238423,0.19916807,0.88673496,0.46627507,0.18693659,0.9141424,0.75599825,0.61085653,0.07288527,0.5846316,0.47307786,0.21155691,0.14107443,0.24372447,0.07710346,-0.20536792,-0.113357544,791.3553,795.38464,794.57874,790.14655,752.674,-0.20550537109375,0.06048583984375,0.99090576171875,-6.990814208984375,1.951446533203125,-12.568511962890625,1,2.0,1.0,1.0,2.0,10.00
2024-10-11 20:17:59.542,0.21083759,1.3669397,0.9135428,0.42238423,0.19916807,0.88673496,0.46627507,0.18693659,0.9141424,0.75599825,0.61085653,0.07288527,0.5846316,0.47307786,0.21155691,0.14107443,0.24372447,0.07710346,-0.20536792,-0.113357544,786.1172,798.60803,795.38464,797.8022,1163.663,-0.20550537109375,0.06048583984375,0.99090576171875,-6.990814208984375,1.951446533203125,-12.568511962890625,1,2.0,1.0,1.0,2.0,10.00
2024-10-11 20:17:59.543,0.21083759,1.3669397,0.9135428,0.42238423,0.19916807,0.88673496,0.46627507,0.18693659,0.9141424,0.75599825,0.61085653,0.07288527,0.5846316,0.47307786,0.21155691,0.14107443,0.24372447,0.07710346,-0.20536792,-0.113357544,791.3553,798.60803,797.8022,803.44324,1199.1208,-0.20550537109375,0.06048583984375,0.99090576171875,-6.990814208984375,1.951446533203125,-12.568511962890625,1,2.0,1.0,1.0,2.0,10.00
2024-10-11 20:17:59.544,0.21083759,1.3669397,0.9135428,0.42238423,0.19916807,0.88673496,0.46627507,0.18693659,0.9141424,0.75599825,0.61085653,0.07288527,0.5846316,0.47307786,0.21155691,0.14107443,0.24372447,0.07710346,-0.20536792,-0.113357544,794.57874,794.17584,800.2198,802.6374,990.0,-0.20550537109375,0.06048583984375,0.99090576171875,-6.990814208984375,1.951446533203125,-12.568511962890625,1,2.0,1.0,1.0,2.0,10.00
2024-10-11 20:17:59.545,0.21083759,1.3669397,0.9135428,0.42238423,0.19916807,0.88673496,0.46627507,0.18693659,0.9141424,0.75599825,0.61085653,0.07288527,0.5846316,0.47307786,0.21155691,0.14107443,0.24372447,0.07710346,-0.20536792,-0.113357544,786.1172,785.7143,793.7729,796.1905,1039.5604,-0.20550537109375,0.06048583984375,0.99090576171875,-6.990814208984375,1.951446533203125,-12.568511962890625,1,2.0,1.0,1.0,2.0,10.00
2024-10-11 20:17:59.546,0.21083759,1.3669397,0.9135428,0.42238423,0.19916807,0.88673496,0.46627507,0.18693659,0.9141424,0.75599825,0.61085653,0.07288527,0.5846316,0.47307786,0.21155691,0.14107443,0.24372447,0.07710346,-0.20536792,-0.113357544,778.0586,794.57874,795.38464,791.3553,1230.5494,-0.20550537109375,0.06048583984375,0.99090576171875,-6.990814208984375,1.951446533203125,-12.568511962890625,1,2.0,1.0,1.0,2.0,10.00
2024-10-11 20:17:59.547,0.21083759,1.3669397,0.9135428,0.42238423,0.19916807,0.88673496,0.46627507,0.18693659,0.9141424,0.75599825,0.61085653,0.07288527,0.5846316,0.47307786,0.21155691,0.14107443,0.24372447,0.07710346,-0.20536792,-0.113357544,782.49084,806.6667,796.99634,789.7436,855.42126,-0.20550537109375,0.06048583984375,0.99090576171875,-6.990814208984375,1.951446533203125,-12.568511962890625,1,2.0,1.0,1.0,2.0,10.00
2024-10-11 20:17:59.548,0.21083759,1.3669397,0.9135428,0.42238423,0.19916807,0.88673496,0.46627507,0.18693659,0.9141424,0.75599825,0.61085653,0.07288527,0.5846316,0.47307786,0.21155691,0.14107443,0.24372447,0.07710346,-0.20536792,-0.113357544,785.7143,801.02563,794.17584,791.75824,634.61536,-0.20550537109375,0.06048583984375,0.99090576171875,-6.990814208984375,1.951446533203125,-12.568511962890625,1,2.0,1.0,1.0,2.0,10.00
2024-10-11 20:17:59.549,0.21083759,1.3669397,0.9135428,0.42238423,0.19916807,0.88673496,0.46627507,0.18693659,0.9141424,0.75599825,0.61085653,0.07288527,0.5846316,0.47307786,0.21155691,0.14107443,0.24372447,0.07710346,-0.20536792,-0.113357544,783.69965,792.1612,790.9524,789.34064,709.9634,-0.20550537109375,0.06048583984375,0.99090576171875,-6.990814208984375,1.951446533203125,-12.568511962890625,1,2.0,1.0,1.0,2.0,10.00
2024-10-11 20:17:59.550,0.21083759,1.3669397,0.9135428,0.42238423,0.19916807,0.88673496,0.46627507,0.18693659,0.9141424,0.75599825,0.61085653,0.07288527,0.5846316,0.47307786,0.21155691,0.14107443,0.24372447,0.07710346,-0.20536792,-0.113357544,795.78754,797.3993,794.9817,784.90845,662.01465,-0.20550537109375,0.06048583984375,0.99090576171875,-6.990814208984375,1.951446533203125,-12.568511962890625,1,2.0,1.0,1.0,2.0,10.00
2024-10-11 20:17:59.551,0.21083759,1.3669397,0.9135428,0.42238423,0.19916807,0.88673496,0.46627507,0.18693659,0.9141424,0.75599825,0.61085653,0.07288527,0.5846316,0.47307786,0.21155691,0.14107443,0.24372447,0.07710346,-0.20536792,-0.113357544,801.4286,799.011,803.8461,788.1319,619.707,-0.20550537109375,0.06048583984375,0.99090576171875,-6.990814208984375,1.951446533203125,-12.568511962890625,1,2.0,1.0,1.0,2.0,10.00
2024-10-11 20:17:59.580,0.21083759,1.3669397,0.9135428,0.42238423,0.19916807,0.88673496,0.46627507,0.18693659,0.9141424,0.75599825,0.61085653,0.07288527,0.5846316,0.47307786,0.21155691,0.14107443,0.24372447,0.07710346,-0.20536792,-0.113357544,802.6374,794.57874,794.17584,796.5934,686.99634,-0.20147705078125,0.02435302734375,0.984130859375,-14.048919677734375,5.36834716796875,-12.987213134765625,1,2.0,1.0,1.0,2.0,10.00
2024-10-11 20:17:59.581,0.21083759,1.3669397,0.9135428,0.42238423,0.19916807,0.88673496,0.46627507,0.18693659,0.9141424,0.75599825,0.61085653,0.07288527,0.5846316,0.47307786,0.21155691,0.14107443,0.24372447,0.07710346,-0.20536792,-0.113357544,803.44324,794.57874,792.96704,802.23444,709.9634,-0.20147705078125,0.02435302734375,0.984130859375,-14.048919677734375,5.36834716796875,-12.987213134765625,1,2.0,1.0,1.0,2.0,10.00
2024-10-11 20:17:59.582,0.21083759,1.3669397,0.9135428,0.42238423,0.19916807,0.88673496,0.46627507,0.18693659,0.9141424,0.75599825,0.61085653,0.07288527,0.5846316,0.47307786,0.21155691,0.14107443,0.24372447,0.07710346,-0.20536792,-0.113357544,792.5641,796.5934,799.41394,794.9817,560.87915,-0.20147705078125,0.02435302734375,0.984130859375,-14.048919677734375,5.36834716796875,-12.987213134765625,1,2.0,1.0,1.0,2.0,10.00
2024-10-11 20:17:59.583,0.21083759,1.3669397,0.9135428,0.42238423,0.19916807,0.88673496,0.46627507,0.18693659,0.9141424,0.75599825,0.61085653,0.07288527,0.5846316,0.47307786,0.21155691,0.14107443,0.24372447,0.07710346,-0.20536792,-0.113357544,796.99634,799.011,796.1905,789.7436,596.7399,-0.20147705078125,0.02435302734375,0.984130859375,-14.048919677734375,5.36834716796875,-12.987213134765625,1,2.0,1.0,1.0,2.0,10.00
2024-10-11 20:17:59.584,0.21083759,1.3669397,0.9135428,0.42238423,0.19916807,0.88673496,0.46627507,0.18693659,0.9141424,0.75599825,0.61085653,0.07288527,0.5846316,0.47307786,0.21155691,0.14107443,0.24372447,0.07710346,-0.20536792,-0.113357544,803.8461,796.99634,803.8461,794.9817,761.13556,-0.20147705078125,0.02435302734375,0.984130859375,-14.048919677734375,5.36834716796875,-12.987213134765625,1,2.0,1.0,1.0,2.0,10.00
2024-10-11 20:17:59.585,0.21083759,1.3669397,0.9055467,0.42238423,0.19916807,0.88673496,0.48143256,0.18693659,0.9141424,0.75599825,0.61559355,0.07288527,0.5846316,0.47307786,0.22627236,0.14107443,0.24372447,0.07710346,-0.20271379,-0.113357544,801.4286,798.60803,805.8608,800.2198,865.89746,-0.20147705078125,0.02435302734375,0.984130859375,-14.048919677734375,5.36834716796875,-12.987213134765625,1,2.0,1.0,1.0,2.0,10.00
2024-10-11 20:17:59.590,0.21083759,1.3669397,0.9055467,0.42238423,0.19916807,0.88673496,0.48143256,0.18693659,0.9141424,0.75599825,0.61559355,0.07288527,0.5846316,0.47307786,0.22627236,0.14107443,0.24372447,0.07710346,-0.20271379,-0.113357544,804.2491,799.41394,796.5934,805.4579,751.4652,-0.20147705078125,0.02435302734375,0.984130859375,-14.048919677734375,5.36834716796875,-12.987213134765625,1,2.0,1.0,1.0,2.0,10.00
2024-10-11 20:17:59.591,0.21083759,1.3669397,0.9055467,0.42238423,0.19916807,0.88673496,0.48143256,0.18693659,0.9141424,0.75599825,0.61559355,0.07288527,0.5846316,0.47307786,0.22627236,0.14107443,0.24372447,0.07710346,-0.20271379,-0.113357544,807.47253,798.20514,801.02563,804.2491,655.56775,-0.20147705078125,0.02435302734375,0.984130859375,-14.048919677734375,5.36834716796875,-12.987213134765625,1,2.0,1.0,1.0,2.0,10.00
2024-10-11 20:17:59.592,0.21083759,1.3669397,0.9055467,0.42238423,0.19916807,0.88673496,0.48143256,0.18693659,0.9141424,0.75599825,0.61559355,0.07288527,0.5846316,0.47307786,0.22627236,0.14107443,0.24372447,0.07710346,-0.20271379,-0.113357544,811.50183,795.78754,797.8022,805.4579,808.2784,-0.20147705078125,0.02435302734375,0.984130859375,-14.048919677734375,5.36834716796875,-12.987213134765625,1,2.0,1.0,1.0,2.0,10.00
2024-10-11 20:17:59.593,0.21083759,1.3669397,0.9055467,0.42238423,0.19916807,0.88673496,0.48143256,0.18693659,0.9141424,0.75599825,0.61559355,0.07288527,0.5846316,0.47307786,0.22627236,0.14107443,0.24372447,0.07710346,-0.20271379,-0.113357544,814.3223,798.60803,790.9524,804.2491,789.34064,-0.20147705078125,0.02435302734375,0.984130859375,-14.048919677734375,5.36834716796875,-12.987213134765625,1,2.0,1.0,1.0,2.0,10.00
2024-10-11 20:17:59.594,0.21083759,1.3669397,0.9055467,0.42238423,0.19916807,0.88673496,0.48143256,0.18693659,0.9141424,0.75599825,0.61559355,0.07288527,0.5846316,0.47307786,0.22627236,0.14107443,0.24372447,0.07710346,-0.20271379,-0.113357544,800.6227,799.81683,796.99634,799.011,635.82416,-0.20147705078125,0.02435302734375,0.984130859375,-14.048919677734375,5.36834716796875,-12.987213134765625,1,2.0,1.0,1.0,2.0,10.00
2024-10-11 20:17:59.595,0.21083759,1.3669397,0.9055467,0.42238423,0.19916807,0.88673496,0.48143256,0.18693659,0.9141424,0.75599825,0.61559355,0.07288527,0.5846316,0.47307786,0.22627236,0.14107443,0.24372447,0.07710346,-0.20271379,-0.113357544,793.7729,796.99634,794.9817,796.99634,668.46155,-0.20147705078125,0.02435302734375,0.984130859375,-14.048919677734375,5.36834716796875,-12.987213134765625,1,2.0,1.0,1.0,2.0,10.00
2024-10-11 20:17:59.625,0.21083759,1.3669397,0.9055467,0.42238423,0.19916807,0.88673496,0.48143256,0.18693659,0.9141424,0.75599825,0.61559355,0.07288527,0.5846316,0.47307786,0.22627236,0.14107443,0.24372447,0.07710346,-0.20271379,-0.113357544,796.99634,794.9817,792.1612,805.8608,1079.0476,-0.2193603515625,-0.01641845703125,0.997314453125,-15.23773193359375,7.663726806640625,-9.2413330078125,1,2.0,1.0,1.0,2.0,10.00
2024-10-11 20:17:59.626,0.21083759,1.3669397,0.9055467,0.42238423,0.19916807,0.88673496,0.48143256,0.18693659,0.9141424,0.75599825,0.61559355,0.07288527,0.5846316,0.47307786,0.22627236,0.14107443,0.24372447,0.07710346,-0.20271379,-0.113357544,795.38464,793.7729,799.011,809.89014,1307.9121,-0.2193603515625,-0.01641845703125,0.997314453125,-15.23773193359375,7.663726806640625,-9.2413330078125,1,2.0,1.0,1.0,2.0,10.00
2024-10-11 20:17:59.627,0.21083759,1.3669397,0.9055467,0.42238423,0.19916807,0.88673496,0.48143256,0.18693659,0.9141424,0.75599825,0.61559355,0.07288527,0.5846316,0.47307786,0.22627236,0.14107443,0.24372447,0.07710346,-0.20271379,-0.113357544,799.011,800.2198,798.60803,803.0403,788.1319,-0.2193603515625,-0.01641845703125,0.997314453125,-15.23773193359375,7.663726806640625,-9.2413330078125,1,2.0,1.0,1.0,2.0,10.00
2024-10-11 20:17:59.628,0.21083759,1.3669397,0.9055467,0.42238423,0.19916807,0.88673496,0.48143256,0.18693659,0.9141424,0.75599825,0.61559355,0.07288527,0.5846316,0.47307786,0.22627236,0.14107443,0.24372447,0.07710346,-0.20271379,-0.113357544,805.05493,800.2198,801.8315,811.0989,613.663,-0.2193603515625,-0.01641845703125,0.997314453125,-15.23773193359375,7.663726806640625,-9.2413330078125,1,2.0,1.0,1.0,2.0,10.00
2024-10-11 20:17:59.629,0.21083759,1.3669397,0.9055467,0.42238423,0.19916807,0.88673496,0.48143256,0.18693659,0.9141424,0.75599825,0.61559355,0.07288527,0.5846316,0.47307786,0.22627236,0.14107443,0.24372447,0.07710346,-0.20271379,-0.113357544,806.6667,794.9817,802.23444,812.3077,837.28937,-0.2193603515625,-0.01641845703125,0.997314453125,-15.23773193359375,7.663726806640625,-9.2413330078125,1,2.0,1.0,1.0,2.0,10.00
2024-10-11 20:17:59.630,0.21083759,1.3669397,0.9055467,0.42238423,0.19916807,0.88673496,0.48143256,0.18693659,0.9141424,0.75599825,0.61559355,0.07288527,0.5846316,0.47307786,0.22627236,0.14107443,0.24372447,0.07710346,-0.20271379,-0.113357544,812.71063,792.1612,796.5934,808.68134,892.0879,-0.2193603515625,-0.01641845703125,0.997314453125,-15.23773193359375,7.663726806640625,-9.2413330078125,1,2.0,1.0,1.0,2.0,10.00
2024-10-11 20:17:59.631,0.21083759,1.3669397,0.9055467,0.42238423,0.19916807,0.88673496,0.48143256,0.18693659,0.9141424,0.75599825,0.61559355,0.07288527,0.5846316,0.47307786,0.22627236,0.14107443,0.24372447,0.07710346,-0.20271379,-0.113357544,820.7692,796.5934,798.60803,807.47253,779.2674,-0.2193603515625,-0.01641845703125,0.997314453125,-15.23773193359375,7.663726806640625,-9.2413330078125,1,2.0,1.0,1.0,2.0,10.00
2024-10-11 20:17:59.632,0.21083759,1.3669397,0.9055467,0.42238423,0.19916807,0.88673496,0.48143256,0.18693659,0.9141424,0.75599825,0.61559355,0.07288527,0.5846316,0.47307786,0.22627236,0.14107443,0.24372447,0.07710346,-0.20271379,-0.113357544,811.9048,799.011,800.6227,800.6227,734.94507,-0.2193603515625,-0.01641845703125,0.997314453125,-15.23773193359375,7.663726806640625,-9.2413330078125,1,2.0,1.0,1.0,2.0,10.00
2024-10-11 20:17:59.633,0.21083759,1.3669397,0.9055467,0.42238423,0.19916807,0.88673496,0.48143256,0.18693659,0.9141424,0.75599825,0.61559355,0.07288527,0.5846316,0.47307786,0.22627236,0.14107443,0.24372447,0.07710346,-0.20271379,-0.113357544,813.91943,793.36993,799.41394,815.9341,1069.7803,-0.2193603515625,-0.01641845703125,0.997314453125,-15.23773193359375,7.663726806640625,-9.2413330078125,1,2.0,1.0,1.0,2.0,10.00
2024-10-11 20:17:59.634,0.21083759,1.3669397,0.9055467,0.42238423,0.19916807,0.88673496,0.48143256,0.18693659,0.9141424,0.75599825,0.61559355,0.07288527,0.5846316,0.47307786,0.22627236,0.14107443,0.24372447,0.07710346,-0.20271379,-0.113357544,820.7692,796.1905,802.6374,825.2015,970.2564,-0.2193603515625,-0.01641845703125,0.997314453125,-15.23773193359375,7.663726806640625,-9.2413330078125,1,2.0,1.0,1.0,2.0,10.00
2024-10-11 20:17:59.635,0.21083759,1.3669397,0.9055467,0.42238423,0.19916807,0.88673496,0.48143256,0.18693659,0.9141424,0.75599825,0.61559355,0.07288527,0.5846316,0.47307786,0.22627236,0.14107443,0.24372447,0.07710346,-0.20271379,-0.113357544,808.2784,799.41394,811.9048,805.8608,622.1245,-0.2193603515625,-0.01641845703125,0.997314453125,-15.23773193359375,7.663726806640625,-9.2413330078125,1,2.0,1.0,1.0,2.0,10.00
2024-10-11 20:17:59.636,0.21083759,1.3669397,0.9055467,0.42238423,0.19916807,0.88673496,0.48143256,0.18693659,0.9141424,0.75599825,0.61559355,0.07288527,0.5846316,0.47307786,0.22627236,0.14107443,0.24372447,0.07710346,-0.20271379,-0.113357544,807.8755,798.60803,801.4286,805.05493,622.9304,-0.2193603515625,-0.01641845703125,0.997314453125,-15.23773193359375,7.663726806640625,-9.2413330078125,1,2.0,1.0,1.0,2.0,10.00
2024-10-11 20:17:59.665,0.21083759,1.3669397,0.9055467,0.42238423,0.19916807,0.88673496,0.48143256,0.18693659,0.9141424,0.75599825,0.61559355,0.07288527,0.5846316,0.47307786,0.22627236,0.14107443,0.24372447,0.07710346,-0.20271379,-0.113357544,815.12823,799.41394,799.011,811.0989,708.7546,-0.2193603515625,-0.01641845703125,0.997314453125,-15.23773193359375,7.663726806640625,-9.2413330078125,1,2.0,1.0,1.0,2.0,10.00
2024-10-11 20:17:59.666,0.21083759,1.3669397,0.9055467,0.42238423,0.19916807,0.88673496,0.48143256,0.18693659,0.9141424,0.75599825,0.61559355,0.07288527,0.5846316,0.47307786,0.22627236,0.14107443,0.24372447,0.07710346,-0.20271379,-0.113357544,813.91943,803.44324,805.8608,813.1135,774.83514,-0.2193603515625,-0.01641845703125,0.997314453125,-15.23773193359375,7.663726806640625,-9.2413330078125,1,2.0,1.0,1.0,2.0,10.00
2024-10-11 20:17:59.667,0.21083759,1.3669397,0.9055467,0.42238423,0.19916807,0.88673496,0.48143256,0.18693659,0.9141424,0.75599825,0.61559355,0.07288527,0.5846316,0.47307786,0.22627236,0.14107443,0.24372447,0.07710346,-0.20271379,-0.113357544,799.41394,801.02563,801.02563,815.9341,790.9524,-0.2193603515625,-0.01641845703125,0.997314453125,-15.23773193359375,7.663726806640625,-9.2413330078125,1,2.0,1.0,1.0,2.0,10.00
2024-10-11 20:17:59.668,0.21083759,1.3669397,0.9055467,0.42238423,0.19916807,0.88673496,0.48143256,0.18693659,0.9141424,0.75599825,0.61559355,0.07288527,0.5846316,0.47307786,0.22627236,0.14107443,0.24372447,0.07710346,-0.20271379,-0.113357544,792.1612,797.8022,801.8315,810.696,857.4359,-0.2193603515625,-0.01641845703125,0.997314453125,-15.23773193359375,7.663726806640625,-9.2413330078125,1,2.0,1.0,1.0,2.0,10.00
2024-10-11 20:17:59.669,0.21083759,1.3669397,0.9055467,0.42238423,0.19916807,0.88673496,0.48143256,0.18693659,0.9141424,0.75599825,0.61559355,0.07288527,0.5846316,0.47307786,0.22627236,0.14107443,0.24372447,0.07710346,-0.20271379,-0.113357544,804.65204,801.02563,807.8755,815.5311,847.3626,-0.2193603515625,-0.01641845703125,0.997314453125,-15.23773193359375,7.663726806640625,-9.2413330078125,1,2.0,1.0,1.0,2.0,10.00
2024-10-11 20:17:59.670,0.21083759,1.3669397,0.9055467,0.42238423,0.19916807,0.88673496,0.48143256,0.18693659,0.9141424,0.75599825,0.61559355,0.07288527,0.5846316,0.47307786,0.22627236,0.14107443,0.24372447,0.07710346,-0.20271379,-0.113357544,811.0989,799.011,809.89014,821.978,947.6923,-0.2193603515625,-0.01641845703125,0.997314453125,-15.23773193359375,7.663726806640625,-9.2413330078125,1,2.0,1.0,1.0,2.0,10.00
2024-10-11 20:17:59.671,0.21083759,1.3669397,0.9055467,0.42238423,0.19916807,0.88673496,0.48143256,0.18693659,0.9141424,0.75599825,0.61559355,0.07288527,0.5846316,0.47307786,0.22627236,0.14107443,0.24372447,0.07710346,-0.20271379,-0.113357544,798.60803,797.3993,807.0696,819.5604,953.73627,-0.2193603515625,-0.01641845703125,0.997314453125,-15.23773193359375,7.663726806640625,-9.2413330078125,1,2.0,1.0,1.0,2.0,10.00
2024-10-11 20:17:59.672,0.21083759,1.3669397,0.88957244,0.42238423,0.19916807,0.88673496,0.49536416,0.18693659,0.9141424,0.75599825,0.6350474,0.07288527,0.5846316,0.47307786,0.23512971,0.14107443,0.24372447,0.07710346,-0.20317262,-0.113357544,789.34064,797.3993,808.2784,822.381,875.16486,-0.2193603515625,-0.01641845703125,0.997314453125,-15.23773193359375,7.663726806640625,-9.2413330078125,1,2.0,1.0,1.0,2.0,10.00
2024-10-11 20:17:59.676,0.21083759,1.3669397,0.88957244,0.42238423,0.19916807,0.88673496,0.49536416,0.18693659,0.9141424,0.75599825,0.6350474,0.07288527,0.5846316,0.47307786,0.23512971,0.14107443,0.24372447,0.07710346,-0.20317262,-0.113357544,797.3993,785.7143,808.2784,832.8571,1110.0732,-0.2193603515625,-0.01641845703125,0.997314453125,-15.23773193359375,7.663726806640625,-9.2413330078125,1,2.0,1.0,1.0,2.0,10.00
2024-10-11 20:17:59.677,0.21083759,1.3669397,0.88957244,0.42238423,0.19916807,0.88673496,0.49536416,0.18693659,0.9141424,0.75599825,0.6350474,0.07288527,0.5846316,0.47307786,0.23512971,0.14107443,0.24372447,0.07710346,-0.20317262,-0.113357544,803.44324,794.17584,801.02563,815.12823,823.1868,-0.2193603515625,-0.01641845703125,0.997314453125,-15.23773193359375,7.663726806640625,-9.2413330078125,1,2.0,1.0,1.0,2.0,10.00
2024-10-11 20:17:59.678,0.21083759,1.3669397,0.88957244,0.42238423,0.19916807,0.88673496,0.49536416,0.18693659,0.9141424,0.75599825,0.6350474,0.07288527,0.5846316,0.47307786,0.23512971,0.14107443,0.24372447,0.07710346,-0.20317262,-0.113357544,790.54944,809.89014,796.1905,787.326,595.12823,-0.2193603515625,-0.01641845703125,0.997314453125,-15.23773193359375,7.663726806640625,-9.2413330078125,1,2.0,1.0,1.0,2.0,10.00
2024-10-11 20:17:59.679,0.21083759,1.3669397,0.88957244,0.42238423,0.19916807,0.88673496,0.49536416,0.18693659,0.9141424,0.75599825,0.6350474,0.07288527,0.5846316,0.47307786,0.23512971,0.14107443,0.24372447,0.07710346,-0.20317262,-0.113357544,784.90845,809.4872,790.9524,782.8938,716.4103,-0.2193603515625,-0.01641845703125,0.997314453125,-15.23773193359375,7.663726806640625,-9.2413330078125,1,2.0,1.0,1.0,2.0,10.00
2024-10-11 20:17:59.774,0.21083759,1.3669397,0.88957244,0.42238423,0.19916807,0.88673496,0.49536416,0.18693659,0.9141424,0.75599825,0.6350474,0.07288527,0.5846316,0.47307786,0.23512971,0.14107443,0.24372447,0.07710346,-0.20317262,-0.113357544,792.1612,807.8755,792.1612,780.07324,614.87177,-0.2230224609375,-0.050537109375,0.97161865234375,-11.97784423828125,5.435638427734375,-8.074951171875,1,2.0,1.0,1.0,2.0,10.00
2024-10-11 20:17:59.775,0.21083759,1.3669397,0.88957244,0.42238423,0.19916807,0.88673496,0.49536416,0.18693659,0.9141424,0.75599825,0.6350474,0.07288527,0.5846316,0.47307786,0.23512971,0.14107443,0.24372447,0.07710346,-0.20317262,-0.113357544,794.9817,807.47253,789.7436,774.83514,531.06226,-0.2230224609375,-0.050537109375,0.97161865234375,-11.97784423828125,5.435638427734375,-8.074951171875,1,2.0,1.0,1.0,2.0,10.00
2024-10-11 20:17:59.776,0.21083759,1.3669397,0.88957244,0.42238423,0.19916807,0.88673496,0.49536416,0.18693659,0.9141424,0.75599825,0.6350474,0.07288527,0.5846316,0.47307786,0.23512971,0.14107443,0.24372447,0.07710346,-0.20317262,-0.113357544,798.20514,803.44324,783.2967,777.6557,707.1429,-0.2230224609375,-0.050537109375,0.97161865234375,-11.97784423828125,5.435638427734375,-8.074951171875,1,2.0,1.0,1.0,2.0,10.00
2024-10-11 20:17:59.777,0.21083759,1.3669397,0.88957244,0.42238423,0.19916807,0.88673496,0.49536416,0.18693659,0.9141424,0.75599825,0.6350474,0.07288527,0.5846316,0.47307786,0.23512971,0.14107443,0.24372447,0.07710346,-0.20317262,-0.113357544,792.96704,799.81683,781.685,776.8498,827.2161,-0.2230224609375,-0.050537109375,0.97161865234375,-11.97784423828125,5.435638427734375,-8.074951171875,1,2.0,1.0,1.0,2.0,10.00
2024-10-11 20:17:59.778,0.21083759,1.3669397,0.88957244,0.42238423,0.19916807,0.88673496,0.49536416,0.18693659,0.9141424,0.75599825,0.6350474,0.07288527,0.5846316,0.47307786,0.23512971,0.14107443,0.24372447,0.07710346,-0.20317262,-0.113357544,793.36993,805.8608,780.87915,778.46155,731.31866,-0.2230224609375,-0.050537109375,0.97161865234375,-11.97784423828125,5.435638427734375,-8.074951171875,1,2.0,1.0,1.0,2.0,10.00
2024-10-11 20:17:59.779,0.21083759,1.3669397,0.88957244,0.42238423,0.19916807,0.88673496,0.49536416,0.18693659,0.9141424,0.75599825,0.6350474,0.07288527,0.5846316,0.47307786,0.23512971,0.14107443,0.24372447,0.07710346,-0.20317262,-0.113357544,788.1319,805.05493,786.52014,785.31134,801.02563,-0.2230224609375,-0.050537109375,0.97161865234375,-11.97784423828125,5.435638427734375,-8.074951171875,1,2.0,1.0,1.0,2.0,10.00
2024-10-11 20:17:59.779,0.21083759,1.3669397,0.88957244,0.42238423,0.19916807,0.88673496,0.49536416,0.18693659,0.9141424,0.75599825,0.6350474,0.07288527,0.5846316,0.47307786,0.23512971,0.14107443,0.24372447,0.07710346,-0.20317262,-0.113357544,786.52014,801.02563,793.7729,789.34064,929.9634,-0.2230224609375,-0.050537109375,0.97161865234375,-11.97784423828125,5.435638427734375,-8.074951171875,1,2.0,1.0,1.0,2.0,10.00
2024-10-11 20:17:59.780,0.21083759,1.3669397,0.88957244,0.42238423,0.19916807,0.88673496,0.49536416,0.18693659,0.9141424,0.75599825,0.6350474,0.07288527,0.5846316,0.47307786,0.23512971,0.14107443,0.24372447,0.07710346,-0.20317262,-0.113357544,791.75824,795.38464,790.9524,800.2198,1193.0769,-0.2230224609375,-0.050537109375,0.97161865234375,-11.97784423828125,5.435638427734375,-8.074951171875,1,2.0,1.0,1.0,2.0,10.00
2024-10-11 20:17:59.781,0.21083759,1.3669397,0.88957244,0.42238423,0.19916807,0.88673496,0.49536416,0.18693659,0.9141424,0.75599825,0.6350474,0.07288527,0.5846316,0.47307786,0.23512971,0.14107443,0.24372447,0.07710346,-0.20317262,-0.113357544,790.14655,792.96704,794.9817,802.6374,1140.6959,-0.2230224609375,-0.050537109375,0.97161865234375,-11.97784423828125,5.435638427734375,-8.074951171875,1,2.0,1.0,1.0,2.0,10.00
2024-10-11 20:17:59.782,0.21083759,1.3669397,0.88957244,0.42238423,0.19916807,0.88673496,0.49536416,0.18693659,0.9141424,0.75599825,0.6350474,0.07288527,0.5846316,0.47307786,0.23512971,0.14107443,0.24372447,0.07710346,-0.20317262,-0.113357544,798.60803,798.60803,794.9817,792.1612,687.8022,-0.2230224609375,-0.050537109375,0.97161865234375,-11.97784423828125,5.435638427734375,-8.074951171875,1,2.0,1.0,1.0,2.0,10.00
2024-10-11 20:17:59.783,0.21083759,1.3669397,0.88957244,0.42238423,0.19916807,0.88673496,0.49536416,0.18693659,0.9141424,0.75599825,0.6350474,0.07288527,0.5846316,0.47307786,0.23512971,0.14107443,0.24372447,0.07710346,-0.20317262,-0.113357544,803.8461,799.41394,794.17584,789.34064,640.2564,-0.2230224609375,-0.050537109375,0.97161865234375,-11.97784423828125,5.435638427734375,-8.074951171875,1,2.0,1.0,1.0,2.0,10.00
2024-10-11 20:17:59.784,0.21083759,1.3669397,0.88957244,0.42238423,0.19916807,0.88673496,0.49536416,0.18693659,0.9141424,0.75599825,0.6350474,0.07288527,0.5846316,0.47307786,0.23512971,0.14107443,0.24372447,0.07710346,-0.20317262,-0.113357544,805.4579,801.02563,798.20514,798.20514,666.04395,-0.2230224609375,-0.050537109375,0.97161865234375,-11.97784423828125,5.435638427734375,-8.074951171875,1,2.0,1.0,1.0,2.0,10.00
2024-10-11 20:17:59.812,0.21083759,1.3669397,0.88957244,0.42238423,0.19916807,0.88673496,0.49536416,0.18693659,0.9141424,0.75599825,0.6350474,0.07288527,0.5846316,0.47307786,0.23512971,0.14107443,0.24372447,0.07710346,-0.20317262,-0.113357544,811.0989,806.26373,793.36993,802.23444,577.8022,-0.22210693359375,-0.0740966796875,0.93743896484375,-4.59075927734375,5.435638427734375,-5.973968505859375,1,2.0,1.0,1.0,2.0,10.00
2024-10-11 20:17:59.813,0.21083759,1.3669397,0.88957244,0.42238423,0.19916807,0.88673496,0.49536416,0.18693659,0.9141424,0.75599825,0.6350474,0.07288527,0.5846316,0.47307786,0.23512971,0.14107443,0.24372447,0.07710346,-0.20317262,-0.113357544,807.8755,803.0403,795.78754,805.8608,586.6667,-0.22210693359375,-0.0740966796875,0.93743896484375,-4.59075927734375,5.435638427734375,-5.973968505859375,1,2.0,1.0,1.0,2.0,10.00
2024-10-11 20:17:59.814,0.21083759,1.3669397,0.88957244,0.42238423,0.19916807,0.88673496,0.49536416,0.18693659,0.9141424,0.75599825,0.6350474,0.07288527,0.5846316,0.47307786,0.23512971,0.14107443,0.24372447,0.07710346,-0.20317262,-0.113357544,810.293,799.011,796.5934,810.696,689.81683,-0.22210693359375,-0.0740966796875,0.93743896484375,-4.59075927734375,5.435638427734375,-5.973968505859375,1,2.0,1.0,1.0,2.0,10.00
2024-10-11 20:17:59.815,0.21083759,1.3669397,0.88957244,0.42238423,0.19916807,0.88673496,0.49536416,0.18693659,0.9141424,0.75599825,0.6350474,0.07288527,0.5846316,0.47307786,0.23512971,0.14107443,0.24372447,0.07710346,-0.20317262,-0.113357544,815.12823,799.011,800.2198,814.3223,774.83514,-0.22210693359375,-0.0740966796875,0.93743896484375,-4.59075927734375,5.435638427734375,-5.973968505859375,1,2.0,1.0,1.0,2.0,10.00
2024-10-11 20:17:59.816,0.21083759,1.3669397,0.88957244,0.42238423,0.19916807,0.88673496,0.49536416,0.18693659,0.9141424,0.75599825,0.6350474,0.07288527,0.5846316,0.47307786,0.23512971,0.14107443,0.24372447,0.07710346,-0.20317262,-0.113357544,812.3077,797.8022,800.6227,812.3077,728.49817,-0.22210693359375,-0.0740966796875,0.93743896484375,-4.59075927734375,5.435638427734375,-5.973968505859375,1,2.0,1.0,1.0,2.0,10.00
2024-10-11 20:17:59.817,0.21083759,1.3669397,0.88957244,0.42238423,0.19916807,0.88673496,0.49536416,0.18693659,0.9141424,0.75599825,0.6350474,0.07288527,0.5846316,0.47307786,0.23512971,0.14107443,0.24372447,0.07710346,-0.20317262,-0.113357544,815.12823,793.36993,794.9817,810.696,748.24176,-0.22210693359375,-0.0740966796875,0.93743896484375,-4.59075927734375,5.435638427734375,-5.973968505859375,1,2.0,1.0,1.0,2.0,10.00
2024-10-11 20:17:59.818,0.21083759,1.3669397,0.88957244,0.42238423,0.19916807,0.88673496,0.49536416,0.18693659,0.9141424,0.75599825,0.6350474,0.07288527,0.5846316,0.47307786,0.23512971,0.14107443,0.24372447,0.07710346,-0.20317262,-0.113357544,816.7399,794.17584,805.05493,810.696,940.84247,-0.22210693359375,-0.0740966796875,0.93743896484375,-4.59075927734375,5.435638427734375,-5.973968505859375,1,2.0,1.0,1.0,2.0,10.00
2024-10-11 20:17:59.818,0.21083759,1.3669397,0.88957244,0.42238423,0.19916807,0.88673496,0.49536416,0.18693659,0.9141424,0.75599825,0.6350474,0.07288527,0.5846316,0.47307786,0.23512971,0.14107443,0.24372447,0.07710346,-0.20317262,-0.113357544,817.9487,800.2198,806.6667,816.7399,915.4579,-0.22210693359375,-0.0740966796875,0.93743896484375,-4.59075927734375,5.435638427734375,-5.973968505859375,1,2.0,1.0,1.0,2.0,10.00
2024-10-11 20:17:59.819,0.21083759,1.3669397,0.88957244,0.42238423,0.19916807,0.88673496,0.49536416,0.18693659,0.9141424,0.75599825,0.6350474,0.07288527,0.5846316,0.47307786,0.23512971,0.14107443,0.24372447,0.07710346,-0.20317262,-0.113357544,813.91943,802.23444,801.4286,818.7546,790.54944,-0.22210693359375,-0.0740966796875,0.93743896484375,-4.59075927734375,5.435638427734375,-5.973968505859375,1,2.0,1.0,1.0,2.0,10.00
2024-10-11 20:17:59.819,0.21083759,1.3669397,0.85570014,0.42238423,0.19916807,0.88673496,0.5079035,0.18693659,0.9141424,0.75599825,0.66095376,0.07288527,0.5846316,0.47307786,0.2382122,0.14107443,0.24372447,0.07710346,-0.2048326,-0.113357544,810.293,800.2198,801.8315,810.696,767.98535,-0.22210693359375,-0.0740966796875,0.93743896484375,-4.59075927734375,5.435638427734375,-5.973968505859375,1,2.0,1.0,1.0,2.0,10.00
2024-10-11 20:17:59.824,0.21083759,1.3669397,0.85570014,0.42238423,0.19916807,0.88673496,0.5079035,0.18693659,0.9141424,0.75599825,0.66095376,0.07288527,0.5846316,0.47307786,0.2382122,0.14107443,0.24372447,0.07710346,-0.2048326,-0.113357544,809.0842,792.5641,803.44324,813.1135,868.315,-0.22210693359375,-0.0740966796875,0.93743896484375,-4.59075927734375,5.435638427734375,-5.973968505859375,1,2.0,1.0,1.0,2.0,10.00
2024-10-11 20:17:59.824,0.21083759,1.3669397,0.85570014,0.42238423,0.19916807,0.88673496,0.5079035,0.18693659,0.9141424,0.75599825,0.66095376,0.07288527,0.5846316,0.47307786,0.2382122,0.14107443,0.24372447,0.07710346,-0.2048326,-0.113357544,798.20514,791.3553,803.44324,810.696,981.53845,-0.22210693359375,-0.0740966796875,0.93743896484375,-4.59075927734375,5.435638427734375,-5.973968505859375,1,2.0,1.0,1.0,2.0,10.00
2024-10-11 20:17:59.853,0.21083759,1.3669397,0.85570014,0.42238423,0.19916807,0.88673496,0.5079035,0.18693659,0.9141424,0.75599825,0.66095376,0.07288527,0.5846316,0.47307786,0.2382122,0.14107443,0.24372447,0.07710346,-0.2048326,-0.113357544,799.81683,798.60803,801.02563,803.0403,753.0769,-0.25213623046875,-0.055419921875,0.949951171875,6.003875732421875,4.0972900390625,-1.891632080078125,1,2.0,1.0,1.0,2.0,10.00
2024-10-11 20:17:59.854,0.21083759,1.3669397,0.85570014,0.42238423,0.19916807,0.88673496,0.5079035,0.18693659,0.9141424,0.75599825,0.66095376,0.07288527,0.5846316,0.47307786,0.2382122,0.14107443,0.24372447,0.07710346,-0.2048326,-0.113357544,806.6667,797.3993,803.0403,814.7253,627.76556,-0.25213623046875,-0.055419921875,0.949951171875,6.003875732421875,4.0972900390625,-1.891632080078125,1,2.0,1.0,1.0,2.0,10.00
2024-10-11 20:17:59.855,0.21083759,1.3669397,0.85570014,0.42238423,0.19916807,0.88673496,0.5079035,0.18693659,0.9141424,0.75599825,0.66095376,0.07288527,0.5846316,0.47307786,0.2382122,0.14107443,0.24372447,0.07710346,-0.2048326,-0.113357544,811.9048,795.38464,801.02563,824.7985,778.0586,-0.25213623046875,-0.055419921875,0.949951171875,6.003875732421875,4.0972900390625,-1.891632080078125,1,2.0,1.0,1.0,2.0,10.00
2024-10-11 20:17:59.856,0.21083759,1.3669397,0.85570014,0.42238423,0.19916807,0.88673496,0.5079035,0.18693659,0.9141424,0.75599825,0.66095376,0.07288527,0.5846316,0.47307786,0.2382122,0.14107443,0.24372447,0.07710346,-0.2048326,-0.113357544,808.68134,797.8022,801.8315,818.7546,829.2308,-0.25213623046875,-0.055419921875,0.949951171875,6.003875732421875,4.0972900390625,-1.891632080078125,1,2.0,1.0,1.0,2.0,10.00
2024-10-11 20:17:59.857,0.21083759,1.3669397,0.85570014,0.42238423,0.19916807,0.88673496,0.5079035,0.18693659,0.9141424,0.75599825,0.66095376,0.07288527,0.5846316,0.47307786,0.2382122,0.14107443,0.24372447,0.07710346,-0.2048326,-0.113357544,804.2491,805.8608,800.6227,809.4872,659.19415,-0.25213623046875,-0.055419921875,0.949951171875,6.003875732421875,4.0972900390625,-1.891632080078125,1,2.0,1.0,1.0,2.0,10.00
2024-10-11 20:17:59.858,0.21083759,1.3669397,0.85570014,0.42238423,0.19916807,0.88673496,0.5079035,0.18693659,0.9141424,0.75599825,0.66095376,0.07288527,0.5846316,0.47307786,0.2382122,0.14107443,0.24372447,0.07710346,-0.2048326,-0.113357544,805.8608,807.8755,801.8315,814.7253,722.0513,-0.25213623046875,-0.055419921875,0.949951171875,6.003875732421875,4.0972900390625,-1.891632080078125,1,2.0,1.0,1.0,2.0,10.00
2024-10-11 20:17:59.859,0.21083759,1.3669397,0.85570014,0.42238423,0.19916807,0.88673496,0.5079035,0.18693659,0.9141424,0.75599825,0.66095376,0.07288527,0.5846316,0.47307786,0.2382122,0.14107443,0.24372447,0.07710346,-0.2048326,-0.113357544,805.8608,799.41394,797.3993,814.3223,816.7399,-0.25213623046875,-0.055419921875,0.949951171875,6.003875732421875,4.0972900390625,-1.891632080078125,1,2.0,1.0,1.0,2.0,10.00
2024-10-11 20:17:59.860,0.21083759,1.3669397,0.85570014,0.42238423,0.19916807,0.88673496,0.5079035,0.18693659,0.9141424,0.75599825,0.66095376,0.07288527,0.5846316,0.47307786,0.2382122,0.14107443,0.24372447,0.07710346,-0.2048326,-0.113357544,807.47253,796.5934,801.8315,805.8608,673.2967,-0.25213623046875,-0.055419921875,0.949951171875,6.003875732421875,4.0972900390625,-1.891632080078125,1,2.0,1.0,1.0,2.0,10.00
2024-10-11 20:17:59.861,0.21083759,1.3669397,0.85570014,0.42238423,0.19916807,0.88673496,0.5079035,0.18693659,0.9141424,0.75599825,0.66095376,0.07288527,0.5846316,0.47307786,0.2382122,0.14107443,0.24372447,0.07710346,-0.2048326,-0.113357544,800.6227,796.99634,807.8755,807.47253,564.5055,-0.25213623046875,-0.055419921875,0.949951171875,6.003875732421875,4.0972900390625,-1.891632080078125,1,2.0,1.0,1.0,2.0,10.00
2024-10-11 20:17:59.861,0.21083759,1.3669397,0.85570014,0.42238423,0.19916807,0.88673496,0.5079035,0.18693659,0.9141424,0.75599825,0.66095376,0.07288527,0.5846316,0.47307786,0.2382122,0.14107443,0.24372447,0.07710346,-0.2048326,-0.113357544,806.6667,799.41394,801.02563,814.3223,546.3736,-0.25213623046875,-0.055419921875,0.949951171875,6.003875732421875,4.0972900390625,-1.891632080078125,1,2.0,1.0,1.0,2.0,10.00
2024-10-11 20:17:59.862,0.21083759,1.3669397,0.85570014,0.42238423,0.19916807,0.88673496,0.5079035,0.18693659,0.9141424,0.75599825,0.66095376,0.07288527,0.5846316,0.47307786,0.2382122,0.14107443,0.24372447,0.07710346,-0.2048326,-0.113357544,811.0989,794.9817,806.6667,813.5165,615.6777,-0.25213623046875,-0.055419921875,0.949951171875,6.003875732421875,4.0972900390625,-1.891632080078125,1,2.0,1.0,1.0,2.0,10.00
2024-10-11 20:17:59.863,0.21083759,1.3669397,0.85570014,0.42238423,0.19916807,0.88673496,0.5079035,0.18693659,0.9141424,0.75599825,0.66095376,0.07288527,0.5846316,0.47307786,0.2382122,0.14107443,0.24372447,0.07710346,-0.2048326,-0.113357544,809.0842,794.17584,811.50183,809.0842,664.83514,-0.25213623046875,-0.055419921875,0.949951171875,6.003875732421875,4.0972900390625,-1.891632080078125,1,2.0,1.0,1.0,2.0,10.00
2024-10-11 20:17:59.892,0.21083759,1.3669397,0.85570014,0.42238423,0.19916807,0.88673496,0.5079035,0.18693659,0.9141424,0.75599825,0.66095376,0.07288527,0.5846316,0.47307786,0.2382122,0.14107443,0.24372447,0.07710346,-0.2048326,-0.113357544,811.9048,796.5934,799.011,813.1135,708.7546,-0.26531982421875,-0.00946044921875,0.96636962890625,11.11053466796875,2.03369140625,2.340240478515625,1,2.0,1.0,1.0,2.0,10.00
2024-10-11 20:17:59.893,0.21083759,1.3669397,0.85570014,0.42238423,0.19916807,0.88673496,0.5079035,0.18693659,0.9141424,0.75599825,0.66095376,0.07288527,0.5846316,0.47307786,0.2382122,0.14107443,0.24372447,0.07710346,-0.2048326,-0.113357544,807.47253,794.17584,798.20514,810.293,716.0073,-0.26531982421875,-0.00946044921875,0.96636962890625,11.11053466796875,2.03369140625,2.340240478515625,1,2.0,1.0,1.0,2.0,10.00
2024-10-11 20:17:59.894,0.21083759,1.3669397,0.85570014,0.42238423,0.19916807,0.88673496,0.5079035,0.18693659,0.9141424,0.75599825,0.66095376,0.07288527,0.5846316,0.47307786,0.2382122,0.14107443,0.24372447,0.07710346,-0.2048326,-0.113357544,802.6374,801.02563,804.65204,808.68134,753.47986,-0.26531982421875,-0.00946044921875,0.96636962890625,11.11053466796875,2.03369140625,2.340240478515625,1,2.0,1.0,1.0,2.0,10.00
2024-10-11 20:17:59.895,0.21083759,1.3669397,0.85570014,0.42238423,0.19916807,0.88673496,0.5079035,0.18693659,0.9141424,0.75599825,0.66095376,0.07288527,0.5846316,0.47307786,0.2382122,0.14107443,0.24372447,0.07710346,-0.2048326,-0.113357544,803.44324,798.60803,805.8608,807.0696,745.82416,-0.26531982421875,-0.00946044921875,0.96636962890625,11.11053466796875,2.03369140625,2.340240478515625,1,2.0,1.0,1.0,2.0,10.00
2024-10-11 20:17:59.896,0.21083759,1.3669397,0.85570014,0.42238423,0.19916807,0.88673496,0.5079035,0.18693659,0.9141424,0.75599825,0.66095376,0.07288527,0.5846316,0.47307786,0.2382122,0.14107443,0.24372447,0.07710346,-0.2048326,-0.113357544,794.57874,792.1612,804.65204,804.65204,768.3883,-0.26531982421875,-0.00946044921875,0.96636962890625,11.11053466796875,2.03369140625,2.340240478515625,1,2.0,1.0,1.0,2.0,10.00
2024-10-11 20:17:59.897,0.21083759,1.3669397,0.85570014,0.42238423,0.19916807,0.88673496,0.5079035,0.18693659,0.9141424,0.75599825,0.66095376,0.07288527,0.5846316,0.47307786,0.2382122,0.14107443,0.24372447,0.07710346,-0.2048326,-0.113357544,789.34064,790.9524,800.2198,805.05493,785.31134,-0.26531982421875,-0.00946044921875,0.96636962890625,11.11053466796875,2.03369140625,2.340240478515625,1,2.0,1.0,1.0,2.0,10.00
2024-10-11 20:17:59.898,0.21083759,1.3669397,0.85570014,0.42238423,0.19916807,0.88673496,0.5079035,0.18693659,0.9141424,0.75599825,0.66095376,0.07288527,0.5846316,0.47307786,0.2382122,0.14107443,0.24372447,0.07710346,-0.2048326,-0.113357544,790.54944,788.93774,801.8315,807.8755,795.38464,-0.26531982421875,-0.00946044921875,0.96636962890625,11.11053466796875,2.03369140625,2.340240478515625,1,2.0,1.0,1.0,2.0,10.00
2024-10-11 20:17:59.899,0.21083759,1.3669397,0.85570014,0.42238423,0.19916807,0.88673496,0.5079035,0.18693659,0.9141424,0.75599825,0.66095376,0.07288527,0.5846316,0.47307786,0.2382122,0.14107443,0.24372447,0.07710346,-0.2048326,-0.113357544,795.38464,790.54944,800.6227,806.26373,692.6374,-0.26531982421875,-0.00946044921875,0.96636962890625,11.11053466796875,2.03369140625,2.340240478515625,1,2.0,1.0,1.0,2.0,10.00
2024-10-11 20:17:59.900,0.21083759,1.3669397,0.85570014,0.42238423,0.19916807,0.88673496,0.5079035,0.18693659,0.9141424,0.75599825,0.66095376,0.07288527,0.5846316,0.47307786,0.2382122,0.14107443,0.24372447,0.07710346,-0.2048326,-0.113357544,798.60803,795.38464,803.8461,798.60803,678.5348,-0.26531982421875,-0.00946044921875,0.96636962890625,11.11053466796875,2.03369140625,2.340240478515625,1,2.0,1.0,1.0,2.0,10.00
2024-10-11 20:17:59.901,0.21083759,1.3669397,0.85570014,0.42238423,0.19916807,0.88673496,0.5079035,0.18693659,0.9141424,0.75599825,0.66095376,0.07288527,0.5846316,0.47307786,0.2382122,0.14107443,0.24372447,0.07710346,-0.2048326,-0.113357544,802.6374,800.2198,805.05493,803.0403,905.78754,-0.26531982421875,-0.00946044921875,0.96636962890625,11.11053466796875,2.03369140625,2.340240478515625,1,2.0,1.0,1.0,2.0,10.00
2024-10-11 20:17:59.901,0.21083759,1.3669397,0.85570014,0.42238423,0.19916807,0.88673496,0.5079035,0.18693659,0.9141424,0.75599825,0.66095376,0.07288527,0.5846316,0.47307786,0.2382122,0.14107443,0.24372447,0.07710346,-0.2048326,-0.113357544,797.3993,800.6227,808.68134,814.7253,1133.8462,-0.26531982421875,-0.00946044921875,0.96636962890625,11.11053466796875,2.03369140625,2.340240478515625,1,2.0,1.0,1.0,2.0,10.00
2024-10-11 20:17:59.902,0.21083759,1.3669397,0.8054549,0.42238423,0.19916807,0.88673496,0.5194817,0.18693659,0.9141424,0.75599825,0.67089736,0.07288527,0.5846316,0.47307786,0.23499113,0.14107443,0.24372447,0.07710346,-0.20715147,-0.113357544,788.93774,795.78754,810.293,805.8608,728.9011,-0.26531982421875,-0.00946044921875,0.96636962890625,11.11053466796875,2.03369140625,2.340240478515625,1,2.0,1.0,1.0,2.0,10.00
2024-10-11 20:17:59.907,0.21083759,1.3669397,0.8054549,0.42238423,0.19916807,0.88673496,0.5194817,0.18693659,0.9141424,0.75599825,0.67089736,0.07288527,0.5846316,0.47307786,0.23499113,0.14107443,0.24372447,0.07710346,-0.20715147,-0.113357544,801.8315,794.9817,802.23444,814.3223,570.9524,-0.26531982421875,-0.00946044921875,0.96636962890625,11.11053466796875,2.03369140625,2.340240478515625,1,2.0,1.0,1.0,2.0,10.00
2024-10-11 20:17:59.908,0.21083759,1.3669397,0.8054549,0.42238423,0.19916807,0.88673496,0.5194817,0.18693659,0.9141424,0.75599825,0.67089736,0.07288527,0.5846316,0.47307786,0.23499113,0.14107443,0.24372447,0.07710346,-0.20715147,-0.113357544,811.0989,796.1905,802.23444,819.15753,906.5934,-0.26531982421875,-0.00946044921875,0.96636962890625,11.11053466796875,2.03369140625,2.340240478515625,1,2.0,1.0,1.0,2.0,10.00
2024-10-11 20:17:59.909,0.21083759,1.3669397,0.8054549,0.42238423,0.19916807,0.88673496,0.5194817,0.18693659,0.9141424,0.75599825,0.67089736,0.07288527,0.5846316,0.47307786,0.23499113,0.14107443,0.24372447,0.07710346,-0.20715147,-0.113357544,804.65204,794.17584,802.23444,816.337,1006.9231,-0.26531982421875,-0.00946044921875,0.96636962890625,11.11053466796875,2.03369140625,2.340240478515625,1,2.0,1.0,1.0,2.0,10.00
2024-10-11 20:17:59.910,0.21083759,1.3669397,0.8054549,0.42238423,0.19916807,0.88673496,0.5194817,0.18693659,0.9141424,0.75599825,0.67089736,0.07288527,0.5846316,0.47307786,0.23499113,0.14107443,0.24372447,0.07710346,-0.20715147,-0.113357544,798.60803,795.38464,798.20514,818.3516,722.0513,-0.26531982421875,-0.00946044921875,0.96636962890625,11.11053466796875,2.03369140625,2.340240478515625,1,2.0,1.0,1.0,2.0,10.00
2024-10-11 20:17:59.911,0.21083759,1.3669397,0.8054549,0.42238423,0.19916807,0.88673496,0.5194817,0.18693659,0.9141424,0.75599825,0.67089736,0.07288527,0.5846316,0.47307786,0.23499113,0.14107443,0.24372447,0.07710346,-0.20715147,-0.113357544,800.2198,796.1905,799.81683,813.5165,682.96704,-0.26531982421875,-0.00946044921875,0.96636962890625,11.11053466796875,2.03369140625,2.340240478515625,1,2.0,1.0,1.0,2.0,10.00
2024-10-11 20:17:59.912,0.21083759,1.3669397,0.8054549,0.42238423,0.19916807,0.88673496,0.5194817,0.18693659,0.9141424,0.75599825,0.67089736,0.07288527,0.5846316,0.47307786,0.23499113,0.14107443,0.24372447,0.07710346,-0.20715147,-0.113357544,797.3993,792.5641,799.41394,814.7253,1043.5897,-0.26531982421875,-0.00946044921875,0.96636962890625,11.11053466796875,2.03369140625,2.340240478515625,1,2.0,1.0,1.0,2.0,10.00
2024-10-11 20:17:59.913,0.21083759,1.3669397,0.8054549,0.42238423,0.19916807,0.88673496,0.5194817,0.18693659,0.9141424,0.75599825,0.67089736,0.07288527,0.5846316,0.47307786,0.23499113,0.14107443,0.24372447,0.07710346,-0.20715147,-0.113357544,795.78754,794.17584,799.41394,810.293,941.6484,-0.26531982421875,-0.00946044921875,0.96636962890625,11.11053466796875,2.03369140625,2.340240478515625,1,2.0,1.0,1.0,2.0,10.00
2024-10-11 20:17:59.914,0.21083759,1.3669397,0.8054549,0.42238423,0.19916807,0.88673496,0.5194817,0.18693659,0.9141424,0.75599825,0.67089736,0.07288527,0.5846316,0.47307786,0.23499113,0.14107443,0.24372447,0.07710346,-0.20715147,-0.113357544,798.60803,797.8022,798.60803,803.44324,566.52014,-0.26531982421875,-0.00946044921875,0.96636962890625,11.11053466796875,2.03369140625,2.340240478515625,1,2.0,1.0,1.0,2.0,10.00
2024-10-11 20:17:59.915,0.21083759,1.3669397,0.8054549,0.42238423,0.19916807,0.88673496,0.5194817,0.18693659,0.9141424,0.75599825,0.67089736,0.07288527,0.5846316,0.47307786,0.23499113,0.14107443,0.24372447,0.07710346,-0.20715147,-0.113357544,806.26373,797.3993,797.3993,806.26373,589.89014,-0.26531982421875,-0.00946044921875,0.96636962890625,11.11053466796875,2.03369140625,2.340240478515625,1,2.0,1.0,1.0,2.0,10.00
2024-10-11 20:17:59.916,0.21083759,1.3669397,0.8054549,0.42238423,0.19916807,0.88673496,0.5194817,0.18693659,0.9141424,0.75599825,0.67089736,0.07288527,0.5846316,0.47307786,0.23499113,0.14107443,0.24372447,0.07710346,-0.20715147,-0.113357544,811.50183,797.3993,795.78754,810.293,972.27106,-0.26531982421875,-0.00946044921875,0.96636962890625,11.11053466796875,2.03369140625,2.340240478515625,1,2.0,1.0,1.0,2.0,10.00
2024-10-11 20:17:59.917,0.21083759,1.3669397,0.8054549,0.42238423,0.19916807,0.88673496,0.5194817,0.18693659,0.9141424,0.75599825,0.67089736,0.07288527,0.5846316,0.47307786,0.23499113,0.14107443,0.24372447,0.07710346,-0.20715147,-0.113357544,812.71063,808.68134,799.011,809.89014,838.9011,-0.26531982421875,-0.00946044921875,0.96636962890625,11.11053466796875,2.03369140625,2.340240478515625,1,2.0,1.0,1.0,2.0,10.00
