TimeStamp,Delta_TP9,Delta_AF7,Delta_AF8,Delta_TP10,Theta_TP9,Theta_AF7,Theta_AF8,Theta_TP10,Alpha_TP9,Alpha_AF7,Alpha_AF8,Alpha_TP10,Beta_TP9,Beta_AF7,Beta_AF8,Beta_TP10,Gamma_TP9,Gamma_AF7,Gamma_AF8,Gamma_TP10,RAW_TP9,RAW_AF7,RAW_AF8,RAW_TP10,AUX_RIGHT,Accelerometer_X,Accelerometer_Y,Accelerometer_Z,Gyro_X,Gyro_Y,Gyro_Z,HeadBandOn,HSI_TP9,HSI_AF7,HSI_AF8,HSI_TP10,Battery,Elements
2024-10-11 20:19:58.934,0.38433173,-0.4097626,-0.19187424,0.44811153,0.21392997,-0.43651327,-0.026732234,0.023473602,0.39122227,-0.032770928,0.037755933,0.25732687,0.6124126,0.31159604,0.060378145,0.70931226,-0.062387563,0.053384203,-0.18039913,0.16937602,697.47253,786.9231,849.7802,728.9011,1089.9268,-0.13873291015625,0.11602783203125,1.00714111328125,-8.187103271484375,-1.921539306640625,-1.9439697265625,1,1.0,1.0,1.0,1.0,10.00
2024-10-11 20:19:58.936,0.38433173,-0.44375,-0.13778043,0.44811153,0.21392997,-0.45324817,-0.050975736,0.023473602,0.39122227,-0.06597528,0.05711276,0.25732687,0.6124126,0.30103964,0.060451046,0.70931226,-0.062387563,0.041872475,-0.17935671,0.16937602,708.3516,787.72894,849.3773,733.73627,685.78754,-0.13873291015625,0.11602783203125,1.00714111328125,-8.187103271484375,-1.921539306640625,-1.9439697265625,1,1.0,1.0,1.0,1.0,10.00
2024-10-11 20:19:58.942,0.38433173,-0.44375,-0.13778043,0.44811153,0.21392997,-0.45324817,-0.050975736,0.023473602,0.39122227,-0.06597528,0.05711276,0.25732687,0.6124126,0.30103964,0.060451046,0.70931226,-0.062387563,0.041872475,-0.17935671,0.16937602,714.7985,779.67035,850.18317,743.00366,603.9927,-0.13873291015625,0.11602783203125,1.00714111328125,-8.187103271484375,-1.921539306640625,-1.9439697265625,1,1.0,1.0,1.0,1.0,10.00
2024-10-11 20:19:58.943,0.38433173,-0.44375,-0.13778043,0.44811153,0.21392997,-0.45324817,-0.050975736,0.023473602,0.39122227,-0.06597528,0.05711276,0.25732687,0.6124126,0.30103964,0.060451046,0.70931226,-0.062387563,0.041872475,-0.17935671,0.16937602,722.4542,769.19415,845.34796,757.1062,899.7436,-0.13873291015625,0.11602783203125,1.00714111328125,-8.187103271484375,-1.921539306640625,-1.9439697265625,1,1.0,1.0,1.0,1.0,10.00
2024-10-11 20:19:58.944,0.38433173,-0.44375,-0.13778043,0.44811153,0.21392997,-0.45324817,-0.050975736,0.023473602,0.39122227,-0.06597528,0.05711276,0.25732687,0.6124126,0.30103964,0.060451046,0.70931226,-0.062387563,0.041872475,-0.17935671,0.16937602,722.0513,776.8498,839.304,762.3443,865.4945,-0.13873291015625,0.11602783203125,1.00714111328125,-8.187103271484375,-1.921539306640625,-1.9439697265625,1,1.0,1.0,1.0,1.0,10.00
2024-10-11 20:19:58.945,0.38433173,-0.44375,-0.13778043,0.44811153,0.21392997,-0.45324817,-0.050975736,0.023473602,0.39122227,-0.06597528,0.05711276,0.25732687,0.6124126,0.30103964,0.060451046,0.70931226,-0.062387563,0.041872475,-0.17935671,0.16937602,735.7509,785.7143,837.28937,765.9707,770.80585,-0.13873291015625,0.11602783203125,1.00714111328125,-8.187103271484375,-1.921539306640625,-1.9439697265625,1,1.0,1.0,1.0,1.0,10.00
2024-10-11 20:19:58.946,0.38433173,-0.44375,-0.13778043,0.44811153,0.21392997,-0.45324817,-0.050975736,0.023473602,0.39122227,-0.06597528,0.05711276,0.25732687,0.6124126,0.30103964,0.060451046,0.70931226,-0.062387563,0.041872475,-0.17935671,0.16937602,746.2271,777.6557,827.2161,775.64105,846.55676,-0.13873291015625,0.11602783203125,1.00714111328125,-8.187103271484375,-1.921539306640625,-1.9439697265625,1,1.0,1.0,1.0,1.0,10.00
2024-10-11 20:19:58.946,0.38433173,-0.44375,-0.13778043,0.44811153,0.21392997,-0.45324817,-0.050975736,0.023473602,0.39122227,-0.06597528,0.05711276,0.25732687,0.6124126,0.30103964,0.060451046,0.70931226,-0.062387563,0.041872475,-0.17935671,0.16937602,743.8095,773.6264,818.7546,776.4469,935.6044,-0.13873291015625,0.11602783203125,1.00714111328125,-8.187103271484375,-1.921539306640625,-1.9439697265625,1,1.0,1.0,1.0,1.0,10.00
2024-10-11 20:19:58.947,0.38433173,-0.44375,-0.13778043,0.44811153,0.21392997,-0.45324817,-0.050975736,0.023473602,0.39122227,-0.06597528,0.05711276,0.25732687,0.6124126,0.30103964,0.060451046,0.70931226,-0.062387563,0.041872475,-0.17935671,0.16937602,744.21246,774.0293,817.1429,779.2674,840.9158,-0.13873291015625,0.11602783203125,1.00714111328125,-8.187103271484375,-1.921539306640625,-1.9439697265625,1,1.0,1.0,1.0,1.0,10.00
2024-10-11 20:19:58.948,0.38433173,-0.44375,-0.13778043,0.44811153,0.21392997,-0.45324817,-0.050975736,0.023473602,0.39122227,-0.06597528,0.05711276,0.25732687,0.6124126,0.30103964,0.060451046,0.70931226,-0.062387563,0.041872475,-0.17935671,0.16937602,747.4359,772.01465,816.7399,790.14655,711.1722,-0.13873291015625,0.11602783203125,1.00714111328125,-8.187103271484375,-1.921539306640625,-1.9439697265625,1,1.0,1.0,1.0,1.0,10.00
2024-10-11 20:19:58.949,0.38433173,-0.44375,-0.13778043,0.44811153,0.21392997,-0.45324817,-0.050975736,0.023473602,0.39122227,-0.06597528,0.05711276,0.25732687,0.6124126,0.30103964,0.060451046,0.70931226,-0.062387563,0.041872475,-0.17935671,0.16937602,769.59705,770.80585,818.7546,797.3993,707.5458,-0.13873291015625,0.11602783203125,1.00714111328125,-8.187103271484375,-1.921539306640625,-1.9439697265625,1,1.0,1.0,1.0,1.0,10.00
2024-10-11 20:19:58.950,0.38433173,-0.44375,-0.13778043,0.44811153,0.21392997,-0.45324817,-0.050975736,0.023473602,0.39122227,-0.06597528,0.05711276,0.25732687,0.6124126,0.30103964,0.060451046,0.70931226,-0.062387563,0.041872475,-0.17935671,0.16937602,790.54944,765.9707,821.1722,804.65204,733.73627,-0.13873291015625,0.11602783203125,1.00714111328125,-8.187103271484375,-1.921539306640625,-1.9439697265625,1,1.0,1.0,1.0,1.0,10.00
2024-10-11 20:19:58.951,0.38433173,-0.44375,-0.13778043,0.44811153,0.21392997,-0.45324817,-0.050975736,0.023473602,0.39122227,-0.06597528,0.05711276,0.25732687,0.6124126,0.30103964,0.060451046,0.70931226,-0.062387563,0.041872475,-0.17935671,0.16937602,790.54944,770.0,820.7692,809.4872,748.6447,-0.14776611328125,0.100341796875,1.0206298828125,-13.0694580078125,-4.18701171875,-3.237457275390625,1,1.0,1.0,1.0,1.0,10.00
2024-10-11 20:19:58.951,0.38433173,-0.44375,-0.13778043,0.44811153,0.21392997,-0.45324817,-0.050975736,0.023473602,0.39122227,-0.06597528,0.05711276,0.25732687,0.6124126,0.30103964,0.060451046,0.70931226,-0.062387563,0.041872475,-0.17935671,0.16937602,790.54944,778.46155,822.381,811.0989,727.28937,-0.14776611328125,0.100341796875,1.0206298828125,-13.0694580078125,-4.18701171875,-3.237457275390625,1,1.0,1.0,1.0,1.0,10.00
2024-10-11 20:19:58.952,0.38433173,-0.44375,-0.13778043,0.44811153,0.21392997,-0.45324817,-0.050975736,0.023473602,0.39122227,-0.06597528,0.05711276,0.25732687,0.6124126,0.30103964,0.060451046,0.70931226,-0.062387563,0.041872475,-0.17935671,0.16937602,805.05493,774.43225,821.5751,823.1868,761.13556,-0.14776611328125,0.100341796875,1.0206298828125,-13.0694580078125,-4.18701171875,-3.237457275390625,1,1.0,1.0,1.0,1.0,10.00
2024-10-11 20:19:58.953,0.38433173,-0.44375,-0.13778043,0.44811153,0.21392997,-0.45324817,-0.050975736,0.023473602,0.39122227,-0.06597528,0.05711276,0.25732687,0.6124126,0.30103964,0.060451046,0.70931226,-0.062387563,0.041872475,-0.17935671,0.16937602,809.89014,767.98535,815.12823,828.022,761.53845,-0.14776611328125,0.100341796875,1.0206298828125,-13.0694580078125,-4.18701171875,-3.237457275390625,1,1.0,1.0,1.0,1.0,10.00
2024-10-11 20:19:58.954,0.38433173,-0.44375,-0.13778043,0.44811153,0.21392997,-0.45324817,-0.050975736,0.023473602,0.39122227,-0.06597528,0.05711276,0.25732687,0.6124126,0.30103964,0.060451046,0.70931226,-0.062387563,0.041872475,-0.17935671,0.16937602,815.12823,773.6264,807.0696,825.6044,686.1905,-0.14776611328125,0.100341796875,1.0206298828125,-13.0694580078125,-4.18701171875,-3.237457275390625,1,1.0,1.0,1.0,1.0,10.00
2024-10-11 20:19:58.954,0.38433173,-0.44375,-0.13778043,0.44811153,0.21392997,-0.45324817,-0.050975736,0.023473602,0.39122227,-0.06597528,0.05711276,0.25732687,0.6124126,0.30103964,0.060451046,0.70931226,-0.062387563,0.041872475,-0.17935671,0.16937602,816.7399,774.43225,811.9048,829.6337,823.9927,-0.14776611328125,0.100341796875,1.0206298828125,-13.0694580078125,-4.18701171875,-3.237457275390625,1,1.0,1.0,1.0,1.0,10.00
2024-10-11 20:19:58.955,0.38433173,-0.44375,-0.13778043,0.44811153,0.21392997,-0.45324817,-0.050975736,0.023473602,0.39122227,-0.06597528,0.05711276,0.25732687,0.6124126,0.30103964,0.060451046,0.70931226,-0.062387563,0.041872475,-0.17935671,0.16937602,805.05493,774.0293,816.7399,834.4689,1133.0403,-0.14776611328125,0.100341796875,1.0206298828125,-13.0694580078125,-4.18701171875,-3.237457275390625,1,1.0,1.0,1.0,1.0,10.00
2024-10-11 20:19:58.956,0.38433173,-0.44375,-0.13778043,0.44811153,0.21392997,-0.45324817,-0.050975736,0.023473602,0.39122227,-0.06597528,0.05711276,0.25732687,0.6124126,0.30103964,0.060451046,0.70931226,-0.062387563,0.041872475,-0.17935671,0.16937602,806.6667,773.6264,814.3223,827.619,966.2271,-0.14776611328125,0.100341796875,1.0206298828125,-13.0694580078125,-4.18701171875,-3.237457275390625,1,1.0,1.0,1.0,1.0,10.00
2024-10-11 20:19:58.956,0.38433173,-0.44375,-0.13778043,0.44811153,0.21392997,-0.45324817,-0.050975736,0.023473602,0.39122227,-0.06597528,0.05711276,0.25732687,0.6124126,0.30103964,0.060451046,0.70931226,-0.062387563,0.041872475,-0.17935671,0.16937602,807.0696,773.6264,810.293,827.619,630.989,-0.14776611328125,0.100341796875,1.0206298828125,-13.0694580078125,-4.18701171875,-3.237457275390625,1,1.0,1.0,1.0,1.0,10.00
2024-10-11 20:19:58.957,0.38433173,-0.44375,-0.13778043,0.44811153,0.21392997,-0.45324817,-0.050975736,0.023473602,0.39122227,-0.06597528,0.05711276,0.25732687,0.6124126,0.30103964,0.060451046,0.70931226,-0.062387563,0.041872475,-0.17935671,0.16937602,808.2784,769.59705,808.68134,834.87177,790.54944,-0.14776611328125,0.100341796875,1.0206298828125,-13.0694580078125,-4.18701171875,-3.237457275390625,1,1.0,1.0,1.0,1.0,10.00
2024-10-11 20:19:58.958,0.38433173,-0.44375,-0.13778043,0.44811153,0.21392997,-0.45324817,-0.050975736,0.023473602,0.39122227,-0.06597528,0.05711276,0.25732687,0.6124126,0.30103964,0.060451046,0.70931226,-0.062387563,0.041872475,-0.17935671,0.16937602,806.6667,771.6117,807.8755,828.4249,1014.17584,-0.14776611328125,0.100341796875,1.0206298828125,-13.0694580078125,-4.18701171875,-3.237457275390625,1,1.0,1.0,1.0,1.0,10.00
2024-10-11 20:19:58.959,0.38433173,-0.44375,-0.13778043,0.44811153,0.21392997,-0.45324817,-0.050975736,0.023473602,0.39122227,-0.06597528,0.05711276,0.25732687,0.6124126,0.30103964,0.060451046,0.70931226,-0.062387563,0.041872475,-0.17935671,0.16937602,807.8755,772.01465,806.6667,821.978,833.663,-0.14776611328125,0.100341796875,1.0206298828125,-13.0694580078125,-4.18701171875,-3.237457275390625,1,1.0,1.0,1.0,1.0,10.00
2024-10-11 20:19:58.960,0.38433173,-0.44375,-0.13778043,0.44811153,0.21392997,-0.45324817,-0.050975736,0.023473602,0.39122227,-0.06597528,0.05711276,0.25732687,0.6124126,0.30103964,0.060451046,0.70931226,-0.062387563,0.041872475,-0.17935671,0.16937602,814.3223,777.25275,811.50183,823.9927,628.5714,-0.1573486328125,0.07916259765625,1.001953125,-15.992889404296875,-3.970184326171875,-5.60760498046875,1,1.0,1.0,1.0,1.0,10.00
2024-10-11 20:19:58.961,0.38433173,-0.44375,-0.13778043,0.44811153,0.21392997,-0.45324817,-0.050975736,0.023473602,0.39122227,-0.06597528,0.05711276,0.25732687,0.6124126,0.30103964,0.060451046,0.70931226,-0.062387563,0.041872475,-0.17935671,0.16937602,809.4872,784.10254,803.8461,825.2015,769.19415,-0.1573486328125,0.07916259765625,1.001953125,-15.992889404296875,-3.970184326171875,-5.60760498046875,1,1.0,1.0,1.0,1.0,10.00
2024-10-11 20:19:58.962,0.38433173,-0.44375,-0.13778043,0.44811153,0.21392997,-0.45324817,-0.050975736,0.023473602,0.39122227,-0.06597528,0.05711276,0.25732687,0.6124126,0.30103964,0.060451046,0.70931226,-0.062387563,0.041872475,-0.17935671,0.16937602,811.50183,775.64105,799.011,831.6484,1046.0073,-0.1573486328125,0.07916259765625,1.001953125,-15.992889404296875,-3.970184326171875,-5.60760498046875,1,1.0,1.0,1.0,1.0,10.00
2024-10-11 20:19:58.963,0.38433173,-0.37254512,0.059052967,0.44811153,0.21392997,-0.35860243,-0.056818034,0.023473602,0.39122227,-0.07559507,0.13288774,0.25732687,0.6124126,0.29920578,0.06562967,0.70931226,-0.062387563,0.02648928,-0.16758126,0.16937602,814.7253,774.43225,808.2784,824.7985,855.82416,-0.1573486328125,0.07916259765625,1.001953125,-15.992889404296875,-3.970184326171875,-5.60760498046875,1,1.0,1.0,1.0,1.0,10.00
2024-10-11 20:19:58.969,0.38433173,-0.37254512,0.059052967,0.44811153,0.21392997,-0.35860243,-0.056818034,0.023473602,0.39122227,-0.07559507,0.13288774,0.25732687,0.6124126,0.29920578,0.06562967,0.70931226,-0.062387563,0.02648928,-0.16758126,0.16937602,818.3516,784.10254,805.8608,819.15753,655.9707,-0.1573486328125,0.07916259765625,1.001953125,-15.992889404296875,-3.970184326171875,-5.60760498046875,1,1.0,1.0,1.0,1.0,10.00
2024-10-11 20:19:58.970,0.38433173,-0.37254512,0.059052967,0.44811153,0.21392997,-0.35860243,-0.056818034,0.023473602,0.39122227,-0.07559507,0.13288774,0.25732687,0.6124126,0.29920578,0.06562967,0.70931226,-0.062387563,0.02648928,-0.16758126,0.16937602,819.9634,784.90845,805.05493,827.2161,894.90845,-0.1573486328125,0.07916259765625,1.001953125,-15.992889404296875,-3.970184326171875,-5.60760498046875,1,1.0,1.0,1.0,1.0,10.00
2024-10-11 20:19:58.971,0.38433173,-0.37254512,0.059052967,0.44811153,0.21392997,-0.35860243,-0.056818034,0.023473602,0.39122227,-0.07559507,0.13288774,0.25732687,0.6124126,0.29920578,0.06562967,0.70931226,-0.062387563,0.02648928,-0.16758126,0.16937602,826.4103,788.1319,806.6667,833.2601,1161.6483,-0.1573486328125,0.07916259765625,1.001953125,-15.992889404296875,-3.970184326171875,-5.60760498046875,1,1.0,1.0,1.0,1.0,10.00
2024-10-11 20:19:58.972,0.38433173,-0.37254512,0.059052967,0.44811153,0.21392997,-0.35860243,-0.056818034,0.023473602,0.39122227,-0.07559507,0.13288774,0.25732687,0.6124126,0.29920578,0.06562967,0.70931226,-0.062387563,0.02648928,-0.16758126,0.16937602,830.4396,797.8022,807.0696,828.4249,908.60803,-0.1573486328125,0.07916259765625,1.001953125,-15.992889404296875,-3.970184326171875,-5.60760498046875,1,1.0,1.0,1.0,1.0,10.00
2024-10-11 20:19:58.972,0.38433173,-0.37254512,0.059052967,0.44811153,0.21392997,-0.35860243,-0.056818034,0.023473602,0.39122227,-0.07559507,0.13288774,0.25732687,0.6124126,0.29920578,0.06562967,0.70931226,-0.062387563,0.02648928,-0.16758126,0.16937602,823.9927,794.9817,801.8315,823.5897,593.1135,-0.1573486328125,0.07916259765625,1.001953125,-15.992889404296875,-3.970184326171875,-5.60760498046875,1,1.0,1.0,1.0,1.0,10.00
2024-10-11 20:19:58.973,0.38433173,-0.37254512,0.059052967,0.44811153,0.21392997,-0.35860243,-0.056818034,0.023473602,0.39122227,-0.07559507,0.13288774,0.25732687,0.6124126,0.29920578,0.06562967,0.70931226,-0.062387563,0.02648928,-0.16758126,0.16937602,821.978,782.8938,799.41394,827.2161,730.9158,-0.1573486328125,0.07916259765625,1.001953125,-15.992889404296875,-3.970184326171875,-5.60760498046875,1,1.0,1.0,1.0,1.0,10.00
2024-10-11 20:19:58.974,0.38433173,-0.37254512,0.059052967,0.44811153,0.21392997,-0.35860243,-0.056818034,0.023473602,0.39122227,-0.07559507,0.13288774,0.25732687,0.6124126,0.29920578,0.06562967,0.70931226,-0.062387563,0.02648928,-0.16758126,0.16937602,822.381,784.90845,805.4579,827.2161,1043.1868,-0.1573486328125,0.07916259765625,1.001953125,-15.992889404296875,-3.970184326171875,-5.60760498046875,1,1.0,1.0,1.0,1.0,10.00
2024-10-11 20:19:58.975,0.38433173,-0.37254512,0.059052967,0.44811153,0.21392997,-0.35860243,-0.056818034,0.023473602,0.39122227,-0.07559507,0.13288774,0.25732687,0.6124126,0.29920578,0.06562967,0.70931226,-0.062387563,0.02648928,-0.16758126,0.16937602,820.7692,785.31134,802.23444,821.978,886.04395,-0.1573486328125,0.07916259765625,1.001953125,-15.992889404296875,-3.970184326171875,-5.60760498046875,1,1.0,1.0,1.0,1.0,10.00
2024-10-11 20:19:59.049,0.38433173,-0.37254512,0.059052967,0.44811153,0.21392997,-0.35860243,-0.056818034,0.023473602,0.39122227,-0.07559507,0.13288774,0.25732687,0.6124126,0.29920578,0.06562967,0.70931226,-0.062387563,0.02648928,-0.16758126,0.16937602,823.5897,779.67035,795.78754,821.978,654.35895,-0.16015625,0.049072265625,0.99810791015625,-19.791107177734375,-8.03009033203125,-10.430145263671875,1,1.0,1.0,1.0,1.0,10.00
2024-10-11 20:19:59.050,0.38433173,-0.37254512,0.059052967,0.44811153,0.21392997,-0.35860243,-0.056818034,0.023473602,0.39122227,-0.07559507,0.13288774,0.25732687,0.6124126,0.29920578,0.06562967,0.70931226,-0.062387563,0.02648928,-0.16758126,0.16937602,825.2015,789.34064,802.23444,823.9927,750.2564,-0.16015625,0.049072265625,0.99810791015625,-19.791107177734375,-8.03009033203125,-10.430145263671875,1,1.0,1.0,1.0,1.0,10.00
2024-10-11 20:19:59.051,0.38433173,-0.37254512,0.059052967,0.44811153,0.21392997,-0.35860243,-0.056818034,0.023473602,0.39122227,-0.07559507,0.13288774,0.25732687,0.6124126,0.29920578,0.06562967,0.70931226,-0.062387563,0.02648928,-0.16758126,0.16937602,818.3516,795.78754,801.02563,825.2015,999.2674,-0.16015625,0.049072265625,0.99810791015625,-19.791107177734375,-8.03009033203125,-10.430145263671875,1,1.0,1.0,1.0,1.0,10.00
2024-10-11 20:19:59.051,0.38433173,-0.37254512,0.059052967,0.44811153,0.21392997,-0.35860243,-0.056818034,0.023473602,0.39122227,-0.07559507,0.13288774,0.25732687,0.6124126,0.29920578,0.06562967,0.70931226,-0.062387563,0.02648928,-0.16758126,0.16937602,824.7985,797.8022,805.4579,823.9927,787.72894,-0.16015625,0.049072265625,0.99810791015625,-19.791107177734375,-8.03009033203125,-10.430145263671875,1,1.0,1.0,1.0,1.0,10.00
2024-10-11 20:19:59.052,0.38433173,-0.37254512,0.059052967,0.44811153,0.21392997,-0.35860243,-0.056818034,0.023473602,0.39122227,-0.07559507,0.13288774,0.25732687,0.6124126,0.29920578,0.06562967,0.70931226,-0.062387563,0.02648928,-0.16758126,0.16937602,824.7985,802.23444,809.4872,823.9927,575.38464,-0.16015625,0.049072265625,0.99810791015625,-19.791107177734375,-8.03009033203125,-10.430145263671875,1,1.0,1.0,1.0,1.0,10.00
2024-10-11 20:19:59.053,0.38433173,-0.37254512,0.059052967,0.44811153,0.21392997,-0.35860243,-0.056818034,0.023473602,0.39122227,-0.07559507,0.13288774,0.25732687,0.6124126,0.29920578,0.06562967,0.70931226,-0.062387563,0.02648928,-0.16758126,0.16937602,813.91943,794.57874,798.20514,817.5458,703.5165,-0.16015625,0.049072265625,0.99810791015625,-19.791107177734375,-8.03009033203125,-10.430145263671875,1,1.0,1.0,1.0,1.0,10.00
2024-10-11 20:19:59.054,0.38433173,-0.37254512,0.059052967,0.44811153,0.21392997,-0.35860243,-0.056818034,0.023473602,0.39122227,-0.07559507,0.13288774,0.25732687,0.6124126,0.29920578,0.06562967,0.70931226,-0.062387563,0.02648928,-0.16758126,0.16937602,818.7546,788.5348,800.2198,819.9634,915.8608,-0.16015625,0.049072265625,0.99810791015625,-19.791107177734375,-8.03009033203125,-10.430145263671875,1,1.0,1.0,1.0,1.0,10.00
2024-10-11 20:19:59.054,0.38433173,-0.37254512,0.059052967,0.44811153,0.21392997,-0.35860243,-0.056818034,0.023473602,0.39122227,-0.07559507,0.13288774,0.25732687,0.6124126,0.29920578,0.06562967,0.70931226,-0.062387563,0.02648928,-0.16758126,0.16937602,817.5458,796.99634,801.02563,822.7839,880.80585,-0.16015625,0.049072265625,0.99810791015625,-19.791107177734375,-8.03009033203125,-10.430145263671875,1,1.0,1.0,1.0,1.0,10.00
2024-10-11 20:19:59.055,0.38433173,-0.37254512,0.059052967,0.44811153,0.21392997,-0.35860243,-0.056818034,0.023473602,0.39122227,-0.07559507,0.13288774,0.25732687,0.6124126,0.29920578,0.06562967,0.70931226,-0.062387563,0.02648928,-0.16758126,0.16937602,812.71063,797.8022,799.81683,816.337,618.9011,-0.16015625,0.049072265625,0.99810791015625,-19.791107177734375,-8.03009033203125,-10.430145263671875,1,1.0,1.0,1.0,1.0,10.00
2024-10-11 20:19:59.056,0.38433173,-0.37254512,0.059052967,0.44811153,0.21392997,-0.35860243,-0.056818034,0.023473602,0.39122227,-0.07559507,0.13288774,0.25732687,0.6124126,0.29920578,0.06562967,0.70931226,-0.062387563,0.02648928,-0.16758126,0.16937602,817.5458,788.93774,805.05493,828.022,697.8755,-0.16015625,0.049072265625,0.99810791015625,-19.791107177734375,-8.03009033203125,-10.430145263671875,1,1.0,1.0,1.0,1.0,10.00
2024-10-11 20:19:59.056,0.38433173,-0.37254512,0.059052967,0.44811153,0.21392997,-0.35860243,-0.056818034,0.023473602,0.39122227,-0.07559507,0.13288774,0.25732687,0.6124126,0.29920578,0.06562967,0.70931226,-0.062387563,0.02648928,-0.16758126,0.16937602,814.7253,784.10254,805.8608,840.9158,1130.6227,-0.16015625,0.049072265625,0.99810791015625,-19.791107177734375,-8.03009033203125,-10.430145263671875,1,1.0,1.0,1.0,1.0,10.00
2024-10-11 20:19:59.057,0.38433173,-0.37254512,0.059052967,0.44811153,0.21392997,-0.35860243,-0.056818034,0.023473602,0.39122227,-0.07559507,0.13288774,0.25732687,0.6124126,0.29920578,0.06562967,0.70931226,-0.062387563,0.02648928,-0.16758126,0.16937602,810.696,790.54944,805.4579,830.84247,1121.3553,-0.16015625,0.049072265625,0.99810791015625,-19.791107177734375,-8.03009033203125,-10.430145263671875,1,1.0,1.0,1.0,1.0,10.00
2024-10-11 20:19:59.058,0.38433173,-0.37254512,0.059052967,0.44811153,0.21392997,-0.35860243,-0.056818034,0.023473602,0.39122227,-0.07559507,0.13288774,0.25732687,0.6124126,0.29920578,0.06562967,0.70931226,-0.062387563,0.02648928,-0.16758126,0.16937602,812.3077,800.2198,806.6667,821.978,709.5604,-0.16015625,0.049072265625,0.99810791015625,-19.791107177734375,-8.03009033203125,-10.430145263671875,1,1.0,1.0,1.0,1.0,10.00
2024-10-11 20:19:59.059,0.38433173,-0.37254512,0.059052967,0.44811153,0.21392997,-0.35860243,-0.056818034,0.023473602,0.39122227,-0.07559507,0.13288774,0.25732687,0.6124126,0.29920578,0.06562967,0.70931226,-0.062387563,0.02648928,-0.16758126,0.16937602,804.2491,801.8315,805.05493,818.3516,567.72894,-0.16015625,0.049072265625,0.99810791015625,-19.791107177734375,-8.03009033203125,-10.430145263671875,1,1.0,1.0,1.0,1.0,10.00
2024-10-11 20:19:59.060,0.38433173,-0.37254512,0.059052967,0.44811153,0.21392997,-0.35860243,-0.056818034,0.023473602,0.39122227,-0.07559507,0.13288774,0.25732687,0.6124126,0.29920578,0.06562967,0.70931226,-0.062387563,0.02648928,-0.16758126,0.16937602,803.44324,796.99634,800.6227,817.5458,662.4176,-0.16015625,0.049072265625,0.99810791015625,-19.791107177734375,-8.03009033203125,-10.430145263671875,1,1.0,1.0,1.0,1.0,10.00
2024-10-11 20:19:59.061,0.38433173,-0.37254512,0.059052967,0.44811153,0.21392997,-0.35860243,-0.056818034,0.023473602,0.39122227,-0.07559507,0.13288774,0.25732687,0.6124126,0.29920578,0.06562967,0.70931226,-0.062387563,0.02648928,-0.16758126,0.16937602,808.68134,794.17584,797.3993,818.3516,744.61536,-0.16015625,0.049072265625,0.99810791015625,-19.791107177734375,-8.03009033203125,-10.430145263671875,1,1.0,1.0,1.0,1.0,10.00
2024-10-11 20:19:59.062,0.38433173,-0.37254512,0.059052967,0.44811153,0.21392997,-0.35860243,-0.056818034,0.023473602,0.39122227,-0.07559507,0.13288774,0.25732687,0.6124126,0.29920578,0.06562967,0.70931226,-0.062387563,0.02648928,-0.16758126,0.16937602,808.68134,795.38464,797.3993,813.5165,709.15753,-0.16015625,0.049072265625,0.99810791015625,-19.791107177734375,-8.03009033203125,-10.430145263671875,1,1.0,1.0,1.0,1.0,10.00
2024-10-11 20:19:59,,,,,,,,,,,,,,,,,,,,,,,,,,,,,,,,,,,,,,/muse/elements/blink
2024-10-11 20:19:59.062,0.38433173,-0.10590278,0.07222737,0.44811153,0.21392997,-0.08923038,-0.106319524,0.023473602,0.39122227,0.01326627,0.13288774,0.25732687,0.6124126,0.30110306,0.07984489,0.70931226,-0.062387563,0.008342711,-0.16703805,0.16937602,810.696,787.72894,794.17584,818.7546,994.83514,-0.16015625,0.049072265625,0.99810791015625,-19.791107177734375,-8.03009033203125,-10.430145263671875,1,1.0,1.0,1.0,1.0,10.00
2024-10-11 20:19:59.068,0.38433173,-0.10590278,0.07222737,0.44811153,0.21392997,-0.08923038,-0.106319524,0.023473602,0.39122227,0.01326627,0.13288774,0.25732687,0.6124126,0.30110306,0.07984489,0.70931226,-0.062387563,0.008342711,-0.16703805,0.16937602,804.65204,789.34064,800.6227,820.3663,848.97437,-0.16015625,0.049072265625,0.99810791015625,-19.791107177734375,-8.03009033203125,-10.430145263671875,1,1.0,1.0,1.0,1.0,10.00
2024-10-11 20:19:59.069,0.38433173,-0.10590278,0.07222737,0.44811153,0.21392997,-0.08923038,-0.106319524,0.023473602,0.39122227,0.01326627,0.13288774,0.25732687,0.6124126,0.30110306,0.07984489,0.70931226,-0.062387563,0.008342711,-0.16703805,0.16937602,802.6374,794.9817,802.6374,813.5165,605.2015,-0.16015625,0.049072265625,0.99810791015625,-19.791107177734375,-8.03009033203125,-10.430145263671875,1,1.0,1.0,1.0,1.0,10.00
2024-10-11 20:19:59.070,0.38433173,-0.10590278,0.07222737,0.44811153,0.21392997,-0.08923038,-0.106319524,0.023473602,0.39122227,0.01326627,0.13288774,0.25732687,0.6124126,0.30110306,0.07984489,0.70931226,-0.062387563,0.008342711,-0.16703805,0.16937602,810.293,792.1612,798.60803,817.1429,705.12823,-0.16015625,0.049072265625,0.99810791015625,-19.791107177734375,-8.03009033203125,-10.430145263671875,1,1.0,1.0,1.0,1.0,10.00
2024-10-11 20:19:59.070,0.38433173,-0.10590278,0.07222737,0.44811153,0.21392997,-0.08923038,-0.106319524,0.023473602,0.39122227,0.01326627,0.13288774,0.25732687,0.6124126,0.30110306,0.07984489,0.70931226,-0.062387563,0.008342711,-0.16703805,0.16937602,807.8755,782.8938,798.60803,816.337,785.7143,-0.16015625,0.049072265625,0.99810791015625,-19.791107177734375,-8.03009033203125,-10.430145263671875,1,1.0,1.0,1.0,1.0,10.00
2024-10-11 20:19:59.071,0.38433173,-0.10590278,0.07222737,0.44811153,0.21392997,-0.08923038,-0.106319524,0.023473602,0.39122227,0.01326627,0.13288774,0.25732687,0.6124126,0.30110306,0.07984489,0.70931226,-0.062387563,0.008342711,-0.16703805,0.16937602,808.2784,786.9231,800.6227,806.26373,608.022,-0.16015625,0.049072265625,0.99810791015625,-19.791107177734375,-8.03009033203125,-10.430145263671875,1,1.0,1.0,1.0,1.0,10.00
2024-10-11 20:19:59.072,0.38433173,-0.10590278,0.07222737,0.44811153,0.21392997,-0.08923038,-0.106319524,0.023473602,0.39122227,0.01326627,0.13288774,0.25732687,0.6124126,0.30110306,0.07984489,0.70931226,-0.062387563,0.008342711,-0.16703805,0.16937602,813.1135,793.7729,800.6227,806.26373,596.337,-0.16015625,0.049072265625,0.99810791015625,-19.791107177734375,-8.03009033203125,-10.430145263671875,1,1.0,1.0,1.0,1.0,10.00
2024-10-11 20:19:59.100,0.38433173,-0.10590278,0.07222737,0.44811153,0.21392997,-0.08923038,-0.106319524,0.023473602,0.39122227,0.01326627,0.13288774,0.25732687,0.6124126,0.30110306,0.07984489,0.70931226,-0.062387563,0.008342711,-0.16703805,0.16937602,813.91943,788.1319,799.011,804.65204,767.5824,-0.14117431640625,0.02349853515625,1.0028076171875,-22.9388427734375,-14.063873291015625,-15.68634033203125,1,1.0,1.0,1.0,1.0,10.00
2024-10-11 20:19:59.101,0.38433173,-0.10590278,0.07222737,0.44811153,0.21392997,-0.08923038,-0.106319524,0.023473602,0.39122227,0.01326627,0.13288774,0.25732687,0.6124126,0.30110306,0.07984489,0.70931226,-0.062387563,0.008342711,-0.16703805,0.16937602,815.9341,797.8022,796.1905,802.23444,747.03296,-0.14117431640625,0.02349853515625,1.0028076171875,-22.9388427734375,-14.063873291015625,-15.68634033203125,1,1.0,1.0,1.0,1.0,10.00
2024-10-11 20:19:59.102,0.38433173,-0.10590278,0.07222737,0.44811153,0.21392997,-0.08923038,-0.106319524,0.023473602,0.39122227,0.01326627,0.13288774,0.25732687,0.6124126,0.30110306,0.07984489,0.70931226,-0.062387563,0.008342711,-0.16703805,0.16937602,814.7253,797.8022,789.7436,797.8022,577.8022,-0.14117431640625,0.02349853515625,1.0028076171875,-22.9388427734375,-14.063873291015625,-15.68634033203125,1,1.0,1.0,1.0,1.0,10.00
2024-10-11 20:19:59.102,0.38433173,-0.10590278,0.07222737,0.44811153,0.21392997,-0.08923038,-0.106319524,0.023473602,0.39122227,0.01326627,0.13288774,0.25732687,0.6124126,0.30110306,0.07984489,0.70931226,-0.062387563,0.008342711,-0.16703805,0.16937602,822.7839,790.9524,789.34064,810.696,614.4689,-0.14117431640625,0.02349853515625,1.0028076171875,-22.9388427734375,-14.063873291015625,-15.68634033203125,1,1.0,1.0,1.0,1.0,10.00
2024-10-11 20:19:59.103,0.38433173,-0.10590278,0.07222737,0.44811153,0.21392997,-0.08923038,-0.106319524,0.023473602,0.39122227,0.01326627,0.13288774,0.25732687,0.6124126,0.30110306,0.07984489,0.70931226,-0.062387563,0.008342711,-0.16703805,0.16937602,817.5458,794.57874,799.81683,815.12823,788.5348,-0.14117431640625,0.02349853515625,1.0028076171875,-22.9388427734375,-14.063873291015625,-15.68634033203125,1,1.0,1.0,1.0,1.0,10.00
2024-10-11 20:19:59.104,0.38433173,-0.10590278,0.07222737,0.44811153,0.21392997,-0.08923038,-0.106319524,0.023473602,0.39122227,0.01326627,0.13288774,0.25732687,0.6124126,0.30110306,0.07984489,0.70931226,-0.062387563,0.008342711,-0.16703805,0.16937602,792.96704,794.9817,804.2491,798.60803,857.03296,-0.14117431640625,0.02349853515625,1.0028076171875,-22.9388427734375,-14.063873291015625,-15.68634033203125,1,1.0,1.0,1.0,1.0,10.00
2024-10-11 20:19:59.104,0.38433173,-0.10590278,0.07222737,0.44811153,0.21392997,-0.08923038,-0.106319524,0.023473602,0.39122227,0.01326627,0.13288774,0.25732687,0.6124126,0.30110306,0.07984489,0.70931226,-0.062387563,0.008342711,-0.16703805,0.16937602,791.3553,788.93774,801.02563,795.38464,746.2271,-0.14117431640625,0.02349853515625,1.0028076171875,-22.9388427734375,-14.063873291015625,-15.68634033203125,1,1.0,1.0,1.0,1.0,10.00
2024-10-11 20:19:59.105,0.38433173,-0.10590278,0.07222737,0.44811153,0.21392997,-0.08923038,-0.106319524,0.023473602,0.39122227,0.01326627,0.13288774,0.25732687,0.6124126,0.30110306,0.07984489,0.70931226,-0.062387563,0.008342711,-0.16703805,0.16937602,790.14655,785.7143,800.6227,805.05493,774.0293,-0.14117431640625,0.02349853515625,1.0028076171875,-22.9388427734375,-14.063873291015625,-15.68634033203125,1,1.0,1.0,1.0,1.0,10.00
2024-10-11 20:19:59.106,0.38433173,-0.10590278,0.07222737,0.44811153,0.21392997,-0.08923038,-0.106319524,0.023473602,0.39122227,0.01326627,0.13288774,0.25732687,0.6124126,0.30110306,0.07984489,0.70931226,-0.062387563,0.008342711,-0.16703805,0.16937602,789.34064,784.90845,806.26373,822.381,1119.7435,-0.14117431640625,0.02349853515625,1.0028076171875,-22.9388427734375,-14.063873291015625,-15.68634033203125,1,1.0,1.0,1.0,1.0,10.00
2024-10-11 20:19:59.106,0.38433173,-0.10590278,0.07222737,0.44811153,0.21392997,-0.08923038,-0.106319524,0.023473602,0.39122227,0.01326627,0.13288774,0.25732687,0.6124126,0.30110306,0.07984489,0.70931226,-0.062387563,0.008342711,-0.16703805,0.16937602,796.99634,781.28204,809.89014,830.0366,1255.1282,-0.14117431640625,0.02349853515625,1.0028076171875,-22.9388427734375,-14.063873291015625,-15.68634033203125,1,1.0,1.0,1.0,1.0,10.00
2024-10-11 20:19:59.107,0.38433173,-0.10590278,0.07222737,0.44811153,0.21392997,-0.08923038,-0.106319524,0.023473602,0.39122227,0.01326627,0.13288774,0.25732687,0.6124126,0.30110306,0.07984489,0.70931226,-0.062387563,0.008342711,-0.16703805,0.16937602,798.60803,780.4762,811.0989,819.5604,801.02563,-0.14117431640625,0.02349853515625,1.0028076171875,-22.9388427734375,-14.063873291015625,-15.68634033203125,1,1.0,1.0,1.0,1.0,10.00
2024-10-11 20:19:59.108,0.38433173,-0.10590278,0.07222737,0.44811153,0.21392997,-0.08923038,-0.106319524,0.023473602,0.39122227,0.01326627,0.13288774,0.25732687,0.6124126,0.30110306,0.07984489,0.70931226,-0.062387563,0.008342711,-0.16703805,0.16937602,804.65204,780.07324,814.7253,823.1868,645.89746,-0.14117431640625,0.02349853515625,1.0028076171875,-22.9388427734375,-14.063873291015625,-15.68634033203125,1,1.0,1.0,1.0,1.0,10.00
2024-10-11 20:19:59.148,0.38433173,-0.10590278,0.07222737,0.44811153,0.21392997,-0.08923038,-0.106319524,0.023473602,0.39122227,0.01326627,0.13288774,0.25732687,0.6124126,0.30110306,0.07984489,0.70931226,-0.062387563,0.008342711,-0.16703805,0.16937602,811.50183,776.4469,819.9634,840.10986,740.18317,-0.107666015625,-0.012939453125,1.00103759765625,-25.503387451171875,-17.06207275390625,-17.525634765625,1,1.0,1.0,1.0,1.0,10.00
2024-10-11 20:19:59.150,0.38433173,-0.10590278,0.07222737,0.44811153,0.21392997,-0.08923038,-0.106319524,0.023473602,0.39122227,0.01326627,0.13288774,0.25732687,0.6124126,0.30110306,0.07984489,0.70931226,-0.062387563,0.008342711,-0.16703805,0.16937602,819.15753,772.01465,812.3077,847.3626,682.5641,-0.107666015625,-0.012939453125,1.00103759765625,-25.503387451171875,-17.06207275390625,-17.525634765625,1,1.0,1.0,1.0,1.0,10.00
2024-10-11 20:19:59.152,0.38433173,-0.10590278,0.07222737,0.44811153,0.21392997,-0.08923038,-0.106319524,0.023473602,0.39122227,0.01326627,0.13288774,0.25732687,0.6124126,0.30110306,0.07984489,0.70931226,-0.062387563,0.008342711,-0.16703805,0.16937602,815.9341,780.87915,813.5165,834.0659,668.86444,-0.107666015625,-0.012939453125,1.00103759765625,-25.503387451171875,-17.06207275390625,-17.525634765625,1,1.0,1.0,1.0,1.0,10.00
2024-10-11 20:19:59.154,0.38433173,-0.10590278,0.07222737,0.44811153,0.21392997,-0.08923038,-0.106319524,0.023473602,0.39122227,0.01326627,0.13288774,0.25732687,0.6124126,0.30110306,0.07984489,0.70931226,-0.062387563,0.008342711,-0.16703805,0.16937602,814.7253,783.2967,816.337,830.4396,681.3553,-0.107666015625,-0.012939453125,1.00103759765625,-25.503387451171875,-17.06207275390625,-17.525634765625,1,1.0,1.0,1.0,1.0,10.00
2024-10-11 20:19:59.155,0.38433173,-0.10590278,0.07222737,0.44811153,0.21392997,-0.08923038,-0.106319524,0.023473602,0.39122227,0.01326627,0.13288774,0.25732687,0.6124126,0.30110306,0.07984489,0.70931226,-0.062387563,0.008342711,-0.16703805,0.16937602,815.12823,777.25275,806.6667,833.2601,798.20514,-0.107666015625,-0.012939453125,1.00103759765625,-25.503387451171875,-17.06207275390625,-17.525634765625,1,1.0,1.0,1.0,1.0,10.00
2024-10-11 20:19:59.156,0.38433173,-0.10590278,0.07222737,0.44811153,0.21392997,-0.08923038,-0.106319524,0.023473602,0.39122227,0.01326627,0.13288774,0.25732687,0.6124126,0.30110306,0.07984489,0.70931226,-0.062387563,0.008342711,-0.16703805,0.16937602,814.3223,776.8498,804.2491,826.8132,869.5238,-0.107666015625,-0.012939453125,1.00103759765625,-25.503387451171875,-17.06207275390625,-17.525634765625,1,1.0,1.0,1.0,1.0,10.00
2024-10-11 20:19:59.156,0.38433173,-0.10590278,0.07222737,0.44811153,0.21392997,-0.08923038,-0.106319524,0.023473602,0.39122227,0.01326627,0.13288774,0.25732687,0.6124126,0.30110306,0.07984489,0.70931226,-0.062387563,0.008342711,-0.16703805,0.16937602,811.9048,781.685,807.8755,825.2015,796.5934,-0.107666015625,-0.012939453125,1.00103759765625,-25.503387451171875,-17.06207275390625,-17.525634765625,1,1.0,1.0,1.0,1.0,10.00
2024-10-11 20:19:59.157,0.38433173,0.24507567,0.09169197,0.44811153,0.21392997,0.23483872,-0.16372094,0.023473602,0.39122227,0.23051842,0.13288774,0.25732687,0.6124126,0.30128407,0.092895605,0.70931226,-0.062387563,-0.0074558104,-0.17142674,0.16937602,815.12823,787.326,809.4872,820.7692,708.3516,-0.107666015625,-0.012939453125,1.00103759765625,-25.503387451171875,-17.06207275390625,-17.525634765625,1,1.0,1.0,1.0,1.0,10.00
2024-10-11 20:19:59.163,0.38433173,0.24507567,0.09169197,0.44811153,0.21392997,0.23483872,-0.16372094,0.023473602,0.39122227,0.23051842,0.13288774,0.25732687,0.6124126,0.30128407,0.092895605,0.70931226,-0.062387563,-0.0074558104,-0.17142674,0.16937602,819.5604,785.31134,803.8461,825.6044,842.1245,-0.107666015625,-0.012939453125,1.00103759765625,-25.503387451171875,-17.06207275390625,-17.525634765625,1,1.0,1.0,1.0,1.0,10.00
2024-10-11 20:19:59.164,0.38433173,0.24507567,0.09169197,0.44811153,0.21392997,0.23483872,-0.16372094,0.023473602,0.39122227,0.23051842,0.13288774,0.25732687,0.6124126,0.30128407,0.092895605,0.70931226,-0.062387563,-0.0074558104,-0.17142674,0.16937602,814.7253,780.07324,805.05493,830.4396,978.71796,-0.107666015625,-0.012939453125,1.00103759765625,-25.503387451171875,-17.06207275390625,-17.525634765625,1,1.0,1.0,1.0,1.0,10.00
2024-10-11 20:19:59.164,0.38433173,0.24507567,0.09169197,0.44811153,0.21392997,0.23483872,-0.16372094,0.023473602,0.39122227,0.23051842,0.13288774,0.25732687,0.6124126,0.30128407,0.092895605,0.70931226,-0.062387563,-0.0074558104,-0.17142674,0.16937602,811.50183,783.2967,804.65204,825.6044,888.46155,-0.107666015625,-0.012939453125,1.00103759765625,-25.503387451171875,-17.06207275390625,-17.525634765625,1,1.0,1.0,1.0,1.0,10.00
2024-10-11 20:19:59.165,0.38433173,0.24507567,0.09169197,0.44811153,0.21392997,0.23483872,-0.16372094,0.023473602,0.39122227,0.23051842,0.13288774,0.25732687,0.6124126,0.30128407,0.092895605,0.70931226,-0.062387563,-0.0074558104,-0.17142674,0.16937602,816.337,780.07324,798.20514,828.4249,860.2564,-0.107666015625,-0.012939453125,1.00103759765625,-25.503387451171875,-17.06207275390625,-17.525634765625,1,1.0,1.0,1.0,1.0,10.00
2024-10-11 20:19:59.201,0.38433173,0.24507567,0.09169197,0.44811153,0.21392997,0.23483872,-0.16372094,0.023473602,0.39122227,0.23051842,0.13288774,0.25732687,0.6124126,0.30128407,0.092895605,0.70931226,-0.062387563,-0.0074558104,-0.17142674,0.16937602,814.7253,788.5348,802.23444,835.2747,1119.3407,-0.07171630859375,-0.05633544921875,0.998291015625,-26.24359130859375,-15.290069580078125,-13.959197998046875,1,1.0,1.0,1.0,1.0,10.00
2024-10-11 20:19:59.203,0.38433173,0.24507567,0.09169197,0.44811153,0.21392997,0.23483872,-0.16372094,0.023473602,0.39122227,0.23051842,0.13288774,0.25732687,0.6124126,0.30128407,0.092895605,0.70931226,-0.062387563,-0.0074558104,-0.17142674,0.16937602,811.0989,801.02563,812.3077,834.4689,915.05493,-0.07171630859375,-0.05633544921875,0.998291015625,-26.24359130859375,-15.290069580078125,-13.959197998046875,1,1.0,1.0,1.0,1.0,10.00
2024-10-11 20:19:59.205,0.38433173,0.24507567,0.09169197,0.44811153,0.21392997,0.23483872,-0.16372094,0.023473602,0.39122227,0.23051842,0.13288774,0.25732687,0.6124126,0.30128407,0.092895605,0.70931226,-0.062387563,-0.0074558104,-0.17142674,0.16937602,813.5165,795.78754,815.5311,834.87177,655.56775,-0.07171630859375,-0.05633544921875,0.998291015625,-26.24359130859375,-15.290069580078125,-13.959197998046875,1,1.0,1.0,1.0,1.0,10.00
2024-10-11 20:19:59.206,0.38433173,0.24507567,0.09169197,0.44811153,0.21392997,0.23483872,-0.16372094,0.023473602,0.39122227,0.23051842,0.13288774,0.25732687,0.6124126,0.30128407,0.092895605,0.70931226,-0.062387563,-0.0074558104,-0.17142674,0.16937602,806.6667,780.4762,809.4872,821.5751,743.4066,-0.07171630859375,-0.05633544921875,0.998291015625,-26.24359130859375,-15.290069580078125,-13.959197998046875,1,1.0,1.0,1.0,1.0,10.00
2024-10-11 20:19:59.208,0.38433173,0.24507567,0.09169197,0.44811153,0.21392997,0.23483872,-0.16372094,0.023473602,0.39122227,0.23051842,0.13288774,0.25732687,0.6124126,0.30128407,0.092895605,0.70931226,-0.062387563,-0.0074558104,-0.17142674,0.16937602,799.011,773.6264,807.47253,818.3516,789.34064,-0.07171630859375,-0.05633544921875,0.998291015625,-26.24359130859375,-15.290069580078125,-13.959197998046875,1,1.0,1.0,1.0,1.0,10.00
2024-10-11 20:19:59.208,0.38433173,0.24507567,0.09169197,0.44811153,0.21392997,0.23483872,-0.16372094,0.023473602,0.39122227,0.23051842,0.13288774,0.25732687,0.6124126,0.30128407,0.092895605,0.70931226,-0.062387563,-0.0074558104,-0.17142674,0.16937602,805.05493,787.72894,809.4872,828.022,859.0476,-0.07171630859375,-0.05633544921875,0.998291015625,-26.24359130859375,-15.290069580078125,-13.959197998046875,1,1.0,1.0,1.0,1.0,10.00
2024-10-11 20:19:59.209,0.38433173,0.24507567,0.09169197,0.44811153,0.21392997,0.23483872,-0.16372094,0.023473602,0.39122227,0.23051842,0.13288774,0.25732687,0.6124126,0.30128407,0.092895605,0.70931226,-0.062387563,-0.0074558104,-0.17142674,0.16937602,803.8461,793.7729,813.5165,823.5897,878.3883,-0.07171630859375,-0.05633544921875,0.998291015625,-26.24359130859375,-15.290069580078125,-13.959197998046875,1,1.0,1.0,1.0,1.0,10.00
2024-10-11 20:19:59.210,0.38433173,0.24507567,0.09169197,0.44811153,0.21392997,0.23483872,-0.16372094,0.023473602,0.39122227,0.23051842,0.13288774,0.25732687,0.6124126,0.30128407,0.092895605,0.70931226,-0.062387563,-0.0074558104,-0.17142674,0.16937602,804.65204,789.7436,805.8608,816.7399,872.74725,-0.07171630859375,-0.05633544921875,0.998291015625,-26.24359130859375,-15.290069580078125,-13.959197998046875,1,1.0,1.0,1.0,1.0,10.00
2024-10-11 20:19:59.210,0.38433173,0.24507567,0.09169197,0.44811153,0.21392997,0.23483872,-0.16372094,0.023473602,0.39122227,0.23051842,0.13288774,0.25732687,0.6124126,0.30128407,0.092895605,0.70931226,-0.062387563,-0.0074558104,-0.17142674,0.16937602,811.50183,791.3553,802.6374,816.7399,759.12085,-0.07171630859375,-0.05633544921875,0.998291015625,-26.24359130859375,-15.290069580078125,-13.959197998046875,1,1.0,1.0,1.0,1.0,10.00
2024-10-11 20:19:59.211,0.38433173,0.24507567,0.09169197,0.44811153,0.21392997,0.23483872,-0.16372094,0.023473602,0.39122227,0.23051842,0.13288774,0.25732687,0.6124126,0.30128407,0.092895605,0.70931226,-0.062387563,-0.0074558104,-0.17142674,0.16937602,815.5311,787.72894,809.89014,825.2015,625.7509,-0.07171630859375,-0.05633544921875,0.998291015625,-26.24359130859375,-15.290069580078125,-13.959197998046875,1,1.0,1.0,1.0,1.0,10.00
2024-10-11 20:19:59.212,0.38433173,0.24507567,0.09169197,0.44811153,0.21392997,0.23483872,-0.16372094,0.023473602,0.39122227,0.23051842,0.13288774,0.25732687,0.6124126,0.30128407,0.092895605,0.70931226,-0.062387563,-0.0074558104,-0.17142674,0.16937602,817.5458,792.1612,806.6667,826.8132,770.40295,-0.07171630859375,-0.05633544921875,0.998291015625,-26.24359130859375,-15.290069580078125,-13.959197998046875,1,1.0,1.0,1.0,1.0,10.00
2024-10-11 20:19:59.212,0.38433173,0.24507567,0.09169197,0.44811153,0.21392997,0.23483872,-0.16372094,0.023473602,0.39122227,0.23051842,0.13288774,0.25732687,0.6124126,0.30128407,0.092895605,0.70931226,-0.062387563,-0.0074558104,-0.17142674,0.16937602,823.9927,796.1905,807.0696,828.8278,1104.8352,-0.07171630859375,-0.05633544921875,0.998291015625,-26.24359130859375,-15.290069580078125,-13.959197998046875,1,1.0,1.0,1.0,1.0,10.00
2024-10-11 20:19:59.213,0.38433173,0.24507567,0.09169197,0.44811153,0.21392997,0.23483872,-0.16372094,0.023473602,0.39122227,0.23051842,0.13288774,0.25732687,0.6124126,0.30128407,0.092895605,0.70931226,-0.062387563,-0.0074558104,-0.17142674,0.16937602,817.9487,797.3993,811.50183,818.3516,839.304,-0.0638427734375,-0.09991455078125,0.99176025390625,-24.6734619140625,-9.989013671875,-7.349700927734375,1,1.0,1.0,1.0,1.0,10.00
2024-10-11 20:19:59.214,0.38433173,0.24507567,0.09169197,0.44811153,0.21392997,0.23483872,-0.16372094,0.023473602,0.39122227,0.23051842,0.13288774,0.25732687,0.6124126,0.30128407,0.092895605,0.70931226,-0.062387563,-0.0074558104,-0.17142674,0.16937602,808.68134,788.5348,809.0842,811.9048,505.27472,-0.0638427734375,-0.09991455078125,0.99176025390625,-24.6734619140625,-9.989013671875,-7.349700927734375,1,1.0,1.0,1.0,1.0,10.00
2024-10-11 20:19:59.215,0.38433173,0.24507567,0.09169197,0.44811153,0.21392997,0.23483872,-0.16372094,0.023473602,0.39122227,0.23051842,0.13288774,0.25732687,0.6124126,0.30128407,0.092895605,0.70931226,-0.062387563,-0.0074558104,-0.17142674,0.16937602,817.5458,784.5055,805.4579,820.7692,703.5165,-0.0638427734375,-0.09991455078125,0.99176025390625,-24.6734619140625,-9.989013671875,-7.349700927734375,1,1.0,1.0,1.0,1.0,10.00
2024-10-11 20:19:59.215,0.38433173,0.24507567,0.09169197,0.44811153,0.21392997,0.23483872,-0.16372094,0.023473602,0.39122227,0.23051842,0.13288774,0.25732687,0.6124126,0.30128407,0.092895605,0.70931226,-0.062387563,-0.0074558104,-0.17142674,0.16937602,813.5165,791.75824,803.0403,821.5751,1085.8975,-0.0638427734375,-0.09991455078125,0.99176025390625,-24.6734619140625,-9.989013671875,-7.349700927734375,1,1.0,1.0,1.0,1.0,10.00
2024-10-11 20:19:59.216,0.38433173,0.24507567,0.09169197,0.44811153,0.21392997,0.23483872,-0.16372094,0.023473602,0.39122227,0.23051842,0.13288774,0.25732687,0.6124126,0.30128407,0.092895605,0.70931226,-0.062387563,-0.0074558104,-0.17142674,0.16937602,813.1135,795.78754,805.8608,814.3223,984.35895,-0.0638427734375,-0.09991455078125,0.99176025390625,-24.6734619140625,-9.989013671875,-7.349700927734375,1,1.0,1.0,1.0,1.0,10.00
2024-10-11 20:19:59.217,0.38433173,0.24507567,0.09169197,0.44811153,0.21392997,0.23483872,-0.16372094,0.023473602,0.39122227,0.23051842,0.13288774,0.25732687,0.6124126,0.30128407,0.092895605,0.70931226,-0.062387563,-0.0074558104,-0.17142674,0.16937602,815.9341,799.011,806.26373,813.1135,720.4396,-0.0638427734375,-0.09991455078125,0.99176025390625,-24.6734619140625,-9.989013671875,-7.349700927734375,1,1.0,1.0,1.0,1.0,10.00
2024-10-11 20:19:59.218,0.38433173,0.24507567,0.09169197,0.44811153,0.21392997,0.23483872,-0.16372094,0.023473602,0.39122227,0.23051842,0.13288774,0.25732687,0.6124126,0.30128407,0.092895605,0.70931226,-0.062387563,-0.0074558104,-0.17142674,0.16937602,811.0989,802.23444,808.2784,815.5311,890.4762,-0.0638427734375,-0.09991455078125,0.99176025390625,-24.6734619140625,-9.989013671875,-7.349700927734375,1,1.0,1.0,1.0,1.0,10.00
2024-10-11 20:19:59.218,0.38433173,0.24507567,0.09169197,0.44811153,0.21392997,0.23483872,-0.16372094,0.023473602,0.39122227,0.23051842,0.13288774,0.25732687,0.6124126,0.30128407,0.092895605,0.70931226,-0.062387563,-0.0074558104,-0.17142674,0.16937602,810.293,793.36993,805.4579,815.12823,943.2601,-0.0638427734375,-0.09991455078125,0.99176025390625,-24.6734619140625,-9.989013671875,-7.349700927734375,1,1.0,1.0,1.0,1.0,10.00
2024-10-11 20:19:59.219,0.38433173,0.24507567,0.09169197,0.44811153,0.21392997,0.23483872,-0.16372094,0.023473602,0.39122227,0.23051842,0.13288774,0.25732687,0.6124126,0.30128407,0.092895605,0.70931226,-0.062387563,-0.0074558104,-0.17142674,0.16937602,815.5311,794.9817,801.02563,817.5458,753.47986,-0.0638427734375,-0.09991455078125,0.99176025390625,-24.6734619140625,-9.989013671875,-7.349700927734375,1,1.0,1.0,1.0,1.0,10.00
2024-10-11 20:19:59.220,0.38433173,0.5329603,0.11759815,0.44811153,0.21392997,0.49405608,-0.20801462,0.023473602,0.39122227,0.39746043,0.13288774,0.25732687,0.6124126,0.30030358,0.09728677,0.70931226,-0.062387563,-0.015026642,-0.18179016,0.16937602,814.7253,807.0696,801.4286,817.5458,633.4066,-0.0638427734375,-0.09991455078125,0.99176025390625,-24.6734619140625,-9.989013671875,-7.349700927734375,1,1.0,1.0,1.0,1.0,10.00
2024-10-11 20:19:59.225,0.38433173,0.5329603,0.11759815,0.44811153,0.21392997,0.49405608,-0.20801462,0.023473602,0.39122227,0.39746043,0.13288774,0.25732687,0.6124126,0.30030358,0.09728677,0.70931226,-0.062387563,-0.015026642,-0.18179016,0.16937602,808.68134,807.8755,804.2491,814.7253,771.2088,-0.0638427734375,-0.09991455078125,0.99176025390625,-24.6734619140625,-9.989013671875,-7.349700927734375,1,1.0,1.0,1.0,1.0,10.00
2024-10-11 20:19:59.226,0.38433173,0.5329603,0.11759815,0.44811153,0.21392997,0.49405608,-0.20801462,0.023473602,0.39122227,0.39746043,0.13288774,0.25732687,0.6124126,0.30030358,0.09728677,0.70931226,-0.062387563,-0.015026642,-0.18179016,0.16937602,809.4872,797.8022,796.99634,817.5458,1040.3663,-0.0638427734375,-0.09991455078125,0.99176025390625,-24.6734619140625,-9.989013671875,-7.349700927734375,1,1.0,1.0,1.0,1.0,10.00
2024-10-11 20:19:59.291,0.38433173,0.5329603,0.11759815,0.44811153,0.21392997,0.49405608,-0.20801462,0.023473602,0.39122227,0.39746043,0.13288774,0.25732687,0.6124126,0.30030358,0.09728677,0.70931226,-0.062387563,-0.015026642,-0.18179016,0.16937602,806.6667,792.96704,794.17584,815.12823,790.14655,-0.0638427734375,-0.09991455078125,0.99176025390625,-24.6734619140625,-9.989013671875,-7.349700927734375,1,1.0,1.0,1.0,1.0,10.00
2024-10-11 20:19:59.292,0.38433173,0.5329603,0.11759815,0.44811153,0.21392997,0.49405608,-0.20801462,0.023473602,0.39122227,0.39746043,0.13288774,0.25732687,0.6124126,0.30030358,0.09728677,0.70931226,-0.062387563,-0.015026642,-0.18179016,0.16937602,801.4286,790.54944,803.0403,809.0842,608.4249,-0.0638427734375,-0.09991455078125,0.99176025390625,-24.6734619140625,-9.989013671875,-7.349700927734375,1,1.0,1.0,1.0,1.0,10.00
2024-10-11 20:19:59.292,0.38433173,0.5329603,0.11759815,0.44811153,0.21392997,0.49405608,-0.20801462,0.023473602,0.39122227,0.39746043,0.13288774,0.25732687,0.6124126,0.30030358,0.09728677,0.70931226,-0.062387563,-0.015026642,-0.18179016,0.16937602,806.6667,794.17584,803.0403,811.9048,899.34064,-0.0638427734375,-0.09991455078125,0.99176025390625,-24.6734619140625,-9.989013671875,-7.349700927734375,1,1.0,1.0,1.0,1.0,10.00
2024-10-11 20:19:59.293,0.38433173,0.5329603,0.11759815,0.44811153,0.21392997,0.49405608,-0.20801462,0.023473602,0.39122227,0.39746043,0.13288774,0.25732687,0.6124126,0.30030358,0.09728677,0.70931226,-0.062387563,-0.015026642,-0.18179016,0.16937602,810.696,805.8608,799.011,811.9048,908.20514,-0.0638427734375,-0.09991455078125,0.99176025390625,-24.6734619140625,-9.989013671875,-7.349700927734375,1,1.0,1.0,1.0,1.0,10.00
2024-10-11 20:19:59.294,0.38433173,0.5329603,0.11759815,0.44811153,0.21392997,0.49405608,-0.20801462,0.023473602,0.39122227,0.39746043,0.13288774,0.25732687,0.6124126,0.30030358,0.09728677,0.70931226,-0.062387563,-0.015026642,-0.18179016,0.16937602,811.50183,809.4872,794.9817,809.89014,659.59705,-0.0638427734375,-0.09991455078125,0.99176025390625,-24.6734619140625,-9.989013671875,-7.349700927734375,1,1.0,1.0,1.0,1.0,10.00
2024-10-11 20:19:59.294,0.38433173,0.5329603,0.11759815,0.44811153,0.21392997,0.49405608,-0.20801462,0.023473602,0.39122227,0.39746043,0.13288774,0.25732687,0.6124126,0.30030358,0.09728677,0.70931226,-0.062387563,-0.015026642,-0.18179016,0.16937602,803.8461,799.41394,794.9817,803.8461,686.99634,-0.0638427734375,-0.09991455078125,0.99176025390625,-24.6734619140625,-9.989013671875,-7.349700927734375,1,1.0,1.0,1.0,1.0,10.00
2024-10-11 20:19:59.295,0.38433173,0.5329603,0.11759815,0.44811153,0.21392997,0.49405608,-0.20801462,0.023473602,0.39122227,0.39746043,0.13288774,0.25732687,0.6124126,0.30030358,0.09728677,0.70931226,-0.062387563,-0.015026642,-0.18179016,0.16937602,805.4579,789.34064,794.57874,811.9048,923.1135,-0.0638427734375,-0.09991455078125,0.99176025390625,-24.6734619140625,-9.989013671875,-7.349700927734375,1,1.0,1.0,1.0,1.0,10.00
2024-10-11 20:19:59.296,0.38433173,0.5329603,0.11759815,0.44811153,0.21392997,0.49405608,-0.20801462,0.023473602,0.39122227,0.39746043,0.13288774,0.25732687,0.6124126,0.30030358,0.09728677,0.70931226,-0.062387563,-0.015026642,-0.18179016,0.16937602,813.91943,797.3993,791.75824,824.7985,1130.2197,-0.0638427734375,-0.09991455078125,0.99176025390625,-24.6734619140625,-9.989013671875,-7.349700927734375,1,1.0,1.0,1.0,1.0,10.00
2024-10-11 20:19:59.296,0.38433173,0.5329603,0.11759815,0.44811153,0.21392997,0.49405608,-0.20801462,0.023473602,0.39122227,0.39746043,0.13288774,0.25732687,0.6124126,0.30030358,0.09728677,0.70931226,-0.062387563,-0.015026642,-0.18179016,0.16937602,810.696,810.293,790.54944,811.9048,807.8755,-0.0638427734375,-0.09991455078125,0.99176025390625,-24.6734619140625,-9.989013671875,-7.349700927734375,1,1.0,1.0,1.0,1.0,10.00
2024-10-11 20:19:59.297,0.38433173,0.5329603,0.11759815,0.44811153,0.21392997,0.49405608,-0.20801462,0.023473602,0.39122227,0.39746043,0.13288774,0.25732687,0.6124126,0.30030358,0.09728677,0.70931226,-0.062387563,-0.015026642,-0.18179016,0.16937602,805.4579,811.9048,804.65204,801.4286,612.4542,-0.0638427734375,-0.09991455078125,0.99176025390625,-24.6734619140625,-9.989013671875,-7.349700927734375,1,1.0,1.0,1.0,1.0,10.00
2024-10-11 20:19:59.298,0.38433173,0.5329603,0.11759815,0.44811153,0.21392997,0.49405608,-0.20801462,0.023473602,0.39122227,0.39746043,0.13288774,0.25732687,0.6124126,0.30030358,0.09728677,0.70931226,-0.062387563,-0.015026642,-0.18179016,0.16937602,807.8755,805.8608,805.4579,807.47253,710.3663,-0.0638427734375,-0.09991455078125,0.99176025390625,-24.6734619140625,-9.989013671875,-7.349700927734375,1,1.0,1.0,1.0,1.0,10.00
2024-10-11 20:19:59.299,0.38433173,0.5329603,0.11759815,0.44811153,0.21392997,0.49405608,-0.20801462,0.023473602,0.39122227,0.39746043,0.13288774,0.25732687,0.6124126,0.30030358,0.09728677,0.70931226,-0.062387563,-0.015026642,-0.18179016,0.16937602,804.65204,794.17584,795.78754,807.47253,734.5421,-0.0638427734375,-0.09991455078125,0.99176025390625,-24.6734619140625,-9.989013671875,-7.349700927734375,1,1.0,1.0,1.0,1.0,10.00
2024-10-11 20:19:59.300,0.38433173,0.5329603,0.11759815,0.44811153,0.21392997,0.49405608,-0.20801462,0.023473602,0.39122227,0.39746043,0.13288774,0.25732687,0.6124126,0.30030358,0.09728677,0.70931226,-0.062387563,-0.015026642,-0.18179016,0.16937602,804.2491,798.60803,798.60803,803.8461,662.01465,-0.06671142578125,-0.1309814453125,0.97747802734375,-20.8154296875,-4.882354736328125,-1.981353759765625,1,1.0,1.0,1.0,1.0,10.00
2024-10-11 20:19:59.300,0.38433173,0.5329603,0.11759815,0.44811153,0.21392997,0.49405608,-0.20801462,0.023473602,0.39122227,0.39746043,0.13288774,0.25732687,0.6124126,0.30030358,0.09728677,0.70931226,-0.062387563,-0.015026642,-0.18179016,0.16937602,809.0842,805.05493,803.8461,804.65204,618.0952,-0.06671142578125,-0.1309814453125,0.97747802734375,-20.8154296875,-4.882354736328125,-1.981353759765625,1,1.0,1.0,1.0,1.0,10.00
2024-10-11 20:19:59.301,0.38433173,0.5329603,0.11759815,0.44811153,0.21392997,0.49405608,-0.20801462,0.023473602,0.39122227,0.39746043,0.13288774,0.25732687,0.6124126,0.30030358,0.09728677,0.70931226,-0.062387563,-0.015026642,-0.18179016,0.16937602,803.0403,800.2198,806.26373,801.02563,666.04395,-0.06671142578125,-0.1309814453125,0.97747802734375,-20.8154296875,-4.882354736328125,-1.981353759765625,1,1.0,1.0,1.0,1.0,10.00
2024-10-11 20:19:59.302,0.38433173,0.5329603,0.11759815,0.44811153,0.21392997,0.49405608,-0.20801462,0.023473602,0.39122227,0.39746043,0.13288774,0.25732687,0.6124126,0.30030358,0.09728677,0.70931226,-0.062387563,-0.015026642,-0.18179016,0.16937602,799.41394,800.6227,803.44324,798.20514,707.5458,-0.06671142578125,-0.1309814453125,0.97747802734375,-20.8154296875,-4.882354736328125,-1.981353759765625,1,1.0,1.0,1.0,1.0,10.00
2024-10-11 20:19:59.302,0.38433173,0.5329603,0.11759815,0.44811153,0.21392997,0.49405608,-0.20801462,0.023473602,0.39122227,0.39746043,0.13288774,0.25732687,0.6124126,0.30030358,0.09728677,0.70931226,-0.062387563,-0.015026642,-0.18179016,0.16937602,800.2198,799.011,798.20514,801.8315,705.12823,-0.06671142578125,-0.1309814453125,0.97747802734375,-20.8154296875,-4.882354736328125,-1.981353759765625,1,1.0,1.0,1.0,1.0,10.00
2024-10-11 20:19:59.303,0.38433173,0.5329603,0.11759815,0.44811153,0.21392997,0.49405608,-0.20801462,0.023473602,0.39122227,0.39746043,0.13288774,0.25732687,0.6124126,0.30030358,0.09728677,0.70931226,-0.062387563,-0.015026642,-0.18179016,0.16937602,796.1905,794.57874,801.02563,804.2491,842.9304,-0.06671142578125,-0.1309814453125,0.97747802734375,-20.8154296875,-4.882354736328125,-1.981353759765625,1,1.0,1.0,1.0,1.0,10.00
2024-10-11 20:19:59.304,0.38433173,0.5329603,0.11759815,0.44811153,0.21392997,0.49405608,-0.20801462,0.023473602,0.39122227,0.39746043,0.13288774,0.25732687,0.6124126,0.30030358,0.09728677,0.70931226,-0.062387563,-0.015026642,-0.18179016,0.16937602,800.6227,789.34064,801.4286,808.68134,1117.326,-0.06671142578125,-0.1309814453125,0.97747802734375,-20.8154296875,-4.882354736328125,-1.981353759765625,1,1.0,1.0,1.0,1.0,10.00
2024-10-11 20:19:59.304,0.38433173,0.5329603,0.11759815,0.44811153,0.21392997,0.49405608,-0.20801462,0.023473602,0.39122227,0.39746043,0.13288774,0.25732687,0.6124126,0.30030358,0.09728677,0.70931226,-0.062387563,-0.015026642,-0.18179016,0.16937602,804.65204,796.5934,798.60803,810.293,1013.36993,-0.06671142578125,-0.1309814453125,0.97747802734375,-20.8154296875,-4.882354736328125,-1.981353759765625,1,1.0,1.0,1.0,1.0,10.00
2024-10-11 20:19:59.305,0.38433173,0.5329603,0.11759815,0.44811153,0.21392997,0.49405608,-0.20801462,0.023473602,0.39122227,0.39746043,0.13288774,0.25732687,0.6124126,0.30030358,0.09728677,0.70931226,-0.062387563,-0.015026642,-0.18179016,0.16937602,798.20514,804.65204,803.44324,808.68134,787.326,-0.06671142578125,-0.1309814453125,0.97747802734375,-20.8154296875,-4.882354736328125,-1.981353759765625,1,1.0,1.0,1.0,1.0,10.00
2024-10-11 20:19:59.306,0.38433173,0.5329603,0.11759815,0.44811153,0.21392997,0.49405608,-0.20801462,0.023473602,0.39122227,0.39746043,0.13288774,0.25732687,0.6124126,0.30030358,0.09728677,0.70931226,-0.062387563,-0.015026642,-0.18179016,0.16937602,792.96704,787.72894,811.50183,802.23444,743.4066,-0.06671142578125,-0.1309814453125,0.97747802734375,-20.8154296875,-4.882354736328125,-1.981353759765625,1,1.0,1.0,1.0,1.0,10.00
2024-10-11 20:19:59.306,0.38433173,0.5329603,0.11759815,0.44811153,0.21392997,0.49405608,-0.20801462,0.023473602,0.39122227,0.39746043,0.13288774,0.25732687,0.6124126,0.30030358,0.09728677,0.70931226,-0.062387563,-0.015026642,-0.18179016,0.16937602,790.9524,790.9524,803.8461,803.8461,781.685,-0.06671142578125,-0.1309814453125,0.97747802734375,-20.8154296875,-4.882354736328125,-1.981353759765625,1,1.0,1.0,1.0,1.0,10.00
2024-10-11 20:19:59.307,0.38433173,0.5551341,0.1504781,0.44811153,0.21392997,0.518928,-0.22862053,0.023473602,0.39122227,0.39746043,0.13288774,0.25732687,0.6124126,0.30956712,0.08556432,0.70931226,-0.062387563,-0.018227892,-0.19583906,0.16937602,793.7729,804.65204,799.011,803.0403,706.337,-0.06671142578125,-0.1309814453125,0.97747802734375,-20.8154296875,-4.882354736328125,-1.981353759765625,1,1.0,1.0,1.0,1.0,10.00
2024-10-11 20:19:59.404,0.38433173,0.5551341,0.1504781,0.44811153,0.21392997,0.518928,-0.22862053,0.023473602,0.39122227,0.39746043,0.13288774,0.25732687,0.6124126,0.30956712,0.08556432,0.70931226,-0.062387563,-0.018227892,-0.19583906,0.16937602,801.4286,801.8315,801.8315,797.3993,705.12823,-0.0859375,-0.151611328125,0.9898681640625,-15.17791748046875,-1.727142333984375,0.665435791015625,1,1.0,1.0,1.0,1.0,10.00
2024-10-11 20:19:59.405,0.38433173,0.5551341,0.1504781,0.44811153,0.21392997,0.518928,-0.22862053,0.023473602,0.39122227,0.39746043,0.13288774,0.25732687,0.6124126,0.30956712,0.08556432,0.70931226,-0.062387563,-0.018227892,-0.19583906,0.16937602,803.8461,794.9817,794.9817,797.8022,786.1172,-0.0859375,-0.151611328125,0.9898681640625,-15.17791748046875,-1.727142333984375,0.665435791015625,1,1.0,1.0,1.0,1.0,10.00
2024-10-11 20:19:59.406,0.38433173,0.5551341,0.1504781,0.44811153,0.21392997,0.518928,-0.22862053,0.023473602,0.39122227,0.39746043,0.13288774,0.25732687,0.6124126,0.30956712,0.08556432,0.70931226,-0.062387563,-0.018227892,-0.19583906,0.16937602,793.36993,789.34064,794.17584,792.1612,778.86444,-0.0859375,-0.151611328125,0.9898681640625,-15.17791748046875,-1.727142333984375,0.665435791015625,1,1.0,1.0,1.0,1.0,10.00
2024-10-11 20:19:59.406,0.38433173,0.5551341,0.1504781,0.44811153,0.21392997,0.518928,-0.22862053,0.023473602,0.39122227,0.39746043,0.13288774,0.25732687,0.6124126,0.30956712,0.08556432,0.70931226,-0.062387563,-0.018227892,-0.19583906,0.16937602,788.5348,796.5934,797.8022,790.14655,642.27106,-0.0859375,-0.151611328125,0.9898681640625,-15.17791748046875,-1.727142333984375,0.665435791015625,1,1.0,1.0,1.0,1.0,10.00
2024-10-11 20:19:59.407,0.38433173,0.5551341,0.1504781,0.44811153,0.21392997,0.518928,-0.22862053,0.023473602,0.39122227,0.39746043,0.13288774,0.25732687,0.6124126,0.30956712,0.08556432,0.70931226,-0.062387563,-0.018227892,-0.19583906,0.16937602,801.02563,799.81683,804.65204,790.54944,645.89746,-0.0859375,-0.151611328125,0.9898681640625,-15.17791748046875,-1.727142333984375,0.665435791015625,1,1.0,1.0,1.0,1.0,10.00
2024-10-11 20:19:59.408,0.38433173,0.5551341,0.1504781,0.44811153,0.21392997,0.518928,-0.22862053,0.023473602,0.39122227,0.39746043,0.13288774,0.25732687,0.6124126,0.30956712,0.08556432,0.70931226,-0.062387563,-0.018227892,-0.19583906,0.16937602,798.20514,794.57874,805.8608,792.1612,1000.87915,-0.0859375,-0.151611328125,0.9898681640625,-15.17791748046875,-1.727142333984375,0.665435791015625,1,1.0,1.0,1.0,1.0,10.00
2024-10-11 20:19:59.409,0.38433173,0.5551341,0.1504781,0.44811153,0.21392997,0.518928,-0.22862053,0.023473602,0.39122227,0.39746043,0.13288774,0.25732687,0.6124126,0.30956712,0.08556432,0.70931226,-0.062387563,-0.018227892,-0.19583906,0.16937602,782.8938,805.05493,796.5934,783.2967,1182.6007,-0.0859375,-0.151611328125,0.9898681640625,-15.17791748046875,-1.727142333984375,0.665435791015625,1,1.0,1.0,1.0,1.0,10.00
2024-10-11 20:19:59.409,0.38433173,0.5551341,0.1504781,0.44811153,0.21392997,0.518928,-0.22862053,0.023473602,0.39122227,0.39746043,0.13288774,0.25732687,0.6124126,0.30956712,0.08556432,0.70931226,-0.062387563,-0.018227892,-0.19583906,0.16937602,786.52014,803.8461,786.1172,774.83514,834.87177,-0.0859375,-0.151611328125,0.9898681640625,-15.17791748046875,-1.727142333984375,0.665435791015625,1,1.0,1.0,1.0,1.0,10.00
2024-10-11 20:19:59.410,0.38433173,0.5551341,0.1504781,0.44811153,0.21392997,0.518928,-0.22862053,0.023473602,0.39122227,0.39746043,0.13288774,0.25732687,0.6124126,0.30956712,0.08556432,0.70931226,-0.062387563,-0.018227892,-0.19583906,0.16937602,787.326,801.8315,787.72894,777.25275,766.3736,-0.0859375,-0.151611328125,0.9898681640625,-15.17791748046875,-1.727142333984375,0.665435791015625,1,1.0,1.0,1.0,1.0,10.00
2024-10-11 20:19:59.411,0.38433173,0.5551341,0.1504781,0.44811153,0.21392997,0.518928,-0.22862053,0.023473602,0.39122227,0.39746043,0.13288774,0.25732687,0.6124126,0.30956712,0.08556432,0.70931226,-0.062387563,-0.018227892,-0.19583906,0.16937602,779.67035,806.26373,793.36993,781.28204,979.92676,-0.0859375,-0.151611328125,0.9898681640625,-15.17791748046875,-1.727142333984375,0.665435791015625,1,1.0,1.0,1.0,1.0,10.00
2024-10-11 20:19:59.411,0.38433173,0.5551341,0.1504781,0.44811153,0.21392997,0.518928,-0.22862053,0.023473602,0.39122227,0.39746043,0.13288774,0.25732687,0.6124126,0.30956712,0.08556432,0.70931226,-0.062387563,-0.018227892,-0.19583906,0.16937602,770.80585,804.2491,794.9817,772.01465,973.8828,-0.0859375,-0.151611328125,0.9898681640625,-15.17791748046875,-1.727142333984375,0.665435791015625,1,1.0,1.0,1.0,1.0,10.00
2024-10-11 20:19:59.412,0.38433173,0.5551341,0.1504781,0.44811153,0.21392997,0.518928,-0.22862053,0.023473602,0.39122227,0.39746043,0.13288774,0.25732687,0.6124126,0.30956712,0.08556432,0.70931226,-0.062387563,-0.018227892,-0.19583906,0.16937602,766.77655,801.4286,797.3993,762.74725,604.7985,-0.0859375,-0.151611328125,0.9898681640625,-15.17791748046875,-1.727142333984375,0.665435791015625,1,1.0,1.0,1.0,1.0,10.00
2024-10-11 20:19:59.475,0.38433173,0.5551341,0.1504781,0.44811153,0.21392997,0.518928,-0.22862053,0.023473602,0.39122227,0.39746043,0.13288774,0.25732687,0.6124126,0.30956712,0.08556432,0.70931226,-0.062387563,-0.018227892,-0.19583906,0.16937602,770.40295,794.9817,795.38464,777.6557,590.696,-0.09283447265625,-0.1619873046875,0.992431640625,-10.669403076171875,-1.55517578125,0.64300537109375,1,1.0,1.0,1.0,1.0,10.00
2024-10-11 20:19:59.476,0.38433173,0.5551341,0.1504781,0.44811153,0.21392997,0.518928,-0.22862053,0.023473602,0.39122227,0.39746043,0.13288774,0.25732687,0.6124126,0.30956712,0.08556432,0.70931226,-0.062387563,-0.018227892,-0.19583906,0.16937602,774.43225,803.44324,790.54944,781.28204,805.4579,-0.09283447265625,-0.1619873046875,0.992431640625,-10.669403076171875,-1.55517578125,0.64300537109375,1,1.0,1.0,1.0,1.0,10.00
2024-10-11 20:19:59.477,0.38433173,0.5551341,0.1504781,0.44811153,0.21392997,0.518928,-0.22862053,0.023473602,0.39122227,0.39746043,0.13288774,0.25732687,0.6124126,0.30956712,0.08556432,0.70931226,-0.062387563,-0.018227892,-0.19583906,0.16937602,783.2967,805.4579,789.34064,784.10254,738.97437,-0.09283447265625,-0.1619873046875,0.992431640625,-10.669403076171875,-1.55517578125,0.64300537109375,1,1.0,1.0,1.0,1.0,10.00
2024-10-11 20:19:59.478,0.38433173,0.5551341,0.1504781,0.44811153,0.21392997,0.518928,-0.22862053,0.023473602,0.39122227,0.39746043,0.13288774,0.25732687,0.6124126,0.30956712,0.08556432,0.70931226,-0.062387563,-0.018227892,-0.19583906,0.16937602,779.2674,796.5934,790.9524,779.67035,579.41394,-0.09283447265625,-0.1619873046875,0.992431640625,-10.669403076171875,-1.55517578125,0.64300537109375,1,1.0,1.0,1.0,1.0,10.00
2024-10-11 20:19:59.478,0.38433173,0.5551341,0.1504781,0.44811153,0.21392997,0.518928,-0.22862053,0.023473602,0.39122227,0.39746043,0.13288774,0.25732687,0.6124126,0.30956712,0.08556432,0.70931226,-0.062387563,-0.018227892,-0.19583906,0.16937602,773.22345,795.38464,794.9817,775.64105,641.06226,-0.09283447265625,-0.1619873046875,0.992431640625,-10.669403076171875,-1.55517578125,0.64300537109375,1,1.0,1.0,1.0,1.0,10.00
2024-10-11 20:19:59.479,0.38433173,0.5551341,0.1504781,0.44811153,0.21392997,0.518928,-0.22862053,0.023473602,0.39122227,0.39746043,0.13288774,0.25732687,0.6124126,0.30956712,0.08556432,0.70931226,-0.062387563,-0.018227892,-0.19583906,0.16937602,779.2674,802.23444,795.38464,782.49084,939.2308,-0.09283447265625,-0.1619873046875,0.992431640625,-10.669403076171875,-1.55517578125,0.64300537109375,1,1.0,1.0,1.0,1.0,10.00
2024-10-11 20:19:59.480,0.38433173,0.5551341,0.1504781,0.44811153,0.21392997,0.518928,-0.22862053,0.023473602,0.39122227,0.39746043,0.13288774,0.25732687,0.6124126,0.30956712,0.08556432,0.70931226,-0.062387563,-0.018227892,-0.19583906,0.16937602,787.72894,807.8755,796.1905,788.5348,936.0073,-0.09283447265625,-0.1619873046875,0.992431640625,-10.669403076171875,-1.55517578125,0.64300537109375,1,1.0,1.0,1.0,1.0,10.00
2024-10-11 20:19:59.480,0.38433173,0.5551341,0.1504781,0.44811153,0.21392997,0.518928,-0.22862053,0.023473602,0.39122227,0.39746043,0.13288774,0.25732687,0.6124126,0.30956712,0.08556432,0.70931226,-0.062387563,-0.018227892,-0.19583906,0.16937602,786.1172,812.71063,794.57874,788.1319,693.44324,-0.09283447265625,-0.1619873046875,0.992431640625,-10.669403076171875,-1.55517578125,0.64300537109375,1,1.0,1.0,1.0,1.0,10.00
2024-10-11 20:19:59.481,0.38433173,0.5551341,0.1504781,0.44811153,0.21392997,0.518928,-0.22862053,0.023473602,0.39122227,0.39746043,0.13288774,0.25732687,0.6124126,0.30956712,0.08556432,0.70931226,-0.062387563,-0.018227892,-0.19583906,0.16937602,784.10254,814.3223,796.99634,786.9231,608.022,-0.09283447265625,-0.1619873046875,0.992431640625,-10.669403076171875,-1.55517578125,0.64300537109375,1,1.0,1.0,1.0,1.0,10.00
2024-10-11 20:19:59.482,0.38433173,0.5551341,0.1504781,0.44811153,0.21392997,0.518928,-0.22862053,0.023473602,0.39122227,0.39746043,0.13288774,0.25732687,0.6124126,0.30956712,0.08556432,0.70931226,-0.062387563,-0.018227892,-0.19583906,0.16937602,792.96704,802.6374,800.2198,795.38464,960.58606,-0.09283447265625,-0.1619873046875,0.992431640625,-10.669403076171875,-1.55517578125,0.64300537109375,1,1.0,1.0,1.0,1.0,10.00
2024-10-11 20:19:59.483,0.38433173,0.5551341,0.1504781,0.44811153,0.21392997,0.518928,-0.22862053,0.023473602,0.39122227,0.39746043,0.13288774,0.25732687,0.6124126,0.30956712,0.08556432,0.70931226,-0.062387563,-0.018227892,-0.19583906,0.16937602,801.8315,794.17584,805.4579,804.2491,935.6044,-0.09283447265625,-0.1619873046875,0.992431640625,-10.669403076171875,-1.55517578125,0.64300537109375,1,1.0,1.0,1.0,1.0,10.00
2024-10-11 20:19:59.483,0.38433173,0.5551341,0.1504781,0.44811153,0.21392997,0.518928,-0.22862053,0.023473602,0.39122227,0.39746043,0.13288774,0.25732687,0.6124126,0.30956712,0.08556432,0.70931226,-0.062387563,-0.018227892,-0.19583906,0.16937602,799.011,799.41394,807.0696,801.4286,691.4286,-0.09283447265625,-0.1619873046875,0.992431640625,-10.669403076171875,-1.55517578125,0.64300537109375,1,1.0,1.0,1.0,1.0,10.00
2024-10-11 20:19:59.538,0.38433173,0.5551341,0.1504781,0.44811153,0.21392997,0.518928,-0.22862053,0.023473602,0.39122227,0.39746043,0.13288774,0.25732687,0.6124126,0.30956712,0.08556432,0.70931226,-0.062387563,-0.018227892,-0.19583906,0.16937602,792.96704,794.57874,797.3993,795.78754,692.6374,-0.07879638671875,-0.1683349609375,0.98809814453125,-10.325469970703125,-3.768310546875,-0.64300537109375,1,1.0,1.0,1.0,1.0,10.00
2024-10-11 20:19:59.539,0.38433173,0.57925427,0.1878935,0.44811153,0.21392997,0.5437741,-0.23565573,0.023473602,0.39122227,0.39746043,0.12146817,0.25732687,0.6124126,0.321156,0.05687751,0.70931226,-0.062387563,-0.01671692,-0.20749155,0.16937602,791.3553,792.96704,793.36993,803.44324,817.9487,-0.07879638671875,-0.1683349609375,0.98809814453125,-10.325469970703125,-3.768310546875,-0.64300537109375,1,1.0,1.0,1.0,1.0,10.00
2024-10-11 20:19:59.545,0.38433173,0.57925427,0.1878935,0.44811153,0.21392997,0.5437741,-0.23565573,0.023473602,0.39122227,0.39746043,0.12146817,0.25732687,0.6124126,0.321156,0.05687751,0.70931226,-0.062387563,-0.01671692,-0.20749155,0.16937602,794.17584,806.26373,799.81683,806.26373,766.3736,-0.07879638671875,-0.1683349609375,0.98809814453125,-10.325469970703125,-3.768310546875,-0.64300537109375,1,1.0,1.0,1.0,1.0,10.00
2024-10-11 20:19:59.546,0.38433173,0.57925427,0.1878935,0.44811153,0.21392997,0.5437741,-0.23565573,0.023473602,0.39122227,0.39746043,0.12146817,0.25732687,0.6124126,0.321156,0.05687751,0.70931226,-0.062387563,-0.01671692,-0.20749155,0.16937602,791.75824,808.68134,807.47253,801.02563,719.6337,-0.07879638671875,-0.1683349609375,0.98809814453125,-10.325469970703125,-3.768310546875,-0.64300537109375,1,1.0,1.0,1.0,1.0,10.00
2024-10-11 20:19:59.546,0.38433173,0.57925427,0.1878935,0.44811153,0.21392997,0.5437741,-0.23565573,0.023473602,0.39122227,0.39746043,0.12146817,0.25732687,0.6124126,0.321156,0.05687751,0.70931226,-0.062387563,-0.01671692,-0.20749155,0.16937602,787.72894,804.65204,802.23444,801.8315,810.293,-0.07879638671875,-0.1683349609375,0.98809814453125,-10.325469970703125,-3.768310546875,-0.64300537109375,1,1.0,1.0,1.0,1.0,10.00
2024-10-11 20:19:59.547,0.38433173,0.57925427,0.1878935,0.44811153,0.21392997,0.5437741,-0.23565573,0.023473602,0.39122227,0.39746043,0.12146817,0.25732687,0.6124126,0.321156,0.05687751,0.70931226,-0.062387563,-0.01671692,-0.20749155,0.16937602,793.36993,799.41394,797.3993,804.2491,1029.8901,-0.07879638671875,-0.1683349609375,0.98809814453125,-10.325469970703125,-3.768310546875,-0.64300537109375,1,1.0,1.0,1.0,1.0,10.00
2024-10-11 20:19:59.548,0.38433173,0.57925427,0.1878935,0.44811153,0.21392997,0.5437741,-0.23565573,0.023473602,0.39122227,0.39746043,0.12146817,0.25732687,0.6124126,0.321156,0.05687751,0.70931226,-0.062387563,-0.01671692,-0.20749155,0.16937602,796.1905,802.23444,803.8461,802.23444,976.30035,-0.07879638671875,-0.1683349609375,0.98809814453125,-10.325469970703125,-3.768310546875,-0.64300537109375,1,1.0,1.0,1.0,1.0,10.00
2024-10-11 20:19:59.548,0.38433173,0.57925427,0.1878935,0.44811153,0.21392997,0.5437741,-0.23565573,0.023473602,0.39122227,0.39746043,0.12146817,0.25732687,0.6124126,0.321156,0.05687751,0.70931226,-0.062387563,-0.01671692,-0.20749155,0.16937602,788.1319,806.26373,806.6667,798.60803,735.7509,-0.07879638671875,-0.1683349609375,0.98809814453125,-10.325469970703125,-3.768310546875,-0.64300537109375,1,1.0,1.0,1.0,1.0,10.00
2024-10-11 20:19:59.549,0.38433173,0.57925427,0.1878935,0.44811153,0.21392997,0.5437741,-0.23565573,0.023473602,0.39122227,0.39746043,0.12146817,0.25732687,0.6124126,0.321156,0.05687751,0.70931226,-0.062387563,-0.01671692,-0.20749155,0.16937602,794.17584,804.2491,801.8315,799.81683,879.59705,-0.07879638671875,-0.1683349609375,0.98809814453125,-10.325469970703125,-3.768310546875,-0.64300537109375,1,1.0,1.0,1.0,1.0,10.00
2024-10-11 20:19:59.550,0.38433173,0.57925427,0.1878935,0.44811153,0.21392997,0.5437741,-0.23565573,0.023473602,0.39122227,0.39746043,0.12146817,0.25732687,0.6124126,0.321156,0.05687751,0.70931226,-0.062387563,-0.01671692,-0.20749155,0.16937602,800.6227,797.3993,805.05493,801.8315,919.0842,-0.07879638671875,-0.1683349609375,0.98809814453125,-10.325469970703125,-3.768310546875,-0.64300537109375,1,1.0,1.0,1.0,1.0,10.00
2024-10-11 20:19:59.551,0.38433173,0.57925427,0.1878935,0.44811153,0.21392997,0.5437741,-0.23565573,0.023473602,0.39122227,0.39746043,0.12146817,0.25732687,0.6124126,0.321156,0.05687751,0.70931226,-0.062387563,-0.01671692,-0.20749155,0.16937602,801.02563,801.02563,808.68134,803.44324,724.87177,-0.07879638671875,-0.1683349609375,0.98809814453125,-10.325469970703125,-3.768310546875,-0.64300537109375,1,1.0,1.0,1.0,1.0,10.00
2024-10-11 20:19:59.551,0.38433173,0.57925427,0.1878935,0.44811153,0.21392997,0.5437741,-0.23565573,0.023473602,0.39122227,0.39746043,0.12146817,0.25732687,0.6124126,0.321156,0.05687751,0.70931226,-0.062387563,-0.01671692,-0.20749155,0.16937602,799.81683,809.4872,803.44324,802.23444,750.2564,-0.07879638671875,-0.1683349609375,0.98809814453125,-10.325469970703125,-3.768310546875,-0.64300537109375,1,1.0,1.0,1.0,1.0,10.00
2024-10-11 20:19:59.605,0.38433173,0.57925427,0.1878935,0.44811153,0.21392997,0.5437741,-0.23565573,0.023473602,0.39122227,0.39746043,0.12146817,0.25732687,0.6124126,0.321156,0.05687751,0.70931226,-0.062387563,-0.01671692,-0.20749155,0.16937602,794.17584,799.81683,800.2198,797.8022,881.2088,-0.06805419921875,-0.1859130859375,0.9849853515625,-9.428253173828125,-3.925323486328125,-0.73272705078125,1,1.0,1.0,1.0,1.0,10.00
2024-10-11 20:19:59.606,0.38433173,0.57925427,0.1878935,0.44811153,0.21392997,0.5437741,-0.23565573,0.023473602,0.39122227,0.39746043,0.12146817,0.25732687,0.6124126,0.321156,0.05687751,0.70931226,-0.062387563,-0.01671692,-0.20749155,0.16937602,791.75824,805.05493,803.0403,791.3553,752.674,-0.06805419921875,-0.1859130859375,0.9849853515625,-9.428253173828125,-3.925323486328125,-0.73272705078125,1,1.0,1.0,1.0,1.0,10.00
2024-10-11 20:19:59.607,0.38433173,0.57925427,0.1878935,0.44811153,0.21392997,0.5437741,-0.23565573,0.023473602,0.39122227,0.39746043,0.12146817,0.25732687,0.6124126,0.321156,0.05687751,0.70931226,-0.062387563,-0.01671692,-0.20749155,0.16937602,799.41394,812.3077,804.65204,798.60803,699.0842,-0.06805419921875,-0.1859130859375,0.9849853515625,-9.428253173828125,-3.925323486328125,-0.73272705078125,1,1.0,1.0,1.0,1.0,10.00
2024-10-11 20:19:59.608,0.38433173,0.57925427,0.1878935,0.44811153,0.21392997,0.5437741,-0.23565573,0.023473602,0.39122227,0.39746043,0.12146817,0.25732687,0.6124126,0.321156,0.05687751,0.70931226,-0.062387563,-0.01671692,-0.20749155,0.16937602,805.05493,807.0696,805.4579,805.4579,766.77655,-0.06805419921875,-0.1859130859375,0.9849853515625,-9.428253173828125,-3.925323486328125,-0.73272705078125,1,1.0,1.0,1.0,1.0,10.00
2024-10-11 20:19:59.609,0.38433173,0.57925427,0.1878935,0.44811153,0.21392997,0.5437741,-0.23565573,0.023473602,0.39122227,0.39746043,0.12146817,0.25732687,0.6124126,0.321156,0.05687751,0.70931226,-0.062387563,-0.01671692,-0.20749155,0.16937602,806.26373,807.8755,804.65204,798.60803,741.39197,-0.06805419921875,-0.1859130859375,0.9849853515625,-9.428253173828125,-3.925323486328125,-0.73272705078125,1,1.0,1.0,1.0,1.0,10.00
2024-10-11 20:19:59.609,0.38433173,0.57925427,0.1878935,0.44811153,0.21392997,0.5437741,-0.23565573,0.023473602,0.39122227,0.39746043,0.12146817,0.25732687,0.6124126,0.321156,0.05687751,0.70931226,-0.062387563,-0.01671692,-0.20749155,0.16937602,809.0842,801.8315,803.0403,800.2198,764.7619,-0.06805419921875,-0.1859130859375,0.9849853515625,-9.428253173828125,-3.925323486328125,-0.73272705078125,1,1.0,1.0,1.0,1.0,10.00
2024-10-11 20:19:59.610,0.38433173,0.57925427,0.1878935,0.44811153,0.21392997,0.5437741,-0.23565573,0.023473602,0.39122227,0.39746043,0.12146817,0.25732687,0.6124126,0.321156,0.05687751,0.70931226,-0.062387563,-0.01671692,-0.20749155,0.16937602,804.2491,798.60803,797.8022,800.6227,821.5751,-0.06805419921875,-0.1859130859375,0.9849853515625,-9.428253173828125,-3.925323486328125,-0.73272705078125,1,1.0,1.0,1.0,1.0,10.00
2024-10-11 20:19:59.611,0.38433173,0.57925427,0.1878935,0.44811153,0.21392997,0.5437741,-0.23565573,0.023473602,0.39122227,0.39746043,0.12146817,0.25732687,0.6124126,0.321156,0.05687751,0.70931226,-0.062387563,-0.01671692,-0.20749155,0.16937602,801.02563,800.6227,792.96704,796.5934,836.4835,-0.06805419921875,-0.1859130859375,0.9849853515625,-9.428253173828125,-3.925323486328125,-0.73272705078125,1,1.0,1.0,1.0,1.0,10.00
2024-10-11 20:19:59.611,0.38433173,0.57925427,0.1878935,0.44811153,0.21392997,0.5437741,-0.23565573,0.023473602,0.39122227,0.39746043,0.12146817,0.25732687,0.6124126,0.321156,0.05687751,0.70931226,-0.062387563,-0.01671692,-0.20749155,0.16937602,803.44324,790.9524,801.02563,795.78754,935.6044,-0.06805419921875,-0.1859130859375,0.9849853515625,-9.428253173828125,-3.925323486328125,-0.73272705078125,1,1.0,1.0,1.0,1.0,10.00
2024-10-11 20:19:59.612,0.38433173,0.57925427,0.1878935,0.44811153,0.21392997,0.5437741,-0.23565573,0.023473602,0.39122227,0.39746043,0.12146817,0.25732687,0.6124126,0.321156,0.05687751,0.70931226,-0.062387563,-0.01671692,-0.20749155,0.16937602,800.2198,799.41394,800.6227,796.1905,772.4176,-0.06805419921875,-0.1859130859375,0.9849853515625,-9.428253173828125,-3.925323486328125,-0.73272705078125,1,1.0,1.0,1.0,1.0,10.00
2024-10-11 20:19:59.613,0.38433173,0.57925427,0.1878935,0.44811153,0.21392997,0.5437741,-0.23565573,0.023473602,0.39122227,0.39746043,0.12146817,0.25732687,0.6124126,0.321156,0.05687751,0.70931226,-0.062387563,-0.01671692,-0.20749155,0.16937602,803.8461,811.0989,804.65204,801.8315,657.98535,-0.06805419921875,-0.1859130859375,0.9849853515625,-9.428253173828125,-3.925323486328125,-0.73272705078125,1,1.0,1.0,1.0,1.0,10.00
2024-10-11 20:19:59.613,0.38433173,0.57925427,0.1878935,0.44811153,0.21392997,0.5437741,-0.23565573,0.023473602,0.39122227,0.39746043,0.12146817,0.25732687,0.6124126,0.321156,0.05687751,0.70931226,-0.062387563,-0.01671692,-0.20749155,0.16937602,803.44324,805.4579,806.6667,805.4579,775.2381,-0.06805419921875,-0.1859130859375,0.9849853515625,-9.428253173828125,-3.925323486328125,-0.73272705078125,1,1.0,1.0,1.0,1.0,10.00
2024-10-11 20:19:59.672,0.38433173,0.57925427,0.1878935,0.44811153,0.21392997,0.5437741,-0.23565573,0.023473602,0.39122227,0.39746043,0.12146817,0.25732687,0.6124126,0.321156,0.05687751,0.70931226,-0.062387563,-0.01671692,-0.20749155,0.16937602,800.6227,811.9048,799.81683,809.4872,813.91943,-0.06805419921875,-0.1859130859375,0.9849853515625,-9.428253173828125,-3.925323486328125,-0.73272705078125,1,1.0,1.0,1.0,1.0,10.00
2024-10-11 20:19:59.673,0.38433173,0.57925427,0.1878935,0.44811153,0.21392997,0.5437741,-0.23565573,0.023473602,0.39122227,0.39746043,0.12146817,0.25732687,0.6124126,0.321156,0.05687751,0.70931226,-0.062387563,-0.01671692,-0.20749155,0.16937602,805.8608,819.15753,799.41394,809.4872,655.16486,-0.06805419921875,-0.1859130859375,0.9849853515625,-9.428253173828125,-3.925323486328125,-0.73272705078125,1,1.0,1.0,1.0,1.0,10.00
2024-10-11 20:19:59.674,0.38433173,0.57925427,0.1878935,0.44811153,0.21392997,0.5437741,-0.23565573,0.023473602,0.39122227,0.39746043,0.12146817,0.25732687,0.6124126,0.321156,0.05687751,0.70931226,-0.062387563,-0.01671692,-0.20749155,0.16937602,815.9341,813.5165,801.8315,803.8461,539.12085,-0.06805419921875,-0.1859130859375,0.9849853515625,-9.428253173828125,-3.925323486328125,-0.73272705078125,1,1.0,1.0,1.0,1.0,10.00
2024-10-11 20:19:59.675,0.38433173,0.70801616,0.22979604,0.44811153,0.21392997,0.6373827,-0.24765266,0.023473602,0.39122227,0.39746043,0.0752939,0.25732687,0.6124126,0.32294905,0.018310541,0.70931226,-0.062387563,-0.014279321,-0.20844105,0.16937602,811.50183,808.68134,801.02563,810.696,711.5751,-0.06805419921875,-0.1859130859375,0.9849853515625,-9.428253173828125,-3.925323486328125,-0.73272705078125,1,1.0,1.0,1.0,1.0,10.00
2024-10-11 20:19:59.680,0.38433173,0.70801616,0.22979604,0.44811153,0.21392997,0.6373827,-0.24765266,0.023473602,0.39122227,0.39746043,0.0752939,0.25732687,0.6124126,0.32294905,0.018310541,0.70931226,-0.062387563,-0.014279321,-0.20844105,0.16937602,806.6667,806.26373,799.41394,813.1135,870.32965,-0.06805419921875,-0.1859130859375,0.9849853515625,-9.428253173828125,-3.925323486328125,-0.73272705078125,1,1.0,1.0,1.0,1.0,10.00
2024-10-11 20:19:59.681,0.38433173,0.70801616,0.22979604,0.44811153,0.21392997,0.6373827,-0.24765266,0.023473602,0.39122227,0.39746043,0.0752939,0.25732687,0.6124126,0.32294905,0.018310541,0.70931226,-0.062387563,-0.014279321,-0.20844105,0.16937602,803.0403,799.41394,801.4286,809.0842,778.46155,-0.06805419921875,-0.1859130859375,0.9849853515625,-9.428253173828125,-3.925323486328125,-0.73272705078125,1,1.0,1.0,1.0,1.0,10.00
2024-10-11 20:19:59.681,0.38433173,0.70801616,0.22979604,0.44811153,0.21392997,0.6373827,-0.24765266,0.023473602,0.39122227,0.39746043,0.0752939,0.25732687,0.6124126,0.32294905,0.018310541,0.70931226,-0.062387563,-0.014279321,-0.20844105,0.16937602,792.5641,792.1612,801.8315,802.6374,649.92676,-0.06805419921875,-0.1859130859375,0.9849853515625,-9.428253173828125,-3.925323486328125,-0.73272705078125,1,1.0,1.0,1.0,1.0,10.00
2024-10-11 20:19:59.682,0.38433173,0.70801616,0.22979604,0.44811153,0.21392997,0.6373827,-0.24765266,0.023473602,0.39122227,0.39746043,0.0752939,0.25732687,0.6124126,0.32294905,0.018310541,0.70931226,-0.062387563,-0.014279321,-0.20844105,0.16937602,796.5934,793.7729,805.8608,808.2784,794.57874,-0.06805419921875,-0.1859130859375,0.9849853515625,-9.428253173828125,-3.925323486328125,-0.73272705078125,1,1.0,1.0,1.0,1.0,10.00
2024-10-11 20:19:59.683,0.38433173,0.70801616,0.22979604,0.44811153,0.21392997,0.6373827,-0.24765266,0.023473602,0.39122227,0.39746043,0.0752939,0.25732687,0.6124126,0.32294905,0.018310541,0.70931226,-0.062387563,-0.014279321,-0.20844105,0.16937602,802.6374,804.2491,809.0842,810.696,838.9011,-0.06805419921875,-0.1859130859375,0.9849853515625,-9.428253173828125,-3.925323486328125,-0.73272705078125,1,1.0,1.0,1.0,1.0,10.00
2024-10-11 20:19:59.684,0.38433173,0.70801616,0.22979604,0.44811153,0.21392997,0.6373827,-0.24765266,0.023473602,0.39122227,0.39746043,0.0752939,0.25732687,0.6124126,0.32294905,0.018310541,0.70931226,-0.062387563,-0.014279321,-0.20844105,0.16937602,799.41394,807.8755,807.0696,801.02563,651.53845,-0.06805419921875,-0.1859130859375,0.9849853515625,-9.428253173828125,-3.925323486328125,-0.73272705078125,1,1.0,1.0,1.0,1.0,10.00
2024-10-11 20:19:59.684,0.38433173,0.70801616,0.22979604,0.44811153,0.21392997,0.6373827,-0.24765266,0.023473602,0.39122227,0.39746043,0.0752939,0.25732687,0.6124126,0.32294905,0.018310541,0.70931226,-0.062387563,-0.014279321,-0.20844105,0.16937602,799.011,801.02563,809.0842,803.44324,651.53845,-0.06805419921875,-0.1859130859375,0.9849853515625,-9.428253173828125,-3.925323486328125,-0.73272705078125,1,1.0,1.0,1.0,1.0,10.00
2024-10-11 20:19:59.685,0.38433173,0.70801616,0.22979604,0.44811153,0.21392997,0.6373827,-0.24765266,0.023473602,0.39122227,0.39746043,0.0752939,0.25732687,0.6124126,0.32294905,0.018310541,0.70931226,-0.062387563,-0.014279321,-0.20844105,0.16937602,800.6227,800.6227,801.8315,805.8608,861.4652,-0.06805419921875,-0.1859130859375,0.9849853515625,-9.428253173828125,-3.925323486328125,-0.73272705078125,1,1.0,1.0,1.0,1.0,10.00
2024-10-11 20:19:59.740,0.38433173,0.70801616,0.22979604,0.44811153,0.21392997,0.6373827,-0.24765266,0.023473602,0.39122227,0.39746043,0.0752939,0.25732687,0.6124126,0.32294905,0.018310541,0.70931226,-0.062387563,-0.014279321,-0.20844105,0.16937602,804.2491,806.6667,792.5641,803.8461,908.60803,-0.0662841796875,-0.190185546875,0.98199462890625,-7.289886474609375,-3.828125,-2.280426025390625,1,1.0,1.0,1.0,1.0,10.00
2024-10-11 20:19:59.741,0.38433173,0.70801616,0.22979604,0.44811153,0.21392997,0.6373827,-0.24765266,0.023473602,0.39122227,0.39746043,0.0752939,0.25732687,0.6124126,0.32294905,0.018310541,0.70931226,-0.062387563,-0.014279321,-0.20844105,0.16937602,801.4286,805.05493,796.5934,798.60803,682.5641,-0.0662841796875,-0.190185546875,0.98199462890625,-7.289886474609375,-3.828125,-2.280426025390625,1,1.0,1.0,1.0,1.0,10.00
2024-10-11 20:19:59.742,0.38433173,0.70801616,0.22979604,0.44811153,0.21392997,0.6373827,-0.24765266,0.023473602,0.39122227,0.39746043,0.0752939,0.25732687,0.6124126,0.32294905,0.018310541,0.70931226,-0.062387563,-0.014279321,-0.20844105,0.16937602,801.8315,799.011,801.4286,799.81683,695.4579,-0.0662841796875,-0.190185546875,0.98199462890625,-7.289886474609375,-3.828125,-2.280426025390625,1,1.0,1.0,1.0,1.0,10.00
2024-10-11 20:19:59.743,0.38433173,0.70801616,0.22979604,0.44811153,0.21392997,0.6373827,-0.24765266,0.023473602,0.39122227,0.39746043,0.0752939,0.25732687,0.6124126,0.32294905,0.018310541,0.70931226,-0.062387563,-0.014279321,-0.20844105,0.16937602,803.44324,794.9817,809.89014,809.89014,960.58606,-0.0662841796875,-0.190185546875,0.98199462890625,-7.289886474609375,-3.828125,-2.280426025390625,1,1.0,1.0,1.0,1.0,10.00
2024-10-11 20:19:59.744,0.38433173,0.70801616,0.22979604,0.44811153,0.21392997,0.6373827,-0.24765266,0.023473602,0.39122227,0.39746043,0.0752939,0.25732687,0.6124126,0.32294905,0.018310541,0.70931226,-0.062387563,-0.014279321,-0.20844105,0.16937602,803.44324,802.23444,806.26373,811.0989,870.32965,-0.0662841796875,-0.190185546875,0.98199462890625,-7.289886474609375,-3.828125,-2.280426025390625,1,1.0,1.0,1.0,1.0,10.00
2024-10-11 20:19:59.744,0.38433173,0.70801616,0.22979604,0.44811153,0.21392997,0.6373827,-0.24765266,0.023473602,0.39122227,0.39746043,0.0752939,0.25732687,0.6124126,0.32294905,0.018310541,0.70931226,-0.062387563,-0.014279321,-0.20844105,0.16937602,798.60803,808.2784,803.44324,801.02563,671.28204,-0.0662841796875,-0.190185546875,0.98199462890625,-7.289886474609375,-3.828125,-2.280426025390625,1,1.0,1.0,1.0,1.0,10.00
2024-10-11 20:19:59.745,0.38433173,0.70801616,0.22979604,0.44811153,0.21392997,0.6373827,-0.24765266,0.023473602,0.39122227,0.39746043,0.0752939,0.25732687,0.6124126,0.32294905,0.018310541,0.70931226,-0.062387563,-0.014279321,-0.20844105,0.16937602,799.41394,803.0403,801.8315,805.4579,820.7692,-0.0662841796875,-0.190185546875,0.98199462890625,-7.289886474609375,-3.828125,-2.280426025390625,1,1.0,1.0,1.0,1.0,10.00
2024-10-11 20:19:59.746,0.38433173,0.70801616,0.22979604,0.44811153,0.21392997,0.6373827,-0.24765266,0.023473602,0.39122227,0.39746043,0.0752939,0.25732687,0.6124126,0.32294905,0.018310541,0.70931226,-0.062387563,-0.014279321,-0.20844105,0.16937602,802.23444,795.38464,799.41394,808.2784,1004.10254,-0.0662841796875,-0.190185546875,0.98199462890625,-7.289886474609375,-3.828125,-2.280426025390625,1,1.0,1.0,1.0,1.0,10.00
2024-10-11 20:19:59.746,0.38433173,0.70801616,0.22979604,0.44811153,0.21392997,0.6373827,-0.24765266,0.023473602,0.39122227,0.39746043,0.0752939,0.25732687,0.6124126,0.32294905,0.018310541,0.70931226,-0.062387563,-0.014279321,-0.20844105,0.16937602,797.3993,795.78754,796.99634,796.99634,812.3077,-0.0662841796875,-0.190185546875,0.98199462890625,-7.289886474609375,-3.828125,-2.280426025390625,1,1.0,1.0,1.0,1.0,10.00
2024-10-11 20:19:59.747,0.38433173,0.70801616,0.22979604,0.44811153,0.21392997,0.6373827,-0.24765266,0.023473602,0.39122227,0.39746043,0.0752939,0.25732687,0.6124126,0.32294905,0.018310541,0.70931226,-0.062387563,-0.014279321,-0.20844105,0.16937602,796.99634,796.5934,791.75824,793.36993,583.0403,-0.0662841796875,-0.190185546875,0.98199462890625,-7.289886474609375,-3.828125,-2.280426025390625,1,1.0,1.0,1.0,1.0,10.00
2024-10-11 20:19:59.748,0.38433173,0.70801616,0.22979604,0.44811153,0.21392997,0.6373827,-0.24765266,0.023473602,0.39122227,0.39746043,0.0752939,0.25732687,0.6124126,0.32294905,0.018310541,0.70931226,-0.062387563,-0.014279321,-0.20844105,0.16937602,795.78754,796.5934,794.17584,800.2198,682.5641,-0.0662841796875,-0.190185546875,0.98199462890625,-7.289886474609375,-3.828125,-2.280426025390625,1,1.0,1.0,1.0,1.0,10.00
2024-10-11 20:19:59.749,0.38433173,0.70801616,0.22979604,0.44811153,0.21392997,0.6373827,-0.24765266,0.023473602,0.39122227,0.39746043,0.0752939,0.25732687,0.6124126,0.32294905,0.018310541,0.70931226,-0.062387563,-0.014279321,-0.20844105,0.16937602,793.36993,797.3993,794.17584,806.26373,912.6374,-0.0662841796875,-0.190185546875,0.98199462890625,-7.289886474609375,-3.828125,-2.280426025390625,1,1.0,1.0,1.0,1.0,10.00
2024-10-11 20:19:59.750,0.38433173,0.70801616,0.22979604,0.44811153,0.21392997,0.6373827,-0.24765266,0.023473602,0.39122227,0.39746043,0.0752939,0.25732687,0.6124126,0.32294905,0.018310541,0.70931226,-0.062387563,-0.014279321,-0.20844105,0.16937602,790.54944,793.36993,796.99634,794.9817,783.69965,-0.06072998046875,-0.19915771484375,0.9871826171875,-4.269256591796875,-2.9010009765625,-4.8150634765625,1,1.0,1.0,1.0,1.0,10.00
2024-10-11 20:19:59.750,0.38433173,0.70801616,0.22979604,0.44811153,0.21392997,0.6373827,-0.24765266,0.023473602,0.39122227,0.39746043,0.0752939,0.25732687,0.6124126,0.32294905,0.018310541,0.70931226,-0.062387563,-0.014279321,-0.20844105,0.16937602,790.9524,792.96704,799.81683,789.34064,691.02563,-0.06072998046875,-0.19915771484375,0.9871826171875,-4.269256591796875,-2.9010009765625,-4.8150634765625,1,1.0,1.0,1.0,1.0,10.00
2024-10-11 20:19:59.751,0.38433173,0.70801616,0.22979604,0.44811153,0.21392997,0.6373827,-0.24765266,0.023473602,0.39122227,0.39746043,0.0752939,0.25732687,0.6124126,0.32294905,0.018310541,0.70931226,-0.062387563,-0.014279321,-0.20844105,0.16937602,794.9817,796.99634,799.81683,796.99634,821.1722,-0.06072998046875,-0.19915771484375,0.9871826171875,-4.269256591796875,-2.9010009765625,-4.8150634765625,1,1.0,1.0,1.0,1.0,10.00
2024-10-11 20:19:59.752,0.38433173,0.70801616,0.22979604,0.44811153,0.21392997,0.6373827,-0.24765266,0.023473602,0.39122227,0.39746043,0.0752939,0.25732687,0.6124126,0.32294905,0.018310541,0.70931226,-0.062387563,-0.014279321,-0.20844105,0.16937602,792.1612,795.78754,800.6227,793.36993,826.4103,-0.06072998046875,-0.19915771484375,0.9871826171875,-4.269256591796875,-2.9010009765625,-4.8150634765625,1,1.0,1.0,1.0,1.0,10.00
2024-10-11 20:19:59.753,0.38433173,0.70801616,0.22979604,0.44811153,0.21392997,0.6373827,-0.24765266,0.023473602,0.39122227,0.39746043,0.0752939,0.25732687,0.6124126,0.32294905,0.018310541,0.70931226,-0.062387563,-0.014279321,-0.20844105,0.16937602,792.5641,795.78754,800.2198,791.3553,670.87915,-0.06072998046875,-0.19915771484375,0.9871826171875,-4.269256591796875,-2.9010009765625,-4.8150634765625,1,1.0,1.0,1.0,1.0,10.00
2024-10-11 20:19:59.753,0.38433173,0.77337664,0.2757682,0.44811153,0.21392997,0.67478865,-0.27258033,0.023473602,0.39122227,0.39746043,0.014714357,0.25732687,0.6124126,0.3137669,-0.020336233,0.70931226,-0.062387563,-0.021707969,-0.19493696,0.16937602,792.96704,794.17584,797.3993,792.1612,807.0696,-0.06072998046875,-0.19915771484375,0.9871826171875,-4.269256591796875,-2.9010009765625,-4.8150634765625,1,1.0,1.0,1.0,1.0,10.00
2024-10-11 20:19:59.758,0.38433173,0.77337664,0.2757682,0.44811153,0.21392997,0.67478865,-0.27258033,0.023473602,0.39122227,0.39746043,0.014714357,0.25732687,0.6124126,0.3137669,-0.020336233,0.70931226,-0.062387563,-0.021707969,-0.19493696,0.16937602,793.36993,793.36993,796.99634,788.5348,1001.28204,-0.06072998046875,-0.19915771484375,0.9871826171875,-4.269256591796875,-2.9010009765625,-4.8150634765625,1,1.0,1.0,1.0,1.0,10.00
2024-10-11 20:19:59.759,0.38433173,0.77337664,0.2757682,0.44811153,0.21392997,0.67478865,-0.27258033,0.023473602,0.39122227,0.39746043,0.014714357,0.25732687,0.6124126,0.3137669,-0.020336233,0.70931226,-0.062387563,-0.021707969,-0.19493696,0.16937602,797.3993,793.36993,796.5934,795.78754,772.01465,-0.06072998046875,-0.19915771484375,0.9871826171875,-4.269256591796875,-2.9010009765625,-4.8150634765625,1,1.0,1.0,1.0,1.0,10.00
2024-10-11 20:19:59.760,0.38433173,0.77337664,0.2757682,0.44811153,0.21392997,0.67478865,-0.27258033,0.023473602,0.39122227,0.39746043,0.014714357,0.25732687,0.6124126,0.3137669,-0.020336233,0.70931226,-0.062387563,-0.021707969,-0.19493696,0.16937602,800.2198,796.5934,797.8022,798.60803,537.1062,-0.06072998046875,-0.19915771484375,0.9871826171875,-4.269256591796875,-2.9010009765625,-4.8150634765625,1,1.0,1.0,1.0,1.0,10.00
2024-10-11 20:19:59.761,0.38433173,0.77337664,0.2757682,0.44811153,0.21392997,0.67478865,-0.27258033,0.023473602,0.39122227,0.39746043,0.014714357,0.25732687,0.6124126,0.3137669,-0.020336233,0.70931226,-0.062387563,-0.021707969,-0.19493696,0.16937602,806.26373,795.78754,805.8608,798.20514,702.71063,-0.06072998046875,-0.19915771484375,0.9871826171875,-4.269256591796875,-2.9010009765625,-4.8150634765625,1,1.0,1.0,1.0,1.0,10.00
2024-10-11 20:19:59.761,0.38433173,0.77337664,0.2757682,0.44811153,0.21392997,0.67478865,-0.27258033,0.023473602,0.39122227,0.39746043,0.014714357,0.25732687,0.6124126,0.3137669,-0.020336233,0.70931226,-0.062387563,-0.021707969,-0.19493696,0.16937602,811.0989,797.8022,801.8315,806.26373,950.10986,-0.06072998046875,-0.19915771484375,0.9871826171875,-4.269256591796875,-2.9010009765625,-4.8150634765625,1,1.0,1.0,1.0,1.0,10.00
2024-10-11 20:19:59.762,0.38433173,0.77337664,0.2757682,0.44811153,0.21392997,0.67478865,-0.27258033,0.023473602,0.39122227,0.39746043,0.014714357,0.25732687,0.6124126,0.3137669,-0.020336233,0.70931226,-0.062387563,-0.021707969,-0.19493696,0.16937602,809.4872,798.60803,802.23444,803.8461,801.4286,-0.06072998046875,-0.19915771484375,0.9871826171875,-4.269256591796875,-2.9010009765625,-4.8150634765625,1,1.0,1.0,1.0,1.0,10.00
2024-10-11 20:19:59.763,0.38433173,0.77337664,0.2757682,0.44811153,0.21392997,0.67478865,-0.27258033,0.023473602,0.39122227,0.39746043,0.014714357,0.25732687,0.6124126,0.3137669,-0.020336233,0.70931226,-0.062387563,-0.021707969,-0.19493696,0.16937602,804.65204,797.8022,801.8315,799.81683,652.74725,-0.0576171875,-0.19757080078125,0.98602294921875,-2.115936279296875,-0.695343017578125,-6.519775390625,1,1.0,1.0,1.0,1.0,10.00
2024-10-11 20:19:59.764,0.38433173,0.77337664,0.2757682,0.44811153,0.21392997,0.67478865,-0.27258033,0.023473602,0.39122227,0.39746043,0.014714357,0.25732687,0.6124126,0.3137669,-0.020336233,0.70931226,-0.062387563,-0.021707969,-0.19493696,0.16937602,812.71063,801.8315,796.5934,805.05493,714.7985,-0.0576171875,-0.19757080078125,0.98602294921875,-2.115936279296875,-0.695343017578125,-6.519775390625,1,1.0,1.0,1.0,1.0,10.00
2024-10-11 20:19:59.764,0.38433173,0.77337664,0.2757682,0.44811153,0.21392997,0.67478865,-0.27258033,0.023473602,0.39122227,0.39746043,0.014714357,0.25732687,0.6124126,0.3137669,-0.020336233,0.70931226,-0.062387563,-0.021707969,-0.19493696,0.16937602,811.50183,804.65204,798.60803,809.89014,874.7619,-0.0576171875,-0.19757080078125,0.98602294921875,-2.115936279296875,-0.695343017578125,-6.519775390625,1,1.0,1.0,1.0,1.0,10.00
2024-10-11 20:19:59.765,0.38433173,0.77337664,0.2757682,0.44811153,0.21392997,0.67478865,-0.27258033,0.023473602,0.39122227,0.39746043,0.014714357,0.25732687,0.6124126,0.3137669,-0.020336233,0.70931226,-0.062387563,-0.021707969,-0.19493696,0.16937602,803.0403,804.2491,796.99634,819.5604,735.34796,-0.0576171875,-0.19757080078125,0.98602294921875,-2.115936279296875,-0.695343017578125,-6.519775390625,1,1.0,1.0,1.0,1.0,10.00
2024-10-11 20:19:59.766,0.38433173,0.77337664,0.2757682,0.44811153,0.21392997,0.67478865,-0.27258033,0.023473602,0.39122227,0.39746043,0.014714357,0.25732687,0.6124126,0.3137669,-0.020336233,0.70931226,-0.062387563,-0.021707969,-0.19493696,0.16937602,800.6227,799.81683,801.8315,814.7253,587.47253,-0.0576171875,-0.19757080078125,0.98602294921875,-2.115936279296875,-0.695343017578125,-6.519775390625,1,1.0,1.0,1.0,1.0,10.00
2024-10-11 20:19:59.766,0.38433173,0.77337664,0.2757682,0.44811153,0.21392997,0.67478865,-0.27258033,0.023473602,0.39122227,0.39746043,0.014714357,0.25732687,0.6124126,0.3137669,-0.020336233,0.70931226,-0.062387563,-0.021707969,-0.19493696,0.16937602,802.23444,798.20514,805.8608,816.337,896.52014,-0.0576171875,-0.19757080078125,0.98602294921875,-2.115936279296875,-0.695343017578125,-6.519775390625,1,1.0,1.0,1.0,1.0,10.00
2024-10-11 20:19:59.767,0.38433173,0.77337664,0.2757682,0.44811153,0.21392997,0.67478865,-0.27258033,0.023473602,0.39122227,0.39746043,0.014714357,0.25732687,0.6124126,0.3137669,-0.020336233,0.70931226,-0.062387563,-0.021707969,-0.19493696,0.16937602,800.6227,796.1905,799.81683,821.1722,1204.359,-0.0576171875,-0.19757080078125,0.98602294921875,-2.115936279296875,-0.695343017578125,-6.519775390625,1,1.0,1.0,1.0,1.0,10.00
2024-10-11 20:19:59.768,0.38433173,0.77337664,0.2757682,0.44811153,0.21392997,0.67478865,-0.27258033,0.023473602,0.39122227,0.39746043,0.014714357,0.25732687,0.6124126,0.3137669,-0.020336233,0.70931226,-0.062387563,-0.021707969,-0.19493696,0.16937602,798.20514,791.75824,803.44324,811.50183,901.3553,-0.0576171875,-0.19757080078125,0.98602294921875,-2.115936279296875,-0.695343017578125,-6.519775390625,1,1.0,1.0,1.0,1.0,10.00
2024-10-11 20:19:59.769,0.38433173,0.77337664,0.2757682,0.44811153,0.21392997,0.67478865,-0.27258033,0.023473602,0.39122227,0.39746043,0.014714357,0.25732687,0.6124126,0.3137669,-0.020336233,0.70931226,-0.062387563,-0.021707969,-0.19493696,0.16937602,802.6374,793.7729,802.6374,802.23444,628.97437,-0.0576171875,-0.19757080078125,0.98602294921875,-2.115936279296875,-0.695343017578125,-6.519775390625,1,1.0,1.0,1.0,1.0,10.00
2024-10-11 20:19:59.769,0.38433173,0.77337664,0.2757682,0.44811153,0.21392997,0.67478865,-0.27258033,0.023473602,0.39122227,0.39746043,0.014714357,0.25732687,0.6124126,0.3137669,-0.020336233,0.70931226,-0.062387563,-0.021707969,-0.19493696,0.16937602,805.05493,801.8315,805.05493,809.4872,668.86444,-0.0576171875,-0.19757080078125,0.98602294921875,-2.115936279296875,-0.695343017578125,-6.519775390625,1,1.0,1.0,1.0,1.0,10.00
2024-10-11 20:19:59.770,0.38433173,0.77337664,0.2757682,0.44811153,0.21392997,0.67478865,-0.27258033,0.023473602,0.39122227,0.39746043,0.014714357,0.25732687,0.6124126,0.3137669,-0.020336233,0.70931226,-0.062387563,-0.021707969,-0.19493696,0.16937602,811.9048,803.8461,809.89014,822.7839,855.0183,-0.0576171875,-0.19757080078125,0.98602294921875,-2.115936279296875,-0.695343017578125,-6.519775390625,1,1.0,1.0,1.0,1.0,10.00
2024-10-11 20:19:59.771,0.38433173,0.77337664,0.2757682,0.44811153,0.21392997,0.67478865,-0.27258033,0.023473602,0.39122227,0.39746043,0.014714357,0.25732687,0.6124126,0.3137669,-0.020336233,0.70931226,-0.062387563,-0.021707969,-0.19493696,0.16937602,807.8755,804.65204,805.8608,821.1722,747.03296,-0.0576171875,-0.19757080078125,0.98602294921875,-2.115936279296875,-0.695343017578125,-6.519775390625,1,1.0,1.0,1.0,1.0,10.00
2024-10-11 20:19:59.802,0.38433173,0.77337664,0.2757682,0.44811153,0.21392997,0.67478865,-0.27258033,0.023473602,0.39122227,0.39746043,0.014714357,0.25732687,0.6124126,0.3137669,-0.020336233,0.70931226,-0.062387563,-0.021707969,-0.19493696,0.16937602,809.0842,802.6374,804.65204,814.7253,571.75824,-0.0548095703125,-0.202392578125,0.97772216796875,-2.220611572265625,-0.2691650390625,-6.220703125,1,1.0,1.0,1.0,1.0,10.00
2024-10-11 20:19:59.803,0.38433173,0.77337664,0.2757682,0.44811153,0.21392997,0.67478865,-0.27258033,0.023473602,0.39122227,0.39746043,0.014714357,0.25732687,0.6124126,0.3137669,-0.020336233,0.70931226,-0.062387563,-0.021707969,-0.19493696,0.16937602,805.4579,799.81683,798.20514,808.2784,722.0513,-0.0548095703125,-0.202392578125,0.97772216796875,-2.220611572265625,-0.2691650390625,-6.220703125,1,1.0,1.0,1.0,1.0,10.00
2024-10-11 20:19:59.804,0.38433173,0.77337664,0.2757682,0.44811153,0.21392997,0.67478865,-0.27258033,0.023473602,0.39122227,0.39746043,0.014714357,0.25732687,0.6124126,0.3137669,-0.020336233,0.70931226,-0.062387563,-0.021707969,-0.19493696,0.16937602,796.5934,800.6227,799.81683,807.8755,859.85345,-0.0548095703125,-0.202392578125,0.97772216796875,-2.220611572265625,-0.2691650390625,-6.220703125,1,1.0,1.0,1.0,1.0,10.00
2024-10-11 20:19:59.804,0.38433173,0.77337664,0.2757682,0.44811153,0.21392997,0.67478865,-0.27258033,0.023473602,0.39122227,0.39746043,0.014714357,0.25732687,0.6124126,0.3137669,-0.020336233,0.70931226,-0.062387563,-0.021707969,-0.19493696,0.16937602,796.5934,796.5934,803.8461,807.0696,772.01465,-0.0548095703125,-0.202392578125,0.97772216796875,-2.220611572265625,-0.2691650390625,-6.220703125,1,1.0,1.0,1.0,1.0,10.00
2024-10-11 20:19:59.805,0.38433173,0.77337664,0.2757682,0.44811153,0.21392997,0.67478865,-0.27258033,0.023473602,0.39122227,0.39746043,0.014714357,0.25732687,0.6124126,0.3137669,-0.020336233,0.70931226,-0.062387563,-0.021707969,-0.19493696,0.16937602,794.9817,795.38464,796.5934,805.8608,649.92676,-0.0548095703125,-0.202392578125,0.97772216796875,-2.220611572265625,-0.2691650390625,-6.220703125,1,1.0,1.0,1.0,1.0,10.00
2024-10-11 20:19:59.806,0.38433173,0.77337664,0.2757682,0.44811153,0.21392997,0.67478865,-0.27258033,0.023473602,0.39122227,0.39746043,0.014714357,0.25732687,0.6124126,0.3137669,-0.020336233,0.70931226,-0.062387563,-0.021707969,-0.19493696,0.16937602,799.011,799.81683,802.6374,810.293,828.4249,-0.0548095703125,-0.202392578125,0.97772216796875,-2.220611572265625,-0.2691650390625,-6.220703125,1,1.0,1.0,1.0,1.0,10.00
2024-10-11 20:19:59.807,0.38433173,0.77337664,0.2757682,0.44811153,0.21392997,0.67478865,-0.27258033,0.023473602,0.39122227,0.39746043,0.014714357,0.25732687,0.6124126,0.3137669,-0.020336233,0.70931226,-0.062387563,-0.021707969,-0.19493696,0.16937602,805.4579,803.44324,804.2491,810.293,1040.7693,-0.0548095703125,-0.202392578125,0.97772216796875,-2.220611572265625,-0.2691650390625,-6.220703125,1,1.0,1.0,1.0,1.0,10.00
2024-10-11 20:19:59.809,0.38433173,0.81452525,0.38540336,0.44811153,0.21392997,0.69161856,-0.24813306,0.023473602,0.39122227,0.39746043,0.13096239,0.25732687,0.6124126,0.29586795,-0.05425179,0.70931226,-0.062387563,-0.039057214,-0.15037471,0.16937602,808.68134,802.6374,804.2491,809.0842,740.989,-0.0548095703125,-0.202392578125,0.97772216796875,-2.220611572265625,-0.2691650390625,-6.220703125,1,1.0,1.0,1.0,1.0,10.00
2024-10-11 20:19:59.814,0.38433173,0.81452525,0.38540336,0.44811153,0.21392997,0.69161856,-0.24813306,0.023473602,0.39122227,0.39746043,0.13096239,0.25732687,0.6124126,0.29586795,-0.05425179,0.70931226,-0.062387563,-0.039057214,-0.15037471,0.16937602,812.3077,799.81683,803.8461,810.696,601.1722,-0.0548095703125,-0.202392578125,0.97772216796875,-2.220611572265625,-0.2691650390625,-6.220703125,1,1.0,1.0,1.0,1.0,10.00
2024-10-11 20:19:59.815,0.38433173,0.81452525,0.38540336,0.44811153,0.21392997,0.69161856,-0.24813306,0.023473602,0.39122227,0.39746043,0.13096239,0.25732687,0.6124126,0.29586795,-0.05425179,0.70931226,-0.062387563,-0.039057214,-0.15037471,0.16937602,814.7253,790.9524,794.9817,815.12823,771.6117,-0.0548095703125,-0.202392578125,0.97772216796875,-2.220611572265625,-0.2691650390625,-6.220703125,1,1.0,1.0,1.0,1.0,10.00
2024-10-11 20:19:59.816,0.38433173,0.81452525,0.38540336,0.44811153,0.21392997,0.69161856,-0.24813306,0.023473602,0.39122227,0.39746043,0.13096239,0.25732687,0.6124126,0.29586795,-0.05425179,0.70931226,-0.062387563,-0.039057214,-0.15037471,0.16937602,809.0842,795.38464,795.38464,810.293,854.21246,-0.0548095703125,-0.202392578125,0.97772216796875,-2.220611572265625,-0.2691650390625,-6.220703125,1,1.0,1.0,1.0,1.0,10.00
2024-10-11 20:19:59.817,0.38433173,0.81452525,0.38540336,0.44811153,0.21392997,0.69161856,-0.24813306,0.023473602,0.39122227,0.39746043,0.13096239,0.25732687,0.6124126,0.29586795,-0.05425179,0.70931226,-0.062387563,-0.039057214,-0.15037471,0.16937602,796.5934,801.02563,803.8461,805.05493,788.93774,-0.0548095703125,-0.202392578125,0.97772216796875,-2.220611572265625,-0.2691650390625,-6.220703125,1,1.0,1.0,1.0,1.0,10.00
2024-10-11 20:19:59.818,0.38433173,0.81452525,0.38540336,0.44811153,0.21392997,0.69161856,-0.24813306,0.023473602,0.39122227,0.39746043,0.13096239,0.25732687,0.6124126,0.29586795,-0.05425179,0.70931226,-0.062387563,-0.039057214,-0.15037471,0.16937602,797.8022,798.20514,801.02563,805.4579,751.06226,-0.0548095703125,-0.202392578125,0.97772216796875,-2.220611572265625,-0.2691650390625,-6.220703125,1,1.0,1.0,1.0,1.0,10.00
2024-10-11 20:19:59.818,0.38433173,0.81452525,0.38540336,0.44811153,0.21392997,0.69161856,-0.24813306,0.023473602,0.39122227,0.39746043,0.13096239,0.25732687,0.6124126,0.29586795,-0.05425179,0.70931226,-0.062387563,-0.039057214,-0.15037471,0.16937602,805.05493,796.99634,794.17584,808.68134,871.9414,-0.0548095703125,-0.202392578125,0.97772216796875,-2.220611572265625,-0.2691650390625,-6.220703125,1,1.0,1.0,1.0,1.0,10.00
2024-10-11 20:19:59.819,0.38433173,0.81452525,0.38540336,0.44811153,0.21392997,0.69161856,-0.24813306,0.023473602,0.39122227,0.39746043,0.13096239,0.25732687,0.6124126,0.29586795,-0.05425179,0.70931226,-0.062387563,-0.039057214,-0.15037471,0.16937602,801.4286,798.60803,802.6374,807.47253,809.0842,-0.0548095703125,-0.202392578125,0.97772216796875,-2.220611572265625,-0.2691650390625,-6.220703125,1,1.0,1.0,1.0,1.0,10.00
2024-10-11 20:19:59.820,0.38433173,0.81452525,0.38540336,0.44811153,0.21392997,0.69161856,-0.24813306,0.023473602,0.39122227,0.39746043,0.13096239,0.25732687,0.6124126,0.29586795,-0.05425179,0.70931226,-0.062387563,-0.039057214,-0.15037471,0.16937602,799.81683,798.60803,809.89014,804.65204,757.50916,-0.0548095703125,-0.202392578125,0.97772216796875,-2.220611572265625,-0.2691650390625,-6.220703125,1,1.0,1.0,1.0,1.0,10.00
2024-10-11 20:19:59.821,0.38433173,0.81452525,0.38540336,0.44811153,0.21392997,0.69161856,-0.24813306,0.023473602,0.39122227,0.39746043,0.13096239,0.25732687,0.6124126,0.29586795,-0.05425179,0.70931226,-0.062387563,-0.039057214,-0.15037471,0.16937602,801.4286,790.14655,796.1905,799.011,878.3883,-0.0548095703125,-0.202392578125,0.97772216796875,-2.220611572265625,-0.2691650390625,-6.220703125,1,1.0,1.0,1.0,1.0,10.00
2024-10-11 20:19:59.822,0.38433173,0.81452525,0.38540336,0.44811153,0.21392997,0.69161856,-0.24813306,0.023473602,0.39122227,0.39746043,0.13096239,0.25732687,0.6124126,0.29586795,-0.05425179,0.70931226,-0.062387563,-0.039057214,-0.15037471,0.16937602,802.23444,793.7729,794.9817,803.44324,1037.5458,-0.0548095703125,-0.202392578125,0.97772216796875,-2.220611572265625,-0.2691650390625,-6.220703125,1,1.0,1.0,1.0,1.0,10.00
2024-10-11 20:19:59.822,0.38433173,0.81452525,0.38540336,0.44811153,0.21392997,0.69161856,-0.24813306,0.023473602,0.39122227,0.39746043,0.13096239,0.25732687,0.6124126,0.29586795,-0.05425179,0.70931226,-0.062387563,-0.039057214,-0.15037471,0.16937602,811.50183,799.81683,803.0403,812.71063,824.7985,-0.0548095703125,-0.202392578125,0.97772216796875,-2.220611572265625,-0.2691650390625,-6.220703125,1,1.0,1.0,1.0,1.0,10.00
2024-10-11 20:19:59.823,0.38433173,0.81452525,0.38540336,0.44811153,0.21392997,0.69161856,-0.24813306,0.023473602,0.39122227,0.39746043,0.13096239,0.25732687,0.6124126,0.29586795,-0.05425179,0.70931226,-0.062387563,-0.039057214,-0.15037471,0.16937602,796.99634,792.96704,805.8608,799.81683,637.4359,-0.0548095703125,-0.202392578125,0.97772216796875,-2.220611572265625,-0.2691650390625,-6.220703125,1,1.0,1.0,1.0,1.0,10.00
2024-10-11 20:19:59.824,0.38433173,0.81452525,0.38540336,0.44811153,0.21392997,0.69161856,-0.24813306,0.023473602,0.39122227,0.39746043,0.13096239,0.25732687,0.6124126,0.29586795,-0.05425179,0.70931226,-0.062387563,-0.039057214,-0.15037471,0.16937602,785.31134,793.7729,802.23444,798.20514,734.1392,-0.0548095703125,-0.202392578125,0.97772216796875,-2.220611572265625,-0.2691650390625,-6.220703125,1,1.0,1.0,1.0,1.0,10.00
2024-10-11 20:19:59.825,0.38433173,0.81452525,0.38540336,0.44811153,0.21392997,0.69161856,-0.24813306,0.023473602,0.39122227,0.39746043,0.13096239,0.25732687,0.6124126,0.29586795,-0.05425179,0.70931226,-0.062387563,-0.039057214,-0.15037471,0.16937602,787.72894,796.5934,801.8315,799.011,840.9158,-0.0548095703125,-0.202392578125,0.97772216796875,-2.220611572265625,-0.2691650390625,-6.220703125,1,1.0,1.0,1.0,1.0,10.00
2024-10-11 20:19:59.826,0.38433173,0.81452525,0.38540336,0.44811153,0.21392997,0.69161856,-0.24813306,0.023473602,0.39122227,0.39746043,0.13096239,0.25732687,0.6124126,0.29586795,-0.05425179,0.70931226,-0.062387563,-0.039057214,-0.15037471,0.16937602,780.07324,791.3553,804.2491,782.8938,713.5897,-0.0548095703125,-0.202392578125,0.97772216796875,-2.220611572265625,-0.2691650390625,-6.220703125,1,1.0,1.0,1.0,1.0,10.00
2024-10-11 20:19:59.826,0.38433173,0.81452525,0.38540336,0.44811153,0.21392997,0.69161856,-0.24813306,0.023473602,0.39122227,0.39746043,0.13096239,0.25732687,0.6124126,0.29586795,-0.05425179,0.70931226,-0.062387563,-0.039057214,-0.15037471,0.16937602,785.7143,791.3553,801.8315,786.52014,631.39197,-0.0548095703125,-0.202392578125,0.97772216796875,-2.220611572265625,-0.2691650390625,-6.220703125,1,1.0,1.0,1.0,1.0,10.00
2024-10-11 20:19:59.860,0.38433173,0.81452525,0.38540336,0.44811153,0.21392997,0.69161856,-0.24813306,0.023473602,0.39122227,0.39746043,0.13096239,0.25732687,0.6124126,0.29586795,-0.05425179,0.70931226,-0.062387563,-0.039057214,-0.15037471,0.16937602,789.7436,800.6227,800.2198,792.1612,797.8022,-0.056396484375,-0.20892333984375,0.9830322265625,-1.383209228515625,-0.560760498046875,-3.75335693359375,1,1.0,1.0,1.0,1.0,10.00
2024-10-11 20:19:59.861,0.38433173,0.81452525,0.38540336,0.44811153,0.21392997,0.69161856,-0.24813306,0.023473602,0.39122227,0.39746043,0.13096239,0.25732687,0.6124126,0.29586795,-0.05425179,0.70931226,-0.062387563,-0.039057214,-0.15037471,0.16937602,788.5348,800.6227,804.65204,794.57874,841.7216,-0.056396484375,-0.20892333984375,0.9830322265625,-1.383209228515625,-0.560760498046875,-3.75335693359375,1,1.0,1.0,1.0,1.0,10.00
2024-10-11 20:19:59.862,0.38433173,0.81452525,0.38540336,0.44811153,0.21392997,0.69161856,-0.24813306,0.023473602,0.39122227,0.39746043,0.13096239,0.25732687,0.6124126,0.29586795,-0.05425179,0.70931226,-0.062387563,-0.039057214,-0.15037471,0.16937602,788.93774,793.36993,805.8608,798.60803,691.02563,-0.056396484375,-0.20892333984375,0.9830322265625,-1.383209228515625,-0.560760498046875,-3.75335693359375,1,1.0,1.0,1.0,1.0,10.00
2024-10-11 20:19:59.863,0.38433173,0.81452525,0.38540336,0.44811153,0.21392997,0.69161856,-0.24813306,0.023473602,0.39122227,0.39746043,0.13096239,0.25732687,0.6124126,0.29586795,-0.05425179,0.70931226,-0.062387563,-0.039057214,-0.15037471,0.16937602,792.1612,796.5934,802.23444,805.4579,718.4249,-0.056396484375,-0.20892333984375,0.9830322265625,-1.383209228515625,-0.560760498046875,-3.75335693359375,1,1.0,1.0,1.0,1.0,10.00
2024-10-11 20:19:59.864,0.38433173,0.81452525,0.38540336,0.44811153,0.21392997,0.69161856,-0.24813306,0.023473602,0.39122227,0.39746043,0.13096239,0.25732687,0.6124126,0.29586795,-0.05425179,0.70931226,-0.062387563,-0.039057214,-0.15037471,0.16937602,796.5934,801.02563,801.8315,813.91943,882.01465,-0.056396484375,-0.20892333984375,0.9830322265625,-1.383209228515625,-0.560760498046875,-3.75335693359375,1,1.0,1.0,1.0,1.0,10.00
2024-10-11 20:19:59.865,0.38433173,0.81452525,0.38540336,0.44811153,0.21392997,0.69161856,-0.24813306,0.023473602,0.39122227,0.39746043,0.13096239,0.25732687,0.6124126,0.29586795,-0.05425179,0.70931226,-0.062387563,-0.039057214,-0.15037471,0.16937602,798.60803,792.96704,803.0403,818.3516,1236.9963,-0.056396484375,-0.20892333984375,0.9830322265625,-1.383209228515625,-0.560760498046875,-3.75335693359375,1,1.0,1.0,1.0,1.0,10.00
2024-10-11 20:19:59.866,0.38433173,0.81452525,0.38540336,0.44811153,0.21392997,0.69161856,-0.24813306,0.023473602,0.39122227,0.39746043,0.13096239,0.25732687,0.6124126,0.29586795,-0.05425179,0.70931226,-0.062387563,-0.039057214,-0.15037471,0.16937602,800.2198,783.2967,806.6667,825.2015,1475.9341,-0.056396484375,-0.20892333984375,0.9830322265625,-1.383209228515625,-0.560760498046875,-3.75335693359375,1,1.0,1.0,1.0,1.0,10.00
2024-10-11 20:19:59.867,0.38433173,0.81452525,0.38540336,0.44811153,0.21392997,0.69161856,-0.24813306,0.023473602,0.39122227,0.39746043,0.13096239,0.25732687,0.6124126,0.29586795,-0.05425179,0.70931226,-0.062387563,-0.039057214,-0.15037471,0.16937602,799.41394,793.7729,808.2784,821.1722,1348.608,-0.056396484375,-0.20892333984375,0.9830322265625,-1.383209228515625,-0.560760498046875,-3.75335693359375,1,1.0,1.0,1.0,1.0,10.00
2024-10-11 20:19:59.868,0.38433173,0.81452525,0.38540336,0.44811153,0.21392997,0.69161856,-0.24813306,0.023473602,0.39122227,0.39746043,0.13096239,0.25732687,0.6124126,0.29586795,-0.05425179,0.70931226,-0.062387563,-0.039057214,-0.15037471,0.16937602,803.0403,808.2784,808.2784,816.337,1059.7069,-0.056396484375,-0.20892333984375,0.9830322265625,-1.383209228515625,-0.560760498046875,-3.75335693359375,1,1.0,1.0,1.0,1.0,10.00
2024-10-11 20:19:59.869,0.38433173,0.84609115,0.42685428,0.44811153,0.21392997,0.70026666,-0.20712356,0.023473602,0.39122227,0.39746043,0.17337134,0.25732687,0.6124126,0.27835634,-0.08320869,0.70931226,-0.062387563,-0.06267855,-0.10377526,0.16937602,807.0696,813.1135,806.6667,813.1135,827.2161,-0.056396484375,-0.20892333984375,0.9830322265625,-1.383209228515625,-0.560760498046875,-3.75335693359375,1,1.0,1.0,1.0,1.0,10.00
2024-10-11 20:19:59.875,0.38433173,0.84609115,0.42685428,0.44811153,0.21392997,0.70026666,-0.20712356,0.023473602,0.39122227,0.39746043,0.17337134,0.25732687,0.6124126,0.27835634,-0.08320869,0.70931226,-0.062387563,-0.06267855,-0.10377526,0.16937602,804.2491,810.293,803.0403,799.81683,691.02563,-0.056396484375,-0.20892333984375,0.9830322265625,-1.383209228515625,-0.560760498046875,-3.75335693359375,1,1.0,1.0,1.0,1.0,10.00
2024-10-11 20:19:59.876,0.38433173,0.84609115,0.42685428,0.44811153,0.21392997,0.70026666,-0.20712356,0.023473602,0.39122227,0.39746043,0.17337134,0.25732687,0.6124126,0.27835634,-0.08320869,0.70931226,-0.062387563,-0.06267855,-0.10377526,0.16937602,806.6667,799.011,803.8461,799.41394,693.44324,-0.056396484375,-0.20892333984375,0.9830322265625,-1.383209228515625,-0.560760498046875,-3.75335693359375,1,1.0,1.0,1.0,1.0,10.00
2024-10-11 20:19:59.878,0.38433173,0.84609115,0.42685428,0.44811153,0.21392997,0.70026666,-0.20712356,0.023473602,0.39122227,0.39746043,0.17337134,0.25732687,0.6124126,0.27835634,-0.08320869,0.70931226,-0.062387563,-0.06267855,-0.10377526,0.16937602,805.8608,796.1905,805.05493,813.5165,1050.4396,-0.0540771484375,-0.20367431640625,0.98773193359375,0.157012939453125,-1.1065673828125,-1.2261962890625,1,1.0,1.0,1.0,1.0,10.00
2024-10-11 20:19:59.879,0.38433173,0.84609115,0.42685428,0.44811153,0.21392997,0.70026666,-0.20712356,0.023473602,0.39122227,0.39746043,0.17337134,0.25732687,0.6124126,0.27835634,-0.08320869,0.70931226,-0.062387563,-0.06267855,-0.10377526,0.16937602,802.23444,796.99634,805.4579,819.9634,1369.5604,-0.0540771484375,-0.20367431640625,0.98773193359375,0.157012939453125,-1.1065673828125,-1.2261962890625,1,1.0,1.0,1.0,1.0,10.00
2024-10-11 20:19:59.879,0.38433173,0.84609115,0.42685428,0.44811153,0.21392997,0.70026666,-0.20712356,0.023473602,0.39122227,0.39746043,0.17337134,0.25732687,0.6124126,0.27835634,-0.08320869,0.70931226,-0.062387563,-0.06267855,-0.10377526,0.16937602,798.60803,803.44324,807.47253,817.5458,1243.4432,-0.0540771484375,-0.20367431640625,0.98773193359375,0.157012939453125,-1.1065673828125,-1.2261962890625,1,1.0,1.0,1.0,1.0,10.00
2024-10-11 20:19:59.880,0.38433173,0.84609115,0.42685428,0.44811153,0.21392997,0.70026666,-0.20712356,0.023473602,0.39122227,0.39746043,0.17337134,0.25732687,0.6124126,0.27835634,-0.08320869,0.70931226,-0.062387563,-0.06267855,-0.10377526,0.16937602,802.23444,806.6667,803.8461,807.47253,801.02563,-0.0540771484375,-0.20367431640625,0.98773193359375,0.157012939453125,-1.1065673828125,-1.2261962890625,1,1.0,1.0,1.0,1.0,10.00
2024-10-11 20:19:59.881,0.38433173,0.84609115,0.42685428,0.44811153,0.21392997,0.70026666,-0.20712356,0.023473602,0.39122227,0.39746043,0.17337134,0.25732687,0.6124126,0.27835634,-0.08320869,0.70931226,-0.062387563,-0.06267855,-0.10377526,0.16937602,807.0696,799.81683,803.0403,803.0403,619.707,-0.0540771484375,-0.20367431640625,0.98773193359375,0.157012939453125,-1.1065673828125,-1.2261962890625,1,1.0,1.0,1.0,1.0,10.00
2024-10-11 20:19:59.886,0.38433173,0.84609115,0.42685428,0.44811153,0.21392997,0.70026666,-0.20712356,0.023473602,0.39122227,0.39746043,0.17337134,0.25732687,0.6124126,0.27835634,-0.08320869,0.70931226,-0.062387563,-0.06267855,-0.10377526,0.16937602,808.2784,792.5641,801.8315,807.0696,774.0293,-0.0540771484375,-0.20367431640625,0.98773193359375,0.157012939453125,-1.1065673828125,-1.2261962890625,1,1.0,1.0,1.0,1.0,10.00
2024-10-11 20:19:59.887,0.38433173,0.84609115,0.42685428,0.44811153,0.21392997,0.70026666,-0.20712356,0.023473602,0.39122227,0.39746043,0.17337134,0.25732687,0.6124126,0.27835634,-0.08320869,0.70931226,-0.062387563,-0.06267855,-0.10377526,0.16937602,810.696,792.1612,794.9817,803.8461,767.5824,-0.0540771484375,-0.20367431640625,0.98773193359375,0.157012939453125,-1.1065673828125,-1.2261962890625,1,1.0,1.0,1.0,1.0,10.00
2024-10-11 20:19:59.888,0.38433173,0.84609115,0.42685428,0.44811153,0.21392997,0.70026666,-0.20712356,0.023473602,0.39122227,0.39746043,0.17337134,0.25732687,0.6124126,0.27835634,-0.08320869,0.70931226,-0.062387563,-0.06267855,-0.10377526,0.16937602,807.47253,798.20514,801.4286,799.011,606.0073,-0.0540771484375,-0.20367431640625,0.98773193359375,0.157012939453125,-1.1065673828125,-1.2261962890625,1,1.0,1.0,1.0,1.0,10.00
2024-10-11 20:19:59.888,0.38433173,0.84609115,0.42685428,0.44811153,0.21392997,0.70026666,-0.20712356,0.023473602,0.39122227,0.39746043,0.17337134,0.25732687,0.6124126,0.27835634,-0.08320869,0.70931226,-0.062387563,-0.06267855,-0.10377526,0.16937602,804.65204,804.2491,807.8755,802.6374,667.25275,-0.0540771484375,-0.20367431640625,0.98773193359375,0.157012939453125,-1.1065673828125,-1.2261962890625,1,1.0,1.0,1.0,1.0,10.00
2024-10-11 20:19:59.889,0.38433173,0.84609115,0.42685428,0.44811153,0.21392997,0.70026666,-0.20712356,0.023473602,0.39122227,0.39746043,0.17337134,0.25732687,0.6124126,0.27835634,-0.08320869,0.70931226,-0.062387563,-0.06267855,-0.10377526,0.16937602,800.6227,805.05493,801.02563,809.0842,767.5824,-0.0540771484375,-0.20367431640625,0.98773193359375,0.157012939453125,-1.1065673828125,-1.2261962890625,1,1.0,1.0,1.0,1.0,10.00
2024-10-11 20:19:59.890,0.38433173,0.84609115,0.42685428,0.44811153,0.21392997,0.70026666,-0.20712356,0.023473602,0.39122227,0.39746043,0.17337134,0.25732687,0.6124126,0.27835634,-0.08320869,0.70931226,-0.062387563,-0.06267855,-0.10377526,0.16937602,800.6227,803.0403,805.05493,810.696,627.76556,-0.0540771484375,-0.20367431640625,0.98773193359375,0.157012939453125,-1.1065673828125,-1.2261962890625,1,1.0,1.0,1.0,1.0,10.00
2024-10-11 20:19:59.890,0.38433173,0.84609115,0.42685428,0.44811153,0.21392997,0.70026666,-0.20712356,0.023473602,0.39122227,0.39746043,0.17337134,0.25732687,0.6124126,0.27835634,-0.08320869,0.70931226,-0.062387563,-0.06267855,-0.10377526,0.16937602,807.8755,801.4286,800.2198,813.5165,601.1722,-0.0540771484375,-0.20367431640625,0.98773193359375,0.157012939453125,-1.1065673828125,-1.2261962890625,1,1.0,1.0,1.0,1.0,10.00
2024-10-11 20:19:59.920,0.38433173,0.84609115,0.42685428,0.44811153,0.21392997,0.70026666,-0.20712356,0.023473602,0.39122227,0.39746043,0.17337134,0.25732687,0.6124126,0.27835634,-0.08320869,0.70931226,-0.062387563,-0.06267855,-0.10377526,0.16937602,807.8755,795.38464,796.1905,814.3223,737.3626,-0.05401611328125,-0.2049560546875,0.987060546875,1.54022216796875,-2.03369140625,1.143951416015625,1,1.0,1.0,1.0,1.0,10.00
2024-10-11 20:19:59.921,0.38433173,0.84609115,0.42685428,0.44811153,0.21392997,0.70026666,-0.20712356,0.023473602,0.39122227,0.39746043,0.17337134,0.25732687,0.6124126,0.27835634,-0.08320869,0.70931226,-0.062387563,-0.06267855,-0.10377526,0.16937602,804.2491,795.38464,805.4579,810.293,743.4066,-0.05401611328125,-0.2049560546875,0.987060546875,1.54022216796875,-2.03369140625,1.143951416015625,1,1.0,1.0,1.0,1.0,10.00
2024-10-11 20:19:59.922,0.38433173,0.84609115,0.42685428,0.44811153,0.21392997,0.70026666,-0.20712356,0.023473602,0.39122227,0.39746043,0.17337134,0.25732687,0.6124126,0.27835634,-0.08320869,0.70931226,-0.062387563,-0.06267855,-0.10377526,0.16937602,801.02563,799.41394,797.8022,807.8755,657.1795,-0.05401611328125,-0.2049560546875,0.987060546875,1.54022216796875,-2.03369140625,1.143951416015625,1,1.0,1.0,1.0,1.0,10.00
2024-10-11 20:19:59.923,0.38433173,0.84609115,0.42685428,0.44811153,0.21392997,0.70026666,-0.20712356,0.023473602,0.39122227,0.39746043,0.17337134,0.25732687,0.6124126,0.27835634,-0.08320869,0.70931226,-0.062387563,-0.06267855,-0.10377526,0.16937602,796.99634,796.1905,789.7436,808.2784,757.1062,-0.05401611328125,-0.2049560546875,0.987060546875,1.54022216796875,-2.03369140625,1.143951416015625,1,1.0,1.0,1.0,1.0,10.00
2024-10-11 20:19:59.924,0.38433173,0.84609115,0.42685428,0.44811153,0.21392997,0.70026666,-0.20712356,0.023473602,0.39122227,0.39746043,0.17337134,0.25732687,0.6124126,0.27835634,-0.08320869,0.70931226,-0.062387563,-0.06267855,-0.10377526,0.16937602,790.9524,803.8461,795.78754,807.8755,1000.4762,-0.05401611328125,-0.2049560546875,0.987060546875,1.54022216796875,-2.03369140625,1.143951416015625,1,1.0,1.0,1.0,1.0,10.00
