TimeStamp,Delta_TP9,Delta_AF7,Delta_AF8,Delta_TP10,Theta_TP9,Theta_AF7,Theta_AF8,Theta_TP10,Alpha_TP9,Alpha_AF7,Alpha_AF8,Alpha_TP10,Beta_TP9,Beta_AF7,Beta_AF8,Beta_TP10,Gamma_TP9,Gamma_AF7,Gamma_AF8,Gamma_TP10,RAW_TP9,RAW_AF7,RAW_AF8,RAW_TP10,AUX_RIGHT,Accelerometer_X,Accelerometer_Y,Accelerometer_Z,Gyro_X,Gyro_Y,Gyro_Z,HeadBandOn,HSI_TP9,HSI_AF7,HSI_AF8,HSI_TP10,Battery,Elements
2024-10-11 20:21:49.686,1.5715742,0.74941254,1.0756857,0.5539524,1.0243735,0.3198716,0.68566984,0.38794512,0.6387164,0.35852924,0.27730793,0.036071938,0.7155285,0.16388416,0.10819392,0.4736415,0.28160375,-0.022459574,-0.17111975,0.3680457,796.1905,792.1612,806.6667,810.293,925.9341,-0.22430419921875,0.11492919921875,0.9727783203125,0.366363525390625,-0.022430419921875,0.28411865234375,1,1.0,1.0,1.0,1.0,10.00
2024-10-11 20:21:49.687,1.5715742,0.74941254,1.0756857,0.5539524,1.0243735,0.3198716,0.68566984,0.38794512,0.6387164,0.35852924,0.27730793,0.036071938,0.7155285,0.16388416,0.10819392,0.4736415,0.28160375,-0.022459574,-0.17111975,0.3680457,800.6227,794.9817,797.3993,809.0842,614.4689,-0.22430419921875,0.11492919921875,0.9727783203125,0.366363525390625,-0.022430419921875,0.28411865234375,1,1.0,1.0,1.0,1.0,10.00
2024-10-11 20:21:49.688,1.5715742,0.74941254,1.0756857,0.5539524,1.0243735,0.3198716,0.68566984,0.38794512,0.6387164,0.35852924,0.27730793,0.036071938,0.7155285,0.16388416,0.10819392,0.4736415,0.28160375,-0.022459574,-0.17111975,0.3680457,796.1905,803.44324,792.1612,806.26373,688.60803,-0.22430419921875,0.11492919921875,0.9727783203125,0.366363525390625,-0.022430419921875,0.28411865234375,1,1.0,1.0,1.0,1.0,10.00
2024-10-11 20:21:49.688,1.5715742,0.74941254,1.0756857,0.5539524,1.0243735,0.3198716,0.68566984,0.38794512,0.6387164,0.35852924,0.27730793,0.036071938,0.7155285,0.16388416,0.10819392,0.4736415,0.28160375,-0.022459574,-0.17111975,0.3680457,796.1905,795.38464,799.81683,811.50183,990.80585,-0.22430419921875,0.11492919921875,0.9727783203125,0.366363525390625,-0.022430419921875,0.28411865234375,1,1.0,1.0,1.0,1.0,10.00
2024-10-11 20:21:49.689,1.5715742,0.74941254,1.0756857,0.5539524,1.0243735,0.3198716,0.68566984,0.38794512,0.6387164,0.35852924,0.27730793,0.036071938,0.7155285,0.16388416,0.10819392,0.4736415,0.28160375,-0.022459574,-0.17111975,0.3680457,798.60803,792.96704,796.99634,813.1135,894.10254,-0.22430419921875,0.11492919921875,0.9727783203125,0.366363525390625,-0.022430419921875,0.28411865234375,1,1.0,1.0,1.0,1.0,10.00
2024-10-11 20:21:49.689,1.5715742,0.74941254,1.0756857,0.5539524,1.0243735,0.3198716,0.68566984,0.38794512,0.6387164,0.35852924,0.27730793,0.036071938,0.7155285,0.16388416,0.10819392,0.4736415,0.28160375,-0.022459574,-0.17111975,0.3680457,798.60803,799.81683,792.1612,804.2491,605.2015,-0.22430419921875,0.11492919921875,0.9727783203125,0.366363525390625,-0.022430419921875,0.28411865234375,1,1.0,1.0,1.0,1.0,10.00
2024-10-11 20:21:49.690,1.5715742,0.74941254,1.0756857,0.5539524,1.0243735,0.3198716,0.68566984,0.38794512,0.6387164,0.35852924,0.27730793,0.036071938,0.7155285,0.16388416,0.10819392,0.4736415,0.28160375,-0.022459574,-0.17111975,0.3680457,803.44324,798.60803,794.17584,803.44324,858.24176,-0.22430419921875,0.11492919921875,0.9727783203125,0.366363525390625,-0.022430419921875,0.28411865234375,1,1.0,1.0,1.0,1.0,10.00
2024-10-11 20:21:49.690,1.5715742,0.74941254,1.0756857,0.5539524,1.0243735,0.3198716,0.68566984,0.38794512,0.6387164,0.35852924,0.27730793,0.036071938,0.7155285,0.16388416,0.10819392,0.4736415,0.28160375,-0.022459574,-0.17111975,0.3680457,804.65204,799.41394,804.2491,804.2491,1010.9524,-0.22430419921875,0.11492919921875,0.9727783203125,0.366363525390625,-0.022430419921875,0.28411865234375,1,1.0,1.0,1.0,1.0,10.00
2024-10-11 20:21:49.691,1.5715742,0.74941254,1.0756857,0.5539524,1.0243735,0.3198716,0.68566984,0.38794512,0.6387164,0.35852924,0.27730793,0.036071938,0.7155285,0.16388416,0.10819392,0.4736415,0.28160375,-0.022459574,-0.17111975,0.3680457,797.8022,792.5641,802.6374,804.65204,827.2161,-0.22430419921875,0.11492919921875,0.9727783203125,0.366363525390625,-0.022430419921875,0.28411865234375,1,1.0,1.0,1.0,1.0,10.00
2024-10-11 20:21:49.691,1.5715742,0.74941254,1.0756857,0.5539524,1.0243735,0.3198716,0.68566984,0.38794512,0.6387164,0.35852924,0.27730793,0.036071938,0.7155285,0.16388416,0.10819392,0.4736415,0.28160375,-0.022459574,-0.17111975,0.3680457,805.4579,791.3553,798.60803,806.26373,725.2747,-0.22430419921875,0.11492919921875,0.9727783203125,0.366363525390625,-0.022430419921875,0.28411865234375,1,1.0,1.0,1.0,1.0,10.00
2024-10-11 20:21:49.692,1.5715742,0.74941254,1.0756857,0.5539524,1.0243735,0.3198716,0.68566984,0.38794512,0.6387164,0.35852924,0.27730793,0.036071938,0.7155285,0.16388416,0.10819392,0.4736415,0.28160375,-0.022459574,-0.17111975,0.3680457,809.4872,794.57874,801.4286,803.0403,819.9634,-0.22430419921875,0.11492919921875,0.9727783203125,0.366363525390625,-0.022430419921875,0.28411865234375,1,1.0,1.0,1.0,1.0,10.00
2024-10-11 20:21:49.693,1.5715742,0.74941254,1.0756857,0.5539524,1.0243735,0.3198716,0.68566984,0.38794512,0.6387164,0.35852924,0.27730793,0.036071938,0.7155285,0.16388416,0.10819392,0.4736415,0.28160375,-0.022459574,-0.17111975,0.3680457,799.011,795.78754,794.9817,805.05493,1037.5458,-0.22430419921875,0.11492919921875,0.9727783203125,0.366363525390625,-0.022430419921875,0.28411865234375,1,1.0,1.0,1.0,1.0,10.00
2024-10-11 20:21:49.721,1.5715742,0.74941254,1.0756857,0.5539524,1.0243735,0.3198716,0.68566984,0.38794512,0.6387164,0.35852924,0.27730793,0.036071938,0.7155285,0.16388416,0.10819392,0.4736415,0.28160375,-0.022459574,-0.17111975,0.3680457,796.5934,799.41394,789.34064,801.4286,882.4176,-0.22430419921875,0.11492919921875,0.9727783203125,0.366363525390625,-0.022430419921875,0.28411865234375,1,1.0,1.0,1.0,1.0,10.00
2024-10-11 20:21:49.721,1.5715742,0.74941254,1.0756857,0.5539524,1.0243735,0.3198716,0.68566984,0.38794512,0.6387164,0.35852924,0.27730793,0.036071938,0.7155285,0.16388416,0.10819392,0.4736415,0.28160375,-0.022459574,-0.17111975,0.3680457,801.8315,796.1905,803.0403,796.5934,631.39197,-0.22430419921875,0.11492919921875,0.9727783203125,0.366363525390625,-0.022430419921875,0.28411865234375,1,1.0,1.0,1.0,1.0,10.00
2024-10-11 20:21:49.722,1.5715742,0.74941254,1.0756857,0.5539524,1.0243735,0.3198716,0.68566984,0.38794512,0.6387164,0.35852924,0.27730793,0.036071938,0.7155285,0.16388416,0.10819392,0.4736415,0.28160375,-0.022459574,-0.17111975,0.3680457,810.696,795.38464,812.71063,807.47253,775.64105,-0.22430419921875,0.11492919921875,0.9727783203125,0.366363525390625,-0.022430419921875,0.28411865234375,1,1.0,1.0,1.0,1.0,10.00
2024-10-11 20:21:49.723,1.5715742,0.74941254,1.0756857,0.5539524,1.0243735,0.3198716,0.68566984,0.38794512,0.6387164,0.35852924,0.27730793,0.036071938,0.7155285,0.16388416,0.10819392,0.4736415,0.28160375,-0.022459574,-0.17111975,0.3680457,810.696,798.60803,807.0696,813.1135,1021.4286,-0.22430419921875,0.11492919921875,0.9727783203125,0.366363525390625,-0.022430419921875,0.28411865234375,1,1.0,1.0,1.0,1.0,10.00
2024-10-11 20:21:49.723,1.5715742,0.74941254,1.0756857,0.5539524,1.0243735,0.3198716,0.68566984,0.38794512,0.6387164,0.35852924,0.27730793,0.036071938,0.7155285,0.16388416,0.10819392,0.4736415,0.28160375,-0.022459574,-0.17111975,0.3680457,799.41394,796.5934,799.41394,804.2491,911.8315,-0.22430419921875,0.11492919921875,0.9727783203125,0.366363525390625,-0.022430419921875,0.28411865234375,1,1.0,1.0,1.0,1.0,10.00
2024-10-11 20:21:49.724,1.5715742,0.74941254,1.0756857,0.5539524,1.0243735,0.3198716,0.68566984,0.38794512,0.6387164,0.35852924,0.27730793,0.036071938,0.7155285,0.16388416,0.10819392,0.4736415,0.28160375,-0.022459574,-0.17111975,0.3680457,799.41394,790.14655,790.14655,799.41394,830.84247,-0.22430419921875,0.11492919921875,0.9727783203125,0.366363525390625,-0.022430419921875,0.28411865234375,1,1.0,1.0,1.0,1.0,10.00
2024-10-11 20:21:49.725,1.5715742,0.74941254,1.0756857,0.5539524,1.0243735,0.3198716,0.68566984,0.38794512,0.6387164,0.35852924,0.27730793,0.036071938,0.7155285,0.16388416,0.10819392,0.4736415,0.28160375,-0.022459574,-0.17111975,0.3680457,806.6667,789.7436,792.1612,800.6227,1068.5714,-0.22430419921875,0.11492919921875,0.9727783203125,0.366363525390625,-0.022430419921875,0.28411865234375,1,1.0,1.0,1.0,1.0,10.00
2024-10-11 20:21:49.726,1.5715742,0.69108886,1.0756857,0.5539524,1.0243735,0.27564734,0.68566984,0.38794512,0.6387164,0.3101264,0.27730793,0.036071938,0.7155285,0.15706003,0.10819392,0.4736415,0.28160375,-0.0030063444,-0.17111975,0.3680457,805.4579,801.02563,797.8022,806.26373,1106.4469,-0.22430419921875,0.11492919921875,0.9727783203125,0.366363525390625,-0.022430419921875,0.28411865234375,1,1.0,1.0,1.0,1.0,10.00
2024-10-11 20:21:49.730,1.5715742,0.69108886,1.0756857,0.5539524,1.0243735,0.27564734,0.68566984,0.38794512,0.6387164,0.3101264,0.27730793,0.036071938,0.7155285,0.15706003,0.10819392,0.4736415,0.28160375,-0.0030063444,-0.17111975,0.3680457,804.65204,809.89014,799.011,801.8315,840.9158,-0.22430419921875,0.11492919921875,0.9727783203125,0.366363525390625,-0.022430419921875,0.28411865234375,1,1.0,1.0,1.0,1.0,10.00
2024-10-11 20:21:49.731,1.5715742,0.69108886,1.0756857,0.5539524,1.0243735,0.27564734,0.68566984,0.38794512,0.6387164,0.3101264,0.27730793,0.036071938,0.7155285,0.15706003,0.10819392,0.4736415,0.28160375,-0.0030063444,-0.17111975,0.3680457,798.60803,804.65204,800.2198,794.17584,687.8022,-0.22430419921875,0.11492919921875,0.9727783203125,0.366363525390625,-0.022430419921875,0.28411865234375,1,1.0,1.0,1.0,1.0,10.00
2024-10-11 20:21:49.731,1.5715742,0.69108886,1.0756857,0.5539524,1.0243735,0.27564734,0.68566984,0.38794512,0.6387164,0.3101264,0.27730793,0.036071938,0.7155285,0.15706003,0.10819392,0.4736415,0.28160375,-0.0030063444,-0.17111975,0.3680457,790.9524,801.02563,796.1905,798.60803,830.84247,-0.22430419921875,0.11492919921875,0.9727783203125,0.366363525390625,-0.022430419921875,0.28411865234375,1,1.0,1.0,1.0,1.0,10.00
2024-10-11 20:21:49.732,1.5715742,0.69108886,1.0756857,0.5539524,1.0243735,0.27564734,0.68566984,0.38794512,0.6387164,0.3101264,0.27730793,0.036071938,0.7155285,0.15706003,0.10819392,0.4736415,0.28160375,-0.0030063444,-0.17111975,0.3680457,800.2198,797.8022,796.1905,801.8315,967.8388,-0.22430419921875,0.11492919921875,0.9727783203125,0.366363525390625,-0.022430419921875,0.28411865234375,1,1.0,1.0,1.0,1.0,10.00
2024-10-11 20:21:49.733,1.5715742,0.69108886,1.0756857,0.5539524,1.0243735,0.27564734,0.68566984,0.38794512,0.6387164,0.3101264,0.27730793,0.036071938,0.7155285,0.15706003,0.10819392,0.4736415,0.28160375,-0.0030063444,-0.17111975,0.3680457,804.65204,796.99634,797.8022,799.81683,801.4286,-0.2191162109375,0.12152099609375,0.9833984375,-0.022430419921875,-0.37384033203125,0.35888671875,1,1.0,1.0,1.0,1.0,10.00
2024-10-11 20:21:49.733,1.5715742,0.69108886,1.0756857,0.5539524,1.0243735,0.27564734,0.68566984,0.38794512,0.6387164,0.3101264,0.27730793,0.036071938,0.7155285,0.15706003,0.10819392,0.4736415,0.28160375,-0.0030063444,-0.17111975,0.3680457,803.0403,805.05493,795.78754,796.5934,651.53845,-0.2191162109375,0.12152099609375,0.9833984375,-0.022430419921875,-0.37384033203125,0.35888671875,1,1.0,1.0,1.0,1.0,10.00
2024-10-11 20:21:49.734,1.5715742,0.69108886,1.0756857,0.5539524,1.0243735,0.27564734,0.68566984,0.38794512,0.6387164,0.3101264,0.27730793,0.036071938,0.7155285,0.15706003,0.10819392,0.4736415,0.28160375,-0.0030063444,-0.17111975,0.3680457,801.8315,801.4286,798.60803,794.9817,819.15753,-0.2191162109375,0.12152099609375,0.9833984375,-0.022430419921875,-0.37384033203125,0.35888671875,1,1.0,1.0,1.0,1.0,10.00
2024-10-11 20:21:49.734,1.5715742,0.69108886,1.0756857,0.5539524,1.0243735,0.27564734,0.68566984,0.38794512,0.6387164,0.3101264,0.27730793,0.036071938,0.7155285,0.15706003,0.10819392,0.4736415,0.28160375,-0.0030063444,-0.17111975,0.3680457,803.8461,798.20514,800.2198,803.44324,946.8865,-0.2191162109375,0.12152099609375,0.9833984375,-0.022430419921875,-0.37384033203125,0.35888671875,1,1.0,1.0,1.0,1.0,10.00
2024-10-11 20:21:49.735,1.5715742,0.69108886,1.0756857,0.5539524,1.0243735,0.27564734,0.68566984,0.38794512,0.6387164,0.3101264,0.27730793,0.036071938,0.7155285,0.15706003,0.10819392,0.4736415,0.28160375,-0.0030063444,-0.17111975,0.3680457,809.0842,801.02563,797.8022,809.89014,786.9231,-0.2191162109375,0.12152099609375,0.9833984375,-0.022430419921875,-0.37384033203125,0.35888671875,1,1.0,1.0,1.0,1.0,10.00
2024-10-11 20:21:49.735,1.5715742,0.69108886,1.0756857,0.5539524,1.0243735,0.27564734,0.68566984,0.38794512,0.6387164,0.3101264,0.27730793,0.036071938,0.7155285,0.15706003,0.10819392,0.4736415,0.28160375,-0.0030063444,-0.17111975,0.3680457,810.696,799.81683,796.99634,807.8755,828.022,-0.2191162109375,0.12152099609375,0.9833984375,-0.022430419921875,-0.37384033203125,0.35888671875,1,1.0,1.0,1.0,1.0,10.00
2024-10-11 20:21:49.735,1.5715742,0.69108886,1.0756857,0.5539524,1.0243735,0.27564734,0.68566984,0.38794512,0.6387164,0.3101264,0.27730793,0.036071938,0.7155285,0.15706003,0.10819392,0.4736415,0.28160375,-0.0030063444,-0.17111975,0.3680457,808.2784,800.6227,799.81683,807.0696,782.8938,-0.2191162109375,0.12152099609375,0.9833984375,-0.022430419921875,-0.37384033203125,0.35888671875,1,1.0,1.0,1.0,1.0,10.00
2024-10-11 20:21:49.736,1.5715742,0.69108886,1.0756857,0.5539524,1.0243735,0.27564734,0.68566984,0.38794512,0.6387164,0.3101264,0.27730793,0.036071938,0.7155285,0.15706003,0.10819392,0.4736415,0.28160375,-0.0030063444,-0.17111975,0.3680457,801.8315,795.38464,803.0403,807.47253,770.40295,-0.2191162109375,0.12152099609375,0.9833984375,-0.022430419921875,-0.37384033203125,0.35888671875,1,1.0,1.0,1.0,1.0,10.00
2024-10-11 20:21:49.737,1.5715742,0.69108886,1.0756857,0.5539524,1.0243735,0.27564734,0.68566984,0.38794512,0.6387164,0.3101264,0.27730793,0.036071938,0.7155285,0.15706003,0.10819392,0.4736415,0.28160375,-0.0030063444,-0.17111975,0.3680457,798.20514,789.34064,799.011,809.0842,784.90845,-0.2191162109375,0.12152099609375,0.9833984375,-0.022430419921875,-0.37384033203125,0.35888671875,1,1.0,1.0,1.0,1.0,10.00
2024-10-11 20:21:49.737,1.5715742,0.69108886,1.0756857,0.5539524,1.0243735,0.27564734,0.68566984,0.38794512,0.6387164,0.3101264,0.27730793,0.036071938,0.7155285,0.15706003,0.10819392,0.4736415,0.28160375,-0.0030063444,-0.17111975,0.3680457,801.4286,798.20514,797.8022,811.9048,694.2491,-0.2191162109375,0.12152099609375,0.9833984375,-0.022430419921875,-0.37384033203125,0.35888671875,1,1.0,1.0,1.0,1.0,10.00
2024-10-11 20:21:49.738,1.5715742,0.69108886,1.0756857,0.5539524,1.0243735,0.27564734,0.68566984,0.38794512,0.6387164,0.3101264,0.27730793,0.036071938,0.7155285,0.15706003,0.10819392,0.4736415,0.28160375,-0.0030063444,-0.17111975,0.3680457,809.89014,805.4579,801.02563,815.5311,727.28937,-0.2191162109375,0.12152099609375,0.9833984375,-0.022430419921875,-0.37384033203125,0.35888671875,1,1.0,1.0,1.0,1.0,10.00
2024-10-11 20:21:49.738,1.5715742,0.69108886,1.0756857,0.5539524,1.0243735,0.27564734,0.68566984,0.38794512,0.6387164,0.3101264,0.27730793,0.036071938,0.7155285,0.15706003,0.10819392,0.4736415,0.28160375,-0.0030063444,-0.17111975,0.3680457,813.1135,798.20514,803.0403,818.7546,724.87177,-0.2191162109375,0.12152099609375,0.9833984375,-0.022430419921875,-0.37384033203125,0.35888671875,1,1.0,1.0,1.0,1.0,10.00
2024-10-11 20:21:49.739,1.5715742,0.69108886,1.0756857,0.5539524,1.0243735,0.27564734,0.68566984,0.38794512,0.6387164,0.3101264,0.27730793,0.036071938,0.7155285,0.15706003,0.10819392,0.4736415,0.28160375,-0.0030063444,-0.17111975,0.3680457,812.71063,797.8022,806.26373,814.7253,660.0,-0.22088623046875,0.11566162109375,0.974365234375,-0.91217041015625,-0.94207763671875,0.59814453125,1,1.0,1.0,1.0,1.0,10.00
2024-10-11 20:21:49.740,1.5715742,0.69108886,1.0756857,0.5539524,1.0243735,0.27564734,0.68566984,0.38794512,0.6387164,0.3101264,0.27730793,0.036071938,0.7155285,0.15706003,0.10819392,0.4736415,0.28160375,-0.0030063444,-0.17111975,0.3680457,806.26373,790.9524,805.4579,809.0842,684.17584,-0.22088623046875,0.11566162109375,0.974365234375,-0.91217041015625,-0.94207763671875,0.59814453125,1,1.0,1.0,1.0,1.0,10.00
2024-10-11 20:21:49.741,1.5715742,0.69108886,1.0756857,0.5539524,1.0243735,0.27564734,0.68566984,0.38794512,0.6387164,0.3101264,0.27730793,0.036071938,0.7155285,0.15706003,0.10819392,0.4736415,0.28160375,-0.0030063444,-0.17111975,0.3680457,806.6667,787.72894,810.696,813.5165,760.32965,-0.22088623046875,0.11566162109375,0.974365234375,-0.91217041015625,-0.94207763671875,0.59814453125,1,1.0,1.0,1.0,1.0,10.00
2024-10-11 20:21:49.742,1.5715742,0.69108886,1.0756857,0.5539524,1.0243735,0.27564734,0.68566984,0.38794512,0.6387164,0.3101264,0.27730793,0.036071938,0.7155285,0.15706003,0.10819392,0.4736415,0.28160375,-0.0030063444,-0.17111975,0.3680457,808.2784,798.60803,813.1135,812.71063,752.27106,-0.22088623046875,0.11566162109375,0.974365234375,-0.91217041015625,-0.94207763671875,0.59814453125,1,1.0,1.0,1.0,1.0,10.00
2024-10-11 20:21:49.742,1.5715742,0.69108886,1.0756857,0.5539524,1.0243735,0.27564734,0.68566984,0.38794512,0.6387164,0.3101264,0.27730793,0.036071938,0.7155285,0.15706003,0.10819392,0.4736415,0.28160375,-0.0030063444,-0.17111975,0.3680457,801.02563,795.78754,804.2491,807.47253,706.337,-0.22088623046875,0.11566162109375,0.974365234375,-0.91217041015625,-0.94207763671875,0.59814453125,1,1.0,1.0,1.0,1.0,10.00
2024-10-11 20:21:49.743,1.5715742,0.69108886,1.0756857,0.5539524,1.0243735,0.27564734,0.68566984,0.38794512,0.6387164,0.3101264,0.27730793,0.036071938,0.7155285,0.15706003,0.10819392,0.4736415,0.28160375,-0.0030063444,-0.17111975,0.3680457,806.26373,791.75824,796.1905,805.8608,910.6227,-0.22088623046875,0.11566162109375,0.974365234375,-0.91217041015625,-0.94207763671875,0.59814453125,1,1.0,1.0,1.0,1.0,10.00
2024-10-11 20:21:49.744,1.5715742,0.69108886,1.0756857,0.5539524,1.0243735,0.27564734,0.68566984,0.38794512,0.6387164,0.3101264,0.27730793,0.036071938,0.7155285,0.15706003,0.10819392,0.4736415,0.28160375,-0.0030063444,-0.17111975,0.3680457,800.6227,793.7729,805.05493,800.2198,1097.1794,-0.22088623046875,0.11566162109375,0.974365234375,-0.91217041015625,-0.94207763671875,0.59814453125,1,1.0,1.0,1.0,1.0,10.00
2024-10-11 20:21:49.745,1.5715742,0.69108886,1.0756857,0.5539524,1.0243735,0.27564734,0.68566984,0.38794512,0.6387164,0.3101264,0.27730793,0.036071938,0.7155285,0.15706003,0.10819392,0.4736415,0.28160375,-0.0030063444,-0.17111975,0.3680457,804.65204,795.78754,803.44324,801.02563,938.8278,-0.22088623046875,0.11566162109375,0.974365234375,-0.91217041015625,-0.94207763671875,0.59814453125,1,1.0,1.0,1.0,1.0,10.00
2024-10-11 20:21:49.745,1.5715742,0.69108886,1.0756857,0.5539524,1.0243735,0.27564734,0.68566984,0.38794512,0.6387164,0.3101264,0.27730793,0.036071938,0.7155285,0.15706003,0.10819392,0.4736415,0.28160375,-0.0030063444,-0.17111975,0.3680457,812.71063,797.3993,786.9231,807.47253,759.5238,-0.22088623046875,0.11566162109375,0.974365234375,-0.91217041015625,-0.94207763671875,0.59814453125,1,1.0,1.0,1.0,1.0,10.00
2024-10-11 20:21:49.746,1.5715742,0.6249846,1.0756857,0.5539524,1.0243735,0.2424999,0.68566984,0.38794512,0.6387164,0.22714268,0.27730793,0.036071938,0.7155285,0.15727322,0.10819392,0.4736415,0.28160375,0.01310417,-0.17111975,0.3680457,802.23444,795.38464,794.17584,805.4579,853.4066,-0.22088623046875,0.11566162109375,0.974365234375,-0.91217041015625,-0.94207763671875,0.59814453125,1,1.0,1.0,1.0,1.0,10.00
2024-10-11 20:21:49.749,1.5715742,0.6249846,1.0756857,0.5539524,1.0243735,0.2424999,0.68566984,0.38794512,0.6387164,0.22714268,0.27730793,0.036071938,0.7155285,0.15727322,0.10819392,0.4736415,0.28160375,0.01310417,-0.17111975,0.3680457,799.81683,792.96704,807.47253,803.8461,936.0073,-0.22088623046875,0.11566162109375,0.974365234375,-0.91217041015625,-0.94207763671875,0.59814453125,1,1.0,1.0,1.0,1.0,10.00
2024-10-11 20:21:49.750,1.5715742,0.6249846,1.0756857,0.5539524,1.0243735,0.2424999,0.68566984,0.38794512,0.6387164,0.22714268,0.27730793,0.036071938,0.7155285,0.15727322,0.10819392,0.4736415,0.28160375,0.01310417,-0.17111975,0.3680457,796.99634,786.1172,815.9341,800.6227,780.4762,-0.22088623046875,0.11566162109375,0.974365234375,-0.91217041015625,-0.94207763671875,0.59814453125,1,1.0,1.0,1.0,1.0,10.00
2024-10-11 20:21:49.777,1.5715742,0.6249846,1.0756857,0.5539524,1.0243735,0.2424999,0.68566984,0.38794512,0.6387164,0.22714268,0.27730793,0.036071938,0.7155285,0.15727322,0.10819392,0.4736415,0.28160375,0.01310417,-0.17111975,0.3680457,798.20514,791.3553,813.1135,798.60803,723.2601,-0.2220458984375,0.1138916015625,0.9808349609375,-1.472930908203125,-1.517791748046875,1.09161376953125,1,1.0,1.0,1.0,1.0,10.00
2024-10-11 20:21:49.779,1.5715742,0.6249846,1.0756857,0.5539524,1.0243735,0.2424999,0.68566984,0.38794512,0.6387164,0.22714268,0.27730793,0.036071938,0.7155285,0.15727322,0.10819392,0.4736415,0.28160375,0.01310417,-0.17111975,0.3680457,795.78754,794.17584,803.44324,805.4579,904.9817,-0.2220458984375,0.1138916015625,0.9808349609375,-1.472930908203125,-1.517791748046875,1.09161376953125,1,1.0,1.0,1.0,1.0,10.00
2024-10-11 20:21:49.780,1.5715742,0.6249846,1.0756857,0.5539524,1.0243735,0.2424999,0.68566984,0.38794512,0.6387164,0.22714268,0.27730793,0.036071938,0.7155285,0.15727322,0.10819392,0.4736415,0.28160375,0.01310417,-0.17111975,0.3680457,792.1612,796.5934,796.99634,804.2491,942.8571,-0.2220458984375,0.1138916015625,0.9808349609375,-1.472930908203125,-1.517791748046875,1.09161376953125,1,1.0,1.0,1.0,1.0,10.00
2024-10-11 20:21:49.781,1.5715742,0.6249846,1.0756857,0.5539524,1.0243735,0.2424999,0.68566984,0.38794512,0.6387164,0.22714268,0.27730793,0.036071938,0.7155285,0.15727322,0.10819392,0.4736415,0.28160375,0.01310417,-0.17111975,0.3680457,807.47253,803.44324,796.99634,816.337,664.43225,-0.2220458984375,0.1138916015625,0.9808349609375,-1.472930908203125,-1.517791748046875,1.09161376953125,1,1.0,1.0,1.0,1.0,10.00
2024-10-11 20:21:49.782,1.5715742,0.6249846,1.0756857,0.5539524,1.0243735,0.2424999,0.68566984,0.38794512,0.6387164,0.22714268,0.27730793,0.036071938,0.7155285,0.15727322,0.10819392,0.4736415,0.28160375,0.01310417,-0.17111975,0.3680457,787.72894,797.3993,798.20514,805.4579,611.6484,-0.2220458984375,0.1138916015625,0.9808349609375,-1.472930908203125,-1.517791748046875,1.09161376953125,1,1.0,1.0,1.0,1.0,10.00
2024-10-11 20:21:49.783,1.5715742,0.6249846,1.0756857,0.5539524,1.0243735,0.2424999,0.68566984,0.38794512,0.6387164,0.22714268,0.27730793,0.036071938,0.7155285,0.15727322,0.10819392,0.4736415,0.28160375,0.01310417,-0.17111975,0.3680457,770.0,786.52014,800.6227,789.7436,934.7985,-0.2220458984375,0.1138916015625,0.9808349609375,-1.472930908203125,-1.517791748046875,1.09161376953125,1,1.0,1.0,1.0,1.0,10.00
2024-10-11 20:21:49.784,1.5715742,0.6249846,1.0756857,0.5539524,1.0243735,0.2424999,0.68566984,0.38794512,0.6387164,0.22714268,0.27730793,0.036071938,0.7155285,0.15727322,0.10819392,0.4736415,0.28160375,0.01310417,-0.17111975,0.3680457,778.46155,784.10254,801.4286,793.36993,998.0586,-0.2220458984375,0.1138916015625,0.9808349609375,-1.472930908203125,-1.517791748046875,1.09161376953125,1,1.0,1.0,1.0,1.0,10.00
2024-10-11 20:21:49.785,1.5715742,0.6249846,1.0756857,0.5539524,1.0243735,0.2424999,0.68566984,0.38794512,0.6387164,0.22714268,0.27730793,0.036071938,0.7155285,0.15727322,0.10819392,0.4736415,0.28160375,0.01310417,-0.17111975,0.3680457,774.0293,792.96704,805.05493,784.10254,769.59705,-0.2220458984375,0.1138916015625,0.9808349609375,-1.472930908203125,-1.517791748046875,1.09161376953125,1,1.0,1.0,1.0,1.0,10.00
2024-10-11 20:21:49.785,1.5715742,0.6249846,1.0756857,0.5539524,1.0243735,0.2424999,0.68566984,0.38794512,0.6387164,0.22714268,0.27730793,0.036071938,0.7155285,0.15727322,0.10819392,0.4736415,0.28160375,0.01310417,-0.17111975,0.3680457,778.46155,796.99634,807.0696,784.90845,644.68866,-0.2220458984375,0.1138916015625,0.9808349609375,-1.472930908203125,-1.517791748046875,1.09161376953125,1,1.0,1.0,1.0,1.0,10.00
2024-10-11 20:21:49.786,1.5715742,0.6249846,1.0756857,0.5539524,1.0243735,0.2424999,0.68566984,0.38794512,0.6387164,0.22714268,0.27730793,0.036071938,0.7155285,0.15727322,0.10819392,0.4736415,0.28160375,0.01310417,-0.17111975,0.3680457,774.43225,791.3553,805.8608,792.96704,748.24176,-0.2220458984375,0.1138916015625,0.9808349609375,-1.472930908203125,-1.517791748046875,1.09161376953125,1,1.0,1.0,1.0,1.0,10.00
2024-10-11 20:21:49.786,1.5715742,0.6249846,1.0756857,0.5539524,1.0243735,0.2424999,0.68566984,0.38794512,0.6387164,0.22714268,0.27730793,0.036071938,0.7155285,0.15727322,0.10819392,0.4736415,0.28160375,0.01310417,-0.17111975,0.3680457,768.3883,789.34064,808.2784,792.5641,799.011,-0.2220458984375,0.1138916015625,0.9808349609375,-1.472930908203125,-1.517791748046875,1.09161376953125,1,1.0,1.0,1.0,1.0,10.00
2024-10-11 20:21:49.787,1.5715742,0.6249846,1.0756857,0.5539524,1.0243735,0.2424999,0.68566984,0.38794512,0.6387164,0.22714268,0.27730793,0.036071938,0.7155285,0.15727322,0.10819392,0.4736415,0.28160375,0.01310417,-0.17111975,0.3680457,763.95605,788.1319,809.89014,784.10254,713.9927,-0.2220458984375,0.1138916015625,0.9808349609375,-1.472930908203125,-1.517791748046875,1.09161376953125,1,1.0,1.0,1.0,1.0,10.00
2024-10-11 20:21:49.787,1.5715742,0.6249846,1.0756857,0.5539524,1.0243735,0.2424999,0.68566984,0.38794512,0.6387164,0.22714268,0.27730793,0.036071938,0.7155285,0.15727322,0.10819392,0.4736415,0.28160375,0.01310417,-0.17111975,0.3680457,764.7619,779.2674,810.696,782.49084,655.56775,-0.218994140625,0.11590576171875,0.9837646484375,-1.8243408203125,-2.205657958984375,1.854248046875,1,1.0,1.0,1.0,1.0,10.00
2024-10-11 20:21:49.788,1.5715742,0.6249846,1.0756857,0.5539524,1.0243735,0.2424999,0.68566984,0.38794512,0.6387164,0.22714268,0.27730793,0.036071938,0.7155285,0.15727322,0.10819392,0.4736415,0.28160375,0.01310417,-0.17111975,0.3680457,780.87915,782.49084,815.5311,796.5934,798.60803,-0.218994140625,0.11590576171875,0.9837646484375,-1.8243408203125,-2.205657958984375,1.854248046875,1,1.0,1.0,1.0,1.0,10.00
2024-10-11 20:21:49.788,1.5715742,0.6249846,1.0756857,0.5539524,1.0243735,0.2424999,0.68566984,0.38794512,0.6387164,0.22714268,0.27730793,0.036071938,0.7155285,0.15727322,0.10819392,0.4736415,0.28160375,0.01310417,-0.17111975,0.3680457,786.52014,792.5641,810.696,796.1905,871.13556,-0.218994140625,0.11590576171875,0.9837646484375,-1.8243408203125,-2.205657958984375,1.854248046875,1,1.0,1.0,1.0,1.0,10.00
2024-10-11 20:21:49.789,1.5715742,0.6249846,1.0756857,0.5539524,1.0243735,0.2424999,0.68566984,0.38794512,0.6387164,0.22714268,0.27730793,0.036071938,0.7155285,0.15727322,0.10819392,0.4736415,0.28160375,0.01310417,-0.17111975,0.3680457,785.7143,793.36993,801.4286,795.38464,669.2674,-0.218994140625,0.11590576171875,0.9837646484375,-1.8243408203125,-2.205657958984375,1.854248046875,1,1.0,1.0,1.0,1.0,10.00
2024-10-11 20:21:49.789,1.5715742,0.6249846,1.0756857,0.5539524,1.0243735,0.2424999,0.68566984,0.38794512,0.6387164,0.22714268,0.27730793,0.036071938,0.7155285,0.15727322,0.10819392,0.4736415,0.28160375,0.01310417,-0.17111975,0.3680457,788.5348,789.7436,803.44324,797.8022,701.9048,-0.218994140625,0.11590576171875,0.9837646484375,-1.8243408203125,-2.205657958984375,1.854248046875,1,1.0,1.0,1.0,1.0,10.00
2024-10-11 20:21:49.790,1.5715742,0.6249846,1.0756857,0.5539524,1.0243735,0.2424999,0.68566984,0.38794512,0.6387164,0.22714268,0.27730793,0.036071938,0.7155285,0.15727322,0.10819392,0.4736415,0.28160375,0.01310417,-0.17111975,0.3680457,790.54944,790.54944,806.6667,800.2198,938.4249,-0.218994140625,0.11590576171875,0.9837646484375,-1.8243408203125,-2.205657958984375,1.854248046875,1,1.0,1.0,1.0,1.0,10.00
2024-10-11 20:21:49.790,1.5715742,0.6249846,1.0756857,0.5539524,1.0243735,0.2424999,0.68566984,0.38794512,0.6387164,0.22714268,0.27730793,0.036071938,0.7155285,0.15727322,0.10819392,0.4736415,0.28160375,0.01310417,-0.17111975,0.3680457,791.75824,787.326,807.47253,803.0403,852.6007,-0.218994140625,0.11590576171875,0.9837646484375,-1.8243408203125,-2.205657958984375,1.854248046875,1,1.0,1.0,1.0,1.0,10.00
2024-10-11 20:21:49.791,1.5715742,0.6249846,1.0756857,0.5539524,1.0243735,0.2424999,0.68566984,0.38794512,0.6387164,0.22714268,0.27730793,0.036071938,0.7155285,0.15727322,0.10819392,0.4736415,0.28160375,0.01310417,-0.17111975,0.3680457,790.54944,788.1319,809.0842,797.8022,693.44324,-0.218994140625,0.11590576171875,0.9837646484375,-1.8243408203125,-2.205657958984375,1.854248046875,1,1.0,1.0,1.0,1.0,10.00
2024-10-11 20:21:49.791,1.5715742,0.6249846,1.0756857,0.5539524,1.0243735,0.2424999,0.68566984,0.38794512,0.6387164,0.22714268,0.27730793,0.036071938,0.7155285,0.15727322,0.10819392,0.4736415,0.28160375,0.01310417,-0.17111975,0.3680457,789.34064,790.14655,812.71063,803.8461,799.81683,-0.218994140625,0.11590576171875,0.9837646484375,-1.8243408203125,-2.205657958984375,1.854248046875,1,1.0,1.0,1.0,1.0,10.00
2024-10-11 20:21:49.792,1.5715742,0.6249846,1.0756857,0.5539524,1.0243735,0.2424999,0.68566984,0.38794512,0.6387164,0.22714268,0.27730793,0.036071938,0.7155285,0.15727322,0.10819392,0.4736415,0.28160375,0.01310417,-0.17111975,0.3680457,793.7729,796.5934,810.293,817.5458,892.8938,-0.218994140625,0.11590576171875,0.9837646484375,-1.8243408203125,-2.205657958984375,1.854248046875,1,1.0,1.0,1.0,1.0,10.00
2024-10-11 20:21:49.793,1.5715742,0.6249846,1.0756857,0.5539524,1.0243735,0.2424999,0.68566984,0.38794512,0.6387164,0.22714268,0.27730793,0.036071938,0.7155285,0.15727322,0.10819392,0.4736415,0.28160375,0.01310417,-0.17111975,0.3680457,799.011,795.78754,801.8315,816.7399,773.6264,-0.218994140625,0.11590576171875,0.9837646484375,-1.8243408203125,-2.205657958984375,1.854248046875,1,1.0,1.0,1.0,1.0,10.00
2024-10-11 20:21:49.794,1.5715742,0.562964,1.0332457,0.5539524,1.0243735,0.23891072,0.6463119,0.38794512,0.6387164,0.17445867,0.27730793,0.036071938,0.7155285,0.16452315,0.09523852,0.4736415,0.28160375,0.022280583,-0.16141868,0.3680457,796.1905,778.86444,799.011,806.26373,675.31134,-0.218994140625,0.11590576171875,0.9837646484375,-1.8243408203125,-2.205657958984375,1.854248046875,1,1.0,1.0,1.0,1.0,10.00
2024-10-11 20:21:49.799,1.5715742,0.562964,1.0332457,0.5539524,1.0243735,0.23891072,0.6463119,0.38794512,0.6387164,0.17445867,0.27730793,0.036071938,0.7155285,0.16452315,0.09523852,0.4736415,0.28160375,0.022280583,-0.16141868,0.3680457,796.99634,781.28204,808.2784,810.696,816.7399,-0.2076416015625,0.11669921875,0.981689453125,-2.714080810546875,-3.0804443359375,2.370147705078125,1,1.0,1.0,1.0,1.0,10.00
2024-10-11 20:21:49.799,1.5715742,0.562964,1.0332457,0.5539524,1.0243735,0.23891072,0.6463119,0.38794512,0.6387164,0.17445867,0.27730793,0.036071938,0.7155285,0.16452315,0.09523852,0.4736415,0.28160375,0.022280583,-0.16141868,0.3680457,799.41394,798.60803,810.293,813.91943,948.49817,-0.2076416015625,0.11669921875,0.981689453125,-2.714080810546875,-3.0804443359375,2.370147705078125,1,1.0,1.0,1.0,1.0,10.00
2024-10-11 20:21:49.800,1.5715742,0.562964,1.0332457,0.5539524,1.0243735,0.23891072,0.6463119,0.38794512,0.6387164,0.17445867,0.27730793,0.036071938,0.7155285,0.16452315,0.09523852,0.4736415,0.28160375,0.022280583,-0.16141868,0.3680457,803.8461,807.0696,818.3516,814.3223,785.31134,-0.2076416015625,0.11669921875,0.981689453125,-2.714080810546875,-3.0804443359375,2.370147705078125,1,1.0,1.0,1.0,1.0,10.00
2024-10-11 20:21:49.801,1.5715742,0.562964,1.0332457,0.5539524,1.0243735,0.23891072,0.6463119,0.38794512,0.6387164,0.17445867,0.27730793,0.036071938,0.7155285,0.16452315,0.09523852,0.4736415,0.28160375,0.022280583,-0.16141868,0.3680457,809.4872,803.0403,815.12823,817.1429,746.2271,-0.2076416015625,0.11669921875,0.981689453125,-2.714080810546875,-3.0804443359375,2.370147705078125,1,1.0,1.0,1.0,1.0,10.00
2024-10-11 20:21:49.802,1.5715742,0.562964,1.0332457,0.5539524,1.0243735,0.23891072,0.6463119,0.38794512,0.6387164,0.17445867,0.27730793,0.036071938,0.7155285,0.16452315,0.09523852,0.4736415,0.28160375,0.022280583,-0.16141868,0.3680457,807.47253,797.8022,801.02563,809.89014,818.7546,-0.2076416015625,0.11669921875,0.981689453125,-2.714080810546875,-3.0804443359375,2.370147705078125,1,1.0,1.0,1.0,1.0,10.00
2024-10-11 20:21:49.802,1.5715742,0.562964,1.0332457,0.5539524,1.0243735,0.23891072,0.6463119,0.38794512,0.6387164,0.17445867,0.27730793,0.036071938,0.7155285,0.16452315,0.09523852,0.4736415,0.28160375,0.022280583,-0.16141868,0.3680457,801.4286,796.99634,801.4286,803.0403,876.3736,-0.2076416015625,0.11669921875,0.981689453125,-2.714080810546875,-3.0804443359375,2.370147705078125,1,1.0,1.0,1.0,1.0,10.00
2024-10-11 20:21:49.803,1.5715742,0.562964,1.0332457,0.5539524,1.0243735,0.23891072,0.6463119,0.38794512,0.6387164,0.17445867,0.27730793,0.036071938,0.7155285,0.16452315,0.09523852,0.4736415,0.28160375,0.022280583,-0.16141868,0.3680457,794.57874,799.41394,805.05493,801.8315,875.16486,-0.2076416015625,0.11669921875,0.981689453125,-2.714080810546875,-3.0804443359375,2.370147705078125,1,1.0,1.0,1.0,1.0,10.00
2024-10-11 20:21:49.803,1.5715742,0.562964,1.0332457,0.5539524,1.0243735,0.23891072,0.6463119,0.38794512,0.6387164,0.17445867,0.27730793,0.036071938,0.7155285,0.16452315,0.09523852,0.4736415,0.28160375,0.022280583,-0.16141868,0.3680457,788.93774,800.6227,804.2491,802.23444,830.4396,-0.2076416015625,0.11669921875,0.981689453125,-2.714080810546875,-3.0804443359375,2.370147705078125,1,1.0,1.0,1.0,1.0,10.00
2024-10-11 20:21:49.803,1.5715742,0.562964,1.0332457,0.5539524,1.0243735,0.23891072,0.6463119,0.38794512,0.6387164,0.17445867,0.27730793,0.036071938,0.7155285,0.16452315,0.09523852,0.4736415,0.28160375,0.022280583,-0.16141868,0.3680457,788.1319,799.81683,796.5934,797.8022,915.05493,-0.2076416015625,0.11669921875,0.981689453125,-2.714080810546875,-3.0804443359375,2.370147705078125,1,1.0,1.0,1.0,1.0,10.00
2024-10-11 20:21:49.804,1.5715742,0.562964,1.0332457,0.5539524,1.0243735,0.23891072,0.6463119,0.38794512,0.6387164,0.17445867,0.27730793,0.036071938,0.7155285,0.16452315,0.09523852,0.4736415,0.28160375,0.022280583,-0.16141868,0.3680457,792.96704,796.1905,796.5934,799.011,891.685,-0.2076416015625,0.11669921875,0.981689453125,-2.714080810546875,-3.0804443359375,2.370147705078125,1,1.0,1.0,1.0,1.0,10.00
2024-10-11 20:21:49.804,1.5715742,0.562964,1.0332457,0.5539524,1.0243735,0.23891072,0.6463119,0.38794512,0.6387164,0.17445867,0.27730793,0.036071938,0.7155285,0.16452315,0.09523852,0.4736415,0.28160375,0.022280583,-0.16141868,0.3680457,794.57874,794.57874,805.05493,799.011,667.25275,-0.2076416015625,0.11669921875,0.981689453125,-2.714080810546875,-3.0804443359375,2.370147705078125,1,1.0,1.0,1.0,1.0,10.00
2024-10-11 20:21:49.805,1.5715742,0.562964,1.0332457,0.5539524,1.0243735,0.23891072,0.6463119,0.38794512,0.6387164,0.17445867,0.27730793,0.036071938,0.7155285,0.16452315,0.09523852,0.4736415,0.28160375,0.022280583,-0.16141868,0.3680457,791.3553,796.1905,804.2491,797.8022,694.65204,-0.2076416015625,0.11669921875,0.981689453125,-2.714080810546875,-3.0804443359375,2.370147705078125,1,1.0,1.0,1.0,1.0,10.00
2024-10-11 20:21:49.806,1.5715742,0.562964,1.0332457,0.5539524,1.0243735,0.23891072,0.6463119,0.38794512,0.6387164,0.17445867,0.27730793,0.036071938,0.7155285,0.16452315,0.09523852,0.4736415,0.28160375,0.022280583,-0.16141868,0.3680457,792.1612,794.9817,796.5934,801.02563,869.92676,-0.2076416015625,0.11669921875,0.981689453125,-2.714080810546875,-3.0804443359375,2.370147705078125,1,1.0,1.0,1.0,1.0,10.00
2024-10-11 20:21:49.807,1.5715742,0.562964,1.0332457,0.5539524,1.0243735,0.23891072,0.6463119,0.38794512,0.6387164,0.17445867,0.27730793,0.036071938,0.7155285,0.16452315,0.09523852,0.4736415,0.28160375,0.022280583,-0.16141868,0.3680457,803.0403,798.20514,797.3993,802.6374,817.9487,-0.2076416015625,0.11669921875,0.981689453125,-2.714080810546875,-3.0804443359375,2.370147705078125,1,1.0,1.0,1.0,1.0,10.00
2024-10-11 20:21:49.808,1.5715742,0.562964,1.0332457,0.5539524,1.0243735,0.23891072,0.6463119,0.38794512,0.6387164,0.17445867,0.27730793,0.036071938,0.7155285,0.16452315,0.09523852,0.4736415,0.28160375,0.022280583,-0.16141868,0.3680457,800.2198,805.05493,803.8461,795.78754,732.52747,-0.2076416015625,0.11669921875,0.981689453125,-2.714080810546875,-3.0804443359375,2.370147705078125,1,1.0,1.0,1.0,1.0,10.00
2024-10-11 20:21:49.809,1.5715742,0.562964,1.0332457,0.5539524,1.0243735,0.23891072,0.6463119,0.38794512,0.6387164,0.17445867,0.27730793,0.036071938,0.7155285,0.16452315,0.09523852,0.4736415,0.28160375,0.022280583,-0.16141868,0.3680457,795.78754,797.8022,801.4286,801.4286,786.1172,-0.2076416015625,0.11669921875,0.981689453125,-2.714080810546875,-3.0804443359375,2.370147705078125,1,1.0,1.0,1.0,1.0,10.00
2024-10-11 20:21:49.810,1.5715742,0.562964,1.0332457,0.5539524,1.0243735,0.23891072,0.6463119,0.38794512,0.6387164,0.17445867,0.27730793,0.036071938,0.7155285,0.16452315,0.09523852,0.4736415,0.28160375,0.022280583,-0.16141868,0.3680457,809.0842,797.8022,794.9817,808.2784,927.9487,-0.2076416015625,0.11669921875,0.981689453125,-2.714080810546875,-3.0804443359375,2.370147705078125,1,1.0,1.0,1.0,1.0,10.00
2024-10-11 20:21:49.811,1.5715742,0.562964,1.0332457,0.5539524,1.0243735,0.23891072,0.6463119,0.38794512,0.6387164,0.17445867,0.27730793,0.036071938,0.7155285,0.16452315,0.09523852,0.4736415,0.28160375,0.022280583,-0.16141868,0.3680457,811.50183,805.05493,800.6227,800.2198,853.00366,-0.2076416015625,0.11669921875,0.981689453125,-2.714080810546875,-3.0804443359375,2.370147705078125,1,1.0,1.0,1.0,1.0,10.00
2024-10-11 20:21:49.812,1.5715742,0.562964,1.0332457,0.5539524,1.0243735,0.23891072,0.6463119,0.38794512,0.6387164,0.17445867,0.27730793,0.036071938,0.7155285,0.16452315,0.09523852,0.4736415,0.28160375,0.022280583,-0.16141868,0.3680457,803.0403,803.44324,801.02563,796.99634,651.53845,-0.2076416015625,0.11669921875,0.981689453125,-2.714080810546875,-3.0804443359375,2.370147705078125,1,1.0,1.0,1.0,1.0,10.00
2024-10-11 20:21:49.813,1.5715742,0.562964,1.0332457,0.5539524,1.0243735,0.23891072,0.6463119,0.38794512,0.6387164,0.17445867,0.27730793,0.036071938,0.7155285,0.16452315,0.09523852,0.4736415,0.28160375,0.022280583,-0.16141868,0.3680457,793.7729,796.1905,799.011,795.78754,786.1172,-0.2076416015625,0.11669921875,0.981689453125,-2.714080810546875,-3.0804443359375,2.370147705078125,1,1.0,1.0,1.0,1.0,10.00
2024-10-11 20:21:49.813,1.5715742,0.562964,1.0332457,0.5539524,1.0243735,0.23891072,0.6463119,0.38794512,0.6387164,0.17445867,0.27730793,0.036071938,0.7155285,0.16452315,0.09523852,0.4736415,0.28160375,0.022280583,-0.16141868,0.3680457,790.54944,793.36993,802.6374,800.2198,990.40295,-0.2076416015625,0.11669921875,0.981689453125,-2.714080810546875,-3.0804443359375,2.370147705078125,1,1.0,1.0,1.0,1.0,10.00
2024-10-11 20:21:49.814,1.5715742,0.562964,1.0332457,0.5539524,1.0243735,0.23891072,0.6463119,0.38794512,0.6387164,0.17445867,0.27730793,0.036071938,0.7155285,0.16452315,0.09523852,0.4736415,0.28160375,0.022280583,-0.16141868,0.3680457,788.5348,801.4286,799.011,803.8461,787.326,-0.2076416015625,0.11669921875,0.981689453125,-2.714080810546875,-3.0804443359375,2.370147705078125,1,1.0,1.0,1.0,1.0,10.00
2024-10-11 20:21:49.814,1.5715742,0.562964,1.0332457,0.5539524,1.0243735,0.23891072,0.6463119,0.38794512,0.6387164,0.17445867,0.27730793,0.036071938,0.7155285,0.16452315,0.09523852,0.4736415,0.28160375,0.022280583,-0.16141868,0.3680457,789.34064,798.20514,798.60803,804.2491,650.7326,-0.2076416015625,0.11669921875,0.981689453125,-2.714080810546875,-3.0804443359375,2.370147705078125,1,1.0,1.0,1.0,1.0,10.00
2024-10-11 20:21:49.815,1.5715742,0.562964,1.0332457,0.5539524,1.0243735,0.23891072,0.6463119,0.38794512,0.6387164,0.17445867,0.27730793,0.036071938,0.7155285,0.16452315,0.09523852,0.4736415,0.28160375,0.022280583,-0.16141868,0.3680457,793.36993,784.10254,799.81683,806.6667,919.4872,-0.2076416015625,0.11669921875,0.981689453125,-2.714080810546875,-3.0804443359375,2.370147705078125,1,1.0,1.0,1.0,1.0,10.00
2024-10-11 20:21:49.860,1.5715742,0.562964,1.0332457,0.5539524,1.0243735,0.23891072,0.6463119,0.38794512,0.6387164,0.17445867,0.27730793,0.036071938,0.7155285,0.16452315,0.09523852,0.4736415,0.28160375,0.022280583,-0.16141868,0.3680457,793.36993,784.90845,799.81683,810.696,1037.5458,-0.212890625,0.10955810546875,0.996337890625,-4.08233642578125,-3.12530517578125,2.6318359375,1,1.0,1.0,1.0,1.0,10.00
2024-10-11 20:21:49.861,1.5715742,0.49648115,0.99584836,0.5539524,1.0243735,0.22270723,0.6111457,0.38794512,0.6387164,0.15875487,0.27730793,0.036071938,0.7155285,0.17575887,0.08367575,0.4736415,0.28160375,0.018262902,-0.15016028,0.3680457,785.7143,796.99634,790.9524,804.2491,860.2564,-0.212890625,0.10955810546875,0.996337890625,-4.08233642578125,-3.12530517578125,2.6318359375,1,1.0,1.0,1.0,1.0,10.00
2024-10-11 20:21:49.865,1.5715742,0.49648115,0.99584836,0.5539524,1.0243735,0.22270723,0.6111457,0.38794512,0.6387164,0.15875487,0.27730793,0.036071938,0.7155285,0.17575887,0.08367575,0.4736415,0.28160375,0.018262902,-0.15016028,0.3680457,787.72894,798.20514,791.75824,802.6374,709.15753,-0.212890625,0.10955810546875,0.996337890625,-4.08233642578125,-3.12530517578125,2.6318359375,1,1.0,1.0,1.0,1.0,10.00
2024-10-11 20:21:49.866,1.5715742,0.49648115,0.99584836,0.5539524,1.0243735,0.22270723,0.6111457,0.38794512,0.6387164,0.15875487,0.27730793,0.036071938,0.7155285,0.17575887,0.08367575,0.4736415,0.28160375,0.018262902,-0.15016028,0.3680457,793.7729,792.5641,796.1905,815.5311,767.5824,-0.212890625,0.10955810546875,0.996337890625,-4.08233642578125,-3.12530517578125,2.6318359375,1,1.0,1.0,1.0,1.0,10.00
2024-10-11 20:21:49.866,1.5715742,0.49648115,0.99584836,0.5539524,1.0243735,0.22270723,0.6111457,0.38794512,0.6387164,0.15875487,0.27730793,0.036071938,0.7155285,0.17575887,0.08367575,0.4736415,0.28160375,0.018262902,-0.15016028,0.3680457,794.57874,791.75824,798.20514,818.3516,879.59705,-0.212890625,0.10955810546875,0.996337890625,-4.08233642578125,-3.12530517578125,2.6318359375,1,1.0,1.0,1.0,1.0,10.00
2024-10-11 20:21:49.866,1.5715742,0.49648115,0.99584836,0.5539524,1.0243735,0.22270723,0.6111457,0.38794512,0.6387164,0.15875487,0.27730793,0.036071938,0.7155285,0.17575887,0.08367575,0.4736415,0.28160375,0.018262902,-0.15016028,0.3680457,794.9817,795.78754,804.65204,807.47253,872.3443,-0.212890625,0.10955810546875,0.996337890625,-4.08233642578125,-3.12530517578125,2.6318359375,1,1.0,1.0,1.0,1.0,10.00
2024-10-11 20:21:49.867,1.5715742,0.49648115,0.99584836,0.5539524,1.0243735,0.22270723,0.6111457,0.38794512,0.6387164,0.15875487,0.27730793,0.036071938,0.7155285,0.17575887,0.08367575,0.4736415,0.28160375,0.018262902,-0.15016028,0.3680457,796.99634,794.17584,795.38464,806.26373,864.68866,-0.212890625,0.10955810546875,0.996337890625,-4.08233642578125,-3.12530517578125,2.6318359375,1,1.0,1.0,1.0,1.0,10.00
2024-10-11 20:21:49.867,1.5715742,0.49648115,0.99584836,0.5539524,1.0243735,0.22270723,0.6111457,0.38794512,0.6387164,0.15875487,0.27730793,0.036071938,0.7155285,0.17575887,0.08367575,0.4736415,0.28160375,0.018262902,-0.15016028,0.3680457,804.2491,791.75824,789.7436,809.0842,913.44324,-0.212890625,0.10955810546875,0.996337890625,-4.08233642578125,-3.12530517578125,2.6318359375,1,1.0,1.0,1.0,1.0,10.00
2024-10-11 20:21:49.868,1.5715742,0.49648115,0.99584836,0.5539524,1.0243735,0.22270723,0.6111457,0.38794512,0.6387164,0.15875487,0.27730793,0.036071938,0.7155285,0.17575887,0.08367575,0.4736415,0.28160375,0.018262902,-0.15016028,0.3680457,802.6374,792.5641,794.17584,808.2784,888.0586,-0.212890625,0.10955810546875,0.996337890625,-4.08233642578125,-3.12530517578125,2.6318359375,1,1.0,1.0,1.0,1.0,10.00
2024-10-11 20:21:49.868,1.5715742,0.49648115,0.99584836,0.5539524,1.0243735,0.22270723,0.6111457,0.38794512,0.6387164,0.15875487,0.27730793,0.036071938,0.7155285,0.17575887,0.08367575,0.4736415,0.28160375,0.018262902,-0.15016028,0.3680457,805.05493,788.5348,799.81683,806.6667,667.25275,-0.212890625,0.10955810546875,0.996337890625,-4.08233642578125,-3.12530517578125,2.6318359375,1,1.0,1.0,1.0,1.0,10.00
2024-10-11 20:21:49.869,1.5715742,0.49648115,0.99584836,0.5539524,1.0243735,0.22270723,0.6111457,0.38794512,0.6387164,0.15875487,0.27730793,0.036071938,0.7155285,0.17575887,0.08367575,0.4736415,0.28160375,0.018262902,-0.15016028,0.3680457,806.26373,782.8938,794.9817,806.26373,647.50916,-0.212890625,0.10955810546875,0.996337890625,-4.08233642578125,-3.12530517578125,2.6318359375,1,1.0,1.0,1.0,1.0,10.00
2024-10-11 20:21:49.869,1.5715742,0.49648115,0.99584836,0.5539524,1.0243735,0.22270723,0.6111457,0.38794512,0.6387164,0.15875487,0.27730793,0.036071938,0.7155285,0.17575887,0.08367575,0.4736415,0.28160375,0.018262902,-0.15016028,0.3680457,809.4872,790.54944,792.5641,806.26373,760.32965,-0.212890625,0.10955810546875,0.996337890625,-4.08233642578125,-3.12530517578125,2.6318359375,1,1.0,1.0,1.0,1.0,10.00
2024-10-11 20:21:49.870,1.5715742,0.49648115,0.99584836,0.5539524,1.0243735,0.22270723,0.6111457,0.38794512,0.6387164,0.15875487,0.27730793,0.036071938,0.7155285,0.17575887,0.08367575,0.4736415,0.28160375,0.018262902,-0.15016028,0.3680457,807.0696,798.60803,793.7729,808.2784,826.0073,-0.2034912109375,0.0950927734375,0.97357177734375,-6.41510009765625,-5.585174560546875,0.082244873046875,1,1.0,1.0,1.0,1.0,10.00
2024-10-11 20:21:49.871,1.5715742,0.49648115,0.99584836,0.5539524,1.0243735,0.22270723,0.6111457,0.38794512,0.6387164,0.15875487,0.27730793,0.036071938,0.7155285,0.17575887,0.08367575,0.4736415,0.28160375,0.018262902,-0.15016028,0.3680457,797.8022,799.011,799.41394,805.05493,735.34796,-0.2034912109375,0.0950927734375,0.97357177734375,-6.41510009765625,-5.585174560546875,0.082244873046875,1,1.0,1.0,1.0,1.0,10.00
2024-10-11 20:21:49.871,1.5715742,0.49648115,0.99584836,0.5539524,1.0243735,0.22270723,0.6111457,0.38794512,0.6387164,0.15875487,0.27730793,0.036071938,0.7155285,0.17575887,0.08367575,0.4736415,0.28160375,0.018262902,-0.15016028,0.3680457,803.0403,803.0403,808.2784,806.26373,680.14655,-0.2034912109375,0.0950927734375,0.97357177734375,-6.41510009765625,-5.585174560546875,0.082244873046875,1,1.0,1.0,1.0,1.0,10.00
2024-10-11 20:21:49.872,1.5715742,0.49648115,0.99584836,0.5539524,1.0243735,0.22270723,0.6111457,0.38794512,0.6387164,0.15875487,0.27730793,0.036071938,0.7155285,0.17575887,0.08367575,0.4736415,0.28160375,0.018262902,-0.15016028,0.3680457,808.2784,798.20514,798.20514,809.89014,825.6044,-0.2034912109375,0.0950927734375,0.97357177734375,-6.41510009765625,-5.585174560546875,0.082244873046875,1,1.0,1.0,1.0,1.0,10.00
2024-10-11 20:21:49.873,1.5715742,0.49648115,0.99584836,0.5539524,1.0243735,0.22270723,0.6111457,0.38794512,0.6387164,0.15875487,0.27730793,0.036071938,0.7155285,0.17575887,0.08367575,0.4736415,0.28160375,0.018262902,-0.15016028,0.3680457,805.8608,799.011,795.38464,812.3077,818.3516,-0.2034912109375,0.0950927734375,0.97357177734375,-6.41510009765625,-5.585174560546875,0.082244873046875,1,1.0,1.0,1.0,1.0,10.00
2024-10-11 20:21:49.873,1.5715742,0.49648115,0.99584836,0.5539524,1.0243735,0.22270723,0.6111457,0.38794512,0.6387164,0.15875487,0.27730793,0.036071938,0.7155285,0.17575887,0.08367575,0.4736415,0.28160375,0.018262902,-0.15016028,0.3680457,803.44324,807.8755,801.02563,818.3516,813.5165,-0.2034912109375,0.0950927734375,0.97357177734375,-6.41510009765625,-5.585174560546875,0.082244873046875,1,1.0,1.0,1.0,1.0,10.00
2024-10-11 20:21:49.873,1.5715742,0.49648115,0.99584836,0.5539524,1.0243735,0.22270723,0.6111457,0.38794512,0.6387164,0.15875487,0.27730793,0.036071938,0.7155285,0.17575887,0.08367575,0.4736415,0.28160375,0.018262902,-0.15016028,0.3680457,801.8315,799.41394,792.5641,812.3077,943.2601,-0.2034912109375,0.0950927734375,0.97357177734375,-6.41510009765625,-5.585174560546875,0.082244873046875,1,1.0,1.0,1.0,1.0,10.00
2024-10-11 20:21:49.874,1.5715742,0.49648115,0.99584836,0.5539524,1.0243735,0.22270723,0.6111457,0.38794512,0.6387164,0.15875487,0.27730793,0.036071938,0.7155285,0.17575887,0.08367575,0.4736415,0.28160375,0.018262902,-0.15016028,0.3680457,809.0842,792.1612,788.5348,811.0989,1112.0879,-0.2034912109375,0.0950927734375,0.97357177734375,-6.41510009765625,-5.585174560546875,0.082244873046875,1,1.0,1.0,1.0,1.0,10.00
2024-10-11 20:21:49.874,1.5715742,0.49648115,0.99584836,0.5539524,1.0243735,0.22270723,0.6111457,0.38794512,0.6387164,0.15875487,0.27730793,0.036071938,0.7155285,0.17575887,0.08367575,0.4736415,0.28160375,0.018262902,-0.15016028,0.3680457,813.5165,796.5934,800.6227,823.1868,1218.0586,-0.2034912109375,0.0950927734375,0.97357177734375,-6.41510009765625,-5.585174560546875,0.082244873046875,1,1.0,1.0,1.0,1.0,10.00
2024-10-11 20:21:49.875,1.5715742,0.49648115,0.99584836,0.5539524,1.0243735,0.22270723,0.6111457,0.38794512,0.6387164,0.15875487,0.27730793,0.036071938,0.7155285,0.17575887,0.08367575,0.4736415,0.28160375,0.018262902,-0.15016028,0.3680457,808.68134,805.05493,809.4872,823.1868,1087.5092,-0.2034912109375,0.0950927734375,0.97357177734375,-6.41510009765625,-5.585174560546875,0.082244873046875,1,1.0,1.0,1.0,1.0,10.00
2024-10-11 20:21:49.875,1.5715742,0.49648115,0.99584836,0.5539524,1.0243735,0.22270723,0.6111457,0.38794512,0.6387164,0.15875487,0.27730793,0.036071938,0.7155285,0.17575887,0.08367575,0.4736415,0.28160375,0.018262902,-0.15016028,0.3680457,800.6227,802.23444,805.05493,807.0696,960.58606,-0.2034912109375,0.0950927734375,0.97357177734375,-6.41510009765625,-5.585174560546875,0.082244873046875,1,1.0,1.0,1.0,1.0,10.00
2024-10-11 20:21:49.876,1.5715742,0.49648115,0.99584836,0.5539524,1.0243735,0.22270723,0.6111457,0.38794512,0.6387164,0.15875487,0.27730793,0.036071938,0.7155285,0.17575887,0.08367575,0.4736415,0.28160375,0.018262902,-0.15016028,0.3680457,810.696,792.96704,790.54944,820.3663,1027.8755,-0.2034912109375,0.0950927734375,0.97357177734375,-6.41510009765625,-5.585174560546875,0.082244873046875,1,1.0,1.0,1.0,1.0,10.00
2024-10-11 20:21:49.914,1.5715742,0.49648115,0.99584836,0.5539524,1.0243735,0.22270723,0.6111457,0.38794512,0.6387164,0.15875487,0.27730793,0.036071938,0.7155285,0.17575887,0.08367575,0.4736415,0.28160375,0.018262902,-0.15016028,0.3680457,812.3077,793.36993,802.23444,833.663,1097.5824,-0.19842529296875,0.0870361328125,0.98638916015625,-6.138458251953125,-6.018829345703125,-0.37384033203125,1,1.0,1.0,1.0,1.0,10.00
2024-10-11 20:21:49.915,1.5715742,0.49648115,0.99584836,0.5539524,1.0243735,0.22270723,0.6111457,0.38794512,0.6387164,0.15875487,0.27730793,0.036071938,0.7155285,0.17575887,0.08367575,0.4736415,0.28160375,0.018262902,-0.15016028,0.3680457,771.2088,797.8022,811.0989,800.2198,1018.60803,-0.19842529296875,0.0870361328125,0.98638916015625,-6.138458251953125,-6.018829345703125,-0.37384033203125,1,1.0,1.0,1.0,1.0,10.00
2024-10-11 20:21:49.917,1.5715742,0.49648115,0.99584836,0.5539524,1.0243735,0.22270723,0.6111457,0.38794512,0.6387164,0.15875487,0.27730793,0.036071938,0.7155285,0.17575887,0.08367575,0.4736415,0.28160375,0.018262902,-0.15016028,0.3680457,768.7912,801.02563,795.38464,789.34064,827.619,-0.19842529296875,0.0870361328125,0.98638916015625,-6.138458251953125,-6.018829345703125,-0.37384033203125,1,1.0,1.0,1.0,1.0,10.00
2024-10-11 20:21:49.918,1.5715742,0.46738505,0.98828673,0.5539524,1.0243735,0.22822689,0.6038874,0.38794512,0.6387164,0.16016136,0.27451426,0.036071938,0.7155285,0.17179109,0.062032007,0.4736415,0.28160375,0.0140560195,-0.12295059,0.3680457,787.72894,800.2198,796.5934,796.1905,1025.0549,-0.19842529296875,0.0870361328125,0.98638916015625,-6.138458251953125,-6.018829345703125,-0.37384033203125,1,1.0,1.0,1.0,1.0,10.00
2024-10-11 20:21:49.922,1.5715742,0.46738505,0.98828673,0.5539524,1.0243735,0.22822689,0.6038874,0.38794512,0.6387164,0.16016136,0.27451426,0.036071938,0.7155285,0.17179109,0.062032007,0.4736415,0.28160375,0.0140560195,-0.12295059,0.3680457,765.9707,799.011,798.20514,774.43225,890.07324,-0.19842529296875,0.0870361328125,0.98638916015625,-6.138458251953125,-6.018829345703125,-0.37384033203125,1,1.0,1.0,1.0,1.0,10.00
2024-10-11 20:21:49.922,1.5715742,0.46738505,0.98828673,0.5539524,1.0243735,0.22822689,0.6038874,0.38794512,0.6387164,0.16016136,0.27451426,0.036071938,0.7155285,0.17179109,0.062032007,0.4736415,0.28160375,0.0140560195,-0.12295059,0.3680457,761.53845,790.14655,797.8022,766.77655,516.9597,-0.19842529296875,0.0870361328125,0.98638916015625,-6.138458251953125,-6.018829345703125,-0.37384033203125,1,1.0,1.0,1.0,1.0,10.00
2024-10-11 20:21:49.923,1.5715742,0.46738505,0.98828673,0.5539524,1.0243735,0.22822689,0.6038874,0.38794512,0.6387164,0.16016136,0.27451426,0.036071938,0.7155285,0.17179109,0.062032007,0.4736415,0.28160375,0.0140560195,-0.12295059,0.3680457,776.04395,794.57874,795.38464,774.0293,775.2381,-0.19842529296875,0.0870361328125,0.98638916015625,-6.138458251953125,-6.018829345703125,-0.37384033203125,1,1.0,1.0,1.0,1.0,10.00
2024-10-11 20:21:49.923,1.5715742,0.46738505,0.98828673,0.5539524,1.0243735,0.22822689,0.6038874,0.38794512,0.6387164,0.16016136,0.27451426,0.036071938,0.7155285,0.17179109,0.062032007,0.4736415,0.28160375,0.0140560195,-0.12295059,0.3680457,774.0293,805.8608,786.9231,765.16486,853.8095,-0.19842529296875,0.0870361328125,0.98638916015625,-6.138458251953125,-6.018829345703125,-0.37384033203125,1,1.0,1.0,1.0,1.0,10.00
2024-10-11 20:21:49.924,1.5715742,0.46738505,0.98828673,0.5539524,1.0243735,0.22822689,0.6038874,0.38794512,0.6387164,0.16016136,0.27451426,0.036071938,0.7155285,0.17179109,0.062032007,0.4736415,0.28160375,0.0140560195,-0.12295059,0.3680457,783.2967,802.23444,784.5055,763.1502,521.39197,-0.19842529296875,0.0870361328125,0.98638916015625,-6.138458251953125,-6.018829345703125,-0.37384033203125,1,1.0,1.0,1.0,1.0,10.00
2024-10-11 20:21:49.924,1.5715742,0.46738505,0.98828673,0.5539524,1.0243735,0.22822689,0.6038874,0.38794512,0.6387164,0.16016136,0.27451426,0.036071938,0.7155285,0.17179109,0.062032007,0.4736415,0.28160375,0.0140560195,-0.12295059,0.3680457,791.3553,802.6374,779.67035,771.2088,439.59708,-0.19842529296875,0.0870361328125,0.98638916015625,-6.138458251953125,-6.018829345703125,-0.37384033203125,1,1.0,1.0,1.0,1.0,10.00
2024-10-11 20:21:49.925,1.5715742,0.46738505,0.98828673,0.5539524,1.0243735,0.22822689,0.6038874,0.38794512,0.6387164,0.16016136,0.27451426,0.036071938,0.7155285,0.17179109,0.062032007,0.4736415,0.28160375,0.0140560195,-0.12295059,0.3680457,784.5055,801.4286,773.6264,773.6264,675.7143,-0.19842529296875,0.0870361328125,0.98638916015625,-6.138458251953125,-6.018829345703125,-0.37384033203125,1,1.0,1.0,1.0,1.0,10.00
2024-10-11 20:21:49.925,1.5715742,0.46738505,0.98828673,0.5539524,1.0243735,0.22822689,0.6038874,0.38794512,0.6387164,0.16016136,0.27451426,0.036071938,0.7155285,0.17179109,0.062032007,0.4736415,0.28160375,0.0140560195,-0.12295059,0.3680457,776.04395,800.6227,790.9524,774.43225,663.22345,-0.19842529296875,0.0870361328125,0.98638916015625,-6.138458251953125,-6.018829345703125,-0.37384033203125,1,1.0,1.0,1.0,1.0,10.00
2024-10-11 20:21:49.961,1.5715742,0.46738505,0.98828673,0.5539524,1.0243735,0.22822689,0.6038874,0.38794512,0.6387164,0.16016136,0.27451426,0.036071938,0.7155285,0.17179109,0.062032007,0.4736415,0.28160375,0.0140560195,-0.12295059,0.3680457,773.22345,800.2198,809.4872,769.19415,451.28204,-0.1912841796875,0.08709716796875,0.97979736328125,-5.45806884765625,-12.06756591796875,-0.979461669921875,1,1.0,1.0,1.0,1.0,10.00
2024-10-11 20:21:49.962,1.5715742,0.46738505,0.98828673,0.5539524,1.0243735,0.22822689,0.6038874,0.38794512,0.6387164,0.16016136,0.27451426,0.036071938,0.7155285,0.17179109,0.062032007,0.4736415,0.28160375,0.0140560195,-0.12295059,0.3680457,774.83514,792.96704,819.15753,770.40295,544.7619,-0.1912841796875,0.08709716796875,0.97979736328125,-5.45806884765625,-12.06756591796875,-0.979461669921875,1,1.0,1.0,1.0,1.0,10.00
2024-10-11 20:21:49.963,1.5715742,0.46738505,0.98828673,0.5539524,1.0243735,0.22822689,0.6038874,0.38794512,0.6387164,0.16016136,0.27451426,0.036071938,0.7155285,0.17179109,0.062032007,0.4736415,0.28160375,0.0140560195,-0.12295059,0.3680457,774.0293,797.8022,814.7253,779.2674,873.1502,-0.1912841796875,0.08709716796875,0.97979736328125,-5.45806884765625,-12.06756591796875,-0.979461669921875,1,1.0,1.0,1.0,1.0,10.00
2024-10-11 20:21:49.963,1.5715742,0.46738505,0.98828673,0.5539524,1.0243735,0.22822689,0.6038874,0.38794512,0.6387164,0.16016136,0.27451426,0.036071938,0.7155285,0.17179109,0.062032007,0.4736415,0.28160375,0.0140560195,-0.12295059,0.3680457,778.86444,804.2491,801.8315,786.1172,853.8095,-0.1912841796875,0.08709716796875,0.97979736328125,-5.45806884765625,-12.06756591796875,-0.979461669921875,1,1.0,1.0,1.0,1.0,10.00
2024-10-11 20:21:49.964,1.5715742,0.46738505,0.98828673,0.5539524,1.0243735,0.22822689,0.6038874,0.38794512,0.6387164,0.16016136,0.27451426,0.036071938,0.7155285,0.17179109,0.062032007,0.4736415,0.28160375,0.0140560195,-0.12295059,0.3680457,782.0879,801.8315,806.26373,786.9231,645.89746,-0.1912841796875,0.08709716796875,0.97979736328125,-5.45806884765625,-12.06756591796875,-0.979461669921875,1,1.0,1.0,1.0,1.0,10.00
2024-10-11 20:21:49.964,1.5715742,0.46738505,0.98828673,0.5539524,1.0243735,0.22822689,0.6038874,0.38794512,0.6387164,0.16016136,0.27451426,0.036071938,0.7155285,0.17179109,0.062032007,0.4736415,0.28160375,0.0140560195,-0.12295059,0.3680457,785.7143,800.6227,806.26373,790.14655,794.57874,-0.1912841796875,0.08709716796875,0.97979736328125,-5.45806884765625,-12.06756591796875,-0.979461669921875,1,1.0,1.0,1.0,1.0,10.00
2024-10-11 20:21:49.965,1.5715742,0.46738505,0.98828673,0.5539524,1.0243735,0.22822689,0.6038874,0.38794512,0.6387164,0.16016136,0.27451426,0.036071938,0.7155285,0.17179109,0.062032007,0.4736415,0.28160375,0.0140560195,-0.12295059,0.3680457,790.9524,791.75824,796.5934,801.4286,1256.7399,-0.1912841796875,0.08709716796875,0.97979736328125,-5.45806884765625,-12.06756591796875,-0.979461669921875,1,1.0,1.0,1.0,1.0,10.00
2024-10-11 20:21:49.965,1.5715742,0.46738505,0.98828673,0.5539524,1.0243735,0.22822689,0.6038874,0.38794512,0.6387164,0.16016136,0.27451426,0.036071938,0.7155285,0.17179109,0.062032007,0.4736415,0.28160375,0.0140560195,-0.12295059,0.3680457,789.7436,797.3993,801.4286,806.26373,1184.6154,-0.1912841796875,0.08709716796875,0.97979736328125,-5.45806884765625,-12.06756591796875,-0.979461669921875,1,1.0,1.0,1.0,1.0,10.00
2024-10-11 20:21:49.966,1.5715742,0.46738505,0.98828673,0.5539524,1.0243735,0.22822689,0.6038874,0.38794512,0.6387164,0.16016136,0.27451426,0.036071938,0.7155285,0.17179109,0.062032007,0.4736415,0.28160375,0.0140560195,-0.12295059,0.3680457,790.9524,805.8608,798.20514,795.38464,625.7509,-0.1912841796875,0.08709716796875,0.97979736328125,-5.45806884765625,-12.06756591796875,-0.979461669921875,1,1.0,1.0,1.0,1.0,10.00
2024-10-11 20:21:49.966,1.5715742,0.46738505,0.98828673,0.5539524,1.0243735,0.22822689,0.6038874,0.38794512,0.6387164,0.16016136,0.27451426,0.036071938,0.7155285,0.17179109,0.062032007,0.4736415,0.28160375,0.0140560195,-0.12295059,0.3680457,788.1319,795.78754,795.38464,790.9524,623.73627,-0.1912841796875,0.08709716796875,0.97979736328125,-5.45806884765625,-12.06756591796875,-0.979461669921875,1,1.0,1.0,1.0,1.0,10.00
2024-10-11 20:21:49.967,1.5715742,0.46738505,0.98828673,0.5539524,1.0243735,0.22822689,0.6038874,0.38794512,0.6387164,0.16016136,0.27451426,0.036071938,0.7155285,0.17179109,0.062032007,0.4736415,0.28160375,0.0140560195,-0.12295059,0.3680457,790.54944,787.72894,803.8461,803.0403,662.4176,-0.1912841796875,0.08709716796875,0.97979736328125,-5.45806884765625,-12.06756591796875,-0.979461669921875,1,1.0,1.0,1.0,1.0,10.00
2024-10-11 20:21:49.967,1.5715742,0.46738505,0.98828673,0.5539524,1.0243735,0.22822689,0.6038874,0.38794512,0.6387164,0.16016136,0.27451426,0.036071938,0.7155285,0.17179109,0.062032007,0.4736415,0.28160375,0.0140560195,-0.12295059,0.3680457,793.7729,798.20514,804.2491,803.0403,574.9817,-0.1912841796875,0.08709716796875,0.97979736328125,-5.45806884765625,-12.06756591796875,-0.979461669921875,1,1.0,1.0,1.0,1.0,10.00
2024-10-11 20:21:49.996,1.5715742,0.46738505,0.98828673,0.5539524,1.0243735,0.22822689,0.6038874,0.38794512,0.6387164,0.16016136,0.27451426,0.036071938,0.7155285,0.17179109,0.062032007,0.4736415,0.28160375,0.0140560195,-0.12295059,0.3680457,794.17584,813.1135,794.17584,789.7436,548.3883,-0.1912841796875,0.08709716796875,0.97979736328125,-5.45806884765625,-12.06756591796875,-0.979461669921875,1,1.0,1.0,1.0,1.0,10.00
2024-10-11 20:21:49.997,1.5715742,0.46738505,0.98828673,0.5539524,1.0243735,0.22822689,0.6038874,0.38794512,0.6387164,0.16016136,0.27451426,0.036071938,0.7155285,0.17179109,0.062032007,0.4736415,0.28160375,0.0140560195,-0.12295059,0.3680457,799.41394,808.2784,793.36993,791.3553,714.3956,-0.1912841796875,0.08709716796875,0.97979736328125,-5.45806884765625,-12.06756591796875,-0.979461669921875,1,1.0,1.0,1.0,1.0,10.00
2024-10-11 20:21:49.998,1.5715742,0.46738505,0.98828673,0.5539524,1.0243735,0.22822689,0.6038874,0.38794512,0.6387164,0.16016136,0.27451426,0.036071938,0.7155285,0.17179109,0.062032007,0.4736415,0.28160375,0.0140560195,-0.12295059,0.3680457,806.26373,803.44324,801.02563,799.011,861.06226,-0.1912841796875,0.08709716796875,0.97979736328125,-5.45806884765625,-12.06756591796875,-0.979461669921875,1,1.0,1.0,1.0,1.0,10.00
2024-10-11 20:21:49.998,1.5715742,0.46738505,0.98828673,0.5539524,1.0243735,0.22822689,0.6038874,0.38794512,0.6387164,0.16016136,0.27451426,0.036071938,0.7155285,0.17179109,0.062032007,0.4736415,0.28160375,0.0140560195,-0.12295059,0.3680457,810.293,806.6667,795.38464,789.7436,731.31866,-0.1912841796875,0.08709716796875,0.97979736328125,-5.45806884765625,-12.06756591796875,-0.979461669921875,1,1.0,1.0,1.0,1.0,10.00
2024-10-11 20:21:49.999,1.5715742,0.46738505,0.98828673,0.5539524,1.0243735,0.22822689,0.6038874,0.38794512,0.6387164,0.16016136,0.27451426,0.036071938,0.7155285,0.17179109,0.062032007,0.4736415,0.28160375,0.0140560195,-0.12295059,0.3680457,811.9048,807.0696,795.38464,788.5348,726.8865,-0.1912841796875,0.08709716796875,0.97979736328125,-5.45806884765625,-12.06756591796875,-0.979461669921875,1,1.0,1.0,1.0,1.0,10.00
2024-10-11 20:21:49.999,1.5715742,0.4662891,0.9896914,0.5539524,1.0243735,0.24859755,0.59811187,0.38794512,0.6387164,0.15987547,0.26157102,0.036071938,0.7155285,0.14799045,0.048333533,0.4736415,0.28160375,0.012190419,-0.08691119,0.3680457,817.9487,805.4579,800.2198,794.17584,719.2308,-0.1912841796875,0.08709716796875,0.97979736328125,-5.45806884765625,-12.06756591796875,-0.979461669921875,1,1.0,1.0,1.0,1.0,10.00
2024-10-11 20:21:50.003,1.5715742,0.4662891,0.9896914,0.5539524,1.0243735,0.24859755,0.59811187,0.38794512,0.6387164,0.15987547,0.26157102,0.036071938,0.7155285,0.14799045,0.048333533,0.4736415,0.28160375,0.012190419,-0.08691119,0.3680457,811.9048,799.81683,801.8315,790.9524,750.65936,-0.1912841796875,0.08709716796875,0.97979736328125,-5.45806884765625,-12.06756591796875,-0.979461669921875,1,1.0,1.0,1.0,1.0,10.00
2024-10-11 20:21:50.004,1.5715742,0.4662891,0.9896914,0.5539524,1.0243735,0.24859755,0.59811187,0.38794512,0.6387164,0.15987547,0.26157102,0.036071938,0.7155285,0.14799045,0.048333533,0.4736415,0.28160375,0.012190419,-0.08691119,0.3680457,811.9048,796.5934,805.05493,795.38464,723.663,-0.1912841796875,0.08709716796875,0.97979736328125,-5.45806884765625,-12.06756591796875,-0.979461669921875,1,1.0,1.0,1.0,1.0,10.00
2024-10-11 20:21:50.004,1.5715742,0.4662891,0.9896914,0.5539524,1.0243735,0.24859755,0.59811187,0.38794512,0.6387164,0.15987547,0.26157102,0.036071938,0.7155285,0.14799045,0.048333533,0.4736415,0.28160375,0.012190419,-0.08691119,0.3680457,810.293,792.1612,802.23444,794.17584,670.87915,-0.1912841796875,0.08709716796875,0.97979736328125,-5.45806884765625,-12.06756591796875,-0.979461669921875,1,1.0,1.0,1.0,1.0,10.00
2024-10-11 20:21:50.005,1.5715742,0.4662891,0.9896914,0.5539524,1.0243735,0.24859755,0.59811187,0.38794512,0.6387164,0.15987547,0.26157102,0.036071938,0.7155285,0.14799045,0.048333533,0.4736415,0.28160375,0.012190419,-0.08691119,0.3680457,795.78754,787.326,797.3993,786.1172,755.89746,-0.1912841796875,0.08709716796875,0.97979736328125,-5.45806884765625,-12.06756591796875,-0.979461669921875,1,1.0,1.0,1.0,1.0,10.00
2024-10-11 20:21:50.005,1.5715742,0.4662891,0.9896914,0.5539524,1.0243735,0.24859755,0.59811187,0.38794512,0.6387164,0.15987547,0.26157102,0.036071938,0.7155285,0.14799045,0.048333533,0.4736415,0.28160375,0.012190419,-0.08691119,0.3680457,798.20514,796.99634,798.20514,793.7729,674.10254,-0.1912841796875,0.08709716796875,0.97979736328125,-5.45806884765625,-12.06756591796875,-0.979461669921875,1,1.0,1.0,1.0,1.0,10.00
2024-10-11 20:21:50.006,1.5715742,0.4662891,0.9896914,0.5539524,1.0243735,0.24859755,0.59811187,0.38794512,0.6387164,0.15987547,0.26157102,0.036071938,0.7155285,0.14799045,0.048333533,0.4736415,0.28160375,0.012190419,-0.08691119,0.3680457,798.20514,801.02563,797.3993,799.41394,499.23077,-0.1912841796875,0.08709716796875,0.97979736328125,-5.45806884765625,-12.06756591796875,-0.979461669921875,1,1.0,1.0,1.0,1.0,10.00
2024-10-11 20:21:50.007,1.5715742,0.4662891,0.9896914,0.5539524,1.0243735,0.24859755,0.59811187,0.38794512,0.6387164,0.15987547,0.26157102,0.036071938,0.7155285,0.14799045,0.048333533,0.4736415,0.28160375,0.012190419,-0.08691119,0.3680457,793.36993,803.0403,798.60803,805.8608,579.41394,-0.18536376953125,0.08599853515625,0.9931640625,-5.12908935546875,-14.654541015625,-2.504730224609375,1,1.0,1.0,1.0,1.0,10.00
2024-10-11 20:21:50.008,1.5715742,0.4662891,0.9896914,0.5539524,1.0243735,0.24859755,0.59811187,0.38794512,0.6387164,0.15987547,0.26157102,0.036071938,0.7155285,0.14799045,0.048333533,0.4736415,0.28160375,0.012190419,-0.08691119,0.3680457,794.17584,805.8608,803.0403,810.293,748.24176,-0.18536376953125,0.08599853515625,0.9931640625,-5.12908935546875,-14.654541015625,-2.504730224609375,1,1.0,1.0,1.0,1.0,10.00
2024-10-11 20:21:50.008,1.5715742,0.4662891,0.9896914,0.5539524,1.0243735,0.24859755,0.59811187,0.38794512,0.6387164,0.15987547,0.26157102,0.036071938,0.7155285,0.14799045,0.048333533,0.4736415,0.28160375,0.012190419,-0.08691119,0.3680457,790.14655,805.05493,804.65204,803.8461,748.6447,-0.18536376953125,0.08599853515625,0.9931640625,-5.12908935546875,-14.654541015625,-2.504730224609375,1,1.0,1.0,1.0,1.0,10.00
2024-10-11 20:21:50.009,1.5715742,0.4662891,0.9896914,0.5539524,1.0243735,0.24859755,0.59811187,0.38794512,0.6387164,0.15987547,0.26157102,0.036071938,0.7155285,0.14799045,0.048333533,0.4736415,0.28160375,0.012190419,-0.08691119,0.3680457,792.1612,804.65204,807.0696,801.8315,647.9121,-0.18536376953125,0.08599853515625,0.9931640625,-5.12908935546875,-14.654541015625,-2.504730224609375,1,1.0,1.0,1.0,1.0,10.00
2024-10-11 20:21:50.010,1.5715742,0.4662891,0.9896914,0.5539524,1.0243735,0.24859755,0.59811187,0.38794512,0.6387164,0.15987547,0.26157102,0.036071938,0.7155285,0.14799045,0.048333533,0.4736415,0.28160375,0.012190419,-0.08691119,0.3680457,789.7436,796.99634,802.6374,798.20514,817.5458,-0.18536376953125,0.08599853515625,0.9931640625,-5.12908935546875,-14.654541015625,-2.504730224609375,1,1.0,1.0,1.0,1.0,10.00
2024-10-11 20:21:50.010,1.5715742,0.4662891,0.9896914,0.5539524,1.0243735,0.24859755,0.59811187,0.38794512,0.6387164,0.15987547,0.26157102,0.036071938,0.7155285,0.14799045,0.048333533,0.4736415,0.28160375,0.012190419,-0.08691119,0.3680457,785.31134,792.96704,800.6227,798.20514,1181.392,-0.18536376953125,0.08599853515625,0.9931640625,-5.12908935546875,-14.654541015625,-2.504730224609375,1,1.0,1.0,1.0,1.0,10.00
2024-10-11 20:21:50.011,1.5715742,0.4662891,0.9896914,0.5539524,1.0243735,0.24859755,0.59811187,0.38794512,0.6387164,0.15987547,0.26157102,0.036071938,0.7155285,0.14799045,0.048333533,0.4736415,0.28160375,0.012190419,-0.08691119,0.3680457,789.34064,797.3993,810.696,795.38464,1073.4066,-0.18536376953125,0.08599853515625,0.9931640625,-5.12908935546875,-14.654541015625,-2.504730224609375,1,1.0,1.0,1.0,1.0,10.00
2024-10-11 20:21:50.012,1.5715742,0.4662891,0.9896914,0.5539524,1.0243735,0.24859755,0.59811187,0.38794512,0.6387164,0.15987547,0.26157102,0.036071938,0.7155285,0.14799045,0.048333533,0.4736415,0.28160375,0.012190419,-0.08691119,0.3680457,788.93774,789.34064,806.6667,794.57874,732.52747,-0.18536376953125,0.08599853515625,0.9931640625,-5.12908935546875,-14.654541015625,-2.504730224609375,1,1.0,1.0,1.0,1.0,10.00
2024-10-11 20:21:50.013,1.5715742,0.4662891,0.9896914,0.5539524,1.0243735,0.24859755,0.59811187,0.38794512,0.6387164,0.15987547,0.26157102,0.036071938,0.7155285,0.14799045,0.048333533,0.4736415,0.28160375,0.012190419,-0.08691119,0.3680457,785.7143,787.326,802.6374,803.0403,803.0403,-0.18536376953125,0.08599853515625,0.9931640625,-5.12908935546875,-14.654541015625,-2.504730224609375,1,1.0,1.0,1.0,1.0,10.00
2024-10-11 20:21:50.013,1.5715742,0.4662891,0.9896914,0.5539524,1.0243735,0.24859755,0.59811187,0.38794512,0.6387164,0.15987547,0.26157102,0.036071938,0.7155285,0.14799045,0.048333533,0.4736415,0.28160375,0.012190419,-0.08691119,0.3680457,781.685,801.02563,805.4579,793.36993,930.7692,-0.18536376953125,0.08599853515625,0.9931640625,-5.12908935546875,-14.654541015625,-2.504730224609375,1,1.0,1.0,1.0,1.0,10.00
2024-10-11 20:21:50.014,1.5715742,0.4662891,0.9896914,0.5539524,1.0243735,0.24859755,0.59811187,0.38794512,0.6387164,0.15987547,0.26157102,0.036071938,0.7155285,0.14799045,0.048333533,0.4736415,0.28160375,0.012190419,-0.08691119,0.3680457,787.72894,797.8022,802.23444,788.1319,659.59705,-0.18536376953125,0.08599853515625,0.9931640625,-5.12908935546875,-14.654541015625,-2.504730224609375,1,1.0,1.0,1.0,1.0,10.00
2024-10-11 20:21:50.015,1.5715742,0.4662891,0.9896914,0.5539524,1.0243735,0.24859755,0.59811187,0.38794512,0.6387164,0.15987547,0.26157102,0.036071938,0.7155285,0.14799045,0.048333533,0.4736415,0.28160375,0.012190419,-0.08691119,0.3680457,794.57874,794.57874,802.6374,794.17584,489.56042,-0.18536376953125,0.08599853515625,0.9931640625,-5.12908935546875,-14.654541015625,-2.504730224609375,1,1.0,1.0,1.0,1.0,10.00
2024-10-11 20:21:50.064,1.5715742,0.4662891,0.9896914,0.5539524,1.0243735,0.24859755,0.59811187,0.38794512,0.6387164,0.15987547,0.26157102,0.036071938,0.7155285,0.14799045,0.048333533,0.4736415,0.28160375,0.012190419,-0.08691119,0.3680457,793.36993,802.23444,803.8461,795.78754,725.2747,-0.16204833984375,0.0792236328125,1.00054931640625,-5.495452880859375,-15.791015625,-5.345916748046875,1,1.0,1.0,1.0,1.0,10.00
2024-10-11 20:21:50.065,1.5715742,0.4662891,0.9896914,0.5539524,1.0243735,0.24859755,0.59811187,0.38794512,0.6387164,0.15987547,0.26157102,0.036071938,0.7155285,0.14799045,0.048333533,0.4736415,0.28160375,0.012190419,-0.08691119,0.3680457,794.17584,804.65204,790.54944,795.38464,860.65936,-0.16204833984375,0.0792236328125,1.00054931640625,-5.495452880859375,-15.791015625,-5.345916748046875,1,1.0,1.0,1.0,1.0,10.00
2024-10-11 20:21:50.066,1.5715742,0.4662891,0.9896914,0.5539524,1.0243735,0.24859755,0.59811187,0.38794512,0.6387164,0.15987547,0.26157102,0.036071938,0.7155285,0.14799045,0.048333533,0.4736415,0.28160375,0.012190419,-0.08691119,0.3680457,793.7729,809.4872,791.75824,786.52014,691.4286,-0.16204833984375,0.0792236328125,1.00054931640625,-5.495452880859375,-15.791015625,-5.345916748046875,1,1.0,1.0,1.0,1.0,10.00
2024-10-11 20:21:50.067,1.5715742,0.4662891,0.9896914,0.5539524,1.0243735,0.24859755,0.59811187,0.38794512,0.6387164,0.15987547,0.26157102,0.036071938,0.7155285,0.14799045,0.048333533,0.4736415,0.28160375,0.012190419,-0.08691119,0.3680457,796.5934,808.2784,804.2491,789.34064,633.4066,-0.16204833984375,0.0792236328125,1.00054931640625,-5.495452880859375,-15.791015625,-5.345916748046875,1,1.0,1.0,1.0,1.0,10.00
2024-10-11 20:21:50.067,1.5715742,0.4662891,0.9896914,0.5539524,1.0243735,0.24859755,0.59811187,0.38794512,0.6387164,0.15987547,0.26157102,0.036071938,0.7155285,0.14799045,0.048333533,0.4736415,0.28160375,0.012190419,-0.08691119,0.3680457,794.17584,805.05493,796.5934,795.38464,896.9231,-0.16204833984375,0.0792236328125,1.00054931640625,-5.495452880859375,-15.791015625,-5.345916748046875,1,1.0,1.0,1.0,1.0,10.00
2024-10-11 20:21:50.068,1.5715742,0.4662891,0.9896914,0.5539524,1.0243735,0.24859755,0.59811187,0.38794512,0.6387164,0.15987547,0.26157102,0.036071938,0.7155285,0.14799045,0.048333533,0.4736415,0.28160375,0.012190419,-0.08691119,0.3680457,789.7436,803.0403,793.7729,792.5641,1064.1392,-0.16204833984375,0.0792236328125,1.00054931640625,-5.495452880859375,-15.791015625,-5.345916748046875,1,1.0,1.0,1.0,1.0,10.00
2024-10-11 20:21:50.068,1.5715742,0.4662891,0.9896914,0.5539524,1.0243735,0.24859755,0.59811187,0.38794512,0.6387164,0.15987547,0.26157102,0.036071938,0.7155285,0.14799045,0.048333533,0.4736415,0.28160375,0.012190419,-0.08691119,0.3680457,795.78754,797.3993,803.44324,793.7729,843.3333,-0.16204833984375,0.0792236328125,1.00054931640625,-5.495452880859375,-15.791015625,-5.345916748046875,1,1.0,1.0,1.0,1.0,10.00
2024-10-11 20:21:50.069,1.5715742,0.4718752,0.9905167,0.5539524,1.0243735,0.2763202,0.59336954,0.38794512,0.6387164,0.16954377,0.25806352,0.036071938,0.7155285,0.113027245,0.053937558,0.4736415,0.28160375,0.017429503,-0.048185725,0.3680457,798.60803,802.6374,805.8608,794.9817,611.6484,-0.16204833984375,0.0792236328125,1.00054931640625,-5.495452880859375,-15.791015625,-5.345916748046875,1,1.0,1.0,1.0,1.0,10.00
2024-10-11 20:21:50.072,1.5715742,0.4718752,0.9905167,0.5539524,1.0243735,0.2763202,0.59336954,0.38794512,0.6387164,0.16954377,0.25806352,0.036071938,0.7155285,0.113027245,0.053937558,0.4736415,0.28160375,0.017429503,-0.048185725,0.3680457,800.6227,797.3993,801.8315,801.4286,726.08057,-0.16204833984375,0.0792236328125,1.00054931640625,-5.495452880859375,-15.791015625,-5.345916748046875,1,1.0,1.0,1.0,1.0,10.00
2024-10-11 20:21:50.073,1.5715742,0.4718752,0.9905167,0.5539524,1.0243735,0.2763202,0.59336954,0.38794512,0.6387164,0.16954377,0.25806352,0.036071938,0.7155285,0.113027245,0.053937558,0.4736415,0.28160375,0.017429503,-0.048185725,0.3680457,791.75824,788.1319,803.44324,811.9048,1336.9231,-0.16204833984375,0.0792236328125,1.00054931640625,-5.495452880859375,-15.791015625,-5.345916748046875,1,1.0,1.0,1.0,1.0,10.00
2024-10-11 20:21:50.073,1.5715742,0.4718752,0.9905167,0.5539524,1.0243735,0.2763202,0.59336954,0.38794512,0.6387164,0.16954377,0.25806352,0.036071938,0.7155285,0.113027245,0.053937558,0.4736415,0.28160375,0.017429503,-0.048185725,0.3680457,787.72894,791.3553,809.4872,806.26373,1041.5751,-0.16204833984375,0.0792236328125,1.00054931640625,-5.495452880859375,-15.791015625,-5.345916748046875,1,1.0,1.0,1.0,1.0,10.00
2024-10-11 20:21:50.074,1.5715742,0.4718752,0.9905167,0.5539524,1.0243735,0.2763202,0.59336954,0.38794512,0.6387164,0.16954377,0.25806352,0.036071938,0.7155285,0.113027245,0.053937558,0.4736415,0.28160375,0.017429503,-0.048185725,0.3680457,789.34064,791.3553,807.8755,799.81683,570.9524,-0.16204833984375,0.0792236328125,1.00054931640625,-5.495452880859375,-15.791015625,-5.345916748046875,1,1.0,1.0,1.0,1.0,10.00
2024-10-11 20:21:50.074,1.5715742,0.4718752,0.9905167,0.5539524,1.0243735,0.2763202,0.59336954,0.38794512,0.6387164,0.16954377,0.25806352,0.036071938,0.7155285,0.113027245,0.053937558,0.4736415,0.28160375,0.017429503,-0.048185725,0.3680457,780.87915,786.52014,796.1905,802.6374,594.3223,-0.1405029296875,0.06500244140625,1.00164794921875,-8.26934814453125,-16.456451416015625,-6.975860595703125,1,1.0,1.0,1.0,1.0,10.00
2024-10-11 20:21:50.075,1.5715742,0.4718752,0.9905167,0.5539524,1.0243735,0.2763202,0.59336954,0.38794512,0.6387164,0.16954377,0.25806352,0.036071938,0.7155285,0.113027245,0.053937558,0.4736415,0.28160375,0.017429503,-0.048185725,0.3680457,782.49084,790.14655,792.5641,806.6667,634.21246,-0.1405029296875,0.06500244140625,1.00164794921875,-8.26934814453125,-16.456451416015625,-6.975860595703125,1,1.0,1.0,1.0,1.0,10.00
2024-10-11 20:21:50.075,1.5715742,0.4718752,0.9905167,0.5539524,1.0243735,0.2763202,0.59336954,0.38794512,0.6387164,0.16954377,0.25806352,0.036071938,0.7155285,0.113027245,0.053937558,0.4736415,0.28160375,0.017429503,-0.048185725,0.3680457,786.1172,803.44324,796.5934,805.05493,628.5714,-0.1405029296875,0.06500244140625,1.00164794921875,-8.26934814453125,-16.456451416015625,-6.975860595703125,1,1.0,1.0,1.0,1.0,10.00
2024-10-11 20:21:50.076,1.5715742,0.4718752,0.9905167,0.5539524,1.0243735,0.2763202,0.59336954,0.38794512,0.6387164,0.16954377,0.25806352,0.036071938,0.7155285,0.113027245,0.053937558,0.4736415,0.28160375,0.017429503,-0.048185725,0.3680457,791.3553,803.44324,801.4286,809.89014,582.6374,-0.1405029296875,0.06500244140625,1.00164794921875,-8.26934814453125,-16.456451416015625,-6.975860595703125,1,1.0,1.0,1.0,1.0,10.00
2024-10-11 20:21:50.076,1.5715742,0.4718752,0.9905167,0.5539524,1.0243735,0.2763202,0.59336954,0.38794512,0.6387164,0.16954377,0.25806352,0.036071938,0.7155285,0.113027245,0.053937558,0.4736415,0.28160375,0.017429503,-0.048185725,0.3680457,793.7729,803.44324,808.68134,814.3223,609.6337,-0.1405029296875,0.06500244140625,1.00164794921875,-8.26934814453125,-16.456451416015625,-6.975860595703125,1,1.0,1.0,1.0,1.0,10.00
2024-10-11 20:21:50.077,1.5715742,0.4718752,0.9905167,0.5539524,1.0243735,0.2763202,0.59336954,0.38794512,0.6387164,0.16954377,0.25806352,0.036071938,0.7155285,0.113027245,0.053937558,0.4736415,0.28160375,0.017429503,-0.048185725,0.3680457,797.3993,801.8315,803.0403,816.7399,785.7143,-0.1405029296875,0.06500244140625,1.00164794921875,-8.26934814453125,-16.456451416015625,-6.975860595703125,1,1.0,1.0,1.0,1.0,10.00
2024-10-11 20:21:50.077,1.5715742,0.4718752,0.9905167,0.5539524,1.0243735,0.2763202,0.59336954,0.38794512,0.6387164,0.16954377,0.25806352,0.036071938,0.7155285,0.113027245,0.053937558,0.4736415,0.28160375,0.017429503,-0.048185725,0.3680457,802.23444,798.60803,802.6374,821.1722,844.94507,-0.1405029296875,0.06500244140625,1.00164794921875,-8.26934814453125,-16.456451416015625,-6.975860595703125,1,1.0,1.0,1.0,1.0,10.00
2024-10-11 20:21:50.078,1.5715742,0.4718752,0.9905167,0.5539524,1.0243735,0.2763202,0.59336954,0.38794512,0.6387164,0.16954377,0.25806352,0.036071938,0.7155285,0.113027245,0.053937558,0.4736415,0.28160375,0.017429503,-0.048185725,0.3680457,793.7729,797.8022,806.6667,811.9048,853.8095,-0.1405029296875,0.06500244140625,1.00164794921875,-8.26934814453125,-16.456451416015625,-6.975860595703125,1,1.0,1.0,1.0,1.0,10.00
2024-10-11 20:21:50.079,1.5715742,0.4718752,0.9905167,0.5539524,1.0243735,0.2763202,0.59336954,0.38794512,0.6387164,0.16954377,0.25806352,0.036071938,0.7155285,0.113027245,0.053937558,0.4736415,0.28160375,0.017429503,-0.048185725,0.3680457,803.44324,798.20514,803.44324,812.71063,846.1539,-0.1405029296875,0.06500244140625,1.00164794921875,-8.26934814453125,-16.456451416015625,-6.975860595703125,1,1.0,1.0,1.0,1.0,10.00
2024-10-11 20:21:50.079,1.5715742,0.4718752,0.9905167,0.5539524,1.0243735,0.2763202,0.59336954,0.38794512,0.6387164,0.16954377,0.25806352,0.036071938,0.7155285,0.113027245,0.053937558,0.4736415,0.28160375,0.017429503,-0.048185725,0.3680457,813.5165,791.75824,809.89014,821.1722,699.0842,-0.1405029296875,0.06500244140625,1.00164794921875,-8.26934814453125,-16.456451416015625,-6.975860595703125,1,1.0,1.0,1.0,1.0,10.00
2024-10-11 20:21:50.080,1.5715742,0.4718752,0.9905167,0.5539524,1.0243735,0.2763202,0.59336954,0.38794512,0.6387164,0.16954377,0.25806352,0.036071938,0.7155285,0.113027245,0.053937558,0.4736415,0.28160375,0.017429503,-0.048185725,0.3680457,783.2967,786.9231,811.50183,800.6227,679.7436,-0.1405029296875,0.06500244140625,1.00164794921875,-8.26934814453125,-16.456451416015625,-6.975860595703125,1,1.0,1.0,1.0,1.0,10.00
2024-10-11 20:21:50.081,1.5715742,0.4718752,0.9905167,0.5539524,1.0243735,0.2763202,0.59336954,0.38794512,0.6387164,0.16954377,0.25806352,0.036071938,0.7155285,0.113027245,0.053937558,0.4736415,0.28160375,0.017429503,-0.048185725,0.3680457,780.87915,796.99634,800.2198,800.6227,958.97437,-0.1405029296875,0.06500244140625,1.00164794921875,-8.26934814453125,-16.456451416015625,-6.975860595703125,1,1.0,1.0,1.0,1.0,10.00
2024-10-11 20:21:50.117,1.5715742,0.4718752,0.9905167,0.5539524,1.0243735,0.2763202,0.59336954,0.38794512,0.6387164,0.16954377,0.25806352,0.036071938,0.7155285,0.113027245,0.053937558,0.4736415,0.28160375,0.017429503,-0.048185725,0.3680457,797.8022,806.26373,796.99634,807.8755,1191.0623,-0.13531494140625,0.03399658203125,1.00421142578125,-10.938568115234375,-11.82830810546875,-6.8487548828125,1,1.0,1.0,1.0,1.0,10.00
2024-10-11 20:21:50.118,1.5715742,0.4718752,0.9905167,0.5539524,1.0243735,0.2763202,0.59336954,0.38794512,0.6387164,0.16954377,0.25806352,0.036071938,0.7155285,0.113027245,0.053937558,0.4736415,0.28160375,0.017429503,-0.048185725,0.3680457,790.54944,809.4872,798.20514,788.93774,822.7839,-0.13531494140625,0.03399658203125,1.00421142578125,-10.938568115234375,-11.82830810546875,-6.8487548828125,1,1.0,1.0,1.0,1.0,10.00
2024-10-11 20:21:50.119,1.5715742,0.4718752,0.9905167,0.5539524,1.0243735,0.2763202,0.59336954,0.38794512,0.6387164,0.16954377,0.25806352,0.036071938,0.7155285,0.113027245,0.053937558,0.4736415,0.28160375,0.017429503,-0.048185725,0.3680457,777.6557,802.23444,801.4286,784.5055,689.81683,-0.13531494140625,0.03399658203125,1.00421142578125,-10.938568115234375,-11.82830810546875,-6.8487548828125,1,1.0,1.0,1.0,1.0,10.00
2024-10-11 20:21:50.120,1.5715742,0.4718752,0.9905167,0.5539524,1.0243735,0.2763202,0.59336954,0.38794512,0.6387164,0.16954377,0.25806352,0.036071938,0.7155285,0.113027245,0.053937558,0.4736415,0.28160375,0.017429503,-0.048185725,0.3680457,772.4176,794.57874,801.02563,781.28204,864.2857,-0.13531494140625,0.03399658203125,1.00421142578125,-10.938568115234375,-11.82830810546875,-6.8487548828125,1,1.0,1.0,1.0,1.0,10.00
2024-10-11 20:21:50.121,1.5715742,0.4718752,0.9905167,0.5539524,1.0243735,0.2763202,0.59336954,0.38794512,0.6387164,0.16954377,0.25806352,0.036071938,0.7155285,0.113027245,0.053937558,0.4736415,0.28160375,0.017429503,-0.048185725,0.3680457,774.83514,799.011,794.9817,782.8938,886.04395,-0.13531494140625,0.03399658203125,1.00421142578125,-10.938568115234375,-11.82830810546875,-6.8487548828125,1,1.0,1.0,1.0,1.0,10.00
2024-10-11 20:21:50.122,1.5715742,0.4718752,0.9905167,0.5539524,1.0243735,0.2763202,0.59336954,0.38794512,0.6387164,0.16954377,0.25806352,0.036071938,0.7155285,0.113027245,0.053937558,0.4736415,0.28160375,0.017429503,-0.048185725,0.3680457,771.6117,793.7729,799.41394,783.2967,807.47253,-0.13531494140625,0.03399658203125,1.00421142578125,-10.938568115234375,-11.82830810546875,-6.8487548828125,1,1.0,1.0,1.0,1.0,10.00
2024-10-11 20:21:50.123,1.5715742,0.4718752,0.9905167,0.5539524,1.0243735,0.2763202,0.59336954,0.38794512,0.6387164,0.16954377,0.25806352,0.036071938,0.7155285,0.113027245,0.053937558,0.4736415,0.28160375,0.017429503,-0.048185725,0.3680457,779.2674,794.57874,801.8315,788.1319,853.4066,-0.13531494140625,0.03399658203125,1.00421142578125,-10.938568115234375,-11.82830810546875,-6.8487548828125,1,1.0,1.0,1.0,1.0,10.00
2024-10-11 20:21:50.123,1.5715742,0.4718752,0.9905167,0.5539524,1.0243735,0.2763202,0.59336954,0.38794512,0.6387164,0.16954377,0.25806352,0.036071938,0.7155285,0.113027245,0.053937558,0.4736415,0.28160375,0.017429503,-0.048185725,0.3680457,784.90845,804.2491,805.4579,803.44324,1033.1135,-0.13531494140625,0.03399658203125,1.00421142578125,-10.938568115234375,-11.82830810546875,-6.8487548828125,1,1.0,1.0,1.0,1.0,10.00
2024-10-11 20:21:50.124,1.5715742,0.4718752,0.9905167,0.5539524,1.0243735,0.2763202,0.59336954,0.38794512,0.6387164,0.16954377,0.25806352,0.036071938,0.7155285,0.113027245,0.053937558,0.4736415,0.28160375,0.017429503,-0.048185725,0.3680457,784.10254,800.6227,809.89014,810.293,1280.5128,-0.13531494140625,0.03399658203125,1.00421142578125,-10.938568115234375,-11.82830810546875,-6.8487548828125,1,1.0,1.0,1.0,1.0,10.00
2024-10-11 20:21:50.125,0.8292138,0.45457116,0.9814944,0.46617717,0.9675642,0.2938419,0.58591795,0.7090813,0.8342141,0.18601447,0.2551912,0.81159097,0.41090128,0.091636725,0.08407944,0.28857103,-0.017785039,0.025926007,-0.011554846,-0.005354843,792.1612,798.20514,800.2198,803.44324,928.3516,-0.13531494140625,0.03399658203125,1.00421142578125,-10.938568115234375,-11.82830810546875,-6.8487548828125,1,1.0,1.0,1.0,1.0,10.00
2024-10-11 20:21:50.130,0.8292138,0.45457116,0.9814944,0.46617717,0.9675642,0.2938419,0.58591795,0.7090813,0.8342141,0.18601447,0.2551912,0.81159097,0.41090128,0.091636725,0.08407944,0.28857103,-0.017785039,0.025926007,-0.011554846,-0.005354843,790.54944,794.9817,794.9817,801.4286,701.0989,-0.13531494140625,0.03399658203125,1.00421142578125,-10.938568115234375,-11.82830810546875,-6.8487548828125,1,1.0,1.0,1.0,1.0,10.00
2024-10-11 20:21:50.131,0.8292138,0.45457116,0.9814944,0.46617717,0.9675642,0.2938419,0.58591795,0.7090813,0.8342141,0.18601447,0.2551912,0.81159097,0.41090128,0.091636725,0.08407944,0.28857103,-0.017785039,0.025926007,-0.011554846,-0.005354843,790.54944,798.60803,803.44324,803.44324,913.8461,-0.13531494140625,0.03399658203125,1.00421142578125,-10.938568115234375,-11.82830810546875,-6.8487548828125,1,1.0,1.0,1.0,1.0,10.00
2024-10-11 20:21:50.188,0.8292138,0.45457116,0.9814944,0.46617717,0.9675642,0.2938419,0.58591795,0.7090813,0.8342141,0.18601447,0.2551912,0.81159097,0.41090128,0.091636725,0.08407944,0.28857103,-0.017785039,0.025926007,-0.011554846,-0.005354843,792.96704,810.293,811.0989,805.4579,790.9524,-0.13531494140625,0.03399658203125,1.00421142578125,-10.938568115234375,-11.82830810546875,-6.8487548828125,1,1.0,1.0,1.0,1.0,10.00
2024-10-11 20:21:50.190,0.8292138,0.45457116,0.9814944,0.46617717,0.9675642,0.2938419,0.58591795,0.7090813,0.8342141,0.18601447,0.2551912,0.81159097,0.41090128,0.091636725,0.08407944,0.28857103,-0.017785039,0.025926007,-0.011554846,-0.005354843,784.90845,803.44324,803.8461,804.65204,623.3333,-0.13531494140625,0.03399658203125,1.00421142578125,-10.938568115234375,-11.82830810546875,-6.8487548828125,1,1.0,1.0,1.0,1.0,10.00
2024-10-11 20:21:50.190,0.8292138,0.45457116,0.9814944,0.46617717,0.9675642,0.2938419,0.58591795,0.7090813,0.8342141,0.18601447,0.2551912,0.81159097,0.41090128,0.091636725,0.08407944,0.28857103,-0.017785039,0.025926007,-0.011554846,-0.005354843,779.67035,793.7729,797.8022,803.0403,721.2454,-0.13531494140625,0.03399658203125,1.00421142578125,-10.938568115234375,-11.82830810546875,-6.8487548828125,1,1.0,1.0,1.0,1.0,10.00
2024-10-11 20:21:50.191,0.8292138,0.45457116,0.9814944,0.46617717,0.9675642,0.2938419,0.58591795,0.7090813,0.8342141,0.18601447,0.2551912,0.81159097,0.41090128,0.091636725,0.08407944,0.28857103,-0.017785039,0.025926007,-0.011554846,-0.005354843,786.52014,799.011,801.4286,804.65204,861.06226,-0.13531494140625,0.03399658203125,1.00421142578125,-10.938568115234375,-11.82830810546875,-6.8487548828125,1,1.0,1.0,1.0,1.0,10.00
2024-10-11 20:21:50.192,0.8292138,0.45457116,0.9814944,0.46617717,0.9675642,0.2938419,0.58591795,0.7090813,0.8342141,0.18601447,0.2551912,0.81159097,0.41090128,0.091636725,0.08407944,0.28857103,-0.017785039,0.025926007,-0.011554846,-0.005354843,792.1612,796.99634,809.0842,796.1905,704.7253,-0.13531494140625,0.03399658203125,1.00421142578125,-10.938568115234375,-11.82830810546875,-6.8487548828125,1,1.0,1.0,1.0,1.0,10.00
2024-10-11 20:21:50.192,0.8292138,0.45457116,0.9814944,0.46617717,0.9675642,0.2938419,0.58591795,0.7090813,0.8342141,0.18601447,0.2551912,0.81159097,0.41090128,0.091636725,0.08407944,0.28857103,-0.017785039,0.025926007,-0.011554846,-0.005354843,790.9524,796.1905,809.4872,793.36993,613.663,-0.13531494140625,0.03399658203125,1.00421142578125,-10.938568115234375,-11.82830810546875,-6.8487548828125,1,1.0,1.0,1.0,1.0,10.00
2024-10-11 20:21:50.193,0.8292138,0.45457116,0.9814944,0.46617717,0.9675642,0.2938419,0.58591795,0.7090813,0.8342141,0.18601447,0.2551912,0.81159097,0.41090128,0.091636725,0.08407944,0.28857103,-0.017785039,0.025926007,-0.011554846,-0.005354843,792.5641,799.81683,796.99634,801.02563,693.8461,-0.13531494140625,0.03399658203125,1.00421142578125,-10.938568115234375,-11.82830810546875,-6.8487548828125,1,1.0,1.0,1.0,1.0,10.00
2024-10-11 20:21:50.194,0.8292138,0.45457116,0.9814944,0.46617717,0.9675642,0.2938419,0.58591795,0.7090813,0.8342141,0.18601447,0.2551912,0.81159097,0.41090128,0.091636725,0.08407944,0.28857103,-0.017785039,0.025926007,-0.011554846,-0.005354843,792.1612,799.011,792.1612,801.8315,923.5165,-0.13531494140625,0.03399658203125,1.00421142578125,-10.938568115234375,-11.82830810546875,-6.8487548828125,1,1.0,1.0,1.0,1.0,10.00
2024-10-11 20:21:50.194,0.8292138,0.45457116,0.9814944,0.46617717,0.9675642,0.2938419,0.58591795,0.7090813,0.8342141,0.18601447,0.2551912,0.81159097,0.41090128,0.091636725,0.08407944,0.28857103,-0.017785039,0.025926007,-0.011554846,-0.005354843,794.17584,798.20514,797.3993,798.60803,840.10986,-0.13531494140625,0.03399658203125,1.00421142578125,-10.938568115234375,-11.82830810546875,-6.8487548828125,1,1.0,1.0,1.0,1.0,10.00
2024-10-11 20:21:50.195,0.8292138,0.45457116,0.9814944,0.46617717,0.9675642,0.2938419,0.58591795,0.7090813,0.8342141,0.18601447,0.2551912,0.81159097,0.41090128,0.091636725,0.08407944,0.28857103,-0.017785039,0.025926007,-0.011554846,-0.005354843,794.9817,796.5934,798.20514,795.78754,554.0293,-0.13531494140625,0.03399658203125,1.00421142578125,-10.938568115234375,-11.82830810546875,-6.8487548828125,1,1.0,1.0,1.0,1.0,10.00
2024-10-11 20:21:50.196,0.8292138,0.45457116,0.9814944,0.46617717,0.9675642,0.2938419,0.58591795,0.7090813,0.8342141,0.18601447,0.2551912,0.81159097,0.41090128,0.091636725,0.08407944,0.28857103,-0.017785039,0.025926007,-0.011554846,-0.005354843,800.6227,794.9817,796.99634,796.99634,660.0,-0.13531494140625,0.03399658203125,1.00421142578125,-10.938568115234375,-11.82830810546875,-6.8487548828125,1,1.0,1.0,1.0,1.0,10.00
2024-10-11 20:21:50.197,0.8292138,0.45457116,0.9814944,0.46617717,0.9675642,0.2938419,0.58591795,0.7090813,0.8342141,0.18601447,0.2551912,0.81159097,0.41090128,0.091636725,0.08407944,0.28857103,-0.017785039,0.025926007,-0.011554846,-0.005354843,799.81683,788.93774,798.20514,804.2491,831.2454,-0.13531494140625,0.03399658203125,1.00421142578125,-10.938568115234375,-11.82830810546875,-6.8487548828125,1,1.0,1.0,1.0,1.0,10.00
2024-10-11 20:21:50.287,0.8292138,0.45457116,0.9814944,0.46617717,0.9675642,0.2938419,0.58591795,0.7090813,0.8342141,0.18601447,0.2551912,0.81159097,0.41090128,0.091636725,0.08407944,0.28857103,-0.017785039,0.025926007,-0.011554846,-0.005354843,794.9817,792.1612,803.44324,797.8022,747.8388,-0.1378173828125,0.0146484375,0.9915771484375,-12.32177734375,-6.14593505859375,-5.12908935546875,1,1.0,1.0,1.0,1.0,10.00
2024-10-11 20:21:50.288,0.8292138,0.45457116,0.9814944,0.46617717,0.9675642,0.2938419,0.58591795,0.7090813,0.8342141,0.18601447,0.2551912,0.81159097,0.41090128,0.091636725,0.08407944,0.28857103,-0.017785039,0.025926007,-0.011554846,-0.005354843,798.20514,805.8608,805.8608,792.96704,745.82416,-0.1378173828125,0.0146484375,0.9915771484375,-12.32177734375,-6.14593505859375,-5.12908935546875,1,1.0,1.0,1.0,1.0,10.00
2024-10-11 20:21:50.289,0.8292138,0.45457116,0.9814944,0.46617717,0.9675642,0.2938419,0.58591795,0.7090813,0.8342141,0.18601447,0.2551912,0.81159097,0.41090128,0.091636725,0.08407944,0.28857103,-0.017785039,0.025926007,-0.011554846,-0.005354843,796.99634,800.6227,801.02563,796.99634,799.011,-0.1378173828125,0.0146484375,0.9915771484375,-12.32177734375,-6.14593505859375,-5.12908935546875,1,1.0,1.0,1.0,1.0,10.00
2024-10-11 20:21:50.290,0.8292138,0.45457116,0.9814944,0.46617717,0.9675642,0.2938419,0.58591795,0.7090813,0.8342141,0.18601447,0.2551912,0.81159097,0.41090128,0.091636725,0.08407944,0.28857103,-0.017785039,0.025926007,-0.011554846,-0.005354843,794.17584,790.54944,796.1905,800.2198,742.1978,-0.1378173828125,0.0146484375,0.9915771484375,-12.32177734375,-6.14593505859375,-5.12908935546875,1,1.0,1.0,1.0,1.0,10.00
2024-10-11 20:21:50.290,0.8292138,0.45457116,0.9814944,0.46617717,0.9675642,0.2938419,0.58591795,0.7090813,0.8342141,0.18601447,0.2551912,0.81159097,0.41090128,0.091636725,0.08407944,0.28857103,-0.017785039,0.025926007,-0.011554846,-0.005354843,793.7729,794.9817,801.02563,800.6227,658.7912,-0.1378173828125,0.0146484375,0.9915771484375,-12.32177734375,-6.14593505859375,-5.12908935546875,1,1.0,1.0,1.0,1.0,10.00
2024-10-11 20:21:50.291,0.8292138,0.45457116,0.9814944,0.46617717,0.9675642,0.2938419,0.58591795,0.7090813,0.8342141,0.18601447,0.2551912,0.81159097,0.41090128,0.091636725,0.08407944,0.28857103,-0.017785039,0.025926007,-0.011554846,-0.005354843,792.96704,798.60803,804.2491,806.26373,855.0183,-0.1378173828125,0.0146484375,0.9915771484375,-12.32177734375,-6.14593505859375,-5.12908935546875,1,1.0,1.0,1.0,1.0,10.00
2024-10-11 20:21:50.292,0.8292138,0.45457116,0.9814944,0.46617717,0.9675642,0.2938419,0.58591795,0.7090813,0.8342141,0.18601447,0.2551912,0.81159097,0.41090128,0.091636725,0.08407944,0.28857103,-0.017785039,0.025926007,-0.011554846,-0.005354843,789.7436,788.1319,799.81683,807.8755,1033.9194,-0.1378173828125,0.0146484375,0.9915771484375,-12.32177734375,-6.14593505859375,-5.12908935546875,1,1.0,1.0,1.0,1.0,10.00
2024-10-11 20:21:50.292,0.8292138,0.45457116,0.9814944,0.46617717,0.9675642,0.2938419,0.58591795,0.7090813,0.8342141,0.18601447,0.2551912,0.81159097,0.41090128,0.091636725,0.08407944,0.28857103,-0.017785039,0.025926007,-0.011554846,-0.005354843,786.52014,789.7436,801.8315,799.41394,830.4396,-0.1378173828125,0.0146484375,0.9915771484375,-12.32177734375,-6.14593505859375,-5.12908935546875,1,1.0,1.0,1.0,1.0,10.00
2024-10-11 20:21:50.293,0.8292138,0.45457116,0.9814944,0.46617717,0.9675642,0.2938419,0.58591795,0.7090813,0.8342141,0.18601447,0.2551912,0.81159097,0.41090128,0.091636725,0.08407944,0.28857103,-0.017785039,0.025926007,-0.011554846,-0.005354843,785.7143,797.8022,800.6227,804.2491,638.24176,-0.1378173828125,0.0146484375,0.9915771484375,-12.32177734375,-6.14593505859375,-5.12908935546875,1,1.0,1.0,1.0,1.0,10.00
2024-10-11 20:21:50.294,0.8292138,0.45457116,0.9814944,0.46617717,0.9675642,0.2938419,0.58591795,0.7090813,0.8342141,0.18601447,0.2551912,0.81159097,0.41090128,0.091636725,0.08407944,0.28857103,-0.017785039,0.025926007,-0.011554846,-0.005354843,782.8938,796.1905,802.6374,810.696,682.1612,-0.1378173828125,0.0146484375,0.9915771484375,-12.32177734375,-6.14593505859375,-5.12908935546875,1,1.0,1.0,1.0,1.0,10.00
2024-10-11 20:21:50.294,0.8292138,0.45457116,0.9814944,0.46617717,0.9675642,0.2938419,0.58591795,0.7090813,0.8342141,0.18601447,0.2551912,0.81159097,0.41090128,0.091636725,0.08407944,0.28857103,-0.017785039,0.025926007,-0.011554846,-0.005354843,785.7143,799.011,809.4872,808.68134,846.9597,-0.1378173828125,0.0146484375,0.9915771484375,-12.32177734375,-6.14593505859375,-5.12908935546875,1,1.0,1.0,1.0,1.0,10.00
2024-10-11 20:21:50.295,0.80882895,0.37801334,0.9611355,0.59747154,1.00889,0.25054067,0.5600497,0.79922163,0.8736764,0.19233549,0.28362525,0.9639362,0.48222363,0.10428872,0.13173619,0.33491433,-0.024303645,0.028263507,0.021839023,-0.024055956,792.96704,797.3993,802.23444,801.02563,772.01465,-0.1378173828125,0.0146484375,0.9915771484375,-12.32177734375,-6.14593505859375,-5.12908935546875,1,1.0,1.0,1.0,1.0,10.00
2024-10-11 20:21:50.301,0.80882895,0.37801334,0.9611355,0.59747154,1.00889,0.25054067,0.5600497,0.79922163,0.8736764,0.19233549,0.28362525,0.9639362,0.48222363,0.10428872,0.13173619,0.33491433,-0.024303645,0.028263507,0.021839023,-0.024055956,793.7729,797.8022,792.96704,796.1905,633.4066,-0.1387939453125,-0.00164794921875,0.98211669921875,-10.699310302734375,-3.7384033203125,-2.70660400390625,1,1.0,1.0,1.0,1.0,10.00
2024-10-11 20:21:50.302,0.80882895,0.37801334,0.9611355,0.59747154,1.00889,0.25054067,0.5600497,0.79922163,0.8736764,0.19233549,0.28362525,0.9639362,0.48222363,0.10428872,0.13173619,0.33491433,-0.024303645,0.028263507,0.021839023,-0.024055956,793.36993,800.2198,790.9524,801.8315,644.2857,-0.1387939453125,-0.00164794921875,0.98211669921875,-10.699310302734375,-3.7384033203125,-2.70660400390625,1,1.0,1.0,1.0,1.0,10.00
2024-10-11 20:21:50.303,0.80882895,0.37801334,0.9611355,0.59747154,1.00889,0.25054067,0.5600497,0.79922163,0.8736764,0.19233549,0.28362525,0.9639362,0.48222363,0.10428872,0.13173619,0.33491433,-0.024303645,0.028263507,0.021839023,-0.024055956,794.9817,795.78754,786.52014,805.4579,725.2747,-0.1387939453125,-0.00164794921875,0.98211669921875,-10.699310302734375,-3.7384033203125,-2.70660400390625,1,1.0,1.0,1.0,1.0,10.00
2024-10-11 20:21:50.303,0.80882895,0.37801334,0.9611355,0.59747154,1.00889,0.25054067,0.5600497,0.79922163,0.8736764,0.19233549,0.28362525,0.9639362,0.48222363,0.10428872,0.13173619,0.33491433,-0.024303645,0.028263507,0.021839023,-0.024055956,799.011,798.20514,788.93774,801.8315,660.40295,-0.1387939453125,-0.00164794921875,0.98211669921875,-10.699310302734375,-3.7384033203125,-2.70660400390625,1,1.0,1.0,1.0,1.0,10.00
2024-10-11 20:21:50.304,0.80882895,0.37801334,0.9611355,0.59747154,1.00889,0.25054067,0.5600497,0.79922163,0.8736764,0.19233549,0.28362525,0.9639362,0.48222363,0.10428872,0.13173619,0.33491433,-0.024303645,0.028263507,0.021839023,-0.024055956,803.8461,799.81683,794.9817,803.8461,577.3993,-0.1387939453125,-0.00164794921875,0.98211669921875,-10.699310302734375,-3.7384033203125,-2.70660400390625,1,1.0,1.0,1.0,1.0,10.00
2024-10-11 20:21:50.305,0.80882895,0.37801334,0.9611355,0.59747154,1.00889,0.25054067,0.5600497,0.79922163,0.8736764,0.19233549,0.28362525,0.9639362,0.48222363,0.10428872,0.13173619,0.33491433,-0.024303645,0.028263507,0.021839023,-0.024055956,803.0403,797.8022,794.9817,805.8608,819.9634,-0.1387939453125,-0.00164794921875,0.98211669921875,-10.699310302734375,-3.7384033203125,-2.70660400390625,1,1.0,1.0,1.0,1.0,10.00
2024-10-11 20:21:50.306,0.80882895,0.37801334,0.9611355,0.59747154,1.00889,0.25054067,0.5600497,0.79922163,0.8736764,0.19233549,0.28362525,0.9639362,0.48222363,0.10428872,0.13173619,0.33491433,-0.024303645,0.028263507,0.021839023,-0.024055956,800.2198,790.54944,802.23444,805.8608,1052.0513,-0.1387939453125,-0.00164794921875,0.98211669921875,-10.699310302734375,-3.7384033203125,-2.70660400390625,1,1.0,1.0,1.0,1.0,10.00
2024-10-11 20:21:50.306,0.80882895,0.37801334,0.9611355,0.59747154,1.00889,0.25054067,0.5600497,0.79922163,0.8736764,0.19233549,0.28362525,0.9639362,0.48222363,0.10428872,0.13173619,0.33491433,-0.024303645,0.028263507,0.021839023,-0.024055956,805.05493,794.9817,803.8461,807.0696,817.1429,-0.1387939453125,-0.00164794921875,0.98211669921875,-10.699310302734375,-3.7384033203125,-2.70660400390625,1,1.0,1.0,1.0,1.0,10.00
2024-10-11 20:21:50.307,0.80882895,0.37801334,0.9611355,0.59747154,1.00889,0.25054067,0.5600497,0.79922163,0.8736764,0.19233549,0.28362525,0.9639362,0.48222363,0.10428872,0.13173619,0.33491433,-0.024303645,0.028263507,0.021839023,-0.024055956,813.5165,806.6667,803.44324,813.91943,713.5897,-0.1387939453125,-0.00164794921875,0.98211669921875,-10.699310302734375,-3.7384033203125,-2.70660400390625,1,1.0,1.0,1.0,1.0,10.00
2024-10-11 20:21:50.308,0.80882895,0.37801334,0.9611355,0.59747154,1.00889,0.25054067,0.5600497,0.79922163,0.8736764,0.19233549,0.28362525,0.9639362,0.48222363,0.10428872,0.13173619,0.33491433,-0.024303645,0.028263507,0.021839023,-0.024055956,807.8755,801.4286,807.0696,817.9487,935.2015,-0.1387939453125,-0.00164794921875,0.98211669921875,-10.699310302734375,-3.7384033203125,-2.70660400390625,1,1.0,1.0,1.0,1.0,10.00
2024-10-11 20:21:50.309,0.80882895,0.37801334,0.9611355,0.59747154,1.00889,0.25054067,0.5600497,0.79922163,0.8736764,0.19233549,0.28362525,0.9639362,0.48222363,0.10428872,0.13173619,0.33491433,-0.024303645,0.028263507,0.021839023,-0.024055956,794.17584,798.60803,809.89014,808.2784,937.619,-0.1387939453125,-0.00164794921875,0.98211669921875,-10.699310302734375,-3.7384033203125,-2.70660400390625,1,1.0,1.0,1.0,1.0,10.00
2024-10-11 20:21:50.309,0.80882895,0.37801334,0.9611355,0.59747154,1.00889,0.25054067,0.5600497,0.79922163,0.8736764,0.19233549,0.28362525,0.9639362,0.48222363,0.10428872,0.13173619,0.33491433,-0.024303645,0.028263507,0.021839023,-0.024055956,787.72894,798.60803,806.26373,801.8315,653.95605,-0.1387939453125,-0.00164794921875,0.98211669921875,-10.699310302734375,-3.7384033203125,-2.70660400390625,1,1.0,1.0,1.0,1.0,10.00
2024-10-11 20:21:50.339,0.80882895,0.37801334,0.9611355,0.59747154,1.00889,0.25054067,0.5600497,0.79922163,0.8736764,0.19233549,0.28362525,0.9639362,0.48222363,0.10428872,0.13173619,0.33491433,-0.024303645,0.028263507,0.021839023,-0.024055956,790.14655,796.99634,797.8022,805.05493,600.3663,-0.12908935546875,-0.01116943359375,0.9844970703125,-6.7291259765625,-5.749664306640625,0.34393310546875,1,1.0,1.0,1.0,1.0,10.00
2024-10-11 20:21:50.340,0.80882895,0.37801334,0.9611355,0.59747154,1.00889,0.25054067,0.5600497,0.79922163,0.8736764,0.19233549,0.28362525,0.9639362,0.48222363,0.10428872,0.13173619,0.33491433,-0.024303645,0.028263507,0.021839023,-0.024055956,794.17584,798.60803,800.2198,811.9048,805.05493,-0.12908935546875,-0.01116943359375,0.9844970703125,-6.7291259765625,-5.749664306640625,0.34393310546875,1,1.0,1.0,1.0,1.0,10.00
2024-10-11 20:21:50.341,0.80882895,0.37801334,0.9611355,0.59747154,1.00889,0.25054067,0.5600497,0.79922163,0.8736764,0.19233549,0.28362525,0.9639362,0.48222363,0.10428872,0.13173619,0.33491433,-0.024303645,0.028263507,0.021839023,-0.024055956,790.9524,801.4286,801.4286,811.50183,764.7619,-0.12908935546875,-0.01116943359375,0.9844970703125,-6.7291259765625,-5.749664306640625,0.34393310546875,1,1.0,1.0,1.0,1.0,10.00
2024-10-11 20:21:50.341,0.80882895,0.37801334,0.9611355,0.59747154,1.00889,0.25054067,0.5600497,0.79922163,0.8736764,0.19233549,0.28362525,0.9639362,0.48222363,0.10428872,0.13173619,0.33491433,-0.024303645,0.028263507,0.021839023,-0.024055956,797.3993,803.44324,805.8608,811.9048,626.1539,-0.12908935546875,-0.01116943359375,0.9844970703125,-6.7291259765625,-5.749664306640625,0.34393310546875,1,1.0,1.0,1.0,1.0,10.00
2024-10-11 20:21:50.342,0.80882895,0.37801334,0.9611355,0.59747154,1.00889,0.25054067,0.5600497,0.79922163,0.8736764,0.19233549,0.28362525,0.9639362,0.48222363,0.10428872,0.13173619,0.33491433,-0.024303645,0.028263507,0.021839023,-0.024055956,801.02563,802.23444,811.50183,811.9048,662.4176,-0.12908935546875,-0.01116943359375,0.9844970703125,-6.7291259765625,-5.749664306640625,0.34393310546875,1,1.0,1.0,1.0,1.0,10.00
2024-10-11 20:21:50.343,0.80882895,0.37801334,0.9611355,0.59747154,1.00889,0.25054067,0.5600497,0.79922163,0.8736764,0.19233549,0.28362525,0.9639362,0.48222363,0.10428872,0.13173619,0.33491433,-0.024303645,0.028263507,0.021839023,-0.024055956,798.60803,794.17584,805.4579,812.3077,1008.5348,-0.12908935546875,-0.01116943359375,0.9844970703125,-6.7291259765625,-5.749664306640625,0.34393310546875,1,1.0,1.0,1.0,1.0,10.00
2024-10-11 20:21:50.343,0.80882895,0.37801334,0.9611355,0.59747154,1.00889,0.25054067,0.5600497,0.79922163,0.8736764,0.19233549,0.28362525,0.9639362,0.48222363,0.10428872,0.13173619,0.33491433,-0.024303645,0.028263507,0.021839023,-0.024055956,799.011,797.8022,807.0696,817.9487,1173.7362,-0.12908935546875,-0.01116943359375,0.9844970703125,-6.7291259765625,-5.749664306640625,0.34393310546875,1,1.0,1.0,1.0,1.0,10.00
2024-10-11 20:21:50.344,0.80882895,0.37801334,0.9611355,0.59747154,1.00889,0.25054067,0.5600497,0.79922163,0.8736764,0.19233549,0.28362525,0.9639362,0.48222363,0.10428872,0.13173619,0.33491433,-0.024303645,0.028263507,0.021839023,-0.024055956,796.1905,805.05493,808.68134,814.3223,830.84247,-0.12908935546875,-0.01116943359375,0.9844970703125,-6.7291259765625,-5.749664306640625,0.34393310546875,1,1.0,1.0,1.0,1.0,10.00
2024-10-11 20:21:50.345,0.80882895,0.37801334,0.9611355,0.59747154,1.00889,0.25054067,0.5600497,0.79922163,0.8736764,0.19233549,0.28362525,0.9639362,0.48222363,0.10428872,0.13173619,0.33491433,-0.024303645,0.028263507,0.021839023,-0.024055956,790.54944,803.8461,808.68134,810.696,655.9707,-0.12908935546875,-0.01116943359375,0.9844970703125,-6.7291259765625,-5.749664306640625,0.34393310546875,1,1.0,1.0,1.0,1.0,10.00
2024-10-11 20:21:50.345,0.80882895,0.37801334,0.9611355,0.59747154,1.00889,0.25054067,0.5600497,0.79922163,0.8736764,0.19233549,0.28362525,0.9639362,0.48222363,0.10428872,0.13173619,0.33491433,-0.024303645,0.028263507,0.021839023,-0.024055956,790.14655,801.4286,810.293,808.2784,802.23444,-0.12908935546875,-0.01116943359375,0.9844970703125,-6.7291259765625,-5.749664306640625,0.34393310546875,1,1.0,1.0,1.0,1.0,10.00
2024-10-11 20:21:50.346,0.80882895,0.37801334,0.9611355,0.59747154,1.00889,0.25054067,0.5600497,0.79922163,0.8736764,0.19233549,0.28362525,0.9639362,0.48222363,0.10428872,0.13173619,0.33491433,-0.024303645,0.028263507,0.021839023,-0.024055956,796.99634,796.5934,808.2784,809.4872,819.9634,-0.12908935546875,-0.01116943359375,0.9844970703125,-6.7291259765625,-5.749664306640625,0.34393310546875,1,1.0,1.0,1.0,1.0,10.00
2024-10-11 20:21:50.347,0.80882895,0.37801334,0.9611355,0.59747154,1.00889,0.25054067,0.5600497,0.79922163,0.8736764,0.19233549,0.28362525,0.9639362,0.48222363,0.10428872,0.13173619,0.33491433,-0.024303645,0.028263507,0.021839023,-0.024055956,801.8315,802.6374,807.0696,813.1135,700.696,-0.12908935546875,-0.01116943359375,0.9844970703125,-6.7291259765625,-5.749664306640625,0.34393310546875,1,1.0,1.0,1.0,1.0,10.00
2024-10-11 20:21:50.377,0.80882895,0.37801334,0.9611355,0.59747154,1.00889,0.25054067,0.5600497,0.79922163,0.8736764,0.19233549,0.28362525,0.9639362,0.48222363,0.10428872,0.13173619,0.33491433,-0.024303645,0.028263507,0.021839023,-0.024055956,799.41394,800.2198,798.20514,807.0696,583.44324,-0.13116455078125,-0.01348876953125,0.9974365234375,-4.4561767578125,-6.482391357421875,2.61688232421875,1,1.0,1.0,1.0,1.0,10.00
2024-10-11 20:21:50.378,0.7801826,-0.022408536,0.91205835,0.6971542,1.033934,-0.009338779,0.48696077,0.8561878,0.88251233,-0.07639068,0.3229673,1.0396465,0.53789335,0.14918569,0.18233263,0.37854812,-0.046513613,0.018556518,0.04978906,-0.045232173,800.2198,783.69965,799.81683,810.696,949.304,-0.13116455078125,-0.01348876953125,0.9974365234375,-4.4561767578125,-6.482391357421875,2.61688232421875,1,1.0,1.0,1.0,1.0,10.00
2024-10-11 20:21:50.385,0.7801826,-0.022408536,0.91205835,0.6971542,1.033934,-0.009338779,0.48696077,0.8561878,0.88251233,-0.07639068,0.3229673,1.0396465,0.53789335,0.14918569,0.18233263,0.37854812,-0.046513613,0.018556518,0.04978906,-0.045232173,805.05493,790.9524,805.05493,822.381,1346.5934,-0.13116455078125,-0.01348876953125,0.9974365234375,-4.4561767578125,-6.482391357421875,2.61688232421875,1,1.0,1.0,1.0,1.0,10.00
2024-10-11 20:21:50.385,0.7801826,-0.022408536,0.91205835,0.6971542,1.033934,-0.009338779,0.48696077,0.8561878,0.88251233,-0.07639068,0.3229673,1.0396465,0.53789335,0.14918569,0.18233263,0.37854812,-0.046513613,0.018556518,0.04978906,-0.045232173,801.4286,799.011,809.89014,812.71063,875.56775,-0.13116455078125,-0.01348876953125,0.9974365234375,-4.4561767578125,-6.482391357421875,2.61688232421875,1,1.0,1.0,1.0,1.0,10.00
2024-10-11 20:21:50.386,0.7801826,-0.022408536,0.91205835,0.6971542,1.033934,-0.009338779,0.48696077,0.8561878,0.88251233,-0.07639068,0.3229673,1.0396465,0.53789335,0.14918569,0.18233263,0.37854812,-0.046513613,0.018556518,0.04978906,-0.045232173,800.6227,792.1612,804.2491,807.8755,624.94507,-0.13116455078125,-0.01348876953125,0.9974365234375,-4.4561767578125,-6.482391357421875,2.61688232421875,1,1.0,1.0,1.0,1.0,10.00
2024-10-11 20:21:50.387,0.7801826,-0.022408536,0.91205835,0.6971542,1.033934,-0.009338779,0.48696077,0.8561878,0.88251233,-0.07639068,0.3229673,1.0396465,0.53789335,0.14918569,0.18233263,0.37854812,-0.046513613,0.018556518,0.04978906,-0.045232173,798.20514,791.75824,791.3553,813.91943,1067.7656,-0.13116455078125,-0.01348876953125,0.9974365234375,-4.4561767578125,-6.482391357421875,2.61688232421875,1,1.0,1.0,1.0,1.0,10.00
2024-10-11 20:21:50.388,0.7801826,-0.022408536,0.91205835,0.6971542,1.033934,-0.009338779,0.48696077,0.8561878,0.88251233,-0.07639068,0.3229673,1.0396465,0.53789335,0.14918569,0.18233263,0.37854812,-0.046513613,0.018556518,0.04978906,-0.045232173,799.011,793.7729,793.36993,819.5604,1074.2124,-0.13116455078125,-0.01348876953125,0.9974365234375,-4.4561767578125,-6.482391357421875,2.61688232421875,1,1.0,1.0,1.0,1.0,10.00
2024-10-11 20:21:50.388,0.7801826,-0.022408536,0.91205835,0.6971542,1.033934,-0.009338779,0.48696077,0.8561878,0.88251233,-0.07639068,0.3229673,1.0396465,0.53789335,0.14918569,0.18233263,0.37854812,-0.046513613,0.018556518,0.04978906,-0.045232173,791.75824,792.5641,798.60803,813.5165,675.31134,-0.13116455078125,-0.01348876953125,0.9974365234375,-4.4561767578125,-6.482391357421875,2.61688232421875,1,1.0,1.0,1.0,1.0,10.00
2024-10-11 20:21:50.389,0.7801826,-0.022408536,0.91205835,0.6971542,1.033934,-0.009338779,0.48696077,0.8561878,0.88251233,-0.07639068,0.3229673,1.0396465,0.53789335,0.14918569,0.18233263,0.37854812,-0.046513613,0.018556518,0.04978906,-0.045232173,781.685,782.0879,801.4286,804.65204,664.83514,-0.13116455078125,-0.01348876953125,0.9974365234375,-4.4561767578125,-6.482391357421875,2.61688232421875,1,1.0,1.0,1.0,1.0,10.00
2024-10-11 20:21:50.390,0.7801826,-0.022408536,0.91205835,0.6971542,1.033934,-0.009338779,0.48696077,0.8561878,0.88251233,-0.07639068,0.3229673,1.0396465,0.53789335,0.14918569,0.18233263,0.37854812,-0.046513613,0.018556518,0.04978906,-0.045232173,791.75824,784.5055,805.4579,804.2491,826.4103,-0.13116455078125,-0.01348876953125,0.9974365234375,-4.4561767578125,-6.482391357421875,2.61688232421875,1,1.0,1.0,1.0,1.0,10.00
2024-10-11 20:21:50.390,0.7801826,-0.022408536,0.91205835,0.6971542,1.033934,-0.009338779,0.48696077,0.8561878,0.88251233,-0.07639068,0.3229673,1.0396465,0.53789335,0.14918569,0.18233263,0.37854812,-0.046513613,0.018556518,0.04978906,-0.045232173,807.0696,788.93774,802.6374,803.8461,683.36993,-0.13116455078125,-0.01348876953125,0.9974365234375,-4.4561767578125,-6.482391357421875,2.61688232421875,1,1.0,1.0,1.0,1.0,10.00
2024-10-11 20:21:50.391,0.7801826,-0.022408536,0.91205835,0.6971542,1.033934,-0.009338779,0.48696077,0.8561878,0.88251233,-0.07639068,0.3229673,1.0396465,0.53789335,0.14918569,0.18233263,0.37854812,-0.046513613,0.018556518,0.04978906,-0.045232173,798.60803,782.0879,792.96704,798.20514,562.49084,-0.13116455078125,-0.01348876953125,0.9974365234375,-4.4561767578125,-6.482391357421875,2.61688232421875,1,1.0,1.0,1.0,1.0,10.00
2024-10-11 20:21:50.422,0.7801826,-0.022408536,0.91205835,0.6971542,1.033934,-0.009338779,0.48696077,0.8561878,0.88251233,-0.07639068,0.3229673,1.0396465,0.53789335,0.14918569,0.18233263,0.37854812,-0.046513613,0.018556518,0.04978906,-0.045232173,794.17584,789.7436,797.3993,795.78754,563.2967,-0.13262939453125,-0.0140380859375,1.01007080078125,-3.880462646484375,-5.196380615234375,3.521575927734375,1,1.0,1.0,1.0,1.0,10.00
2024-10-11 20:21:50.423,0.7801826,-0.022408536,0.91205835,0.6971542,1.033934,-0.009338779,0.48696077,0.8561878,0.88251233,-0.07639068,0.3229673,1.0396465,0.53789335,0.14918569,0.18233263,0.37854812,-0.046513613,0.018556518,0.04978906,-0.045232173,804.65204,796.1905,798.60803,798.60803,553.22345,-0.13262939453125,-0.0140380859375,1.01007080078125,-3.880462646484375,-5.196380615234375,3.521575927734375,1,1.0,1.0,1.0,1.0,10.00
2024-10-11 20:21:50.423,0.7801826,-0.022408536,0.91205835,0.6971542,1.033934,-0.009338779,0.48696077,0.8561878,0.88251233,-0.07639068,0.3229673,1.0396465,0.53789335,0.14918569,0.18233263,0.37854812,-0.046513613,0.018556518,0.04978906,-0.045232173,802.6374,787.326,793.7729,799.81683,672.0879,-0.13262939453125,-0.0140380859375,1.01007080078125,-3.880462646484375,-5.196380615234375,3.521575927734375,1,1.0,1.0,1.0,1.0,10.00
2024-10-11 20:21:50.424,0.7801826,-0.022408536,0.91205835,0.6971542,1.033934,-0.009338779,0.48696077,0.8561878,0.88251233,-0.07639068,0.3229673,1.0396465,0.53789335,0.14918569,0.18233263,0.37854812,-0.046513613,0.018556518,0.04978906,-0.045232173,800.2198,784.90845,799.011,804.2491,738.97437,-0.13262939453125,-0.0140380859375,1.01007080078125,-3.880462646484375,-5.196380615234375,3.521575927734375,1,1.0,1.0,1.0,1.0,10.00
2024-10-11 20:21:50.425,0.7801826,-0.022408536,0.91205835,0.6971542,1.033934,-0.009338779,0.48696077,0.8561878,0.88251233,-0.07639068,0.3229673,1.0396465,0.53789335,0.14918569,0.18233263,0.37854812,-0.046513613,0.018556518,0.04978906,-0.045232173,801.02563,794.17584,801.8315,801.4286,895.7143,-0.13262939453125,-0.0140380859375,1.01007080078125,-3.880462646484375,-5.196380615234375,3.521575927734375,1,1.0,1.0,1.0,1.0,10.00
2024-10-11 20:21:50.425,0.7801826,-0.022408536,0.91205835,0.6971542,1.033934,-0.009338779,0.48696077,0.8561878,0.88251233,-0.07639068,0.3229673,1.0396465,0.53789335,0.14918569,0.18233263,0.37854812,-0.046513613,0.018556518,0.04978906,-0.045232173,809.4872,799.41394,799.011,804.65204,942.0513,-0.13262939453125,-0.0140380859375,1.01007080078125,-3.880462646484375,-5.196380615234375,3.521575927734375,1,1.0,1.0,1.0,1.0,10.00
2024-10-11 20:21:50.426,0.7801826,-0.022408536,0.91205835,0.6971542,1.033934,-0.009338779,0.48696077,0.8561878,0.88251233,-0.07639068,0.3229673,1.0396465,0.53789335,0.14918569,0.18233263,0.37854812,-0.046513613,0.018556518,0.04978906,-0.045232173,807.47253,795.38464,797.3993,805.8608,812.3077,-0.13262939453125,-0.0140380859375,1.01007080078125,-3.880462646484375,-5.196380615234375,3.521575927734375,1,1.0,1.0,1.0,1.0,10.00
2024-10-11 20:21:50.427,0.7801826,-0.022408536,0.91205835,0.6971542,1.033934,-0.009338779,0.48696077,0.8561878,0.88251233,-0.07639068,0.3229673,1.0396465,0.53789335,0.14918569,0.18233263,0.37854812,-0.046513613,0.018556518,0.04978906,-0.045232173,800.2198,788.1319,796.5934,796.1905,825.2015,-0.13262939453125,-0.0140380859375,1.01007080078125,-3.880462646484375,-5.196380615234375,3.521575927734375,1,1.0,1.0,1.0,1.0,10.00
2024-10-11 20:21:50.428,0.7801826,-0.022408536,0.91205835,0.6971542,1.033934,-0.009338779,0.48696077,0.8561878,0.88251233,-0.07639068,0.3229673,1.0396465,0.53789335,0.14918569,0.18233263,0.37854812,-0.046513613,0.018556518,0.04978906,-0.045232173,803.0403,792.96704,793.36993,796.99634,918.68134,-0.13262939453125,-0.0140380859375,1.01007080078125,-3.880462646484375,-5.196380615234375,3.521575927734375,1,1.0,1.0,1.0,1.0,10.00
2024-10-11 20:21:50.428,0.7801826,-0.022408536,0.91205835,0.6971542,1.033934,-0.009338779,0.48696077,0.8561878,0.88251233,-0.07639068,0.3229673,1.0396465,0.53789335,0.14918569,0.18233263,0.37854812,-0.046513613,0.018556518,0.04978906,-0.045232173,804.2491,800.2198,797.8022,805.05493,931.5751,-0.13262939453125,-0.0140380859375,1.01007080078125,-3.880462646484375,-5.196380615234375,3.521575927734375,1,1.0,1.0,1.0,1.0,10.00
2024-10-11 20:21:50.429,0.7801826,-0.022408536,0.91205835,0.6971542,1.033934,-0.009338779,0.48696077,0.8561878,0.88251233,-0.07639068,0.3229673,1.0396465,0.53789335,0.14918569,0.18233263,0.37854812,-0.046513613,0.018556518,0.04978906,-0.045232173,804.2491,797.3993,797.8022,800.6227,755.89746,-0.13262939453125,-0.0140380859375,1.01007080078125,-3.880462646484375,-5.196380615234375,3.521575927734375,1,1.0,1.0,1.0,1.0,10.00
2024-10-11 20:21:50.430,0.7801826,-0.022408536,0.91205835,0.6971542,1.033934,-0.009338779,0.48696077,0.8561878,0.88251233,-0.07639068,0.3229673,1.0396465,0.53789335,0.14918569,0.18233263,0.37854812,-0.046513613,0.018556518,0.04978906,-0.045232173,798.60803,788.5348,799.011,802.23444,750.65936,-0.13262939453125,-0.0140380859375,1.01007080078125,-3.880462646484375,-5.196380615234375,3.521575927734375,1,1.0,1.0,1.0,1.0,10.00
2024-10-11 20:21:50.460,0.7801826,-0.022408536,0.91205835,0.6971542,1.033934,-0.009338779,0.48696077,0.8561878,0.88251233,-0.07639068,0.3229673,1.0396465,0.53789335,0.14918569,0.18233263,0.37854812,-0.046513613,0.018556518,0.04978906,-0.045232173,791.3553,790.54944,801.4286,800.6227,913.8461,-0.13262939453125,-0.0140380859375,1.01007080078125,-3.880462646484375,-5.196380615234375,3.521575927734375,1,1.0,1.0,1.0,1.0,10.00
2024-10-11 20:21:50.461,0.7801826,-0.022408536,0.91205835,0.6971542,1.033934,-0.009338779,0.48696077,0.8561878,0.88251233,-0.07639068,0.3229673,1.0396465,0.53789335,0.14918569,0.18233263,0.37854812,-0.046513613,0.018556518,0.04978906,-0.045232173,794.9817,802.6374,794.57874,795.38464,751.8681,-0.13262939453125,-0.0140380859375,1.01007080078125,-3.880462646484375,-5.196380615234375,3.521575927734375,1,1.0,1.0,1.0,1.0,10.00
2024-10-11 20:21:50.461,0.7801826,-0.022408536,0.91205835,0.6971542,1.033934,-0.009338779,0.48696077,0.8561878,0.88251233,-0.07639068,0.3229673,1.0396465,0.53789335,0.14918569,0.18233263,0.37854812,-0.046513613,0.018556518,0.04978906,-0.045232173,806.26373,802.6374,793.36993,795.78754,535.4945,-0.13262939453125,-0.0140380859375,1.01007080078125,-3.880462646484375,-5.196380615234375,3.521575927734375,1,1.0,1.0,1.0,1.0,10.00
2024-10-11 20:21:50.462,0.7506357,-0.034862455,0.8064121,0.748169,1.0374107,-0.043552108,0.33420268,0.8761028,0.8959406,-0.05581547,0.30786982,1.0480696,0.5731453,0.20512386,0.22476417,0.41161916,-0.0728804,-0.008593778,0.06771269,-0.06278183,807.0696,795.38464,800.6227,799.81683,662.4176,-0.13262939453125,-0.0140380859375,1.01007080078125,-3.880462646484375,-5.196380615234375,3.521575927734375,1,1.0,1.0,1.0,1.0,10.00
2024-10-11 20:21:50.469,0.7506357,-0.034862455,0.8064121,0.748169,1.0374107,-0.043552108,0.33420268,0.8761028,0.8959406,-0.05581547,0.30786982,1.0480696,0.5731453,0.20512386,0.22476417,0.41161916,-0.0728804,-0.008593778,0.06771269,-0.06278183,801.02563,798.20514,803.44324,800.2198,886.04395,-0.13262939453125,-0.0140380859375,1.01007080078125,-3.880462646484375,-5.196380615234375,3.521575927734375,1,1.0,1.0,1.0,1.0,10.00
2024-10-11 20:21:50.469,0.7506357,-0.034862455,0.8064121,0.748169,1.0374107,-0.043552108,0.33420268,0.8761028,0.8959406,-0.05581547,0.30786982,1.0480696,0.5731453,0.20512386,0.22476417,0.41161916,-0.0728804,-0.008593778,0.06771269,-0.06278183,795.38464,798.20514,795.38464,798.20514,879.19415,-0.13262939453125,-0.0140380859375,1.01007080078125,-3.880462646484375,-5.196380615234375,3.521575927734375,1,1.0,1.0,1.0,1.0,10.00
2024-10-11 20:21:50.470,0.7506357,-0.034862455,0.8064121,0.748169,1.0374107,-0.043552108,0.33420268,0.8761028,0.8959406,-0.05581547,0.30786982,1.0480696,0.5731453,0.20512386,0.22476417,0.41161916,-0.0728804,-0.008593778,0.06771269,-0.06278183,791.75824,796.99634,784.5055,792.96704,752.674,-0.13262939453125,-0.0140380859375,1.01007080078125,-3.880462646484375,-5.196380615234375,3.521575927734375,1,1.0,1.0,1.0,1.0,10.00
2024-10-11 20:21:50.471,0.7506357,-0.034862455,0.8064121,0.748169,1.0374107,-0.043552108,0.33420268,0.8761028,0.8959406,-0.05581547,0.30786982,1.0480696,0.5731453,0.20512386,0.22476417,0.41161916,-0.0728804,-0.008593778,0.06771269,-0.06278183,799.011,793.7729,784.90845,788.5348,868.315,-0.13262939453125,-0.0140380859375,1.01007080078125,-3.880462646484375,-5.196380615234375,3.521575927734375,1,1.0,1.0,1.0,1.0,10.00
2024-10-11 20:21:50.471,0.7506357,-0.034862455,0.8064121,0.748169,1.0374107,-0.043552108,0.33420268,0.8761028,0.8959406,-0.05581547,0.30786982,1.0480696,0.5731453,0.20512386,0.22476417,0.41161916,-0.0728804,-0.008593778,0.06771269,-0.06278183,807.47253,799.41394,800.6227,801.4286,883.6264,-0.13262939453125,-0.0140380859375,1.01007080078125,-3.880462646484375,-5.196380615234375,3.521575927734375,1,1.0,1.0,1.0,1.0,10.00
2024-10-11 20:21:50.472,0.7506357,-0.034862455,0.8064121,0.748169,1.0374107,-0.043552108,0.33420268,0.8761028,0.8959406,-0.05581547,0.30786982,1.0480696,0.5731453,0.20512386,0.22476417,0.41161916,-0.0728804,-0.008593778,0.06771269,-0.06278183,801.8315,797.3993,805.8608,801.4286,722.4542,-0.13262939453125,-0.0140380859375,1.01007080078125,-3.880462646484375,-5.196380615234375,3.521575927734375,1,1.0,1.0,1.0,1.0,10.00
2024-10-11 20:21:50.473,0.7506357,-0.034862455,0.8064121,0.748169,1.0374107,-0.043552108,0.33420268,0.8761028,0.8959406,-0.05581547,0.30786982,1.0480696,0.5731453,0.20512386,0.22476417,0.41161916,-0.0728804,-0.008593778,0.06771269,-0.06278183,802.6374,784.90845,804.2491,792.5641,678.5348,-0.13262939453125,-0.0140380859375,1.01007080078125,-3.880462646484375,-5.196380615234375,3.521575927734375,1,1.0,1.0,1.0,1.0,10.00
