TimeStamp,Delta_TP9,Delta_AF7,Delta_AF8,Delta_TP10,Theta_TP9,Theta_AF7,Theta_AF8,Theta_TP10,Alpha_TP9,Alpha_AF7,Alpha_AF8,Alpha_TP10,Beta_TP9,Beta_AF7,Beta_AF8,Beta_TP10,Gamma_TP9,Gamma_AF7,Gamma_AF8,Gamma_TP10,RAW_TP9,RAW_AF7,RAW_AF8,RAW_TP10,AUX_RIGHT,Accelerometer_X,Accelerometer_Y,Accelerometer_Z,Gyro_X,Gyro_Y,Gyro_Z,HeadBandOn,HSI_TP9,HSI_AF7,HSI_AF8,HSI_TP10,Battery,Elements
2024-10-11 20:09:00.251,0.50354975,0.11978345,-0.28656697,0.557818,0.45190707,-0.4484476,-0.34616053,0.33489305,0.6306019,-0.030409552,0.14348777,0.78422934,0.60609907,-0.25731984,-0.14850941,0.4838682,-0.16209294,-0.5344635,-0.6666966,-0.06912213,783.69965,791.75824,809.4872,790.9524,855.0183,-0.1632080078125,0.07550048828125,0.994873046875,0.441131591796875,-1.42059326171875,0.201873779296875,1,1.0,1.0,1.0,1.0,15.00
2024-10-11 20:09:00.253,0.49031016,0.050540097,-0.317363,0.55086035,0.403114,-0.42179868,-0.3739829,0.2599,0.62324584,-0.02771981,0.19589272,0.83790344,0.6099972,-0.259797,-0.13651718,0.4924247,-0.1957024,-0.55061245,-0.65870625,-0.0964321,794.57874,796.5934,817.5458,790.9524,647.1062,-0.1632080078125,0.07550048828125,0.994873046875,0.441131591796875,-1.42059326171875,0.201873779296875,1,1.0,1.0,1.0,1.0,15.00
2024-10-11 20:09:00.258,0.49031016,0.050540097,-0.317363,0.55086035,0.403114,-0.42179868,-0.3739829,0.2599,0.62324584,-0.02771981,0.19589272,0.83790344,0.6099972,-0.259797,-0.13651718,0.4924247,-0.1957024,-0.55061245,-0.65870625,-0.0964321,787.72894,798.20514,813.5165,796.5934,778.0586,-0.1632080078125,0.07550048828125,0.994873046875,0.441131591796875,-1.42059326171875,0.201873779296875,1,1.0,1.0,1.0,1.0,15.00
2024-10-11 20:09:00.259,0.49031016,0.050540097,-0.317363,0.55086035,0.403114,-0.42179868,-0.3739829,0.2599,0.62324584,-0.02771981,0.19589272,0.83790344,0.6099972,-0.259797,-0.13651718,0.4924247,-0.1957024,-0.55061245,-0.65870625,-0.0964321,774.43225,792.5641,805.4579,796.5934,923.5165,-0.1632080078125,0.07550048828125,0.994873046875,0.441131591796875,-1.42059326171875,0.201873779296875,1,1.0,1.0,1.0,1.0,15.00
2024-10-11 20:09:00.260,0.49031016,0.050540097,-0.317363,0.55086035,0.403114,-0.42179868,-0.3739829,0.2599,0.62324584,-0.02771981,0.19589272,0.83790344,0.6099972,-0.259797,-0.13651718,0.4924247,-0.1957024,-0.55061245,-0.65870625,-0.0964321,778.0586,793.36993,809.89014,793.36993,879.19415,-0.1632080078125,0.07550048828125,0.994873046875,0.441131591796875,-1.42059326171875,0.201873779296875,1,1.0,1.0,1.0,1.0,15.00
2024-10-11 20:09:00.261,0.49031016,0.050540097,-0.317363,0.55086035,0.403114,-0.42179868,-0.3739829,0.2599,0.62324584,-0.02771981,0.19589272,0.83790344,0.6099972,-0.259797,-0.13651718,0.4924247,-0.1957024,-0.55061245,-0.65870625,-0.0964321,786.1172,792.1612,809.89014,797.3993,902.96704,-0.1632080078125,0.07550048828125,0.994873046875,0.441131591796875,-1.42059326171875,0.201873779296875,1,1.0,1.0,1.0,1.0,15.00
2024-10-11 20:09:00.262,0.49031016,0.050540097,-0.317363,0.55086035,0.403114,-0.42179868,-0.3739829,0.2599,0.62324584,-0.02771981,0.19589272,0.83790344,0.6099972,-0.259797,-0.13651718,0.4924247,-0.1957024,-0.55061245,-0.65870625,-0.0964321,788.1319,791.3553,807.8755,799.011,960.989,-0.1632080078125,0.07550048828125,0.994873046875,0.441131591796875,-1.42059326171875,0.201873779296875,1,1.0,1.0,1.0,1.0,15.00
2024-10-11 20:09:00.263,0.49031016,0.050540097,-0.317363,0.55086035,0.403114,-0.42179868,-0.3739829,0.2599,0.62324584,-0.02771981,0.19589272,0.83790344,0.6099972,-0.259797,-0.13651718,0.4924247,-0.1957024,-0.55061245,-0.65870625,-0.0964321,796.99634,795.38464,811.9048,806.26373,994.43225,-0.1632080078125,0.07550048828125,0.994873046875,0.441131591796875,-1.42059326171875,0.201873779296875,1,1.0,1.0,1.0,1.0,15.00
2024-10-11 20:09:00.264,0.49031016,0.050540097,-0.317363,0.55086035,0.403114,-0.42179868,-0.3739829,0.2599,0.62324584,-0.02771981,0.19589272,0.83790344,0.6099972,-0.259797,-0.13651718,0.4924247,-0.1957024,-0.55061245,-0.65870625,-0.0964321,795.38464,797.3993,815.12823,809.89014,823.5897,-0.1632080078125,0.07550048828125,0.994873046875,0.441131591796875,-1.42059326171875,0.201873779296875,1,1.0,1.0,1.0,1.0,15.00
2024-10-11 20:09:00.265,0.49031016,0.050540097,-0.317363,0.55086035,0.403114,-0.42179868,-0.3739829,0.2599,0.62324584,-0.02771981,0.19589272,0.83790344,0.6099972,-0.259797,-0.13651718,0.4924247,-0.1957024,-0.55061245,-0.65870625,-0.0964321,791.75824,798.60803,812.71063,810.293,679.7436,-0.1632080078125,0.07550048828125,0.994873046875,0.441131591796875,-1.42059326171875,0.201873779296875,1,1.0,1.0,1.0,1.0,15.00
2024-10-11 20:09:00.265,0.49031016,0.050540097,-0.317363,0.55086035,0.403114,-0.42179868,-0.3739829,0.2599,0.62324584,-0.02771981,0.19589272,0.83790344,0.6099972,-0.259797,-0.13651718,0.4924247,-0.1957024,-0.55061245,-0.65870625,-0.0964321,792.1612,793.7729,810.696,810.696,783.69965,-0.1632080078125,0.07550048828125,0.994873046875,0.441131591796875,-1.42059326171875,0.201873779296875,1,1.0,1.0,1.0,1.0,15.00
2024-10-11 20:09:00.266,0.49031016,0.050540097,-0.317363,0.55086035,0.403114,-0.42179868,-0.3739829,0.2599,0.62324584,-0.02771981,0.19589272,0.83790344,0.6099972,-0.259797,-0.13651718,0.4924247,-0.1957024,-0.55061245,-0.65870625,-0.0964321,784.10254,786.9231,807.0696,806.6667,1007.326,-0.1632080078125,0.07550048828125,0.994873046875,0.441131591796875,-1.42059326171875,0.201873779296875,1,1.0,1.0,1.0,1.0,15.00
2024-10-11 20:09:00.346,0.49031016,0.050540097,-0.317363,0.55086035,0.403114,-0.42179868,-0.3739829,0.2599,0.62324584,-0.02771981,0.19589272,0.83790344,0.6099972,-0.259797,-0.13651718,0.4924247,-0.1957024,-0.55061245,-0.65870625,-0.0964321,778.46155,784.90845,800.6227,800.6227,850.989,-0.161376953125,0.079345703125,0.9937744140625,0.186920166015625,-0.396270751953125,0.157012939453125,1,1.0,1.0,1.0,1.0,15.00
2024-10-11 20:09:00.347,0.49031016,0.050540097,-0.317363,0.55086035,0.403114,-0.42179868,-0.3739829,0.2599,0.62324584,-0.02771981,0.19589272,0.83790344,0.6099972,-0.259797,-0.13651718,0.4924247,-0.1957024,-0.55061245,-0.65870625,-0.0964321,776.4469,786.1172,801.4286,797.8022,754.2857,-0.161376953125,0.079345703125,0.9937744140625,0.186920166015625,-0.396270751953125,0.157012939453125,1,1.0,1.0,1.0,1.0,15.00
2024-10-11 20:09:00.349,0.49031016,0.050540097,-0.317363,0.55086035,0.403114,-0.42179868,-0.3739829,0.2599,0.62324584,-0.02771981,0.19589272,0.83790344,0.6099972,-0.259797,-0.13651718,0.4924247,-0.1957024,-0.55061245,-0.65870625,-0.0964321,776.4469,786.52014,804.65204,800.6227,958.97437,-0.161376953125,0.079345703125,0.9937744140625,0.186920166015625,-0.396270751953125,0.157012939453125,1,1.0,1.0,1.0,1.0,15.00
2024-10-11 20:09:00.350,0.49031016,0.050540097,-0.317363,0.55086035,0.403114,-0.42179868,-0.3739829,0.2599,0.62324584,-0.02771981,0.19589272,0.83790344,0.6099972,-0.259797,-0.13651718,0.4924247,-0.1957024,-0.55061245,-0.65870625,-0.0964321,780.07324,789.7436,804.65204,802.6374,951.7216,-0.161376953125,0.079345703125,0.9937744140625,0.186920166015625,-0.396270751953125,0.157012939453125,1,1.0,1.0,1.0,1.0,15.00
2024-10-11 20:09:00.351,0.49031016,0.050540097,-0.317363,0.55086035,0.403114,-0.42179868,-0.3739829,0.2599,0.62324584,-0.02771981,0.19589272,0.83790344,0.6099972,-0.259797,-0.13651718,0.4924247,-0.1957024,-0.55061245,-0.65870625,-0.0964321,784.5055,792.1612,802.23444,797.8022,733.3333,-0.161376953125,0.079345703125,0.9937744140625,0.186920166015625,-0.396270751953125,0.157012939453125,1,1.0,1.0,1.0,1.0,15.00
2024-10-11 20:09:00.351,0.49031016,0.050540097,-0.317363,0.55086035,0.403114,-0.42179868,-0.3739829,0.2599,0.62324584,-0.02771981,0.19589272,0.83790344,0.6099972,-0.259797,-0.13651718,0.4924247,-0.1957024,-0.55061245,-0.65870625,-0.0964321,783.69965,788.93774,798.20514,792.1612,813.1135,-0.161376953125,0.079345703125,0.9937744140625,0.186920166015625,-0.396270751953125,0.157012939453125,1,1.0,1.0,1.0,1.0,15.00
2024-10-11 20:09:00.352,0.49031016,0.050540097,-0.317363,0.55086035,0.403114,-0.42179868,-0.3739829,0.2599,0.62324584,-0.02771981,0.19589272,0.83790344,0.6099972,-0.259797,-0.13651718,0.4924247,-0.1957024,-0.55061245,-0.65870625,-0.0964321,788.93774,789.7436,798.20514,797.8022,1091.5385,-0.161376953125,0.079345703125,0.9937744140625,0.186920166015625,-0.396270751953125,0.157012939453125,1,1.0,1.0,1.0,1.0,15.00
2024-10-11 20:09:00.353,0.49031016,0.050540097,-0.317363,0.55086035,0.403114,-0.42179868,-0.3739829,0.2599,0.62324584,-0.02771981,0.19589272,0.83790344,0.6099972,-0.259797,-0.13651718,0.4924247,-0.1957024,-0.55061245,-0.65870625,-0.0964321,798.60803,796.1905,796.1905,801.02563,982.74725,-0.161376953125,0.079345703125,0.9937744140625,0.186920166015625,-0.396270751953125,0.157012939453125,1,1.0,1.0,1.0,1.0,15.00
2024-10-11 20:09:00.354,0.49031016,0.050540097,-0.317363,0.55086035,0.403114,-0.42179868,-0.3739829,0.2599,0.62324584,-0.02771981,0.19589272,0.83790344,0.6099972,-0.259797,-0.13651718,0.4924247,-0.1957024,-0.55061245,-0.65870625,-0.0964321,801.4286,797.8022,795.38464,794.57874,684.9817,-0.161376953125,0.079345703125,0.9937744140625,0.186920166015625,-0.396270751953125,0.157012939453125,1,1.0,1.0,1.0,1.0,15.00
2024-10-11 20:09:00.355,0.49031016,0.050540097,-0.317363,0.55086035,0.403114,-0.42179868,-0.3739829,0.2599,0.62324584,-0.02771981,0.19589272,0.83790344,0.6099972,-0.259797,-0.13651718,0.4924247,-0.1957024,-0.55061245,-0.65870625,-0.0964321,796.5934,792.5641,796.5934,794.17584,623.3333,-0.161376953125,0.079345703125,0.9937744140625,0.186920166015625,-0.396270751953125,0.157012939453125,1,1.0,1.0,1.0,1.0,15.00
2024-10-11 20:09:00.356,0.49031016,0.050540097,-0.317363,0.55086035,0.403114,-0.42179868,-0.3739829,0.2599,0.62324584,-0.02771981,0.19589272,0.83790344,0.6099972,-0.259797,-0.13651718,0.4924247,-0.1957024,-0.55061245,-0.65870625,-0.0964321,800.2198,794.17584,797.8022,805.4579,887.25275,-0.161376953125,0.079345703125,0.9937744140625,0.186920166015625,-0.396270751953125,0.157012939453125,1,1.0,1.0,1.0,1.0,15.00
2024-10-11 20:09:00.357,0.49031016,0.050540097,-0.317363,0.55086035,0.403114,-0.42179868,-0.3739829,0.2599,0.62324584,-0.02771981,0.19589272,0.83790344,0.6099972,-0.259797,-0.13651718,0.4924247,-0.1957024,-0.55061245,-0.65870625,-0.0964321,804.2491,795.38464,802.6374,809.4872,980.32965,-0.161376953125,0.079345703125,0.9937744140625,0.186920166015625,-0.396270751953125,0.157012939453125,1,1.0,1.0,1.0,1.0,15.00
2024-10-11 20:09:00.409,0.49031016,0.050540097,-0.317363,0.55086035,0.403114,-0.42179868,-0.3739829,0.2599,0.62324584,-0.02771981,0.19589272,0.83790344,0.6099972,-0.259797,-0.13651718,0.4924247,-0.1957024,-0.55061245,-0.65870625,-0.0964321,794.9817,794.17584,805.8608,803.0403,837.6923,-0.161376953125,0.079345703125,0.9937744140625,0.186920166015625,-0.396270751953125,0.157012939453125,1,1.0,1.0,1.0,1.0,15.00
2024-10-11 20:09:00.410,0.49031016,0.050540097,-0.317363,0.55086035,0.403114,-0.42179868,-0.3739829,0.2599,0.62324584,-0.02771981,0.19589272,0.83790344,0.6099972,-0.259797,-0.13651718,0.4924247,-0.1957024,-0.55061245,-0.65870625,-0.0964321,788.93774,796.5934,805.05493,805.05493,824.7985,-0.161376953125,0.079345703125,0.9937744140625,0.186920166015625,-0.396270751953125,0.157012939453125,1,1.0,1.0,1.0,1.0,15.00
2024-10-11 20:09:00.411,0.49031016,0.050540097,-0.317363,0.55086035,0.403114,-0.42179868,-0.3739829,0.2599,0.62324584,-0.02771981,0.19589272,0.83790344,0.6099972,-0.259797,-0.13651718,0.4924247,-0.1957024,-0.55061245,-0.65870625,-0.0964321,792.5641,794.9817,805.8608,815.9341,1000.87915,-0.161376953125,0.079345703125,0.9937744140625,0.186920166015625,-0.396270751953125,0.157012939453125,1,1.0,1.0,1.0,1.0,15.00
2024-10-11 20:09:00.412,0.46134853,-0.045181807,-0.3316994,0.5893234,0.33724472,-0.39060935,-0.3697673,0.24154714,0.6181579,-0.02771981,0.20187642,0.89798254,0.6039533,-0.25485396,-0.120697774,0.51203036,-0.21887861,-0.572511,-0.65097505,-0.11372612,792.1612,796.1905,810.293,813.5165,932.7839,-0.161376953125,0.079345703125,0.9937744140625,0.186920166015625,-0.396270751953125,0.157012939453125,1,1.0,1.0,1.0,1.0,15.00
2024-10-11 20:09:00.417,0.46134853,-0.045181807,-0.3316994,0.5893234,0.33724472,-0.39060935,-0.3697673,0.24154714,0.6181579,-0.02771981,0.20187642,0.89798254,0.6039533,-0.25485396,-0.120697774,0.51203036,-0.21887861,-0.572511,-0.65097505,-0.11372612,796.5934,799.011,807.0696,806.26373,716.0073,-0.161376953125,0.079345703125,0.9937744140625,0.186920166015625,-0.396270751953125,0.157012939453125,1,1.0,1.0,1.0,1.0,15.00
2024-10-11 20:09:00.419,0.46134853,-0.045181807,-0.3316994,0.5893234,0.33724472,-0.39060935,-0.3697673,0.24154714,0.6181579,-0.02771981,0.20187642,0.89798254,0.6039533,-0.25485396,-0.120697774,0.51203036,-0.21887861,-0.572511,-0.65097505,-0.11372612,797.8022,794.17584,805.05493,812.71063,827.619,-0.161376953125,0.079345703125,0.9937744140625,0.186920166015625,-0.396270751953125,0.157012939453125,1,1.0,1.0,1.0,1.0,15.00
2024-10-11 20:09:00.420,0.46134853,-0.045181807,-0.3316994,0.5893234,0.33724472,-0.39060935,-0.3697673,0.24154714,0.6181579,-0.02771981,0.20187642,0.89798254,0.6039533,-0.25485396,-0.120697774,0.51203036,-0.21887861,-0.572511,-0.65097505,-0.11372612,795.78754,791.3553,803.8461,819.15753,1058.0952,-0.161376953125,0.079345703125,0.9937744140625,0.186920166015625,-0.396270751953125,0.157012939453125,1,1.0,1.0,1.0,1.0,15.00
2024-10-11 20:09:00.421,0.46134853,-0.045181807,-0.3316994,0.5893234,0.33724472,-0.39060935,-0.3697673,0.24154714,0.6181579,-0.02771981,0.20187642,0.89798254,0.6039533,-0.25485396,-0.120697774,0.51203036,-0.21887861,-0.572511,-0.65097505,-0.11372612,796.5934,794.17584,801.8315,818.7546,908.60803,-0.161376953125,0.079345703125,0.9937744140625,0.186920166015625,-0.396270751953125,0.157012939453125,1,1.0,1.0,1.0,1.0,15.00
2024-10-11 20:09:00.423,0.46134853,-0.045181807,-0.3316994,0.5893234,0.33724472,-0.39060935,-0.3697673,0.24154714,0.6181579,-0.02771981,0.20187642,0.89798254,0.6039533,-0.25485396,-0.120697774,0.51203036,-0.21887861,-0.572511,-0.65097505,-0.11372612,801.4286,795.78754,801.8315,821.1722,751.06226,-0.161376953125,0.079345703125,0.9937744140625,0.186920166015625,-0.396270751953125,0.157012939453125,1,1.0,1.0,1.0,1.0,15.00
2024-10-11 20:09:00.424,0.46134853,-0.045181807,-0.3316994,0.5893234,0.33724472,-0.39060935,-0.3697673,0.24154714,0.6181579,-0.02771981,0.20187642,0.89798254,0.6039533,-0.25485396,-0.120697774,0.51203036,-0.21887861,-0.572511,-0.65097505,-0.11372612,810.696,796.99634,802.6374,824.3956,713.1868,-0.161376953125,0.079345703125,0.9937744140625,0.186920166015625,-0.396270751953125,0.157012939453125,1,1.0,1.0,1.0,1.0,15.00
2024-10-11 20:09:00.425,0.46134853,-0.045181807,-0.3316994,0.5893234,0.33724472,-0.39060935,-0.3697673,0.24154714,0.6181579,-0.02771981,0.20187642,0.89798254,0.6039533,-0.25485396,-0.120697774,0.51203036,-0.21887861,-0.572511,-0.65097505,-0.11372612,811.50183,796.1905,800.2198,823.9927,823.1868,-0.161376953125,0.079345703125,0.9937744140625,0.186920166015625,-0.396270751953125,0.157012939453125,1,1.0,1.0,1.0,1.0,15.00
2024-10-11 20:09:00.426,0.46134853,-0.045181807,-0.3316994,0.5893234,0.33724472,-0.39060935,-0.3697673,0.24154714,0.6181579,-0.02771981,0.20187642,0.89798254,0.6039533,-0.25485396,-0.120697774,0.51203036,-0.21887861,-0.572511,-0.65097505,-0.11372612,806.6667,798.20514,799.81683,828.4249,840.9158,-0.161376953125,0.079345703125,0.9937744140625,0.186920166015625,-0.396270751953125,0.157012939453125,1,1.0,1.0,1.0,1.0,15.00
2024-10-11 20:09:00.427,0.46134853,-0.045181807,-0.3316994,0.5893234,0.33724472,-0.39060935,-0.3697673,0.24154714,0.6181579,-0.02771981,0.20187642,0.89798254,0.6039533,-0.25485396,-0.120697774,0.51203036,-0.21887861,-0.572511,-0.65097505,-0.11372612,804.65204,796.99634,804.2491,825.6044,747.8388,-0.1629638671875,0.07623291015625,0.99310302734375,0.5682373046875,-0.216827392578125,0.007476806640625,1,1.0,1.0,1.0,1.0,15.00
2024-10-11 20:09:00.428,0.46134853,-0.045181807,-0.3316994,0.5893234,0.33724472,-0.39060935,-0.3697673,0.24154714,0.6181579,-0.02771981,0.20187642,0.89798254,0.6039533,-0.25485396,-0.120697774,0.51203036,-0.21887861,-0.572511,-0.65097505,-0.11372612,808.68134,796.5934,806.6667,816.337,774.83514,-0.1629638671875,0.07623291015625,0.99310302734375,0.5682373046875,-0.216827392578125,0.007476806640625,1,1.0,1.0,1.0,1.0,15.00
2024-10-11 20:09:00.429,0.46134853,-0.045181807,-0.3316994,0.5893234,0.33724472,-0.39060935,-0.3697673,0.24154714,0.6181579,-0.02771981,0.20187642,0.89798254,0.6039533,-0.25485396,-0.120697774,0.51203036,-0.21887861,-0.572511,-0.65097505,-0.11372612,806.26373,796.5934,805.05493,818.7546,787.326,-0.1629638671875,0.07623291015625,0.99310302734375,0.5682373046875,-0.216827392578125,0.007476806640625,1,1.0,1.0,1.0,1.0,15.00
2024-10-11 20:09:00.430,0.46134853,-0.045181807,-0.3316994,0.5893234,0.33724472,-0.39060935,-0.3697673,0.24154714,0.6181579,-0.02771981,0.20187642,0.89798254,0.6039533,-0.25485396,-0.120697774,0.51203036,-0.21887861,-0.572511,-0.65097505,-0.11372612,806.6667,796.99634,810.293,826.8132,757.9121,-0.1629638671875,0.07623291015625,0.99310302734375,0.5682373046875,-0.216827392578125,0.007476806640625,1,1.0,1.0,1.0,1.0,15.00
2024-10-11 20:09:00.431,0.46134853,-0.045181807,-0.3316994,0.5893234,0.33724472,-0.39060935,-0.3697673,0.24154714,0.6181579,-0.02771981,0.20187642,0.89798254,0.6039533,-0.25485396,-0.120697774,0.51203036,-0.21887861,-0.572511,-0.65097505,-0.11372612,809.89014,800.2198,810.696,817.1429,738.1685,-0.1629638671875,0.07623291015625,0.99310302734375,0.5682373046875,-0.216827392578125,0.007476806640625,1,1.0,1.0,1.0,1.0,15.00
2024-10-11 20:09:00.432,0.46134853,-0.045181807,-0.3316994,0.5893234,0.33724472,-0.39060935,-0.3697673,0.24154714,0.6181579,-0.02771981,0.20187642,0.89798254,0.6039533,-0.25485396,-0.120697774,0.51203036,-0.21887861,-0.572511,-0.65097505,-0.11372612,803.8461,801.4286,805.8608,819.5604,942.4542,-0.1629638671875,0.07623291015625,0.99310302734375,0.5682373046875,-0.216827392578125,0.007476806640625,1,1.0,1.0,1.0,1.0,15.00
2024-10-11 20:09:00.433,0.46134853,-0.045181807,-0.3316994,0.5893234,0.33724472,-0.39060935,-0.3697673,0.24154714,0.6181579,-0.02771981,0.20187642,0.89798254,0.6039533,-0.25485396,-0.120697774,0.51203036,-0.21887861,-0.572511,-0.65097505,-0.11372612,803.0403,794.17584,803.44324,831.2454,1398.1685,-0.1629638671875,0.07623291015625,0.99310302734375,0.5682373046875,-0.216827392578125,0.007476806640625,1,1.0,1.0,1.0,1.0,15.00
2024-10-11 20:09:00.434,0.46134853,-0.045181807,-0.3316994,0.5893234,0.33724472,-0.39060935,-0.3697673,0.24154714,0.6181579,-0.02771981,0.20187642,0.89798254,0.6039533,-0.25485396,-0.120697774,0.51203036,-0.21887861,-0.572511,-0.65097505,-0.11372612,804.2491,794.57874,801.4286,819.5604,1189.8535,-0.1629638671875,0.07623291015625,0.99310302734375,0.5682373046875,-0.216827392578125,0.007476806640625,1,1.0,1.0,1.0,1.0,15.00
2024-10-11 20:09:00.435,0.46134853,-0.045181807,-0.3316994,0.5893234,0.33724472,-0.39060935,-0.3697673,0.24154714,0.6181579,-0.02771981,0.20187642,0.89798254,0.6039533,-0.25485396,-0.120697774,0.51203036,-0.21887861,-0.572511,-0.65097505,-0.11372612,805.05493,796.1905,801.4286,813.1135,862.27106,-0.1629638671875,0.07623291015625,0.99310302734375,0.5682373046875,-0.216827392578125,0.007476806640625,1,1.0,1.0,1.0,1.0,15.00
2024-10-11 20:09:00.436,0.46134853,-0.045181807,-0.3316994,0.5893234,0.33724472,-0.39060935,-0.3697673,0.24154714,0.6181579,-0.02771981,0.20187642,0.89798254,0.6039533,-0.25485396,-0.120697774,0.51203036,-0.21887861,-0.572511,-0.65097505,-0.11372612,810.293,794.9817,801.8315,818.7546,951.31866,-0.1629638671875,0.07623291015625,0.99310302734375,0.5682373046875,-0.216827392578125,0.007476806640625,1,1.0,1.0,1.0,1.0,15.00
2024-10-11 20:09:00.439,0.46134853,-0.045181807,-0.3316994,0.5893234,0.33724472,-0.39060935,-0.3697673,0.24154714,0.6181579,-0.02771981,0.20187642,0.89798254,0.6039533,-0.25485396,-0.120697774,0.51203036,-0.21887861,-0.572511,-0.65097505,-0.11372612,810.293,794.9817,801.8315,814.7253,805.4579,-0.1629638671875,0.07623291015625,0.99310302734375,0.5682373046875,-0.216827392578125,0.007476806640625,1,1.0,1.0,1.0,1.0,15.00
2024-10-11 20:09:00.440,0.46134853,-0.045181807,-0.3316994,0.5893234,0.33724472,-0.39060935,-0.3697673,0.24154714,0.6181579,-0.02771981,0.20187642,0.89798254,0.6039533,-0.25485396,-0.120697774,0.51203036,-0.21887861,-0.572511,-0.65097505,-0.11372612,795.78754,791.75824,805.4579,814.3223,605.2015,-0.1629638671875,0.07623291015625,0.99310302734375,0.5682373046875,-0.216827392578125,0.007476806640625,1,1.0,1.0,1.0,1.0,15.00
2024-10-11 20:09:00.508,0.46134853,-0.045181807,-0.3316994,0.5893234,0.33724472,-0.39060935,-0.3697673,0.24154714,0.6181579,-0.02771981,0.20187642,0.89798254,0.6039533,-0.25485396,-0.120697774,0.51203036,-0.21887861,-0.572511,-0.65097505,-0.11372612,803.0403,789.34064,805.05493,832.0513,676.52014,-0.16387939453125,0.08111572265625,0.99017333984375,0.575714111328125,-0.3289794921875,0.142059326171875,1,1.0,1.0,1.0,1.0,15.00
2024-10-11 20:09:00.509,0.46134853,-0.045181807,-0.3316994,0.5893234,0.33724472,-0.39060935,-0.3697673,0.24154714,0.6181579,-0.02771981,0.20187642,0.89798254,0.6039533,-0.25485396,-0.120697774,0.51203036,-0.21887861,-0.572511,-0.65097505,-0.11372612,825.6044,794.17584,801.4286,846.1539,923.91943,-0.16387939453125,0.08111572265625,0.99017333984375,0.575714111328125,-0.3289794921875,0.142059326171875,1,1.0,1.0,1.0,1.0,15.00
2024-10-11 20:09:00.510,0.46134853,-0.045181807,-0.3316994,0.5893234,0.33724472,-0.39060935,-0.3697673,0.24154714,0.6181579,-0.02771981,0.20187642,0.89798254,0.6039533,-0.25485396,-0.120697774,0.51203036,-0.21887861,-0.572511,-0.65097505,-0.11372612,821.978,804.2491,797.3993,825.2015,782.49084,-0.16387939453125,0.08111572265625,0.99017333984375,0.575714111328125,-0.3289794921875,0.142059326171875,1,1.0,1.0,1.0,1.0,15.00
2024-10-11 20:09:00.511,0.46134853,-0.045181807,-0.3316994,0.5893234,0.33724472,-0.39060935,-0.3697673,0.24154714,0.6181579,-0.02771981,0.20187642,0.89798254,0.6039533,-0.25485396,-0.120697774,0.51203036,-0.21887861,-0.572511,-0.65097505,-0.11372612,805.8608,809.0842,795.78754,803.0403,555.64105,-0.16387939453125,0.08111572265625,0.99017333984375,0.575714111328125,-0.3289794921875,0.142059326171875,1,1.0,1.0,1.0,1.0,15.00
2024-10-11 20:09:00.511,0.46134853,-0.045181807,-0.3316994,0.5893234,0.33724472,-0.39060935,-0.3697673,0.24154714,0.6181579,-0.02771981,0.20187642,0.89798254,0.6039533,-0.25485396,-0.120697774,0.51203036,-0.21887861,-0.572511,-0.65097505,-0.11372612,804.65204,806.26373,801.4286,808.2784,777.25275,-0.16387939453125,0.08111572265625,0.99017333984375,0.575714111328125,-0.3289794921875,0.142059326171875,1,1.0,1.0,1.0,1.0,15.00
2024-10-11 20:09:00.512,0.4278455,-0.15439303,-0.31587136,0.67586166,0.26378027,-0.36250293,-0.3233463,0.31452116,0.5869771,-0.02771981,0.179296,1.0030655,0.5825835,-0.24359722,-0.10470216,0.53459495,-0.22487856,-0.59791195,-0.6484235,-0.112142764,804.2491,799.81683,802.23444,811.0989,1123.37,-0.16387939453125,0.08111572265625,0.99017333984375,0.575714111328125,-0.3289794921875,0.142059326171875,1,1.0,1.0,1.0,1.0,15.00
2024-10-11 20:09:00.516,0.4278455,-0.15439303,-0.31587136,0.67586166,0.26378027,-0.36250293,-0.3233463,0.31452116,0.5869771,-0.02771981,0.179296,1.0030655,0.5825835,-0.24359722,-0.10470216,0.53459495,-0.22487856,-0.59791195,-0.6484235,-0.112142764,797.8022,798.60803,799.81683,803.0403,976.7033,-0.16387939453125,0.08111572265625,0.99017333984375,0.575714111328125,-0.3289794921875,0.142059326171875,1,1.0,1.0,1.0,1.0,15.00
2024-10-11 20:09:00.516,0.4278455,-0.15439303,-0.31587136,0.67586166,0.26378027,-0.36250293,-0.3233463,0.31452116,0.5869771,-0.02771981,0.179296,1.0030655,0.5825835,-0.24359722,-0.10470216,0.53459495,-0.22487856,-0.59791195,-0.6484235,-0.112142764,800.2198,799.011,803.44324,805.05493,634.61536,-0.16387939453125,0.08111572265625,0.99017333984375,0.575714111328125,-0.3289794921875,0.142059326171875,1,1.0,1.0,1.0,1.0,15.00
2024-10-11 20:09:00.517,0.4278455,-0.15439303,-0.31587136,0.67586166,0.26378027,-0.36250293,-0.3233463,0.31452116,0.5869771,-0.02771981,0.179296,1.0030655,0.5825835,-0.24359722,-0.10470216,0.53459495,-0.22487856,-0.59791195,-0.6484235,-0.112142764,807.0696,797.8022,801.02563,811.9048,651.53845,-0.16387939453125,0.08111572265625,0.99017333984375,0.575714111328125,-0.3289794921875,0.142059326171875,1,1.0,1.0,1.0,1.0,15.00
2024-10-11 20:09:00.517,0.4278455,-0.15439303,-0.31587136,0.67586166,0.26378027,-0.36250293,-0.3233463,0.31452116,0.5869771,-0.02771981,0.179296,1.0030655,0.5825835,-0.24359722,-0.10470216,0.53459495,-0.22487856,-0.59791195,-0.6484235,-0.112142764,806.26373,796.99634,796.99634,813.91943,831.2454,-0.16387939453125,0.08111572265625,0.99017333984375,0.575714111328125,-0.3289794921875,0.142059326171875,1,1.0,1.0,1.0,1.0,15.00
2024-10-11 20:09:00.518,0.4278455,-0.15439303,-0.31587136,0.67586166,0.26378027,-0.36250293,-0.3233463,0.31452116,0.5869771,-0.02771981,0.179296,1.0030655,0.5825835,-0.24359722,-0.10470216,0.53459495,-0.22487856,-0.59791195,-0.6484235,-0.112142764,808.2784,797.8022,799.81683,807.47253,842.52747,-0.16387939453125,0.08111572265625,0.99017333984375,0.575714111328125,-0.3289794921875,0.142059326171875,1,1.0,1.0,1.0,1.0,15.00
2024-10-11 20:09:00.518,0.4278455,-0.15439303,-0.31587136,0.67586166,0.26378027,-0.36250293,-0.3233463,0.31452116,0.5869771,-0.02771981,0.179296,1.0030655,0.5825835,-0.24359722,-0.10470216,0.53459495,-0.22487856,-0.59791195,-0.6484235,-0.112142764,814.7253,799.011,801.02563,802.23444,774.0293,-0.16387939453125,0.08111572265625,0.99017333984375,0.575714111328125,-0.3289794921875,0.142059326171875,1,1.0,1.0,1.0,1.0,15.00
2024-10-11 20:09:00.519,0.4278455,-0.15439303,-0.31587136,0.67586166,0.26378027,-0.36250293,-0.3233463,0.31452116,0.5869771,-0.02771981,0.179296,1.0030655,0.5825835,-0.24359722,-0.10470216,0.53459495,-0.22487856,-0.59791195,-0.6484235,-0.112142764,821.978,800.6227,793.36993,808.2784,782.0879,-0.163818359375,0.07440185546875,0.998291015625,0.635528564453125,-0.770111083984375,-0.142059326171875,1,1.0,1.0,1.0,1.0,15.00
2024-10-11 20:09:00.519,0.4278455,-0.15439303,-0.31587136,0.67586166,0.26378027,-0.36250293,-0.3233463,0.31452116,0.5869771,-0.02771981,0.179296,1.0030655,0.5825835,-0.24359722,-0.10470216,0.53459495,-0.22487856,-0.59791195,-0.6484235,-0.112142764,815.9341,799.41394,795.38464,817.5458,871.53845,-0.163818359375,0.07440185546875,0.998291015625,0.635528564453125,-0.770111083984375,-0.142059326171875,1,1.0,1.0,1.0,1.0,15.00
2024-10-11 20:09:00.520,0.4278455,-0.15439303,-0.31587136,0.67586166,0.26378027,-0.36250293,-0.3233463,0.31452116,0.5869771,-0.02771981,0.179296,1.0030655,0.5825835,-0.24359722,-0.10470216,0.53459495,-0.22487856,-0.59791195,-0.6484235,-0.112142764,805.4579,798.60803,803.44324,813.1135,770.80585,-0.163818359375,0.07440185546875,0.998291015625,0.635528564453125,-0.770111083984375,-0.142059326171875,1,1.0,1.0,1.0,1.0,15.00
2024-10-11 20:09:00.520,0.4278455,-0.15439303,-0.31587136,0.67586166,0.26378027,-0.36250293,-0.3233463,0.31452116,0.5869771,-0.02771981,0.179296,1.0030655,0.5825835,-0.24359722,-0.10470216,0.53459495,-0.22487856,-0.59791195,-0.6484235,-0.112142764,803.0403,799.41394,803.44324,802.23444,649.5238,-0.163818359375,0.07440185546875,0.998291015625,0.635528564453125,-0.770111083984375,-0.142059326171875,1,1.0,1.0,1.0,1.0,15.00
2024-10-11 20:09:00.521,0.4278455,-0.15439303,-0.31587136,0.67586166,0.26378027,-0.36250293,-0.3233463,0.31452116,0.5869771,-0.02771981,0.179296,1.0030655,0.5825835,-0.24359722,-0.10470216,0.53459495,-0.22487856,-0.59791195,-0.6484235,-0.112142764,806.6667,799.41394,801.4286,808.68134,753.47986,-0.163818359375,0.07440185546875,0.998291015625,0.635528564453125,-0.770111083984375,-0.142059326171875,1,1.0,1.0,1.0,1.0,15.00
2024-10-11 20:09:00.521,0.4278455,-0.15439303,-0.31587136,0.67586166,0.26378027,-0.36250293,-0.3233463,0.31452116,0.5869771,-0.02771981,0.179296,1.0030655,0.5825835,-0.24359722,-0.10470216,0.53459495,-0.22487856,-0.59791195,-0.6484235,-0.112142764,803.8461,800.6227,798.60803,813.91943,945.6777,-0.163818359375,0.07440185546875,0.998291015625,0.635528564453125,-0.770111083984375,-0.142059326171875,1,1.0,1.0,1.0,1.0,15.00
2024-10-11 20:09:00.522,0.4278455,-0.15439303,-0.31587136,0.67586166,0.26378027,-0.36250293,-0.3233463,0.31452116,0.5869771,-0.02771981,0.179296,1.0030655,0.5825835,-0.24359722,-0.10470216,0.53459495,-0.22487856,-0.59791195,-0.6484235,-0.112142764,804.65204,798.60803,799.41394,809.0842,882.4176,-0.163818359375,0.07440185546875,0.998291015625,0.635528564453125,-0.770111083984375,-0.142059326171875,1,1.0,1.0,1.0,1.0,15.00
2024-10-11 20:09:00.522,0.4278455,-0.15439303,-0.31587136,0.67586166,0.26378027,-0.36250293,-0.3233463,0.31452116,0.5869771,-0.02771981,0.179296,1.0030655,0.5825835,-0.24359722,-0.10470216,0.53459495,-0.22487856,-0.59791195,-0.6484235,-0.112142764,811.50183,799.011,801.8315,811.9048,602.381,-0.163818359375,0.07440185546875,0.998291015625,0.635528564453125,-0.770111083984375,-0.142059326171875,1,1.0,1.0,1.0,1.0,15.00
2024-10-11 20:09:00.523,0.4278455,-0.15439303,-0.31587136,0.67586166,0.26378027,-0.36250293,-0.3233463,0.31452116,0.5869771,-0.02771981,0.179296,1.0030655,0.5825835,-0.24359722,-0.10470216,0.53459495,-0.22487856,-0.59791195,-0.6484235,-0.112142764,817.1429,798.20514,800.2198,817.5458,704.3223,-0.163818359375,0.07440185546875,0.998291015625,0.635528564453125,-0.770111083984375,-0.142059326171875,1,1.0,1.0,1.0,1.0,15.00
2024-10-11 20:09:00.523,0.4278455,-0.15439303,-0.31587136,0.67586166,0.26378027,-0.36250293,-0.3233463,0.31452116,0.5869771,-0.02771981,0.179296,1.0030655,0.5825835,-0.24359722,-0.10470216,0.53459495,-0.22487856,-0.59791195,-0.6484235,-0.112142764,815.12823,796.5934,797.8022,814.7253,822.7839,-0.163818359375,0.07440185546875,0.998291015625,0.635528564453125,-0.770111083984375,-0.142059326171875,1,1.0,1.0,1.0,1.0,15.00
2024-10-11 20:09:00.524,0.4278455,-0.15439303,-0.31587136,0.67586166,0.26378027,-0.36250293,-0.3233463,0.31452116,0.5869771,-0.02771981,0.179296,1.0030655,0.5825835,-0.24359722,-0.10470216,0.53459495,-0.22487856,-0.59791195,-0.6484235,-0.112142764,807.47253,799.011,799.011,810.293,677.326,-0.163818359375,0.07440185546875,0.998291015625,0.635528564453125,-0.770111083984375,-0.142059326171875,1,1.0,1.0,1.0,1.0,15.00
2024-10-11 20:09:00.524,0.4278455,-0.15439303,-0.31587136,0.67586166,0.26378027,-0.36250293,-0.3233463,0.31452116,0.5869771,-0.02771981,0.179296,1.0030655,0.5825835,-0.24359722,-0.10470216,0.53459495,-0.22487856,-0.59791195,-0.6484235,-0.112142764,809.0842,798.20514,801.8315,811.0989,755.89746,-0.163818359375,0.07440185546875,0.998291015625,0.635528564453125,-0.770111083984375,-0.142059326171875,1,1.0,1.0,1.0,1.0,15.00
2024-10-11 20:09:00.525,0.4278455,-0.15439303,-0.31587136,0.67586166,0.26378027,-0.36250293,-0.3233463,0.31452116,0.5869771,-0.02771981,0.179296,1.0030655,0.5825835,-0.24359722,-0.10470216,0.53459495,-0.22487856,-0.59791195,-0.6484235,-0.112142764,809.4872,794.17584,799.81683,809.89014,904.9817,-0.15728759765625,0.06854248046875,0.9984130859375,0.949554443359375,-1.278533935546875,-0.770111083984375,1,1.0,1.0,1.0,1.0,15.00
2024-10-11 20:09:00.525,0.4278455,-0.15439303,-0.31587136,0.67586166,0.26378027,-0.36250293,-0.3233463,0.31452116,0.5869771,-0.02771981,0.179296,1.0030655,0.5825835,-0.24359722,-0.10470216,0.53459495,-0.22487856,-0.59791195,-0.6484235,-0.112142764,812.3077,798.20514,799.011,810.696,875.16486,-0.15728759765625,0.06854248046875,0.9984130859375,0.949554443359375,-1.278533935546875,-0.770111083984375,1,1.0,1.0,1.0,1.0,15.00
2024-10-11 20:09:00.526,0.4278455,-0.15439303,-0.31587136,0.67586166,0.26378027,-0.36250293,-0.3233463,0.31452116,0.5869771,-0.02771981,0.179296,1.0030655,0.5825835,-0.24359722,-0.10470216,0.53459495,-0.22487856,-0.59791195,-0.6484235,-0.112142764,815.5311,804.2491,806.26373,818.7546,744.21246,-0.15728759765625,0.06854248046875,0.9984130859375,0.949554443359375,-1.278533935546875,-0.770111083984375,1,1.0,1.0,1.0,1.0,15.00
2024-10-11 20:09:00.526,0.4278455,-0.15439303,-0.31587136,0.67586166,0.26378027,-0.36250293,-0.3233463,0.31452116,0.5869771,-0.02771981,0.179296,1.0030655,0.5825835,-0.24359722,-0.10470216,0.53459495,-0.22487856,-0.59791195,-0.6484235,-0.112142764,816.337,801.4286,809.4872,819.5604,725.6777,-0.15728759765625,0.06854248046875,0.9984130859375,0.949554443359375,-1.278533935546875,-0.770111083984375,1,1.0,1.0,1.0,1.0,15.00
2024-10-11 20:09:00.527,0.4278455,-0.15439303,-0.31587136,0.67586166,0.26378027,-0.36250293,-0.3233463,0.31452116,0.5869771,-0.02771981,0.179296,1.0030655,0.5825835,-0.24359722,-0.10470216,0.53459495,-0.22487856,-0.59791195,-0.6484235,-0.112142764,823.1868,798.20514,807.47253,821.5751,948.0952,-0.15728759765625,0.06854248046875,0.9984130859375,0.949554443359375,-1.278533935546875,-0.770111083984375,1,1.0,1.0,1.0,1.0,15.00
2024-10-11 20:09:00.527,0.4278455,-0.15439303,-0.31587136,0.67586166,0.26378027,-0.36250293,-0.3233463,0.31452116,0.5869771,-0.02771981,0.179296,1.0030655,0.5825835,-0.24359722,-0.10470216,0.53459495,-0.22487856,-0.59791195,-0.6484235,-0.112142764,822.381,799.41394,808.68134,821.978,895.7143,-0.15728759765625,0.06854248046875,0.9984130859375,0.949554443359375,-1.278533935546875,-0.770111083984375,1,1.0,1.0,1.0,1.0,15.00
2024-10-11 20:09:00.528,0.4278455,-0.15439303,-0.31587136,0.67586166,0.26378027,-0.36250293,-0.3233463,0.31452116,0.5869771,-0.02771981,0.179296,1.0030655,0.5825835,-0.24359722,-0.10470216,0.53459495,-0.22487856,-0.59791195,-0.6484235,-0.112142764,816.337,802.6374,805.05493,815.12823,793.36993,-0.15728759765625,0.06854248046875,0.9984130859375,0.949554443359375,-1.278533935546875,-0.770111083984375,1,1.0,1.0,1.0,1.0,15.00
2024-10-11 20:09:00.528,0.7175849,-0.25536615,-0.2708249,0.7754446,0.49928778,-0.33620024,-0.2519055,0.43196046,0.72312236,-0.02771981,0.15762173,1.0708922,0.5601456,-0.22651646,-0.08992846,0.5487117,-0.17130922,-0.6179751,-0.64827275,-0.09948504,825.2015,802.23444,803.8461,814.3223,887.25275,-0.15728759765625,0.06854248046875,0.9984130859375,0.949554443359375,-1.278533935546875,-0.770111083984375,1,1.0,1.0,1.0,1.0,15.00
2024-10-11 20:09:00.532,0.7175849,-0.25536615,-0.2708249,0.7754446,0.49928778,-0.33620024,-0.2519055,0.43196046,0.72312236,-0.02771981,0.15762173,1.0708922,0.5601456,-0.22651646,-0.08992846,0.5487117,-0.17130922,-0.6179751,-0.64827275,-0.09948504,820.7692,801.4286,798.60803,818.7546,917.8755,-0.15728759765625,0.06854248046875,0.9984130859375,0.949554443359375,-1.278533935546875,-0.770111083984375,1,1.0,1.0,1.0,1.0,15.00
2024-10-11 20:09:00.533,0.7175849,-0.25536615,-0.2708249,0.7754446,0.49928778,-0.33620024,-0.2519055,0.43196046,0.72312236,-0.02771981,0.15762173,1.0708922,0.5601456,-0.22651646,-0.08992846,0.5487117,-0.17130922,-0.6179751,-0.64827275,-0.09948504,807.8755,802.23444,795.38464,817.5458,752.27106,-0.15728759765625,0.06854248046875,0.9984130859375,0.949554443359375,-1.278533935546875,-0.770111083984375,1,1.0,1.0,1.0,1.0,15.00
2024-10-11 20:09:00.534,0.7175849,-0.25536615,-0.2708249,0.7754446,0.49928778,-0.33620024,-0.2519055,0.43196046,0.72312236,-0.02771981,0.15762173,1.0708922,0.5601456,-0.22651646,-0.08992846,0.5487117,-0.17130922,-0.6179751,-0.64827275,-0.09948504,810.696,802.23444,808.68134,820.7692,679.7436,-0.15728759765625,0.06854248046875,0.9984130859375,0.949554443359375,-1.278533935546875,-0.770111083984375,1,1.0,1.0,1.0,1.0,15.00
2024-10-11 20:09:00.534,0.7175849,-0.25536615,-0.2708249,0.7754446,0.49928778,-0.33620024,-0.2519055,0.43196046,0.72312236,-0.02771981,0.15762173,1.0708922,0.5601456,-0.22651646,-0.08992846,0.5487117,-0.17130922,-0.6179751,-0.64827275,-0.09948504,811.50183,800.6227,813.5165,830.84247,765.9707,-0.15728759765625,0.06854248046875,0.9984130859375,0.949554443359375,-1.278533935546875,-0.770111083984375,1,1.0,1.0,1.0,1.0,15.00
2024-10-11 20:09:00.535,0.7175849,-0.25536615,-0.2708249,0.7754446,0.49928778,-0.33620024,-0.2519055,0.43196046,0.72312236,-0.02771981,0.15762173,1.0708922,0.5601456,-0.22651646,-0.08992846,0.5487117,-0.17130922,-0.6179751,-0.64827275,-0.09948504,813.1135,797.3993,809.0842,830.4396,767.1795,-0.15728759765625,0.06854248046875,0.9984130859375,0.949554443359375,-1.278533935546875,-0.770111083984375,1,1.0,1.0,1.0,1.0,15.00
2024-10-11 20:09:00.535,0.7175849,-0.25536615,-0.2708249,0.7754446,0.49928778,-0.33620024,-0.2519055,0.43196046,0.72312236,-0.02771981,0.15762173,1.0708922,0.5601456,-0.22651646,-0.08992846,0.5487117,-0.17130922,-0.6179751,-0.64827275,-0.09948504,809.0842,798.60803,806.6667,824.7985,654.35895,-0.15728759765625,0.06854248046875,0.9984130859375,0.949554443359375,-1.278533935546875,-0.770111083984375,1,1.0,1.0,1.0,1.0,15.00
2024-10-11 20:09:00.536,0.7175849,-0.25536615,-0.2708249,0.7754446,0.49928778,-0.33620024,-0.2519055,0.43196046,0.72312236,-0.02771981,0.15762173,1.0708922,0.5601456,-0.22651646,-0.08992846,0.5487117,-0.17130922,-0.6179751,-0.64827275,-0.09948504,802.6374,799.81683,809.4872,830.4396,662.8205,-0.15728759765625,0.06854248046875,0.9984130859375,0.949554443359375,-1.278533935546875,-0.770111083984375,1,1.0,1.0,1.0,1.0,15.00
2024-10-11 20:09:00.537,0.7175849,-0.25536615,-0.2708249,0.7754446,0.49928778,-0.33620024,-0.2519055,0.43196046,0.72312236,-0.02771981,0.15762173,1.0708922,0.5601456,-0.22651646,-0.08992846,0.5487117,-0.17130922,-0.6179751,-0.64827275,-0.09948504,804.65204,798.60803,810.293,828.022,813.91943,-0.15728759765625,0.06854248046875,0.9984130859375,0.949554443359375,-1.278533935546875,-0.770111083984375,1,1.0,1.0,1.0,1.0,15.00
2024-10-11 20:09:00.537,0.7175849,-0.25536615,-0.2708249,0.7754446,0.49928778,-0.33620024,-0.2519055,0.43196046,0.72312236,-0.02771981,0.15762173,1.0708922,0.5601456,-0.22651646,-0.08992846,0.5487117,-0.17130922,-0.6179751,-0.64827275,-0.09948504,807.0696,798.20514,805.4579,822.7839,914.2491,-0.15728759765625,0.06854248046875,0.9984130859375,0.949554443359375,-1.278533935546875,-0.770111083984375,1,1.0,1.0,1.0,1.0,15.00
2024-10-11 20:09:00.538,0.7175849,-0.25536615,-0.2708249,0.7754446,0.49928778,-0.33620024,-0.2519055,0.43196046,0.72312236,-0.02771981,0.15762173,1.0708922,0.5601456,-0.22651646,-0.08992846,0.5487117,-0.17130922,-0.6179751,-0.64827275,-0.09948504,806.6667,797.8022,798.60803,820.3663,841.31866,-0.15728759765625,0.06854248046875,0.9984130859375,0.949554443359375,-1.278533935546875,-0.770111083984375,1,1.0,1.0,1.0,1.0,15.00
2024-10-11 20:09:00.538,0.7175849,-0.25536615,-0.2708249,0.7754446,0.49928778,-0.33620024,-0.2519055,0.43196046,0.72312236,-0.02771981,0.15762173,1.0708922,0.5601456,-0.22651646,-0.08992846,0.5487117,-0.17130922,-0.6179751,-0.64827275,-0.09948504,809.4872,799.011,799.011,820.3663,925.5311,-0.15728759765625,0.06854248046875,0.9984130859375,0.949554443359375,-1.278533935546875,-0.770111083984375,1,1.0,1.0,1.0,1.0,15.00
2024-10-11 20:09:00.539,0.7175849,-0.25536615,-0.2708249,0.7754446,0.49928778,-0.33620024,-0.2519055,0.43196046,0.72312236,-0.02771981,0.15762173,1.0708922,0.5601456,-0.22651646,-0.08992846,0.5487117,-0.17130922,-0.6179751,-0.64827275,-0.09948504,817.5458,800.6227,806.6667,828.4249,1033.1135,-0.15728759765625,0.06854248046875,0.9984130859375,0.949554443359375,-1.278533935546875,-0.770111083984375,1,1.0,1.0,1.0,1.0,15.00
2024-10-11 20:09:00.539,0.7175849,-0.25536615,-0.2708249,0.7754446,0.49928778,-0.33620024,-0.2519055,0.43196046,0.72312236,-0.02771981,0.15762173,1.0708922,0.5601456,-0.22651646,-0.08992846,0.5487117,-0.17130922,-0.6179751,-0.64827275,-0.09948504,811.50183,800.6227,807.47253,823.9927,875.9707,-0.15728759765625,0.06854248046875,0.9984130859375,0.949554443359375,-1.278533935546875,-0.770111083984375,1,1.0,1.0,1.0,1.0,15.00
2024-10-11 20:09:00.540,0.7175849,-0.25536615,-0.2708249,0.7754446,0.49928778,-0.33620024,-0.2519055,0.43196046,0.72312236,-0.02771981,0.15762173,1.0708922,0.5601456,-0.22651646,-0.08992846,0.5487117,-0.17130922,-0.6179751,-0.64827275,-0.09948504,806.6667,800.2198,803.44324,817.1429,686.5934,-0.15728759765625,0.06854248046875,0.9984130859375,0.949554443359375,-1.278533935546875,-0.770111083984375,1,1.0,1.0,1.0,1.0,15.00
2024-10-11 20:09:00.540,0.7175849,-0.25536615,-0.2708249,0.7754446,0.49928778,-0.33620024,-0.2519055,0.43196046,0.72312236,-0.02771981,0.15762173,1.0708922,0.5601456,-0.22651646,-0.08992846,0.5487117,-0.17130922,-0.6179751,-0.64827275,-0.09948504,806.6667,799.41394,803.0403,821.978,773.6264,-0.15728759765625,0.06854248046875,0.9984130859375,0.949554443359375,-1.278533935546875,-0.770111083984375,1,1.0,1.0,1.0,1.0,15.00
2024-10-11 20:09:00.541,0.7175849,-0.25536615,-0.2708249,0.7754446,0.49928778,-0.33620024,-0.2519055,0.43196046,0.72312236,-0.02771981,0.15762173,1.0708922,0.5601456,-0.22651646,-0.08992846,0.5487117,-0.17130922,-0.6179751,-0.64827275,-0.09948504,805.05493,801.8315,807.47253,826.0073,927.1429,-0.15728759765625,0.06854248046875,0.9984130859375,0.949554443359375,-1.278533935546875,-0.770111083984375,1,1.0,1.0,1.0,1.0,15.00
2024-10-11 20:09:00.578,0.7175849,-0.25536615,-0.2708249,0.7754446,0.49928778,-0.33620024,-0.2519055,0.43196046,0.72312236,-0.02771981,0.15762173,1.0708922,0.5601456,-0.22651646,-0.08992846,0.5487117,-0.17130922,-0.6179751,-0.64827275,-0.09948504,801.8315,802.23444,811.9048,826.0073,828.022,-0.14752197265625,0.073486328125,1.005859375,1.981353759765625,-1.1663818359375,-2.743988037109375,1,1.0,1.0,1.0,1.0,15.00
2024-10-11 20:09:00.579,0.7175849,-0.25536615,-0.2708249,0.7754446,0.49928778,-0.33620024,-0.2519055,0.43196046,0.72312236,-0.02771981,0.15762173,1.0708922,0.5601456,-0.22651646,-0.08992846,0.5487117,-0.17130922,-0.6179751,-0.64827275,-0.09948504,802.6374,803.44324,809.89014,819.9634,639.85345,-0.14752197265625,0.073486328125,1.005859375,1.981353759765625,-1.1663818359375,-2.743988037109375,1,1.0,1.0,1.0,1.0,15.00
2024-10-11 20:09:00.581,0.7175849,-0.25536615,-0.2708249,0.7754446,0.49928778,-0.33620024,-0.2519055,0.43196046,0.72312236,-0.02771981,0.15762173,1.0708922,0.5601456,-0.22651646,-0.08992846,0.5487117,-0.17130922,-0.6179751,-0.64827275,-0.09948504,803.0403,800.6227,803.44324,812.71063,690.6227,-0.14752197265625,0.073486328125,1.005859375,1.981353759765625,-1.1663818359375,-2.743988037109375,1,1.0,1.0,1.0,1.0,15.00
2024-10-11 20:09:00.582,0.7175849,-0.25536615,-0.2708249,0.7754446,0.49928778,-0.33620024,-0.2519055,0.43196046,0.72312236,-0.02771981,0.15762173,1.0708922,0.5601456,-0.22651646,-0.08992846,0.5487117,-0.17130922,-0.6179751,-0.64827275,-0.09948504,807.0696,798.20514,794.9817,820.3663,927.5458,-0.14752197265625,0.073486328125,1.005859375,1.981353759765625,-1.1663818359375,-2.743988037109375,1,1.0,1.0,1.0,1.0,15.00
2024-10-11 20:09:00.582,0.7175849,-0.25536615,-0.2708249,0.7754446,0.49928778,-0.33620024,-0.2519055,0.43196046,0.72312236,-0.02771981,0.15762173,1.0708922,0.5601456,-0.22651646,-0.08992846,0.5487117,-0.17130922,-0.6179751,-0.64827275,-0.09948504,825.2015,804.2491,802.6374,838.9011,824.3956,-0.14752197265625,0.073486328125,1.005859375,1.981353759765625,-1.1663818359375,-2.743988037109375,1,1.0,1.0,1.0,1.0,15.00
2024-10-11 20:09:00.583,0.7175849,-0.25536615,-0.2708249,0.7754446,0.49928778,-0.33620024,-0.2519055,0.43196046,0.72312236,-0.02771981,0.15762173,1.0708922,0.5601456,-0.22651646,-0.08992846,0.5487117,-0.17130922,-0.6179751,-0.64827275,-0.09948504,814.3223,805.4579,812.3077,826.0073,644.2857,-0.14752197265625,0.073486328125,1.005859375,1.981353759765625,-1.1663818359375,-2.743988037109375,1,1.0,1.0,1.0,1.0,15.00
2024-10-11 20:09:00.583,0.7175849,-0.25536615,-0.2708249,0.7754446,0.49928778,-0.33620024,-0.2519055,0.43196046,0.72312236,-0.02771981,0.15762173,1.0708922,0.5601456,-0.22651646,-0.08992846,0.5487117,-0.17130922,-0.6179751,-0.64827275,-0.09948504,786.52014,804.2491,804.65204,803.44324,793.7729,-0.14752197265625,0.073486328125,1.005859375,1.981353759765625,-1.1663818359375,-2.743988037109375,1,1.0,1.0,1.0,1.0,15.00
2024-10-11 20:09:00.584,0.7175849,-0.25536615,-0.2708249,0.7754446,0.49928778,-0.33620024,-0.2519055,0.43196046,0.72312236,-0.02771981,0.15762173,1.0708922,0.5601456,-0.22651646,-0.08992846,0.5487117,-0.17130922,-0.6179751,-0.64827275,-0.09948504,786.9231,810.293,805.8608,804.2491,1062.9304,-0.14752197265625,0.073486328125,1.005859375,1.981353759765625,-1.1663818359375,-2.743988037109375,1,1.0,1.0,1.0,1.0,15.00
2024-10-11 20:09:00.584,0.7175849,-0.25536615,-0.2708249,0.7754446,0.49928778,-0.33620024,-0.2519055,0.43196046,0.72312236,-0.02771981,0.15762173,1.0708922,0.5601456,-0.22651646,-0.08992846,0.5487117,-0.17130922,-0.6179751,-0.64827275,-0.09948504,781.28204,812.71063,808.68134,793.36993,880.0,-0.14752197265625,0.073486328125,1.005859375,1.981353759765625,-1.1663818359375,-2.743988037109375,1,1.0,1.0,1.0,1.0,15.00
2024-10-11 20:09:00.585,0.8857818,-0.29508,-0.220395,0.8621572,0.6529,-0.3130769,-0.17997041,0.5369084,0.7479855,-0.02771981,0.1751781,1.0789961,0.5447083,-0.20301233,-0.0749842,0.5505218,-0.1051347,-0.61990005,-0.64040697,-0.0830633,784.10254,812.71063,805.4579,786.1172,668.46155,-0.14752197265625,0.073486328125,1.005859375,1.981353759765625,-1.1663818359375,-2.743988037109375,1,1.0,1.0,1.0,1.0,15.00
2024-10-11 20:09:00.589,0.8857818,-0.29508,-0.220395,0.8621572,0.6529,-0.3130769,-0.17997041,0.5369084,0.7479855,-0.02771981,0.1751781,1.0789961,0.5447083,-0.20301233,-0.0749842,0.5505218,-0.1051347,-0.61990005,-0.64040697,-0.0830633,781.685,811.9048,799.011,782.8938,745.42126,-0.14752197265625,0.073486328125,1.005859375,1.981353759765625,-1.1663818359375,-2.743988037109375,1,1.0,1.0,1.0,1.0,15.00
2024-10-11 20:09:00.589,0.8857818,-0.29508,-0.220395,0.8621572,0.6529,-0.3130769,-0.17997041,0.5369084,0.7479855,-0.02771981,0.1751781,1.0789961,0.5447083,-0.20301233,-0.0749842,0.5505218,-0.1051347,-0.61990005,-0.64040697,-0.0830633,759.12085,808.68134,789.7436,772.8205,837.28937,-0.14752197265625,0.073486328125,1.005859375,1.981353759765625,-1.1663818359375,-2.743988037109375,1,1.0,1.0,1.0,1.0,15.00
2024-10-11 20:09:00.590,0.8857818,-0.29508,-0.220395,0.8621572,0.6529,-0.3130769,-0.17997041,0.5369084,0.7479855,-0.02771981,0.1751781,1.0789961,0.5447083,-0.20301233,-0.0749842,0.5505218,-0.1051347,-0.61990005,-0.64040697,-0.0830633,756.7033,807.0696,781.685,770.0,786.52014,-0.1478271484375,0.08050537109375,0.98651123046875,1.667327880859375,3.252410888671875,-2.833709716796875,1,1.0,1.0,1.0,1.0,15.00
2024-10-11 20:09:00.591,0.8857818,-0.29508,-0.220395,0.8621572,0.6529,-0.3130769,-0.17997041,0.5369084,0.7479855,-0.02771981,0.1751781,1.0789961,0.5447083,-0.20301233,-0.0749842,0.5505218,-0.1051347,-0.61990005,-0.64040697,-0.0830633,755.89746,805.05493,783.2967,772.8205,716.4103,-0.1478271484375,0.08050537109375,0.98651123046875,1.667327880859375,3.252410888671875,-2.833709716796875,1,1.0,1.0,1.0,1.0,15.00
2024-10-11 20:09:00.591,0.8857818,-0.29508,-0.220395,0.8621572,0.6529,-0.3130769,-0.17997041,0.5369084,0.7479855,-0.02771981,0.1751781,1.0789961,0.5447083,-0.20301233,-0.0749842,0.5505218,-0.1051347,-0.61990005,-0.64040697,-0.0830633,761.13556,803.8461,790.14655,777.6557,776.4469,-0.1478271484375,0.08050537109375,0.98651123046875,1.667327880859375,3.252410888671875,-2.833709716796875,1,1.0,1.0,1.0,1.0,15.00
2024-10-11 20:09:00.592,0.8857818,-0.29508,-0.220395,0.8621572,0.6529,-0.3130769,-0.17997041,0.5369084,0.7479855,-0.02771981,0.1751781,1.0789961,0.5447083,-0.20301233,-0.0749842,0.5505218,-0.1051347,-0.61990005,-0.64040697,-0.0830633,769.19415,804.2491,789.7436,781.28204,877.5824,-0.1478271484375,0.08050537109375,0.98651123046875,1.667327880859375,3.252410888671875,-2.833709716796875,1,1.0,1.0,1.0,1.0,15.00
2024-10-11 20:09:00.592,0.8857818,-0.29508,-0.220395,0.8621572,0.6529,-0.3130769,-0.17997041,0.5369084,0.7479855,-0.02771981,0.1751781,1.0789961,0.5447083,-0.20301233,-0.0749842,0.5505218,-0.1051347,-0.61990005,-0.64040697,-0.0830633,772.8205,803.44324,790.9524,784.10254,780.4762,-0.1478271484375,0.08050537109375,0.98651123046875,1.667327880859375,3.252410888671875,-2.833709716796875,1,1.0,1.0,1.0,1.0,15.00
2024-10-11 20:09:00.592,0.8857818,-0.29508,-0.220395,0.8621572,0.6529,-0.3130769,-0.17997041,0.5369084,0.7479855,-0.02771981,0.1751781,1.0789961,0.5447083,-0.20301233,-0.0749842,0.5505218,-0.1051347,-0.61990005,-0.64040697,-0.0830633,780.87915,799.41394,793.7729,790.14655,755.09155,-0.1478271484375,0.08050537109375,0.98651123046875,1.667327880859375,3.252410888671875,-2.833709716796875,1,1.0,1.0,1.0,1.0,15.00
2024-10-11 20:09:00.593,0.8857818,-0.29508,-0.220395,0.8621572,0.6529,-0.3130769,-0.17997041,0.5369084,0.7479855,-0.02771981,0.1751781,1.0789961,0.5447083,-0.20301233,-0.0749842,0.5505218,-0.1051347,-0.61990005,-0.64040697,-0.0830633,786.1172,799.011,790.54944,796.99634,1006.52014,-0.1478271484375,0.08050537109375,0.98651123046875,1.667327880859375,3.252410888671875,-2.833709716796875,1,1.0,1.0,1.0,1.0,15.00
2024-10-11 20:09:00.593,0.8857818,-0.29508,-0.220395,0.8621572,0.6529,-0.3130769,-0.17997041,0.5369084,0.7479855,-0.02771981,0.1751781,1.0789961,0.5447083,-0.20301233,-0.0749842,0.5505218,-0.1051347,-0.61990005,-0.64040697,-0.0830633,790.14655,801.02563,791.3553,807.47253,898.93774,-0.1478271484375,0.08050537109375,0.98651123046875,1.667327880859375,3.252410888671875,-2.833709716796875,1,1.0,1.0,1.0,1.0,15.00
2024-10-11 20:09:00.594,0.8857818,-0.29508,-0.220395,0.8621572,0.6529,-0.3130769,-0.17997041,0.5369084,0.7479855,-0.02771981,0.1751781,1.0789961,0.5447083,-0.20301233,-0.0749842,0.5505218,-0.1051347,-0.61990005,-0.64040697,-0.0830633,791.3553,800.6227,794.17584,807.47253,701.0989,-0.1478271484375,0.08050537109375,0.98651123046875,1.667327880859375,3.252410888671875,-2.833709716796875,1,1.0,1.0,1.0,1.0,15.00
2024-10-11 20:09:00.594,0.8857818,-0.29508,-0.220395,0.8621572,0.6529,-0.3130769,-0.17997041,0.5369084,0.7479855,-0.02771981,0.1751781,1.0789961,0.5447083,-0.20301233,-0.0749842,0.5505218,-0.1051347,-0.61990005,-0.64040697,-0.0830633,792.5641,798.20514,789.34064,806.6667,870.32965,-0.1478271484375,0.08050537109375,0.98651123046875,1.667327880859375,3.252410888671875,-2.833709716796875,1,1.0,1.0,1.0,1.0,15.00
2024-10-11 20:09:00.595,0.8857818,-0.29508,-0.220395,0.8621572,0.6529,-0.3130769,-0.17997041,0.5369084,0.7479855,-0.02771981,0.1751781,1.0789961,0.5447083,-0.20301233,-0.0749842,0.5505218,-0.1051347,-0.61990005,-0.64040697,-0.0830633,796.5934,798.20514,793.36993,810.696,1058.9011,-0.1478271484375,0.08050537109375,0.98651123046875,1.667327880859375,3.252410888671875,-2.833709716796875,1,1.0,1.0,1.0,1.0,15.00
2024-10-11 20:09:00.595,0.8857818,-0.29508,-0.220395,0.8621572,0.6529,-0.3130769,-0.17997041,0.5369084,0.7479855,-0.02771981,0.1751781,1.0789961,0.5447083,-0.20301233,-0.0749842,0.5505218,-0.1051347,-0.61990005,-0.64040697,-0.0830633,804.2491,802.6374,803.44324,813.5165,844.5421,-0.1478271484375,0.08050537109375,0.98651123046875,1.667327880859375,3.252410888671875,-2.833709716796875,1,1.0,1.0,1.0,1.0,15.00
2024-10-11 20:09:00.596,0.8857818,-0.29508,-0.220395,0.8621572,0.6529,-0.3130769,-0.17997041,0.5369084,0.7479855,-0.02771981,0.1751781,1.0789961,0.5447083,-0.20301233,-0.0749842,0.5505218,-0.1051347,-0.61990005,-0.64040697,-0.0830633,809.4872,806.6667,803.8461,813.5165,656.77655,-0.1717529296875,0.0865478515625,0.9991455078125,0.590667724609375,4.149627685546875,-0.9869384765625,1,1.0,1.0,1.0,1.0,15.00
2024-10-11 20:09:00.596,0.8857818,-0.29508,-0.220395,0.8621572,0.6529,-0.3130769,-0.17997041,0.5369084,0.7479855,-0.02771981,0.1751781,1.0789961,0.5447083,-0.20301233,-0.0749842,0.5505218,-0.1051347,-0.61990005,-0.64040697,-0.0830633,806.6667,805.05493,796.1905,808.68134,817.9487,-0.1717529296875,0.0865478515625,0.9991455078125,0.590667724609375,4.149627685546875,-0.9869384765625,1,1.0,1.0,1.0,1.0,15.00
2024-10-11 20:09:00.597,0.8857818,-0.29508,-0.220395,0.8621572,0.6529,-0.3130769,-0.17997041,0.5369084,0.7479855,-0.02771981,0.1751781,1.0789961,0.5447083,-0.20301233,-0.0749842,0.5505218,-0.1051347,-0.61990005,-0.64040697,-0.0830633,803.0403,799.41394,796.5934,806.26373,1062.9304,-0.1717529296875,0.0865478515625,0.9991455078125,0.590667724609375,4.149627685546875,-0.9869384765625,1,1.0,1.0,1.0,1.0,15.00
2024-10-11 20:09:00.598,0.8857818,-0.29508,-0.220395,0.8621572,0.6529,-0.3130769,-0.17997041,0.5369084,0.7479855,-0.02771981,0.1751781,1.0789961,0.5447083,-0.20301233,-0.0749842,0.5505218,-0.1051347,-0.61990005,-0.64040697,-0.0830633,802.23444,801.02563,799.81683,799.011,936.4103,-0.1717529296875,0.0865478515625,0.9991455078125,0.590667724609375,4.149627685546875,-0.9869384765625,1,1.0,1.0,1.0,1.0,15.00
2024-10-11 20:09:00.598,0.8857818,-0.29508,-0.220395,0.8621572,0.6529,-0.3130769,-0.17997041,0.5369084,0.7479855,-0.02771981,0.1751781,1.0789961,0.5447083,-0.20301233,-0.0749842,0.5505218,-0.1051347,-0.61990005,-0.64040697,-0.0830633,800.2198,803.8461,792.1612,793.7729,733.3333,-0.1717529296875,0.0865478515625,0.9991455078125,0.590667724609375,4.149627685546875,-0.9869384765625,1,1.0,1.0,1.0,1.0,15.00
2024-10-11 20:09:00.599,0.8857818,-0.29508,-0.220395,0.8621572,0.6529,-0.3130769,-0.17997041,0.5369084,0.7479855,-0.02771981,0.1751781,1.0789961,0.5447083,-0.20301233,-0.0749842,0.5505218,-0.1051347,-0.61990005,-0.64040697,-0.0830633,795.38464,798.60803,795.38464,795.38464,933.5897,-0.1717529296875,0.0865478515625,0.9991455078125,0.590667724609375,4.149627685546875,-0.9869384765625,1,1.0,1.0,1.0,1.0,15.00
2024-10-11 20:09:00.599,0.8857818,-0.29508,-0.220395,0.8621572,0.6529,-0.3130769,-0.17997041,0.5369084,0.7479855,-0.02771981,0.1751781,1.0789961,0.5447083,-0.20301233,-0.0749842,0.5505218,-0.1051347,-0.61990005,-0.64040697,-0.0830633,796.5934,796.5934,799.011,801.02563,1125.3846,-0.1717529296875,0.0865478515625,0.9991455078125,0.590667724609375,4.149627685546875,-0.9869384765625,1,1.0,1.0,1.0,1.0,15.00
2024-10-11 20:09:00.600,0.8857818,-0.29508,-0.220395,0.8621572,0.6529,-0.3130769,-0.17997041,0.5369084,0.7479855,-0.02771981,0.1751781,1.0789961,0.5447083,-0.20301233,-0.0749842,0.5505218,-0.1051347,-0.61990005,-0.64040697,-0.0830633,796.5934,799.41394,794.57874,801.4286,853.8095,-0.1717529296875,0.0865478515625,0.9991455078125,0.590667724609375,4.149627685546875,-0.9869384765625,1,1.0,1.0,1.0,1.0,15.00
2024-10-11 20:09:00.600,0.8857818,-0.29508,-0.220395,0.8621572,0.6529,-0.3130769,-0.17997041,0.5369084,0.7479855,-0.02771981,0.1751781,1.0789961,0.5447083,-0.20301233,-0.0749842,0.5505218,-0.1051347,-0.61990005,-0.64040697,-0.0830633,789.7436,797.8022,800.2198,800.6227,719.2308,-0.1717529296875,0.0865478515625,0.9991455078125,0.590667724609375,4.149627685546875,-0.9869384765625,1,1.0,1.0,1.0,1.0,15.00
2024-10-11 20:09:00.601,0.8857818,-0.29508,-0.220395,0.8621572,0.6529,-0.3130769,-0.17997041,0.5369084,0.7479855,-0.02771981,0.1751781,1.0789961,0.5447083,-0.20301233,-0.0749842,0.5505218,-0.1051347,-0.61990005,-0.64040697,-0.0830633,790.54944,798.20514,800.6227,803.0403,861.8681,-0.1717529296875,0.0865478515625,0.9991455078125,0.590667724609375,4.149627685546875,-0.9869384765625,1,1.0,1.0,1.0,1.0,15.00
2024-10-11 20:09:00.601,0.8857818,-0.29508,-0.220395,0.8621572,0.6529,-0.3130769,-0.17997041,0.5369084,0.7479855,-0.02771981,0.1751781,1.0789961,0.5447083,-0.20301233,-0.0749842,0.5505218,-0.1051347,-0.61990005,-0.64040697,-0.0830633,793.7729,795.38464,796.5934,813.5165,1183.4066,-0.1717529296875,0.0865478515625,0.9991455078125,0.590667724609375,4.149627685546875,-0.9869384765625,1,1.0,1.0,1.0,1.0,15.00
2024-10-11 20:09:00.602,0.98209685,-0.2651224,-0.17319623,0.9212127,0.73236704,-0.29984266,-0.12107126,0.61113536,0.76105607,-0.02771981,0.19896397,1.0765595,0.5483775,-0.17459638,-0.058030352,0.5476568,-0.047597867,-0.6023835,-0.6193374,-0.060849287,794.17584,793.7729,798.20514,819.9634,1378.022,-0.1717529296875,0.0865478515625,0.9991455078125,0.590667724609375,4.149627685546875,-0.9869384765625,1,1.0,1.0,1.0,1.0,15.00
2024-10-11 20:09:00.642,0.98209685,-0.2651224,-0.17319623,0.9212127,0.73236704,-0.29984266,-0.12107126,0.61113536,0.76105607,-0.02771981,0.19896397,1.0765595,0.5483775,-0.17459638,-0.058030352,0.5476568,-0.047597867,-0.6023835,-0.6193374,-0.060849287,797.8022,796.1905,800.2198,817.9487,1389.7069,-0.18359375,0.08477783203125,0.98602294921875,0.61309814453125,4.029998779296875,-0.575714111328125,1,1.0,1.0,1.0,1.0,15.00
2024-10-11 20:09:00.643,0.98209685,-0.2651224,-0.17319623,0.9212127,0.73236704,-0.29984266,-0.12107126,0.61113536,0.76105607,-0.02771981,0.19896397,1.0765595,0.5483775,-0.17459638,-0.058030352,0.5476568,-0.047597867,-0.6023835,-0.6193374,-0.060849287,798.60803,798.20514,800.2198,815.9341,1186.227,-0.18359375,0.08477783203125,0.98602294921875,0.61309814453125,4.029998779296875,-0.575714111328125,1,1.0,1.0,1.0,1.0,15.00
2024-10-11 20:09:00.643,0.98209685,-0.2651224,-0.17319623,0.9212127,0.73236704,-0.29984266,-0.12107126,0.61113536,0.76105607,-0.02771981,0.19896397,1.0765595,0.5483775,-0.17459638,-0.058030352,0.5476568,-0.047597867,-0.6023835,-0.6193374,-0.060849287,797.8022,798.60803,803.0403,811.0989,974.2857,-0.18359375,0.08477783203125,0.98602294921875,0.61309814453125,4.029998779296875,-0.575714111328125,1,1.0,1.0,1.0,1.0,15.00
2024-10-11 20:09:00.644,0.98209685,-0.2651224,-0.17319623,0.9212127,0.73236704,-0.29984266,-0.12107126,0.61113536,0.76105607,-0.02771981,0.19896397,1.0765595,0.5483775,-0.17459638,-0.058030352,0.5476568,-0.047597867,-0.6023835,-0.6193374,-0.060849287,801.8315,796.99634,802.6374,805.8608,794.9817,-0.18359375,0.08477783203125,0.98602294921875,0.61309814453125,4.029998779296875,-0.575714111328125,1,1.0,1.0,1.0,1.0,15.00
2024-10-11 20:09:00.645,0.98209685,-0.2651224,-0.17319623,0.9212127,0.73236704,-0.29984266,-0.12107126,0.61113536,0.76105607,-0.02771981,0.19896397,1.0765595,0.5483775,-0.17459638,-0.058030352,0.5476568,-0.047597867,-0.6023835,-0.6193374,-0.060849287,805.4579,796.99634,801.02563,806.26373,619.304,-0.18359375,0.08477783203125,0.98602294921875,0.61309814453125,4.029998779296875,-0.575714111328125,1,1.0,1.0,1.0,1.0,15.00
2024-10-11 20:09:00.645,0.98209685,-0.2651224,-0.17319623,0.9212127,0.73236704,-0.29984266,-0.12107126,0.61113536,0.76105607,-0.02771981,0.19896397,1.0765595,0.5483775,-0.17459638,-0.058030352,0.5476568,-0.047597867,-0.6023835,-0.6193374,-0.060849287,811.9048,800.6227,791.3553,811.9048,908.60803,-0.18359375,0.08477783203125,0.98602294921875,0.61309814453125,4.029998779296875,-0.575714111328125,1,1.0,1.0,1.0,1.0,15.00
2024-10-11 20:09:00.645,0.98209685,-0.2651224,-0.17319623,0.9212127,0.73236704,-0.29984266,-0.12107126,0.61113536,0.76105607,-0.02771981,0.19896397,1.0765595,0.5483775,-0.17459638,-0.058030352,0.5476568,-0.047597867,-0.6023835,-0.6193374,-0.060849287,815.12823,798.20514,791.3553,821.978,1369.9634,-0.18359375,0.08477783203125,0.98602294921875,0.61309814453125,4.029998779296875,-0.575714111328125,1,1.0,1.0,1.0,1.0,15.00
2024-10-11 20:09:00.646,0.98209685,-0.2651224,-0.17319623,0.9212127,0.73236704,-0.29984266,-0.12107126,0.61113536,0.76105607,-0.02771981,0.19896397,1.0765595,0.5483775,-0.17459638,-0.058030352,0.5476568,-0.047597867,-0.6023835,-0.6193374,-0.060849287,805.4579,793.36993,797.3993,821.1722,1374.3956,-0.18359375,0.08477783203125,0.98602294921875,0.61309814453125,4.029998779296875,-0.575714111328125,1,1.0,1.0,1.0,1.0,15.00
2024-10-11 20:09:00.646,0.98209685,-0.2651224,-0.17319623,0.9212127,0.73236704,-0.29984266,-0.12107126,0.61113536,0.76105607,-0.02771981,0.19896397,1.0765595,0.5483775,-0.17459638,-0.058030352,0.5476568,-0.047597867,-0.6023835,-0.6193374,-0.060849287,806.6667,796.1905,797.3993,811.50183,1144.7252,-0.18359375,0.08477783203125,0.98602294921875,0.61309814453125,4.029998779296875,-0.575714111328125,1,1.0,1.0,1.0,1.0,15.00
2024-10-11 20:09:00.647,0.98209685,-0.2651224,-0.17319623,0.9212127,0.73236704,-0.29984266,-0.12107126,0.61113536,0.76105607,-0.02771981,0.19896397,1.0765595,0.5483775,-0.17459638,-0.058030352,0.5476568,-0.047597867,-0.6023835,-0.6193374,-0.060849287,809.89014,797.8022,794.57874,808.2784,974.68866,-0.18359375,0.08477783203125,0.98602294921875,0.61309814453125,4.029998779296875,-0.575714111328125,1,1.0,1.0,1.0,1.0,15.00
2024-10-11 20:09:00.648,0.98209685,-0.2651224,-0.17319623,0.9212127,0.73236704,-0.29984266,-0.12107126,0.61113536,0.76105607,-0.02771981,0.19896397,1.0765595,0.5483775,-0.17459638,-0.058030352,0.5476568,-0.047597867,-0.6023835,-0.6193374,-0.060849287,807.8755,796.1905,790.14655,810.696,912.23444,-0.18359375,0.08477783203125,0.98602294921875,0.61309814453125,4.029998779296875,-0.575714111328125,1,1.0,1.0,1.0,1.0,15.00
2024-10-11 20:09:00.648,0.98209685,-0.2651224,-0.17319623,0.9212127,0.73236704,-0.29984266,-0.12107126,0.61113536,0.76105607,-0.02771981,0.19896397,1.0765595,0.5483775,-0.17459638,-0.058030352,0.5476568,-0.047597867,-0.6023835,-0.6193374,-0.060849287,808.68134,799.011,794.17584,805.8608,690.6227,-0.18359375,0.08477783203125,0.98602294921875,0.61309814453125,4.029998779296875,-0.575714111328125,1,1.0,1.0,1.0,1.0,15.00
2024-10-11 20:09:00.675,0.98209685,-0.2651224,-0.17319623,0.9212127,0.73236704,-0.29984266,-0.12107126,0.61113536,0.76105607,-0.02771981,0.19896397,1.0765595,0.5483775,-0.17459638,-0.058030352,0.5476568,-0.047597867,-0.6023835,-0.6193374,-0.060849287,811.50183,799.81683,797.8022,807.47253,658.7912,-0.18359375,0.08477783203125,0.98602294921875,0.61309814453125,4.029998779296875,-0.575714111328125,1,1.0,1.0,1.0,1.0,15.00
2024-10-11 20:09:00.676,0.98209685,-0.2651224,-0.17319623,0.9212127,0.73236704,-0.29984266,-0.12107126,0.61113536,0.76105607,-0.02771981,0.19896397,1.0765595,0.5483775,-0.17459638,-0.058030352,0.5476568,-0.047597867,-0.6023835,-0.6193374,-0.060849287,809.4872,796.99634,797.8022,810.696,879.19415,-0.18359375,0.08477783203125,0.98602294921875,0.61309814453125,4.029998779296875,-0.575714111328125,1,1.0,1.0,1.0,1.0,15.00
2024-10-11 20:09:00.677,0.98209685,-0.2651224,-0.17319623,0.9212127,0.73236704,-0.29984266,-0.12107126,0.61113536,0.76105607,-0.02771981,0.19896397,1.0765595,0.5483775,-0.17459638,-0.058030352,0.5476568,-0.047597867,-0.6023835,-0.6193374,-0.060849287,801.4286,794.17584,796.5934,809.89014,805.8608,-0.18359375,0.08477783203125,0.98602294921875,0.61309814453125,4.029998779296875,-0.575714111328125,1,1.0,1.0,1.0,1.0,15.00
2024-10-11 20:09:00.677,0.98209685,-0.2651224,-0.17319623,0.9212127,0.73236704,-0.29984266,-0.12107126,0.61113536,0.76105607,-0.02771981,0.19896397,1.0765595,0.5483775,-0.17459638,-0.058030352,0.5476568,-0.047597867,-0.6023835,-0.6193374,-0.060849287,803.44324,799.41394,799.011,811.0989,745.82416,-0.18359375,0.08477783203125,0.98602294921875,0.61309814453125,4.029998779296875,-0.575714111328125,1,1.0,1.0,1.0,1.0,15.00
2024-10-11 20:09:00.678,0.98209685,-0.2651224,-0.17319623,0.9212127,0.73236704,-0.29984266,-0.12107126,0.61113536,0.76105607,-0.02771981,0.19896397,1.0765595,0.5483775,-0.17459638,-0.058030352,0.5476568,-0.047597867,-0.6023835,-0.6193374,-0.060849287,804.2491,795.38464,803.0403,817.1429,717.619,-0.18359375,0.08477783203125,0.98602294921875,0.61309814453125,4.029998779296875,-0.575714111328125,1,1.0,1.0,1.0,1.0,15.00
2024-10-11 20:09:00.678,0.98209685,-0.2651224,-0.17319623,0.9212127,0.73236704,-0.29984266,-0.12107126,0.61113536,0.76105607,-0.02771981,0.19896397,1.0765595,0.5483775,-0.17459638,-0.058030352,0.5476568,-0.047597867,-0.6023835,-0.6193374,-0.060849287,811.0989,787.72894,805.4579,835.2747,890.4762,-0.18359375,0.08477783203125,0.98602294921875,0.61309814453125,4.029998779296875,-0.575714111328125,1,1.0,1.0,1.0,1.0,15.00
2024-10-11 20:09:00.679,0.98209685,-0.2651224,-0.17319623,0.9212127,0.73236704,-0.29984266,-0.12107126,0.61113536,0.76105607,-0.02771981,0.19896397,1.0765595,0.5483775,-0.17459638,-0.058030352,0.5476568,-0.047597867,-0.6023835,-0.6193374,-0.060849287,813.1135,798.60803,803.44324,824.3956,852.6007,-0.18359375,0.08477783203125,0.98602294921875,0.61309814453125,4.029998779296875,-0.575714111328125,1,1.0,1.0,1.0,1.0,15.00
2024-10-11 20:09:00.679,0.98209685,-0.2651224,-0.17319623,0.9212127,0.73236704,-0.29984266,-0.12107126,0.61113536,0.76105607,-0.02771981,0.19896397,1.0765595,0.5483775,-0.17459638,-0.058030352,0.5476568,-0.047597867,-0.6023835,-0.6193374,-0.060849287,798.20514,809.4872,793.7729,791.3553,647.50916,-0.18359375,0.08477783203125,0.98602294921875,0.61309814453125,4.029998779296875,-0.575714111328125,1,1.0,1.0,1.0,1.0,15.00
2024-10-11 20:09:00.680,0.98209685,-0.2651224,-0.17319623,0.9212127,0.73236704,-0.29984266,-0.12107126,0.61113536,0.76105607,-0.02771981,0.19896397,1.0765595,0.5483775,-0.17459638,-0.058030352,0.5476568,-0.047597867,-0.6023835,-0.6193374,-0.060849287,784.90845,805.4579,788.5348,783.2967,699.4872,-0.18359375,0.08477783203125,0.98602294921875,0.61309814453125,4.029998779296875,-0.575714111328125,1,1.0,1.0,1.0,1.0,15.00
2024-10-11 20:09:00.680,0.98209685,-0.2651224,-0.17319623,0.9212127,0.73236704,-0.29984266,-0.12107126,0.61113536,0.76105607,-0.02771981,0.19896397,1.0765595,0.5483775,-0.17459638,-0.058030352,0.5476568,-0.047597867,-0.6023835,-0.6193374,-0.060849287,776.4469,801.02563,788.5348,779.67035,852.6007,-0.18359375,0.08477783203125,0.98602294921875,0.61309814453125,4.029998779296875,-0.575714111328125,1,1.0,1.0,1.0,1.0,15.00
2024-10-11 20:09:00.681,0.98209685,-0.2651224,-0.17319623,0.9212127,0.73236704,-0.29984266,-0.12107126,0.61113536,0.76105607,-0.02771981,0.19896397,1.0765595,0.5483775,-0.17459638,-0.058030352,0.5476568,-0.047597867,-0.6023835,-0.6193374,-0.060849287,769.19415,807.47253,787.72894,763.5531,796.1905,-0.18359375,0.08477783203125,0.98602294921875,0.61309814453125,4.029998779296875,-0.575714111328125,1,1.0,1.0,1.0,1.0,15.00
2024-10-11 20:09:00.681,0.98209685,-0.2651224,-0.17319623,0.9212127,0.73236704,-0.29984266,-0.12107126,0.61113536,0.76105607,-0.02771981,0.19896397,1.0765595,0.5483775,-0.17459638,-0.058030352,0.5476568,-0.047597867,-0.6023835,-0.6193374,-0.060849287,764.35895,809.0842,784.10254,755.09155,669.67035,-0.18359375,0.08477783203125,0.98602294921875,0.61309814453125,4.029998779296875,-0.575714111328125,1,1.0,1.0,1.0,1.0,15.00
2024-10-11 20:09:00.712,0.98209685,-0.2651224,-0.17319623,0.9212127,0.73236704,-0.29984266,-0.12107126,0.61113536,0.76105607,-0.02771981,0.19896397,1.0765595,0.5483775,-0.17459638,-0.058030352,0.5476568,-0.047597867,-0.6023835,-0.6193374,-0.060849287,755.09155,806.6667,778.46155,750.65936,716.8132,-0.19256591796875,0.08428955078125,0.99566650390625,1.016845703125,1.099090576171875,-2.564544677734375,1,1.0,1.0,1.0,1.0,15.00
2024-10-11 20:09:00.713,1.0542415,-0.20124322,-0.13837627,0.9414923,0.7673816,-0.29699373,-0.076729886,0.6371245,0.77594537,-0.028339595,0.20289582,1.0765595,0.5684311,-0.14727227,-0.038154647,0.55865556,-0.0032474815,-0.58075637,-0.5877582,-0.056134228,745.42126,809.0842,772.8205,743.8095,843.3333,-0.19256591796875,0.08428955078125,0.99566650390625,1.016845703125,1.099090576171875,-2.564544677734375,1,1.0,1.0,1.0,1.0,15.00
2024-10-11 20:09:00.718,1.0542415,-0.20124322,-0.13837627,0.9414923,0.7673816,-0.29699373,-0.076729886,0.6371245,0.77594537,-0.028339595,0.20289582,1.0765595,0.5684311,-0.14727227,-0.038154647,0.55865556,-0.0032474815,-0.58075637,-0.5877582,-0.056134228,741.39197,811.9048,776.04395,742.6007,731.7216,-0.19256591796875,0.08428955078125,0.99566650390625,1.016845703125,1.099090576171875,-2.564544677734375,1,1.0,1.0,1.0,1.0,15.00
2024-10-11 20:09:00.719,1.0542415,-0.20124322,-0.13837627,0.9414923,0.7673816,-0.29699373,-0.076729886,0.6371245,0.77594537,-0.028339595,0.20289582,1.0765595,0.5684311,-0.14727227,-0.038154647,0.55865556,-0.0032474815,-0.58075637,-0.5877582,-0.056134228,745.42126,815.12823,772.4176,738.5714,713.1868,-0.19256591796875,0.08428955078125,0.99566650390625,1.016845703125,1.099090576171875,-2.564544677734375,1,1.0,1.0,1.0,1.0,15.00
2024-10-11 20:09:00.719,1.0542415,-0.20124322,-0.13837627,0.9414923,0.7673816,-0.29699373,-0.076729886,0.6371245,0.77594537,-0.028339595,0.20289582,1.0765595,0.5684311,-0.14727227,-0.038154647,0.55865556,-0.0032474815,-0.58075637,-0.5877582,-0.056134228,745.42126,811.9048,769.19415,736.55676,805.05493,-0.19256591796875,0.08428955078125,0.99566650390625,1.016845703125,1.099090576171875,-2.564544677734375,1,1.0,1.0,1.0,1.0,15.00
2024-10-11 20:09:00.720,1.0542415,-0.20124322,-0.13837627,0.9414923,0.7673816,-0.29699373,-0.076729886,0.6371245,0.77594537,-0.028339595,0.20289582,1.0765595,0.5684311,-0.14727227,-0.038154647,0.55865556,-0.0032474815,-0.58075637,-0.5877582,-0.056134228,752.674,812.3077,770.0,746.2271,786.52014,-0.19256591796875,0.08428955078125,0.99566650390625,1.016845703125,1.099090576171875,-2.564544677734375,1,1.0,1.0,1.0,1.0,15.00
2024-10-11 20:09:00.720,1.0542415,-0.20124322,-0.13837627,0.9414923,0.7673816,-0.29699373,-0.076729886,0.6371245,0.77594537,-0.028339595,0.20289582,1.0765595,0.5684311,-0.14727227,-0.038154647,0.55865556,-0.0032474815,-0.58075637,-0.5877582,-0.056134228,749.45056,821.1722,769.19415,745.0183,773.22345,-0.19256591796875,0.08428955078125,0.99566650390625,1.016845703125,1.099090576171875,-2.564544677734375,1,1.0,1.0,1.0,1.0,15.00
2024-10-11 20:09:00.721,1.0542415,-0.20124322,-0.13837627,0.9414923,0.7673816,-0.29699373,-0.076729886,0.6371245,0.77594537,-0.028339595,0.20289582,1.0765595,0.5684311,-0.14727227,-0.038154647,0.55865556,-0.0032474815,-0.58075637,-0.5877582,-0.056134228,756.30035,815.9341,771.6117,752.674,901.3553,-0.19256591796875,0.08428955078125,0.99566650390625,1.016845703125,1.099090576171875,-2.564544677734375,1,1.0,1.0,1.0,1.0,15.00
2024-10-11 20:09:00.721,1.0542415,-0.20124322,-0.13837627,0.9414923,0.7673816,-0.29699373,-0.076729886,0.6371245,0.77594537,-0.028339595,0.20289582,1.0765595,0.5684311,-0.14727227,-0.038154647,0.55865556,-0.0032474815,-0.58075637,-0.5877582,-0.056134228,769.59705,811.50183,773.22345,764.7619,971.06226,-0.19256591796875,0.08428955078125,0.99566650390625,1.016845703125,1.099090576171875,-2.564544677734375,1,1.0,1.0,1.0,1.0,15.00
2024-10-11 20:09:00.722,1.0542415,-0.20124322,-0.13837627,0.9414923,0.7673816,-0.29699373,-0.076729886,0.6371245,0.77594537,-0.028339595,0.20289582,1.0765595,0.5684311,-0.14727227,-0.038154647,0.55865556,-0.0032474815,-0.58075637,-0.5877582,-0.056134228,770.0,813.5165,773.22345,765.16486,836.4835,-0.19256591796875,0.08428955078125,0.99566650390625,1.016845703125,1.099090576171875,-2.564544677734375,1,1.0,1.0,1.0,1.0,15.00
2024-10-11 20:09:00.723,1.0542415,-0.20124322,-0.13837627,0.9414923,0.7673816,-0.29699373,-0.076729886,0.6371245,0.77594537,-0.028339595,0.20289582,1.0765595,0.5684311,-0.14727227,-0.038154647,0.55865556,-0.0032474815,-0.58075637,-0.5877582,-0.056134228,773.22345,813.5165,775.2381,767.98535,737.3626,-0.19256591796875,0.08428955078125,0.99566650390625,1.016845703125,1.099090576171875,-2.564544677734375,1,1.0,1.0,1.0,1.0,15.00
2024-10-11 20:09:00.723,1.0542415,-0.20124322,-0.13837627,0.9414923,0.7673816,-0.29699373,-0.076729886,0.6371245,0.77594537,-0.028339595,0.20289582,1.0765595,0.5684311,-0.14727227,-0.038154647,0.55865556,-0.0032474815,-0.58075637,-0.5877582,-0.056134228,782.0879,809.4872,776.04395,776.8498,707.1429,-0.19256591796875,0.08428955078125,0.99566650390625,1.016845703125,1.099090576171875,-2.564544677734375,1,1.0,1.0,1.0,1.0,15.00
2024-10-11 20:09:00.724,1.0542415,-0.20124322,-0.13837627,0.9414923,0.7673816,-0.29699373,-0.076729886,0.6371245,0.77594537,-0.028339595,0.20289582,1.0765595,0.5684311,-0.14727227,-0.038154647,0.55865556,-0.0032474815,-0.58075637,-0.5877582,-0.056134228,784.90845,803.8461,778.0586,788.5348,888.0586,-0.1895751953125,0.0802001953125,0.9925537109375,-0.007476806640625,0.478515625,-4.912261962890625,1,1.0,1.0,1.0,1.0,15.00
2024-10-11 20:09:00.725,1.0542415,-0.20124322,-0.13837627,0.9414923,0.7673816,-0.29699373,-0.076729886,0.6371245,0.77594537,-0.028339595,0.20289582,1.0765595,0.5684311,-0.14727227,-0.038154647,0.55865556,-0.0032474815,-0.58075637,-0.5877582,-0.056134228,782.0879,802.23444,776.8498,790.14655,872.3443,-0.1895751953125,0.0802001953125,0.9925537109375,-0.007476806640625,0.478515625,-4.912261962890625,1,1.0,1.0,1.0,1.0,15.00
2024-10-11 20:09:00.725,1.0542415,-0.20124322,-0.13837627,0.9414923,0.7673816,-0.29699373,-0.076729886,0.6371245,0.77594537,-0.028339595,0.20289582,1.0765595,0.5684311,-0.14727227,-0.038154647,0.55865556,-0.0032474815,-0.58075637,-0.5877582,-0.056134228,786.1172,807.8755,778.86444,790.54944,487.14285,-0.1895751953125,0.0802001953125,0.9925537109375,-0.007476806640625,0.478515625,-4.912261962890625,1,1.0,1.0,1.0,1.0,15.00
2024-10-11 20:09:00.726,1.0542415,-0.20124322,-0.13837627,0.9414923,0.7673816,-0.29699373,-0.076729886,0.6371245,0.77594537,-0.028339595,0.20289582,1.0765595,0.5684311,-0.14727227,-0.038154647,0.55865556,-0.0032474815,-0.58075637,-0.5877582,-0.056134228,792.5641,811.0989,784.5055,791.3553,525.42126,-0.1895751953125,0.0802001953125,0.9925537109375,-0.007476806640625,0.478515625,-4.912261962890625,1,1.0,1.0,1.0,1.0,15.00
2024-10-11 20:09:00.726,1.0542415,-0.20124322,-0.13837627,0.9414923,0.7673816,-0.29699373,-0.076729886,0.6371245,0.77594537,-0.028339595,0.20289582,1.0765595,0.5684311,-0.14727227,-0.038154647,0.55865556,-0.0032474815,-0.58075637,-0.5877582,-0.056134228,793.7729,807.47253,786.9231,793.36993,759.92676,-0.1895751953125,0.0802001953125,0.9925537109375,-0.007476806640625,0.478515625,-4.912261962890625,1,1.0,1.0,1.0,1.0,15.00
2024-10-11 20:09:00.727,1.0542415,-0.20124322,-0.13837627,0.9414923,0.7673816,-0.29699373,-0.076729886,0.6371245,0.77594537,-0.028339595,0.20289582,1.0765595,0.5684311,-0.14727227,-0.038154647,0.55865556,-0.0032474815,-0.58075637,-0.5877582,-0.056134228,795.38464,805.8608,787.326,796.1905,741.79486,-0.1895751953125,0.0802001953125,0.9925537109375,-0.007476806640625,0.478515625,-4.912261962890625,1,1.0,1.0,1.0,1.0,15.00
2024-10-11 20:09:00.728,1.0542415,-0.20124322,-0.13837627,0.9414923,0.7673816,-0.29699373,-0.076729886,0.6371245,0.77594537,-0.028339595,0.20289582,1.0765595,0.5684311,-0.14727227,-0.038154647,0.55865556,-0.0032474815,-0.58075637,-0.5877582,-0.056134228,795.78754,808.2784,788.93774,791.75824,778.86444,-0.1895751953125,0.0802001953125,0.9925537109375,-0.007476806640625,0.478515625,-4.912261962890625,1,1.0,1.0,1.0,1.0,15.00
2024-10-11 20:09:00.728,1.0542415,-0.20124322,-0.13837627,0.9414923,0.7673816,-0.29699373,-0.076729886,0.6371245,0.77594537,-0.028339595,0.20289582,1.0765595,0.5684311,-0.14727227,-0.038154647,0.55865556,-0.0032474815,-0.58075637,-0.5877582,-0.056134228,797.8022,809.4872,788.5348,794.9817,813.5165,-0.1895751953125,0.0802001953125,0.9925537109375,-0.007476806640625,0.478515625,-4.912261962890625,1,1.0,1.0,1.0,1.0,15.00
2024-10-11 20:09:00.729,1.0542415,-0.20124322,-0.13837627,0.9414923,0.7673816,-0.29699373,-0.076729886,0.6371245,0.77594537,-0.028339595,0.20289582,1.0765595,0.5684311,-0.14727227,-0.038154647,0.55865556,-0.0032474815,-0.58075637,-0.5877582,-0.056134228,804.2491,803.8461,786.52014,809.0842,1050.8425,-0.1895751953125,0.0802001953125,0.9925537109375,-0.007476806640625,0.478515625,-4.912261962890625,1,1.0,1.0,1.0,1.0,15.00
2024-10-11 20:09:00.729,1.0542415,-0.20124322,-0.13837627,0.9414923,0.7673816,-0.29699373,-0.076729886,0.6371245,0.77594537,-0.028339595,0.20289582,1.0765595,0.5684311,-0.14727227,-0.038154647,0.55865556,-0.0032474815,-0.58075637,-0.5877582,-0.056134228,804.2491,801.8315,787.326,806.26373,881.2088,-0.1895751953125,0.0802001953125,0.9925537109375,-0.007476806640625,0.478515625,-4.912261962890625,1,1.0,1.0,1.0,1.0,15.00
2024-10-11 20:09:00.730,1.0542415,-0.20124322,-0.13837627,0.9414923,0.7673816,-0.29699373,-0.076729886,0.6371245,0.77594537,-0.028339595,0.20289582,1.0765595,0.5684311,-0.14727227,-0.038154647,0.55865556,-0.0032474815,-0.58075637,-0.5877582,-0.056134228,805.05493,804.2491,790.54944,803.8461,579.011,-0.1895751953125,0.0802001953125,0.9925537109375,-0.007476806640625,0.478515625,-4.912261962890625,1,1.0,1.0,1.0,1.0,15.00
2024-10-11 20:09:00.730,1.0542415,-0.20124322,-0.13837627,0.9414923,0.7673816,-0.29699373,-0.076729886,0.6371245,0.77594537,-0.028339595,0.20289582,1.0765595,0.5684311,-0.14727227,-0.038154647,0.55865556,-0.0032474815,-0.58075637,-0.5877582,-0.056134228,809.89014,806.6667,797.3993,812.71063,710.3663,-0.1895751953125,0.0802001953125,0.9925537109375,-0.007476806640625,0.478515625,-4.912261962890625,1,1.0,1.0,1.0,1.0,15.00
2024-10-11 20:09:00.753,1.0542415,-0.20124322,-0.13837627,0.9414923,0.7673816,-0.29699373,-0.076729886,0.6371245,0.77594537,-0.028339595,0.20289582,1.0765595,0.5684311,-0.14727227,-0.038154647,0.55865556,-0.0032474815,-0.58075637,-0.5877582,-0.056134228,809.4872,807.0696,798.60803,810.696,782.0879,-0.18194580078125,0.081787109375,0.98077392578125,0.142059326171875,0.755157470703125,-4.762725830078125,1,1.0,1.0,1.0,1.0,15.00
2024-10-11 20:09:00.754,1.0542415,-0.20124322,-0.13837627,0.9414923,0.7673816,-0.29699373,-0.076729886,0.6371245,0.77594537,-0.028339595,0.20289582,1.0765595,0.5684311,-0.14727227,-0.038154647,0.55865556,-0.0032474815,-0.58075637,-0.5877582,-0.056134228,813.1135,806.6667,795.78754,811.0989,653.1502,-0.18194580078125,0.081787109375,0.98077392578125,0.142059326171875,0.755157470703125,-4.762725830078125,1,1.0,1.0,1.0,1.0,15.00
2024-10-11 20:09:00.754,1.0542415,-0.20124322,-0.13837627,0.9414923,0.7673816,-0.29699373,-0.076729886,0.6371245,0.77594537,-0.028339595,0.20289582,1.0765595,0.5684311,-0.14727227,-0.038154647,0.55865556,-0.0032474815,-0.58075637,-0.5877582,-0.056134228,816.7399,805.8608,794.9817,811.50183,605.6044,-0.18194580078125,0.081787109375,0.98077392578125,0.142059326171875,0.755157470703125,-4.762725830078125,1,1.0,1.0,1.0,1.0,15.00
2024-10-11 20:09:00.755,1.0863291,-0.1393168,-0.09415407,0.9646539,0.79619676,-0.29110342,-0.0332737,0.6651605,0.77594537,-0.055552877,0.20687212,1.0765595,0.57986635,-0.12534598,-0.014123287,0.5755437,0.018634638,-0.5722489,-0.5522879,-0.04567109,809.4872,804.2491,792.96704,808.68134,662.01465,-0.18194580078125,0.081787109375,0.98077392578125,0.142059326171875,0.755157470703125,-4.762725830078125,1,1.0,1.0,1.0,1.0,15.00
2024-10-11 20:09:00.759,1.0863291,-0.1393168,-0.09415407,0.9646539,0.79619676,-0.29110342,-0.0332737,0.6651605,0.77594537,-0.055552877,0.20687212,1.0765595,0.57986635,-0.12534598,-0.014123287,0.5755437,0.018634638,-0.5722489,-0.5522879,-0.04567109,804.2491,800.6227,795.38464,809.4872,728.9011,-0.18194580078125,0.081787109375,0.98077392578125,0.142059326171875,0.755157470703125,-4.762725830078125,1,1.0,1.0,1.0,1.0,15.00
2024-10-11 20:09:00.760,1.0863291,-0.1393168,-0.09415407,0.9646539,0.79619676,-0.29110342,-0.0332737,0.6651605,0.77594537,-0.055552877,0.20687212,1.0765595,0.57986635,-0.12534598,-0.014123287,0.5755437,0.018634638,-0.5722489,-0.5522879,-0.04567109,799.81683,800.2198,794.17584,810.696,809.89014,-0.18194580078125,0.081787109375,0.98077392578125,0.142059326171875,0.755157470703125,-4.762725830078125,1,1.0,1.0,1.0,1.0,15.00
2024-10-11 20:09:00.760,1.0863291,-0.1393168,-0.09415407,0.9646539,0.79619676,-0.29110342,-0.0332737,0.6651605,0.77594537,-0.055552877,0.20687212,1.0765595,0.57986635,-0.12534598,-0.014123287,0.5755437,0.018634638,-0.5722489,-0.5522879,-0.04567109,795.38464,801.4286,789.34064,806.26373,758.315,-0.18194580078125,0.081787109375,0.98077392578125,0.142059326171875,0.755157470703125,-4.762725830078125,1,1.0,1.0,1.0,1.0,15.00
2024-10-11 20:09:00.761,1.0863291,-0.1393168,-0.09415407,0.9646539,0.79619676,-0.29110342,-0.0332737,0.6651605,0.77594537,-0.055552877,0.20687212,1.0765595,0.57986635,-0.12534598,-0.014123287,0.5755437,0.018634638,-0.5722489,-0.5522879,-0.04567109,795.78754,801.4286,794.17584,809.0842,817.1429,-0.18194580078125,0.081787109375,0.98077392578125,0.142059326171875,0.755157470703125,-4.762725830078125,1,1.0,1.0,1.0,1.0,15.00
2024-10-11 20:09:00.761,1.0863291,-0.1393168,-0.09415407,0.9646539,0.79619676,-0.29110342,-0.0332737,0.6651605,0.77594537,-0.055552877,0.20687212,1.0765595,0.57986635,-0.12534598,-0.014123287,0.5755437,0.018634638,-0.5722489,-0.5522879,-0.04567109,792.1612,797.8022,796.1905,821.5751,1260.3663,-0.18194580078125,0.081787109375,0.98077392578125,0.142059326171875,0.755157470703125,-4.762725830078125,1,1.0,1.0,1.0,1.0,15.00
2024-10-11 20:09:00.762,1.0863291,-0.1393168,-0.09415407,0.9646539,0.79619676,-0.29110342,-0.0332737,0.6651605,0.77594537,-0.055552877,0.20687212,1.0765595,0.57986635,-0.12534598,-0.014123287,0.5755437,0.018634638,-0.5722489,-0.5522879,-0.04567109,794.9817,802.23444,798.60803,815.9341,1160.8425,-0.18194580078125,0.081787109375,0.98077392578125,0.142059326171875,0.755157470703125,-4.762725830078125,1,1.0,1.0,1.0,1.0,15.00
2024-10-11 20:09:00.763,1.0863291,-0.1393168,-0.09415407,0.9646539,0.79619676,-0.29110342,-0.0332737,0.6651605,0.77594537,-0.055552877,0.20687212,1.0765595,0.57986635,-0.12534598,-0.014123287,0.5755437,0.018634638,-0.5722489,-0.5522879,-0.04567109,799.81683,803.8461,803.0403,810.293,687.3993,-0.18194580078125,0.081787109375,0.98077392578125,0.142059326171875,0.755157470703125,-4.762725830078125,1,1.0,1.0,1.0,1.0,15.00
2024-10-11 20:09:00.763,1.0863291,-0.1393168,-0.09415407,0.9646539,0.79619676,-0.29110342,-0.0332737,0.6651605,0.77594537,-0.055552877,0.20687212,1.0765595,0.57986635,-0.12534598,-0.014123287,0.5755437,0.018634638,-0.5722489,-0.5522879,-0.04567109,805.05493,801.8315,803.8461,818.7546,805.05493,-0.18194580078125,0.081787109375,0.98077392578125,0.142059326171875,0.755157470703125,-4.762725830078125,1,1.0,1.0,1.0,1.0,15.00
2024-10-11 20:09:00.785,1.0863291,-0.1393168,-0.09415407,0.9646539,0.79619676,-0.29110342,-0.0332737,0.6651605,0.77594537,-0.055552877,0.20687212,1.0765595,0.57986635,-0.12534598,-0.014123287,0.5755437,0.018634638,-0.5722489,-0.5522879,-0.04567109,805.4579,806.6667,803.8461,821.978,807.8755,-0.20025634765625,0.079345703125,0.9842529296875,-0.112152099609375,2.64678955078125,-2.923431396484375,1,1.0,1.0,1.0,1.0,15.00
2024-10-11 20:09:00.785,1.0863291,-0.1393168,-0.09415407,0.9646539,0.79619676,-0.29110342,-0.0332737,0.6651605,0.77594537,-0.055552877,0.20687212,1.0765595,0.57986635,-0.12534598,-0.014123287,0.5755437,0.018634638,-0.5722489,-0.5522879,-0.04567109,807.8755,808.2784,803.44324,822.7839,649.5238,-0.20025634765625,0.079345703125,0.9842529296875,-0.112152099609375,2.64678955078125,-2.923431396484375,1,1.0,1.0,1.0,1.0,15.00
2024-10-11 20:09:00.786,1.0863291,-0.1393168,-0.09415407,0.9646539,0.79619676,-0.29110342,-0.0332737,0.6651605,0.77594537,-0.055552877,0.20687212,1.0765595,0.57986635,-0.12534598,-0.014123287,0.5755437,0.018634638,-0.5722489,-0.5522879,-0.04567109,813.1135,804.2491,800.2198,820.7692,750.65936,-0.20025634765625,0.079345703125,0.9842529296875,-0.112152099609375,2.64678955078125,-2.923431396484375,1,1.0,1.0,1.0,1.0,15.00
2024-10-11 20:09:00.786,1.0863291,-0.1393168,-0.09415407,0.9646539,0.79619676,-0.29110342,-0.0332737,0.6651605,0.77594537,-0.055552877,0.20687212,1.0765595,0.57986635,-0.12534598,-0.014123287,0.5755437,0.018634638,-0.5722489,-0.5522879,-0.04567109,818.7546,801.8315,796.99634,821.1722,964.21246,-0.20025634765625,0.079345703125,0.9842529296875,-0.112152099609375,2.64678955078125,-2.923431396484375,1,1.0,1.0,1.0,1.0,15.00
2024-10-11 20:09:00.787,1.0863291,-0.1393168,-0.09415407,0.9646539,0.79619676,-0.29110342,-0.0332737,0.6651605,0.77594537,-0.055552877,0.20687212,1.0765595,0.57986635,-0.12534598,-0.014123287,0.5755437,0.018634638,-0.5722489,-0.5522879,-0.04567109,819.9634,801.8315,799.011,819.9634,795.38464,-0.20025634765625,0.079345703125,0.9842529296875,-0.112152099609375,2.64678955078125,-2.923431396484375,1,1.0,1.0,1.0,1.0,15.00
2024-10-11 20:09:00.788,1.0863291,-0.1393168,-0.09415407,0.9646539,0.79619676,-0.29110342,-0.0332737,0.6651605,0.77594537,-0.055552877,0.20687212,1.0765595,0.57986635,-0.12534598,-0.014123287,0.5755437,0.018634638,-0.5722489,-0.5522879,-0.04567109,813.1135,802.6374,795.78754,817.9487,686.1905,-0.20025634765625,0.079345703125,0.9842529296875,-0.112152099609375,2.64678955078125,-2.923431396484375,1,1.0,1.0,1.0,1.0,15.00
2024-10-11 20:09:00.788,1.0863291,-0.1393168,-0.09415407,0.9646539,0.79619676,-0.29110342,-0.0332737,0.6651605,0.77594537,-0.055552877,0.20687212,1.0765595,0.57986635,-0.12534598,-0.014123287,0.5755437,0.018634638,-0.5722489,-0.5522879,-0.04567109,816.337,805.05493,794.57874,820.7692,880.80585,-0.20025634765625,0.079345703125,0.9842529296875,-0.112152099609375,2.64678955078125,-2.923431396484375,1,1.0,1.0,1.0,1.0,15.00
2024-10-11 20:09:00.789,1.0863291,-0.1393168,-0.09415407,0.9646539,0.79619676,-0.29110342,-0.0332737,0.6651605,0.77594537,-0.055552877,0.20687212,1.0765595,0.57986635,-0.12534598,-0.014123287,0.5755437,0.018634638,-0.5722489,-0.5522879,-0.04567109,820.7692,804.2491,795.38464,826.0073,1124.1758,-0.20025634765625,0.079345703125,0.9842529296875,-0.112152099609375,2.64678955078125,-2.923431396484375,1,1.0,1.0,1.0,1.0,15.00
2024-10-11 20:09:00.789,1.0863291,-0.1393168,-0.09415407,0.9646539,0.79619676,-0.29110342,-0.0332737,0.6651605,0.77594537,-0.055552877,0.20687212,1.0765595,0.57986635,-0.12534598,-0.014123287,0.5755437,0.018634638,-0.5722489,-0.5522879,-0.04567109,816.7399,803.0403,792.96704,818.7546,811.0989,-0.20025634765625,0.079345703125,0.9842529296875,-0.112152099609375,2.64678955078125,-2.923431396484375,1,1.0,1.0,1.0,1.0,15.00
2024-10-11 20:09:00.790,1.0863291,-0.1393168,-0.09415407,0.9646539,0.79619676,-0.29110342,-0.0332737,0.6651605,0.77594537,-0.055552877,0.20687212,1.0765595,0.57986635,-0.12534598,-0.014123287,0.5755437,0.018634638,-0.5722489,-0.5522879,-0.04567109,809.4872,801.8315,792.96704,813.5165,593.5165,-0.20025634765625,0.079345703125,0.9842529296875,-0.112152099609375,2.64678955078125,-2.923431396484375,1,1.0,1.0,1.0,1.0,15.00
2024-10-11 20:09:00.790,1.0863291,-0.1393168,-0.09415407,0.9646539,0.79619676,-0.29110342,-0.0332737,0.6651605,0.77594537,-0.055552877,0.20687212,1.0765595,0.57986635,-0.12534598,-0.014123287,0.5755437,0.018634638,-0.5722489,-0.5522879,-0.04567109,804.65204,799.011,799.41394,816.337,767.5824,-0.20025634765625,0.079345703125,0.9842529296875,-0.112152099609375,2.64678955078125,-2.923431396484375,1,1.0,1.0,1.0,1.0,15.00
2024-10-11 20:09:00.791,1.0863291,-0.1393168,-0.09415407,0.9646539,0.79619676,-0.29110342,-0.0332737,0.6651605,0.77594537,-0.055552877,0.20687212,1.0765595,0.57986635,-0.12534598,-0.014123287,0.5755437,0.018634638,-0.5722489,-0.5522879,-0.04567109,808.68134,795.78754,803.44324,820.3663,945.6777,-0.20025634765625,0.079345703125,0.9842529296875,-0.112152099609375,2.64678955078125,-2.923431396484375,1,1.0,1.0,1.0,1.0,15.00
2024-10-11 20:09:00.884,1.0863291,-0.1393168,-0.09415407,0.9646539,0.79619676,-0.29110342,-0.0332737,0.6651605,0.77594537,-0.055552877,0.20687212,1.0765595,0.57986635,-0.12534598,-0.014123287,0.5755437,0.018634638,-0.5722489,-0.5522879,-0.04567109,804.2491,798.60803,796.5934,815.9341,775.2381,-0.21539306640625,0.07867431640625,0.97900390625,0.665435791015625,4.299163818359375,-2.280426025390625,1,1.0,1.0,1.0,1.0,15.00
2024-10-11 20:09:00.885,1.0863291,-0.1393168,-0.09415407,0.9646539,0.79619676,-0.29110342,-0.0332737,0.6651605,0.77594537,-0.055552877,0.20687212,1.0765595,0.57986635,-0.12534598,-0.014123287,0.5755437,0.018634638,-0.5722489,-0.5522879,-0.04567109,799.81683,797.8022,798.60803,813.1135,635.42126,-0.21539306640625,0.07867431640625,0.97900390625,0.665435791015625,4.299163818359375,-2.280426025390625,1,1.0,1.0,1.0,1.0,15.00
2024-10-11 20:09:00.886,1.0863291,-0.1393168,-0.09415407,0.9646539,0.79619676,-0.29110342,-0.0332737,0.6651605,0.77594537,-0.055552877,0.20687212,1.0765595,0.57986635,-0.12534598,-0.014123287,0.5755437,0.018634638,-0.5722489,-0.5522879,-0.04567109,804.2491,794.9817,800.2198,814.3223,845.7509,-0.21539306640625,0.07867431640625,0.97900390625,0.665435791015625,4.299163818359375,-2.280426025390625,1,1.0,1.0,1.0,1.0,15.00
2024-10-11 20:09:00.886,1.0863291,-0.1393168,-0.09415407,0.9646539,0.79619676,-0.29110342,-0.0332737,0.6651605,0.77594537,-0.055552877,0.20687212,1.0765595,0.57986635,-0.12534598,-0.014123287,0.5755437,0.018634638,-0.5722489,-0.5522879,-0.04567109,807.47253,793.36993,794.57874,815.9341,886.04395,-0.21539306640625,0.07867431640625,0.97900390625,0.665435791015625,4.299163818359375,-2.280426025390625,1,1.0,1.0,1.0,1.0,15.00
2024-10-11 20:09:00.887,1.0863291,-0.1393168,-0.09415407,0.9646539,0.79619676,-0.29110342,-0.0332737,0.6651605,0.77594537,-0.055552877,0.20687212,1.0765595,0.57986635,-0.12534598,-0.014123287,0.5755437,0.018634638,-0.5722489,-0.5522879,-0.04567109,807.8755,791.75824,797.3993,815.12823,739.7802,-0.21539306640625,0.07867431640625,0.97900390625,0.665435791015625,4.299163818359375,-2.280426025390625,1,1.0,1.0,1.0,1.0,15.00
2024-10-11 20:09:00,,,,,,,,,,,,,,,,,,,,,,,,,,,,,,,,,,,,,,/muse/elements/blink
2024-10-11 20:09:00.887,1.1215323,-0.09282649,-0.011085869,0.98875684,0.82472366,-0.2604185,0.02928244,0.69514805,0.77594537,-0.065945834,0.23924504,1.0765595,0.5964265,-0.108706415,0.014443403,0.59496135,0.047053877,-0.5799716,-0.51713336,-0.03220049,807.0696,793.7729,799.011,815.5311,738.1685,-0.21539306640625,0.07867431640625,0.97900390625,0.665435791015625,4.299163818359375,-2.280426025390625,1,1.0,1.0,1.0,1.0,15.00
2024-10-11 20:09:00.892,1.1215323,-0.09282649,-0.011085869,0.98875684,0.82472366,-0.2604185,0.02928244,0.69514805,0.77594537,-0.065945834,0.23924504,1.0765595,0.5964265,-0.108706415,0.014443403,0.59496135,0.047053877,-0.5799716,-0.51713336,-0.03220049,813.1135,792.5641,799.81683,832.0513,1092.7472,-0.21539306640625,0.07867431640625,0.97900390625,0.665435791015625,4.299163818359375,-2.280426025390625,1,1.0,1.0,1.0,1.0,15.00
2024-10-11 20:09:00.893,1.1215323,-0.09282649,-0.011085869,0.98875684,0.82472366,-0.2604185,0.02928244,0.69514805,0.77594537,-0.065945834,0.23924504,1.0765595,0.5964265,-0.108706415,0.014443403,0.59496135,0.047053877,-0.5799716,-0.51713336,-0.03220049,819.5604,797.3993,802.6374,842.52747,1301.0623,-0.21539306640625,0.07867431640625,0.97900390625,0.665435791015625,4.299163818359375,-2.280426025390625,1,1.0,1.0,1.0,1.0,15.00
2024-10-11 20:09:00.893,1.1215323,-0.09282649,-0.011085869,0.98875684,0.82472366,-0.2604185,0.02928244,0.69514805,0.77594537,-0.065945834,0.23924504,1.0765595,0.5964265,-0.108706415,0.014443403,0.59496135,0.047053877,-0.5799716,-0.51713336,-0.03220049,814.3223,805.4579,797.8022,820.3663,801.4286,-0.21539306640625,0.07867431640625,0.97900390625,0.665435791015625,4.299163818359375,-2.280426025390625,1,1.0,1.0,1.0,1.0,15.00
2024-10-11 20:09:00.894,1.1215323,-0.09282649,-0.011085869,0.98875684,0.82472366,-0.2604185,0.02928244,0.69514805,0.77594537,-0.065945834,0.23924504,1.0765595,0.5964265,-0.108706415,0.014443403,0.59496135,0.047053877,-0.5799716,-0.51713336,-0.03220049,813.91943,807.0696,789.34064,807.0696,601.978,-0.21539306640625,0.07867431640625,0.97900390625,0.665435791015625,4.299163818359375,-2.280426025390625,1,1.0,1.0,1.0,1.0,15.00
2024-10-11 20:09:00.895,1.1215323,-0.09282649,-0.011085869,0.98875684,0.82472366,-0.2604185,0.02928244,0.69514805,0.77594537,-0.065945834,0.23924504,1.0765595,0.5964265,-0.108706415,0.014443403,0.59496135,0.047053877,-0.5799716,-0.51713336,-0.03220049,821.5751,805.05493,790.9524,815.12823,773.6264,-0.21539306640625,0.07867431640625,0.97900390625,0.665435791015625,4.299163818359375,-2.280426025390625,1,1.0,1.0,1.0,1.0,15.00
2024-10-11 20:09:00.895,1.1215323,-0.09282649,-0.011085869,0.98875684,0.82472366,-0.2604185,0.02928244,0.69514805,0.77594537,-0.065945834,0.23924504,1.0765595,0.5964265,-0.108706415,0.014443403,0.59496135,0.047053877,-0.5799716,-0.51713336,-0.03220049,808.68134,803.8461,792.5641,810.696,697.0696,-0.21539306640625,0.07867431640625,0.97900390625,0.665435791015625,4.299163818359375,-2.280426025390625,1,1.0,1.0,1.0,1.0,15.00
2024-10-11 20:09:00.949,1.1215323,-0.09282649,-0.011085869,0.98875684,0.82472366,-0.2604185,0.02928244,0.69514805,0.77594537,-0.065945834,0.23924504,1.0765595,0.5964265,-0.108706415,0.014443403,0.59496135,0.047053877,-0.5799716,-0.51713336,-0.03220049,801.4286,804.2491,790.54944,803.8461,670.4762,-0.21539306640625,0.07867431640625,0.97900390625,0.665435791015625,4.299163818359375,-2.280426025390625,1,1.0,1.0,1.0,1.0,15.00
2024-10-11 20:09:00.950,1.1215323,-0.09282649,-0.011085869,0.98875684,0.82472366,-0.2604185,0.02928244,0.69514805,0.77594537,-0.065945834,0.23924504,1.0765595,0.5964265,-0.108706415,0.014443403,0.59496135,0.047053877,-0.5799716,-0.51713336,-0.03220049,815.12823,805.4579,793.7729,807.0696,711.978,-0.21539306640625,0.07867431640625,0.97900390625,0.665435791015625,4.299163818359375,-2.280426025390625,1,1.0,1.0,1.0,1.0,15.00
2024-10-11 20:09:00.951,1.1215323,-0.09282649,-0.011085869,0.98875684,0.82472366,-0.2604185,0.02928244,0.69514805,0.77594537,-0.065945834,0.23924504,1.0765595,0.5964265,-0.108706415,0.014443403,0.59496135,0.047053877,-0.5799716,-0.51713336,-0.03220049,818.7546,802.6374,793.7729,809.4872,754.68866,-0.21539306640625,0.07867431640625,0.97900390625,0.665435791015625,4.299163818359375,-2.280426025390625,1,1.0,1.0,1.0,1.0,15.00
2024-10-11 20:09:00.952,1.1215323,-0.09282649,-0.011085869,0.98875684,0.82472366,-0.2604185,0.02928244,0.69514805,0.77594537,-0.065945834,0.23924504,1.0765595,0.5964265,-0.108706415,0.014443403,0.59496135,0.047053877,-0.5799716,-0.51713336,-0.03220049,820.7692,800.6227,794.17584,817.1429,728.0952,-0.21539306640625,0.07867431640625,0.97900390625,0.665435791015625,4.299163818359375,-2.280426025390625,1,1.0,1.0,1.0,1.0,15.00
2024-10-11 20:09:00.952,1.1215323,-0.09282649,-0.011085869,0.98875684,0.82472366,-0.2604185,0.02928244,0.69514805,0.77594537,-0.065945834,0.23924504,1.0765595,0.5964265,-0.108706415,0.014443403,0.59496135,0.047053877,-0.5799716,-0.51713336,-0.03220049,821.1722,798.60803,790.14655,815.9341,643.8828,-0.21539306640625,0.07867431640625,0.97900390625,0.665435791015625,4.299163818359375,-2.280426025390625,1,1.0,1.0,1.0,1.0,15.00
2024-10-11 20:09:00.953,1.1215323,-0.09282649,-0.011085869,0.98875684,0.82472366,-0.2604185,0.02928244,0.69514805,0.77594537,-0.065945834,0.23924504,1.0765595,0.5964265,-0.108706415,0.014443403,0.59496135,0.047053877,-0.5799716,-0.51713336,-0.03220049,816.337,792.5641,786.1172,814.3223,751.06226,-0.21539306640625,0.07867431640625,0.97900390625,0.665435791015625,4.299163818359375,-2.280426025390625,1,1.0,1.0,1.0,1.0,15.00
2024-10-11 20:09:00.954,1.1215323,-0.09282649,-0.011085869,0.98875684,0.82472366,-0.2604185,0.02928244,0.69514805,0.77594537,-0.065945834,0.23924504,1.0765595,0.5964265,-0.108706415,0.014443403,0.59496135,0.047053877,-0.5799716,-0.51713336,-0.03220049,811.9048,790.9524,785.31134,821.1722,1066.1538,-0.21539306640625,0.07867431640625,0.97900390625,0.665435791015625,4.299163818359375,-2.280426025390625,1,1.0,1.0,1.0,1.0,15.00
2024-10-11 20:09:00.954,1.1215323,-0.09282649,-0.011085869,0.98875684,0.82472366,-0.2604185,0.02928244,0.69514805,0.77594537,-0.065945834,0.23924504,1.0765595,0.5964265,-0.108706415,0.014443403,0.59496135,0.047053877,-0.5799716,-0.51713336,-0.03220049,815.12823,796.1905,787.326,819.9634,875.16486,-0.21539306640625,0.07867431640625,0.97900390625,0.665435791015625,4.299163818359375,-2.280426025390625,1,1.0,1.0,1.0,1.0,15.00
2024-10-11 20:09:00.955,1.1215323,-0.09282649,-0.011085869,0.98875684,0.82472366,-0.2604185,0.02928244,0.69514805,0.77594537,-0.065945834,0.23924504,1.0765595,0.5964265,-0.108706415,0.014443403,0.59496135,0.047053877,-0.5799716,-0.51713336,-0.03220049,813.1135,796.99634,789.34064,817.5458,655.56775,-0.21539306640625,0.07867431640625,0.97900390625,0.665435791015625,4.299163818359375,-2.280426025390625,1,1.0,1.0,1.0,1.0,15.00
2024-10-11 20:09:00.955,1.1215323,-0.09282649,-0.011085869,0.98875684,0.82472366,-0.2604185,0.02928244,0.69514805,0.77594537,-0.065945834,0.23924504,1.0765595,0.5964265,-0.108706415,0.014443403,0.59496135,0.047053877,-0.5799716,-0.51713336,-0.03220049,812.71063,794.9817,791.3553,809.4872,693.8461,-0.21539306640625,0.07867431640625,0.97900390625,0.665435791015625,4.299163818359375,-2.280426025390625,1,1.0,1.0,1.0,1.0,15.00
2024-10-11 20:09:00.956,1.1215323,-0.09282649,-0.011085869,0.98875684,0.82472366,-0.2604185,0.02928244,0.69514805,0.77594537,-0.065945834,0.23924504,1.0765595,0.5964265,-0.108706415,0.014443403,0.59496135,0.047053877,-0.5799716,-0.51713336,-0.03220049,813.5165,796.5934,790.9524,806.26373,688.20514,-0.21539306640625,0.07867431640625,0.97900390625,0.665435791015625,4.299163818359375,-2.280426025390625,1,1.0,1.0,1.0,1.0,15.00
2024-10-11 20:09:00.957,1.1215323,-0.09282649,-0.011085869,0.98875684,0.82472366,-0.2604185,0.02928244,0.69514805,0.77594537,-0.065945834,0.23924504,1.0765595,0.5964265,-0.108706415,0.014443403,0.59496135,0.047053877,-0.5799716,-0.51713336,-0.03220049,809.4872,797.8022,794.9817,814.3223,668.86444,-0.21539306640625,0.07867431640625,0.97900390625,0.665435791015625,4.299163818359375,-2.280426025390625,1,1.0,1.0,1.0,1.0,15.00
2024-10-11 20:09:01.016,1.1215323,-0.09282649,-0.011085869,0.98875684,0.82472366,-0.2604185,0.02928244,0.69514805,0.77594537,-0.065945834,0.23924504,1.0765595,0.5964265,-0.108706415,0.014443403,0.59496135,0.047053877,-0.5799716,-0.51713336,-0.03220049,810.293,796.1905,801.02563,812.71063,664.43225,-0.23626708984375,0.08343505859375,0.9962158203125,0.755157470703125,3.506622314453125,-0.478515625,1,1.0,1.0,1.0,1.0,15.00
2024-10-11 20:09:01.017,1.1215323,-0.09282649,-0.011085869,0.98875684,0.82472366,-0.2604185,0.02928244,0.69514805,0.77594537,-0.065945834,0.23924504,1.0765595,0.5964265,-0.108706415,0.014443403,0.59496135,0.047053877,-0.5799716,-0.51713336,-0.03220049,807.47253,798.20514,799.011,806.26373,777.6557,-0.23626708984375,0.08343505859375,0.9962158203125,0.755157470703125,3.506622314453125,-0.478515625,1,1.0,1.0,1.0,1.0,15.00
2024-10-11 20:09:01.018,1.1215323,-0.09282649,-0.011085869,0.98875684,0.82472366,-0.2604185,0.02928244,0.69514805,0.77594537,-0.065945834,0.23924504,1.0765595,0.5964265,-0.108706415,0.014443403,0.59496135,0.047053877,-0.5799716,-0.51713336,-0.03220049,808.2784,797.3993,799.41394,815.12823,1026.6666,-0.23626708984375,0.08343505859375,0.9962158203125,0.755157470703125,3.506622314453125,-0.478515625,1,1.0,1.0,1.0,1.0,15.00
2024-10-11 20:09:01.018,1.1215323,-0.09282649,-0.011085869,0.98875684,0.82472366,-0.2604185,0.02928244,0.69514805,0.77594537,-0.065945834,0.23924504,1.0765595,0.5964265,-0.108706415,0.014443403,0.59496135,0.047053877,-0.5799716,-0.51713336,-0.03220049,809.0842,796.99634,800.2198,821.5751,803.0403,-0.23626708984375,0.08343505859375,0.9962158203125,0.755157470703125,3.506622314453125,-0.478515625,1,1.0,1.0,1.0,1.0,15.00
2024-10-11 20:09:01.019,1.1215323,-0.09282649,-0.011085869,0.98875684,0.82472366,-0.2604185,0.02928244,0.69514805,0.77594537,-0.065945834,0.23924504,1.0765595,0.5964265,-0.108706415,0.014443403,0.59496135,0.047053877,-0.5799716,-0.51713336,-0.03220049,809.0842,799.81683,799.41394,819.9634,709.15753,-0.23626708984375,0.08343505859375,0.9962158203125,0.755157470703125,3.506622314453125,-0.478515625,1,1.0,1.0,1.0,1.0,15.00
2024-10-11 20:09:01.019,1.1215323,-0.09282649,-0.011085869,0.98875684,0.82472366,-0.2604185,0.02928244,0.69514805,0.77594537,-0.065945834,0.23924504,1.0765595,0.5964265,-0.108706415,0.014443403,0.59496135,0.047053877,-0.5799716,-0.51713336,-0.03220049,806.6667,798.20514,798.20514,823.1868,1006.52014,-0.23626708984375,0.08343505859375,0.9962158203125,0.755157470703125,3.506622314453125,-0.478515625,1,1.0,1.0,1.0,1.0,15.00
2024-10-11 20:09:01.020,1.1215323,-0.09282649,-0.011085869,0.98875684,0.82472366,-0.2604185,0.02928244,0.69514805,0.77594537,-0.065945834,0.23924504,1.0765595,0.5964265,-0.108706415,0.014443403,0.59496135,0.047053877,-0.5799716,-0.51713336,-0.03220049,809.4872,799.41394,799.81683,820.7692,983.5531,-0.23626708984375,0.08343505859375,0.9962158203125,0.755157470703125,3.506622314453125,-0.478515625,1,1.0,1.0,1.0,1.0,15.00
2024-10-11 20:09:01.020,1.1612334,-0.04162669,0.12652132,1.0127649,0.858177,-0.19636057,0.12432165,0.727833,0.77594537,-0.020558923,0.2927585,1.0765595,0.614129,-0.09439439,0.044501744,0.6136466,0.07886102,-0.59503186,-0.48662063,-0.02006399,811.0989,800.6227,803.44324,818.3516,811.9048,-0.23626708984375,0.08343505859375,0.9962158203125,0.755157470703125,3.506622314453125,-0.478515625,1,1.0,1.0,1.0,1.0,15.00
2024-10-11 20:09:01.025,1.1612334,-0.04162669,0.12652132,1.0127649,0.858177,-0.19636057,0.12432165,0.727833,0.77594537,-0.020558923,0.2927585,1.0765595,0.614129,-0.09439439,0.044501744,0.6136466,0.07886102,-0.59503186,-0.48662063,-0.02006399,813.91943,797.3993,801.4286,820.7692,716.4103,-0.23626708984375,0.08343505859375,0.9962158203125,0.755157470703125,3.506622314453125,-0.478515625,1,1.0,1.0,1.0,1.0,15.00
2024-10-11 20:09:01.025,1.1612334,-0.04162669,0.12652132,1.0127649,0.858177,-0.19636057,0.12432165,0.727833,0.77594537,-0.020558923,0.2927585,1.0765595,0.614129,-0.09439439,0.044501744,0.6136466,0.07886102,-0.59503186,-0.48662063,-0.02006399,824.3956,800.2198,801.02563,829.2308,818.7546,-0.23626708984375,0.08343505859375,0.9962158203125,0.755157470703125,3.506622314453125,-0.478515625,1,1.0,1.0,1.0,1.0,15.00
2024-10-11 20:09:01.026,1.1612334,-0.04162669,0.12652132,1.0127649,0.858177,-0.19636057,0.12432165,0.727833,0.77594537,-0.020558923,0.2927585,1.0765595,0.614129,-0.09439439,0.044501744,0.6136466,0.07886102,-0.59503186,-0.48662063,-0.02006399,822.381,799.41394,801.8315,830.0366,894.5055,-0.23626708984375,0.08343505859375,0.9962158203125,0.755157470703125,3.506622314453125,-0.478515625,1,1.0,1.0,1.0,1.0,15.00
2024-10-11 20:09:01.026,1.1612334,-0.04162669,0.12652132,1.0127649,0.858177,-0.19636057,0.12432165,0.727833,0.77594537,-0.020558923,0.2927585,1.0765595,0.614129,-0.09439439,0.044501744,0.6136466,0.07886102,-0.59503186,-0.48662063,-0.02006399,811.50183,798.20514,800.6227,821.5751,755.89746,-0.23626708984375,0.08343505859375,0.9962158203125,0.755157470703125,3.506622314453125,-0.478515625,1,1.0,1.0,1.0,1.0,15.00
2024-10-11 20:09:01.082,1.1612334,-0.04162669,0.12652132,1.0127649,0.858177,-0.19636057,0.12432165,0.727833,0.77594537,-0.020558923,0.2927585,1.0765595,0.614129,-0.09439439,0.044501744,0.6136466,0.07886102,-0.59503186,-0.48662063,-0.02006399,816.7399,802.6374,798.60803,823.1868,740.989,-0.23541259765625,0.0811767578125,0.9786376953125,0.0897216796875,1.921539306640625,0.112152099609375,1,1.0,1.0,1.0,1.0,15.00
2024-10-11 20:09:01.083,1.1612334,-0.04162669,0.12652132,1.0127649,0.858177,-0.19636057,0.12432165,0.727833,0.77594537,-0.020558923,0.2927585,1.0765595,0.614129,-0.09439439,0.044501744,0.6136466,0.07886102,-0.59503186,-0.48662063,-0.02006399,819.9634,801.4286,801.4286,828.022,902.96704,-0.23541259765625,0.0811767578125,0.9786376953125,0.0897216796875,1.921539306640625,0.112152099609375,1,1.0,1.0,1.0,1.0,15.00
2024-10-11 20:09:01.084,1.1612334,-0.04162669,0.12652132,1.0127649,0.858177,-0.19636057,0.12432165,0.727833,0.77594537,-0.020558923,0.2927585,1.0765595,0.614129,-0.09439439,0.044501744,0.6136466,0.07886102,-0.59503186,-0.48662063,-0.02006399,815.5311,798.20514,801.02563,827.2161,794.17584,-0.23541259765625,0.0811767578125,0.9786376953125,0.0897216796875,1.921539306640625,0.112152099609375,1,1.0,1.0,1.0,1.0,15.00
2024-10-11 20:09:01.085,1.1612334,-0.04162669,0.12652132,1.0127649,0.858177,-0.19636057,0.12432165,0.727833,0.77594537,-0.020558923,0.2927585,1.0765595,0.614129,-0.09439439,0.044501744,0.6136466,0.07886102,-0.59503186,-0.48662063,-0.02006399,812.3077,799.41394,798.60803,816.7399,644.68866,-0.23541259765625,0.0811767578125,0.9786376953125,0.0897216796875,1.921539306640625,0.112152099609375,1,1.0,1.0,1.0,1.0,15.00
2024-10-11 20:09:01.085,1.1612334,-0.04162669,0.12652132,1.0127649,0.858177,-0.19636057,0.12432165,0.727833,0.77594537,-0.020558923,0.2927585,1.0765595,0.614129,-0.09439439,0.044501744,0.6136466,0.07886102,-0.59503186,-0.48662063,-0.02006399,810.293,797.8022,798.60803,805.4579,800.2198,-0.23541259765625,0.0811767578125,0.9786376953125,0.0897216796875,1.921539306640625,0.112152099609375,1,1.0,1.0,1.0,1.0,15.00
2024-10-11 20:09:01.086,1.1612334,-0.04162669,0.12652132,1.0127649,0.858177,-0.19636057,0.12432165,0.727833,0.77594537,-0.020558923,0.2927585,1.0765595,0.614129,-0.09439439,0.044501744,0.6136466,0.07886102,-0.59503186,-0.48662063,-0.02006399,808.68134,794.57874,798.60803,812.71063,1142.7106,-0.23541259765625,0.0811767578125,0.9786376953125,0.0897216796875,1.921539306640625,0.112152099609375,1,1.0,1.0,1.0,1.0,15.00
2024-10-11 20:09:01.086,1.1612334,-0.04162669,0.12652132,1.0127649,0.858177,-0.19636057,0.12432165,0.727833,0.77594537,-0.020558923,0.2927585,1.0765595,0.614129,-0.09439439,0.044501744,0.6136466,0.07886102,-0.59503186,-0.48662063,-0.02006399,810.293,801.02563,796.5934,817.1429,1025.4579,-0.23541259765625,0.0811767578125,0.9786376953125,0.0897216796875,1.921539306640625,0.112152099609375,1,1.0,1.0,1.0,1.0,15.00
2024-10-11 20:09:01.087,1.1612334,-0.04162669,0.12652132,1.0127649,0.858177,-0.19636057,0.12432165,0.727833,0.77594537,-0.020558923,0.2927585,1.0765595,0.614129,-0.09439439,0.044501744,0.6136466,0.07886102,-0.59503186,-0.48662063,-0.02006399,810.293,804.65204,801.02563,813.91943,759.5238,-0.23541259765625,0.0811767578125,0.9786376953125,0.0897216796875,1.921539306640625,0.112152099609375,1,1.0,1.0,1.0,1.0,15.00
2024-10-11 20:09:01.088,1.1612334,-0.04162669,0.12652132,1.0127649,0.858177,-0.19636057,0.12432165,0.727833,0.77594537,-0.020558923,0.2927585,1.0765595,0.614129,-0.09439439,0.044501744,0.6136466,0.07886102,-0.59503186,-0.48662063,-0.02006399,805.05493,803.44324,805.4579,812.71063,803.44324,-0.23541259765625,0.0811767578125,0.9786376953125,0.0897216796875,1.921539306640625,0.112152099609375,1,1.0,1.0,1.0,1.0,15.00
2024-10-11 20:09:01.088,1.1612334,-0.04162669,0.12652132,1.0127649,0.858177,-0.19636057,0.12432165,0.727833,0.77594537,-0.020558923,0.2927585,1.0765595,0.614129,-0.09439439,0.044501744,0.6136466,0.07886102,-0.59503186,-0.48662063,-0.02006399,805.8608,804.65204,800.2198,813.91943,911.4286,-0.23541259765625,0.0811767578125,0.9786376953125,0.0897216796875,1.921539306640625,0.112152099609375,1,1.0,1.0,1.0,1.0,15.00
2024-10-11 20:09:01.089,1.1612334,-0.04162669,0.12652132,1.0127649,0.858177,-0.19636057,0.12432165,0.727833,0.77594537,-0.020558923,0.2927585,1.0765595,0.614129,-0.09439439,0.044501744,0.6136466,0.07886102,-0.59503186,-0.48662063,-0.02006399,808.2784,803.0403,801.8315,811.50183,877.1795,-0.23541259765625,0.0811767578125,0.9786376953125,0.0897216796875,1.921539306640625,0.112152099609375,1,1.0,1.0,1.0,1.0,15.00
2024-10-11 20:09:01.089,1.1612334,-0.04162669,0.12652132,1.0127649,0.858177,-0.19636057,0.12432165,0.727833,0.77594537,-0.020558923,0.2927585,1.0765595,0.614129,-0.09439439,0.044501744,0.6136466,0.07886102,-0.59503186,-0.48662063,-0.02006399,807.8755,801.02563,804.65204,807.8755,789.34064,-0.23541259765625,0.0811767578125,0.9786376953125,0.0897216796875,1.921539306640625,0.112152099609375,1,1.0,1.0,1.0,1.0,15.00
2024-10-11 20:09:01.148,1.1612334,-0.04162669,0.12652132,1.0127649,0.858177,-0.19636057,0.12432165,0.727833,0.77594537,-0.020558923,0.2927585,1.0765595,0.614129,-0.09439439,0.044501744,0.6136466,0.07886102,-0.59503186,-0.48662063,-0.02006399,807.0696,803.0403,799.81683,809.89014,734.94507,-0.24371337890625,0.07830810546875,0.97283935546875,-0.2392578125,0.829925537109375,-0.605621337890625,1,1.0,1.0,1.0,1.0,15.00
2024-10-11 20:09:01.149,1.1612334,-0.04162669,0.12652132,1.0127649,0.858177,-0.19636057,0.12432165,0.727833,0.77594537,-0.020558923,0.2927585,1.0765595,0.614129,-0.09439439,0.044501744,0.6136466,0.07886102,-0.59503186,-0.48662063,-0.02006399,804.2491,803.0403,798.20514,813.1135,840.10986,-0.24371337890625,0.07830810546875,0.97283935546875,-0.2392578125,0.829925537109375,-0.605621337890625,1,1.0,1.0,1.0,1.0,15.00
2024-10-11 20:09:01.150,1.1612334,-0.04162669,0.12652132,1.0127649,0.858177,-0.19636057,0.12432165,0.727833,0.77594537,-0.020558923,0.2927585,1.0765595,0.614129,-0.09439439,0.044501744,0.6136466,0.07886102,-0.59503186,-0.48662063,-0.02006399,803.8461,801.8315,797.8022,814.3223,762.74725,-0.24371337890625,0.07830810546875,0.97283935546875,-0.2392578125,0.829925537109375,-0.605621337890625,1,1.0,1.0,1.0,1.0,15.00
2024-10-11 20:09:01.150,1.1612334,-0.04162669,0.12652132,1.0127649,0.858177,-0.19636057,0.12432165,0.727833,0.77594537,-0.020558923,0.2927585,1.0765595,0.614129,-0.09439439,0.044501744,0.6136466,0.07886102,-0.59503186,-0.48662063,-0.02006399,805.4579,803.0403,799.011,812.71063,581.02563,-0.24371337890625,0.07830810546875,0.97283935546875,-0.2392578125,0.829925537109375,-0.605621337890625,1,1.0,1.0,1.0,1.0,15.00
2024-10-11 20:09:01.151,1.1612334,-0.04162669,0.12652132,1.0127649,0.858177,-0.19636057,0.12432165,0.727833,0.77594537,-0.020558923,0.2927585,1.0765595,0.614129,-0.09439439,0.044501744,0.6136466,0.07886102,-0.59503186,-0.48662063,-0.02006399,806.6667,803.44324,803.8461,815.12823,709.5604,-0.24371337890625,0.07830810546875,0.97283935546875,-0.2392578125,0.829925537109375,-0.605621337890625,1,1.0,1.0,1.0,1.0,15.00
2024-10-11 20:09:01.151,1.1612334,-0.04162669,0.12652132,1.0127649,0.858177,-0.19636057,0.12432165,0.727833,0.77594537,-0.020558923,0.2927585,1.0765595,0.614129,-0.09439439,0.044501744,0.6136466,0.07886102,-0.59503186,-0.48662063,-0.02006399,806.6667,788.5348,803.0403,818.7546,965.42126,-0.24371337890625,0.07830810546875,0.97283935546875,-0.2392578125,0.829925537109375,-0.605621337890625,1,1.0,1.0,1.0,1.0,15.00
2024-10-11 20:09:01.152,1.1612334,-0.04162669,0.12652132,1.0127649,0.858177,-0.19636057,0.12432165,0.727833,0.77594537,-0.020558923,0.2927585,1.0765595,0.614129,-0.09439439,0.044501744,0.6136466,0.07886102,-0.59503186,-0.48662063,-0.02006399,806.6667,795.78754,798.20514,819.15753,845.34796,-0.24371337890625,0.07830810546875,0.97283935546875,-0.2392578125,0.829925537109375,-0.605621337890625,1,1.0,1.0,1.0,1.0,15.00
2024-10-11 20:09:01.152,1.1612334,-0.04162669,0.12652132,1.0127649,0.858177,-0.19636057,0.12432165,0.727833,0.77594537,-0.020558923,0.2927585,1.0765595,0.614129,-0.09439439,0.044501744,0.6136466,0.07886102,-0.59503186,-0.48662063,-0.02006399,807.47253,807.8755,798.60803,818.7546,730.10986,-0.24371337890625,0.07830810546875,0.97283935546875,-0.2392578125,0.829925537109375,-0.605621337890625,1,1.0,1.0,1.0,1.0,15.00
2024-10-11 20:09:01.153,1.1612334,-0.04162669,0.12652132,1.0127649,0.858177,-0.19636057,0.12432165,0.727833,0.77594537,-0.020558923,0.2927585,1.0765595,0.614129,-0.09439439,0.044501744,0.6136466,0.07886102,-0.59503186,-0.48662063,-0.02006399,805.4579,802.23444,800.2198,820.3663,867.1062,-0.24371337890625,0.07830810546875,0.97283935546875,-0.2392578125,0.829925537109375,-0.605621337890625,1,1.0,1.0,1.0,1.0,15.00
2024-10-11 20:09:01.153,1.234474,0.026516374,0.27600834,1.036921,1.0370568,-0.11840519,0.23765348,0.7643596,1.2630568,0.03506264,0.36911237,1.0765595,0.65253824,-0.078321144,0.0714257,0.629513,0.10352724,-0.60508084,-0.4647697,-0.012748029,806.26373,801.02563,802.6374,823.5897,924.7253,-0.24371337890625,0.07830810546875,0.97283935546875,-0.2392578125,0.829925537109375,-0.605621337890625,1,1.0,1.0,1.0,1.0,15.00
2024-10-11 20:09:01.158,1.234474,0.026516374,0.27600834,1.036921,1.0370568,-0.11840519,0.23765348,0.7643596,1.2630568,0.03506264,0.36911237,1.0765595,0.65253824,-0.078321144,0.0714257,0.629513,0.10352724,-0.60508084,-0.4647697,-0.012748029,805.05493,803.0403,801.02563,821.1722,864.2857,-0.24371337890625,0.07830810546875,0.97283935546875,-0.2392578125,0.829925537109375,-0.605621337890625,1,1.0,1.0,1.0,1.0,15.00
2024-10-11 20:09:01.159,1.234474,0.026516374,0.27600834,1.036921,1.0370568,-0.11840519,0.23765348,0.7643596,1.2630568,0.03506264,0.36911237,1.0765595,0.65253824,-0.078321144,0.0714257,0.629513,0.10352724,-0.60508084,-0.4647697,-0.012748029,810.696,803.0403,799.41394,817.5458,809.89014,-0.24371337890625,0.07830810546875,0.97283935546875,-0.2392578125,0.829925537109375,-0.605621337890625,1,1.0,1.0,1.0,1.0,15.00
2024-10-11 20:09:01.218,1.234474,0.026516374,0.27600834,1.036921,1.0370568,-0.11840519,0.23765348,0.7643596,1.2630568,0.03506264,0.36911237,1.0765595,0.65253824,-0.078321144,0.0714257,0.629513,0.10352724,-0.60508084,-0.4647697,-0.012748029,817.5458,798.60803,803.44324,820.3663,952.1245,-0.23468017578125,0.08453369140625,0.98516845703125,0.456085205078125,0.650482177734375,-1.51031494140625,1,1.0,1.0,1.0,1.0,15.00
2024-10-11 20:09:01.219,1.234474,0.026516374,0.27600834,1.036921,1.0370568,-0.11840519,0.23765348,0.7643596,1.2630568,0.03506264,0.36911237,1.0765595,0.65253824,-0.078321144,0.0714257,0.629513,0.10352724,-0.60508084,-0.4647697,-0.012748029,815.12823,803.8461,800.6227,819.5604,1043.9927,-0.23468017578125,0.08453369140625,0.98516845703125,0.456085205078125,0.650482177734375,-1.51031494140625,1,1.0,1.0,1.0,1.0,15.00
2024-10-11 20:09:01.220,1.234474,0.026516374,0.27600834,1.036921,1.0370568,-0.11840519,0.23765348,0.7643596,1.2630568,0.03506264,0.36911237,1.0765595,0.65253824,-0.078321144,0.0714257,0.629513,0.10352724,-0.60508084,-0.4647697,-0.012748029,811.0989,805.8608,800.2198,813.91943,867.9121,-0.23468017578125,0.08453369140625,0.98516845703125,0.456085205078125,0.650482177734375,-1.51031494140625,1,1.0,1.0,1.0,1.0,15.00
2024-10-11 20:09:01.220,1.234474,0.026516374,0.27600834,1.036921,1.0370568,-0.11840519,0.23765348,0.7643596,1.2630568,0.03506264,0.36911237,1.0765595,0.65253824,-0.078321144,0.0714257,0.629513,0.10352724,-0.60508084,-0.4647697,-0.012748029,819.9634,803.0403,806.26373,812.71063,831.2454,-0.23468017578125,0.08453369140625,0.98516845703125,0.456085205078125,0.650482177734375,-1.51031494140625,1,1.0,1.0,1.0,1.0,15.00
2024-10-11 20:09:01.221,1.234474,0.026516374,0.27600834,1.036921,1.0370568,-0.11840519,0.23765348,0.7643596,1.2630568,0.03506264,0.36911237,1.0765595,0.65253824,-0.078321144,0.0714257,0.629513,0.10352724,-0.60508084,-0.4647697,-0.012748029,821.978,802.23444,806.6667,821.978,977.1062,-0.23468017578125,0.08453369140625,0.98516845703125,0.456085205078125,0.650482177734375,-1.51031494140625,1,1.0,1.0,1.0,1.0,15.00
2024-10-11 20:09:01.221,1.234474,0.026516374,0.27600834,1.036921,1.0370568,-0.11840519,0.23765348,0.7643596,1.2630568,0.03506264,0.36911237,1.0765595,0.65253824,-0.078321144,0.0714257,0.629513,0.10352724,-0.60508084,-0.4647697,-0.012748029,822.7839,803.0403,803.44324,823.1868,865.09155,-0.23468017578125,0.08453369140625,0.98516845703125,0.456085205078125,0.650482177734375,-1.51031494140625,1,1.0,1.0,1.0,1.0,15.00
2024-10-11 20:09:01.222,1.234474,0.026516374,0.27600834,1.036921,1.0370568,-0.11840519,0.23765348,0.7643596,1.2630568,0.03506264,0.36911237,1.0765595,0.65253824,-0.078321144,0.0714257,0.629513,0.10352724,-0.60508084,-0.4647697,-0.012748029,832.4542,803.44324,805.4579,821.978,768.7912,-0.23468017578125,0.08453369140625,0.98516845703125,0.456085205078125,0.650482177734375,-1.51031494140625,1,1.0,1.0,1.0,1.0,15.00
2024-10-11 20:09:01.222,1.234474,0.026516374,0.27600834,1.036921,1.0370568,-0.11840519,0.23765348,0.7643596,1.2630568,0.03506264,0.36911237,1.0765595,0.65253824,-0.078321144,0.0714257,0.629513,0.10352724,-0.60508084,-0.4647697,-0.012748029,826.4103,803.44324,806.6667,825.6044,820.7692,-0.23468017578125,0.08453369140625,0.98516845703125,0.456085205078125,0.650482177734375,-1.51031494140625,1,1.0,1.0,1.0,1.0,15.00
2024-10-11 20:09:01.223,1.234474,0.026516374,0.27600834,1.036921,1.0370568,-0.11840519,0.23765348,0.7643596,1.2630568,0.03506264,0.36911237,1.0765595,0.65253824,-0.078321144,0.0714257,0.629513,0.10352724,-0.60508084,-0.4647697,-0.012748029,822.381,803.8461,806.26373,826.8132,921.0989,-0.23468017578125,0.08453369140625,0.98516845703125,0.456085205078125,0.650482177734375,-1.51031494140625,1,1.0,1.0,1.0,1.0,15.00
2024-10-11 20:09:01.223,1.234474,0.026516374,0.27600834,1.036921,1.0370568,-0.11840519,0.23765348,0.7643596,1.2630568,0.03506264,0.36911237,1.0765595,0.65253824,-0.078321144,0.0714257,0.629513,0.10352724,-0.60508084,-0.4647697,-0.012748029,817.1429,803.0403,810.293,823.9927,869.92676,-0.23468017578125,0.08453369140625,0.98516845703125,0.456085205078125,0.650482177734375,-1.51031494140625,1,1.0,1.0,1.0,1.0,15.00
2024-10-11 20:09:01.224,1.234474,0.026516374,0.27600834,1.036921,1.0370568,-0.11840519,0.23765348,0.7643596,1.2630568,0.03506264,0.36911237,1.0765595,0.65253824,-0.078321144,0.0714257,0.629513,0.10352724,-0.60508084,-0.4647697,-0.012748029,809.4872,803.44324,807.8755,817.5458,716.4103,-0.23468017578125,0.08453369140625,0.98516845703125,0.456085205078125,0.650482177734375,-1.51031494140625,1,1.0,1.0,1.0,1.0,15.00
2024-10-11 20:09:01.224,1.234474,0.026516374,0.27600834,1.036921,1.0370568,-0.11840519,0.23765348,0.7643596,1.2630568,0.03506264,0.36911237,1.0765595,0.65253824,-0.078321144,0.0714257,0.629513,0.10352724,-0.60508084,-0.4647697,-0.012748029,807.8755,802.6374,806.6667,812.71063,735.34796,-0.23468017578125,0.08453369140625,0.98516845703125,0.456085205078125,0.650482177734375,-1.51031494140625,1,1.0,1.0,1.0,1.0,15.00
2024-10-11 20:09:01.250,1.234474,0.026516374,0.27600834,1.036921,1.0370568,-0.11840519,0.23765348,0.7643596,1.2630568,0.03506264,0.36911237,1.0765595,0.65253824,-0.078321144,0.0714257,0.629513,0.10352724,-0.60508084,-0.4647697,-0.012748029,807.0696,798.20514,808.2784,811.50183,876.77655,-0.23468017578125,0.08453369140625,0.98516845703125,0.456085205078125,0.650482177734375,-1.51031494140625,1,1.0,1.0,1.0,1.0,15.00
2024-10-11 20:09:01.251,1.234474,0.026516374,0.27600834,1.036921,1.0370568,-0.11840519,0.23765348,0.7643596,1.2630568,0.03506264,0.36911237,1.0765595,0.65253824,-0.078321144,0.0714257,0.629513,0.10352724,-0.60508084,-0.4647697,-0.012748029,803.0403,803.44324,806.6667,803.8461,726.4835,-0.23468017578125,0.08453369140625,0.98516845703125,0.456085205078125,0.650482177734375,-1.51031494140625,1,1.0,1.0,1.0,1.0,15.00
2024-10-11 20:09:01.251,1.234474,0.026516374,0.27600834,1.036921,1.0370568,-0.11840519,0.23765348,0.7643596,1.2630568,0.03506264,0.36911237,1.0765595,0.65253824,-0.078321144,0.0714257,0.629513,0.10352724,-0.60508084,-0.4647697,-0.012748029,802.6374,804.2491,807.8755,802.23444,611.2454,-0.23468017578125,0.08453369140625,0.98516845703125,0.456085205078125,0.650482177734375,-1.51031494140625,1,1.0,1.0,1.0,1.0,15.00
2024-10-11 20:09:01.252,1.234474,0.026516374,0.27600834,1.036921,1.0370568,-0.11840519,0.23765348,0.7643596,1.2630568,0.03506264,0.36911237,1.0765595,0.65253824,-0.078321144,0.0714257,0.629513,0.10352724,-0.60508084,-0.4647697,-0.012748029,799.011,798.20514,807.8755,801.4286,817.1429,-0.23468017578125,0.08453369140625,0.98516845703125,0.456085205078125,0.650482177734375,-1.51031494140625,1,1.0,1.0,1.0,1.0,15.00
2024-10-11 20:09:01.253,1.234474,0.026516374,0.27600834,1.036921,1.0370568,-0.11840519,0.23765348,0.7643596,1.2630568,0.03506264,0.36911237,1.0765595,0.65253824,-0.078321144,0.0714257,0.629513,0.10352724,-0.60508084,-0.4647697,-0.012748029,795.78754,794.17584,803.0403,795.78754,969.85345,-0.23468017578125,0.08453369140625,0.98516845703125,0.456085205078125,0.650482177734375,-1.51031494140625,1,1.0,1.0,1.0,1.0,15.00
2024-10-11 20:09:01.253,1.234474,0.026516374,0.27600834,1.036921,1.0370568,-0.11840519,0.23765348,0.7643596,1.2630568,0.03506264,0.36911237,1.0765595,0.65253824,-0.078321144,0.0714257,0.629513,0.10352724,-0.60508084,-0.4647697,-0.012748029,797.8022,792.1612,800.2198,795.78754,867.1062,-0.23468017578125,0.08453369140625,0.98516845703125,0.456085205078125,0.650482177734375,-1.51031494140625,1,1.0,1.0,1.0,1.0,15.00
2024-10-11 20:09:01.254,1.234474,0.026516374,0.27600834,1.036921,1.0370568,-0.11840519,0.23765348,0.7643596,1.2630568,0.03506264,0.36911237,1.0765595,0.65253824,-0.078321144,0.0714257,0.629513,0.10352724,-0.60508084,-0.4647697,-0.012748029,803.8461,798.20514,800.6227,804.2491,825.2015,-0.23468017578125,0.08453369140625,0.98516845703125,0.456085205078125,0.650482177734375,-1.51031494140625,1,1.0,1.0,1.0,1.0,15.00
2024-10-11 20:09:01.254,1.234474,0.026516374,0.27600834,1.036921,1.0370568,-0.11840519,0.23765348,0.7643596,1.2630568,0.03506264,0.36911237,1.0765595,0.65253824,-0.078321144,0.0714257,0.629513,0.10352724,-0.60508084,-0.4647697,-0.012748029,811.9048,799.81683,801.4286,811.0989,881.6117,-0.23468017578125,0.08453369140625,0.98516845703125,0.456085205078125,0.650482177734375,-1.51031494140625,1,1.0,1.0,1.0,1.0,15.00
