TimeStamp,Delta_TP9,Delta_AF7,Delta_AF8,Delta_TP10,Theta_TP9,Theta_AF7,Theta_AF8,Theta_TP10,Alpha_TP9,Alpha_AF7,Alpha_AF8,Alpha_TP10,Beta_TP9,Beta_AF7,Beta_AF8,Beta_TP10,Gamma_TP9,Gamma_AF7,Gamma_AF8,Gamma_TP10,RAW_TP9,RAW_AF7,RAW_AF8,RAW_TP10,AUX_RIGHT,Accelerometer_X,Accelerometer_Y,Accelerometer_Z,Gyro_X,Gyro_Y,Gyro_Z,HeadBandOn,HSI_TP9,HSI_AF7,HSI_AF8,HSI_TP10,Battery,Elements
2024-10-11 20:26:37.201,1.0720117,1.0307786,0.99620044,0.8558424,0.7646662,0.81651294,0.3986161,0.6237169,1.0250933,0.880995,0.4325201,0.69190615,0.5014476,-0.08470735,-0.1095384,0.36045742,-0.07992781,-0.34373248,-0.24619225,0.015623231,796.99634,784.90845,801.4286,815.9341,744.21246,-0.2830810546875,0.129150390625,0.96405029296875,-0.112152099609375,1.1065673828125,0.9271240234375,1,1.0,1.0,1.0,1.0,10.00
2024-10-11 20:26:37.203,1.0720117,1.0307786,0.99620044,0.8558424,0.7646662,0.81651294,0.3986161,0.6237169,1.0250933,0.880995,0.4325201,0.69190615,0.5014476,-0.08470735,-0.1095384,0.36045742,-0.07992781,-0.34373248,-0.24619225,0.015623231,810.293,785.31134,799.41394,818.3516,930.7692,-0.2830810546875,0.129150390625,0.96405029296875,-0.112152099609375,1.1065673828125,0.9271240234375,1,1.0,1.0,1.0,1.0,10.00
2024-10-11 20:26:37.205,1.0720117,1.0307786,0.99620044,0.8558424,0.7646662,0.81651294,0.3986161,0.6237169,1.0250933,0.880995,0.4325201,0.69190615,0.5014476,-0.08470735,-0.1095384,0.36045742,-0.07992781,-0.34373248,-0.24619225,0.015623231,794.57874,793.36993,792.96704,799.81683,910.6227,-0.2830810546875,0.129150390625,0.96405029296875,-0.112152099609375,1.1065673828125,0.9271240234375,1,1.0,1.0,1.0,1.0,10.00
2024-10-11 20:26:37.207,1.0720117,1.0307786,0.99620044,0.8558424,0.7646662,0.81651294,0.3986161,0.6237169,1.0250933,0.880995,0.4325201,0.69190615,0.5014476,-0.08470735,-0.1095384,0.36045742,-0.07992781,-0.34373248,-0.24619225,0.015623231,788.93774,796.1905,792.1612,794.9817,719.2308,-0.2830810546875,0.129150390625,0.96405029296875,-0.112152099609375,1.1065673828125,0.9271240234375,1,1.0,1.0,1.0,1.0,10.00
2024-10-11 20:26:37.209,1.0720117,1.0307786,0.99620044,0.8558424,0.7646662,0.81651294,0.3986161,0.6237169,1.0250933,0.880995,0.4325201,0.69190615,0.5014476,-0.08470735,-0.1095384,0.36045742,-0.07992781,-0.34373248,-0.24619225,0.015623231,806.26373,793.7729,800.6227,811.50183,665.64105,-0.2830810546875,0.129150390625,0.96405029296875,-0.112152099609375,1.1065673828125,0.9271240234375,1,1.0,1.0,1.0,1.0,10.00
2024-10-11 20:26:37.210,1.0720117,1.0307786,0.99620044,0.8558424,0.7646662,0.81651294,0.3986161,0.6237169,1.0250933,0.880995,0.4325201,0.69190615,0.5014476,-0.08470735,-0.1095384,0.36045742,-0.07992781,-0.34373248,-0.24619225,0.015623231,811.0989,791.75824,798.20514,813.5165,896.1172,-0.2830810546875,0.129150390625,0.96405029296875,-0.112152099609375,1.1065673828125,0.9271240234375,1,1.0,1.0,1.0,1.0,10.00
2024-10-11 20:26:37.212,1.0720117,1.0307786,0.99620044,0.8558424,0.7646662,0.81651294,0.3986161,0.6237169,1.0250933,0.880995,0.4325201,0.69190615,0.5014476,-0.08470735,-0.1095384,0.36045742,-0.07992781,-0.34373248,-0.24619225,0.015623231,803.0403,793.7729,791.75824,804.2491,1048.4249,-0.2830810546875,0.129150390625,0.96405029296875,-0.112152099609375,1.1065673828125,0.9271240234375,1,1.0,1.0,1.0,1.0,10.00
2024-10-11 20:26:37.214,1.0720117,1.02171,0.99620044,0.8558424,0.7646662,0.81275344,0.3986161,0.6237169,1.0250933,0.880995,0.4325201,0.69190615,0.5014476,-0.06722064,-0.1095384,0.36045742,-0.07992781,-0.33446446,-0.24619225,0.015623231,800.6227,796.99634,794.57874,800.6227,857.4359,-0.2830810546875,0.129150390625,0.96405029296875,-0.112152099609375,1.1065673828125,0.9271240234375,1,1.0,1.0,1.0,1.0,10.00
2024-10-11 20:26:37.221,1.0720117,1.02171,0.99620044,0.8558424,0.7646662,0.81275344,0.3986161,0.6237169,1.0250933,0.880995,0.4325201,0.69190615,0.5014476,-0.06722064,-0.1095384,0.36045742,-0.07992781,-0.33446446,-0.24619225,0.015623231,806.6667,796.1905,796.99634,797.3993,849.3773,-0.2830810546875,0.129150390625,0.96405029296875,-0.112152099609375,1.1065673828125,0.9271240234375,1,1.0,1.0,1.0,1.0,10.00
2024-10-11 20:26:37.222,1.0720117,1.02171,0.99620044,0.8558424,0.7646662,0.81275344,0.3986161,0.6237169,1.0250933,0.880995,0.4325201,0.69190615,0.5014476,-0.06722064,-0.1095384,0.36045742,-0.07992781,-0.33446446,-0.24619225,0.015623231,806.6667,789.7436,797.8022,798.60803,1052.4542,-0.2830810546875,0.129150390625,0.96405029296875,-0.112152099609375,1.1065673828125,0.9271240234375,1,1.0,1.0,1.0,1.0,10.00
2024-10-11 20:26:37.223,1.0720117,1.02171,0.99620044,0.8558424,0.7646662,0.81275344,0.3986161,0.6237169,1.0250933,0.880995,0.4325201,0.69190615,0.5014476,-0.06722064,-0.1095384,0.36045742,-0.07992781,-0.33446446,-0.24619225,0.015623231,800.6227,790.9524,798.60803,797.3993,918.68134,-0.2830810546875,0.129150390625,0.96405029296875,-0.112152099609375,1.1065673828125,0.9271240234375,1,1.0,1.0,1.0,1.0,10.00
2024-10-11 20:26:37.225,1.0720117,1.02171,0.99620044,0.8558424,0.7646662,0.81275344,0.3986161,0.6237169,1.0250933,0.880995,0.4325201,0.69190615,0.5014476,-0.06722064,-0.1095384,0.36045742,-0.07992781,-0.33446446,-0.24619225,0.015623231,801.8315,799.41394,799.011,796.5934,697.8755,-0.2830810546875,0.129150390625,0.96405029296875,-0.112152099609375,1.1065673828125,0.9271240234375,1,1.0,1.0,1.0,1.0,10.00
2024-10-11 20:26:37.226,1.0720117,1.02171,0.99620044,0.8558424,0.7646662,0.81275344,0.3986161,0.6237169,1.0250933,0.880995,0.4325201,0.69190615,0.5014476,-0.06722064,-0.1095384,0.36045742,-0.07992781,-0.33446446,-0.24619225,0.015623231,797.3993,801.02563,798.20514,788.5348,786.9231,-0.2830810546875,0.129150390625,0.96405029296875,-0.112152099609375,1.1065673828125,0.9271240234375,1,1.0,1.0,1.0,1.0,10.00
2024-10-11 20:26:37.227,1.0720117,1.02171,0.99620044,0.8558424,0.7646662,0.81275344,0.3986161,0.6237169,1.0250933,0.880995,0.4325201,0.69190615,0.5014476,-0.06722064,-0.1095384,0.36045742,-0.07992781,-0.33446446,-0.24619225,0.015623231,787.72894,797.8022,794.9817,776.8498,943.2601,-0.2830810546875,0.129150390625,0.96405029296875,-0.112152099609375,1.1065673828125,0.9271240234375,1,1.0,1.0,1.0,1.0,10.00
2024-10-11 20:26:37.228,1.0720117,1.02171,0.99620044,0.8558424,0.7646662,0.81275344,0.3986161,0.6237169,1.0250933,0.880995,0.4325201,0.69190615,0.5014476,-0.06722064,-0.1095384,0.36045742,-0.07992781,-0.33446446,-0.24619225,0.015623231,780.4762,791.75824,793.7729,768.7912,776.04395,-0.2830810546875,0.129150390625,0.96405029296875,-0.112152099609375,1.1065673828125,0.9271240234375,1,1.0,1.0,1.0,1.0,10.00
2024-10-11 20:26:37.230,1.0720117,1.02171,0.99620044,0.8558424,0.7646662,0.81275344,0.3986161,0.6237169,1.0250933,0.880995,0.4325201,0.69190615,0.5014476,-0.06722064,-0.1095384,0.36045742,-0.07992781,-0.33446446,-0.24619225,0.015623231,787.326,788.1319,792.1612,772.01465,645.09155,-0.2830810546875,0.129150390625,0.96405029296875,-0.112152099609375,1.1065673828125,0.9271240234375,1,1.0,1.0,1.0,1.0,10.00
2024-10-11 20:26:37.231,1.0720117,1.02171,0.99620044,0.8558424,0.7646662,0.81275344,0.3986161,0.6237169,1.0250933,0.880995,0.4325201,0.69190615,0.5014476,-0.06722064,-0.1095384,0.36045742,-0.07992781,-0.33446446,-0.24619225,0.015623231,790.14655,788.93774,794.57874,789.34064,917.0696,-0.2830810546875,0.129150390625,0.96405029296875,-0.112152099609375,1.1065673828125,0.9271240234375,1,1.0,1.0,1.0,1.0,10.00
2024-10-11 20:26:37.232,1.0720117,1.02171,0.99620044,0.8558424,0.7646662,0.81275344,0.3986161,0.6237169,1.0250933,0.880995,0.4325201,0.69190615,0.5014476,-0.06722064,-0.1095384,0.36045742,-0.07992781,-0.33446446,-0.24619225,0.015623231,774.83514,786.52014,797.8022,793.7729,1229.7435,-0.2830810546875,0.129150390625,0.96405029296875,-0.112152099609375,1.1065673828125,0.9271240234375,1,1.0,1.0,1.0,1.0,10.00
2024-10-11 20:26:37.233,1.0720117,1.02171,0.99620044,0.8558424,0.7646662,0.81275344,0.3986161,0.6237169,1.0250933,0.880995,0.4325201,0.69190615,0.5014476,-0.06722064,-0.1095384,0.36045742,-0.07992781,-0.33446446,-0.24619225,0.015623231,775.64105,787.326,800.2198,790.54944,989.19415,-0.2830810546875,0.129150390625,0.96405029296875,-0.112152099609375,1.1065673828125,0.9271240234375,1,1.0,1.0,1.0,1.0,10.00
2024-10-11 20:26:37.234,1.0720117,1.02171,0.99620044,0.8558424,0.7646662,0.81275344,0.3986161,0.6237169,1.0250933,0.880995,0.4325201,0.69190615,0.5014476,-0.06722064,-0.1095384,0.36045742,-0.07992781,-0.33446446,-0.24619225,0.015623231,781.685,793.7729,804.65204,788.1319,798.20514,-0.2830810546875,0.129150390625,0.96405029296875,-0.112152099609375,1.1065673828125,0.9271240234375,1,1.0,1.0,1.0,1.0,10.00
2024-10-11 20:26:37.235,1.0720117,1.02171,0.99620044,0.8558424,0.7646662,0.81275344,0.3986161,0.6237169,1.0250933,0.880995,0.4325201,0.69190615,0.5014476,-0.06722064,-0.1095384,0.36045742,-0.07992781,-0.33446446,-0.24619225,0.015623231,781.685,796.99634,801.8315,784.10254,864.68866,-0.2830810546875,0.129150390625,0.96405029296875,-0.112152099609375,1.1065673828125,0.9271240234375,1,1.0,1.0,1.0,1.0,10.00
2024-10-11 20:26:37.236,1.0720117,1.02171,0.99620044,0.8558424,0.7646662,0.81275344,0.3986161,0.6237169,1.0250933,0.880995,0.4325201,0.69190615,0.5014476,-0.06722064,-0.1095384,0.36045742,-0.07992781,-0.33446446,-0.24619225,0.015623231,790.14655,794.9817,800.2198,794.17584,884.83514,-0.2830810546875,0.129150390625,0.96405029296875,-0.112152099609375,1.1065673828125,0.9271240234375,1,1.0,1.0,1.0,1.0,10.00
2024-10-11 20:26:37.238,1.0720117,1.02171,0.99620044,0.8558424,0.7646662,0.81275344,0.3986161,0.6237169,1.0250933,0.880995,0.4325201,0.69190615,0.5014476,-0.06722064,-0.1095384,0.36045742,-0.07992781,-0.33446446,-0.24619225,0.015623231,807.8755,791.75824,807.8755,814.3223,747.03296,-0.2830810546875,0.129150390625,0.96405029296875,-0.112152099609375,1.1065673828125,0.9271240234375,1,1.0,1.0,1.0,1.0,10.00
2024-10-11 20:26:37.239,1.0720117,1.02171,0.99620044,0.8558424,0.7646662,0.81275344,0.3986161,0.6237169,1.0250933,0.880995,0.4325201,0.69190615,0.5014476,-0.06722064,-0.1095384,0.36045742,-0.07992781,-0.33446446,-0.24619225,0.015623231,819.5604,793.7729,812.3077,824.7985,673.69965,-0.2830810546875,0.129150390625,0.96405029296875,-0.112152099609375,1.1065673828125,0.9271240234375,1,1.0,1.0,1.0,1.0,10.00
2024-10-11 20:26:37.337,1.0720117,1.02171,0.99620044,0.8558424,0.7646662,0.81275344,0.3986161,0.6237169,1.0250933,0.880995,0.4325201,0.69190615,0.5014476,-0.06722064,-0.1095384,0.36045742,-0.07992781,-0.33446446,-0.24619225,0.015623231,813.91943,797.3993,807.0696,819.5604,864.68866,-0.2889404296875,0.12744140625,0.96002197265625,-0.55328369140625,-0.500946044921875,0.2691650390625,1,1.0,1.0,1.0,1.0,10.00
2024-10-11 20:26:37.339,1.0720117,1.02171,0.99620044,0.8558424,0.7646662,0.81275344,0.3986161,0.6237169,1.0250933,0.880995,0.4325201,0.69190615,0.5014476,-0.06722064,-0.1095384,0.36045742,-0.07992781,-0.33446446,-0.24619225,0.015623231,808.68134,796.1905,800.6227,817.1429,933.9927,-0.2889404296875,0.12744140625,0.96002197265625,-0.55328369140625,-0.500946044921875,0.2691650390625,1,1.0,1.0,1.0,1.0,10.00
2024-10-11 20:26:37.340,1.0720117,1.02171,0.99620044,0.8558424,0.7646662,0.81275344,0.3986161,0.6237169,1.0250933,0.880995,0.4325201,0.69190615,0.5014476,-0.06722064,-0.1095384,0.36045742,-0.07992781,-0.33446446,-0.24619225,0.015623231,816.7399,792.5641,799.41394,824.7985,703.91943,-0.2889404296875,0.12744140625,0.96002197265625,-0.55328369140625,-0.500946044921875,0.2691650390625,1,1.0,1.0,1.0,1.0,10.00
2024-10-11 20:26:37.341,1.0720117,1.02171,0.99620044,0.8558424,0.7646662,0.81275344,0.3986161,0.6237169,1.0250933,0.880995,0.4325201,0.69190615,0.5014476,-0.06722064,-0.1095384,0.36045742,-0.07992781,-0.33446446,-0.24619225,0.015623231,818.7546,795.78754,803.8461,831.2454,645.89746,-0.2889404296875,0.12744140625,0.96002197265625,-0.55328369140625,-0.500946044921875,0.2691650390625,1,1.0,1.0,1.0,1.0,10.00
2024-10-11 20:26:37.342,1.0720117,1.02171,0.99620044,0.8558424,0.7646662,0.81275344,0.3986161,0.6237169,1.0250933,0.880995,0.4325201,0.69190615,0.5014476,-0.06722064,-0.1095384,0.36045742,-0.07992781,-0.33446446,-0.24619225,0.015623231,811.0989,796.1905,803.0403,825.2015,931.978,-0.2889404296875,0.12744140625,0.96002197265625,-0.55328369140625,-0.500946044921875,0.2691650390625,1,1.0,1.0,1.0,1.0,10.00
2024-10-11 20:26:37.343,1.0720117,1.02171,0.99620044,0.8558424,0.7646662,0.81275344,0.3986161,0.6237169,1.0250933,0.880995,0.4325201,0.69190615,0.5014476,-0.06722064,-0.1095384,0.36045742,-0.07992781,-0.33446446,-0.24619225,0.015623231,810.293,793.36993,789.7436,819.9634,1281.7216,-0.2889404296875,0.12744140625,0.96002197265625,-0.55328369140625,-0.500946044921875,0.2691650390625,1,1.0,1.0,1.0,1.0,10.00
2024-10-11 20:26:37.344,1.0720117,1.02171,0.99620044,0.8558424,0.7646662,0.81275344,0.3986161,0.6237169,1.0250933,0.880995,0.4325201,0.69190615,0.5014476,-0.06722064,-0.1095384,0.36045742,-0.07992781,-0.33446446,-0.24619225,0.015623231,817.9487,797.3993,788.5348,827.2161,1329.2675,-0.2889404296875,0.12744140625,0.96002197265625,-0.55328369140625,-0.500946044921875,0.2691650390625,1,1.0,1.0,1.0,1.0,10.00
2024-10-11 20:26:37.345,1.0720117,1.02171,0.99620044,0.8558424,0.7646662,0.81275344,0.3986161,0.6237169,1.0250933,0.880995,0.4325201,0.69190615,0.5014476,-0.06722064,-0.1095384,0.36045742,-0.07992781,-0.33446446,-0.24619225,0.015623231,822.7839,790.9524,801.02563,838.49817,1158.8279,-0.2889404296875,0.12744140625,0.96002197265625,-0.55328369140625,-0.500946044921875,0.2691650390625,1,1.0,1.0,1.0,1.0,10.00
2024-10-11 20:26:37.346,1.0720117,1.02171,0.99620044,0.8558424,0.7646662,0.81275344,0.3986161,0.6237169,1.0250933,0.880995,0.4325201,0.69190615,0.5014476,-0.06722064,-0.1095384,0.36045742,-0.07992781,-0.33446446,-0.24619225,0.015623231,820.3663,783.2967,808.2784,836.08057,922.71063,-0.2889404296875,0.12744140625,0.96002197265625,-0.55328369140625,-0.500946044921875,0.2691650390625,1,1.0,1.0,1.0,1.0,10.00
2024-10-11 20:26:37.347,1.0720117,1.0187907,0.99620044,0.8558424,0.7646662,0.80440086,0.3986161,0.6237169,1.0250933,0.880995,0.4325201,0.69190615,0.5014476,-0.05253642,-0.1095384,0.36045742,-0.07992781,-0.3214049,-0.24619225,0.015623231,813.1135,798.60803,800.6227,814.7253,788.5348,-0.2889404296875,0.12744140625,0.96002197265625,-0.55328369140625,-0.500946044921875,0.2691650390625,1,1.0,1.0,1.0,1.0,10.00
2024-10-11 20:26:37.353,1.0720117,1.0187907,0.99620044,0.8558424,0.7646662,0.80440086,0.3986161,0.6237169,1.0250933,0.880995,0.4325201,0.69190615,0.5014476,-0.05253642,-0.1095384,0.36045742,-0.07992781,-0.3214049,-0.24619225,0.015623231,797.3993,800.6227,792.1612,786.9231,669.67035,-0.2889404296875,0.12744140625,0.96002197265625,-0.55328369140625,-0.500946044921875,0.2691650390625,1,1.0,1.0,1.0,1.0,10.00
2024-10-11 20:26:37.354,1.0720117,1.0187907,0.99620044,0.8558424,0.7646662,0.80440086,0.3986161,0.6237169,1.0250933,0.880995,0.4325201,0.69190615,0.5014476,-0.05253642,-0.1095384,0.36045742,-0.07992781,-0.3214049,-0.24619225,0.015623231,795.38464,794.57874,788.1319,776.4469,683.36993,-0.2889404296875,0.12744140625,0.96002197265625,-0.55328369140625,-0.500946044921875,0.2691650390625,1,1.0,1.0,1.0,1.0,10.00
2024-10-11 20:26:37.355,1.0720117,1.0187907,0.99620044,0.8558424,0.7646662,0.80440086,0.3986161,0.6237169,1.0250933,0.880995,0.4325201,0.69190615,0.5014476,-0.05253642,-0.1095384,0.36045742,-0.07992781,-0.3214049,-0.24619225,0.015623231,796.99634,796.5934,787.72894,786.1172,735.34796,-0.28546142578125,0.1259765625,0.96148681640625,-0.500946044921875,-1.77947998046875,-0.231781005859375,1,1.0,1.0,1.0,1.0,10.00
2024-10-11 20:26:37.356,1.0720117,1.0187907,0.99620044,0.8558424,0.7646662,0.80440086,0.3986161,0.6237169,1.0250933,0.880995,0.4325201,0.69190615,0.5014476,-0.05253642,-0.1095384,0.36045742,-0.07992781,-0.3214049,-0.24619225,0.015623231,786.1172,792.96704,797.8022,788.1319,667.6557,-0.28546142578125,0.1259765625,0.96148681640625,-0.500946044921875,-1.77947998046875,-0.231781005859375,1,1.0,1.0,1.0,1.0,10.00
2024-10-11 20:26:37.357,1.0720117,1.0187907,0.99620044,0.8558424,0.7646662,0.80440086,0.3986161,0.6237169,1.0250933,0.880995,0.4325201,0.69190615,0.5014476,-0.05253642,-0.1095384,0.36045742,-0.07992781,-0.3214049,-0.24619225,0.015623231,782.8938,787.72894,805.8608,790.54944,670.87915,-0.28546142578125,0.1259765625,0.96148681640625,-0.500946044921875,-1.77947998046875,-0.231781005859375,1,1.0,1.0,1.0,1.0,10.00
2024-10-11 20:26:37.358,1.0720117,1.0187907,0.99620044,0.8558424,0.7646662,0.80440086,0.3986161,0.6237169,1.0250933,0.880995,0.4325201,0.69190615,0.5014476,-0.05253642,-0.1095384,0.36045742,-0.07992781,-0.3214049,-0.24619225,0.015623231,791.75824,790.54944,800.6227,794.57874,701.50183,-0.28546142578125,0.1259765625,0.96148681640625,-0.500946044921875,-1.77947998046875,-0.231781005859375,1,1.0,1.0,1.0,1.0,10.00
2024-10-11 20:26:37.360,1.0720117,1.0187907,0.99620044,0.8558424,0.7646662,0.80440086,0.3986161,0.6237169,1.0250933,0.880995,0.4325201,0.69190615,0.5014476,-0.05253642,-0.1095384,0.36045742,-0.07992781,-0.3214049,-0.24619225,0.015623231,788.93774,799.011,795.78754,783.69965,741.39197,-0.28546142578125,0.1259765625,0.96148681640625,-0.500946044921875,-1.77947998046875,-0.231781005859375,1,1.0,1.0,1.0,1.0,10.00
2024-10-11 20:26:37.361,1.0720117,1.0187907,0.99620044,0.8558424,0.7646662,0.80440086,0.3986161,0.6237169,1.0250933,0.880995,0.4325201,0.69190615,0.5014476,-0.05253642,-0.1095384,0.36045742,-0.07992781,-0.3214049,-0.24619225,0.015623231,782.0879,799.41394,800.2198,777.25275,793.36993,-0.28546142578125,0.1259765625,0.96148681640625,-0.500946044921875,-1.77947998046875,-0.231781005859375,1,1.0,1.0,1.0,1.0,10.00
2024-10-11 20:26:37.362,1.0720117,1.0187907,0.99620044,0.8558424,0.7646662,0.80440086,0.3986161,0.6237169,1.0250933,0.880995,0.4325201,0.69190615,0.5014476,-0.05253642,-0.1095384,0.36045742,-0.07992781,-0.3214049,-0.24619225,0.015623231,780.07324,791.3553,801.4286,773.6264,769.59705,-0.28546142578125,0.1259765625,0.96148681640625,-0.500946044921875,-1.77947998046875,-0.231781005859375,1,1.0,1.0,1.0,1.0,10.00
2024-10-11 20:26:37.363,1.0720117,1.0187907,0.99620044,0.8558424,0.7646662,0.80440086,0.3986161,0.6237169,1.0250933,0.880995,0.4325201,0.69190615,0.5014476,-0.05253642,-0.1095384,0.36045742,-0.07992781,-0.3214049,-0.24619225,0.015623231,777.25275,791.3553,802.6374,767.5824,770.0,-0.28546142578125,0.1259765625,0.96148681640625,-0.500946044921875,-1.77947998046875,-0.231781005859375,1,1.0,1.0,1.0,1.0,10.00
2024-10-11 20:26:37.364,1.0720117,1.0187907,0.99620044,0.8558424,0.7646662,0.80440086,0.3986161,0.6237169,1.0250933,0.880995,0.4325201,0.69190615,0.5014476,-0.05253642,-0.1095384,0.36045742,-0.07992781,-0.3214049,-0.24619225,0.015623231,780.07324,794.57874,798.60803,777.6557,1071.392,-0.28546142578125,0.1259765625,0.96148681640625,-0.500946044921875,-1.77947998046875,-0.231781005859375,1,1.0,1.0,1.0,1.0,10.00
2024-10-11 20:26:37.366,1.0720117,1.0187907,0.99620044,0.8558424,0.7646662,0.80440086,0.3986161,0.6237169,1.0250933,0.880995,0.4325201,0.69190615,0.5014476,-0.05253642,-0.1095384,0.36045742,-0.07992781,-0.3214049,-0.24619225,0.015623231,780.4762,790.14655,793.7729,793.36993,1330.4762,-0.28546142578125,0.1259765625,0.96148681640625,-0.500946044921875,-1.77947998046875,-0.231781005859375,1,1.0,1.0,1.0,1.0,10.00
2024-10-11 20:26:37.367,1.0720117,1.0187907,0.99620044,0.8558424,0.7646662,0.80440086,0.3986161,0.6237169,1.0250933,0.880995,0.4325201,0.69190615,0.5014476,-0.05253642,-0.1095384,0.36045742,-0.07992781,-0.3214049,-0.24619225,0.015623231,782.8938,789.7436,798.20514,794.17584,1319.1941,-0.28546142578125,0.1259765625,0.96148681640625,-0.500946044921875,-1.77947998046875,-0.231781005859375,1,1.0,1.0,1.0,1.0,10.00
2024-10-11 20:26:37.369,1.0720117,1.0187907,0.99620044,0.8558424,0.7646662,0.80440086,0.3986161,0.6237169,1.0250933,0.880995,0.4325201,0.69190615,0.5014476,-0.05253642,-0.1095384,0.36045742,-0.07992781,-0.3214049,-0.24619225,0.015623231,791.3553,789.34064,807.47253,796.1905,920.293,-0.28546142578125,0.1259765625,0.96148681640625,-0.500946044921875,-1.77947998046875,-0.231781005859375,1,1.0,1.0,1.0,1.0,10.00
2024-10-11 20:26:37.371,1.0720117,1.0187907,0.99620044,0.8558424,0.7646662,0.80440086,0.3986161,0.6237169,1.0250933,0.880995,0.4325201,0.69190615,0.5014476,-0.05253642,-0.1095384,0.36045742,-0.07992781,-0.3214049,-0.24619225,0.015623231,803.44324,790.14655,811.0989,811.0989,570.9524,-0.27789306640625,0.125244140625,0.95758056640625,-0.157012939453125,-2.76641845703125,-0.022430419921875,1,1.0,1.0,1.0,1.0,10.00
2024-10-11 20:26:37.372,1.0720117,1.0187907,0.99620044,0.8558424,0.7646662,0.80440086,0.3986161,0.6237169,1.0250933,0.880995,0.4325201,0.69190615,0.5014476,-0.05253642,-0.1095384,0.36045742,-0.07992781,-0.3214049,-0.24619225,0.015623231,805.4579,794.17584,808.2784,815.12823,521.39197,-0.27789306640625,0.125244140625,0.95758056640625,-0.157012939453125,-2.76641845703125,-0.022430419921875,1,1.0,1.0,1.0,1.0,10.00
2024-10-11 20:26:37.373,1.0720117,1.0187907,0.99620044,0.8558424,0.7646662,0.80440086,0.3986161,0.6237169,1.0250933,0.880995,0.4325201,0.69190615,0.5014476,-0.05253642,-0.1095384,0.36045742,-0.07992781,-0.3214049,-0.24619225,0.015623231,801.8315,790.9524,804.2491,817.1429,682.5641,-0.27789306640625,0.125244140625,0.95758056640625,-0.157012939453125,-2.76641845703125,-0.022430419921875,1,1.0,1.0,1.0,1.0,10.00
2024-10-11 20:26:37.374,1.0720117,1.0187907,0.99620044,0.8558424,0.7646662,0.80440086,0.3986161,0.6237169,1.0250933,0.880995,0.4325201,0.69190615,0.5014476,-0.05253642,-0.1095384,0.36045742,-0.07992781,-0.3214049,-0.24619225,0.015623231,803.0403,792.1612,803.8461,818.7546,790.14655,-0.27789306640625,0.125244140625,0.95758056640625,-0.157012939453125,-2.76641845703125,-0.022430419921875,1,1.0,1.0,1.0,1.0,10.00
2024-10-11 20:26:37.375,1.0720117,1.0187907,0.99620044,0.8558424,0.7646662,0.80440086,0.3986161,0.6237169,1.0250933,0.880995,0.4325201,0.69190615,0.5014476,-0.05253642,-0.1095384,0.36045742,-0.07992781,-0.3214049,-0.24619225,0.015623231,810.293,793.36993,800.2198,814.7253,666.8498,-0.27789306640625,0.125244140625,0.95758056640625,-0.157012939453125,-2.76641845703125,-0.022430419921875,1,1.0,1.0,1.0,1.0,10.00
2024-10-11 20:26:37.376,1.0720117,1.0187907,0.99620044,0.8558424,0.7646662,0.80440086,0.3986161,0.6237169,1.0250933,0.880995,0.4325201,0.69190615,0.5014476,-0.05253642,-0.1095384,0.36045742,-0.07992781,-0.3214049,-0.24619225,0.015623231,823.5897,795.38464,792.5641,823.5897,648.315,-0.27789306640625,0.125244140625,0.95758056640625,-0.157012939453125,-2.76641845703125,-0.022430419921875,1,1.0,1.0,1.0,1.0,10.00
2024-10-11 20:26:37.377,1.0720117,1.0187907,0.99620044,0.8558424,0.7646662,0.80440086,0.3986161,0.6237169,1.0250933,0.880995,0.4325201,0.69190615,0.5014476,-0.05253642,-0.1095384,0.36045742,-0.07992781,-0.3214049,-0.24619225,0.015623231,825.6044,799.011,801.8315,843.73627,850.989,-0.27789306640625,0.125244140625,0.95758056640625,-0.157012939453125,-2.76641845703125,-0.022430419921875,1,1.0,1.0,1.0,1.0,10.00
2024-10-11 20:26:37.378,1.0720117,1.0187907,0.99620044,0.8558424,0.7646662,0.80440086,0.3986161,0.6237169,1.0250933,0.880995,0.4325201,0.69190615,0.5014476,-0.05253642,-0.1095384,0.36045742,-0.07992781,-0.3214049,-0.24619225,0.015623231,820.7692,794.17584,815.9341,850.58606,1104.0293,-0.27789306640625,0.125244140625,0.95758056640625,-0.157012939453125,-2.76641845703125,-0.022430419921875,1,1.0,1.0,1.0,1.0,10.00
2024-10-11 20:26:37.380,1.0720117,1.0187907,0.99620044,0.8558424,0.7646662,0.80440086,0.3986161,0.6237169,1.0250933,0.880995,0.4325201,0.69190615,0.5014476,-0.05253642,-0.1095384,0.36045742,-0.07992781,-0.3214049,-0.24619225,0.015623231,826.8132,797.3993,809.89014,839.304,913.8461,-0.27789306640625,0.125244140625,0.95758056640625,-0.157012939453125,-2.76641845703125,-0.022430419921875,1,1.0,1.0,1.0,1.0,10.00
2024-10-11 20:26:37.381,1.0720117,1.0187907,0.99620044,0.8558424,0.7646662,0.80440086,0.3986161,0.6237169,1.0250933,0.880995,0.4325201,0.69190615,0.5014476,-0.05253642,-0.1095384,0.36045742,-0.07992781,-0.3214049,-0.24619225,0.015623231,826.0073,801.02563,807.0696,826.0073,616.08057,-0.27789306640625,0.125244140625,0.95758056640625,-0.157012939453125,-2.76641845703125,-0.022430419921875,1,1.0,1.0,1.0,1.0,10.00
2024-10-11 20:26:37.382,1.0720117,1.0187907,0.99620044,0.8558424,0.7646662,0.80440086,0.3986161,0.6237169,1.0250933,0.880995,0.4325201,0.69190615,0.5014476,-0.05253642,-0.1095384,0.36045742,-0.07992781,-0.3214049,-0.24619225,0.015623231,816.337,798.60803,803.0403,814.3223,585.8608,-0.27789306640625,0.125244140625,0.95758056640625,-0.157012939453125,-2.76641845703125,-0.022430419921875,1,1.0,1.0,1.0,1.0,10.00
2024-10-11 20:26:37.383,1.0720117,1.0128071,0.99620044,0.8558424,0.7646662,0.7925809,0.3986161,0.6237169,1.0250933,0.880995,0.4325201,0.69190615,0.5014476,-0.044927962,-0.1095384,0.36045742,-0.07992781,-0.30476776,-0.24619225,0.015623231,813.1135,799.011,794.17584,814.3223,927.5458,-0.27789306640625,0.125244140625,0.95758056640625,-0.157012939453125,-2.76641845703125,-0.022430419921875,1,1.0,1.0,1.0,1.0,10.00
2024-10-11 20:26:37.430,1.0720117,1.0128071,0.99620044,0.8558424,0.7646662,0.7925809,0.3986161,0.6237169,1.0250933,0.880995,0.4325201,0.69190615,0.5014476,-0.044927962,-0.1095384,0.36045742,-0.07992781,-0.30476776,-0.24619225,0.015623231,811.0989,792.96704,799.011,817.5458,980.7326,-0.2801513671875,0.12579345703125,0.9656982421875,0.64300537109375,-2.6318359375,0.800018310546875,1,1.0,1.0,1.0,1.0,10.00
2024-10-11 20:26:37.432,1.0720117,1.0128071,0.99620044,0.8558424,0.7646662,0.7925809,0.3986161,0.6237169,1.0250933,0.880995,0.4325201,0.69190615,0.5014476,-0.044927962,-0.1095384,0.36045742,-0.07992781,-0.30476776,-0.24619225,0.015623231,813.5165,788.5348,809.4872,817.5458,651.13556,-0.2801513671875,0.12579345703125,0.9656982421875,0.64300537109375,-2.6318359375,0.800018310546875,1,1.0,1.0,1.0,1.0,10.00
2024-10-11 20:26:37.433,1.0720117,1.0128071,0.99620044,0.8558424,0.7646662,0.7925809,0.3986161,0.6237169,1.0250933,0.880995,0.4325201,0.69190615,0.5014476,-0.044927962,-0.1095384,0.36045742,-0.07992781,-0.30476776,-0.24619225,0.015623231,810.293,793.36993,808.68134,813.5165,609.6337,-0.2801513671875,0.12579345703125,0.9656982421875,0.64300537109375,-2.6318359375,0.800018310546875,1,1.0,1.0,1.0,1.0,10.00
2024-10-11 20:26:37.434,1.0720117,1.0128071,0.99620044,0.8558424,0.7646662,0.7925809,0.3986161,0.6237169,1.0250933,0.880995,0.4325201,0.69190615,0.5014476,-0.044927962,-0.1095384,0.36045742,-0.07992781,-0.30476776,-0.24619225,0.015623231,801.02563,796.1905,803.0403,804.2491,780.07324,-0.2801513671875,0.12579345703125,0.9656982421875,0.64300537109375,-2.6318359375,0.800018310546875,1,1.0,1.0,1.0,1.0,10.00
2024-10-11 20:26:37.434,1.0720117,1.0128071,0.99620044,0.8558424,0.7646662,0.7925809,0.3986161,0.6237169,1.0250933,0.880995,0.4325201,0.69190615,0.5014476,-0.044927962,-0.1095384,0.36045742,-0.07992781,-0.30476776,-0.24619225,0.015623231,794.9817,791.75824,802.6374,792.5641,734.1392,-0.2801513671875,0.12579345703125,0.9656982421875,0.64300537109375,-2.6318359375,0.800018310546875,1,1.0,1.0,1.0,1.0,10.00
2024-10-11 20:26:37.435,1.0720117,1.0128071,0.99620044,0.8558424,0.7646662,0.7925809,0.3986161,0.6237169,1.0250933,0.880995,0.4325201,0.69190615,0.5014476,-0.044927962,-0.1095384,0.36045742,-0.07992781,-0.30476776,-0.24619225,0.015623231,798.20514,792.5641,800.2198,786.9231,629.7802,-0.2801513671875,0.12579345703125,0.9656982421875,0.64300537109375,-2.6318359375,0.800018310546875,1,1.0,1.0,1.0,1.0,10.00
2024-10-11 20:26:37.436,1.0720117,1.0128071,0.99620044,0.8558424,0.7646662,0.7925809,0.3986161,0.6237169,1.0250933,0.880995,0.4325201,0.69190615,0.5014476,-0.044927962,-0.1095384,0.36045742,-0.07992781,-0.30476776,-0.24619225,0.015623231,809.89014,802.23444,801.02563,789.34064,775.2381,-0.2801513671875,0.12579345703125,0.9656982421875,0.64300537109375,-2.6318359375,0.800018310546875,1,1.0,1.0,1.0,1.0,10.00
2024-10-11 20:26:37.437,1.0720117,1.0128071,0.99620044,0.8558424,0.7646662,0.7925809,0.3986161,0.6237169,1.0250933,0.880995,0.4325201,0.69190615,0.5014476,-0.044927962,-0.1095384,0.36045742,-0.07992781,-0.30476776,-0.24619225,0.015623231,803.8461,805.4579,803.44324,798.60803,1062.5275,-0.2801513671875,0.12579345703125,0.9656982421875,0.64300537109375,-2.6318359375,0.800018310546875,1,1.0,1.0,1.0,1.0,10.00
2024-10-11 20:26:37.438,1.0720117,1.0128071,0.99620044,0.8558424,0.7646662,0.7925809,0.3986161,0.6237169,1.0250933,0.880995,0.4325201,0.69190615,0.5014476,-0.044927962,-0.1095384,0.36045742,-0.07992781,-0.30476776,-0.24619225,0.015623231,789.7436,807.8755,803.0403,789.34064,813.5165,-0.2801513671875,0.12579345703125,0.9656982421875,0.64300537109375,-2.6318359375,0.800018310546875,1,1.0,1.0,1.0,1.0,10.00
2024-10-11 20:26:37.439,1.0720117,1.0128071,0.99620044,0.8558424,0.7646662,0.7925809,0.3986161,0.6237169,1.0250933,0.880995,0.4325201,0.69190615,0.5014476,-0.044927962,-0.1095384,0.36045742,-0.07992781,-0.30476776,-0.24619225,0.015623231,784.90845,805.4579,796.5934,771.6117,628.97437,-0.2801513671875,0.12579345703125,0.9656982421875,0.64300537109375,-2.6318359375,0.800018310546875,1,1.0,1.0,1.0,1.0,10.00
2024-10-11 20:26:37.440,1.0720117,1.0128071,0.99620044,0.8558424,0.7646662,0.7925809,0.3986161,0.6237169,1.0250933,0.880995,0.4325201,0.69190615,0.5014476,-0.044927962,-0.1095384,0.36045742,-0.07992781,-0.30476776,-0.24619225,0.015623231,790.54944,808.68134,793.7729,778.46155,695.05493,-0.2801513671875,0.12579345703125,0.9656982421875,0.64300537109375,-2.6318359375,0.800018310546875,1,1.0,1.0,1.0,1.0,10.00
2024-10-11 20:26:37.441,1.0720117,1.0128071,0.99620044,0.8558424,0.7646662,0.7925809,0.3986161,0.6237169,1.0250933,0.880995,0.4325201,0.69190615,0.5014476,-0.044927962,-0.1095384,0.36045742,-0.07992781,-0.30476776,-0.24619225,0.015623231,796.5934,803.44324,802.6374,799.81683,727.6923,-0.2801513671875,0.12579345703125,0.9656982421875,0.64300537109375,-2.6318359375,0.800018310546875,1,1.0,1.0,1.0,1.0,10.00
2024-10-11 20:26:37.442,1.0720117,1.0128071,0.99620044,0.8558424,0.7646662,0.7925809,0.3986161,0.6237169,1.0250933,0.880995,0.4325201,0.69190615,0.5014476,-0.044927962,-0.1095384,0.36045742,-0.07992781,-0.30476776,-0.24619225,0.015623231,799.41394,799.41394,810.696,809.4872,666.8498,-0.2801513671875,0.12579345703125,0.9656982421875,0.64300537109375,-2.6318359375,0.800018310546875,1,1.0,1.0,1.0,1.0,10.00
2024-10-11 20:26:37.444,1.0720117,1.0128071,0.99620044,0.8558424,0.7646662,0.7925809,0.3986161,0.6237169,1.0250933,0.880995,0.4325201,0.69190615,0.5014476,-0.044927962,-0.1095384,0.36045742,-0.07992781,-0.30476776,-0.24619225,0.015623231,794.17584,806.6667,802.6374,796.1905,683.36993,-0.2801513671875,0.12579345703125,0.9656982421875,0.64300537109375,-2.6318359375,0.800018310546875,1,1.0,1.0,1.0,1.0,10.00
2024-10-11 20:26:37.445,1.0720117,1.0128071,0.99620044,0.8558424,0.7646662,0.7925809,0.3986161,0.6237169,1.0250933,0.880995,0.4325201,0.69190615,0.5014476,-0.044927962,-0.1095384,0.36045742,-0.07992781,-0.30476776,-0.24619225,0.015623231,794.57874,799.81683,798.60803,788.5348,774.83514,-0.2801513671875,0.12579345703125,0.9656982421875,0.64300537109375,-2.6318359375,0.800018310546875,1,1.0,1.0,1.0,1.0,10.00
2024-10-11 20:26:37.446,1.0720117,1.0128071,0.99620044,0.8558424,0.7646662,0.7925809,0.3986161,0.6237169,1.0250933,0.880995,0.4325201,0.69190615,0.5014476,-0.044927962,-0.1095384,0.36045742,-0.07992781,-0.30476776,-0.24619225,0.015623231,801.02563,799.81683,797.8022,793.7729,817.5458,-0.2801513671875,0.12579345703125,0.9656982421875,0.64300537109375,-2.6318359375,0.800018310546875,1,1.0,1.0,1.0,1.0,10.00
2024-10-11 20:26:37.447,1.0720117,1.0128071,0.99620044,0.8558424,0.7646662,0.7925809,0.3986161,0.6237169,1.0250933,0.880995,0.4325201,0.69190615,0.5014476,-0.044927962,-0.1095384,0.36045742,-0.07992781,-0.30476776,-0.24619225,0.015623231,802.23444,801.02563,796.1905,794.9817,705.5311,-0.2801513671875,0.12579345703125,0.9656982421875,0.64300537109375,-2.6318359375,0.800018310546875,1,1.0,1.0,1.0,1.0,10.00
2024-10-11 20:26:37.448,1.0720117,1.0128071,0.99620044,0.8558424,0.7646662,0.7925809,0.3986161,0.6237169,1.0250933,0.880995,0.4325201,0.69190615,0.5014476,-0.044927962,-0.1095384,0.36045742,-0.07992781,-0.30476776,-0.24619225,0.015623231,812.3077,797.8022,794.17584,805.4579,749.0476,-0.2801513671875,0.12579345703125,0.9656982421875,0.64300537109375,-2.6318359375,0.800018310546875,1,1.0,1.0,1.0,1.0,10.00
2024-10-11 20:26:37.449,1.0720117,1.0128071,0.99620044,0.8558424,0.7646662,0.7925809,0.3986161,0.6237169,1.0250933,0.880995,0.4325201,0.69190615,0.5014476,-0.044927962,-0.1095384,0.36045742,-0.07992781,-0.30476776,-0.24619225,0.015623231,826.4103,798.20514,791.3553,815.9341,984.7619,-0.2801513671875,0.12579345703125,0.9656982421875,0.64300537109375,-2.6318359375,0.800018310546875,1,1.0,1.0,1.0,1.0,10.00
2024-10-11 20:26:37.450,1.0720117,1.0128071,0.99620044,0.8558424,0.7646662,0.7925809,0.3986161,0.6237169,1.0250933,0.880995,0.4325201,0.69190615,0.5014476,-0.044927962,-0.1095384,0.36045742,-0.07992781,-0.30476776,-0.24619225,0.015623231,823.9927,801.4286,794.57874,809.0842,874.7619,-0.2801513671875,0.12579345703125,0.9656982421875,0.64300537109375,-2.6318359375,0.800018310546875,1,1.0,1.0,1.0,1.0,10.00
2024-10-11 20:26:37.452,1.0720117,1.0128071,0.99620044,0.8558424,0.7646662,0.7925809,0.3986161,0.6237169,1.0250933,0.880995,0.4325201,0.69190615,0.5014476,-0.044927962,-0.1095384,0.36045742,-0.07992781,-0.30476776,-0.24619225,0.015623231,816.337,801.4286,796.5934,805.05493,726.8865,-0.2801513671875,0.12579345703125,0.9656982421875,0.64300537109375,-2.6318359375,0.800018310546875,1,1.0,1.0,1.0,1.0,10.00
2024-10-11 20:26:37.453,1.0720117,1.0128071,0.99620044,0.8558424,0.7646662,0.7925809,0.3986161,0.6237169,1.0250933,0.880995,0.4325201,0.69190615,0.5014476,-0.044927962,-0.1095384,0.36045742,-0.07992781,-0.30476776,-0.24619225,0.015623231,821.5751,796.1905,796.5934,815.12823,793.36993,-0.2801513671875,0.12579345703125,0.9656982421875,0.64300537109375,-2.6318359375,0.800018310546875,1,1.0,1.0,1.0,1.0,10.00
2024-10-11 20:26:37.454,1.0720117,1.0128071,0.99620044,0.8558424,0.7646662,0.7925809,0.3986161,0.6237169,1.0250933,0.880995,0.4325201,0.69190615,0.5014476,-0.044927962,-0.1095384,0.36045742,-0.07992781,-0.30476776,-0.24619225,0.015623231,818.3516,795.38464,799.41394,815.5311,937.619,-0.2801513671875,0.12579345703125,0.9656982421875,0.64300537109375,-2.6318359375,0.800018310546875,1,1.0,1.0,1.0,1.0,10.00
2024-10-11 20:26:37.455,1.0720117,1.0128071,0.99620044,0.8558424,0.7646662,0.7925809,0.3986161,0.6237169,1.0250933,0.880995,0.4325201,0.69190615,0.5014476,-0.044927962,-0.1095384,0.36045742,-0.07992781,-0.30476776,-0.24619225,0.015623231,805.4579,796.99634,799.41394,801.8315,770.0,-0.2801513671875,0.12579345703125,0.9656982421875,0.64300537109375,-2.6318359375,0.800018310546875,1,1.0,1.0,1.0,1.0,10.00
2024-10-11 20:26:37.456,1.0720117,1.0128071,0.99620044,0.8558424,0.7646662,0.7925809,0.3986161,0.6237169,1.0250933,0.880995,0.4325201,0.69190615,0.5014476,-0.044927962,-0.1095384,0.36045742,-0.07992781,-0.30476776,-0.24619225,0.015623231,803.8461,799.011,796.99634,799.41394,670.4762,-0.2816162109375,0.13153076171875,0.95953369140625,2.25799560546875,-1.39068603515625,1.15142822265625,1,1.0,1.0,1.0,1.0,10.00
2024-10-11 20:26:37.457,1.0720117,0.9958264,0.99620044,0.8558424,0.7646662,0.77409697,0.3986161,0.6237169,1.0250933,0.880995,0.4325201,0.69190615,0.5014476,-0.046120852,-0.1095384,0.36045742,-0.07992781,-0.28891486,-0.24619225,0.015623231,807.0696,796.1905,794.17584,810.696,781.28204,-0.2816162109375,0.13153076171875,0.95953369140625,2.25799560546875,-1.39068603515625,1.15142822265625,1,1.0,1.0,1.0,1.0,10.00
2024-10-11 20:26:37.462,1.0720117,0.9958264,0.99620044,0.8558424,0.7646662,0.77409697,0.3986161,0.6237169,1.0250933,0.880995,0.4325201,0.69190615,0.5014476,-0.046120852,-0.1095384,0.36045742,-0.07992781,-0.28891486,-0.24619225,0.015623231,794.9817,785.7143,801.8315,809.4872,802.23444,-0.2816162109375,0.13153076171875,0.95953369140625,2.25799560546875,-1.39068603515625,1.15142822265625,1,1.0,1.0,1.0,1.0,10.00
2024-10-11 20:26:37.463,1.0720117,0.9958264,0.99620044,0.8558424,0.7646662,0.77409697,0.3986161,0.6237169,1.0250933,0.880995,0.4325201,0.69190615,0.5014476,-0.046120852,-0.1095384,0.36045742,-0.07992781,-0.28891486,-0.24619225,0.015623231,788.5348,784.5055,811.9048,801.4286,677.72894,-0.2816162109375,0.13153076171875,0.95953369140625,2.25799560546875,-1.39068603515625,1.15142822265625,1,1.0,1.0,1.0,1.0,10.00
2024-10-11 20:26:37.465,1.0720117,0.9958264,0.99620044,0.8558424,0.7646662,0.77409697,0.3986161,0.6237169,1.0250933,0.880995,0.4325201,0.69190615,0.5014476,-0.046120852,-0.1095384,0.36045742,-0.07992781,-0.28891486,-0.24619225,0.015623231,796.99634,791.75824,806.6667,791.75824,584.65204,-0.2816162109375,0.13153076171875,0.95953369140625,2.25799560546875,-1.39068603515625,1.15142822265625,1,1.0,1.0,1.0,1.0,10.00
2024-10-11 20:26:37.470,1.0720117,0.9958264,0.99620044,0.8558424,0.7646662,0.77409697,0.3986161,0.6237169,1.0250933,0.880995,0.4325201,0.69190615,0.5014476,-0.046120852,-0.1095384,0.36045742,-0.07992781,-0.28891486,-0.24619225,0.015623231,787.72894,795.38464,799.011,785.31134,799.41394,-0.2816162109375,0.13153076171875,0.95953369140625,2.25799560546875,-1.39068603515625,1.15142822265625,1,1.0,1.0,1.0,1.0,10.00
2024-10-11 20:26:37.471,1.0720117,0.9958264,0.99620044,0.8558424,0.7646662,0.77409697,0.3986161,0.6237169,1.0250933,0.880995,0.4325201,0.69190615,0.5014476,-0.046120852,-0.1095384,0.36045742,-0.07992781,-0.28891486,-0.24619225,0.015623231,779.2674,786.52014,802.6374,792.1612,1036.7399,-0.2816162109375,0.13153076171875,0.95953369140625,2.25799560546875,-1.39068603515625,1.15142822265625,1,1.0,1.0,1.0,1.0,10.00
2024-10-11 20:26:37.472,1.0720117,0.9958264,0.99620044,0.8558424,0.7646662,0.77409697,0.3986161,0.6237169,1.0250933,0.880995,0.4325201,0.69190615,0.5014476,-0.046120852,-0.1095384,0.36045742,-0.07992781,-0.28891486,-0.24619225,0.015623231,792.5641,788.1319,805.8608,807.8755,857.8388,-0.2816162109375,0.13153076171875,0.95953369140625,2.25799560546875,-1.39068603515625,1.15142822265625,1,1.0,1.0,1.0,1.0,10.00
2024-10-11 20:26:37.473,1.0720117,0.9958264,0.99620044,0.8558424,0.7646662,0.77409697,0.3986161,0.6237169,1.0250933,0.880995,0.4325201,0.69190615,0.5014476,-0.046120852,-0.1095384,0.36045742,-0.07992781,-0.28891486,-0.24619225,0.015623231,792.96704,795.78754,802.23444,814.3223,726.8865,-0.2816162109375,0.13153076171875,0.95953369140625,2.25799560546875,-1.39068603515625,1.15142822265625,1,1.0,1.0,1.0,1.0,10.00
2024-10-11 20:26:37.474,1.0720117,0.9958264,0.99620044,0.8558424,0.7646662,0.77409697,0.3986161,0.6237169,1.0250933,0.880995,0.4325201,0.69190615,0.5014476,-0.046120852,-0.1095384,0.36045742,-0.07992781,-0.28891486,-0.24619225,0.015623231,784.5055,794.57874,802.6374,809.0842,824.3956,-0.2816162109375,0.13153076171875,0.95953369140625,2.25799560546875,-1.39068603515625,1.15142822265625,1,1.0,1.0,1.0,1.0,10.00
2024-10-11 20:26:37.475,1.0720117,0.9958264,0.99620044,0.8558424,0.7646662,0.77409697,0.3986161,0.6237169,1.0250933,0.880995,0.4325201,0.69190615,0.5014476,-0.046120852,-0.1095384,0.36045742,-0.07992781,-0.28891486,-0.24619225,0.015623231,779.2674,791.75824,800.6227,807.47253,1228.1318,-0.2816162109375,0.13153076171875,0.95953369140625,2.25799560546875,-1.39068603515625,1.15142822265625,1,1.0,1.0,1.0,1.0,10.00
2024-10-11 20:26:37.476,1.0720117,0.9958264,0.99620044,0.8558424,0.7646662,0.77409697,0.3986161,0.6237169,1.0250933,0.880995,0.4325201,0.69190615,0.5014476,-0.046120852,-0.1095384,0.36045742,-0.07992781,-0.28891486,-0.24619225,0.015623231,774.83514,795.78754,794.9817,808.2784,1223.2968,-0.2816162109375,0.13153076171875,0.95953369140625,2.25799560546875,-1.39068603515625,1.15142822265625,1,1.0,1.0,1.0,1.0,10.00
2024-10-11 20:26:37.511,1.0720117,0.9958264,0.99620044,0.8558424,0.7646662,0.77409697,0.3986161,0.6237169,1.0250933,0.880995,0.4325201,0.69190615,0.5014476,-0.046120852,-0.1095384,0.36045742,-0.07992781,-0.28891486,-0.24619225,0.015623231,785.7143,799.81683,795.38464,805.4579,776.4469,-0.28515625,0.12542724609375,0.9251708984375,7.1478271484375,0.28411865234375,1.757049560546875,1,1.0,1.0,1.0,1.0,10.00
2024-10-11 20:26:37.512,1.0720117,0.9958264,0.99620044,0.8558424,0.7646662,0.77409697,0.3986161,0.6237169,1.0250933,0.880995,0.4325201,0.69190615,0.5014476,-0.046120852,-0.1095384,0.36045742,-0.07992781,-0.28891486,-0.24619225,0.015623231,796.5934,796.1905,801.4286,815.12823,741.79486,-0.28515625,0.12542724609375,0.9251708984375,7.1478271484375,0.28411865234375,1.757049560546875,1,1.0,1.0,1.0,1.0,10.00
2024-10-11 20:26:37.513,1.0720117,0.9958264,0.99620044,0.8558424,0.7646662,0.77409697,0.3986161,0.6237169,1.0250933,0.880995,0.4325201,0.69190615,0.5014476,-0.046120852,-0.1095384,0.36045742,-0.07992781,-0.28891486,-0.24619225,0.015623231,795.78754,792.5641,805.4579,828.4249,863.0769,-0.28515625,0.12542724609375,0.9251708984375,7.1478271484375,0.28411865234375,1.757049560546875,1,1.0,1.0,1.0,1.0,10.00
2024-10-11 20:26:37.514,1.0720117,0.9958264,0.99620044,0.8558424,0.7646662,0.77409697,0.3986161,0.6237169,1.0250933,0.880995,0.4325201,0.69190615,0.5014476,-0.046120852,-0.1095384,0.36045742,-0.07992781,-0.28891486,-0.24619225,0.015623231,805.4579,797.8022,802.6374,811.9048,840.10986,-0.28515625,0.12542724609375,0.9251708984375,7.1478271484375,0.28411865234375,1.757049560546875,1,1.0,1.0,1.0,1.0,10.00
2024-10-11 20:26:37.516,1.0720117,0.9958264,0.99620044,0.8558424,0.7646662,0.77409697,0.3986161,0.6237169,1.0250933,0.880995,0.4325201,0.69190615,0.5014476,-0.046120852,-0.1095384,0.36045742,-0.07992781,-0.28891486,-0.24619225,0.015623231,810.293,799.011,795.38464,778.86444,796.99634,-0.28515625,0.12542724609375,0.9251708984375,7.1478271484375,0.28411865234375,1.757049560546875,1,1.0,1.0,1.0,1.0,10.00
2024-10-11 20:26:37.519,1.0720117,0.9958264,0.99620044,0.8558424,0.7646662,0.77409697,0.3986161,0.6237169,1.0250933,0.880995,0.4325201,0.69190615,0.5014476,-0.046120852,-0.1095384,0.36045742,-0.07992781,-0.28891486,-0.24619225,0.015623231,804.2491,792.96704,784.90845,770.80585,1067.3627,-0.28515625,0.12542724609375,0.9251708984375,7.1478271484375,0.28411865234375,1.757049560546875,1,1.0,1.0,1.0,1.0,10.00
2024-10-11 20:26:37.520,1.0720117,0.9958264,0.99620044,0.8558424,0.7646662,0.77409697,0.3986161,0.6237169,1.0250933,0.880995,0.4325201,0.69190615,0.5014476,-0.046120852,-0.1095384,0.36045742,-0.07992781,-0.28891486,-0.24619225,0.015623231,828.022,799.81683,783.2967,797.8022,1047.619,-0.28515625,0.12542724609375,0.9251708984375,7.1478271484375,0.28411865234375,1.757049560546875,1,1.0,1.0,1.0,1.0,10.00
2024-10-11 20:26:37.521,1.0720117,0.9958264,0.99620044,0.8558424,0.7646662,0.77409697,0.3986161,0.6237169,1.0250933,0.880995,0.4325201,0.69190615,0.5014476,-0.046120852,-0.1095384,0.36045742,-0.07992781,-0.28891486,-0.24619225,0.015623231,841.7216,799.81683,794.9817,823.5897,671.28204,-0.28515625,0.12542724609375,0.9251708984375,7.1478271484375,0.28411865234375,1.757049560546875,1,1.0,1.0,1.0,1.0,10.00
2024-10-11 20:26:37.521,1.0720117,0.9958264,0.99620044,0.8558424,0.7646662,0.77409697,0.3986161,0.6237169,1.0250933,0.880995,0.4325201,0.69190615,0.5014476,-0.046120852,-0.1095384,0.36045742,-0.07992781,-0.28891486,-0.24619225,0.015623231,820.7692,790.9524,801.4286,810.696,612.0513,-0.28515625,0.12542724609375,0.9251708984375,7.1478271484375,0.28411865234375,1.757049560546875,1,1.0,1.0,1.0,1.0,10.00
2024-10-11 20:26:37.522,1.0720117,0.9958264,0.99620044,0.8558424,0.7646662,0.77409697,0.3986161,0.6237169,1.0250933,0.880995,0.4325201,0.69190615,0.5014476,-0.046120852,-0.1095384,0.36045742,-0.07992781,-0.28891486,-0.24619225,0.015623231,812.3077,784.10254,802.23444,810.293,937.619,-0.28515625,0.12542724609375,0.9251708984375,7.1478271484375,0.28411865234375,1.757049560546875,1,1.0,1.0,1.0,1.0,10.00
2024-10-11 20:26:37.523,1.0720117,0.9958264,0.99620044,0.8558424,0.7646662,0.77409697,0.3986161,0.6237169,1.0250933,0.880995,0.4325201,0.69190615,0.5014476,-0.046120852,-0.1095384,0.36045742,-0.07992781,-0.28891486,-0.24619225,0.015623231,819.9634,781.28204,805.05493,826.8132,871.53845,-0.28515625,0.12542724609375,0.9251708984375,7.1478271484375,0.28411865234375,1.757049560546875,1,1.0,1.0,1.0,1.0,10.00
2024-10-11 20:26:37.523,1.0720117,0.9958264,0.99620044,0.8558424,0.7646662,0.77409697,0.3986161,0.6237169,1.0250933,0.880995,0.4325201,0.69190615,0.5014476,-0.046120852,-0.1095384,0.36045742,-0.07992781,-0.28891486,-0.24619225,0.015623231,825.6044,790.54944,801.02563,832.0513,678.93774,-0.28515625,0.12542724609375,0.9251708984375,7.1478271484375,0.28411865234375,1.757049560546875,1,1.0,1.0,1.0,1.0,10.00
2024-10-11 20:26:37.524,1.0720117,0.9958264,0.99620044,0.8558424,0.7646662,0.77409697,0.3986161,0.6237169,1.0250933,0.880995,0.4325201,0.69190615,0.5014476,-0.046120852,-0.1095384,0.36045742,-0.07992781,-0.28891486,-0.24619225,0.015623231,815.12823,789.34064,793.7729,809.4872,746.63007,-0.2930908203125,0.13958740234375,0.94708251953125,13.181610107421875,0.874786376953125,-0.934600830078125,1,1.0,1.0,1.0,1.0,10.00
2024-10-11 20:26:37.525,1.0720117,0.9958264,0.99620044,0.8558424,0.7646662,0.77409697,0.3986161,0.6237169,1.0250933,0.880995,0.4325201,0.69190615,0.5014476,-0.046120852,-0.1095384,0.36045742,-0.07992781,-0.28891486,-0.24619225,0.015623231,819.5604,791.3553,794.57874,809.4872,788.5348,-0.2930908203125,0.13958740234375,0.94708251953125,13.181610107421875,0.874786376953125,-0.934600830078125,1,1.0,1.0,1.0,1.0,10.00
2024-10-11 20:26:37.525,1.0720117,0.9958264,0.99620044,0.8558424,0.7646662,0.77409697,0.3986161,0.6237169,1.0250933,0.880995,0.4325201,0.69190615,0.5014476,-0.046120852,-0.1095384,0.36045742,-0.07992781,-0.28891486,-0.24619225,0.015623231,833.663,790.54944,801.4286,828.022,733.3333,-0.2930908203125,0.13958740234375,0.94708251953125,13.181610107421875,0.874786376953125,-0.934600830078125,1,1.0,1.0,1.0,1.0,10.00
2024-10-11 20:26:37.526,1.0720117,0.97197896,0.99620044,0.8558424,0.7646662,0.75134987,0.3986161,0.6237169,1.0250933,0.880995,0.4325201,0.69190615,0.5014476,-0.0533436,-0.1095384,0.36045742,-0.07992781,-0.2786278,-0.24619225,0.015623231,823.9927,777.6557,809.89014,829.2308,673.2967,-0.2930908203125,0.13958740234375,0.94708251953125,13.181610107421875,0.874786376953125,-0.934600830078125,1,1.0,1.0,1.0,1.0,10.00
2024-10-11 20:26:37.530,1.0720117,0.97197896,0.99620044,0.8558424,0.7646662,0.75134987,0.3986161,0.6237169,1.0250933,0.880995,0.4325201,0.69190615,0.5014476,-0.0533436,-0.1095384,0.36045742,-0.07992781,-0.2786278,-0.24619225,0.015623231,802.6374,777.25275,811.50183,819.5604,733.3333,-0.2930908203125,0.13958740234375,0.94708251953125,13.181610107421875,0.874786376953125,-0.934600830078125,1,1.0,1.0,1.0,1.0,10.00
2024-10-11 20:26:37.531,1.0720117,0.97197896,0.99620044,0.8558424,0.7646662,0.75134987,0.3986161,0.6237169,1.0250933,0.880995,0.4325201,0.69190615,0.5014476,-0.0533436,-0.1095384,0.36045742,-0.07992781,-0.2786278,-0.24619225,0.015623231,801.8315,777.6557,808.68134,821.5751,973.0769,-0.2930908203125,0.13958740234375,0.94708251953125,13.181610107421875,0.874786376953125,-0.934600830078125,1,1.0,1.0,1.0,1.0,10.00
2024-10-11 20:26:37.531,1.0720117,0.97197896,0.99620044,0.8558424,0.7646662,0.75134987,0.3986161,0.6237169,1.0250933,0.880995,0.4325201,0.69190615,0.5014476,-0.0533436,-0.1095384,0.36045742,-0.07992781,-0.2786278,-0.24619225,0.015623231,809.4872,774.43225,803.0403,823.9927,922.3077,-0.2930908203125,0.13958740234375,0.94708251953125,13.181610107421875,0.874786376953125,-0.934600830078125,1,1.0,1.0,1.0,1.0,10.00
2024-10-11 20:26:37.532,1.0720117,0.97197896,0.99620044,0.8558424,0.7646662,0.75134987,0.3986161,0.6237169,1.0250933,0.880995,0.4325201,0.69190615,0.5014476,-0.0533436,-0.1095384,0.36045742,-0.07992781,-0.2786278,-0.24619225,0.015623231,808.2784,776.8498,802.23444,819.9634,720.84247,-0.2930908203125,0.13958740234375,0.94708251953125,13.181610107421875,0.874786376953125,-0.934600830078125,1,1.0,1.0,1.0,1.0,10.00
2024-10-11 20:26:37.533,1.0720117,0.97197896,0.99620044,0.8558424,0.7646662,0.75134987,0.3986161,0.6237169,1.0250933,0.880995,0.4325201,0.69190615,0.5014476,-0.0533436,-0.1095384,0.36045742,-0.07992781,-0.2786278,-0.24619225,0.015623231,812.71063,780.07324,801.4286,827.2161,735.7509,-0.2930908203125,0.13958740234375,0.94708251953125,13.181610107421875,0.874786376953125,-0.934600830078125,1,1.0,1.0,1.0,1.0,10.00
2024-10-11 20:26:37.534,1.0720117,0.97197896,0.99620044,0.8558424,0.7646662,0.75134987,0.3986161,0.6237169,1.0250933,0.880995,0.4325201,0.69190615,0.5014476,-0.0533436,-0.1095384,0.36045742,-0.07992781,-0.2786278,-0.24619225,0.015623231,816.7399,775.64105,798.60803,824.3956,761.53845,-0.2930908203125,0.13958740234375,0.94708251953125,13.181610107421875,0.874786376953125,-0.934600830078125,1,1.0,1.0,1.0,1.0,10.00
2024-10-11 20:26:37.534,1.0720117,0.97197896,0.99620044,0.8558424,0.7646662,0.75134987,0.3986161,0.6237169,1.0250933,0.880995,0.4325201,0.69190615,0.5014476,-0.0533436,-0.1095384,0.36045742,-0.07992781,-0.2786278,-0.24619225,0.015623231,809.4872,772.01465,800.2198,813.5165,684.57874,-0.2930908203125,0.13958740234375,0.94708251953125,13.181610107421875,0.874786376953125,-0.934600830078125,1,1.0,1.0,1.0,1.0,10.00
2024-10-11 20:26:37.535,1.0720117,0.97197896,0.99620044,0.8558424,0.7646662,0.75134987,0.3986161,0.6237169,1.0250933,0.880995,0.4325201,0.69190615,0.5014476,-0.0533436,-0.1095384,0.36045742,-0.07992781,-0.2786278,-0.24619225,0.015623231,809.4872,772.8205,797.8022,816.7399,801.4286,-0.2930908203125,0.13958740234375,0.94708251953125,13.181610107421875,0.874786376953125,-0.934600830078125,1,1.0,1.0,1.0,1.0,10.00
2024-10-11 20:26:37.561,1.0720117,0.97197896,0.99620044,0.8558424,0.7646662,0.75134987,0.3986161,0.6237169,1.0250933,0.880995,0.4325201,0.69190615,0.5014476,-0.0533436,-0.1095384,0.36045742,-0.07992781,-0.2786278,-0.24619225,0.015623231,815.12823,768.3883,795.38464,820.3663,932.381,-0.2882080078125,0.17303466796875,0.96356201171875,14.23583984375,-0.740203857421875,-0.6280517578125,1,1.0,1.0,1.0,1.0,10.00
2024-10-11 20:26:37.562,1.0720117,0.97197896,0.99620044,0.8558424,0.7646662,0.75134987,0.3986161,0.6237169,1.0250933,0.880995,0.4325201,0.69190615,0.5014476,-0.0533436,-0.1095384,0.36045742,-0.07992781,-0.2786278,-0.24619225,0.015623231,811.9048,768.3883,798.60803,826.0073,874.35895,-0.2882080078125,0.17303466796875,0.96356201171875,14.23583984375,-0.740203857421875,-0.6280517578125,1,1.0,1.0,1.0,1.0,10.00
2024-10-11 20:26:37.562,1.0720117,0.97197896,0.99620044,0.8558424,0.7646662,0.75134987,0.3986161,0.6237169,1.0250933,0.880995,0.4325201,0.69190615,0.5014476,-0.0533436,-0.1095384,0.36045742,-0.07992781,-0.2786278,-0.24619225,0.015623231,819.5604,776.4469,803.8461,835.2747,819.5604,-0.2882080078125,0.17303466796875,0.96356201171875,14.23583984375,-0.740203857421875,-0.6280517578125,1,1.0,1.0,1.0,1.0,10.00
2024-10-11 20:26:37.563,1.0720117,0.97197896,0.99620044,0.8558424,0.7646662,0.75134987,0.3986161,0.6237169,1.0250933,0.880995,0.4325201,0.69190615,0.5014476,-0.0533436,-0.1095384,0.36045742,-0.07992781,-0.2786278,-0.24619225,0.015623231,825.2015,780.07324,804.2491,838.0952,744.21246,-0.2882080078125,0.17303466796875,0.96356201171875,14.23583984375,-0.740203857421875,-0.6280517578125,1,1.0,1.0,1.0,1.0,10.00
2024-10-11 20:26:37.563,1.0720117,0.97197896,0.99620044,0.8558424,0.7646662,0.75134987,0.3986161,0.6237169,1.0250933,0.880995,0.4325201,0.69190615,0.5014476,-0.0533436,-0.1095384,0.36045742,-0.07992781,-0.2786278,-0.24619225,0.015623231,827.619,777.25275,803.44324,841.7216,882.01465,-0.2882080078125,0.17303466796875,0.96356201171875,14.23583984375,-0.740203857421875,-0.6280517578125,1,1.0,1.0,1.0,1.0,10.00
2024-10-11 20:26:37.564,1.0720117,0.97197896,0.99620044,0.8558424,0.7646662,0.75134987,0.3986161,0.6237169,1.0250933,0.880995,0.4325201,0.69190615,0.5014476,-0.0533436,-0.1095384,0.36045742,-0.07992781,-0.2786278,-0.24619225,0.015623231,832.4542,776.04395,803.8461,849.3773,1298.2417,-0.2882080078125,0.17303466796875,0.96356201171875,14.23583984375,-0.740203857421875,-0.6280517578125,1,1.0,1.0,1.0,1.0,10.00
2024-10-11 20:26:37.564,1.0720117,0.97197896,0.99620044,0.8558424,0.7646662,0.75134987,0.3986161,0.6237169,1.0250933,0.880995,0.4325201,0.69190615,0.5014476,-0.0533436,-0.1095384,0.36045742,-0.07992781,-0.2786278,-0.24619225,0.015623231,839.304,780.07324,805.4579,846.9597,980.7326,-0.2882080078125,0.17303466796875,0.96356201171875,14.23583984375,-0.740203857421875,-0.6280517578125,1,1.0,1.0,1.0,1.0,10.00
2024-10-11 20:26:37.564,1.0720117,0.97197896,0.99620044,0.8558424,0.7646662,0.75134987,0.3986161,0.6237169,1.0250933,0.880995,0.4325201,0.69190615,0.5014476,-0.0533436,-0.1095384,0.36045742,-0.07992781,-0.2786278,-0.24619225,0.015623231,840.5128,777.25275,804.2491,846.55676,718.4249,-0.2882080078125,0.17303466796875,0.96356201171875,14.23583984375,-0.740203857421875,-0.6280517578125,1,1.0,1.0,1.0,1.0,10.00
2024-10-11 20:26:37.565,1.0720117,0.97197896,0.99620044,0.8558424,0.7646662,0.75134987,0.3986161,0.6237169,1.0250933,0.880995,0.4325201,0.69190615,0.5014476,-0.0533436,-0.1095384,0.36045742,-0.07992781,-0.2786278,-0.24619225,0.015623231,837.28937,774.83514,800.6227,844.94507,880.0,-0.2882080078125,0.17303466796875,0.96356201171875,14.23583984375,-0.740203857421875,-0.6280517578125,1,1.0,1.0,1.0,1.0,10.00
2024-10-11 20:26:37.566,1.0720117,0.97197896,0.99620044,0.8558424,0.7646662,0.75134987,0.3986161,0.6237169,1.0250933,0.880995,0.4325201,0.69190615,0.5014476,-0.0533436,-0.1095384,0.36045742,-0.07992781,-0.2786278,-0.24619225,0.015623231,838.0952,780.87915,801.4286,838.49817,677.72894,-0.2882080078125,0.17303466796875,0.96356201171875,14.23583984375,-0.740203857421875,-0.6280517578125,1,1.0,1.0,1.0,1.0,10.00
2024-10-11 20:26:37.566,1.0720117,0.97197896,0.99620044,0.8558424,0.7646662,0.75134987,0.3986161,0.6237169,1.0250933,0.880995,0.4325201,0.69190615,0.5014476,-0.0533436,-0.1095384,0.36045742,-0.07992781,-0.2786278,-0.24619225,0.015623231,841.7216,788.5348,811.0989,837.6923,593.1135,-0.2882080078125,0.17303466796875,0.96356201171875,14.23583984375,-0.740203857421875,-0.6280517578125,1,1.0,1.0,1.0,1.0,10.00
2024-10-11 20:26:37.567,1.0720117,0.97197896,0.99620044,0.8558424,0.7646662,0.75134987,0.3986161,0.6237169,1.0250933,0.880995,0.4325201,0.69190615,0.5014476,-0.0533436,-0.1095384,0.36045742,-0.07992781,-0.2786278,-0.24619225,0.015623231,840.9158,789.7436,811.50183,837.6923,722.8571,-0.2882080078125,0.17303466796875,0.96356201171875,14.23583984375,-0.740203857421875,-0.6280517578125,1,1.0,1.0,1.0,1.0,10.00
2024-10-11 20:26:37.601,1.0720117,0.97197896,0.99620044,0.8558424,0.7646662,0.75134987,0.3986161,0.6237169,1.0250933,0.880995,0.4325201,0.69190615,0.5014476,-0.0533436,-0.1095384,0.36045742,-0.07992781,-0.2786278,-0.24619225,0.015623231,838.49817,789.7436,803.44324,834.4689,830.4396,-0.2882080078125,0.17303466796875,0.96356201171875,14.23583984375,-0.740203857421875,-0.6280517578125,1,1.0,1.0,1.0,1.0,10.00
2024-10-11 20:26:37.602,1.0720117,0.97197896,0.99620044,0.8558424,0.7646662,0.75134987,0.3986161,0.6237169,1.0250933,0.880995,0.4325201,0.69190615,0.5014476,-0.0533436,-0.1095384,0.36045742,-0.07992781,-0.2786278,-0.24619225,0.015623231,843.3333,792.5641,808.2784,838.0952,704.7253,-0.2882080078125,0.17303466796875,0.96356201171875,14.23583984375,-0.740203857421875,-0.6280517578125,1,1.0,1.0,1.0,1.0,10.00
2024-10-11 20:26:37.603,1.0720117,0.97197896,0.99620044,0.8558424,0.7646662,0.75134987,0.3986161,0.6237169,1.0250933,0.880995,0.4325201,0.69190615,0.5014476,-0.0533436,-0.1095384,0.36045742,-0.07992781,-0.2786278,-0.24619225,0.015623231,831.2454,784.10254,809.89014,834.0659,637.8388,-0.2882080078125,0.17303466796875,0.96356201171875,14.23583984375,-0.740203857421875,-0.6280517578125,1,1.0,1.0,1.0,1.0,10.00
2024-10-11 20:26:37.605,1.0720117,0.97197896,0.99620044,0.8558424,0.7646662,0.75134987,0.3986161,0.6237169,1.0250933,0.880995,0.4325201,0.69190615,0.5014476,-0.0533436,-0.1095384,0.36045742,-0.07992781,-0.2786278,-0.24619225,0.015623231,821.5751,778.0586,810.696,830.84247,780.87915,-0.2882080078125,0.17303466796875,0.96356201171875,14.23583984375,-0.740203857421875,-0.6280517578125,1,1.0,1.0,1.0,1.0,10.00
2024-10-11 20:26:37.605,1.0720117,0.97197896,0.99620044,0.8558424,0.7646662,0.75134987,0.3986161,0.6237169,1.0250933,0.880995,0.4325201,0.69190615,0.5014476,-0.0533436,-0.1095384,0.36045742,-0.07992781,-0.2786278,-0.24619225,0.015623231,828.8278,782.8938,809.89014,826.4103,823.5897,-0.2882080078125,0.17303466796875,0.96356201171875,14.23583984375,-0.740203857421875,-0.6280517578125,1,1.0,1.0,1.0,1.0,10.00
2024-10-11 20:26:37.606,1.0720117,0.94800895,0.9269624,0.8558424,0.7646662,0.73166555,0.37113422,0.6237169,1.0250933,0.880995,0.45198083,0.69190615,0.5014476,-0.059630305,-0.060070876,0.36045742,-0.07992781,-0.2743321,-0.16432047,0.015623231,826.4103,789.7436,807.0696,817.5458,795.78754,-0.2882080078125,0.17303466796875,0.96356201171875,14.23583984375,-0.740203857421875,-0.6280517578125,1,1.0,1.0,1.0,1.0,10.00
2024-10-11 20:26:37.610,1.0720117,0.94800895,0.9269624,0.8558424,0.7646662,0.73166555,0.37113422,0.6237169,1.0250933,0.880995,0.45198083,0.69190615,0.5014476,-0.059630305,-0.060070876,0.36045742,-0.07992781,-0.2743321,-0.16432047,0.015623231,808.2784,786.52014,817.1429,807.8755,785.7143,-0.2882080078125,0.17303466796875,0.96356201171875,14.23583984375,-0.740203857421875,-0.6280517578125,1,1.0,1.0,1.0,1.0,10.00
2024-10-11 20:26:37.610,1.0720117,0.94800895,0.9269624,0.8558424,0.7646662,0.73166555,0.37113422,0.6237169,1.0250933,0.880995,0.45198083,0.69190615,0.5014476,-0.059630305,-0.060070876,0.36045742,-0.07992781,-0.2743321,-0.16432047,0.015623231,785.31134,782.49084,821.1722,798.60803,773.6264,-0.2882080078125,0.17303466796875,0.96356201171875,14.23583984375,-0.740203857421875,-0.6280517578125,1,1.0,1.0,1.0,1.0,10.00
2024-10-11 20:26:37.611,1.0720117,0.94800895,0.9269624,0.8558424,0.7646662,0.73166555,0.37113422,0.6237169,1.0250933,0.880995,0.45198083,0.69190615,0.5014476,-0.059630305,-0.060070876,0.36045742,-0.07992781,-0.2743321,-0.16432047,0.015623231,777.6557,780.07324,818.7546,805.8608,1111.2821,-0.2882080078125,0.17303466796875,0.96356201171875,14.23583984375,-0.740203857421875,-0.6280517578125,1,1.0,1.0,1.0,1.0,10.00
2024-10-11 20:26:37.611,1.0720117,0.94800895,0.9269624,0.8558424,0.7646662,0.73166555,0.37113422,0.6237169,1.0250933,0.880995,0.45198083,0.69190615,0.5014476,-0.059630305,-0.060070876,0.36045742,-0.07992781,-0.2743321,-0.16432047,0.015623231,786.9231,784.10254,815.9341,807.0696,963.00366,-0.2882080078125,0.17303466796875,0.96356201171875,14.23583984375,-0.740203857421875,-0.6280517578125,1,1.0,1.0,1.0,1.0,10.00
2024-10-11 20:26:37.612,1.0720117,0.94800895,0.9269624,0.8558424,0.7646662,0.73166555,0.37113422,0.6237169,1.0250933,0.880995,0.45198083,0.69190615,0.5014476,-0.059630305,-0.060070876,0.36045742,-0.07992781,-0.2743321,-0.16432047,0.015623231,795.78754,800.6227,811.0989,794.17584,637.4359,-0.2882080078125,0.17303466796875,0.96356201171875,14.23583984375,-0.740203857421875,-0.6280517578125,1,1.0,1.0,1.0,1.0,10.00
2024-10-11 20:26:37.612,1.0720117,0.94800895,0.9269624,0.8558424,0.7646662,0.73166555,0.37113422,0.6237169,1.0250933,0.880995,0.45198083,0.69190615,0.5014476,-0.059630305,-0.060070876,0.36045742,-0.07992781,-0.2743321,-0.16432047,0.015623231,790.54944,801.8315,815.5311,794.17584,744.21246,-0.2882080078125,0.17303466796875,0.96356201171875,14.23583984375,-0.740203857421875,-0.6280517578125,1,1.0,1.0,1.0,1.0,10.00
2024-10-11 20:26:37.648,1.0720117,0.94800895,0.9269624,0.8558424,0.7646662,0.73166555,0.37113422,0.6237169,1.0250933,0.880995,0.45198083,0.69190615,0.5014476,-0.059630305,-0.060070876,0.36045742,-0.07992781,-0.2743321,-0.16432047,0.015623231,774.43225,793.7729,821.978,791.75824,817.5458,-0.27734375,0.19171142578125,0.971923828125,8.61328125,-0.964508056640625,2.452392578125,1,1.0,1.0,1.0,1.0,10.00
2024-10-11 20:26:37.648,1.0720117,0.94800895,0.9269624,0.8558424,0.7646662,0.73166555,0.37113422,0.6237169,1.0250933,0.880995,0.45198083,0.69190615,0.5014476,-0.059630305,-0.060070876,0.36045742,-0.07992781,-0.2743321,-0.16432047,0.015623231,772.8205,795.38464,821.978,793.36993,740.58606,-0.27734375,0.19171142578125,0.971923828125,8.61328125,-0.964508056640625,2.452392578125,1,1.0,1.0,1.0,1.0,10.00
2024-10-11 20:26:37.649,1.0720117,0.94800895,0.9269624,0.8558424,0.7646662,0.73166555,0.37113422,0.6237169,1.0250933,0.880995,0.45198083,0.69190615,0.5014476,-0.059630305,-0.060070876,0.36045742,-0.07992781,-0.2743321,-0.16432047,0.015623231,781.28204,796.99634,817.9487,798.20514,684.9817,-0.27734375,0.19171142578125,0.971923828125,8.61328125,-0.964508056640625,2.452392578125,1,1.0,1.0,1.0,1.0,10.00
2024-10-11 20:26:37.650,1.0720117,0.94800895,0.9269624,0.8558424,0.7646662,0.73166555,0.37113422,0.6237169,1.0250933,0.880995,0.45198083,0.69190615,0.5014476,-0.059630305,-0.060070876,0.36045742,-0.07992781,-0.2743321,-0.16432047,0.015623231,787.326,801.4286,811.9048,793.7729,755.09155,-0.27734375,0.19171142578125,0.971923828125,8.61328125,-0.964508056640625,2.452392578125,1,1.0,1.0,1.0,1.0,10.00
2024-10-11 20:26:37.650,1.0720117,0.94800895,0.9269624,0.8558424,0.7646662,0.73166555,0.37113422,0.6237169,1.0250933,0.880995,0.45198083,0.69190615,0.5014476,-0.059630305,-0.060070876,0.36045742,-0.07992781,-0.2743321,-0.16432047,0.015623231,792.96704,803.44324,807.8755,792.96704,811.9048,-0.27734375,0.19171142578125,0.971923828125,8.61328125,-0.964508056640625,2.452392578125,1,1.0,1.0,1.0,1.0,10.00
2024-10-11 20:26:37.651,1.0720117,0.94800895,0.9269624,0.8558424,0.7646662,0.73166555,0.37113422,0.6237169,1.0250933,0.880995,0.45198083,0.69190615,0.5014476,-0.059630305,-0.060070876,0.36045742,-0.07992781,-0.2743321,-0.16432047,0.015623231,793.7729,797.3993,811.9048,797.8022,836.8865,-0.27734375,0.19171142578125,0.971923828125,8.61328125,-0.964508056640625,2.452392578125,1,1.0,1.0,1.0,1.0,10.00
2024-10-11 20:26:37.651,1.0720117,0.94800895,0.9269624,0.8558424,0.7646662,0.73166555,0.37113422,0.6237169,1.0250933,0.880995,0.45198083,0.69190615,0.5014476,-0.059630305,-0.060070876,0.36045742,-0.07992781,-0.2743321,-0.16432047,0.015623231,791.75824,798.20514,816.337,799.81683,823.9927,-0.27734375,0.19171142578125,0.971923828125,8.61328125,-0.964508056640625,2.452392578125,1,1.0,1.0,1.0,1.0,10.00
2024-10-11 20:26:37.651,1.0720117,0.94800895,0.9269624,0.8558424,0.7646662,0.73166555,0.37113422,0.6237169,1.0250933,0.880995,0.45198083,0.69190615,0.5014476,-0.059630305,-0.060070876,0.36045742,-0.07992781,-0.2743321,-0.16432047,0.015623231,792.96704,799.011,811.50183,803.0403,1147.9487,-0.27734375,0.19171142578125,0.971923828125,8.61328125,-0.964508056640625,2.452392578125,1,1.0,1.0,1.0,1.0,10.00
2024-10-11 20:26:37.652,1.0720117,0.94800895,0.9269624,0.8558424,0.7646662,0.73166555,0.37113422,0.6237169,1.0250933,0.880995,0.45198083,0.69190615,0.5014476,-0.059630305,-0.060070876,0.36045742,-0.07992781,-0.2743321,-0.16432047,0.015623231,796.1905,796.99634,809.4872,812.71063,1080.2565,-0.27734375,0.19171142578125,0.971923828125,8.61328125,-0.964508056640625,2.452392578125,1,1.0,1.0,1.0,1.0,10.00
2024-10-11 20:26:37.652,1.0720117,0.94800895,0.9269624,0.8558424,0.7646662,0.73166555,0.37113422,0.6237169,1.0250933,0.880995,0.45198083,0.69190615,0.5014476,-0.059630305,-0.060070876,0.36045742,-0.07992781,-0.2743321,-0.16432047,0.015623231,803.44324,800.6227,811.50183,809.0842,665.64105,-0.27734375,0.19171142578125,0.971923828125,8.61328125,-0.964508056640625,2.452392578125,1,1.0,1.0,1.0,1.0,10.00
2024-10-11 20:26:37.653,1.0720117,0.94800895,0.9269624,0.8558424,0.7646662,0.73166555,0.37113422,0.6237169,1.0250933,0.880995,0.45198083,0.69190615,0.5014476,-0.059630305,-0.060070876,0.36045742,-0.07992781,-0.2743321,-0.16432047,0.015623231,799.41394,801.4286,815.12823,796.5934,690.2198,-0.27734375,0.19171142578125,0.971923828125,8.61328125,-0.964508056640625,2.452392578125,1,1.0,1.0,1.0,1.0,10.00
2024-10-11 20:26:37.653,1.0720117,0.94800895,0.9269624,0.8558424,0.7646662,0.73166555,0.37113422,0.6237169,1.0250933,0.880995,0.45198083,0.69190615,0.5014476,-0.059630305,-0.060070876,0.36045742,-0.07992781,-0.2743321,-0.16432047,0.015623231,791.75824,795.38464,819.9634,799.41394,959.3773,-0.27734375,0.19171142578125,0.971923828125,8.61328125,-0.964508056640625,2.452392578125,1,1.0,1.0,1.0,1.0,10.00
2024-10-11 20:26:37.753,1.0720117,0.94800895,0.9269624,0.8558424,0.7646662,0.73166555,0.37113422,0.6237169,1.0250933,0.880995,0.45198083,0.69190615,0.5014476,-0.059630305,-0.060070876,0.36045742,-0.07992781,-0.2743321,-0.16432047,0.015623231,800.2198,800.6227,816.7399,804.2491,904.9817,-0.28021240234375,0.1981201171875,0.96539306640625,1.854248046875,-1.502838134765625,6.59454345703125,1,1.0,1.0,1.0,1.0,10.00
2024-10-11 20:26:37.754,1.0720117,0.94800895,0.9269624,0.8558424,0.7646662,0.73166555,0.37113422,0.6237169,1.0250933,0.880995,0.45198083,0.69190615,0.5014476,-0.059630305,-0.060070876,0.36045742,-0.07992781,-0.2743321,-0.16432047,0.015623231,794.57874,814.3223,807.8755,786.9231,779.2674,-0.28021240234375,0.1981201171875,0.96539306640625,1.854248046875,-1.502838134765625,6.59454345703125,1,1.0,1.0,1.0,1.0,10.00
2024-10-11 20:26:37.754,1.0720117,0.94800895,0.9269624,0.8558424,0.7646662,0.73166555,0.37113422,0.6237169,1.0250933,0.880995,0.45198083,0.69190615,0.5014476,-0.059630305,-0.060070876,0.36045742,-0.07992781,-0.2743321,-0.16432047,0.015623231,770.80585,808.68134,801.4286,759.92676,784.90845,-0.28021240234375,0.1981201171875,0.96539306640625,1.854248046875,-1.502838134765625,6.59454345703125,1,1.0,1.0,1.0,1.0,10.00
2024-10-11 20:26:37.755,1.0720117,0.94800895,0.9269624,0.8558424,0.7646662,0.73166555,0.37113422,0.6237169,1.0250933,0.880995,0.45198083,0.69190615,0.5014476,-0.059630305,-0.060070876,0.36045742,-0.07992781,-0.2743321,-0.16432047,0.015623231,785.31134,806.26373,798.20514,772.8205,700.696,-0.28021240234375,0.1981201171875,0.96539306640625,1.854248046875,-1.502838134765625,6.59454345703125,1,1.0,1.0,1.0,1.0,10.00
2024-10-11 20:26:37.755,1.0720117,0.94800895,0.9269624,0.8558424,0.7646662,0.73166555,0.37113422,0.6237169,1.0250933,0.880995,0.45198083,0.69190615,0.5014476,-0.059630305,-0.060070876,0.36045742,-0.07992781,-0.2743321,-0.16432047,0.015623231,803.8461,805.4579,807.8755,800.2198,699.89014,-0.28021240234375,0.1981201171875,0.96539306640625,1.854248046875,-1.502838134765625,6.59454345703125,1,1.0,1.0,1.0,1.0,10.00
2024-10-11 20:26:37.756,1.0720117,0.94800895,0.9269624,0.8558424,0.7646662,0.73166555,0.37113422,0.6237169,1.0250933,0.880995,0.45198083,0.69190615,0.5014476,-0.059630305,-0.060070876,0.36045742,-0.07992781,-0.2743321,-0.16432047,0.015623231,785.31134,797.3993,815.9341,793.36993,698.68134,-0.28021240234375,0.1981201171875,0.96539306640625,1.854248046875,-1.502838134765625,6.59454345703125,1,1.0,1.0,1.0,1.0,10.00
2024-10-11 20:26:37.757,1.0720117,0.94800895,0.9269624,0.8558424,0.7646662,0.73166555,0.37113422,0.6237169,1.0250933,0.880995,0.45198083,0.69190615,0.5014476,-0.059630305,-0.060070876,0.36045742,-0.07992781,-0.2743321,-0.16432047,0.015623231,765.9707,800.6227,812.3077,769.59705,828.4249,-0.28021240234375,0.1981201171875,0.96539306640625,1.854248046875,-1.502838134765625,6.59454345703125,1,1.0,1.0,1.0,1.0,10.00
2024-10-11 20:26:37.757,1.0720117,0.93486124,0.8474306,0.8558424,0.7646662,0.7214888,0.3303736,0.6237169,1.0250933,0.880995,0.45914593,0.69190615,0.5014476,-0.05922337,-0.06209537,0.36045742,-0.07992781,-0.27152893,-0.062456686,0.015623231,770.40295,796.1905,813.91943,778.0586,1023.44324,-0.28021240234375,0.1981201171875,0.96539306640625,1.854248046875,-1.502838134765625,6.59454345703125,1,1.0,1.0,1.0,1.0,10.00
2024-10-11 20:26:37.762,1.0720117,0.93486124,0.8474306,0.8558424,0.7646662,0.7214888,0.3303736,0.6237169,1.0250933,0.880995,0.45914593,0.69190615,0.5014476,-0.05922337,-0.06209537,0.36045742,-0.07992781,-0.27152893,-0.062456686,0.015623231,784.5055,792.5641,817.9487,796.5934,805.05493,-0.28021240234375,0.1981201171875,0.96539306640625,1.854248046875,-1.502838134765625,6.59454345703125,1,1.0,1.0,1.0,1.0,10.00
2024-10-11 20:26:37.762,1.0720117,0.93486124,0.8474306,0.8558424,0.7646662,0.7214888,0.3303736,0.6237169,1.0250933,0.880995,0.45914593,0.69190615,0.5014476,-0.05922337,-0.06209537,0.36045742,-0.07992781,-0.27152893,-0.062456686,0.015623231,784.5055,803.0403,813.91943,785.31134,686.99634,-0.28021240234375,0.1981201171875,0.96539306640625,1.854248046875,-1.502838134765625,6.59454345703125,1,1.0,1.0,1.0,1.0,10.00
2024-10-11 20:26:37.763,1.0720117,0.93486124,0.8474306,0.8558424,0.7646662,0.7214888,0.3303736,0.6237169,1.0250933,0.880995,0.45914593,0.69190615,0.5014476,-0.05922337,-0.06209537,0.36045742,-0.07992781,-0.27152893,-0.062456686,0.015623231,771.6117,808.2784,807.47253,768.3883,737.3626,-0.28021240234375,0.1981201171875,0.96539306640625,1.854248046875,-1.502838134765625,6.59454345703125,1,1.0,1.0,1.0,1.0,10.00
2024-10-11 20:26:37.763,1.0720117,0.93486124,0.8474306,0.8558424,0.7646662,0.7214888,0.3303736,0.6237169,1.0250933,0.880995,0.45914593,0.69190615,0.5014476,-0.05922337,-0.06209537,0.36045742,-0.07992781,-0.27152893,-0.062456686,0.015623231,779.67035,806.26373,802.6374,774.0293,656.77655,-0.28021240234375,0.1981201171875,0.96539306640625,1.854248046875,-1.502838134765625,6.59454345703125,1,1.0,1.0,1.0,1.0,10.00
2024-10-11 20:26:37.788,1.0720117,0.93486124,0.8474306,0.8558424,0.7646662,0.7214888,0.3303736,0.6237169,1.0250933,0.880995,0.45914593,0.69190615,0.5014476,-0.05922337,-0.06209537,0.36045742,-0.07992781,-0.27152893,-0.062456686,0.015623231,794.57874,803.44324,807.47253,787.72894,668.86444,-0.29449462890625,0.18975830078125,0.9564208984375,-2.691650390625,-1.973876953125,6.9384765625,1,1.0,1.0,1.0,1.0,10.00
2024-10-11 20:26:37.789,1.0720117,0.93486124,0.8474306,0.8558424,0.7646662,0.7214888,0.3303736,0.6237169,1.0250933,0.880995,0.45914593,0.69190615,0.5014476,-0.05922337,-0.06209537,0.36045742,-0.07992781,-0.27152893,-0.062456686,0.015623231,776.4469,798.20514,812.71063,781.28204,668.0586,-0.29449462890625,0.18975830078125,0.9564208984375,-2.691650390625,-1.973876953125,6.9384765625,1,1.0,1.0,1.0,1.0,10.00
2024-10-11 20:26:37.790,1.0720117,0.93486124,0.8474306,0.8558424,0.7646662,0.7214888,0.3303736,0.6237169,1.0250933,0.880995,0.45914593,0.69190615,0.5014476,-0.05922337,-0.06209537,0.36045742,-0.07992781,-0.27152893,-0.062456686,0.015623231,755.89746,795.78754,811.9048,779.67035,802.6374,-0.29449462890625,0.18975830078125,0.9564208984375,-2.691650390625,-1.973876953125,6.9384765625,1,1.0,1.0,1.0,1.0,10.00
2024-10-11 20:26:37.790,1.0720117,0.93486124,0.8474306,0.8558424,0.7646662,0.7214888,0.3303736,0.6237169,1.0250933,0.880995,0.45914593,0.69190615,0.5014476,-0.05922337,-0.06209537,0.36045742,-0.07992781,-0.27152893,-0.062456686,0.015623231,761.13556,794.17584,813.91943,789.34064,897.326,-0.29449462890625,0.18975830078125,0.9564208984375,-2.691650390625,-1.973876953125,6.9384765625,1,1.0,1.0,1.0,1.0,10.00
2024-10-11 20:26:37.791,1.0720117,0.93486124,0.8474306,0.8558424,0.7646662,0.7214888,0.3303736,0.6237169,1.0250933,0.880995,0.45914593,0.69190615,0.5014476,-0.05922337,-0.06209537,0.36045742,-0.07992781,-0.27152893,-0.062456686,0.015623231,774.83514,799.81683,811.9048,786.52014,647.9121,-0.29449462890625,0.18975830078125,0.9564208984375,-2.691650390625,-1.973876953125,6.9384765625,1,1.0,1.0,1.0,1.0,10.00
2024-10-11 20:26:37.791,1.0720117,0.93486124,0.8474306,0.8558424,0.7646662,0.7214888,0.3303736,0.6237169,1.0250933,0.880995,0.45914593,0.69190615,0.5014476,-0.05922337,-0.06209537,0.36045742,-0.07992781,-0.27152893,-0.062456686,0.015623231,776.04395,811.0989,805.4579,778.0586,765.9707,-0.29449462890625,0.18975830078125,0.9564208984375,-2.691650390625,-1.973876953125,6.9384765625,1,1.0,1.0,1.0,1.0,10.00
2024-10-11 20:26:37.792,1.0720117,0.93486124,0.8474306,0.8558424,0.7646662,0.7214888,0.3303736,0.6237169,1.0250933,0.880995,0.45914593,0.69190615,0.5014476,-0.05922337,-0.06209537,0.36045742,-0.07992781,-0.27152893,-0.062456686,0.015623231,770.80585,809.89014,803.8461,769.19415,1001.685,-0.29449462890625,0.18975830078125,0.9564208984375,-2.691650390625,-1.973876953125,6.9384765625,1,1.0,1.0,1.0,1.0,10.00
2024-10-11 20:26:37.792,1.0720117,0.93486124,0.8474306,0.8558424,0.7646662,0.7214888,0.3303736,0.6237169,1.0250933,0.880995,0.45914593,0.69190615,0.5014476,-0.05922337,-0.06209537,0.36045742,-0.07992781,-0.27152893,-0.062456686,0.015623231,770.80585,807.47253,811.0989,776.04395,782.49084,-0.29449462890625,0.18975830078125,0.9564208984375,-2.691650390625,-1.973876953125,6.9384765625,1,1.0,1.0,1.0,1.0,10.00
2024-10-11 20:26:37.793,1.0720117,0.93486124,0.8474306,0.8558424,0.7646662,0.7214888,0.3303736,0.6237169,1.0250933,0.880995,0.45914593,0.69190615,0.5014476,-0.05922337,-0.06209537,0.36045742,-0.07992781,-0.27152893,-0.062456686,0.015623231,776.04395,806.26373,811.9048,780.4762,552.8205,-0.29449462890625,0.18975830078125,0.9564208984375,-2.691650390625,-1.973876953125,6.9384765625,1,1.0,1.0,1.0,1.0,10.00
2024-10-11 20:26:37.794,1.0720117,0.93486124,0.8474306,0.8558424,0.7646662,0.7214888,0.3303736,0.6237169,1.0250933,0.880995,0.45914593,0.69190615,0.5014476,-0.05922337,-0.06209537,0.36045742,-0.07992781,-0.27152893,-0.062456686,0.015623231,774.0293,806.26373,805.4579,772.4176,664.0293,-0.29449462890625,0.18975830078125,0.9564208984375,-2.691650390625,-1.973876953125,6.9384765625,1,1.0,1.0,1.0,1.0,10.00
2024-10-11 20:26:37.794,1.0720117,0.93486124,0.8474306,0.8558424,0.7646662,0.7214888,0.3303736,0.6237169,1.0250933,0.880995,0.45914593,0.69190615,0.5014476,-0.05922337,-0.06209537,0.36045742,-0.07992781,-0.27152893,-0.062456686,0.015623231,774.0293,806.26373,798.20514,774.0293,889.67035,-0.29449462890625,0.18975830078125,0.9564208984375,-2.691650390625,-1.973876953125,6.9384765625,1,1.0,1.0,1.0,1.0,10.00
2024-10-11 20:26:37.795,1.0720117,0.93486124,0.8474306,0.8558424,0.7646662,0.7214888,0.3303736,0.6237169,1.0250933,0.880995,0.45914593,0.69190615,0.5014476,-0.05922337,-0.06209537,0.36045742,-0.07992781,-0.27152893,-0.062456686,0.015623231,781.685,811.0989,792.96704,781.685,857.4359,-0.29449462890625,0.18975830078125,0.9564208984375,-2.691650390625,-1.973876953125,6.9384765625,1,1.0,1.0,1.0,1.0,10.00
2024-10-11 20:26:37.796,1.0720117,0.93486124,0.8474306,0.8558424,0.7646662,0.7214888,0.3303736,0.6237169,1.0250933,0.880995,0.45914593,0.69190615,0.5014476,-0.05922337,-0.06209537,0.36045742,-0.07992781,-0.27152893,-0.062456686,0.015623231,773.22345,807.47253,800.6227,779.67035,667.25275,-0.29437255859375,0.183837890625,0.95172119140625,-4.433746337890625,-2.52716064453125,5.03936767578125,1,1.0,1.0,1.0,1.0,10.00
2024-10-11 20:26:37.796,1.0720117,0.93486124,0.8474306,0.8558424,0.7646662,0.7214888,0.3303736,0.6237169,1.0250933,0.880995,0.45914593,0.69190615,0.5014476,-0.05922337,-0.06209537,0.36045742,-0.07992781,-0.27152893,-0.062456686,0.015623231,768.3883,798.60803,807.8755,780.07324,688.60803,-0.29437255859375,0.183837890625,0.95172119140625,-4.433746337890625,-2.52716064453125,5.03936767578125,1,1.0,1.0,1.0,1.0,10.00
2024-10-11 20:26:37.797,1.0720117,0.93486124,0.8474306,0.8558424,0.7646662,0.7214888,0.3303736,0.6237169,1.0250933,0.880995,0.45914593,0.69190615,0.5014476,-0.05922337,-0.06209537,0.36045742,-0.07992781,-0.27152893,-0.062456686,0.015623231,784.10254,808.2784,803.0403,786.9231,891.685,-0.29437255859375,0.183837890625,0.95172119140625,-4.433746337890625,-2.52716064453125,5.03936767578125,1,1.0,1.0,1.0,1.0,10.00
2024-10-11 20:26:37.797,1.0720117,0.93486124,0.8474306,0.8558424,0.7646662,0.7214888,0.3303736,0.6237169,1.0250933,0.880995,0.45914593,0.69190615,0.5014476,-0.05922337,-0.06209537,0.36045742,-0.07992781,-0.27152893,-0.062456686,0.015623231,782.49084,822.7839,797.3993,775.64105,700.293,-0.29437255859375,0.183837890625,0.95172119140625,-4.433746337890625,-2.52716064453125,5.03936767578125,1,1.0,1.0,1.0,1.0,10.00
2024-10-11 20:26:37.798,1.0720117,0.93486124,0.8474306,0.8558424,0.7646662,0.7214888,0.3303736,0.6237169,1.0250933,0.880995,0.45914593,0.69190615,0.5014476,-0.05922337,-0.06209537,0.36045742,-0.07992781,-0.27152893,-0.062456686,0.015623231,770.0,815.5311,796.1905,765.16486,586.6667,-0.29437255859375,0.183837890625,0.95172119140625,-4.433746337890625,-2.52716064453125,5.03936767578125,1,1.0,1.0,1.0,1.0,10.00
2024-10-11 20:26:37.799,1.0720117,0.93486124,0.8474306,0.8558424,0.7646662,0.7214888,0.3303736,0.6237169,1.0250933,0.880995,0.45914593,0.69190615,0.5014476,-0.05922337,-0.06209537,0.36045742,-0.07992781,-0.27152893,-0.062456686,0.015623231,779.67035,805.4579,798.20514,767.98535,731.7216,-0.29437255859375,0.183837890625,0.95172119140625,-4.433746337890625,-2.52716064453125,5.03936767578125,1,1.0,1.0,1.0,1.0,10.00
2024-10-11 20:26:37.799,1.0720117,0.93486124,0.8474306,0.8558424,0.7646662,0.7214888,0.3303736,0.6237169,1.0250933,0.880995,0.45914593,0.69190615,0.5014476,-0.05922337,-0.06209537,0.36045742,-0.07992781,-0.27152893,-0.062456686,0.015623231,786.9231,803.0403,797.8022,777.25275,903.7729,-0.29437255859375,0.183837890625,0.95172119140625,-4.433746337890625,-2.52716064453125,5.03936767578125,1,1.0,1.0,1.0,1.0,10.00
2024-10-11 20:26:37.800,1.0720117,0.93486124,0.8474306,0.8558424,0.7646662,0.7214888,0.3303736,0.6237169,1.0250933,0.880995,0.45914593,0.69190615,0.5014476,-0.05922337,-0.06209537,0.36045742,-0.07992781,-0.27152893,-0.062456686,0.015623231,787.72894,802.23444,801.02563,787.72894,813.91943,-0.29437255859375,0.183837890625,0.95172119140625,-4.433746337890625,-2.52716064453125,5.03936767578125,1,1.0,1.0,1.0,1.0,10.00
2024-10-11 20:26:37.800,1.0720117,0.93486124,0.8474306,0.8558424,0.7646662,0.7214888,0.3303736,0.6237169,1.0250933,0.880995,0.45914593,0.69190615,0.5014476,-0.05922337,-0.06209537,0.36045742,-0.07992781,-0.27152893,-0.062456686,0.015623231,790.14655,811.0989,801.8315,786.9231,648.71796,-0.29437255859375,0.183837890625,0.95172119140625,-4.433746337890625,-2.52716064453125,5.03936767578125,1,1.0,1.0,1.0,1.0,10.00
2024-10-11 20:26:37.801,1.0720117,0.9373924,0.79187965,0.8558424,0.7646662,0.7215537,0.3185048,0.6237169,1.0250933,0.880995,0.45729187,0.69190615,0.5014476,-0.050862897,-0.0761799,0.36045742,-0.07992781,-0.2601513,0.05124551,0.015623231,787.72894,813.5165,795.78754,778.46155,761.13556,-0.29437255859375,0.183837890625,0.95172119140625,-4.433746337890625,-2.52716064453125,5.03936767578125,1,1.0,1.0,1.0,1.0,10.00
2024-10-11 20:26:37.806,1.0720117,0.9373924,0.79187965,0.8558424,0.7646662,0.7215537,0.3185048,0.6237169,1.0250933,0.880995,0.45729187,0.69190615,0.5014476,-0.050862897,-0.0761799,0.36045742,-0.07992781,-0.2601513,0.05124551,0.015623231,781.28204,811.0989,793.7729,775.2381,911.8315,-0.29437255859375,0.183837890625,0.95172119140625,-4.433746337890625,-2.52716064453125,5.03936767578125,1,1.0,1.0,1.0,1.0,10.00
2024-10-11 20:26:37.806,1.0720117,0.9373924,0.79187965,0.8558424,0.7646662,0.7215537,0.3185048,0.6237169,1.0250933,0.880995,0.45729187,0.69190615,0.5014476,-0.050862897,-0.0761799,0.36045742,-0.07992781,-0.2601513,0.05124551,0.015623231,784.90845,813.91943,792.5641,781.28204,917.8755,-0.29437255859375,0.183837890625,0.95172119140625,-4.433746337890625,-2.52716064453125,5.03936767578125,1,1.0,1.0,1.0,1.0,10.00
2024-10-11 20:26:37.831,1.0720117,0.9373924,0.79187965,0.8558424,0.7646662,0.7215537,0.3185048,0.6237169,1.0250933,0.880995,0.45729187,0.69190615,0.5014476,-0.050862897,-0.0761799,0.36045742,-0.07992781,-0.2601513,0.05124551,0.015623231,782.8938,807.47253,790.54944,780.87915,857.03296,-0.290771484375,0.1871337890625,0.94757080078125,-5.779571533203125,-3.282318115234375,2.25799560546875,1,1.0,1.0,1.0,1.0,10.00
2024-10-11 20:26:37.832,1.0720117,0.9373924,0.79187965,0.8558424,0.7646662,0.7215537,0.3185048,0.6237169,1.0250933,0.880995,0.45729187,0.69190615,0.5014476,-0.050862897,-0.0761799,0.36045742,-0.07992781,-0.2601513,0.05124551,0.015623231,784.5055,797.3993,793.7729,782.0879,1059.7069,-0.290771484375,0.1871337890625,0.94757080078125,-5.779571533203125,-3.282318115234375,2.25799560546875,1,1.0,1.0,1.0,1.0,10.00
2024-10-11 20:26:37.832,1.0720117,0.9373924,0.79187965,0.8558424,0.7646662,0.7215537,0.3185048,0.6237169,1.0250933,0.880995,0.45729187,0.69190615,0.5014476,-0.050862897,-0.0761799,0.36045742,-0.07992781,-0.2601513,0.05124551,0.015623231,789.34064,799.81683,795.38464,788.1319,1198.3151,-0.290771484375,0.1871337890625,0.94757080078125,-5.779571533203125,-3.282318115234375,2.25799560546875,1,1.0,1.0,1.0,1.0,10.00
2024-10-11 20:26:37.833,1.0720117,0.9373924,0.79187965,0.8558424,0.7646662,0.7215537,0.3185048,0.6237169,1.0250933,0.880995,0.45729187,0.69190615,0.5014476,-0.050862897,-0.0761799,0.36045742,-0.07992781,-0.2601513,0.05124551,0.015623231,791.3553,808.68134,794.57874,783.2967,861.06226,-0.290771484375,0.1871337890625,0.94757080078125,-5.779571533203125,-3.282318115234375,2.25799560546875,1,1.0,1.0,1.0,1.0,10.00
2024-10-11 20:26:37.833,1.0720117,0.9373924,0.79187965,0.8558424,0.7646662,0.7215537,0.3185048,0.6237169,1.0250933,0.880995,0.45729187,0.69190615,0.5014476,-0.050862897,-0.0761799,0.36045742,-0.07992781,-0.2601513,0.05124551,0.015623231,778.46155,803.8461,796.1905,769.19415,806.6667,-0.290771484375,0.1871337890625,0.94757080078125,-5.779571533203125,-3.282318115234375,2.25799560546875,1,1.0,1.0,1.0,1.0,10.00
2024-10-11 20:26:37.834,1.0720117,0.9373924,0.79187965,0.8558424,0.7646662,0.7215537,0.3185048,0.6237169,1.0250933,0.880995,0.45729187,0.69190615,0.5014476,-0.050862897,-0.0761799,0.36045742,-0.07992781,-0.2601513,0.05124551,0.015623231,776.8498,794.17584,796.1905,764.35895,1010.9524,-0.290771484375,0.1871337890625,0.94757080078125,-5.779571533203125,-3.282318115234375,2.25799560546875,1,1.0,1.0,1.0,1.0,10.00
2024-10-11 20:26:37.835,1.0720117,0.9373924,0.79187965,0.8558424,0.7646662,0.7215537,0.3185048,0.6237169,1.0250933,0.880995,0.45729187,0.69190615,0.5014476,-0.050862897,-0.0761799,0.36045742,-0.07992781,-0.2601513,0.05124551,0.015623231,783.2967,796.5934,792.1612,767.98535,892.8938,-0.290771484375,0.1871337890625,0.94757080078125,-5.779571533203125,-3.282318115234375,2.25799560546875,1,1.0,1.0,1.0,1.0,10.00
2024-10-11 20:26:37.835,1.0720117,0.9373924,0.79187965,0.8558424,0.7646662,0.7215537,0.3185048,0.6237169,1.0250933,0.880995,0.45729187,0.69190615,0.5014476,-0.050862897,-0.0761799,0.36045742,-0.07992781,-0.2601513,0.05124551,0.015623231,782.49084,804.65204,792.5641,774.83514,744.61536,-0.290771484375,0.1871337890625,0.94757080078125,-5.779571533203125,-3.282318115234375,2.25799560546875,1,1.0,1.0,1.0,1.0,10.00
2024-10-11 20:26:37.836,1.0720117,0.9373924,0.79187965,0.8558424,0.7646662,0.7215537,0.3185048,0.6237169,1.0250933,0.880995,0.45729187,0.69190615,0.5014476,-0.050862897,-0.0761799,0.36045742,-0.07992781,-0.2601513,0.05124551,0.015623231,782.0879,801.4286,799.41394,779.67035,845.7509,-0.290771484375,0.1871337890625,0.94757080078125,-5.779571533203125,-3.282318115234375,2.25799560546875,1,1.0,1.0,1.0,1.0,10.00
2024-10-11 20:26:37.836,1.0720117,0.9373924,0.79187965,0.8558424,0.7646662,0.7215537,0.3185048,0.6237169,1.0250933,0.880995,0.45729187,0.69190615,0.5014476,-0.050862897,-0.0761799,0.36045742,-0.07992781,-0.2601513,0.05124551,0.015623231,776.04395,795.38464,808.2784,780.07324,949.304,-0.290771484375,0.1871337890625,0.94757080078125,-5.779571533203125,-3.282318115234375,2.25799560546875,1,1.0,1.0,1.0,1.0,10.00
2024-10-11 20:26:37.837,1.0720117,0.9373924,0.79187965,0.8558424,0.7646662,0.7215537,0.3185048,0.6237169,1.0250933,0.880995,0.45729187,0.69190615,0.5014476,-0.050862897,-0.0761799,0.36045742,-0.07992781,-0.2601513,0.05124551,0.015623231,769.59705,796.5934,806.6667,778.46155,852.6007,-0.290771484375,0.1871337890625,0.94757080078125,-5.779571533203125,-3.282318115234375,2.25799560546875,1,1.0,1.0,1.0,1.0,10.00
2024-10-11 20:26:37.838,1.0720117,0.9373924,0.79187965,0.8558424,0.7646662,0.7215537,0.3185048,0.6237169,1.0250933,0.880995,0.45729187,0.69190615,0.5014476,-0.050862897,-0.0761799,0.36045742,-0.07992781,-0.2601513,0.05124551,0.015623231,770.80585,805.8608,800.6227,775.2381,794.9817,-0.290771484375,0.1871337890625,0.94757080078125,-5.779571533203125,-3.282318115234375,2.25799560546875,1,1.0,1.0,1.0,1.0,10.00
2024-10-11 20:26:37.869,1.0720117,0.9373924,0.79187965,0.8558424,0.7646662,0.7215537,0.3185048,0.6237169,1.0250933,0.880995,0.45729187,0.69190615,0.5014476,-0.050862897,-0.0761799,0.36045742,-0.07992781,-0.2601513,0.05124551,0.015623231,779.67035,808.2784,798.20514,776.8498,877.5824,-0.290771484375,0.1871337890625,0.94757080078125,-5.779571533203125,-3.282318115234375,2.25799560546875,1,1.0,1.0,1.0,1.0,10.00
2024-10-11 20:26:37.870,1.0720117,0.9373924,0.79187965,0.8558424,0.7646662,0.7215537,0.3185048,0.6237169,1.0250933,0.880995,0.45729187,0.69190615,0.5014476,-0.050862897,-0.0761799,0.36045742,-0.07992781,-0.2601513,0.05124551,0.015623231,792.96704,804.65204,796.1905,784.5055,1019.41394,-0.290771484375,0.1871337890625,0.94757080078125,-5.779571533203125,-3.282318115234375,2.25799560546875,1,1.0,1.0,1.0,1.0,10.00
2024-10-11 20:26:37.870,1.0720117,0.9373924,0.79187965,0.8558424,0.7646662,0.7215537,0.3185048,0.6237169,1.0250933,0.880995,0.45729187,0.69190615,0.5014476,-0.050862897,-0.0761799,0.36045742,-0.07992781,-0.2601513,0.05124551,0.015623231,795.78754,808.68134,796.5934,791.75824,841.7216,-0.290771484375,0.1871337890625,0.94757080078125,-5.779571533203125,-3.282318115234375,2.25799560546875,1,1.0,1.0,1.0,1.0,10.00
2024-10-11 20:26:37.871,1.0720117,0.9373924,0.79187965,0.8558424,0.7646662,0.7215537,0.3185048,0.6237169,1.0250933,0.880995,0.45729187,0.69190615,0.5014476,-0.050862897,-0.0761799,0.36045742,-0.07992781,-0.2601513,0.05124551,0.015623231,786.1172,806.6667,803.0403,795.78754,660.40295,-0.290771484375,0.1871337890625,0.94757080078125,-5.779571533203125,-3.282318115234375,2.25799560546875,1,1.0,1.0,1.0,1.0,10.00
2024-10-11 20:26:37.872,1.0720117,0.9373924,0.79187965,0.8558424,0.7646662,0.7215537,0.3185048,0.6237169,1.0250933,0.880995,0.45729187,0.69190615,0.5014476,-0.050862897,-0.0761799,0.36045742,-0.07992781,-0.2601513,0.05124551,0.015623231,776.04395,799.41394,809.0842,794.57874,784.90845,-0.290771484375,0.1871337890625,0.94757080078125,-5.779571533203125,-3.282318115234375,2.25799560546875,1,1.0,1.0,1.0,1.0,10.00
2024-10-11 20:26:37.872,1.0720117,0.9373924,0.79187965,0.8558424,0.7646662,0.7215537,0.3185048,0.6237169,1.0250933,0.880995,0.45729187,0.69190615,0.5014476,-0.050862897,-0.0761799,0.36045742,-0.07992781,-0.2601513,0.05124551,0.015623231,775.64105,797.8022,803.0403,793.36993,1255.9341,-0.290771484375,0.1871337890625,0.94757080078125,-5.779571533203125,-3.282318115234375,2.25799560546875,1,1.0,1.0,1.0,1.0,10.00
2024-10-11 20:26:37.873,1.0720117,0.9373924,0.79187965,0.8558424,0.7646662,0.7215537,0.3185048,0.6237169,1.0250933,0.880995,0.45729187,0.69190615,0.5014476,-0.050862897,-0.0761799,0.36045742,-0.07992781,-0.2601513,0.05124551,0.015623231,783.69965,800.6227,802.6374,798.60803,1492.0513,-0.290771484375,0.1871337890625,0.94757080078125,-5.779571533203125,-3.282318115234375,2.25799560546875,1,1.0,1.0,1.0,1.0,10.00
2024-10-11 20:26:37.874,1.0720117,0.9373924,0.79187965,0.8558424,0.7646662,0.7215537,0.3185048,0.6237169,1.0250933,0.880995,0.45729187,0.69190615,0.5014476,-0.050862897,-0.0761799,0.36045742,-0.07992781,-0.2601513,0.05124551,0.015623231,783.69965,796.5934,801.8315,802.23444,1329.6703,-0.290771484375,0.1871337890625,0.94757080078125,-5.779571533203125,-3.282318115234375,2.25799560546875,1,1.0,1.0,1.0,1.0,10.00
2024-10-11 20:26:37.874,1.0720117,0.9373924,0.79187965,0.8558424,0.7646662,0.7215537,0.3185048,0.6237169,1.0250933,0.880995,0.45729187,0.69190615,0.5014476,-0.050862897,-0.0761799,0.36045742,-0.07992781,-0.2601513,0.05124551,0.015623231,768.3883,799.011,799.011,786.52014,1008.5348,-0.290771484375,0.1871337890625,0.94757080078125,-5.779571533203125,-3.282318115234375,2.25799560546875,1,1.0,1.0,1.0,1.0,10.00
2024-10-11 20:26:37.875,1.0720117,0.9373924,0.79187965,0.8558424,0.7646662,0.7215537,0.3185048,0.6237169,1.0250933,0.880995,0.45729187,0.69190615,0.5014476,-0.050862897,-0.0761799,0.36045742,-0.07992781,-0.2601513,0.05124551,0.015623231,764.7619,801.8315,805.8608,780.07324,735.34796,-0.290771484375,0.1871337890625,0.94757080078125,-5.779571533203125,-3.282318115234375,2.25799560546875,1,1.0,1.0,1.0,1.0,10.00
2024-10-11 20:26:37.875,1.0720117,0.9373924,0.79187965,0.8558424,0.7646662,0.7215537,0.3185048,0.6237169,1.0250933,0.880995,0.45729187,0.69190615,0.5014476,-0.050862897,-0.0761799,0.36045742,-0.07992781,-0.2601513,0.05124551,0.015623231,782.8938,798.20514,807.8755,788.93774,674.5055,-0.290771484375,0.1871337890625,0.94757080078125,-5.779571533203125,-3.282318115234375,2.25799560546875,1,1.0,1.0,1.0,1.0,10.00
2024-10-11 20:26:37.876,1.0018853,0.9449813,0.72987384,1.1139753,0.71026516,0.71997935,0.29343274,0.91319686,1.4493618,0.880995,0.45281973,1.6388506,0.40710893,-0.037913904,-0.080917194,0.64434016,0.35992724,-0.2330607,0.15101269,0.7914127,797.3993,803.44324,796.1905,782.49084,677.72894,-0.290771484375,0.1871337890625,0.94757080078125,-5.779571533203125,-3.282318115234375,2.25799560546875,1,1.0,1.0,1.0,1.0,10.00
2024-10-11 20:26:37.971,1.0018853,0.9449813,0.72987384,1.1139753,0.71026516,0.71997935,0.29343274,0.91319686,1.4493618,0.880995,0.45281973,1.6388506,0.40710893,-0.037913904,-0.080917194,0.64434016,0.35992724,-0.2330607,0.15101269,0.7914127,791.3553,805.4579,792.96704,774.0293,754.68866,-0.28839111328125,0.177978515625,0.9591064453125,-4.702911376953125,-4.94964599609375,0.478515625,1,1.0,1.0,1.0,1.0,10.00
2024-10-11 20:26:37.972,1.0018853,0.9449813,0.72987384,1.1139753,0.71026516,0.71997935,0.29343274,0.91319686,1.4493618,0.880995,0.45281973,1.6388506,0.40710893,-0.037913904,-0.080917194,0.64434016,0.35992724,-0.2330607,0.15101269,0.7914127,777.25275,805.05493,794.57874,771.2088,753.47986,-0.28839111328125,0.177978515625,0.9591064453125,-4.702911376953125,-4.94964599609375,0.478515625,1,1.0,1.0,1.0,1.0,10.00
2024-10-11 20:26:37.973,1.0018853,0.9449813,0.72987384,1.1139753,0.71026516,0.71997935,0.29343274,0.91319686,1.4493618,0.880995,0.45281973,1.6388506,0.40710893,-0.037913904,-0.080917194,0.64434016,0.35992724,-0.2330607,0.15101269,0.7914127,774.43225,806.26373,796.1905,768.3883,516.9597,-0.28839111328125,0.177978515625,0.9591064453125,-4.702911376953125,-4.94964599609375,0.478515625,1,1.0,1.0,1.0,1.0,10.00
2024-10-11 20:26:37.973,1.0018853,0.9449813,0.72987384,1.1139753,0.71026516,0.71997935,0.29343274,0.91319686,1.4493618,0.880995,0.45281973,1.6388506,0.40710893,-0.037913904,-0.080917194,0.64434016,0.35992724,-0.2330607,0.15101269,0.7914127,775.2381,798.20514,804.65204,771.6117,495.20148,-0.28839111328125,0.177978515625,0.9591064453125,-4.702911376953125,-4.94964599609375,0.478515625,1,1.0,1.0,1.0,1.0,10.00
2024-10-11 20:26:37.974,1.0018853,0.9449813,0.72987384,1.1139753,0.71026516,0.71997935,0.29343274,0.91319686,1.4493618,0.880995,0.45281973,1.6388506,0.40710893,-0.037913904,-0.080917194,0.64434016,0.35992724,-0.2330607,0.15101269,0.7914127,772.8205,789.7436,803.44324,778.0586,753.47986,-0.28839111328125,0.177978515625,0.9591064453125,-4.702911376953125,-4.94964599609375,0.478515625,1,1.0,1.0,1.0,1.0,10.00
2024-10-11 20:26:37.974,1.0018853,0.9449813,0.72987384,1.1139753,0.71026516,0.71997935,0.29343274,0.91319686,1.4493618,0.880995,0.45281973,1.6388506,0.40710893,-0.037913904,-0.080917194,0.64434016,0.35992724,-0.2330607,0.15101269,0.7914127,780.4762,794.9817,803.0403,785.7143,819.15753,-0.28839111328125,0.177978515625,0.9591064453125,-4.702911376953125,-4.94964599609375,0.478515625,1,1.0,1.0,1.0,1.0,10.00
2024-10-11 20:26:37.975,1.0018853,0.9449813,0.72987384,1.1139753,0.71026516,0.71997935,0.29343274,0.91319686,1.4493618,0.880995,0.45281973,1.6388506,0.40710893,-0.037913904,-0.080917194,0.64434016,0.35992724,-0.2330607,0.15101269,0.7914127,789.34064,803.44324,805.8608,784.5055,757.1062,-0.28839111328125,0.177978515625,0.9591064453125,-4.702911376953125,-4.94964599609375,0.478515625,1,1.0,1.0,1.0,1.0,10.00
2024-10-11 20:26:37.975,1.0018853,0.9449813,0.72987384,1.1139753,0.71026516,0.71997935,0.29343274,0.91319686,1.4493618,0.880995,0.45281973,1.6388506,0.40710893,-0.037913904,-0.080917194,0.64434016,0.35992724,-0.2330607,0.15101269,0.7914127,782.8938,806.26373,804.2491,768.7912,705.12823,-0.28839111328125,0.177978515625,0.9591064453125,-4.702911376953125,-4.94964599609375,0.478515625,1,1.0,1.0,1.0,1.0,10.00
2024-10-11 20:26:37.976,1.0018853,0.9449813,0.72987384,1.1139753,0.71026516,0.71997935,0.29343274,0.91319686,1.4493618,0.880995,0.45281973,1.6388506,0.40710893,-0.037913904,-0.080917194,0.64434016,0.35992724,-0.2330607,0.15101269,0.7914127,778.46155,803.0403,803.8461,776.8498,992.01465,-0.28839111328125,0.177978515625,0.9591064453125,-4.702911376953125,-4.94964599609375,0.478515625,1,1.0,1.0,1.0,1.0,10.00
2024-10-11 20:26:37.977,1.0018853,0.9449813,0.72987384,1.1139753,0.71026516,0.71997935,0.29343274,0.91319686,1.4493618,0.880995,0.45281973,1.6388506,0.40710893,-0.037913904,-0.080917194,0.64434016,0.35992724,-0.2330607,0.15101269,0.7914127,788.1319,796.99634,805.4579,794.17584,1100.8059,-0.28839111328125,0.177978515625,0.9591064453125,-4.702911376953125,-4.94964599609375,0.478515625,1,1.0,1.0,1.0,1.0,10.00
2024-10-11 20:26:37.977,1.0018853,0.9449813,0.72987384,1.1139753,0.71026516,0.71997935,0.29343274,0.91319686,1.4493618,0.880995,0.45281973,1.6388506,0.40710893,-0.037913904,-0.080917194,0.64434016,0.35992724,-0.2330607,0.15101269,0.7914127,788.93774,797.3993,807.47253,793.7729,672.8938,-0.28839111328125,0.177978515625,0.9591064453125,-4.702911376953125,-4.94964599609375,0.478515625,1,1.0,1.0,1.0,1.0,10.00
2024-10-11 20:26:37.978,1.0018853,0.9449813,0.72987384,1.1139753,0.71026516,0.71997935,0.29343274,0.91319686,1.4493618,0.880995,0.45281973,1.6388506,0.40710893,-0.037913904,-0.080917194,0.64434016,0.35992724,-0.2330607,0.15101269,0.7914127,776.8498,796.1905,808.68134,788.5348,552.8205,-0.28839111328125,0.177978515625,0.9591064453125,-4.702911376953125,-4.94964599609375,0.478515625,1,1.0,1.0,1.0,1.0,10.00
2024-10-11 20:26:38.005,1.0018853,0.9449813,0.72987384,1.1139753,0.71026516,0.71997935,0.29343274,0.91319686,1.4493618,0.880995,0.45281973,1.6388506,0.40710893,-0.037913904,-0.080917194,0.64434016,0.35992724,-0.2330607,0.15101269,0.7914127,776.4469,790.54944,810.696,796.1905,860.65936,-0.281005859375,0.16796875,0.98638916015625,-5.121612548828125,-6.20574951171875,-0.1495361328125,1,1.0,1.0,1.0,1.0,10.00
2024-10-11 20:26:38.006,1.0018853,0.9449813,0.72987384,1.1139753,0.71026516,0.71997935,0.29343274,0.91319686,1.4493618,0.880995,0.45281973,1.6388506,0.40710893,-0.037913904,-0.080917194,0.64434016,0.35992724,-0.2330607,0.15101269,0.7914127,794.57874,796.5934,814.3223,804.65204,775.2381,-0.281005859375,0.16796875,0.98638916015625,-5.121612548828125,-6.20574951171875,-0.1495361328125,1,1.0,1.0,1.0,1.0,10.00
2024-10-11 20:26:38.006,1.0018853,0.9449813,0.72987384,1.1139753,0.71026516,0.71997935,0.29343274,0.91319686,1.4493618,0.880995,0.45281973,1.6388506,0.40710893,-0.037913904,-0.080917194,0.64434016,0.35992724,-0.2330607,0.15101269,0.7914127,794.57874,810.696,811.0989,794.57874,641.4652,-0.281005859375,0.16796875,0.98638916015625,-5.121612548828125,-6.20574951171875,-0.1495361328125,1,1.0,1.0,1.0,1.0,10.00
2024-10-11 20:26:38.007,1.0018853,0.9449813,0.72987384,1.1139753,0.71026516,0.71997935,0.29343274,0.91319686,1.4493618,0.880995,0.45281973,1.6388506,0.40710893,-0.037913904,-0.080917194,0.64434016,0.35992724,-0.2330607,0.15101269,0.7914127,775.64105,803.8461,806.6667,773.22345,715.2015,-0.281005859375,0.16796875,0.98638916015625,-5.121612548828125,-6.20574951171875,-0.1495361328125,1,1.0,1.0,1.0,1.0,10.00
2024-10-11 20:26:38.008,1.0018853,0.9449813,0.72987384,1.1139753,0.71026516,0.71997935,0.29343274,0.91319686,1.4493618,0.880995,0.45281973,1.6388506,0.40710893,-0.037913904,-0.080917194,0.64434016,0.35992724,-0.2330607,0.15101269,0.7914127,789.7436,800.6227,802.23444,779.67035,706.337,-0.281005859375,0.16796875,0.98638916015625,-5.121612548828125,-6.20574951171875,-0.1495361328125,1,1.0,1.0,1.0,1.0,10.00
2024-10-11 20:26:38.008,1.0018853,0.9449813,0.72987384,1.1139753,0.71026516,0.71997935,0.29343274,0.91319686,1.4493618,0.880995,0.45281973,1.6388506,0.40710893,-0.037913904,-0.080917194,0.64434016,0.35992724,-0.2330607,0.15101269,0.7914127,809.89014,801.8315,802.23444,802.6374,823.1868,-0.281005859375,0.16796875,0.98638916015625,-5.121612548828125,-6.20574951171875,-0.1495361328125,1,1.0,1.0,1.0,1.0,10.00
2024-10-11 20:26:38.009,1.0018853,0.9449813,0.72987384,1.1139753,0.71026516,0.71997935,0.29343274,0.91319686,1.4493618,0.880995,0.45281973,1.6388506,0.40710893,-0.037913904,-0.080917194,0.64434016,0.35992724,-0.2330607,0.15101269,0.7914127,797.8022,796.99634,804.65204,801.02563,817.5458,-0.281005859375,0.16796875,0.98638916015625,-5.121612548828125,-6.20574951171875,-0.1495361328125,1,1.0,1.0,1.0,1.0,10.00
2024-10-11 20:26:38.009,1.0018853,0.9449813,0.72987384,1.1139753,0.71026516,0.71997935,0.29343274,0.91319686,1.4493618,0.880995,0.45281973,1.6388506,0.40710893,-0.037913904,-0.080917194,0.64434016,0.35992724,-0.2330607,0.15101269,0.7914127,780.07324,789.34064,805.8608,793.7729,759.92676,-0.281005859375,0.16796875,0.98638916015625,-5.121612548828125,-6.20574951171875,-0.1495361328125,1,1.0,1.0,1.0,1.0,10.00
2024-10-11 20:26:38.010,1.0018853,0.9449813,0.72987384,1.1139753,0.71026516,0.71997935,0.29343274,0.91319686,1.4493618,0.880995,0.45281973,1.6388506,0.40710893,-0.037913904,-0.080917194,0.64434016,0.35992724,-0.2330607,0.15101269,0.7914127,793.36993,790.54944,809.4872,798.20514,803.44324,-0.281005859375,0.16796875,0.98638916015625,-5.121612548828125,-6.20574951171875,-0.1495361328125,1,1.0,1.0,1.0,1.0,10.00
2024-10-11 20:26:38.011,1.0018853,0.9449813,0.72987384,1.1139753,0.71026516,0.71997935,0.29343274,0.91319686,1.4493618,0.880995,0.45281973,1.6388506,0.40710893,-0.037913904,-0.080917194,0.64434016,0.35992724,-0.2330607,0.15101269,0.7914127,802.23444,805.4579,803.0403,792.96704,744.61536,-0.281005859375,0.16796875,0.98638916015625,-5.121612548828125,-6.20574951171875,-0.1495361328125,1,1.0,1.0,1.0,1.0,10.00
2024-10-11 20:26:38.011,1.0018853,0.9449813,0.72987384,1.1139753,0.71026516,0.71997935,0.29343274,0.91319686,1.4493618,0.880995,0.45281973,1.6388506,0.40710893,-0.037913904,-0.080917194,0.64434016,0.35992724,-0.2330607,0.15101269,0.7914127,789.34064,804.2491,801.4286,786.52014,783.69965,-0.281005859375,0.16796875,0.98638916015625,-5.121612548828125,-6.20574951171875,-0.1495361328125,1,1.0,1.0,1.0,1.0,10.00
2024-10-11 20:26:38.012,1.0018853,0.9449813,0.72987384,1.1139753,0.71026516,0.71997935,0.29343274,0.91319686,1.4493618,0.880995,0.45281973,1.6388506,0.40710893,-0.037913904,-0.080917194,0.64434016,0.35992724,-0.2330607,0.15101269,0.7914127,785.31134,803.44324,803.0403,788.5348,851.39197,-0.281005859375,0.16796875,0.98638916015625,-5.121612548828125,-6.20574951171875,-0.1495361328125,1,1.0,1.0,1.0,1.0,10.00
2024-10-11 20:26:38.013,1.0018853,0.9449813,0.72987384,1.1139753,0.71026516,0.71997935,0.29343274,0.91319686,1.4493618,0.880995,0.45281973,1.6388506,0.40710893,-0.037913904,-0.080917194,0.64434016,0.35992724,-0.2330607,0.15101269,0.7914127,796.1905,806.6667,800.6227,790.14655,791.3553,-0.24951171875,0.14422607421875,0.95416259765625,-6.587066650390625,-5.016937255859375,-1.293487548828125,1,1.0,1.0,1.0,1.0,10.00
2024-10-11 20:26:38.013,1.0018853,0.94668955,0.6834339,1.1139753,0.71026516,0.6970328,0.20163444,0.91319686,1.4493618,0.880995,0.46089354,1.6388506,0.40710893,-0.025451947,-0.07113349,0.64434016,0.35992724,-0.19142699,0.22481118,0.7914127,797.3993,799.011,805.4579,788.1319,632.1978,-0.24951171875,0.14422607421875,0.95416259765625,-6.587066650390625,-5.016937255859375,-1.293487548828125,1,1.0,1.0,1.0,1.0,10.00
2024-10-11 20:26:38.018,1.0018853,0.94668955,0.6834339,1.1139753,0.71026516,0.6970328,0.20163444,0.91319686,1.4493618,0.880995,0.46089354,1.6388506,0.40710893,-0.025451947,-0.07113349,0.64434016,0.35992724,-0.19142699,0.22481118,0.7914127,789.34064,792.96704,808.2784,780.4762,636.2271,-0.24951171875,0.14422607421875,0.95416259765625,-6.587066650390625,-5.016937255859375,-1.293487548828125,1,1.0,1.0,1.0,1.0,10.00
2024-10-11 20:26:38.019,1.0018853,0.94668955,0.6834339,1.1139753,0.71026516,0.6970328,0.20163444,0.91319686,1.4493618,0.880995,0.46089354,1.6388506,0.40710893,-0.025451947,-0.07113349,0.64434016,0.35992724,-0.19142699,0.22481118,0.7914127,797.8022,800.6227,803.8461,780.07324,843.73627,-0.24951171875,0.14422607421875,0.95416259765625,-6.587066650390625,-5.016937255859375,-1.293487548828125,1,1.0,1.0,1.0,1.0,10.00
2024-10-11 20:26:38.020,1.0018853,0.94668955,0.6834339,1.1139753,0.71026516,0.6970328,0.20163444,0.91319686,1.4493618,0.880995,0.46089354,1.6388506,0.40710893,-0.025451947,-0.07113349,0.64434016,0.35992724,-0.19142699,0.22481118,0.7914127,806.26373,809.4872,805.05493,781.28204,865.89746,-0.24951171875,0.14422607421875,0.95416259765625,-6.587066650390625,-5.016937255859375,-1.293487548828125,1,1.0,1.0,1.0,1.0,10.00
2024-10-11 20:26:38.020,1.0018853,0.94668955,0.6834339,1.1139753,0.71026516,0.6970328,0.20163444,0.91319686,1.4493618,0.880995,0.46089354,1.6388506,0.40710893,-0.025451947,-0.07113349,0.64434016,0.35992724,-0.19142699,0.22481118,0.7914127,792.5641,806.6667,807.0696,781.685,819.9634,-0.24951171875,0.14422607421875,0.95416259765625,-6.587066650390625,-5.016937255859375,-1.293487548828125,1,1.0,1.0,1.0,1.0,10.00
2024-10-11 20:26:38.021,1.0018853,0.94668955,0.6834339,1.1139753,0.71026516,0.6970328,0.20163444,0.91319686,1.4493618,0.880995,0.46089354,1.6388506,0.40710893,-0.025451947,-0.07113349,0.64434016,0.35992724,-0.19142699,0.22481118,0.7914127,784.10254,792.96704,804.2491,787.326,935.2015,-0.24951171875,0.14422607421875,0.95416259765625,-6.587066650390625,-5.016937255859375,-1.293487548828125,1,1.0,1.0,1.0,1.0,10.00
2024-10-11 20:26:38.021,1.0018853,0.94668955,0.6834339,1.1139753,0.71026516,0.6970328,0.20163444,0.91319686,1.4493618,0.880995,0.46089354,1.6388506,0.40710893,-0.025451947,-0.07113349,0.64434016,0.35992724,-0.19142699,0.22481118,0.7914127,787.72894,801.4286,800.6227,785.31134,1020.2198,-0.24951171875,0.14422607421875,0.95416259765625,-6.587066650390625,-5.016937255859375,-1.293487548828125,1,1.0,1.0,1.0,1.0,10.00
2024-10-11 20:26:38.022,1.0018853,0.94668955,0.6834339,1.1139753,0.71026516,0.6970328,0.20163444,0.91319686,1.4493618,0.880995,0.46089354,1.6388506,0.40710893,-0.025451947,-0.07113349,0.64434016,0.35992724,-0.19142699,0.22481118,0.7914127,790.9524,815.9341,802.6374,784.5055,780.4762,-0.24951171875,0.14422607421875,0.95416259765625,-6.587066650390625,-5.016937255859375,-1.293487548828125,1,1.0,1.0,1.0,1.0,10.00
2024-10-11 20:26:38.023,1.0018853,0.94668955,0.6834339,1.1139753,0.71026516,0.6970328,0.20163444,0.91319686,1.4493618,0.880995,0.46089354,1.6388506,0.40710893,-0.025451947,-0.07113349,0.64434016,0.35992724,-0.19142699,0.22481118,0.7914127,795.38464,811.0989,807.0696,792.96704,627.3626,-0.24951171875,0.14422607421875,0.95416259765625,-6.587066650390625,-5.016937255859375,-1.293487548828125,1,1.0,1.0,1.0,1.0,10.00
2024-10-11 20:26:38.023,1.0018853,0.94668955,0.6834339,1.1139753,0.71026516,0.6970328,0.20163444,0.91319686,1.4493618,0.880995,0.46089354,1.6388506,0.40710893,-0.025451947,-0.07113349,0.64434016,0.35992724,-0.19142699,0.22481118,0.7914127,801.8315,803.8461,804.65204,795.38464,789.7436,-0.24951171875,0.14422607421875,0.95416259765625,-6.587066650390625,-5.016937255859375,-1.293487548828125,1,1.0,1.0,1.0,1.0,10.00
2024-10-11 20:26:38.024,1.0018853,0.94668955,0.6834339,1.1139753,0.71026516,0.6970328,0.20163444,0.91319686,1.4493618,0.880995,0.46089354,1.6388506,0.40710893,-0.025451947,-0.07113349,0.64434016,0.35992724,-0.19142699,0.22481118,0.7914127,800.6227,800.6227,800.6227,796.1905,1016.1905,-0.24951171875,0.14422607421875,0.95416259765625,-6.587066650390625,-5.016937255859375,-1.293487548828125,1,1.0,1.0,1.0,1.0,10.00
2024-10-11 20:26:38.105,1.0018853,0.94668955,0.6834339,1.1139753,0.71026516,0.6970328,0.20163444,0.91319686,1.4493618,0.880995,0.46089354,1.6388506,0.40710893,-0.025451947,-0.07113349,0.64434016,0.35992724,-0.19142699,0.22481118,0.7914127,790.14655,797.8022,803.8461,796.5934,1011.75824,-0.244384765625,0.1212158203125,0.95880126953125,-6.11602783203125,-3.701019287109375,-1.6748046875,1,1.0,1.0,1.0,1.0,10.00
2024-10-11 20:26:38.106,1.0018853,0.94668955,0.6834339,1.1139753,0.71026516,0.6970328,0.20163444,0.91319686,1.4493618,0.880995,0.46089354,1.6388506,0.40710893,-0.025451947,-0.07113349,0.64434016,0.35992724,-0.19142699,0.22481118,0.7914127,794.17584,799.011,808.68134,799.81683,816.7399,-0.244384765625,0.1212158203125,0.95880126953125,-6.11602783203125,-3.701019287109375,-1.6748046875,1,1.0,1.0,1.0,1.0,10.00
2024-10-11 20:26:38.107,1.0018853,0.94668955,0.6834339,1.1139753,0.71026516,0.6970328,0.20163444,0.91319686,1.4493618,0.880995,0.46089354,1.6388506,0.40710893,-0.025451947,-0.07113349,0.64434016,0.35992724,-0.19142699,0.22481118,0.7914127,801.8315,804.2491,801.8315,807.8755,718.022,-0.244384765625,0.1212158203125,0.95880126953125,-6.11602783203125,-3.701019287109375,-1.6748046875,1,1.0,1.0,1.0,1.0,10.00
2024-10-11 20:26:38.108,1.0018853,0.94668955,0.6834339,1.1139753,0.71026516,0.6970328,0.20163444,0.91319686,1.4493618,0.880995,0.46089354,1.6388506,0.40710893,-0.025451947,-0.07113349,0.64434016,0.35992724,-0.19142699,0.22481118,0.7914127,805.05493,809.89014,800.2198,817.1429,983.5531,-0.244384765625,0.1212158203125,0.95880126953125,-6.11602783203125,-3.701019287109375,-1.6748046875,1,1.0,1.0,1.0,1.0,10.00
2024-10-11 20:26:38.108,1.0018853,0.94668955,0.6834339,1.1139753,0.71026516,0.6970328,0.20163444,0.91319686,1.4493618,0.880995,0.46089354,1.6388506,0.40710893,-0.025451947,-0.07113349,0.64434016,0.35992724,-0.19142699,0.22481118,0.7914127,807.47253,809.89014,803.8461,813.1135,842.1245,-0.244384765625,0.1212158203125,0.95880126953125,-6.11602783203125,-3.701019287109375,-1.6748046875,1,1.0,1.0,1.0,1.0,10.00
2024-10-11 20:26:38.109,1.0018853,0.94668955,0.6834339,1.1139753,0.71026516,0.6970328,0.20163444,0.91319686,1.4493618,0.880995,0.46089354,1.6388506,0.40710893,-0.025451947,-0.07113349,0.64434016,0.35992724,-0.19142699,0.22481118,0.7914127,807.0696,804.2491,799.011,796.1905,727.6923,-0.244384765625,0.1212158203125,0.95880126953125,-6.11602783203125,-3.701019287109375,-1.6748046875,1,1.0,1.0,1.0,1.0,10.00
2024-10-11 20:26:38.109,1.0018853,0.94668955,0.6834339,1.1139753,0.71026516,0.6970328,0.20163444,0.91319686,1.4493618,0.880995,0.46089354,1.6388506,0.40710893,-0.025451947,-0.07113349,0.64434016,0.35992724,-0.19142699,0.22481118,0.7914127,811.0989,807.8755,794.57874,812.3077,938.4249,-0.244384765625,0.1212158203125,0.95880126953125,-6.11602783203125,-3.701019287109375,-1.6748046875,1,1.0,1.0,1.0,1.0,10.00
2024-10-11 20:26:38.110,1.0018853,0.94668955,0.6834339,1.1139753,0.71026516,0.6970328,0.20163444,0.91319686,1.4493618,0.880995,0.46089354,1.6388506,0.40710893,-0.025451947,-0.07113349,0.64434016,0.35992724,-0.19142699,0.22481118,0.7914127,818.7546,803.44324,801.4286,839.707,1219.2675,-0.244384765625,0.1212158203125,0.95880126953125,-6.11602783203125,-3.701019287109375,-1.6748046875,1,1.0,1.0,1.0,1.0,10.00
2024-10-11 20:26:38.110,1.0018853,0.94668955,0.6834339,1.1139753,0.71026516,0.6970328,0.20163444,0.91319686,1.4493618,0.880995,0.46089354,1.6388506,0.40710893,-0.025451947,-0.07113349,0.64434016,0.35992724,-0.19142699,0.22481118,0.7914127,789.7436,794.9817,808.2784,823.1868,1299.8535,-0.244384765625,0.1212158203125,0.95880126953125,-6.11602783203125,-3.701019287109375,-1.6748046875,1,1.0,1.0,1.0,1.0,10.00
2024-10-11 20:26:38.111,1.0018853,0.94668955,0.6834339,1.1139753,0.71026516,0.6970328,0.20163444,0.91319686,1.4493618,0.880995,0.46089354,1.6388506,0.40710893,-0.025451947,-0.07113349,0.64434016,0.35992724,-0.19142699,0.22481118,0.7914127,781.685,792.1612,802.23444,801.8315,875.9707,-0.244384765625,0.1212158203125,0.95880126953125,-6.11602783203125,-3.701019287109375,-1.6748046875,1,1.0,1.0,1.0,1.0,10.00
2024-10-11 20:26:38.112,1.0018853,0.94668955,0.6834339,1.1139753,0.71026516,0.6970328,0.20163444,0.91319686,1.4493618,0.880995,0.46089354,1.6388506,0.40710893,-0.025451947,-0.07113349,0.64434016,0.35992724,-0.19142699,0.22481118,0.7914127,811.9048,805.4579,796.1905,801.8315,700.696,-0.244384765625,0.1212158203125,0.95880126953125,-6.11602783203125,-3.701019287109375,-1.6748046875,1,1.0,1.0,1.0,1.0,10.00
2024-10-11 20:26:38.112,1.0018853,0.94668955,0.6834339,1.1139753,0.71026516,0.6970328,0.20163444,0.91319686,1.4493618,0.880995,0.46089354,1.6388506,0.40710893,-0.025451947,-0.07113349,0.64434016,0.35992724,-0.19142699,0.22481118,0.7914127,810.293,812.3077,792.5641,787.326,790.14655,-0.244384765625,0.1212158203125,0.95880126953125,-6.11602783203125,-3.701019287109375,-1.6748046875,1,1.0,1.0,1.0,1.0,10.00
2024-10-11 20:26:38.113,1.0018853,0.94668955,0.6834339,1.1139753,0.71026516,0.6970328,0.20163444,0.91319686,1.4493618,0.880995,0.46089354,1.6388506,0.40710893,-0.025451947,-0.07113349,0.64434016,0.35992724,-0.19142699,0.22481118,0.7914127,798.60803,805.05493,792.96704,780.07324,688.20514,-0.244384765625,0.1212158203125,0.95880126953125,-6.11602783203125,-3.701019287109375,-1.6748046875,1,1.0,1.0,1.0,1.0,10.00
2024-10-11 20:26:38.113,1.0018853,0.94668955,0.6834339,1.1139753,0.71026516,0.6970328,0.20163444,0.91319686,1.4493618,0.880995,0.46089354,1.6388506,0.40710893,-0.025451947,-0.07113349,0.64434016,0.35992724,-0.19142699,0.22481118,0.7914127,791.75824,809.4872,791.3553,782.0879,640.65936,-0.244384765625,0.1212158203125,0.95880126953125,-6.11602783203125,-3.701019287109375,-1.6748046875,1,1.0,1.0,1.0,1.0,10.00
2024-10-11 20:26:38.114,1.0018853,0.94668955,0.6834339,1.1139753,0.71026516,0.6970328,0.20163444,0.91319686,1.4493618,0.880995,0.46089354,1.6388506,0.40710893,-0.025451947,-0.07113349,0.64434016,0.35992724,-0.19142699,0.22481118,0.7914127,803.0403,811.9048,789.34064,788.93774,759.92676,-0.244384765625,0.1212158203125,0.95880126953125,-6.11602783203125,-3.701019287109375,-1.6748046875,1,1.0,1.0,1.0,1.0,10.00
2024-10-11 20:26:38.114,1.0018853,0.93955505,0.5085813,1.1139753,0.71026516,0.6306878,-0.06795377,0.91319686,1.4493618,0.87876266,0.19526033,1.6388506,0.40710893,-0.015164678,-0.051828675,0.64434016,0.35992724,-0.14290033,0.27257556,0.7914127,811.9048,806.26373,791.75824,801.8315,855.42126,-0.244384765625,0.1212158203125,0.95880126953125,-6.11602783203125,-3.701019287109375,-1.6748046875,1,1.0,1.0,1.0,1.0,10.00
2024-10-11 20:26:38.120,1.0018853,0.93955505,0.5085813,1.1139753,0.71026516,0.6306878,-0.06795377,0.91319686,1.4493618,0.87876266,0.19526033,1.6388506,0.40710893,-0.015164678,-0.051828675,0.64434016,0.35992724,-0.14290033,0.27257556,0.7914127,794.57874,801.4286,798.20514,796.1905,718.022,-0.244384765625,0.1212158203125,0.95880126953125,-6.11602783203125,-3.701019287109375,-1.6748046875,1,1.0,1.0,1.0,1.0,10.00
2024-10-11 20:26:38.120,1.0018853,0.93955505,0.5085813,1.1139753,0.71026516,0.6306878,-0.06795377,0.91319686,1.4493618,0.87876266,0.19526033,1.6388506,0.40710893,-0.015164678,-0.051828675,0.64434016,0.35992724,-0.14290033,0.27257556,0.7914127,785.7143,798.60803,803.0403,781.685,779.2674,-0.244384765625,0.1212158203125,0.95880126953125,-6.11602783203125,-3.701019287109375,-1.6748046875,1,1.0,1.0,1.0,1.0,10.00
2024-10-11 20:26:38.121,1.0018853,0.93955505,0.5085813,1.1139753,0.71026516,0.6306878,-0.06795377,0.91319686,1.4493618,0.87876266,0.19526033,1.6388506,0.40710893,-0.015164678,-0.051828675,0.64434016,0.35992724,-0.14290033,0.27257556,0.7914127,794.17584,801.8315,807.47253,783.69965,1066.9597,-0.244384765625,0.1212158203125,0.95880126953125,-6.11602783203125,-3.701019287109375,-1.6748046875,1,1.0,1.0,1.0,1.0,10.00
2024-10-11 20:26:38.122,1.0018853,0.93955505,0.5085813,1.1139753,0.71026516,0.6306878,-0.06795377,0.91319686,1.4493618,0.87876266,0.19526033,1.6388506,0.40710893,-0.015164678,-0.051828675,0.64434016,0.35992724,-0.14290033,0.27257556,0.7914127,792.5641,809.4872,800.6227,779.67035,885.64105,-0.244384765625,0.1212158203125,0.95880126953125,-6.11602783203125,-3.701019287109375,-1.6748046875,1,1.0,1.0,1.0,1.0,10.00
2024-10-11 20:26:38.122,1.0018853,0.93955505,0.5085813,1.1139753,0.71026516,0.6306878,-0.06795377,0.91319686,1.4493618,0.87876266,0.19526033,1.6388506,0.40710893,-0.015164678,-0.051828675,0.64434016,0.35992724,-0.14290033,0.27257556,0.7914127,786.9231,811.9048,800.6227,775.2381,624.5421,-0.244384765625,0.1212158203125,0.95880126953125,-6.11602783203125,-3.701019287109375,-1.6748046875,1,1.0,1.0,1.0,1.0,10.00
2024-10-11 20:26:38.123,1.0018853,0.93955505,0.5085813,1.1139753,0.71026516,0.6306878,-0.06795377,0.91319686,1.4493618,0.87876266,0.19526033,1.6388506,0.40710893,-0.015164678,-0.051828675,0.64434016,0.35992724,-0.14290033,0.27257556,0.7914127,790.14655,808.68134,802.6374,782.8938,665.2381,-0.244384765625,0.1212158203125,0.95880126953125,-6.11602783203125,-3.701019287109375,-1.6748046875,1,1.0,1.0,1.0,1.0,10.00
2024-10-11 20:26:38.123,1.0018853,0.93955505,0.5085813,1.1139753,0.71026516,0.6306878,-0.06795377,0.91319686,1.4493618,0.87876266,0.19526033,1.6388506,0.40710893,-0.015164678,-0.051828675,0.64434016,0.35992724,-0.14290033,0.27257556,0.7914127,792.96704,801.02563,802.6374,791.3553,817.5458,-0.244384765625,0.1212158203125,0.95880126953125,-6.11602783203125,-3.701019287109375,-1.6748046875,1,1.0,1.0,1.0,1.0,10.00
2024-10-11 20:26:38.124,1.0018853,0.93955505,0.5085813,1.1139753,0.71026516,0.6306878,-0.06795377,0.91319686,1.4493618,0.87876266,0.19526033,1.6388506,0.40710893,-0.015164678,-0.051828675,0.64434016,0.35992724,-0.14290033,0.27257556,0.7914127,793.36993,803.44324,801.4286,790.54944,660.0,-0.244384765625,0.1212158203125,0.95880126953125,-6.11602783203125,-3.701019287109375,-1.6748046875,1,1.0,1.0,1.0,1.0,10.00
2024-10-11 20:26:38.148,1.0018853,0.93955505,0.5085813,1.1139753,0.71026516,0.6306878,-0.06795377,0.91319686,1.4493618,0.87876266,0.19526033,1.6388506,0.40710893,-0.015164678,-0.051828675,0.64434016,0.35992724,-0.14290033,0.27257556,0.7914127,789.34064,806.6667,793.7729,783.2967,435.9707,-0.24444580078125,0.10955810546875,0.9644775390625,-3.566436767578125,-2.654266357421875,-1.248626708984375,1,1.0,1.0,1.0,1.0,10.00
2024-10-11 20:26:38.149,1.0018853,0.93955505,0.5085813,1.1139753,0.71026516,0.6306878,-0.06795377,0.91319686,1.4493618,0.87876266,0.19526033,1.6388506,0.40710893,-0.015164678,-0.051828675,0.64434016,0.35992724,-0.14290033,0.27257556,0.7914127,782.49084,803.0403,785.7143,774.43225,571.75824,-0.24444580078125,0.10955810546875,0.9644775390625,-3.566436767578125,-2.654266357421875,-1.248626708984375,1,1.0,1.0,1.0,1.0,10.00
2024-10-11 20:26:38.149,1.0018853,0.93955505,0.5085813,1.1139753,0.71026516,0.6306878,-0.06795377,0.91319686,1.4493618,0.87876266,0.19526033,1.6388506,0.40710893,-0.015164678,-0.051828675,0.64434016,0.35992724,-0.14290033,0.27257556,0.7914127,793.7729,802.23444,789.7436,791.75824,785.7143,-0.24444580078125,0.10955810546875,0.9644775390625,-3.566436767578125,-2.654266357421875,-1.248626708984375,1,1.0,1.0,1.0,1.0,10.00
2024-10-11 20:26:38.150,1.0018853,0.93955505,0.5085813,1.1139753,0.71026516,0.6306878,-0.06795377,0.91319686,1.4493618,0.87876266,0.19526033,1.6388506,0.40710893,-0.015164678,-0.051828675,0.64434016,0.35992724,-0.14290033,0.27257556,0.7914127,805.05493,797.8022,802.23444,808.2784,584.65204,-0.24444580078125,0.10955810546875,0.9644775390625,-3.566436767578125,-2.654266357421875,-1.248626708984375,1,1.0,1.0,1.0,1.0,10.00
2024-10-11 20:26:38.150,1.0018853,0.93955505,0.5085813,1.1139753,0.71026516,0.6306878,-0.06795377,0.91319686,1.4493618,0.87876266,0.19526033,1.6388506,0.40710893,-0.015164678,-0.051828675,0.64434016,0.35992724,-0.14290033,0.27257556,0.7914127,792.1612,793.7729,799.81683,796.5934,533.47986,-0.24444580078125,0.10955810546875,0.9644775390625,-3.566436767578125,-2.654266357421875,-1.248626708984375,1,1.0,1.0,1.0,1.0,10.00
2024-10-11 20:26:38.151,1.0018853,0.93955505,0.5085813,1.1139753,0.71026516,0.6306878,-0.06795377,0.91319686,1.4493618,0.87876266,0.19526033,1.6388506,0.40710893,-0.015164678,-0.051828675,0.64434016,0.35992724,-0.14290033,0.27257556,0.7914127,794.57874,792.5641,795.38464,792.96704,848.5714,-0.24444580078125,0.10955810546875,0.9644775390625,-3.566436767578125,-2.654266357421875,-1.248626708984375,1,1.0,1.0,1.0,1.0,10.00
2024-10-11 20:26:38.152,1.0018853,0.93955505,0.5085813,1.1139753,0.71026516,0.6306878,-0.06795377,0.91319686,1.4493618,0.87876266,0.19526033,1.6388506,0.40710893,-0.015164678,-0.051828675,0.64434016,0.35992724,-0.14290033,0.27257556,0.7914127,818.7546,795.38464,797.8022,808.68134,987.1795,-0.24444580078125,0.10955810546875,0.9644775390625,-3.566436767578125,-2.654266357421875,-1.248626708984375,1,1.0,1.0,1.0,1.0,10.00
2024-10-11 20:26:38.152,1.0018853,0.93955505,0.5085813,1.1139753,0.71026516,0.6306878,-0.06795377,0.91319686,1.4493618,0.87876266,0.19526033,1.6388506,0.40710893,-0.015164678,-0.051828675,0.64434016,0.35992724,-0.14290033,0.27257556,0.7914127,818.3516,793.36993,807.47253,817.9487,786.52014,-0.24444580078125,0.10955810546875,0.9644775390625,-3.566436767578125,-2.654266357421875,-1.248626708984375,1,1.0,1.0,1.0,1.0,10.00
2024-10-11 20:26:38.153,1.0018853,0.93955505,0.5085813,1.1139753,0.71026516,0.6306878,-0.06795377,0.91319686,1.4493618,0.87876266,0.19526033,1.6388506,0.40710893,-0.015164678,-0.051828675,0.64434016,0.35992724,-0.14290033,0.27257556,0.7914127,799.81683,785.7143,811.9048,809.89014,608.4249,-0.24444580078125,0.10955810546875,0.9644775390625,-3.566436767578125,-2.654266357421875,-1.248626708984375,1,1.0,1.0,1.0,1.0,10.00
2024-10-11 20:26:38.153,1.0018853,0.93955505,0.5085813,1.1139753,0.71026516,0.6306878,-0.06795377,0.91319686,1.4493618,0.87876266,0.19526033,1.6388506,0.40710893,-0.015164678,-0.051828675,0.64434016,0.35992724,-0.14290033,0.27257556,0.7914127,802.6374,788.5348,810.293,805.8608,749.0476,-0.24444580078125,0.10955810546875,0.9644775390625,-3.566436767578125,-2.654266357421875,-1.248626708984375,1,1.0,1.0,1.0,1.0,10.00
2024-10-11 20:26:38.154,1.0018853,0.93955505,0.5085813,1.1139753,0.71026516,0.6306878,-0.06795377,0.91319686,1.4493618,0.87876266,0.19526033,1.6388506,0.40710893,-0.015164678,-0.051828675,0.64434016,0.35992724,-0.14290033,0.27257556,0.7914127,816.337,797.8022,809.89014,807.47253,878.3883,-0.24444580078125,0.10955810546875,0.9644775390625,-3.566436767578125,-2.654266357421875,-1.248626708984375,1,1.0,1.0,1.0,1.0,10.00
2024-10-11 20:26:38.155,1.0018853,0.93955505,0.5085813,1.1139753,0.71026516,0.6306878,-0.06795377,0.91319686,1.4493618,0.87876266,0.19526033,1.6388506,0.40710893,-0.015164678,-0.051828675,0.64434016,0.35992724,-0.14290033,0.27257556,0.7914127,817.5458,799.011,807.47253,802.23444,759.12085,-0.24444580078125,0.10955810546875,0.9644775390625,-3.566436767578125,-2.654266357421875,-1.248626708984375,1,1.0,1.0,1.0,1.0,10.00
2024-10-11 20:26:38.178,1.0018853,0.93955505,0.5085813,1.1139753,0.71026516,0.6306878,-0.06795377,0.91319686,1.4493618,0.87876266,0.19526033,1.6388506,0.40710893,-0.015164678,-0.051828675,0.64434016,0.35992724,-0.14290033,0.27257556,0.7914127,806.6667,796.1905,807.47253,793.7729,670.87915,-0.24755859375,0.10479736328125,0.96539306640625,-0.1495361328125,-2.056121826171875,-1.12152099609375,1,1.0,1.0,1.0,1.0,10.00
2024-10-11 20:26:38.179,1.0018853,0.93955505,0.5085813,1.1139753,0.71026516,0.6306878,-0.06795377,0.91319686,1.4493618,0.87876266,0.19526033,1.6388506,0.40710893,-0.015164678,-0.051828675,0.64434016,0.35992724,-0.14290033,0.27257556,0.7914127,801.02563,799.81683,809.4872,792.96704,939.6337,-0.24755859375,0.10479736328125,0.96539306640625,-0.1495361328125,-2.056121826171875,-1.12152099609375,1,1.0,1.0,1.0,1.0,10.00
2024-10-11 20:26:38.180,1.0018853,0.93955505,0.5085813,1.1139753,0.71026516,0.6306878,-0.06795377,0.91319686,1.4493618,0.87876266,0.19526033,1.6388506,0.40710893,-0.015164678,-0.051828675,0.64434016,0.35992724,-0.14290033,0.27257556,0.7914127,808.68134,799.011,803.8461,805.4579,1311.5385,-0.24755859375,0.10479736328125,0.96539306640625,-0.1495361328125,-2.056121826171875,-1.12152099609375,1,1.0,1.0,1.0,1.0,10.00
