TimeStamp,Delta_TP9,Delta_AF7,Delta_AF8,Delta_TP10,Theta_TP9,Theta_AF7,Theta_AF8,Theta_TP10,Alpha_TP9,Alpha_AF7,Alpha_AF8,Alpha_TP10,Beta_TP9,Beta_AF7,Beta_AF8,Beta_TP10,Gamma_TP9,Gamma_AF7,Gamma_AF8,Gamma_TP10,RAW_TP9,RAW_AF7,RAW_AF8,RAW_TP10,AUX_RIGHT,Accelerometer_X,Accelerometer_Y,Accelerometer_Z,Gyro_X,Gyro_Y,Gyro_Z,HeadBandOn,HSI_TP9,HSI_AF7,HSI_AF8,HSI_TP10,Battery,Elements
2024-10-11 20:08:41.674,0.88217115,-0.03513384,0.7588317,0.68818194,0.3624112,0.39753482,0.43311384,0.41827935,0.34583914,0.055657793,0.3566457,0.16818863,0.27156386,-0.2282309,-0.022901498,0.1315783,-0.43719137,-0.26462328,-0.4035048,-0.14974144,789.7436,798.60803,798.20514,802.6374,816.337,-0.22613525390625,0.07916259765625,0.98150634765625,1.27105712890625,-1.375732421875,-3.147735595703125,1,1.0,1.0,1.0,1.0,15.00
2024-10-11 20:08:41.675,0.88217115,-0.03513384,0.7588317,0.68818194,0.3624112,0.39753482,0.43311384,0.41827935,0.34583914,0.055657793,0.3566457,0.16818863,0.27156386,-0.2282309,-0.022901498,0.1315783,-0.43719137,-0.26462328,-0.4035048,-0.14974144,787.72894,794.9817,801.8315,808.2784,965.0183,-0.22613525390625,0.07916259765625,0.98150634765625,1.27105712890625,-1.375732421875,-3.147735595703125,1,1.0,1.0,1.0,1.0,15.00
2024-10-11 20:08:41.676,0.88217115,-0.03513384,0.7588317,0.68818194,0.3624112,0.39753482,0.43311384,0.41827935,0.34583914,0.055657793,0.3566457,0.16818863,0.27156386,-0.2282309,-0.022901498,0.1315783,-0.43719137,-0.26462328,-0.4035048,-0.14974144,788.1319,798.20514,801.8315,805.8608,921.0989,-0.22613525390625,0.07916259765625,0.98150634765625,1.27105712890625,-1.375732421875,-3.147735595703125,1,1.0,1.0,1.0,1.0,15.00
2024-10-11 20:08:41.677,0.88217115,-0.03513384,0.7588317,0.68818194,0.3624112,0.39753482,0.43311384,0.41827935,0.34583914,0.055657793,0.3566457,0.16818863,0.27156386,-0.2282309,-0.022901498,0.1315783,-0.43719137,-0.26462328,-0.4035048,-0.14974144,788.93774,801.4286,802.6374,799.41394,828.8278,-0.22613525390625,0.07916259765625,0.98150634765625,1.27105712890625,-1.375732421875,-3.147735595703125,1,1.0,1.0,1.0,1.0,15.00
2024-10-11 20:08:41.678,0.88217115,-0.03513384,0.7588317,0.68818194,0.3624112,0.39753482,0.43311384,0.41827935,0.34583914,0.055657793,0.3566457,0.16818863,0.27156386,-0.2282309,-0.022901498,0.1315783,-0.43719137,-0.26462328,-0.4035048,-0.14974144,802.6374,798.60803,808.2784,801.8315,896.52014,-0.22613525390625,0.07916259765625,0.98150634765625,1.27105712890625,-1.375732421875,-3.147735595703125,1,1.0,1.0,1.0,1.0,15.00
2024-10-11 20:08:41.679,0.88217115,-0.03513384,0.7588317,0.68818194,0.3624112,0.39753482,0.43311384,0.41827935,0.34583914,0.055657793,0.3566457,0.16818863,0.27156386,-0.2282309,-0.022901498,0.1315783,-0.43719137,-0.26462328,-0.4035048,-0.14974144,808.68134,794.9817,807.0696,799.81683,1021.8315,-0.22613525390625,0.07916259765625,0.98150634765625,1.27105712890625,-1.375732421875,-3.147735595703125,1,1.0,1.0,1.0,1.0,15.00
2024-10-11 20:08:41.680,0.88217115,-0.03513384,0.7588317,0.68818194,0.3624112,0.39753482,0.43311384,0.41827935,0.34583914,0.055657793,0.3566457,0.16818863,0.27156386,-0.2282309,-0.022901498,0.1315783,-0.43719137,-0.26462328,-0.4035048,-0.14974144,799.41394,792.96704,807.47253,799.011,1079.8535,-0.22613525390625,0.07916259765625,0.98150634765625,1.27105712890625,-1.375732421875,-3.147735595703125,1,1.0,1.0,1.0,1.0,15.00
2024-10-11 20:08:41.681,0.88217115,-0.06461759,0.6182042,0.68818194,0.3624112,0.36635408,0.29379836,0.41827935,0.34583914,0.10630886,0.3566457,0.16818863,0.27156386,-0.23340848,-0.03249068,0.1315783,-0.43719137,-0.25286284,-0.44104847,-0.14974144,819.9634,798.20514,806.26373,819.5604,1079.8535,-0.22613525390625,0.07916259765625,0.98150634765625,1.27105712890625,-1.375732421875,-3.147735595703125,1,1.0,1.0,1.0,1.0,15.00
2024-10-11 20:08:41.688,0.88217115,-0.06461759,0.6182042,0.68818194,0.3624112,0.36635408,0.29379836,0.41827935,0.34583914,0.10630886,0.3566457,0.16818863,0.27156386,-0.23340848,-0.03249068,0.1315783,-0.43719137,-0.25286284,-0.44104847,-0.14974144,816.337,807.8755,796.99634,809.0842,966.63007,-0.22613525390625,0.07916259765625,0.98150634765625,1.27105712890625,-1.375732421875,-3.147735595703125,1,1.0,1.0,1.0,1.0,15.00
2024-10-11 20:08:41.690,0.88217115,-0.06461759,0.6182042,0.68818194,0.3624112,0.36635408,0.29379836,0.41827935,0.34583914,0.10630886,0.3566457,0.16818863,0.27156386,-0.23340848,-0.03249068,0.1315783,-0.43719137,-0.25286284,-0.44104847,-0.14974144,791.75824,804.65204,795.78754,785.7143,958.1685,-0.22613525390625,0.07916259765625,0.98150634765625,1.27105712890625,-1.375732421875,-3.147735595703125,1,1.0,1.0,1.0,1.0,15.00
2024-10-11 20:08:41.691,0.88217115,-0.06461759,0.6182042,0.68818194,0.3624112,0.36635408,0.29379836,0.41827935,0.34583914,0.10630886,0.3566457,0.16818863,0.27156386,-0.23340848,-0.03249068,0.1315783,-0.43719137,-0.25286284,-0.44104847,-0.14974144,801.8315,802.6374,799.011,791.75824,784.5055,-0.22613525390625,0.07916259765625,0.98150634765625,1.27105712890625,-1.375732421875,-3.147735595703125,1,1.0,1.0,1.0,1.0,15.00
2024-10-11 20:08:41.693,0.88217115,-0.06461759,0.6182042,0.68818194,0.3624112,0.36635408,0.29379836,0.41827935,0.34583914,0.10630886,0.3566457,0.16818863,0.27156386,-0.23340848,-0.03249068,0.1315783,-0.43719137,-0.25286284,-0.44104847,-0.14974144,811.0989,800.2198,800.2198,803.0403,695.4579,-0.22613525390625,0.07916259765625,0.98150634765625,1.27105712890625,-1.375732421875,-3.147735595703125,1,1.0,1.0,1.0,1.0,15.00
2024-10-11 20:08:41.694,0.88217115,-0.06461759,0.6182042,0.68818194,0.3624112,0.36635408,0.29379836,0.41827935,0.34583914,0.10630886,0.3566457,0.16818863,0.27156386,-0.23340848,-0.03249068,0.1315783,-0.43719137,-0.25286284,-0.44104847,-0.14974144,811.9048,797.3993,799.81683,811.9048,811.50183,-0.22247314453125,0.07952880859375,0.9754638671875,0.426177978515625,-1.099090576171875,-3.701019287109375,1,1.0,1.0,1.0,1.0,15.00
2024-10-11 20:08:41.695,0.88217115,-0.06461759,0.6182042,0.68818194,0.3624112,0.36635408,0.29379836,0.41827935,0.34583914,0.10630886,0.3566457,0.16818863,0.27156386,-0.23340848,-0.03249068,0.1315783,-0.43719137,-0.25286284,-0.44104847,-0.14974144,803.8461,800.2198,799.81683,802.23444,836.4835,-0.22247314453125,0.07952880859375,0.9754638671875,0.426177978515625,-1.099090576171875,-3.701019287109375,1,1.0,1.0,1.0,1.0,15.00
2024-10-11 20:08:41.697,0.88217115,-0.06461759,0.6182042,0.68818194,0.3624112,0.36635408,0.29379836,0.41827935,0.34583914,0.10630886,0.3566457,0.16818863,0.27156386,-0.23340848,-0.03249068,0.1315783,-0.43719137,-0.25286284,-0.44104847,-0.14974144,781.685,803.0403,799.41394,781.685,771.6117,-0.22247314453125,0.07952880859375,0.9754638671875,0.426177978515625,-1.099090576171875,-3.701019287109375,1,1.0,1.0,1.0,1.0,15.00
2024-10-11 20:08:41.698,0.88217115,-0.06461759,0.6182042,0.68818194,0.3624112,0.36635408,0.29379836,0.41827935,0.34583914,0.10630886,0.3566457,0.16818863,0.27156386,-0.23340848,-0.03249068,0.1315783,-0.43719137,-0.25286284,-0.44104847,-0.14974144,779.2674,802.6374,793.36993,781.28204,775.2381,-0.22247314453125,0.07952880859375,0.9754638671875,0.426177978515625,-1.099090576171875,-3.701019287109375,1,1.0,1.0,1.0,1.0,15.00
2024-10-11 20:08:41.699,0.88217115,-0.06461759,0.6182042,0.68818194,0.3624112,0.36635408,0.29379836,0.41827935,0.34583914,0.10630886,0.3566457,0.16818863,0.27156386,-0.23340848,-0.03249068,0.1315783,-0.43719137,-0.25286284,-0.44104847,-0.14974144,784.10254,802.6374,789.34064,786.9231,951.31866,-0.22247314453125,0.07952880859375,0.9754638671875,0.426177978515625,-1.099090576171875,-3.701019287109375,1,1.0,1.0,1.0,1.0,15.00
2024-10-11 20:08:41.700,0.88217115,-0.06461759,0.6182042,0.68818194,0.3624112,0.36635408,0.29379836,0.41827935,0.34583914,0.10630886,0.3566457,0.16818863,0.27156386,-0.23340848,-0.03249068,0.1315783,-0.43719137,-0.25286284,-0.44104847,-0.14974144,786.52014,805.05493,790.9524,787.326,1052.8572,-0.22247314453125,0.07952880859375,0.9754638671875,0.426177978515625,-1.099090576171875,-3.701019287109375,1,1.0,1.0,1.0,1.0,15.00
2024-10-11 20:08:41.701,0.88217115,-0.06461759,0.6182042,0.68818194,0.3624112,0.36635408,0.29379836,0.41827935,0.34583914,0.10630886,0.3566457,0.16818863,0.27156386,-0.23340848,-0.03249068,0.1315783,-0.43719137,-0.25286284,-0.44104847,-0.14974144,791.75824,805.05493,794.17584,789.34064,835.2747,-0.22247314453125,0.07952880859375,0.9754638671875,0.426177978515625,-1.099090576171875,-3.701019287109375,1,1.0,1.0,1.0,1.0,15.00
2024-10-11 20:08:41.703,0.88217115,-0.06461759,0.6182042,0.68818194,0.3624112,0.36635408,0.29379836,0.41827935,0.34583914,0.10630886,0.3566457,0.16818863,0.27156386,-0.23340848,-0.03249068,0.1315783,-0.43719137,-0.25286284,-0.44104847,-0.14974144,789.34064,805.4579,792.96704,789.7436,788.1319,-0.22247314453125,0.07952880859375,0.9754638671875,0.426177978515625,-1.099090576171875,-3.701019287109375,1,1.0,1.0,1.0,1.0,15.00
2024-10-11 20:08:41.704,0.88217115,-0.06461759,0.6182042,0.68818194,0.3624112,0.36635408,0.29379836,0.41827935,0.34583914,0.10630886,0.3566457,0.16818863,0.27156386,-0.23340848,-0.03249068,0.1315783,-0.43719137,-0.25286284,-0.44104847,-0.14974144,786.1172,802.6374,791.75824,795.38464,1041.1721,-0.22247314453125,0.07952880859375,0.9754638671875,0.426177978515625,-1.099090576171875,-3.701019287109375,1,1.0,1.0,1.0,1.0,15.00
2024-10-11 20:08:41.706,0.88217115,-0.06461759,0.6182042,0.68818194,0.3624112,0.36635408,0.29379836,0.41827935,0.34583914,0.10630886,0.3566457,0.16818863,0.27156386,-0.23340848,-0.03249068,0.1315783,-0.43719137,-0.25286284,-0.44104847,-0.14974144,781.685,804.65204,794.17584,794.57874,868.315,-0.22247314453125,0.07952880859375,0.9754638671875,0.426177978515625,-1.099090576171875,-3.701019287109375,1,1.0,1.0,1.0,1.0,15.00
2024-10-11 20:08:41.707,0.88217115,-0.06461759,0.6182042,0.68818194,0.3624112,0.36635408,0.29379836,0.41827935,0.34583914,0.10630886,0.3566457,0.16818863,0.27156386,-0.23340848,-0.03249068,0.1315783,-0.43719137,-0.25286284,-0.44104847,-0.14974144,779.67035,808.68134,793.7729,782.0879,679.7436,-0.22247314453125,0.07952880859375,0.9754638671875,0.426177978515625,-1.099090576171875,-3.701019287109375,1,1.0,1.0,1.0,1.0,15.00
2024-10-11 20:08:41.708,0.88217115,-0.06461759,0.6182042,0.68818194,0.3624112,0.36635408,0.29379836,0.41827935,0.34583914,0.10630886,0.3566457,0.16818863,0.27156386,-0.23340848,-0.03249068,0.1315783,-0.43719137,-0.25286284,-0.44104847,-0.14974144,786.1172,808.68134,792.5641,782.0879,818.3516,-0.22247314453125,0.07952880859375,0.9754638671875,0.426177978515625,-1.099090576171875,-3.701019287109375,1,1.0,1.0,1.0,1.0,15.00
2024-10-11 20:08:41.778,0.88217115,-0.06461759,0.6182042,0.68818194,0.3624112,0.36635408,0.29379836,0.41827935,0.34583914,0.10630886,0.3566457,0.16818863,0.27156386,-0.23340848,-0.03249068,0.1315783,-0.43719137,-0.25286284,-0.44104847,-0.14974144,786.9231,807.0696,790.14655,789.34064,979.5238,-0.22900390625,0.06903076171875,0.978515625,0.2392578125,1.55517578125,-1.876678466796875,1,1.0,1.0,1.0,1.0,15.00
2024-10-11 20:08:41.779,0.88217115,-0.06461759,0.6182042,0.68818194,0.3624112,0.36635408,0.29379836,0.41827935,0.34583914,0.10630886,0.3566457,0.16818863,0.27156386,-0.23340848,-0.03249068,0.1315783,-0.43719137,-0.25286284,-0.44104847,-0.14974144,784.5055,806.26373,790.14655,788.5348,866.7033,-0.22900390625,0.06903076171875,0.978515625,0.2392578125,1.55517578125,-1.876678466796875,1,1.0,1.0,1.0,1.0,15.00
2024-10-11 20:08:41.780,0.88217115,-0.06461759,0.6182042,0.68818194,0.3624112,0.36635408,0.29379836,0.41827935,0.34583914,0.10630886,0.3566457,0.16818863,0.27156386,-0.23340848,-0.03249068,0.1315783,-0.43719137,-0.25286284,-0.44104847,-0.14974144,792.96704,809.4872,790.54944,789.7436,645.89746,-0.22900390625,0.06903076171875,0.978515625,0.2392578125,1.55517578125,-1.876678466796875,1,1.0,1.0,1.0,1.0,15.00
2024-10-11 20:08:41.781,0.88217115,-0.06461759,0.6182042,0.68818194,0.3624112,0.36635408,0.29379836,0.41827935,0.34583914,0.10630886,0.3566457,0.16818863,0.27156386,-0.23340848,-0.03249068,0.1315783,-0.43719137,-0.25286284,-0.44104847,-0.14974144,794.57874,809.89014,788.93774,794.57874,715.2015,-0.22900390625,0.06903076171875,0.978515625,0.2392578125,1.55517578125,-1.876678466796875,1,1.0,1.0,1.0,1.0,15.00
2024-10-11 20:08:41.782,0.88217115,-0.06461759,0.6182042,0.68818194,0.3624112,0.36635408,0.29379836,0.41827935,0.34583914,0.10630886,0.3566457,0.16818863,0.27156386,-0.23340848,-0.03249068,0.1315783,-0.43719137,-0.25286284,-0.44104847,-0.14974144,789.34064,809.0842,788.93774,789.7436,863.47986,-0.22900390625,0.06903076171875,0.978515625,0.2392578125,1.55517578125,-1.876678466796875,1,1.0,1.0,1.0,1.0,15.00
2024-10-11 20:08:41.783,0.88217115,-0.06461759,0.6182042,0.68818194,0.3624112,0.36635408,0.29379836,0.41827935,0.34583914,0.10630886,0.3566457,0.16818863,0.27156386,-0.23340848,-0.03249068,0.1315783,-0.43719137,-0.25286284,-0.44104847,-0.14974144,796.5934,810.696,789.34064,781.685,897.72894,-0.22900390625,0.06903076171875,0.978515625,0.2392578125,1.55517578125,-1.876678466796875,1,1.0,1.0,1.0,1.0,15.00
2024-10-11 20:08:41.784,0.88217115,-0.06461759,0.6182042,0.68818194,0.3624112,0.36635408,0.29379836,0.41827935,0.34583914,0.10630886,0.3566457,0.16818863,0.27156386,-0.23340848,-0.03249068,0.1315783,-0.43719137,-0.25286284,-0.44104847,-0.14974144,795.38464,811.0989,784.90845,782.8938,920.696,-0.22900390625,0.06903076171875,0.978515625,0.2392578125,1.55517578125,-1.876678466796875,1,1.0,1.0,1.0,1.0,15.00
2024-10-11 20:08:41.785,0.88217115,-0.06461759,0.6182042,0.68818194,0.3624112,0.36635408,0.29379836,0.41827935,0.34583914,0.10630886,0.3566457,0.16818863,0.27156386,-0.23340848,-0.03249068,0.1315783,-0.43719137,-0.25286284,-0.44104847,-0.14974144,784.10254,811.0989,786.52014,790.54944,892.0879,-0.22900390625,0.06903076171875,0.978515625,0.2392578125,1.55517578125,-1.876678466796875,1,1.0,1.0,1.0,1.0,15.00
2024-10-11 20:08:41.787,0.88217115,-0.06461759,0.6182042,0.68818194,0.3624112,0.36635408,0.29379836,0.41827935,0.34583914,0.10630886,0.3566457,0.16818863,0.27156386,-0.23340848,-0.03249068,0.1315783,-0.43719137,-0.25286284,-0.44104847,-0.14974144,788.1319,811.0989,790.9524,797.3993,900.54944,-0.22900390625,0.06903076171875,0.978515625,0.2392578125,1.55517578125,-1.876678466796875,1,1.0,1.0,1.0,1.0,15.00
2024-10-11 20:08:41.788,0.88217115,-0.07551509,0.5930696,0.68818194,0.3624112,0.32908255,0.26348558,0.41827935,0.34583914,0.11274885,0.3566457,0.16818863,0.27156386,-0.23269783,-0.037403263,0.1315783,-0.43719137,-0.26527017,-0.44954488,-0.14974144,791.3553,808.68134,788.1319,794.9817,720.84247,-0.22900390625,0.06903076171875,0.978515625,0.2392578125,1.55517578125,-1.876678466796875,1,1.0,1.0,1.0,1.0,15.00
2024-10-11 20:08:41.793,0.88217115,-0.07551509,0.5930696,0.68818194,0.3624112,0.32908255,0.26348558,0.41827935,0.34583914,0.11274885,0.3566457,0.16818863,0.27156386,-0.23269783,-0.037403263,0.1315783,-0.43719137,-0.26527017,-0.44954488,-0.14974144,788.5348,805.8608,786.1172,787.326,621.7216,-0.22900390625,0.06903076171875,0.978515625,0.2392578125,1.55517578125,-1.876678466796875,1,1.0,1.0,1.0,1.0,15.00
2024-10-11 20:08:41.794,0.88217115,-0.07551509,0.5930696,0.68818194,0.3624112,0.32908255,0.26348558,0.41827935,0.34583914,0.11274885,0.3566457,0.16818863,0.27156386,-0.23269783,-0.037403263,0.1315783,-0.43719137,-0.26527017,-0.44954488,-0.14974144,782.49084,806.26373,786.1172,790.14655,912.23444,-0.22900390625,0.06903076171875,0.978515625,0.2392578125,1.55517578125,-1.876678466796875,1,1.0,1.0,1.0,1.0,15.00
2024-10-11 20:08:41.796,0.88217115,-0.07551509,0.5930696,0.68818194,0.3624112,0.32908255,0.26348558,0.41827935,0.34583914,0.11274885,0.3566457,0.16818863,0.27156386,-0.23269783,-0.037403263,0.1315783,-0.43719137,-0.26527017,-0.44954488,-0.14974144,774.43225,802.6374,786.1172,791.75824,959.3773,-0.24072265625,0.0753173828125,0.9835205078125,1.27105712890625,2.429962158203125,-0.515899658203125,1,1.0,1.0,1.0,1.0,15.00
2024-10-11 20:08:41.797,0.88217115,-0.07551509,0.5930696,0.68818194,0.3624112,0.32908255,0.26348558,0.41827935,0.34583914,0.11274885,0.3566457,0.16818863,0.27156386,-0.23269783,-0.037403263,0.1315783,-0.43719137,-0.26527017,-0.44954488,-0.14974144,772.4176,805.05493,784.90845,787.72894,706.7399,-0.24072265625,0.0753173828125,0.9835205078125,1.27105712890625,2.429962158203125,-0.515899658203125,1,1.0,1.0,1.0,1.0,15.00
2024-10-11 20:08:41.798,0.88217115,-0.07551509,0.5930696,0.68818194,0.3624112,0.32908255,0.26348558,0.41827935,0.34583914,0.11274885,0.3566457,0.16818863,0.27156386,-0.23269783,-0.037403263,0.1315783,-0.43719137,-0.26527017,-0.44954488,-0.14974144,783.2967,811.50183,786.1172,796.5934,605.6044,-0.24072265625,0.0753173828125,0.9835205078125,1.27105712890625,2.429962158203125,-0.515899658203125,1,1.0,1.0,1.0,1.0,15.00
2024-10-11 20:08:41.799,0.88217115,-0.07551509,0.5930696,0.68818194,0.3624112,0.32908255,0.26348558,0.41827935,0.34583914,0.11274885,0.3566457,0.16818863,0.27156386,-0.23269783,-0.037403263,0.1315783,-0.43719137,-0.26527017,-0.44954488,-0.14974144,786.9231,806.26373,784.5055,798.20514,640.65936,-0.24072265625,0.0753173828125,0.9835205078125,1.27105712890625,2.429962158203125,-0.515899658203125,1,1.0,1.0,1.0,1.0,15.00
2024-10-11 20:08:41.800,0.88217115,-0.07551509,0.5930696,0.68818194,0.3624112,0.32908255,0.26348558,0.41827935,0.34583914,0.11274885,0.3566457,0.16818863,0.27156386,-0.23269783,-0.037403263,0.1315783,-0.43719137,-0.26527017,-0.44954488,-0.14974144,785.7143,803.44324,786.52014,794.57874,677.72894,-0.24072265625,0.0753173828125,0.9835205078125,1.27105712890625,2.429962158203125,-0.515899658203125,1,1.0,1.0,1.0,1.0,15.00
2024-10-11 20:08:41.802,0.88217115,-0.07551509,0.5930696,0.68818194,0.3624112,0.32908255,0.26348558,0.41827935,0.34583914,0.11274885,0.3566457,0.16818863,0.27156386,-0.23269783,-0.037403263,0.1315783,-0.43719137,-0.26527017,-0.44954488,-0.14974144,786.9231,805.4579,785.31134,790.14655,756.7033,-0.24072265625,0.0753173828125,0.9835205078125,1.27105712890625,2.429962158203125,-0.515899658203125,1,1.0,1.0,1.0,1.0,15.00
2024-10-11 20:08:41.803,0.88217115,-0.07551509,0.5930696,0.68818194,0.3624112,0.32908255,0.26348558,0.41827935,0.34583914,0.11274885,0.3566457,0.16818863,0.27156386,-0.23269783,-0.037403263,0.1315783,-0.43719137,-0.26527017,-0.44954488,-0.14974144,787.72894,804.2491,784.10254,781.685,814.7253,-0.24072265625,0.0753173828125,0.9835205078125,1.27105712890625,2.429962158203125,-0.515899658203125,1,1.0,1.0,1.0,1.0,15.00
2024-10-11 20:08:41.804,0.88217115,-0.07551509,0.5930696,0.68818194,0.3624112,0.32908255,0.26348558,0.41827935,0.34583914,0.11274885,0.3566457,0.16818863,0.27156386,-0.23269783,-0.037403263,0.1315783,-0.43719137,-0.26527017,-0.44954488,-0.14974144,788.5348,803.44324,786.52014,784.90845,805.05493,-0.24072265625,0.0753173828125,0.9835205078125,1.27105712890625,2.429962158203125,-0.515899658203125,1,1.0,1.0,1.0,1.0,15.00
2024-10-11 20:08:41.805,0.88217115,-0.07551509,0.5930696,0.68818194,0.3624112,0.32908255,0.26348558,0.41827935,0.34583914,0.11274885,0.3566457,0.16818863,0.27156386,-0.23269783,-0.037403263,0.1315783,-0.43719137,-0.26527017,-0.44954488,-0.14974144,784.5055,801.02563,786.52014,786.52014,727.28937,-0.24072265625,0.0753173828125,0.9835205078125,1.27105712890625,2.429962158203125,-0.515899658203125,1,1.0,1.0,1.0,1.0,15.00
2024-10-11 20:08:41.806,0.88217115,-0.07551509,0.5930696,0.68818194,0.3624112,0.32908255,0.26348558,0.41827935,0.34583914,0.11274885,0.3566457,0.16818863,0.27156386,-0.23269783,-0.037403263,0.1315783,-0.43719137,-0.26527017,-0.44954488,-0.14974144,784.10254,801.02563,783.69965,784.90845,655.56775,-0.24072265625,0.0753173828125,0.9835205078125,1.27105712890625,2.429962158203125,-0.515899658203125,1,1.0,1.0,1.0,1.0,15.00
2024-10-11 20:08:41.808,0.88217115,-0.07551509,0.5930696,0.68818194,0.3624112,0.32908255,0.26348558,0.41827935,0.34583914,0.11274885,0.3566457,0.16818863,0.27156386,-0.23269783,-0.037403263,0.1315783,-0.43719137,-0.26527017,-0.44954488,-0.14974144,793.36993,802.23444,786.9231,788.1319,718.4249,-0.24072265625,0.0753173828125,0.9835205078125,1.27105712890625,2.429962158203125,-0.515899658203125,1,1.0,1.0,1.0,1.0,15.00
2024-10-11 20:08:41.809,0.88217115,-0.07551509,0.5930696,0.68818194,0.3624112,0.32908255,0.26348558,0.41827935,0.34583914,0.11274885,0.3566457,0.16818863,0.27156386,-0.23269783,-0.037403263,0.1315783,-0.43719137,-0.26527017,-0.44954488,-0.14974144,792.1612,799.41394,794.17584,793.7729,939.6337,-0.24072265625,0.0753173828125,0.9835205078125,1.27105712890625,2.429962158203125,-0.515899658203125,1,1.0,1.0,1.0,1.0,15.00
2024-10-11 20:08:41.811,0.88217115,-0.07551509,0.5930696,0.68818194,0.3624112,0.32908255,0.26348558,0.41827935,0.34583914,0.11274885,0.3566457,0.16818863,0.27156386,-0.23269783,-0.037403263,0.1315783,-0.43719137,-0.26527017,-0.44954488,-0.14974144,784.90845,802.23444,796.5934,788.93774,805.4579,-0.24786376953125,0.08544921875,0.96197509765625,0.904693603515625,2.5421142578125,0.814971923828125,1,1.0,1.0,1.0,1.0,15.00
2024-10-11 20:08:41.813,0.88217115,-0.07551509,0.5930696,0.68818194,0.3624112,0.32908255,0.26348558,0.41827935,0.34583914,0.11274885,0.3566457,0.16818863,0.27156386,-0.23269783,-0.037403263,0.1315783,-0.43719137,-0.26527017,-0.44954488,-0.14974144,786.1172,806.6667,795.78754,788.5348,555.64105,-0.24786376953125,0.08544921875,0.96197509765625,0.904693603515625,2.5421142578125,0.814971923828125,1,1.0,1.0,1.0,1.0,15.00
2024-10-11 20:08:41.814,0.88217115,-0.07551509,0.5930696,0.68818194,0.3624112,0.32908255,0.26348558,0.41827935,0.34583914,0.11274885,0.3566457,0.16818863,0.27156386,-0.23269783,-0.037403263,0.1315783,-0.43719137,-0.26527017,-0.44954488,-0.14974144,787.72894,806.26373,797.8022,791.3553,718.022,-0.24786376953125,0.08544921875,0.96197509765625,0.904693603515625,2.5421142578125,0.814971923828125,1,1.0,1.0,1.0,1.0,15.00
2024-10-11 20:08:41.815,0.88217115,-0.07551509,0.5930696,0.68818194,0.3624112,0.32908255,0.26348558,0.41827935,0.34583914,0.11274885,0.3566457,0.16818863,0.27156386,-0.23269783,-0.037403263,0.1315783,-0.43719137,-0.26527017,-0.44954488,-0.14974144,782.0879,801.8315,797.3993,786.9231,894.90845,-0.24786376953125,0.08544921875,0.96197509765625,0.904693603515625,2.5421142578125,0.814971923828125,1,1.0,1.0,1.0,1.0,15.00
2024-10-11 20:08:41.817,0.88217115,-0.07551509,0.5930696,0.68818194,0.3624112,0.32908255,0.26348558,0.41827935,0.34583914,0.11274885,0.3566457,0.16818863,0.27156386,-0.23269783,-0.037403263,0.1315783,-0.43719137,-0.26527017,-0.44954488,-0.14974144,792.96704,804.65204,796.5934,785.31134,733.73627,-0.24786376953125,0.08544921875,0.96197509765625,0.904693603515625,2.5421142578125,0.814971923828125,1,1.0,1.0,1.0,1.0,15.00
2024-10-11 20:08:41.818,0.88217115,-0.07551509,0.5930696,0.68818194,0.3624112,0.32908255,0.26348558,0.41827935,0.34583914,0.11274885,0.3566457,0.16818863,0.27156386,-0.23269783,-0.037403263,0.1315783,-0.43719137,-0.26527017,-0.44954488,-0.14974144,792.96704,805.8608,792.1612,788.5348,731.7216,-0.24786376953125,0.08544921875,0.96197509765625,0.904693603515625,2.5421142578125,0.814971923828125,1,1.0,1.0,1.0,1.0,15.00
2024-10-11 20:08:41.819,0.88217115,-0.07551509,0.5930696,0.68818194,0.3624112,0.32908255,0.26348558,0.41827935,0.34583914,0.11274885,0.3566457,0.16818863,0.27156386,-0.23269783,-0.037403263,0.1315783,-0.43719137,-0.26527017,-0.44954488,-0.14974144,788.1319,803.0403,788.93774,791.75824,851.39197,-0.24786376953125,0.08544921875,0.96197509765625,0.904693603515625,2.5421142578125,0.814971923828125,1,1.0,1.0,1.0,1.0,15.00
2024-10-11 20:08:41.821,0.88217115,-0.07551509,0.5930696,0.68818194,0.3624112,0.32908255,0.26348558,0.41827935,0.34583914,0.11274885,0.3566457,0.16818863,0.27156386,-0.23269783,-0.037403263,0.1315783,-0.43719137,-0.26527017,-0.44954488,-0.14974144,792.1612,802.6374,790.9524,790.9524,861.8681,-0.24786376953125,0.08544921875,0.96197509765625,0.904693603515625,2.5421142578125,0.814971923828125,1,1.0,1.0,1.0,1.0,15.00
2024-10-11 20:08:41.823,0.88217115,-0.07551509,0.5930696,0.68818194,0.3624112,0.32908255,0.26348558,0.41827935,0.34583914,0.11274885,0.3566457,0.16818863,0.27156386,-0.23269783,-0.037403263,0.1315783,-0.43719137,-0.26527017,-0.44954488,-0.14974144,783.69965,802.6374,793.36993,788.1319,736.1539,-0.24786376953125,0.08544921875,0.96197509765625,0.904693603515625,2.5421142578125,0.814971923828125,1,1.0,1.0,1.0,1.0,15.00
2024-10-11 20:08:41.826,0.88217115,-0.07551509,0.5930696,0.68818194,0.3624112,0.32908255,0.26348558,0.41827935,0.34583914,0.11274885,0.3566457,0.16818863,0.27156386,-0.23269783,-0.037403263,0.1315783,-0.43719137,-0.26527017,-0.44954488,-0.14974144,782.8938,799.81683,794.17584,785.31134,680.54944,-0.24786376953125,0.08544921875,0.96197509765625,0.904693603515625,2.5421142578125,0.814971923828125,1,1.0,1.0,1.0,1.0,15.00
2024-10-11 20:08:41.828,0.88217115,-0.07551509,0.5930696,0.68818194,0.3624112,0.32908255,0.26348558,0.41827935,0.34583914,0.11274885,0.3566457,0.16818863,0.27156386,-0.23269783,-0.037403263,0.1315783,-0.43719137,-0.26527017,-0.44954488,-0.14974144,783.69965,796.99634,794.57874,784.90845,766.3736,-0.24786376953125,0.08544921875,0.96197509765625,0.904693603515625,2.5421142578125,0.814971923828125,1,1.0,1.0,1.0,1.0,15.00
2024-10-11 20:08:41.830,0.88217115,-0.090488695,0.57108104,0.68818194,0.3624112,0.2897966,0.23824185,0.41827935,0.34583914,0.11274885,0.3566457,0.16818863,0.27156386,-0.2257375,-0.042331256,0.1315783,-0.43719137,-0.28966323,-0.4603978,-0.14974144,779.67035,797.3993,794.57874,790.14655,831.2454,-0.24786376953125,0.08544921875,0.96197509765625,0.904693603515625,2.5421142578125,0.814971923828125,1,1.0,1.0,1.0,1.0,15.00
2024-10-11 20:08:41.905,0.88217115,-0.090488695,0.57108104,0.68818194,0.3624112,0.2897966,0.23824185,0.41827935,0.34583914,0.11274885,0.3566457,0.16818863,0.27156386,-0.2257375,-0.042331256,0.1315783,-0.43719137,-0.28966323,-0.4603978,-0.14974144,783.2967,802.23444,789.34064,784.5055,714.7985,-0.24786376953125,0.08544921875,0.96197509765625,0.904693603515625,2.5421142578125,0.814971923828125,1,1.0,1.0,1.0,1.0,15.00
2024-10-11 20:08:41.906,0.88217115,-0.090488695,0.57108104,0.68818194,0.3624112,0.2897966,0.23824185,0.41827935,0.34583914,0.11274885,0.3566457,0.16818863,0.27156386,-0.2257375,-0.042331256,0.1315783,-0.43719137,-0.28966323,-0.4603978,-0.14974144,790.14655,805.8608,789.34064,785.7143,705.9341,-0.24786376953125,0.08544921875,0.96197509765625,0.904693603515625,2.5421142578125,0.814971923828125,1,1.0,1.0,1.0,1.0,15.00
2024-10-11 20:08:41.907,0.88217115,-0.090488695,0.57108104,0.68818194,0.3624112,0.2897966,0.23824185,0.41827935,0.34583914,0.11274885,0.3566457,0.16818863,0.27156386,-0.2257375,-0.042331256,0.1315783,-0.43719137,-0.28966323,-0.4603978,-0.14974144,788.5348,804.2491,793.36993,792.1612,915.05493,-0.24786376953125,0.08544921875,0.96197509765625,0.904693603515625,2.5421142578125,0.814971923828125,1,1.0,1.0,1.0,1.0,15.00
2024-10-11 20:08:41.908,0.88217115,-0.090488695,0.57108104,0.68818194,0.3624112,0.2897966,0.23824185,0.41827935,0.34583914,0.11274885,0.3566457,0.16818863,0.27156386,-0.2257375,-0.042331256,0.1315783,-0.43719137,-0.28966323,-0.4603978,-0.14974144,777.6557,802.6374,792.5641,786.52014,933.5897,-0.24786376953125,0.08544921875,0.96197509765625,0.904693603515625,2.5421142578125,0.814971923828125,1,1.0,1.0,1.0,1.0,15.00
2024-10-11 20:08:41.909,0.88217115,-0.090488695,0.57108104,0.68818194,0.3624112,0.2897966,0.23824185,0.41827935,0.34583914,0.11274885,0.3566457,0.16818863,0.27156386,-0.2257375,-0.042331256,0.1315783,-0.43719137,-0.28966323,-0.4603978,-0.14974144,776.04395,805.05493,793.7729,784.10254,769.59705,-0.24786376953125,0.08544921875,0.96197509765625,0.904693603515625,2.5421142578125,0.814971923828125,1,1.0,1.0,1.0,1.0,15.00
2024-10-11 20:08:41.910,0.88217115,-0.090488695,0.57108104,0.68818194,0.3624112,0.2897966,0.23824185,0.41827935,0.34583914,0.11274885,0.3566457,0.16818863,0.27156386,-0.2257375,-0.042331256,0.1315783,-0.43719137,-0.28966323,-0.4603978,-0.14974144,780.4762,807.47253,798.60803,787.326,891.28204,-0.24786376953125,0.08544921875,0.96197509765625,0.904693603515625,2.5421142578125,0.814971923828125,1,1.0,1.0,1.0,1.0,15.00
2024-10-11 20:08:41.911,0.88217115,-0.090488695,0.57108104,0.68818194,0.3624112,0.2897966,0.23824185,0.41827935,0.34583914,0.11274885,0.3566457,0.16818863,0.27156386,-0.2257375,-0.042331256,0.1315783,-0.43719137,-0.28966323,-0.4603978,-0.14974144,775.64105,805.4579,798.60803,785.7143,1109.6703,-0.24786376953125,0.08544921875,0.96197509765625,0.904693603515625,2.5421142578125,0.814971923828125,1,1.0,1.0,1.0,1.0,15.00
2024-10-11 20:08:41.912,0.88217115,-0.090488695,0.57108104,0.68818194,0.3624112,0.2897966,0.23824185,0.41827935,0.34583914,0.11274885,0.3566457,0.16818863,0.27156386,-0.2257375,-0.042331256,0.1315783,-0.43719137,-0.28966323,-0.4603978,-0.14974144,774.0293,805.8608,796.1905,789.7436,1057.6923,-0.24786376953125,0.08544921875,0.96197509765625,0.904693603515625,2.5421142578125,0.814971923828125,1,1.0,1.0,1.0,1.0,15.00
2024-10-11 20:08:41.913,0.88217115,-0.090488695,0.57108104,0.68818194,0.3624112,0.2897966,0.23824185,0.41827935,0.34583914,0.11274885,0.3566457,0.16818863,0.27156386,-0.2257375,-0.042331256,0.1315783,-0.43719137,-0.28966323,-0.4603978,-0.14974144,776.8498,807.0696,794.9817,790.9524,754.2857,-0.24786376953125,0.08544921875,0.96197509765625,0.904693603515625,2.5421142578125,0.814971923828125,1,1.0,1.0,1.0,1.0,15.00
2024-10-11 20:08:41.914,0.88217115,-0.090488695,0.57108104,0.68818194,0.3624112,0.2897966,0.23824185,0.41827935,0.34583914,0.11274885,0.3566457,0.16818863,0.27156386,-0.2257375,-0.042331256,0.1315783,-0.43719137,-0.28966323,-0.4603978,-0.14974144,775.64105,802.6374,790.9524,782.8938,713.9927,-0.24786376953125,0.08544921875,0.96197509765625,0.904693603515625,2.5421142578125,0.814971923828125,1,1.0,1.0,1.0,1.0,15.00
2024-10-11 20:08:41.914,0.88217115,-0.090488695,0.57108104,0.68818194,0.3624112,0.2897966,0.23824185,0.41827935,0.34583914,0.11274885,0.3566457,0.16818863,0.27156386,-0.2257375,-0.042331256,0.1315783,-0.43719137,-0.28966323,-0.4603978,-0.14974144,774.43225,795.78754,790.54944,783.69965,949.304,-0.24786376953125,0.08544921875,0.96197509765625,0.904693603515625,2.5421142578125,0.814971923828125,1,1.0,1.0,1.0,1.0,15.00
2024-10-11 20:08:41.915,0.88217115,-0.090488695,0.57108104,0.68818194,0.3624112,0.2897966,0.23824185,0.41827935,0.34583914,0.11274885,0.3566457,0.16818863,0.27156386,-0.2257375,-0.042331256,0.1315783,-0.43719137,-0.28966323,-0.4603978,-0.14974144,775.64105,800.2198,796.5934,789.7436,863.0769,-0.24786376953125,0.08544921875,0.96197509765625,0.904693603515625,2.5421142578125,0.814971923828125,1,1.0,1.0,1.0,1.0,15.00
2024-10-11 20:08:41.916,0.88217115,-0.090488695,0.57108104,0.68818194,0.3624112,0.2897966,0.23824185,0.41827935,0.34583914,0.11274885,0.3566457,0.16818863,0.27156386,-0.2257375,-0.042331256,0.1315783,-0.43719137,-0.28966323,-0.4603978,-0.14974144,775.2381,805.4579,799.011,793.36993,647.9121,-0.26324462890625,0.08148193359375,0.97564697265625,-0.0,3.072967529296875,0.785064697265625,1,1.0,1.0,1.0,1.0,15.00
2024-10-11 20:08:41.917,0.88217115,-0.090488695,0.57108104,0.68818194,0.3624112,0.2897966,0.23824185,0.41827935,0.34583914,0.11274885,0.3566457,0.16818863,0.27156386,-0.2257375,-0.042331256,0.1315783,-0.43719137,-0.28966323,-0.4603978,-0.14974144,773.6264,801.02563,795.38464,791.3553,645.89746,-0.26324462890625,0.08148193359375,0.97564697265625,-0.0,3.072967529296875,0.785064697265625,1,1.0,1.0,1.0,1.0,15.00
2024-10-11 20:08:41.918,0.88217115,-0.090488695,0.57108104,0.68818194,0.3624112,0.2897966,0.23824185,0.41827935,0.34583914,0.11274885,0.3566457,0.16818863,0.27156386,-0.2257375,-0.042331256,0.1315783,-0.43719137,-0.28966323,-0.4603978,-0.14974144,774.83514,801.4286,797.3993,783.69965,781.28204,-0.26324462890625,0.08148193359375,0.97564697265625,-0.0,3.072967529296875,0.785064697265625,1,1.0,1.0,1.0,1.0,15.00
2024-10-11 20:08:41.919,0.88217115,-0.090488695,0.57108104,0.68818194,0.3624112,0.2897966,0.23824185,0.41827935,0.34583914,0.11274885,0.3566457,0.16818863,0.27156386,-0.2257375,-0.042331256,0.1315783,-0.43719137,-0.28966323,-0.4603978,-0.14974144,773.22345,800.2198,799.81683,787.326,705.5311,-0.26324462890625,0.08148193359375,0.97564697265625,-0.0,3.072967529296875,0.785064697265625,1,1.0,1.0,1.0,1.0,15.00
2024-10-11 20:08:41.920,0.88217115,-0.090488695,0.57108104,0.68818194,0.3624112,0.2897966,0.23824185,0.41827935,0.34583914,0.11274885,0.3566457,0.16818863,0.27156386,-0.2257375,-0.042331256,0.1315783,-0.43719137,-0.28966323,-0.4603978,-0.14974144,772.4176,800.6227,795.78754,785.7143,556.8498,-0.26324462890625,0.08148193359375,0.97564697265625,-0.0,3.072967529296875,0.785064697265625,1,1.0,1.0,1.0,1.0,15.00
2024-10-11 20:08:41.922,0.88217115,-0.090488695,0.57108104,0.68818194,0.3624112,0.2897966,0.23824185,0.41827935,0.34583914,0.11274885,0.3566457,0.16818863,0.27156386,-0.2257375,-0.042331256,0.1315783,-0.43719137,-0.28966323,-0.4603978,-0.14974144,777.6557,800.6227,797.3993,783.69965,786.52014,-0.26324462890625,0.08148193359375,0.97564697265625,-0.0,3.072967529296875,0.785064697265625,1,1.0,1.0,1.0,1.0,15.00
2024-10-11 20:08:41.923,0.88217115,-0.090488695,0.57108104,0.68818194,0.3624112,0.2897966,0.23824185,0.41827935,0.34583914,0.11274885,0.3566457,0.16818863,0.27156386,-0.2257375,-0.042331256,0.1315783,-0.43719137,-0.28966323,-0.4603978,-0.14974144,775.2381,796.5934,797.3993,788.93774,1033.9194,-0.26324462890625,0.08148193359375,0.97564697265625,-0.0,3.072967529296875,0.785064697265625,1,1.0,1.0,1.0,1.0,15.00
2024-10-11 20:08:41.924,0.88217115,-0.090488695,0.57108104,0.68818194,0.3624112,0.2897966,0.23824185,0.41827935,0.34583914,0.11274885,0.3566457,0.16818863,0.27156386,-0.2257375,-0.042331256,0.1315783,-0.43719137,-0.28966323,-0.4603978,-0.14974144,776.04395,796.99634,791.3553,784.5055,909.011,-0.26324462890625,0.08148193359375,0.97564697265625,-0.0,3.072967529296875,0.785064697265625,1,1.0,1.0,1.0,1.0,15.00
2024-10-11 20:08:41.924,0.88217115,-0.090488695,0.57108104,0.68818194,0.3624112,0.2897966,0.23824185,0.41827935,0.34583914,0.11274885,0.3566457,0.16818863,0.27156386,-0.2257375,-0.042331256,0.1315783,-0.43719137,-0.28966323,-0.4603978,-0.14974144,776.04395,800.2198,790.9524,782.8938,799.81683,-0.26324462890625,0.08148193359375,0.97564697265625,-0.0,3.072967529296875,0.785064697265625,1,1.0,1.0,1.0,1.0,15.00
2024-10-11 20:08:41.925,0.88217115,-0.090488695,0.57108104,0.68818194,0.3624112,0.2897966,0.23824185,0.41827935,0.34583914,0.11274885,0.3566457,0.16818863,0.27156386,-0.2257375,-0.042331256,0.1315783,-0.43719137,-0.28966323,-0.4603978,-0.14974144,778.46155,798.60803,788.93774,787.72894,774.83514,-0.26324462890625,0.08148193359375,0.97564697265625,-0.0,3.072967529296875,0.785064697265625,1,1.0,1.0,1.0,1.0,15.00
2024-10-11 20:08:41.926,0.88217115,-0.090488695,0.57108104,0.68818194,0.3624112,0.2897966,0.23824185,0.41827935,0.34583914,0.11274885,0.3566457,0.16818863,0.27156386,-0.2257375,-0.042331256,0.1315783,-0.43719137,-0.28966323,-0.4603978,-0.14974144,781.685,793.7729,784.90845,790.54944,1130.2197,-0.26324462890625,0.08148193359375,0.97564697265625,-0.0,3.072967529296875,0.785064697265625,1,1.0,1.0,1.0,1.0,15.00
2024-10-11 20:08:41.927,0.88217115,-0.090488695,0.57108104,0.68818194,0.3624112,0.2897966,0.23824185,0.41827935,0.34583914,0.11274885,0.3566457,0.16818863,0.27156386,-0.2257375,-0.042331256,0.1315783,-0.43719137,-0.28966323,-0.4603978,-0.14974144,776.4469,803.8461,793.7729,787.72894,1083.4799,-0.26324462890625,0.08148193359375,0.97564697265625,-0.0,3.072967529296875,0.785064697265625,1,1.0,1.0,1.0,1.0,15.00
2024-10-11 20:08:41.928,0.88217115,-0.090488695,0.57108104,0.68818194,0.3624112,0.2897966,0.23824185,0.41827935,0.34583914,0.11274885,0.3566457,0.16818863,0.27156386,-0.2257375,-0.042331256,0.1315783,-0.43719137,-0.28966323,-0.4603978,-0.14974144,777.25275,807.8755,795.38464,779.2674,762.74725,-0.26092529296875,0.08172607421875,0.96429443359375,0.171966552734375,3.45428466796875,-0.814971923828125,1,1.0,1.0,1.0,1.0,15.00
2024-10-11 20:08:41.929,0.88217115,-0.102742665,0.55876726,0.68818194,0.3624112,0.25618955,0.22036916,0.41827935,0.34583914,0.11274885,0.3566457,0.16818863,0.27156386,-0.21473822,-0.047513954,0.1315783,-0.43719137,-0.31483033,-0.47200873,-0.14974144,775.64105,804.65204,788.1319,773.22345,769.19415,-0.26092529296875,0.08172607421875,0.96429443359375,0.171966552734375,3.45428466796875,-0.814971923828125,1,1.0,1.0,1.0,1.0,15.00
2024-10-11 20:08:41.933,0.88217115,-0.102742665,0.55876726,0.68818194,0.3624112,0.25618955,0.22036916,0.41827935,0.34583914,0.11274885,0.3566457,0.16818863,0.27156386,-0.21473822,-0.047513954,0.1315783,-0.43719137,-0.31483033,-0.47200873,-0.14974144,772.01465,806.26373,788.5348,775.2381,805.8608,-0.26092529296875,0.08172607421875,0.96429443359375,0.171966552734375,3.45428466796875,-0.814971923828125,1,1.0,1.0,1.0,1.0,15.00
2024-10-11 20:08:41.934,0.88217115,-0.102742665,0.55876726,0.68818194,0.3624112,0.25618955,0.22036916,0.41827935,0.34583914,0.11274885,0.3566457,0.16818863,0.27156386,-0.21473822,-0.047513954,0.1315783,-0.43719137,-0.31483033,-0.47200873,-0.14974144,776.04395,806.6667,790.14655,777.6557,682.96704,-0.26092529296875,0.08172607421875,0.96429443359375,0.171966552734375,3.45428466796875,-0.814971923828125,1,1.0,1.0,1.0,1.0,15.00
2024-10-11 20:08:41.934,0.88217115,-0.102742665,0.55876726,0.68818194,0.3624112,0.25618955,0.22036916,0.41827935,0.34583914,0.11274885,0.3566457,0.16818863,0.27156386,-0.21473822,-0.047513954,0.1315783,-0.43719137,-0.31483033,-0.47200873,-0.14974144,771.2088,803.0403,788.1319,776.4469,592.3077,-0.26092529296875,0.08172607421875,0.96429443359375,0.171966552734375,3.45428466796875,-0.814971923828125,1,1.0,1.0,1.0,1.0,15.00
2024-10-11 20:08:41.935,0.88217115,-0.102742665,0.55876726,0.68818194,0.3624112,0.25618955,0.22036916,0.41827935,0.34583914,0.11274885,0.3566457,0.16818863,0.27156386,-0.21473822,-0.047513954,0.1315783,-0.43719137,-0.31483033,-0.47200873,-0.14974144,774.83514,798.20514,787.326,778.86444,932.7839,-0.26092529296875,0.08172607421875,0.96429443359375,0.171966552734375,3.45428466796875,-0.814971923828125,1,1.0,1.0,1.0,1.0,15.00
2024-10-11 20:08:41.936,0.88217115,-0.102742665,0.55876726,0.68818194,0.3624112,0.25618955,0.22036916,0.41827935,0.34583914,0.11274885,0.3566457,0.16818863,0.27156386,-0.21473822,-0.047513954,0.1315783,-0.43719137,-0.31483033,-0.47200873,-0.14974144,774.43225,796.5934,785.7143,781.685,1370.7693,-0.26092529296875,0.08172607421875,0.96429443359375,0.171966552734375,3.45428466796875,-0.814971923828125,1,1.0,1.0,1.0,1.0,15.00
2024-10-11 20:08:41.937,0.88217115,-0.102742665,0.55876726,0.68818194,0.3624112,0.25618955,0.22036916,0.41827935,0.34583914,0.11274885,0.3566457,0.16818863,0.27156386,-0.21473822,-0.047513954,0.1315783,-0.43719137,-0.31483033,-0.47200873,-0.14974144,769.59705,802.23444,788.5348,778.86444,980.32965,-0.26092529296875,0.08172607421875,0.96429443359375,0.171966552734375,3.45428466796875,-0.814971923828125,1,1.0,1.0,1.0,1.0,15.00
2024-10-11 20:08:41.938,0.88217115,-0.102742665,0.55876726,0.68818194,0.3624112,0.25618955,0.22036916,0.41827935,0.34583914,0.11274885,0.3566457,0.16818863,0.27156386,-0.21473822,-0.047513954,0.1315783,-0.43719137,-0.31483033,-0.47200873,-0.14974144,773.6264,805.8608,795.78754,778.0586,590.696,-0.26092529296875,0.08172607421875,0.96429443359375,0.171966552734375,3.45428466796875,-0.814971923828125,1,1.0,1.0,1.0,1.0,15.00
2024-10-11 20:08:41.939,0.88217115,-0.102742665,0.55876726,0.68818194,0.3624112,0.25618955,0.22036916,0.41827935,0.34583914,0.11274885,0.3566457,0.16818863,0.27156386,-0.21473822,-0.047513954,0.1315783,-0.43719137,-0.31483033,-0.47200873,-0.14974144,775.64105,797.3993,796.1905,781.685,875.16486,-0.26092529296875,0.08172607421875,0.96429443359375,0.171966552734375,3.45428466796875,-0.814971923828125,1,1.0,1.0,1.0,1.0,15.00
2024-10-11 20:08:41.940,0.88217115,-0.102742665,0.55876726,0.68818194,0.3624112,0.25618955,0.22036916,0.41827935,0.34583914,0.11274885,0.3566457,0.16818863,0.27156386,-0.21473822,-0.047513954,0.1315783,-0.43719137,-0.31483033,-0.47200873,-0.14974144,777.25275,799.41394,791.75824,780.87915,1266.8132,-0.26092529296875,0.08172607421875,0.96429443359375,0.171966552734375,3.45428466796875,-0.814971923828125,1,1.0,1.0,1.0,1.0,15.00
2024-10-11 20:08:41.941,0.88217115,-0.102742665,0.55876726,0.68818194,0.3624112,0.25618955,0.22036916,0.41827935,0.34583914,0.11274885,0.3566457,0.16818863,0.27156386,-0.21473822,-0.047513954,0.1315783,-0.43719137,-0.31483033,-0.47200873,-0.14974144,772.8205,809.0842,791.75824,778.0586,925.9341,-0.26092529296875,0.08172607421875,0.96429443359375,0.171966552734375,3.45428466796875,-0.814971923828125,1,1.0,1.0,1.0,1.0,15.00
2024-10-11 20:08:41.943,0.88217115,-0.102742665,0.55876726,0.68818194,0.3624112,0.25618955,0.22036916,0.41827935,0.34583914,0.11274885,0.3566457,0.16818863,0.27156386,-0.21473822,-0.047513954,0.1315783,-0.43719137,-0.31483033,-0.47200873,-0.14974144,772.4176,807.47253,793.36993,781.685,692.6374,-0.26800537109375,0.08056640625,0.973388671875,-0.3289794921875,2.041168212890625,-1.323394775390625,1,1.0,1.0,1.0,1.0,15.00
2024-10-11 20:08:41.944,0.88217115,-0.102742665,0.55876726,0.68818194,0.3624112,0.25618955,0.22036916,0.41827935,0.34583914,0.11274885,0.3566457,0.16818863,0.27156386,-0.21473822,-0.047513954,0.1315783,-0.43719137,-0.31483033,-0.47200873,-0.14974144,774.43225,807.0696,796.5934,788.5348,1016.1905,-0.26800537109375,0.08056640625,0.973388671875,-0.3289794921875,2.041168212890625,-1.323394775390625,1,1.0,1.0,1.0,1.0,15.00
2024-10-11 20:08:41.945,0.88217115,-0.102742665,0.55876726,0.68818194,0.3624112,0.25618955,0.22036916,0.41827935,0.34583914,0.11274885,0.3566457,0.16818863,0.27156386,-0.21473822,-0.047513954,0.1315783,-0.43719137,-0.31483033,-0.47200873,-0.14974144,774.0293,805.4579,796.1905,792.1612,1195.8975,-0.26800537109375,0.08056640625,0.973388671875,-0.3289794921875,2.041168212890625,-1.323394775390625,1,1.0,1.0,1.0,1.0,15.00
2024-10-11 20:08:41.946,0.88217115,-0.102742665,0.55876726,0.68818194,0.3624112,0.25618955,0.22036916,0.41827935,0.34583914,0.11274885,0.3566457,0.16818863,0.27156386,-0.21473822,-0.047513954,0.1315783,-0.43719137,-0.31483033,-0.47200873,-0.14974144,768.7912,802.6374,797.8022,785.31134,839.707,-0.26800537109375,0.08056640625,0.973388671875,-0.3289794921875,2.041168212890625,-1.323394775390625,1,1.0,1.0,1.0,1.0,15.00
2024-10-11 20:08:41.947,0.88217115,-0.102742665,0.55876726,0.68818194,0.3624112,0.25618955,0.22036916,0.41827935,0.34583914,0.11274885,0.3566457,0.16818863,0.27156386,-0.21473822,-0.047513954,0.1315783,-0.43719137,-0.31483033,-0.47200873,-0.14974144,765.9707,804.2491,794.9817,784.10254,683.7729,-0.26800537109375,0.08056640625,0.973388671875,-0.3289794921875,2.041168212890625,-1.323394775390625,1,1.0,1.0,1.0,1.0,15.00
2024-10-11 20:08:41.948,0.88217115,-0.102742665,0.55876726,0.68818194,0.3624112,0.25618955,0.22036916,0.41827935,0.34583914,0.11274885,0.3566457,0.16818863,0.27156386,-0.21473822,-0.047513954,0.1315783,-0.43719137,-0.31483033,-0.47200873,-0.14974144,767.98535,807.0696,791.3553,788.1319,1070.1831,-0.26800537109375,0.08056640625,0.973388671875,-0.3289794921875,2.041168212890625,-1.323394775390625,1,1.0,1.0,1.0,1.0,15.00
2024-10-11 20:08:41.950,0.88217115,-0.102742665,0.55876726,0.68818194,0.3624112,0.25618955,0.22036916,0.41827935,0.34583914,0.11274885,0.3566457,0.16818863,0.27156386,-0.21473822,-0.047513954,0.1315783,-0.43719137,-0.31483033,-0.47200873,-0.14974144,775.64105,810.293,792.96704,780.4762,926.7399,-0.26800537109375,0.08056640625,0.973388671875,-0.3289794921875,2.041168212890625,-1.323394775390625,1,1.0,1.0,1.0,1.0,15.00
2024-10-11 20:08:41.950,0.88217115,-0.102742665,0.55876726,0.68818194,0.3624112,0.25618955,0.22036916,0.41827935,0.34583914,0.11274885,0.3566457,0.16818863,0.27156386,-0.21473822,-0.047513954,0.1315783,-0.43719137,-0.31483033,-0.47200873,-0.14974144,772.8205,811.0989,797.8022,776.4469,648.315,-0.26800537109375,0.08056640625,0.973388671875,-0.3289794921875,2.041168212890625,-1.323394775390625,1,1.0,1.0,1.0,1.0,15.00
2024-10-11 20:08:41.951,0.88217115,-0.102742665,0.55876726,0.68818194,0.3624112,0.25618955,0.22036916,0.41827935,0.34583914,0.11274885,0.3566457,0.16818863,0.27156386,-0.21473822,-0.047513954,0.1315783,-0.43719137,-0.31483033,-0.47200873,-0.14974144,763.1502,807.8755,792.1612,778.86444,677.326,-0.26800537109375,0.08056640625,0.973388671875,-0.3289794921875,2.041168212890625,-1.323394775390625,1,1.0,1.0,1.0,1.0,15.00
2024-10-11 20:08:41.952,0.88217115,-0.102742665,0.55876726,0.68818194,0.3624112,0.25618955,0.22036916,0.41827935,0.34583914,0.11274885,0.3566457,0.16818863,0.27156386,-0.21473822,-0.047513954,0.1315783,-0.43719137,-0.31483033,-0.47200873,-0.14974144,765.9707,805.05493,778.46155,784.5055,944.87177,-0.26800537109375,0.08056640625,0.973388671875,-0.3289794921875,2.041168212890625,-1.323394775390625,1,1.0,1.0,1.0,1.0,15.00
2024-10-11 20:08:41.953,0.88217115,-0.102742665,0.55876726,0.68818194,0.3624112,0.25618955,0.22036916,0.41827935,0.34583914,0.11274885,0.3566457,0.16818863,0.27156386,-0.21473822,-0.047513954,0.1315783,-0.43719137,-0.31483033,-0.47200873,-0.14974144,770.80585,810.293,790.9524,781.28204,790.54944,-0.26800537109375,0.08056640625,0.973388671875,-0.3289794921875,2.041168212890625,-1.323394775390625,1,1.0,1.0,1.0,1.0,15.00
2024-10-11 20:08:41.954,0.88217115,-0.102742665,0.55876726,0.68818194,0.3624112,0.25618955,0.22036916,0.41827935,0.34583914,0.11274885,0.3566457,0.16818863,0.27156386,-0.21473822,-0.047513954,0.1315783,-0.43719137,-0.31483033,-0.47200873,-0.14974144,773.22345,812.3077,798.20514,777.6557,626.1539,-0.26800537109375,0.08056640625,0.973388671875,-0.3289794921875,2.041168212890625,-1.323394775390625,1,1.0,1.0,1.0,1.0,15.00
2024-10-11 20:08:41.955,0.88217115,-0.102742665,0.55876726,0.68818194,0.3624112,0.25618955,0.22036916,0.41827935,0.34583914,0.11274885,0.3566457,0.16818863,0.27156386,-0.21473822,-0.047513954,0.1315783,-0.43719137,-0.31483033,-0.47200873,-0.14974144,772.4176,809.0842,798.60803,784.10254,743.4066,-0.2620849609375,0.07696533203125,0.97454833984375,-0.351409912109375,1.772003173828125,-0.94207763671875,1,1.0,1.0,1.0,1.0,15.00
2024-10-11 20:08:41.956,0.88217115,-0.102742665,0.55876726,0.68818194,0.3624112,0.25618955,0.22036916,0.41827935,0.34583914,0.11274885,0.3566457,0.16818863,0.27156386,-0.21473822,-0.047513954,0.1315783,-0.43719137,-0.31483033,-0.47200873,-0.14974144,769.59705,808.2784,798.20514,784.5055,828.022,-0.2620849609375,0.07696533203125,0.97454833984375,-0.351409912109375,1.772003173828125,-0.94207763671875,1,1.0,1.0,1.0,1.0,15.00
2024-10-11 20:08:41.957,0.88217115,-0.102742665,0.55876726,0.68818194,0.3624112,0.25618955,0.22036916,0.41827935,0.34583914,0.11274885,0.3566457,0.16818863,0.27156386,-0.21473822,-0.047513954,0.1315783,-0.43719137,-0.31483033,-0.47200873,-0.14974144,772.4176,810.293,792.96704,782.49084,766.3736,-0.2620849609375,0.07696533203125,0.97454833984375,-0.351409912109375,1.772003173828125,-0.94207763671875,1,1.0,1.0,1.0,1.0,15.00
2024-10-11 20:08:41.958,0.88217115,-0.10483146,0.32567275,0.68818194,0.3624112,0.2325439,-0.09258117,0.41827935,0.34583914,0.11274885,0.26661366,0.16818863,0.27156386,-0.20506415,-0.05530234,0.1315783,-0.43719137,-0.33567202,-0.4823715,-0.14974144,774.83514,807.47253,791.75824,774.43225,602.7839,-0.2620849609375,0.07696533203125,0.97454833984375,-0.351409912109375,1.772003173828125,-0.94207763671875,1,1.0,1.0,1.0,1.0,15.00
2024-10-11 20:08:41.962,0.88217115,-0.10483146,0.32567275,0.68818194,0.3624112,0.2325439,-0.09258117,0.41827935,0.34583914,0.11274885,0.26661366,0.16818863,0.27156386,-0.20506415,-0.05530234,0.1315783,-0.43719137,-0.33567202,-0.4823715,-0.14974144,770.80585,805.4579,790.54944,771.2088,711.978,-0.2620849609375,0.07696533203125,0.97454833984375,-0.351409912109375,1.772003173828125,-0.94207763671875,1,1.0,1.0,1.0,1.0,15.00
2024-10-11 20:08:41.962,0.88217115,-0.10483146,0.32567275,0.68818194,0.3624112,0.2325439,-0.09258117,0.41827935,0.34583914,0.11274885,0.26661366,0.16818863,0.27156386,-0.20506415,-0.05530234,0.1315783,-0.43719137,-0.33567202,-0.4823715,-0.14974144,765.9707,802.6374,790.54944,773.22345,949.707,-0.2620849609375,0.07696533203125,0.97454833984375,-0.351409912109375,1.772003173828125,-0.94207763671875,1,1.0,1.0,1.0,1.0,15.00
2024-10-11 20:08:41.963,0.88217115,-0.10483146,0.32567275,0.68818194,0.3624112,0.2325439,-0.09258117,0.41827935,0.34583914,0.11274885,0.26661366,0.16818863,0.27156386,-0.20506415,-0.05530234,0.1315783,-0.43719137,-0.33567202,-0.4823715,-0.14974144,769.59705,805.05493,793.7729,771.2088,844.94507,-0.2620849609375,0.07696533203125,0.97454833984375,-0.351409912109375,1.772003173828125,-0.94207763671875,1,1.0,1.0,1.0,1.0,15.00
2024-10-11 20:08:41.963,0.88217115,-0.10483146,0.32567275,0.68818194,0.3624112,0.2325439,-0.09258117,0.41827935,0.34583914,0.11274885,0.26661366,0.16818863,0.27156386,-0.20506415,-0.05530234,0.1315783,-0.43719137,-0.33567202,-0.4823715,-0.14974144,777.6557,811.9048,796.5934,773.22345,714.3956,-0.2620849609375,0.07696533203125,0.97454833984375,-0.351409912109375,1.772003173828125,-0.94207763671875,1,1.0,1.0,1.0,1.0,15.00
2024-10-11 20:08:41.964,0.88217115,-0.10483146,0.32567275,0.68818194,0.3624112,0.2325439,-0.09258117,0.41827935,0.34583914,0.11274885,0.26661366,0.16818863,0.27156386,-0.20506415,-0.05530234,0.1315783,-0.43719137,-0.33567202,-0.4823715,-0.14974144,782.49084,808.68134,794.57874,779.2674,930.7692,-0.2620849609375,0.07696533203125,0.97454833984375,-0.351409912109375,1.772003173828125,-0.94207763671875,1,1.0,1.0,1.0,1.0,15.00
2024-10-11 20:08:41.965,0.88217115,-0.10483146,0.32567275,0.68818194,0.3624112,0.2325439,-0.09258117,0.41827935,0.34583914,0.11274885,0.26661366,0.16818863,0.27156386,-0.20506415,-0.05530234,0.1315783,-0.43719137,-0.33567202,-0.4823715,-0.14974144,776.4469,808.2784,792.5641,781.28204,1062.9304,-0.2620849609375,0.07696533203125,0.97454833984375,-0.351409912109375,1.772003173828125,-0.94207763671875,1,1.0,1.0,1.0,1.0,15.00
2024-10-11 20:08:41.965,0.88217115,-0.10483146,0.32567275,0.68818194,0.3624112,0.2325439,-0.09258117,0.41827935,0.34583914,0.11274885,0.26661366,0.16818863,0.27156386,-0.20506415,-0.05530234,0.1315783,-0.43719137,-0.33567202,-0.4823715,-0.14974144,773.6264,805.8608,794.9817,774.43225,724.87177,-0.2620849609375,0.07696533203125,0.97454833984375,-0.351409912109375,1.772003173828125,-0.94207763671875,1,1.0,1.0,1.0,1.0,15.00
2024-10-11 20:08:41.966,0.88217115,-0.10483146,0.32567275,0.68818194,0.3624112,0.2325439,-0.09258117,0.41827935,0.34583914,0.11274885,0.26661366,0.16818863,0.27156386,-0.20506415,-0.05530234,0.1315783,-0.43719137,-0.33567202,-0.4823715,-0.14974144,776.8498,802.6374,792.1612,772.4176,597.5458,-0.2620849609375,0.07696533203125,0.97454833984375,-0.351409912109375,1.772003173828125,-0.94207763671875,1,1.0,1.0,1.0,1.0,15.00
2024-10-11 20:08:42.008,0.88217115,-0.10483146,0.32567275,0.68818194,0.3624112,0.2325439,-0.09258117,0.41827935,0.34583914,0.11274885,0.26661366,0.16818863,0.27156386,-0.20506415,-0.05530234,0.1315783,-0.43719137,-0.33567202,-0.4823715,-0.14974144,777.6557,810.293,794.17584,776.04395,748.6447,-0.2620849609375,0.07696533203125,0.97454833984375,-0.351409912109375,1.772003173828125,-0.94207763671875,1,1.0,1.0,1.0,1.0,15.00
2024-10-11 20:08:42.009,0.88217115,-0.10483146,0.32567275,0.68818194,0.3624112,0.2325439,-0.09258117,0.41827935,0.34583914,0.11274885,0.26661366,0.16818863,0.27156386,-0.20506415,-0.05530234,0.1315783,-0.43719137,-0.33567202,-0.4823715,-0.14974144,774.83514,810.293,800.2198,779.67035,743.00366,-0.2620849609375,0.07696533203125,0.97454833984375,-0.351409912109375,1.772003173828125,-0.94207763671875,1,1.0,1.0,1.0,1.0,15.00
2024-10-11 20:08:42.009,0.88217115,-0.10483146,0.32567275,0.68818194,0.3624112,0.2325439,-0.09258117,0.41827935,0.34583914,0.11274885,0.26661366,0.16818863,0.27156386,-0.20506415,-0.05530234,0.1315783,-0.43719137,-0.33567202,-0.4823715,-0.14974144,772.01465,806.6667,797.3993,775.64105,684.17584,-0.2620849609375,0.07696533203125,0.97454833984375,-0.351409912109375,1.772003173828125,-0.94207763671875,1,1.0,1.0,1.0,1.0,15.00
2024-10-11 20:08:42.010,0.88217115,-0.10483146,0.32567275,0.68818194,0.3624112,0.2325439,-0.09258117,0.41827935,0.34583914,0.11274885,0.26661366,0.16818863,0.27156386,-0.20506415,-0.05530234,0.1315783,-0.43719137,-0.33567202,-0.4823715,-0.14974144,770.40295,808.2784,797.3993,776.04395,774.0293,-0.2620849609375,0.07696533203125,0.97454833984375,-0.351409912109375,1.772003173828125,-0.94207763671875,1,1.0,1.0,1.0,1.0,15.00
2024-10-11 20:08:42.010,0.88217115,-0.10483146,0.32567275,0.68818194,0.3624112,0.2325439,-0.09258117,0.41827935,0.34583914,0.11274885,0.26661366,0.16818863,0.27156386,-0.20506415,-0.05530234,0.1315783,-0.43719137,-0.33567202,-0.4823715,-0.14974144,771.2088,806.6667,798.20514,782.8938,956.9597,-0.2620849609375,0.07696533203125,0.97454833984375,-0.351409912109375,1.772003173828125,-0.94207763671875,1,1.0,1.0,1.0,1.0,15.00
2024-10-11 20:08:42.011,0.88217115,-0.10483146,0.32567275,0.68818194,0.3624112,0.2325439,-0.09258117,0.41827935,0.34583914,0.11274885,0.26661366,0.16818863,0.27156386,-0.20506415,-0.05530234,0.1315783,-0.43719137,-0.33567202,-0.4823715,-0.14974144,773.6264,801.8315,797.8022,782.49084,990.0,-0.2620849609375,0.07696533203125,0.97454833984375,-0.351409912109375,1.772003173828125,-0.94207763671875,1,1.0,1.0,1.0,1.0,15.00
2024-10-11 20:08:42.011,0.88217115,-0.10483146,0.32567275,0.68818194,0.3624112,0.2325439,-0.09258117,0.41827935,0.34583914,0.11274885,0.26661366,0.16818863,0.27156386,-0.20506415,-0.05530234,0.1315783,-0.43719137,-0.33567202,-0.4823715,-0.14974144,775.64105,798.20514,797.8022,782.49084,911.8315,-0.2620849609375,0.07696533203125,0.97454833984375,-0.351409912109375,1.772003173828125,-0.94207763671875,1,1.0,1.0,1.0,1.0,15.00
2024-10-11 20:08:42.012,0.88217115,-0.10483146,0.32567275,0.68818194,0.3624112,0.2325439,-0.09258117,0.41827935,0.34583914,0.11274885,0.26661366,0.16818863,0.27156386,-0.20506415,-0.05530234,0.1315783,-0.43719137,-0.33567202,-0.4823715,-0.14974144,780.07324,800.6227,799.41394,787.72894,871.13556,-0.2620849609375,0.07696533203125,0.97454833984375,-0.351409912109375,1.772003173828125,-0.94207763671875,1,1.0,1.0,1.0,1.0,15.00
2024-10-11 20:08:42.013,0.88217115,-0.10483146,0.32567275,0.68818194,0.3624112,0.2325439,-0.09258117,0.41827935,0.34583914,0.11274885,0.26661366,0.16818863,0.27156386,-0.20506415,-0.05530234,0.1315783,-0.43719137,-0.33567202,-0.4823715,-0.14974144,780.07324,801.8315,794.9817,791.3553,1137.8755,-0.2620849609375,0.07696533203125,0.97454833984375,-0.351409912109375,1.772003173828125,-0.94207763671875,1,1.0,1.0,1.0,1.0,15.00
2024-10-11 20:08:42.013,0.88217115,-0.10483146,0.32567275,0.68818194,0.3624112,0.2325439,-0.09258117,0.41827935,0.34583914,0.11274885,0.26661366,0.16818863,0.27156386,-0.20506415,-0.05530234,0.1315783,-0.43719137,-0.33567202,-0.4823715,-0.14974144,780.87915,802.6374,792.96704,787.326,1024.652,-0.2620849609375,0.07696533203125,0.97454833984375,-0.351409912109375,1.772003173828125,-0.94207763671875,1,1.0,1.0,1.0,1.0,15.00
2024-10-11 20:08:42.014,0.88217115,-0.10483146,0.32567275,0.68818194,0.3624112,0.2325439,-0.09258117,0.41827935,0.34583914,0.11274885,0.26661366,0.16818863,0.27156386,-0.20506415,-0.05530234,0.1315783,-0.43719137,-0.33567202,-0.4823715,-0.14974144,781.685,803.8461,796.99634,783.69965,727.6923,-0.2620849609375,0.07696533203125,0.97454833984375,-0.351409912109375,1.772003173828125,-0.94207763671875,1,1.0,1.0,1.0,1.0,15.00
2024-10-11 20:08:42.015,0.88217115,-0.10483146,0.32567275,0.68818194,0.3624112,0.2325439,-0.09258117,0.41827935,0.34583914,0.11274885,0.26661366,0.16818863,0.27156386,-0.20506415,-0.05530234,0.1315783,-0.43719137,-0.33567202,-0.4823715,-0.14974144,778.46155,804.65204,794.17584,780.87915,723.2601,-0.2620849609375,0.07696533203125,0.97454833984375,-0.351409912109375,1.772003173828125,-0.94207763671875,1,1.0,1.0,1.0,1.0,15.00
2024-10-11 20:08:42.015,0.88217115,-0.10483146,0.32567275,0.68818194,0.3624112,0.2325439,-0.09258117,0.41827935,0.34583914,0.11274885,0.26661366,0.16818863,0.27156386,-0.20506415,-0.05530234,0.1315783,-0.43719137,-0.33567202,-0.4823715,-0.14974144,777.6557,805.05493,794.9817,784.5055,624.94507,-0.265380859375,0.07769775390625,0.9715576171875,-1.024322509765625,1.069183349609375,0.40374755859375,1,1.0,1.0,1.0,1.0,15.00
2024-10-11 20:08:42.016,0.88217115,-0.10483146,0.32567275,0.68818194,0.3624112,0.2325439,-0.09258117,0.41827935,0.34583914,0.11274885,0.26661366,0.16818863,0.27156386,-0.20506415,-0.05530234,0.1315783,-0.43719137,-0.33567202,-0.4823715,-0.14974144,775.2381,801.8315,794.9817,784.5055,634.61536,-0.265380859375,0.07769775390625,0.9715576171875,-1.024322509765625,1.069183349609375,0.40374755859375,1,1.0,1.0,1.0,1.0,15.00
2024-10-11 20:08:42.016,0.88217115,-0.10483146,0.32567275,0.68818194,0.3624112,0.2325439,-0.09258117,0.41827935,0.34583914,0.11274885,0.26661366,0.16818863,0.27156386,-0.20506415,-0.05530234,0.1315783,-0.43719137,-0.33567202,-0.4823715,-0.14974144,777.6557,803.8461,791.3553,786.52014,749.85345,-0.265380859375,0.07769775390625,0.9715576171875,-1.024322509765625,1.069183349609375,0.40374755859375,1,1.0,1.0,1.0,1.0,15.00
2024-10-11 20:08:42.017,0.88217115,-0.10483146,0.32567275,0.68818194,0.3624112,0.2325439,-0.09258117,0.41827935,0.34583914,0.11274885,0.26661366,0.16818863,0.27156386,-0.20506415,-0.05530234,0.1315783,-0.43719137,-0.33567202,-0.4823715,-0.14974144,781.28204,805.05493,791.75824,792.1612,768.7912,-0.265380859375,0.07769775390625,0.9715576171875,-1.024322509765625,1.069183349609375,0.40374755859375,1,1.0,1.0,1.0,1.0,15.00
2024-10-11 20:08:42.018,0.88217115,-0.10483146,0.32567275,0.68818194,0.3624112,0.2325439,-0.09258117,0.41827935,0.34583914,0.11274885,0.26661366,0.16818863,0.27156386,-0.20506415,-0.05530234,0.1315783,-0.43719137,-0.33567202,-0.4823715,-0.14974144,778.46155,803.44324,792.5641,790.54944,702.71063,-0.265380859375,0.07769775390625,0.9715576171875,-1.024322509765625,1.069183349609375,0.40374755859375,1,1.0,1.0,1.0,1.0,15.00
2024-10-11 20:08:42.018,0.88217115,-0.10057248,0.34740072,0.68818194,0.3624112,0.21569696,-0.069157794,0.41827935,0.34583914,0.11274885,0.26661366,0.16818863,0.27156386,-0.19949703,-0.061349675,0.1315783,-0.43719137,-0.35192698,-0.4882205,-0.14974144,779.67035,803.0403,796.1905,788.93774,666.8498,-0.265380859375,0.07769775390625,0.9715576171875,-1.024322509765625,1.069183349609375,0.40374755859375,1,1.0,1.0,1.0,1.0,15.00
2024-10-11 20:08:42.022,0.88217115,-0.10057248,0.34740072,0.68818194,0.3624112,0.21569696,-0.069157794,0.41827935,0.34583914,0.11274885,0.26661366,0.16818863,0.27156386,-0.19949703,-0.061349675,0.1315783,-0.43719137,-0.35192698,-0.4882205,-0.14974144,785.7143,807.0696,797.8022,793.7729,747.8388,-0.265380859375,0.07769775390625,0.9715576171875,-1.024322509765625,1.069183349609375,0.40374755859375,1,1.0,1.0,1.0,1.0,15.00
2024-10-11 20:08:42.023,0.88217115,-0.10057248,0.34740072,0.68818194,0.3624112,0.21569696,-0.069157794,0.41827935,0.34583914,0.11274885,0.26661366,0.16818863,0.27156386,-0.19949703,-0.061349675,0.1315783,-0.43719137,-0.35192698,-0.4882205,-0.14974144,782.0879,808.2784,799.011,799.81683,967.8388,-0.265380859375,0.07769775390625,0.9715576171875,-1.024322509765625,1.069183349609375,0.40374755859375,1,1.0,1.0,1.0,1.0,15.00
2024-10-11 20:08:42.023,0.88217115,-0.10057248,0.34740072,0.68818194,0.3624112,0.21569696,-0.069157794,0.41827935,0.34583914,0.11274885,0.26661366,0.16818863,0.27156386,-0.19949703,-0.061349675,0.1315783,-0.43719137,-0.35192698,-0.4882205,-0.14974144,784.10254,809.0842,799.41394,796.1905,877.5824,-0.265380859375,0.07769775390625,0.9715576171875,-1.024322509765625,1.069183349609375,0.40374755859375,1,1.0,1.0,1.0,1.0,15.00
2024-10-11 20:08:42.024,0.88217115,-0.10057248,0.34740072,0.68818194,0.3624112,0.21569696,-0.069157794,0.41827935,0.34583914,0.11274885,0.26661366,0.16818863,0.27156386,-0.19949703,-0.061349675,0.1315783,-0.43719137,-0.35192698,-0.4882205,-0.14974144,782.8938,809.0842,800.2198,788.93774,699.0842,-0.265380859375,0.07769775390625,0.9715576171875,-1.024322509765625,1.069183349609375,0.40374755859375,1,1.0,1.0,1.0,1.0,15.00
2024-10-11 20:08:42.024,0.88217115,-0.10057248,0.34740072,0.68818194,0.3624112,0.21569696,-0.069157794,0.41827935,0.34583914,0.11274885,0.26661366,0.16818863,0.27156386,-0.19949703,-0.061349675,0.1315783,-0.43719137,-0.35192698,-0.4882205,-0.14974144,782.49084,807.0696,803.44324,790.9524,696.26373,-0.265380859375,0.07769775390625,0.9715576171875,-1.024322509765625,1.069183349609375,0.40374755859375,1,1.0,1.0,1.0,1.0,15.00
2024-10-11 20:08:42.025,0.88217115,-0.10057248,0.34740072,0.68818194,0.3624112,0.21569696,-0.069157794,0.41827935,0.34583914,0.11274885,0.26661366,0.16818863,0.27156386,-0.19949703,-0.061349675,0.1315783,-0.43719137,-0.35192698,-0.4882205,-0.14974144,788.1319,805.05493,797.3993,803.8461,884.43225,-0.265380859375,0.07769775390625,0.9715576171875,-1.024322509765625,1.069183349609375,0.40374755859375,1,1.0,1.0,1.0,1.0,15.00
2024-10-11 20:08:42.046,0.88217115,-0.10057248,0.34740072,0.68818194,0.3624112,0.21569696,-0.069157794,0.41827935,0.34583914,0.11274885,0.26661366,0.16818863,0.27156386,-0.19949703,-0.061349675,0.1315783,-0.43719137,-0.35192698,-0.4882205,-0.14974144,783.2967,805.4579,793.7729,802.6374,964.21246,-0.27545166015625,0.0758056640625,0.9722900390625,-1.143951416015625,0.40374755859375,1.263580322265625,1,1.0,1.0,1.0,1.0,15.00
2024-10-11 20:08:42.047,0.88217115,-0.10057248,0.34740072,0.68818194,0.3624112,0.21569696,-0.069157794,0.41827935,0.34583914,0.11274885,0.26661366,0.16818863,0.27156386,-0.19949703,-0.061349675,0.1315783,-0.43719137,-0.35192698,-0.4882205,-0.14974144,785.7143,807.8755,798.20514,793.36993,670.87915,-0.27545166015625,0.0758056640625,0.9722900390625,-1.143951416015625,0.40374755859375,1.263580322265625,1,1.0,1.0,1.0,1.0,15.00
2024-10-11 20:08:42.048,0.88217115,-0.10057248,0.34740072,0.68818194,0.3624112,0.21569696,-0.069157794,0.41827935,0.34583914,0.11274885,0.26661366,0.16818863,0.27156386,-0.19949703,-0.061349675,0.1315783,-0.43719137,-0.35192698,-0.4882205,-0.14974144,786.9231,805.4579,801.4286,793.7729,566.1172,-0.27545166015625,0.0758056640625,0.9722900390625,-1.143951416015625,0.40374755859375,1.263580322265625,1,1.0,1.0,1.0,1.0,15.00
2024-10-11 20:08:42.049,0.88217115,-0.10057248,0.34740072,0.68818194,0.3624112,0.21569696,-0.069157794,0.41827935,0.34583914,0.11274885,0.26661366,0.16818863,0.27156386,-0.19949703,-0.061349675,0.1315783,-0.43719137,-0.35192698,-0.4882205,-0.14974144,780.07324,802.23444,801.02563,793.36993,716.4103,-0.27545166015625,0.0758056640625,0.9722900390625,-1.143951416015625,0.40374755859375,1.263580322265625,1,1.0,1.0,1.0,1.0,15.00
2024-10-11 20:08:42.049,0.88217115,-0.10057248,0.34740072,0.68818194,0.3624112,0.21569696,-0.069157794,0.41827935,0.34583914,0.11274885,0.26661366,0.16818863,0.27156386,-0.19949703,-0.061349675,0.1315783,-0.43719137,-0.35192698,-0.4882205,-0.14974144,781.685,803.0403,800.6227,790.14655,760.7326,-0.27545166015625,0.0758056640625,0.9722900390625,-1.143951416015625,0.40374755859375,1.263580322265625,1,1.0,1.0,1.0,1.0,15.00
2024-10-11 20:08:42.050,0.88217115,-0.10057248,0.34740072,0.68818194,0.3624112,0.21569696,-0.069157794,0.41827935,0.34583914,0.11274885,0.26661366,0.16818863,0.27156386,-0.19949703,-0.061349675,0.1315783,-0.43719137,-0.35192698,-0.4882205,-0.14974144,786.9231,803.44324,802.23444,792.1612,725.2747,-0.27545166015625,0.0758056640625,0.9722900390625,-1.143951416015625,0.40374755859375,1.263580322265625,1,1.0,1.0,1.0,1.0,15.00
2024-10-11 20:08:42.050,0.88217115,-0.10057248,0.34740072,0.68818194,0.3624112,0.21569696,-0.069157794,0.41827935,0.34583914,0.11274885,0.26661366,0.16818863,0.27156386,-0.19949703,-0.061349675,0.1315783,-0.43719137,-0.35192698,-0.4882205,-0.14974144,784.10254,801.4286,794.17584,795.38464,856.2271,-0.27545166015625,0.0758056640625,0.9722900390625,-1.143951416015625,0.40374755859375,1.263580322265625,1,1.0,1.0,1.0,1.0,15.00
2024-10-11 20:08:42.051,0.88217115,-0.10057248,0.34740072,0.68818194,0.3624112,0.21569696,-0.069157794,0.41827935,0.34583914,0.11274885,0.26661366,0.16818863,0.27156386,-0.19949703,-0.061349675,0.1315783,-0.43719137,-0.35192698,-0.4882205,-0.14974144,783.69965,798.20514,793.36993,803.0403,1061.3187,-0.27545166015625,0.0758056640625,0.9722900390625,-1.143951416015625,0.40374755859375,1.263580322265625,1,1.0,1.0,1.0,1.0,15.00
2024-10-11 20:08:42.051,0.88217115,-0.10057248,0.34740072,0.68818194,0.3624112,0.21569696,-0.069157794,0.41827935,0.34583914,0.11274885,0.26661366,0.16818863,0.27156386,-0.19949703,-0.061349675,0.1315783,-0.43719137,-0.35192698,-0.4882205,-0.14974144,790.54944,802.6374,802.23444,799.41394,846.55676,-0.27545166015625,0.0758056640625,0.9722900390625,-1.143951416015625,0.40374755859375,1.263580322265625,1,1.0,1.0,1.0,1.0,15.00
2024-10-11 20:08:42.052,0.88217115,-0.10057248,0.34740072,0.68818194,0.3624112,0.21569696,-0.069157794,0.41827935,0.34583914,0.11274885,0.26661366,0.16818863,0.27156386,-0.19949703,-0.061349675,0.1315783,-0.43719137,-0.35192698,-0.4882205,-0.14974144,784.5055,801.8315,801.8315,791.75824,741.39197,-0.27545166015625,0.0758056640625,0.9722900390625,-1.143951416015625,0.40374755859375,1.263580322265625,1,1.0,1.0,1.0,1.0,15.00
2024-10-11 20:08:42.052,0.88217115,-0.10057248,0.34740072,0.68818194,0.3624112,0.21569696,-0.069157794,0.41827935,0.34583914,0.11274885,0.26661366,0.16818863,0.27156386,-0.19949703,-0.061349675,0.1315783,-0.43719137,-0.35192698,-0.4882205,-0.14974144,782.0879,801.02563,797.3993,792.1612,798.20514,-0.27545166015625,0.0758056640625,0.9722900390625,-1.143951416015625,0.40374755859375,1.263580322265625,1,1.0,1.0,1.0,1.0,15.00
2024-10-11 20:08:42.053,0.88217115,-0.10057248,0.34740072,0.68818194,0.3624112,0.21569696,-0.069157794,0.41827935,0.34583914,0.11274885,0.26661366,0.16818863,0.27156386,-0.19949703,-0.061349675,0.1315783,-0.43719137,-0.35192698,-0.4882205,-0.14974144,788.93774,803.44324,796.5934,791.3553,892.0879,-0.27545166015625,0.0758056640625,0.9722900390625,-1.143951416015625,0.40374755859375,1.263580322265625,1,1.0,1.0,1.0,1.0,15.00
2024-10-11 20:08:42.053,0.88217115,-0.10057248,0.34740072,0.68818194,0.3624112,0.21569696,-0.069157794,0.41827935,0.34583914,0.11274885,0.26661366,0.16818863,0.27156386,-0.19949703,-0.061349675,0.1315783,-0.43719137,-0.35192698,-0.4882205,-0.14974144,788.93774,806.6667,798.60803,789.7436,813.5165,-0.27313232421875,0.06585693359375,0.953125,-2.16827392578125,0.456085205078125,0.7177734375,1,1.0,1.0,1.0,1.0,15.00
2024-10-11 20:08:42.054,0.88217115,-0.10057248,0.34740072,0.68818194,0.3624112,0.21569696,-0.069157794,0.41827935,0.34583914,0.11274885,0.26661366,0.16818863,0.27156386,-0.19949703,-0.061349675,0.1315783,-0.43719137,-0.35192698,-0.4882205,-0.14974144,790.14655,811.50183,804.65204,792.96704,763.5531,-0.27313232421875,0.06585693359375,0.953125,-2.16827392578125,0.456085205078125,0.7177734375,1,1.0,1.0,1.0,1.0,15.00
2024-10-11 20:08:42.055,0.88217115,-0.10057248,0.34740072,0.68818194,0.3624112,0.21569696,-0.069157794,0.41827935,0.34583914,0.11274885,0.26661366,0.16818863,0.27156386,-0.19949703,-0.061349675,0.1315783,-0.43719137,-0.35192698,-0.4882205,-0.14974144,785.31134,807.0696,805.05493,792.96704,850.58606,-0.27313232421875,0.06585693359375,0.953125,-2.16827392578125,0.456085205078125,0.7177734375,1,1.0,1.0,1.0,1.0,15.00
2024-10-11 20:08:42.055,0.88217115,-0.10057248,0.34740072,0.68818194,0.3624112,0.21569696,-0.069157794,0.41827935,0.34583914,0.11274885,0.26661366,0.16818863,0.27156386,-0.19949703,-0.061349675,0.1315783,-0.43719137,-0.35192698,-0.4882205,-0.14974144,783.2967,803.8461,791.75824,776.4469,867.9121,-0.27313232421875,0.06585693359375,0.953125,-2.16827392578125,0.456085205078125,0.7177734375,1,1.0,1.0,1.0,1.0,15.00
2024-10-11 20:08:42.056,0.88217115,-0.10057248,0.34740072,0.68818194,0.3624112,0.21569696,-0.069157794,0.41827935,0.34583914,0.11274885,0.26661366,0.16818863,0.27156386,-0.19949703,-0.061349675,0.1315783,-0.43719137,-0.35192698,-0.4882205,-0.14974144,806.26373,807.47253,787.326,790.9524,823.9927,-0.27313232421875,0.06585693359375,0.953125,-2.16827392578125,0.456085205078125,0.7177734375,1,1.0,1.0,1.0,1.0,15.00
2024-10-11 20:08:42.056,0.88217115,-0.10057248,0.34740072,0.68818194,0.3624112,0.21569696,-0.069157794,0.41827935,0.34583914,0.11274885,0.26661366,0.16818863,0.27156386,-0.19949703,-0.061349675,0.1315783,-0.43719137,-0.35192698,-0.4882205,-0.14974144,801.02563,801.4286,801.4286,798.20514,884.83514,-0.27313232421875,0.06585693359375,0.953125,-2.16827392578125,0.456085205078125,0.7177734375,1,1.0,1.0,1.0,1.0,15.00
2024-10-11 20:08:42.057,0.88217115,-0.10057248,0.34740072,0.68818194,0.3624112,0.21569696,-0.069157794,0.41827935,0.34583914,0.11274885,0.26661366,0.16818863,0.27156386,-0.19949703,-0.061349675,0.1315783,-0.43719137,-0.35192698,-0.4882205,-0.14974144,762.74725,798.20514,805.8608,772.01465,1030.2931,-0.27313232421875,0.06585693359375,0.953125,-2.16827392578125,0.456085205078125,0.7177734375,1,1.0,1.0,1.0,1.0,15.00
2024-10-11 20:08:42.057,0.88217115,-0.094989434,0.33957794,0.68818194,0.3624112,0.19980186,-0.09314433,0.41827935,0.34583914,0.11274885,0.20927046,0.16818863,0.27156386,-0.19568753,-0.0645941,0.1315783,-0.43719137,-0.36487076,-0.47935876,-0.14974144,753.47986,797.8022,804.65204,771.2088,974.2857,-0.27313232421875,0.06585693359375,0.953125,-2.16827392578125,0.456085205078125,0.7177734375,1,1.0,1.0,1.0,1.0,15.00
2024-10-11 20:08:42.061,0.88217115,-0.094989434,0.33957794,0.68818194,0.3624112,0.19980186,-0.09314433,0.41827935,0.34583914,0.11274885,0.20927046,0.16818863,0.27156386,-0.19568753,-0.0645941,0.1315783,-0.43719137,-0.36487076,-0.47935876,-0.14974144,758.315,795.78754,802.6374,768.7912,799.41394,-0.27313232421875,0.06585693359375,0.953125,-2.16827392578125,0.456085205078125,0.7177734375,1,1.0,1.0,1.0,1.0,15.00
2024-10-11 20:08:42.062,0.88217115,-0.094989434,0.33957794,0.68818194,0.3624112,0.19980186,-0.09314433,0.41827935,0.34583914,0.11274885,0.20927046,0.16818863,0.27156386,-0.19568753,-0.0645941,0.1315783,-0.43719137,-0.36487076,-0.47935876,-0.14974144,759.5238,789.34064,803.44324,768.3883,833.663,-0.27313232421875,0.06585693359375,0.953125,-2.16827392578125,0.456085205078125,0.7177734375,1,1.0,1.0,1.0,1.0,15.00
2024-10-11 20:08:42.062,0.88217115,-0.094989434,0.33957794,0.68818194,0.3624112,0.19980186,-0.09314433,0.41827935,0.34583914,0.11274885,0.20927046,0.16818863,0.27156386,-0.19568753,-0.0645941,0.1315783,-0.43719137,-0.36487076,-0.47935876,-0.14974144,744.21246,785.7143,811.9048,763.95605,989.19415,-0.27313232421875,0.06585693359375,0.953125,-2.16827392578125,0.456085205078125,0.7177734375,1,1.0,1.0,1.0,1.0,15.00
2024-10-11 20:08:42.063,0.88217115,-0.094989434,0.33957794,0.68818194,0.3624112,0.19980186,-0.09314433,0.41827935,0.34583914,0.11274885,0.20927046,0.16818863,0.27156386,-0.19568753,-0.0645941,0.1315783,-0.43719137,-0.36487076,-0.47935876,-0.14974144,734.5421,779.2674,819.15753,760.7326,869.5238,-0.27313232421875,0.06585693359375,0.953125,-2.16827392578125,0.456085205078125,0.7177734375,1,1.0,1.0,1.0,1.0,15.00
2024-10-11 20:08:42.110,0.88217115,-0.094989434,0.33957794,0.68818194,0.3624112,0.19980186,-0.09314433,0.41827935,0.34583914,0.11274885,0.20927046,0.16818863,0.27156386,-0.19568753,-0.0645941,0.1315783,-0.43719137,-0.36487076,-0.47935876,-0.14974144,748.6447,775.64105,828.8278,773.6264,768.7912,-0.280517578125,0.06243896484375,0.9710693359375,-1.55517578125,0.6280517578125,-0.3289794921875,1,1.0,1.0,1.0,1.0,15.00
2024-10-11 20:08:42.111,0.88217115,-0.094989434,0.33957794,0.68818194,0.3624112,0.19980186,-0.09314433,0.41827935,0.34583914,0.11274885,0.20927046,0.16818863,0.27156386,-0.19568753,-0.0645941,0.1315783,-0.43719137,-0.36487076,-0.47935876,-0.14974144,747.4359,776.4469,836.08057,778.46155,853.4066,-0.280517578125,0.06243896484375,0.9710693359375,-1.55517578125,0.6280517578125,-0.3289794921875,1,1.0,1.0,1.0,1.0,15.00
2024-10-11 20:08:42.112,0.88217115,-0.094989434,0.33957794,0.68818194,0.3624112,0.19980186,-0.09314433,0.41827935,0.34583914,0.11274885,0.20927046,0.16818863,0.27156386,-0.19568753,-0.0645941,0.1315783,-0.43719137,-0.36487076,-0.47935876,-0.14974144,736.1539,778.0586,842.1245,785.31134,977.1062,-0.280517578125,0.06243896484375,0.9710693359375,-1.55517578125,0.6280517578125,-0.3289794921875,1,1.0,1.0,1.0,1.0,15.00
2024-10-11 20:08:42.113,0.88217115,-0.094989434,0.33957794,0.68818194,0.3624112,0.19980186,-0.09314433,0.41827935,0.34583914,0.11274885,0.20927046,0.16818863,0.27156386,-0.19568753,-0.0645941,0.1315783,-0.43719137,-0.36487076,-0.47935876,-0.14974144,733.73627,780.87915,847.76556,782.8938,843.3333,-0.280517578125,0.06243896484375,0.9710693359375,-1.55517578125,0.6280517578125,-0.3289794921875,1,1.0,1.0,1.0,1.0,15.00
2024-10-11 20:08:42.113,0.88217115,-0.094989434,0.33957794,0.68818194,0.3624112,0.19980186,-0.09314433,0.41827935,0.34583914,0.11274885,0.20927046,0.16818863,0.27156386,-0.19568753,-0.0645941,0.1315783,-0.43719137,-0.36487076,-0.47935876,-0.14974144,736.1539,778.46155,849.3773,782.49084,707.9487,-0.280517578125,0.06243896484375,0.9710693359375,-1.55517578125,0.6280517578125,-0.3289794921875,1,1.0,1.0,1.0,1.0,15.00
2024-10-11 20:08:42.114,0.88217115,-0.094989434,0.33957794,0.68818194,0.3624112,0.19980186,-0.09314433,0.41827935,0.34583914,0.11274885,0.20927046,0.16818863,0.27156386,-0.19568753,-0.0645941,0.1315783,-0.43719137,-0.36487076,-0.47935876,-0.14974144,740.18317,776.8498,855.0183,790.14655,876.3736,-0.280517578125,0.06243896484375,0.9710693359375,-1.55517578125,0.6280517578125,-0.3289794921875,1,1.0,1.0,1.0,1.0,15.00
2024-10-11 20:08:42.114,0.88217115,-0.094989434,0.33957794,0.68818194,0.3624112,0.19980186,-0.09314433,0.41827935,0.34583914,0.11274885,0.20927046,0.16818863,0.27156386,-0.19568753,-0.0645941,0.1315783,-0.43719137,-0.36487076,-0.47935876,-0.14974144,738.1685,776.4469,855.0183,792.96704,1270.8425,-0.280517578125,0.06243896484375,0.9710693359375,-1.55517578125,0.6280517578125,-0.3289794921875,1,1.0,1.0,1.0,1.0,15.00
2024-10-11 20:08:42.115,0.88217115,-0.094989434,0.33957794,0.68818194,0.3624112,0.19980186,-0.09314433,0.41827935,0.34583914,0.11274885,0.20927046,0.16818863,0.27156386,-0.19568753,-0.0645941,0.1315783,-0.43719137,-0.36487076,-0.47935876,-0.14974144,745.82416,779.2674,857.4359,790.14655,1147.9487,-0.280517578125,0.06243896484375,0.9710693359375,-1.55517578125,0.6280517578125,-0.3289794921875,1,1.0,1.0,1.0,1.0,15.00
2024-10-11 20:08:42.116,0.88217115,-0.094989434,0.33957794,0.68818194,0.3624112,0.19980186,-0.09314433,0.41827935,0.34583914,0.11274885,0.20927046,0.16818863,0.27156386,-0.19568753,-0.0645941,0.1315783,-0.43719137,-0.36487076,-0.47935876,-0.14974144,749.0476,782.8938,858.24176,789.34064,751.06226,-0.280517578125,0.06243896484375,0.9710693359375,-1.55517578125,0.6280517578125,-0.3289794921875,1,1.0,1.0,1.0,1.0,15.00
2024-10-11 20:08:42.116,0.88217115,-0.094989434,0.33957794,0.68818194,0.3624112,0.19980186,-0.09314433,0.41827935,0.34583914,0.11274885,0.20927046,0.16818863,0.27156386,-0.19568753,-0.0645941,0.1315783,-0.43719137,-0.36487076,-0.47935876,-0.14974144,756.7033,783.2967,853.8095,791.75824,825.6044,-0.280517578125,0.06243896484375,0.9710693359375,-1.55517578125,0.6280517578125,-0.3289794921875,1,1.0,1.0,1.0,1.0,15.00
2024-10-11 20:08:42.117,0.88217115,-0.094989434,0.33957794,0.68818194,0.3624112,0.19980186,-0.09314433,0.41827935,0.34583914,0.11274885,0.20927046,0.16818863,0.27156386,-0.19568753,-0.0645941,0.1315783,-0.43719137,-0.36487076,-0.47935876,-0.14974144,757.1062,787.72894,853.00366,781.685,801.02563,-0.280517578125,0.06243896484375,0.9710693359375,-1.55517578125,0.6280517578125,-0.3289794921875,1,1.0,1.0,1.0,1.0,15.00
2024-10-11 20:08:42.118,0.88217115,-0.094989434,0.33957794,0.68818194,0.3624112,0.19980186,-0.09314433,0.41827935,0.34583914,0.11274885,0.20927046,0.16818863,0.27156386,-0.19568753,-0.0645941,0.1315783,-0.43719137,-0.36487076,-0.47935876,-0.14974144,758.315,790.14655,851.79486,782.49084,607.2161,-0.280517578125,0.06243896484375,0.9710693359375,-1.55517578125,0.6280517578125,-0.3289794921875,1,1.0,1.0,1.0,1.0,15.00
2024-10-11 20:08:42.208,0.88217115,-0.094989434,0.33957794,0.68818194,0.3624112,0.19980186,-0.09314433,0.41827935,0.34583914,0.11274885,0.20927046,0.16818863,0.27156386,-0.19568753,-0.0645941,0.1315783,-0.43719137,-0.36487076,-0.47935876,-0.14974144,763.95605,792.1612,848.97437,781.28204,669.67035,-0.280517578125,0.06243896484375,0.9710693359375,-1.55517578125,0.6280517578125,-0.3289794921875,1,1.0,1.0,1.0,1.0,15.00
2024-10-11 20:08:42.209,0.88217115,-0.094989434,0.33957794,0.68818194,0.3624112,0.19980186,-0.09314433,0.41827935,0.34583914,0.11274885,0.20927046,0.16818863,0.27156386,-0.19568753,-0.0645941,0.1315783,-0.43719137,-0.36487076,-0.47935876,-0.14974144,756.7033,797.8022,847.76556,772.8205,808.2784,-0.280517578125,0.06243896484375,0.9710693359375,-1.55517578125,0.6280517578125,-0.3289794921875,1,1.0,1.0,1.0,1.0,15.00
2024-10-11 20:08:42.209,0.88217115,-0.094989434,0.33957794,0.68818194,0.3624112,0.19980186,-0.09314433,0.41827935,0.34583914,0.11274885,0.20927046,0.16818863,0.27156386,-0.19568753,-0.0645941,0.1315783,-0.43719137,-0.36487076,-0.47935876,-0.14974144,752.674,796.99634,846.55676,770.40295,857.03296,-0.280517578125,0.06243896484375,0.9710693359375,-1.55517578125,0.6280517578125,-0.3289794921875,1,1.0,1.0,1.0,1.0,15.00
2024-10-11 20:08:42.210,0.88217115,-0.094989434,0.33957794,0.68818194,0.3624112,0.19980186,-0.09314433,0.41827935,0.34583914,0.11274885,0.20927046,0.16818863,0.27156386,-0.19568753,-0.0645941,0.1315783,-0.43719137,-0.36487076,-0.47935876,-0.14974144,757.1062,790.14655,848.97437,775.2381,861.4652,-0.280517578125,0.06243896484375,0.9710693359375,-1.55517578125,0.6280517578125,-0.3289794921875,1,1.0,1.0,1.0,1.0,15.00
2024-10-11 20:08:42.211,0.88217115,-0.094989434,0.33957794,0.68818194,0.3624112,0.19980186,-0.09314433,0.41827935,0.34583914,0.11274885,0.20927046,0.16818863,0.27156386,-0.19568753,-0.0645941,0.1315783,-0.43719137,-0.36487076,-0.47935876,-0.14974144,766.77655,789.7436,845.34796,782.49084,751.8681,-0.280517578125,0.06243896484375,0.9710693359375,-1.55517578125,0.6280517578125,-0.3289794921875,1,1.0,1.0,1.0,1.0,15.00
2024-10-11 20:08:42.211,0.88217115,-0.094989434,0.33957794,0.68818194,0.3624112,0.19980186,-0.09314433,0.41827935,0.34583914,0.11274885,0.20927046,0.16818863,0.27156386,-0.19568753,-0.0645941,0.1315783,-0.43719137,-0.36487076,-0.47935876,-0.14974144,770.0,791.75824,841.7216,794.57874,884.83514,-0.280517578125,0.06243896484375,0.9710693359375,-1.55517578125,0.6280517578125,-0.3289794921875,1,1.0,1.0,1.0,1.0,15.00
2024-10-11 20:08:42.212,0.88217115,-0.094989434,0.33957794,0.68818194,0.3624112,0.19980186,-0.09314433,0.41827935,0.34583914,0.11274885,0.20927046,0.16818863,0.27156386,-0.19568753,-0.0645941,0.1315783,-0.43719137,-0.36487076,-0.47935876,-0.14974144,766.77655,791.75824,840.10986,798.20514,1062.9304,-0.280517578125,0.06243896484375,0.9710693359375,-1.55517578125,0.6280517578125,-0.3289794921875,1,1.0,1.0,1.0,1.0,15.00
2024-10-11 20:08:42.212,0.88217115,-0.094989434,0.33957794,0.68818194,0.3624112,0.19980186,-0.09314433,0.41827935,0.34583914,0.11274885,0.20927046,0.16818863,0.27156386,-0.19568753,-0.0645941,0.1315783,-0.43719137,-0.36487076,-0.47935876,-0.14974144,774.83514,793.7729,841.7216,801.4286,786.1172,-0.280517578125,0.06243896484375,0.9710693359375,-1.55517578125,0.6280517578125,-0.3289794921875,1,1.0,1.0,1.0,1.0,15.00
2024-10-11 20:08:42.213,0.88217115,-0.094989434,0.33957794,0.68818194,0.3624112,0.19980186,-0.09314433,0.41827935,0.34583914,0.11274885,0.20927046,0.16818863,0.27156386,-0.19568753,-0.0645941,0.1315783,-0.43719137,-0.36487076,-0.47935876,-0.14974144,774.0293,794.17584,841.7216,805.8608,619.304,-0.280517578125,0.06243896484375,0.9710693359375,-1.55517578125,0.6280517578125,-0.3289794921875,1,1.0,1.0,1.0,1.0,15.00
2024-10-11 20:08:42.213,0.88217115,-0.07640346,0.40133208,0.68818194,0.3624112,0.18334441,-0.08059451,0.41827935,0.34583914,0.11274885,0.12776698,0.16818863,0.27156386,-0.18958922,-0.073396355,0.1315783,-0.43719137,-0.3752753,-0.46551296,-0.14974144,772.01465,794.57874,836.4835,810.696,884.83514,-0.280517578125,0.06243896484375,0.9710693359375,-1.55517578125,0.6280517578125,-0.3289794921875,1,1.0,1.0,1.0,1.0,15.00
2024-10-11 20:08:42.218,0.88217115,-0.07640346,0.40133208,0.68818194,0.3624112,0.18334441,-0.08059451,0.41827935,0.34583914,0.11274885,0.12776698,0.16818863,0.27156386,-0.18958922,-0.073396355,0.1315783,-0.43719137,-0.3752753,-0.46551296,-0.14974144,774.83514,798.20514,834.87177,816.7399,1021.4286,-0.280517578125,0.06243896484375,0.9710693359375,-1.55517578125,0.6280517578125,-0.3289794921875,1,1.0,1.0,1.0,1.0,15.00
2024-10-11 20:08:42.218,0.88217115,-0.07640346,0.40133208,0.68818194,0.3624112,0.18334441,-0.08059451,0.41827935,0.34583914,0.11274885,0.12776698,0.16818863,0.27156386,-0.18958922,-0.073396355,0.1315783,-0.43719137,-0.3752753,-0.46551296,-0.14974144,776.04395,798.60803,835.2747,809.0842,821.978,-0.280517578125,0.06243896484375,0.9710693359375,-1.55517578125,0.6280517578125,-0.3289794921875,1,1.0,1.0,1.0,1.0,15.00
2024-10-11 20:08:42.244,0.88217115,-0.07640346,0.40133208,0.68818194,0.3624112,0.18334441,-0.08059451,0.41827935,0.34583914,0.11274885,0.12776698,0.16818863,0.27156386,-0.18958922,-0.073396355,0.1315783,-0.43719137,-0.3752753,-0.46551296,-0.14974144,782.8938,799.81683,833.2601,806.26373,796.99634,-0.2777099609375,0.06494140625,0.9786376953125,-1.143951416015625,0.276641845703125,-0.007476806640625,1,1.0,1.0,1.0,1.0,15.00
2024-10-11 20:08:42.245,0.88217115,-0.07640346,0.40133208,0.68818194,0.3624112,0.18334441,-0.08059451,0.41827935,0.34583914,0.11274885,0.12776698,0.16818863,0.27156386,-0.18958922,-0.073396355,0.1315783,-0.43719137,-0.3752753,-0.46551296,-0.14974144,788.1319,803.44324,830.84247,812.3077,849.3773,-0.2777099609375,0.06494140625,0.9786376953125,-1.143951416015625,0.276641845703125,-0.007476806640625,1,1.0,1.0,1.0,1.0,15.00
2024-10-11 20:08:42.246,0.88217115,-0.07640346,0.40133208,0.68818194,0.3624112,0.18334441,-0.08059451,0.41827935,0.34583914,0.11274885,0.12776698,0.16818863,0.27156386,-0.18958922,-0.073396355,0.1315783,-0.43719137,-0.3752753,-0.46551296,-0.14974144,793.36993,801.8315,830.84247,820.3663,758.315,-0.2777099609375,0.06494140625,0.9786376953125,-1.143951416015625,0.276641845703125,-0.007476806640625,1,1.0,1.0,1.0,1.0,15.00
2024-10-11 20:08:42.246,0.88217115,-0.07640346,0.40133208,0.68818194,0.3624112,0.18334441,-0.08059451,0.41827935,0.34583914,0.11274885,0.12776698,0.16818863,0.27156386,-0.18958922,-0.073396355,0.1315783,-0.43719137,-0.3752753,-0.46551296,-0.14974144,792.1612,799.81683,828.8278,820.7692,703.1135,-0.2777099609375,0.06494140625,0.9786376953125,-1.143951416015625,0.276641845703125,-0.007476806640625,1,1.0,1.0,1.0,1.0,15.00
2024-10-11 20:08:42.247,0.88217115,-0.07640346,0.40133208,0.68818194,0.3624112,0.18334441,-0.08059451,0.41827935,0.34583914,0.11274885,0.12776698,0.16818863,0.27156386,-0.18958922,-0.073396355,0.1315783,-0.43719137,-0.3752753,-0.46551296,-0.14974144,790.9524,802.6374,826.8132,813.1135,608.022,-0.2777099609375,0.06494140625,0.9786376953125,-1.143951416015625,0.276641845703125,-0.007476806640625,1,1.0,1.0,1.0,1.0,15.00
2024-10-11 20:08:42.248,0.88217115,-0.07640346,0.40133208,0.68818194,0.3624112,0.18334441,-0.08059451,0.41827935,0.34583914,0.11274885,0.12776698,0.16818863,0.27156386,-0.18958922,-0.073396355,0.1315783,-0.43719137,-0.3752753,-0.46551296,-0.14974144,792.5641,801.02563,824.7985,811.9048,677.326,-0.2777099609375,0.06494140625,0.9786376953125,-1.143951416015625,0.276641845703125,-0.007476806640625,1,1.0,1.0,1.0,1.0,15.00
2024-10-11 20:08:42.248,0.88217115,-0.07640346,0.40133208,0.68818194,0.3624112,0.18334441,-0.08059451,0.41827935,0.34583914,0.11274885,0.12776698,0.16818863,0.27156386,-0.18958922,-0.073396355,0.1315783,-0.43719137,-0.3752753,-0.46551296,-0.14974144,797.8022,802.6374,823.1868,821.1722,850.18317,-0.2777099609375,0.06494140625,0.9786376953125,-1.143951416015625,0.276641845703125,-0.007476806640625,1,1.0,1.0,1.0,1.0,15.00
2024-10-11 20:08:42.249,0.88217115,-0.07640346,0.40133208,0.68818194,0.3624112,0.18334441,-0.08059451,0.41827935,0.34583914,0.11274885,0.12776698,0.16818863,0.27156386,-0.18958922,-0.073396355,0.1315783,-0.43719137,-0.3752753,-0.46551296,-0.14974144,799.41394,803.44324,822.381,822.7839,856.2271,-0.2777099609375,0.06494140625,0.9786376953125,-1.143951416015625,0.276641845703125,-0.007476806640625,1,1.0,1.0,1.0,1.0,15.00
2024-10-11 20:08:42.249,0.88217115,-0.07640346,0.40133208,0.68818194,0.3624112,0.18334441,-0.08059451,0.41827935,0.34583914,0.11274885,0.12776698,0.16818863,0.27156386,-0.18958922,-0.073396355,0.1315783,-0.43719137,-0.3752753,-0.46551296,-0.14974144,801.4286,802.23444,822.7839,818.3516,871.9414,-0.2777099609375,0.06494140625,0.9786376953125,-1.143951416015625,0.276641845703125,-0.007476806640625,1,1.0,1.0,1.0,1.0,15.00
2024-10-11 20:08:42.250,0.88217115,-0.07640346,0.40133208,0.68818194,0.3624112,0.18334441,-0.08059451,0.41827935,0.34583914,0.11274885,0.12776698,0.16818863,0.27156386,-0.18958922,-0.073396355,0.1315783,-0.43719137,-0.3752753,-0.46551296,-0.14974144,809.4872,800.6227,820.3663,821.1722,1056.8865,-0.2777099609375,0.06494140625,0.9786376953125,-1.143951416015625,0.276641845703125,-0.007476806640625,1,1.0,1.0,1.0,1.0,15.00
2024-10-11 20:08:42.250,0.88217115,-0.07640346,0.40133208,0.68818194,0.3624112,0.18334441,-0.08059451,0.41827935,0.34583914,0.11274885,0.12776698,0.16818863,0.27156386,-0.18958922,-0.073396355,0.1315783,-0.43719137,-0.3752753,-0.46551296,-0.14974144,811.9048,803.44324,818.7546,815.5311,966.63007,-0.2777099609375,0.06494140625,0.9786376953125,-1.143951416015625,0.276641845703125,-0.007476806640625,1,1.0,1.0,1.0,1.0,15.00
2024-10-11 20:08:42.251,0.88217115,-0.07640346,0.40133208,0.68818194,0.3624112,0.18334441,-0.08059451,0.41827935,0.34583914,0.11274885,0.12776698,0.16818863,0.27156386,-0.18958922,-0.073396355,0.1315783,-0.43719137,-0.3752753,-0.46551296,-0.14974144,814.3223,803.8461,820.7692,819.9634,863.0769,-0.2777099609375,0.06494140625,0.9786376953125,-1.143951416015625,0.276641845703125,-0.007476806640625,1,1.0,1.0,1.0,1.0,15.00
2024-10-11 20:08:42.277,0.88217115,-0.07640346,0.40133208,0.68818194,0.3624112,0.18334441,-0.08059451,0.41827935,0.34583914,0.11274885,0.12776698,0.16818863,0.27156386,-0.18958922,-0.073396355,0.1315783,-0.43719137,-0.3752753,-0.46551296,-0.14974144,816.7399,803.44324,817.9487,824.7985,893.2967,-0.27862548828125,0.0628662109375,0.96728515625,-2.130889892578125,-0.67291259765625,0.351409912109375,1,1.0,1.0,1.0,1.0,15.00
2024-10-11 20:08:42.278,0.88217115,-0.07640346,0.40133208,0.68818194,0.3624112,0.18334441,-0.08059451,0.41827935,0.34583914,0.11274885,0.12776698,0.16818863,0.27156386,-0.18958922,-0.073396355,0.1315783,-0.43719137,-0.3752753,-0.46551296,-0.14974144,805.05493,799.41394,814.7253,816.7399,906.99634,-0.27862548828125,0.0628662109375,0.96728515625,-2.130889892578125,-0.67291259765625,0.351409912109375,1,1.0,1.0,1.0,1.0,15.00
2024-10-11 20:08:42.279,0.88217115,-0.07640346,0.40133208,0.68818194,0.3624112,0.18334441,-0.08059451,0.41827935,0.34583914,0.11274885,0.12776698,0.16818863,0.27156386,-0.18958922,-0.073396355,0.1315783,-0.43719137,-0.3752753,-0.46551296,-0.14974144,807.47253,797.8022,811.0989,820.3663,814.3223,-0.27862548828125,0.0628662109375,0.96728515625,-2.130889892578125,-0.67291259765625,0.351409912109375,1,1.0,1.0,1.0,1.0,15.00
2024-10-11 20:08:42.279,0.88217115,-0.07640346,0.40133208,0.68818194,0.3624112,0.18334441,-0.08059451,0.41827935,0.34583914,0.11274885,0.12776698,0.16818863,0.27156386,-0.18958922,-0.073396355,0.1315783,-0.43719137,-0.3752753,-0.46551296,-0.14974144,811.9048,803.0403,814.3223,833.663,753.8828,-0.27862548828125,0.0628662109375,0.96728515625,-2.130889892578125,-0.67291259765625,0.351409912109375,1,1.0,1.0,1.0,1.0,15.00
2024-10-11 20:08:42.280,0.88217115,-0.07640346,0.40133208,0.68818194,0.3624112,0.18334441,-0.08059451,0.41827935,0.34583914,0.11274885,0.12776698,0.16818863,0.27156386,-0.18958922,-0.073396355,0.1315783,-0.43719137,-0.3752753,-0.46551296,-0.14974144,810.293,801.8315,814.3223,840.10986,879.59705,-0.27862548828125,0.0628662109375,0.96728515625,-2.130889892578125,-0.67291259765625,0.351409912109375,1,1.0,1.0,1.0,1.0,15.00
2024-10-11 20:08:42.280,0.88217115,-0.07640346,0.40133208,0.68818194,0.3624112,0.18334441,-0.08059451,0.41827935,0.34583914,0.11274885,0.12776698,0.16818863,0.27156386,-0.18958922,-0.073396355,0.1315783,-0.43719137,-0.3752753,-0.46551296,-0.14974144,813.1135,801.02563,807.47253,838.49817,1044.3956,-0.27862548828125,0.0628662109375,0.96728515625,-2.130889892578125,-0.67291259765625,0.351409912109375,1,1.0,1.0,1.0,1.0,15.00
2024-10-11 20:08:42.281,0.88217115,-0.07640346,0.40133208,0.68818194,0.3624112,0.18334441,-0.08059451,0.41827935,0.34583914,0.11274885,0.12776698,0.16818863,0.27156386,-0.18958922,-0.073396355,0.1315783,-0.43719137,-0.3752753,-0.46551296,-0.14974144,813.5165,795.78754,804.2491,830.4396,878.3883,-0.27862548828125,0.0628662109375,0.96728515625,-2.130889892578125,-0.67291259765625,0.351409912109375,1,1.0,1.0,1.0,1.0,15.00
2024-10-11 20:08:42.281,0.88217115,-0.07640346,0.40133208,0.68818194,0.3624112,0.18334441,-0.08059451,0.41827935,0.34583914,0.11274885,0.12776698,0.16818863,0.27156386,-0.18958922,-0.073396355,0.1315783,-0.43719137,-0.3752753,-0.46551296,-0.14974144,812.3077,789.7436,807.47253,826.4103,817.9487,-0.27862548828125,0.0628662109375,0.96728515625,-2.130889892578125,-0.67291259765625,0.351409912109375,1,1.0,1.0,1.0,1.0,15.00
2024-10-11 20:08:42.282,0.88217115,-0.07640346,0.40133208,0.68818194,0.3624112,0.18334441,-0.08059451,0.41827935,0.34583914,0.11274885,0.12776698,0.16818863,0.27156386,-0.18958922,-0.073396355,0.1315783,-0.43719137,-0.3752753,-0.46551296,-0.14974144,812.3077,794.17584,807.47253,832.8571,1116.5201,-0.27862548828125,0.0628662109375,0.96728515625,-2.130889892578125,-0.67291259765625,0.351409912109375,1,1.0,1.0,1.0,1.0,15.00
2024-10-11 20:08:42.282,0.88217115,-0.07640346,0.40133208,0.68818194,0.3624112,0.18334441,-0.08059451,0.41827935,0.34583914,0.11274885,0.12776698,0.16818863,0.27156386,-0.18958922,-0.073396355,0.1315783,-0.43719137,-0.3752753,-0.46551296,-0.14974144,815.12823,801.02563,804.65204,835.6777,1120.9524,-0.27862548828125,0.0628662109375,0.96728515625,-2.130889892578125,-0.67291259765625,0.351409912109375,1,1.0,1.0,1.0,1.0,15.00
2024-10-11 20:08:42.283,0.88217115,-0.07640346,0.40133208,0.68818194,0.3624112,0.18334441,-0.08059451,0.41827935,0.34583914,0.11274885,0.12776698,0.16818863,0.27156386,-0.18958922,-0.073396355,0.1315783,-0.43719137,-0.3752753,-0.46551296,-0.14974144,814.3223,803.0403,806.26373,831.2454,760.32965,-0.27862548828125,0.0628662109375,0.96728515625,-2.130889892578125,-0.67291259765625,0.351409912109375,1,1.0,1.0,1.0,1.0,15.00
2024-10-11 20:08:42.284,0.88217115,-0.033638075,0.5146116,0.68818194,0.3624112,0.1727569,-0.032971956,0.41827935,0.34583914,0.11942106,0.17283835,0.16818863,0.27156386,-0.17944005,-0.08944493,0.1315783,-0.43719137,-0.38290656,-0.44904923,-0.14974144,815.5311,802.23444,805.4579,828.022,760.7326,-0.27862548828125,0.0628662109375,0.96728515625,-2.130889892578125,-0.67291259765625,0.351409912109375,1,2.0,1.0,1.0,2.0,15.00
2024-10-11 20:08:42.311,0.88217115,-0.033638075,0.5146116,0.68818194,0.3624112,0.1727569,-0.032971956,0.41827935,0.34583914,0.11942106,0.17283835,0.16818863,0.27156386,-0.17944005,-0.08944493,0.1315783,-0.43719137,-0.38290656,-0.44904923,-0.14974144,815.12823,800.2198,805.05493,832.8571,998.86444,-0.27685546875,0.0634765625,0.96661376953125,-1.517791748046875,0.478515625,0.059814453125,1,2.0,1.0,1.0,2.0,15.00
2024-10-11 20:08:42.312,0.88217115,-0.033638075,0.5146116,0.68818194,0.3624112,0.1727569,-0.032971956,0.41827935,0.34583914,0.11942106,0.17283835,0.16818863,0.27156386,-0.17944005,-0.08944493,0.1315783,-0.43719137,-0.38290656,-0.44904923,-0.14974144,816.337,802.6374,805.05493,830.4396,949.707,-0.27685546875,0.0634765625,0.96661376953125,-1.517791748046875,0.478515625,0.059814453125,1,2.0,1.0,1.0,2.0,15.00
2024-10-11 20:08:42.312,0.88217115,-0.033638075,0.5146116,0.68818194,0.3624112,0.1727569,-0.032971956,0.41827935,0.34583914,0.11942106,0.17283835,0.16818863,0.27156386,-0.17944005,-0.08944493,0.1315783,-0.43719137,-0.38290656,-0.44904923,-0.14974144,821.5751,803.0403,803.8461,826.0073,730.10986,-0.27685546875,0.0634765625,0.96661376953125,-1.517791748046875,0.478515625,0.059814453125,1,2.0,1.0,1.0,2.0,15.00
2024-10-11 20:08:42.313,0.88217115,-0.033638075,0.5146116,0.68818194,0.3624112,0.1727569,-0.032971956,0.41827935,0.34583914,0.11942106,0.17283835,0.16818863,0.27156386,-0.17944005,-0.08944493,0.1315783,-0.43719137,-0.38290656,-0.44904923,-0.14974144,821.978,800.6227,806.6667,829.2308,755.89746,-0.27685546875,0.0634765625,0.96661376953125,-1.517791748046875,0.478515625,0.059814453125,1,2.0,1.0,1.0,2.0,15.00
2024-10-11 20:08:42.313,0.88217115,-0.033638075,0.5146116,0.68818194,0.3624112,0.1727569,-0.032971956,0.41827935,0.34583914,0.11942106,0.17283835,0.16818863,0.27156386,-0.17944005,-0.08944493,0.1315783,-0.43719137,-0.38290656,-0.44904923,-0.14974144,819.5604,801.8315,806.26373,827.2161,855.42126,-0.27685546875,0.0634765625,0.96661376953125,-1.517791748046875,0.478515625,0.059814453125,1,2.0,1.0,1.0,2.0,15.00
2024-10-11 20:08:42.314,0.88217115,-0.033638075,0.5146116,0.68818194,0.3624112,0.1727569,-0.032971956,0.41827935,0.34583914,0.11942106,0.17283835,0.16818863,0.27156386,-0.17944005,-0.08944493,0.1315783,-0.43719137,-0.38290656,-0.44904923,-0.14974144,824.3956,801.4286,803.0403,825.6044,973.47986,-0.27685546875,0.0634765625,0.96661376953125,-1.517791748046875,0.478515625,0.059814453125,1,2.0,1.0,1.0,2.0,15.00
2024-10-11 20:08:42.315,0.88217115,-0.033638075,0.5146116,0.68818194,0.3624112,0.1727569,-0.032971956,0.41827935,0.34583914,0.11942106,0.17283835,0.16818863,0.27156386,-0.17944005,-0.08944493,0.1315783,-0.43719137,-0.38290656,-0.44904923,-0.14974144,826.8132,799.011,805.8608,824.7985,929.15753,-0.27685546875,0.0634765625,0.96661376953125,-1.517791748046875,0.478515625,0.059814453125,1,2.0,1.0,1.0,2.0,15.00
2024-10-11 20:08:42.315,0.88217115,-0.033638075,0.5146116,0.68818194,0.3624112,0.1727569,-0.032971956,0.41827935,0.34583914,0.11942106,0.17283835,0.16818863,0.27156386,-0.17944005,-0.08944493,0.1315783,-0.43719137,-0.38290656,-0.44904923,-0.14974144,826.4103,797.8022,809.0842,821.978,831.6484,-0.27685546875,0.0634765625,0.96661376953125,-1.517791748046875,0.478515625,0.059814453125,1,2.0,1.0,1.0,2.0,15.00
2024-10-11 20:08:42.316,0.88217115,-0.033638075,0.5146116,0.68818194,0.3624112,0.1727569,-0.032971956,0.41827935,0.34583914,0.11942106,0.17283835,0.16818863,0.27156386,-0.17944005,-0.08944493,0.1315783,-0.43719137,-0.38290656,-0.44904923,-0.14974144,824.7985,799.81683,807.0696,825.2015,925.9341,-0.27685546875,0.0634765625,0.96661376953125,-1.517791748046875,0.478515625,0.059814453125,1,2.0,1.0,1.0,2.0,15.00
2024-10-11 20:08:42.316,0.88217115,-0.033638075,0.5146116,0.68818194,0.3624112,0.1727569,-0.032971956,0.41827935,0.34583914,0.11942106,0.17283835,0.16818863,0.27156386,-0.17944005,-0.08944493,0.1315783,-0.43719137,-0.38290656,-0.44904923,-0.14974144,820.7692,797.3993,803.0403,828.022,878.3883,-0.27685546875,0.0634765625,0.96661376953125,-1.517791748046875,0.478515625,0.059814453125,1,2.0,1.0,1.0,2.0,15.00
2024-10-11 20:08:42.317,0.88217115,-0.033638075,0.5146116,0.68818194,0.3624112,0.1727569,-0.032971956,0.41827935,0.34583914,0.11942106,0.17283835,0.16818863,0.27156386,-0.17944005,-0.08944493,0.1315783,-0.43719137,-0.38290656,-0.44904923,-0.14974144,818.3516,794.57874,801.4286,821.1722,735.34796,-0.27685546875,0.0634765625,0.96661376953125,-1.517791748046875,0.478515625,0.059814453125,1,2.0,1.0,1.0,2.0,15.00
2024-10-11 20:08:42.317,0.88217115,-0.033638075,0.5146116,0.68818194,0.3624112,0.1727569,-0.032971956,0.41827935,0.34583914,0.11942106,0.17283835,0.16818863,0.27156386,-0.17944005,-0.08944493,0.1315783,-0.43719137,-0.38290656,-0.44904923,-0.14974144,821.1722,796.1905,802.6374,823.1868,819.9634,-0.27685546875,0.0634765625,0.96661376953125,-1.517791748046875,0.478515625,0.059814453125,1,2.0,1.0,1.0,2.0,15.00
2024-10-11 20:08:42.344,0.88217115,-0.033638075,0.5146116,0.68818194,0.3624112,0.1727569,-0.032971956,0.41827935,0.34583914,0.11942106,0.17283835,0.16818863,0.27156386,-0.17944005,-0.08944493,0.1315783,-0.43719137,-0.38290656,-0.44904923,-0.14974144,816.7399,799.81683,803.8461,826.4103,877.5824,-0.27642822265625,0.05987548828125,0.96307373046875,-1.98883056640625,0.859832763671875,1.278533935546875,1,2.0,1.0,1.0,2.0,15.00
2024-10-11 20:08:42.345,0.88217115,-0.033638075,0.5146116,0.68818194,0.3624112,0.1727569,-0.032971956,0.41827935,0.34583914,0.11942106,0.17283835,0.16818863,0.27156386,-0.17944005,-0.08944493,0.1315783,-0.43719137,-0.38290656,-0.44904923,-0.14974144,813.5165,801.4286,805.4579,828.022,690.2198,-0.27642822265625,0.05987548828125,0.96307373046875,-1.98883056640625,0.859832763671875,1.278533935546875,1,2.0,1.0,1.0,2.0,15.00
2024-10-11 20:08:42.345,0.88217115,-0.033638075,0.5146116,0.68818194,0.3624112,0.1727569,-0.032971956,0.41827935,0.34583914,0.11942106,0.17283835,0.16818863,0.27156386,-0.17944005,-0.08944493,0.1315783,-0.43719137,-0.38290656,-0.44904923,-0.14974144,817.9487,801.8315,800.6227,831.2454,667.6557,-0.27642822265625,0.05987548828125,0.96307373046875,-1.98883056640625,0.859832763671875,1.278533935546875,1,2.0,1.0,1.0,2.0,15.00
2024-10-11 20:08:42.346,0.88217115,-0.033638075,0.5146116,0.68818194,0.3624112,0.1727569,-0.032971956,0.41827935,0.34583914,0.11942106,0.17283835,0.16818863,0.27156386,-0.17944005,-0.08944493,0.1315783,-0.43719137,-0.38290656,-0.44904923,-0.14974144,821.1722,801.4286,798.20514,832.0513,875.16486,-0.27642822265625,0.05987548828125,0.96307373046875,-1.98883056640625,0.859832763671875,1.278533935546875,1,2.0,1.0,1.0,2.0,15.00
2024-10-11 20:08:42.346,0.88217115,-0.033638075,0.5146116,0.68818194,0.3624112,0.1727569,-0.032971956,0.41827935,0.34583914,0.11942106,0.17283835,0.16818863,0.27156386,-0.17944005,-0.08944493,0.1315783,-0.43719137,-0.38290656,-0.44904923,-0.14974144,823.9927,798.60803,798.20514,831.2454,1128.2051,-0.27642822265625,0.05987548828125,0.96307373046875,-1.98883056640625,0.859832763671875,1.278533935546875,1,2.0,1.0,1.0,2.0,15.00
2024-10-11 20:08:42.347,0.88217115,-0.033638075,0.5146116,0.68818194,0.3624112,0.1727569,-0.032971956,0.41827935,0.34583914,0.11942106,0.17283835,0.16818863,0.27156386,-0.17944005,-0.08944493,0.1315783,-0.43719137,-0.38290656,-0.44904923,-0.14974144,816.337,796.99634,797.3993,820.7692,943.663,-0.27642822265625,0.05987548828125,0.96307373046875,-1.98883056640625,0.859832763671875,1.278533935546875,1,2.0,1.0,1.0,2.0,15.00
2024-10-11 20:08:42.348,0.88217115,-0.033638075,0.5146116,0.68818194,0.3624112,0.1727569,-0.032971956,0.41827935,0.34583914,0.11942106,0.17283835,0.16818863,0.27156386,-0.17944005,-0.08944493,0.1315783,-0.43719137,-0.38290656,-0.44904923,-0.14974144,811.9048,795.78754,797.8022,817.1429,784.5055,-0.27642822265625,0.05987548828125,0.96307373046875,-1.98883056640625,0.859832763671875,1.278533935546875,1,2.0,1.0,1.0,2.0,15.00
2024-10-11 20:08:42.348,0.88217115,-0.033638075,0.5146116,0.68818194,0.3624112,0.1727569,-0.032971956,0.41827935,0.34583914,0.11942106,0.17283835,0.16818863,0.27156386,-0.17944005,-0.08944493,0.1315783,-0.43719137,-0.38290656,-0.44904923,-0.14974144,813.5165,794.9817,791.75824,821.978,895.7143,-0.27642822265625,0.05987548828125,0.96307373046875,-1.98883056640625,0.859832763671875,1.278533935546875,1,2.0,1.0,1.0,2.0,15.00
2024-10-11 20:08:42.349,0.88217115,-0.033638075,0.5146116,0.68818194,0.3624112,0.1727569,-0.032971956,0.41827935,0.34583914,0.11942106,0.17283835,0.16818863,0.27156386,-0.17944005,-0.08944493,0.1315783,-0.43719137,-0.38290656,-0.44904923,-0.14974144,813.91943,795.38464,790.54944,816.7399,784.10254,-0.27642822265625,0.05987548828125,0.96307373046875,-1.98883056640625,0.859832763671875,1.278533935546875,1,2.0,1.0,1.0,2.0,15.00
2024-10-11 20:08:42.349,0.88217115,-0.033638075,0.5146116,0.68818194,0.3624112,0.1727569,-0.032971956,0.41827935,0.34583914,0.11942106,0.17283835,0.16818863,0.27156386,-0.17944005,-0.08944493,0.1315783,-0.43719137,-0.38290656,-0.44904923,-0.14974144,806.6667,794.9817,800.2198,811.50183,656.3736,-0.27642822265625,0.05987548828125,0.96307373046875,-1.98883056640625,0.859832763671875,1.278533935546875,1,2.0,1.0,1.0,2.0,15.00
2024-10-11 20:08:42.350,0.88217115,-0.033638075,0.5146116,0.68818194,0.3624112,0.1727569,-0.032971956,0.41827935,0.34583914,0.11942106,0.17283835,0.16818863,0.27156386,-0.17944005,-0.08944493,0.1315783,-0.43719137,-0.38290656,-0.44904923,-0.14974144,807.47253,796.1905,797.8022,816.7399,751.06226,-0.27642822265625,0.05987548828125,0.96307373046875,-1.98883056640625,0.859832763671875,1.278533935546875,1,2.0,1.0,1.0,2.0,15.00
2024-10-11 20:08:42.350,0.88217115,-0.033638075,0.5146116,0.68818194,0.3624112,0.1727569,-0.032971956,0.41827935,0.34583914,0.11942106,0.17283835,0.16818863,0.27156386,-0.17944005,-0.08944493,0.1315783,-0.43719137,-0.38290656,-0.44904923,-0.14974144,808.2784,795.38464,792.96704,816.7399,1011.75824,-0.27642822265625,0.05987548828125,0.96307373046875,-1.98883056640625,0.859832763671875,1.278533935546875,1,2.0,1.0,1.0,2.0,15.00
2024-10-11 20:08:42.446,0.88217115,-0.033638075,0.5146116,0.68818194,0.3624112,0.1727569,-0.032971956,0.41827935,0.34583914,0.11942106,0.17283835,0.16818863,0.27156386,-0.17944005,-0.08944493,0.1315783,-0.43719137,-0.38290656,-0.44904923,-0.14974144,813.5165,794.17584,797.8022,814.7253,875.16486,-0.28887939453125,0.05987548828125,0.96563720703125,-2.25799560546875,0.76263427734375,2.22808837890625,1,2.0,1.0,1.0,2.0,15.00
2024-10-11 20:08:42.447,0.88217115,0.043662418,0.7007048,0.68818194,0.3624112,0.1714921,0.111942895,0.41827935,0.34583914,0.19852625,0.37864292,0.16818863,0.27156386,-0.16121295,-0.103600435,0.1315783,-0.43719137,-0.38475594,-0.4346357,-0.14974144,819.5604,794.9817,799.011,815.9341,648.315,-0.28887939453125,0.05987548828125,0.96563720703125,-2.25799560546875,0.76263427734375,2.22808837890625,1,2.0,1.0,1.0,2.0,15.00
2024-10-11 20:08:42.451,0.88217115,0.043662418,0.7007048,0.68818194,0.3624112,0.1714921,0.111942895,0.41827935,0.34583914,0.19852625,0.37864292,0.16818863,0.27156386,-0.16121295,-0.103600435,0.1315783,-0.43719137,-0.38475594,-0.4346357,-0.14974144,813.1135,794.9817,800.2198,818.7546,891.28204,-0.28887939453125,0.05987548828125,0.96563720703125,-2.25799560546875,0.76263427734375,2.22808837890625,1,2.0,1.0,1.0,2.0,15.00
2024-10-11 20:08:42.451,0.88217115,0.043662418,0.7007048,0.68818194,0.3624112,0.1714921,0.111942895,0.41827935,0.34583914,0.19852625,0.37864292,0.16818863,0.27156386,-0.16121295,-0.103600435,0.1315783,-0.43719137,-0.38475594,-0.4346357,-0.14974144,807.47253,792.1612,797.3993,816.337,960.989,-0.28887939453125,0.05987548828125,0.96563720703125,-2.25799560546875,0.76263427734375,2.22808837890625,1,2.0,1.0,1.0,2.0,15.00
2024-10-11 20:08:42.452,0.88217115,0.043662418,0.7007048,0.68818194,0.3624112,0.1714921,0.111942895,0.41827935,0.34583914,0.19852625,0.37864292,0.16818863,0.27156386,-0.16121295,-0.103600435,0.1315783,-0.43719137,-0.38475594,-0.4346357,-0.14974144,803.8461,795.38464,796.1905,815.9341,771.2088,-0.28887939453125,0.05987548828125,0.96563720703125,-2.25799560546875,0.76263427734375,2.22808837890625,1,2.0,1.0,1.0,2.0,15.00
2024-10-11 20:08:42.452,0.88217115,0.043662418,0.7007048,0.68818194,0.3624112,0.1714921,0.111942895,0.41827935,0.34583914,0.19852625,0.37864292,0.16818863,0.27156386,-0.16121295,-0.103600435,0.1315783,-0.43719137,-0.38475594,-0.4346357,-0.14974144,805.8608,796.1905,802.23444,815.9341,746.63007,-0.28887939453125,0.05987548828125,0.96563720703125,-2.25799560546875,0.76263427734375,2.22808837890625,1,2.0,1.0,1.0,2.0,15.00
2024-10-11 20:08:42.453,0.88217115,0.043662418,0.7007048,0.68818194,0.3624112,0.1714921,0.111942895,0.41827935,0.34583914,0.19852625,0.37864292,0.16818863,0.27156386,-0.16121295,-0.103600435,0.1315783,-0.43719137,-0.38475594,-0.4346357,-0.14974144,809.89014,792.96704,800.2198,819.15753,777.6557,-0.28887939453125,0.05987548828125,0.96563720703125,-2.25799560546875,0.76263427734375,2.22808837890625,1,2.0,1.0,1.0,2.0,15.00
2024-10-11 20:08:42.453,0.88217115,0.043662418,0.7007048,0.68818194,0.3624112,0.1714921,0.111942895,0.41827935,0.34583914,0.19852625,0.37864292,0.16818863,0.27156386,-0.16121295,-0.103600435,0.1315783,-0.43719137,-0.38475594,-0.4346357,-0.14974144,805.4579,792.5641,796.1905,827.619,990.40295,-0.28887939453125,0.05987548828125,0.96563720703125,-2.25799560546875,0.76263427734375,2.22808837890625,1,2.0,1.0,1.0,2.0,15.00
2024-10-11 20:08:42.454,0.88217115,0.043662418,0.7007048,0.68818194,0.3624112,0.1714921,0.111942895,0.41827935,0.34583914,0.19852625,0.37864292,0.16818863,0.27156386,-0.16121295,-0.103600435,0.1315783,-0.43719137,-0.38475594,-0.4346357,-0.14974144,800.2198,798.20514,798.20514,820.3663,819.15753,-0.28887939453125,0.05987548828125,0.96563720703125,-2.25799560546875,0.76263427734375,2.22808837890625,1,2.0,1.0,1.0,2.0,15.00
2024-10-11 20:08:42.454,0.88217115,0.043662418,0.7007048,0.68818194,0.3624112,0.1714921,0.111942895,0.41827935,0.34583914,0.19852625,0.37864292,0.16818863,0.27156386,-0.16121295,-0.103600435,0.1315783,-0.43719137,-0.38475594,-0.4346357,-0.14974144,798.20514,799.011,798.60803,815.5311,604.3956,-0.28887939453125,0.05987548828125,0.96563720703125,-2.25799560546875,0.76263427734375,2.22808837890625,1,2.0,1.0,1.0,2.0,15.00
2024-10-11 20:08:42.455,0.88217115,0.043662418,0.7007048,0.68818194,0.3624112,0.1714921,0.111942895,0.41827935,0.34583914,0.19852625,0.37864292,0.16818863,0.27156386,-0.16121295,-0.103600435,0.1315783,-0.43719137,-0.38475594,-0.4346357,-0.14974144,803.8461,791.3553,799.81683,813.1135,768.3883,-0.28887939453125,0.05987548828125,0.96563720703125,-2.25799560546875,0.76263427734375,2.22808837890625,1,2.0,1.0,1.0,2.0,15.00
2024-10-11 20:08:42.456,0.88217115,0.043662418,0.7007048,0.68818194,0.3624112,0.1714921,0.111942895,0.41827935,0.34583914,0.19852625,0.37864292,0.16818863,0.27156386,-0.16121295,-0.103600435,0.1315783,-0.43719137,-0.38475594,-0.4346357,-0.14974144,803.44324,793.36993,800.6227,808.68134,798.20514,-0.28887939453125,0.05987548828125,0.96563720703125,-2.25799560546875,0.76263427734375,2.22808837890625,1,2.0,1.0,1.0,2.0,15.00
2024-10-11 20:08:42.456,0.88217115,0.043662418,0.7007048,0.68818194,0.3624112,0.1714921,0.111942895,0.41827935,0.34583914,0.19852625,0.37864292,0.16818863,0.27156386,-0.16121295,-0.103600435,0.1315783,-0.43719137,-0.38475594,-0.4346357,-0.14974144,800.2198,794.9817,797.8022,810.696,609.2308,-0.28887939453125,0.05987548828125,0.96563720703125,-2.25799560546875,0.76263427734375,2.22808837890625,1,2.0,1.0,1.0,2.0,15.00
2024-10-11 20:08:42.457,0.88217115,0.043662418,0.7007048,0.68818194,0.3624112,0.1714921,0.111942895,0.41827935,0.34583914,0.19852625,0.37864292,0.16818863,0.27156386,-0.16121295,-0.103600435,0.1315783,-0.43719137,-0.38475594,-0.4346357,-0.14974144,805.8608,794.17584,796.99634,813.91943,585.05493,-0.28887939453125,0.05987548828125,0.96563720703125,-2.25799560546875,0.76263427734375,2.22808837890625,1,2.0,1.0,1.0,2.0,15.00
2024-10-11 20:08:42.457,0.88217115,0.043662418,0.7007048,0.68818194,0.3624112,0.1714921,0.111942895,0.41827935,0.34583914,0.19852625,0.37864292,0.16818863,0.27156386,-0.16121295,-0.103600435,0.1315783,-0.43719137,-0.38475594,-0.4346357,-0.14974144,809.0842,794.17584,798.20514,813.91943,722.0513,-0.28887939453125,0.05987548828125,0.96563720703125,-2.25799560546875,0.76263427734375,2.22808837890625,1,2.0,1.0,1.0,2.0,15.00
2024-10-11 20:08:42.458,0.88217115,0.043662418,0.7007048,0.68818194,0.3624112,0.1714921,0.111942895,0.41827935,0.34583914,0.19852625,0.37864292,0.16818863,0.27156386,-0.16121295,-0.103600435,0.1315783,-0.43719137,-0.38475594,-0.4346357,-0.14974144,808.2784,796.1905,799.011,816.7399,766.77655,-0.28887939453125,0.05987548828125,0.96563720703125,-2.25799560546875,0.76263427734375,2.22808837890625,1,2.0,1.0,1.0,2.0,15.00
2024-10-11 20:08:42.458,0.88217115,0.043662418,0.7007048,0.68818194,0.3624112,0.1714921,0.111942895,0.41827935,0.34583914,0.19852625,0.37864292,0.16818863,0.27156386,-0.16121295,-0.103600435,0.1315783,-0.43719137,-0.38475594,-0.4346357,-0.14974144,808.68134,799.011,802.6374,822.7839,735.7509,-0.28887939453125,0.05987548828125,0.96563720703125,-2.25799560546875,0.76263427734375,2.22808837890625,1,2.0,1.0,1.0,2.0,15.00
2024-10-11 20:08:42.459,0.88217115,0.043662418,0.7007048,0.68818194,0.3624112,0.1714921,0.111942895,0.41827935,0.34583914,0.19852625,0.37864292,0.16818863,0.27156386,-0.16121295,-0.103600435,0.1315783,-0.43719137,-0.38475594,-0.4346357,-0.14974144,802.23444,798.60803,803.44324,819.5604,857.03296,-0.28887939453125,0.05987548828125,0.96563720703125,-2.25799560546875,0.76263427734375,2.22808837890625,1,2.0,1.0,1.0,2.0,15.00
2024-10-11 20:08:42.459,0.88217115,0.043662418,0.7007048,0.68818194,0.3624112,0.1714921,0.111942895,0.41827935,0.34583914,0.19852625,0.37864292,0.16818863,0.27156386,-0.16121295,-0.103600435,0.1315783,-0.43719137,-0.38475594,-0.4346357,-0.14974144,803.0403,796.99634,803.8461,816.337,1092.3444,-0.28887939453125,0.05987548828125,0.96563720703125,-2.25799560546875,0.76263427734375,2.22808837890625,1,2.0,1.0,1.0,2.0,15.00
2024-10-11 20:08:42.460,0.88217115,0.043662418,0.7007048,0.68818194,0.3624112,0.1714921,0.111942895,0.41827935,0.34583914,0.19852625,0.37864292,0.16818863,0.27156386,-0.16121295,-0.103600435,0.1315783,-0.43719137,-0.38475594,-0.4346357,-0.14974144,805.05493,797.3993,799.81683,816.337,1043.9927,-0.28887939453125,0.05987548828125,0.96563720703125,-2.25799560546875,0.76263427734375,2.22808837890625,1,2.0,1.0,1.0,2.0,15.00
2024-10-11 20:08:42.462,0.88217115,0.043662418,0.7007048,0.68818194,0.3624112,0.1714921,0.111942895,0.41827935,0.34583914,0.19852625,0.37864292,0.16818863,0.27156386,-0.16121295,-0.103600435,0.1315783,-0.43719137,-0.38475594,-0.4346357,-0.14974144,806.26373,795.78754,795.78754,815.12823,753.47986,-0.28887939453125,0.05987548828125,0.96563720703125,-2.25799560546875,0.76263427734375,2.22808837890625,1,2.0,1.0,1.0,2.0,15.00
2024-10-11 20:08:42.463,0.88217115,0.043662418,0.7007048,0.68818194,0.3624112,0.1714921,0.111942895,0.41827935,0.34583914,0.19852625,0.37864292,0.16818863,0.27156386,-0.16121295,-0.103600435,0.1315783,-0.43719137,-0.38475594,-0.4346357,-0.14974144,806.6667,795.38464,796.5934,815.9341,661.2088,-0.28887939453125,0.05987548828125,0.96563720703125,-2.25799560546875,0.76263427734375,2.22808837890625,1,2.0,1.0,1.0,2.0,15.00
2024-10-11 20:08:42.463,0.88217115,0.043662418,0.7007048,0.68818194,0.3624112,0.1714921,0.111942895,0.41827935,0.34583914,0.19852625,0.37864292,0.16818863,0.27156386,-0.16121295,-0.103600435,0.1315783,-0.43719137,-0.38475594,-0.4346357,-0.14974144,805.4579,798.20514,797.3993,816.337,826.8132,-0.28887939453125,0.05987548828125,0.96563720703125,-2.25799560546875,0.76263427734375,2.22808837890625,1,2.0,1.0,1.0,2.0,15.00
2024-10-11 20:08:42.464,0.88217115,0.043662418,0.7007048,0.68818194,0.3624112,0.1714921,0.111942895,0.41827935,0.34583914,0.19852625,0.37864292,0.16818863,0.27156386,-0.16121295,-0.103600435,0.1315783,-0.43719137,-0.38475594,-0.4346357,-0.14974144,799.011,796.5934,801.8315,811.0989,844.1392,-0.28887939453125,0.05987548828125,0.96563720703125,-2.25799560546875,0.76263427734375,2.22808837890625,1,2.0,1.0,1.0,2.0,15.00
2024-10-11 20:08:42.489,0.88217115,0.043662418,0.7007048,0.68818194,0.3624112,0.1714921,0.111942895,0.41827935,0.34583914,0.19852625,0.37864292,0.16818863,0.27156386,-0.16121295,-0.103600435,0.1315783,-0.43719137,-0.38475594,-0.4346357,-0.14974144,803.44324,801.02563,804.2491,806.6667,675.31134,-0.29150390625,0.0523681640625,0.9462890625,-2.16827392578125,0.67291259765625,1.62994384765625,1,2.0,1.0,1.0,2.0,15.00
2024-10-11 20:08:42.490,0.88217115,0.043662418,0.7007048,0.68818194,0.3624112,0.1714921,0.111942895,0.41827935,0.34583914,0.19852625,0.37864292,0.16818863,0.27156386,-0.16121295,-0.103600435,0.1315783,-0.43719137,-0.38475594,-0.4346357,-0.14974144,817.9487,805.05493,803.0403,813.1135,676.1172,-0.29150390625,0.0523681640625,0.9462890625,-2.16827392578125,0.67291259765625,1.62994384765625,1,2.0,1.0,1.0,2.0,15.00
2024-10-11 20:08:42.490,0.88217115,0.043662418,0.7007048,0.68818194,0.3624112,0.1714921,0.111942895,0.41827935,0.34583914,0.19852625,0.37864292,0.16818863,0.27156386,-0.16121295,-0.103600435,0.1315783,-0.43719137,-0.38475594,-0.4346357,-0.14974144,818.3516,797.8022,805.8608,820.3663,845.34796,-0.29150390625,0.0523681640625,0.9462890625,-2.16827392578125,0.67291259765625,1.62994384765625,1,2.0,1.0,1.0,2.0,15.00
2024-10-11 20:08:42.491,0.88217115,0.1692971,0.9244464,0.68818194,0.3624112,0.18760256,0.3151766,0.41827935,0.34583914,0.2842002,0.5769496,0.16818863,0.27156386,-0.13822043,-0.10781614,0.1315783,-0.43719137,-0.3848883,-0.42817894,-0.14974144,811.9048,801.4286,802.6374,817.5458,783.69965,-0.29150390625,0.0523681640625,0.9462890625,-2.16827392578125,0.67291259765625,1.62994384765625,1,2.0,1.0,1.0,2.0,15.00
2024-10-11 20:08:42.495,0.88217115,0.1692971,0.9244464,0.68818194,0.3624112,0.18760256,0.3151766,0.41827935,0.34583914,0.2842002,0.5769496,0.16818863,0.27156386,-0.13822043,-0.10781614,0.1315783,-0.43719137,-0.3848883,-0.42817894,-0.14974144,818.7546,804.2491,795.38464,815.5311,669.2674,-0.29150390625,0.0523681640625,0.9462890625,-2.16827392578125,0.67291259765625,1.62994384765625,1,2.0,1.0,1.0,2.0,15.00
2024-10-11 20:08:42.496,0.88217115,0.1692971,0.9244464,0.68818194,0.3624112,0.18760256,0.3151766,0.41827935,0.34583914,0.2842002,0.5769496,0.16818863,0.27156386,-0.13822043,-0.10781614,0.1315783,-0.43719137,-0.3848883,-0.42817894,-0.14974144,813.91943,798.60803,794.9817,812.71063,843.73627,-0.29150390625,0.0523681640625,0.9462890625,-2.16827392578125,0.67291259765625,1.62994384765625,1,2.0,1.0,1.0,2.0,15.00
2024-10-11 20:08:42.497,0.88217115,0.1692971,0.9244464,0.68818194,0.3624112,0.18760256,0.3151766,0.41827935,0.34583914,0.2842002,0.5769496,0.16818863,0.27156386,-0.13822043,-0.10781614,0.1315783,-0.43719137,-0.3848883,-0.42817894,-0.14974144,809.89014,795.38464,793.7729,813.91943,1266.4103,-0.29150390625,0.0523681640625,0.9462890625,-2.16827392578125,0.67291259765625,1.62994384765625,1,2.0,1.0,1.0,2.0,15.00
2024-10-11 20:08:42.498,0.88217115,0.1692971,0.9244464,0.68818194,0.3624112,0.18760256,0.3151766,0.41827935,0.34583914,0.2842002,0.5769496,0.16818863,0.27156386,-0.13822043,-0.10781614,0.1315783,-0.43719137,-0.3848883,-0.42817894,-0.14974144,817.9487,794.9817,796.5934,815.9341,1430.0,-0.29150390625,0.0523681640625,0.9462890625,-2.16827392578125,0.67291259765625,1.62994384765625,1,2.0,1.0,1.0,2.0,15.00
2024-10-11 20:08:42.498,0.88217115,0.1692971,0.9244464,0.68818194,0.3624112,0.18760256,0.3151766,0.41827935,0.34583914,0.2842002,0.5769496,0.16818863,0.27156386,-0.13822043,-0.10781614,0.1315783,-0.43719137,-0.3848883,-0.42817894,-0.14974144,815.5311,800.2198,799.41394,809.4872,1037.5458,-0.29150390625,0.0523681640625,0.9462890625,-2.16827392578125,0.67291259765625,1.62994384765625,1,2.0,1.0,1.0,2.0,15.00
2024-10-11 20:08:42.499,0.88217115,0.1692971,0.9244464,0.68818194,0.3624112,0.18760256,0.3151766,0.41827935,0.34583914,0.2842002,0.5769496,0.16818863,0.27156386,-0.13822043,-0.10781614,0.1315783,-0.43719137,-0.3848883,-0.42817894,-0.14974144,815.9341,801.02563,795.38464,810.696,685.38464,-0.29150390625,0.0523681640625,0.9462890625,-2.16827392578125,0.67291259765625,1.62994384765625,1,2.0,1.0,1.0,2.0,15.00
2024-10-11 20:08:42.499,0.88217115,0.1692971,0.9244464,0.68818194,0.3624112,0.18760256,0.3151766,0.41827935,0.34583914,0.2842002,0.5769496,0.16818863,0.27156386,-0.13822043,-0.10781614,0.1315783,-0.43719137,-0.3848883,-0.42817894,-0.14974144,813.91943,796.99634,796.5934,811.0989,629.7802,-0.29150390625,0.0523681640625,0.9462890625,-2.16827392578125,0.67291259765625,1.62994384765625,1,2.0,1.0,1.0,2.0,15.00
2024-10-11 20:08:42.500,0.88217115,0.1692971,0.9244464,0.68818194,0.3624112,0.18760256,0.3151766,0.41827935,0.34583914,0.2842002,0.5769496,0.16818863,0.27156386,-0.13822043,-0.10781614,0.1315783,-0.43719137,-0.3848883,-0.42817894,-0.14974144,814.7253,798.20514,796.1905,809.89014,607.619,-0.29150390625,0.0523681640625,0.9462890625,-2.16827392578125,0.67291259765625,1.62994384765625,1,2.0,1.0,1.0,2.0,15.00
2024-10-11 20:08:42.526,0.88217115,0.1692971,0.9244464,0.68818194,0.3624112,0.18760256,0.3151766,0.41827935,0.34583914,0.2842002,0.5769496,0.16818863,0.27156386,-0.13822043,-0.10781614,0.1315783,-0.43719137,-0.3848883,-0.42817894,-0.14974144,817.5458,797.8022,791.75824,813.1135,653.1502,-0.29913330078125,0.060791015625,0.97723388671875,-1.308441162109375,-1.65985107421875,0.800018310546875,1,2.0,1.0,1.0,2.0,15.00
2024-10-11 20:08:42.530,0.88217115,0.1692971,0.9244464,0.68818194,0.3624112,0.18760256,0.3151766,0.41827935,0.34583914,0.2842002,0.5769496,0.16818863,0.27156386,-0.13822043,-0.10781614,0.1315783,-0.43719137,-0.3848883,-0.42817894,-0.14974144,812.3077,793.7729,793.36993,809.0842,679.7436,-0.29913330078125,0.060791015625,0.97723388671875,-1.308441162109375,-1.65985107421875,0.800018310546875,1,2.0,1.0,1.0,2.0,15.00
2024-10-11 20:08:42.531,0.88217115,0.1692971,0.9244464,0.68818194,0.3624112,0.18760256,0.3151766,0.41827935,0.34583914,0.2842002,0.5769496,0.16818863,0.27156386,-0.13822043,-0.10781614,0.1315783,-0.43719137,-0.3848883,-0.42817894,-0.14974144,817.5458,795.78754,791.3553,804.2491,654.7619,-0.29913330078125,0.060791015625,0.97723388671875,-1.308441162109375,-1.65985107421875,0.800018310546875,1,2.0,1.0,1.0,2.0,15.00
2024-10-11 20:08:42.532,0.88217115,0.1692971,0.9244464,0.68818194,0.3624112,0.18760256,0.3151766,0.41827935,0.34583914,0.2842002,0.5769496,0.16818863,0.27156386,-0.13822043,-0.10781614,0.1315783,-0.43719137,-0.3848883,-0.42817894,-0.14974144,826.8132,798.20514,793.7729,810.696,607.2161,-0.29913330078125,0.060791015625,0.97723388671875,-1.308441162109375,-1.65985107421875,0.800018310546875,1,2.0,1.0,1.0,2.0,15.00
2024-10-11 20:08:42.532,0.88217115,0.1692971,0.9244464,0.68818194,0.3624112,0.18760256,0.3151766,0.41827935,0.34583914,0.2842002,0.5769496,0.16818863,0.27156386,-0.13822043,-0.10781614,0.1315783,-0.43719137,-0.3848883,-0.42817894,-0.14974144,812.71063,801.02563,797.3993,804.2491,579.011,-0.29913330078125,0.060791015625,0.97723388671875,-1.308441162109375,-1.65985107421875,0.800018310546875,1,2.0,1.0,1.0,2.0,15.00
2024-10-11 20:08:42.533,0.88217115,0.1692971,0.9244464,0.68818194,0.3624112,0.18760256,0.3151766,0.41827935,0.34583914,0.2842002,0.5769496,0.16818863,0.27156386,-0.13822043,-0.10781614,0.1315783,-0.43719137,-0.3848883,-0.42817894,-0.14974144,793.7729,801.8315,798.60803,791.3553,702.3077,-0.29913330078125,0.060791015625,0.97723388671875,-1.308441162109375,-1.65985107421875,0.800018310546875,1,2.0,1.0,1.0,2.0,15.00
2024-10-11 20:08:42.533,0.88217115,0.1692971,0.9244464,0.68818194,0.3624112,0.18760256,0.3151766,0.41827935,0.34583914,0.2842002,0.5769496,0.16818863,0.27156386,-0.13822043,-0.10781614,0.1315783,-0.43719137,-0.3848883,-0.42817894,-0.14974144,795.38464,795.78754,801.4286,796.1905,831.6484,-0.29913330078125,0.060791015625,0.97723388671875,-1.308441162109375,-1.65985107421875,0.800018310546875,1,2.0,1.0,1.0,2.0,15.00
2024-10-11 20:08:42.534,0.88217115,0.1692971,0.9244464,0.68818194,0.3624112,0.18760256,0.3151766,0.41827935,0.34583914,0.2842002,0.5769496,0.16818863,0.27156386,-0.13822043,-0.10781614,0.1315783,-0.43719137,-0.3848883,-0.42817894,-0.14974144,807.0696,801.02563,801.4286,811.50183,776.4469,-0.29913330078125,0.060791015625,0.97723388671875,-1.308441162109375,-1.65985107421875,0.800018310546875,1,2.0,1.0,1.0,2.0,15.00
