TimeStamp,Delta_TP9,Delta_AF7,Delta_AF8,Delta_TP10,Theta_TP9,Theta_AF7,Theta_AF8,Theta_TP10,Alpha_TP9,Alpha_AF7,Alpha_AF8,Alpha_TP10,Beta_TP9,Beta_AF7,Beta_AF8,Beta_TP10,Gamma_TP9,Gamma_AF7,Gamma_AF8,Gamma_TP10,RAW_TP9,RAW_AF7,RAW_AF8,RAW_TP10,AUX_RIGHT,Accelerometer_X,Accelerometer_Y,Accelerometer_Z,Gyro_X,Gyro_Y,Gyro_Z,HeadBandOn,HSI_TP9,HSI_AF7,HSI_AF8,HSI_TP10,Battery,Elements
2024-10-11 20:18:07.441,0.9226648,1.223096,0.9833524,1.180848,0.7242026,0.8542757,0.64697987,1.1783756,1.4000418,0.28635478,-0.13190116,1.0263373,0.88326967,0.43999588,-0.17199731,0.6878353,0.32794255,0.08266512,-0.1049121,0.07152429,773.6264,824.3956,815.9341,767.98535,1007.72894,-0.1390380859375,0.09771728515625,1.00213623046875,-6.661834716796875,-24.905242919921875,-7.85064697265625,1,1.0,1.0,1.0,1.0,10.00
2024-10-11 20:18:07.443,0.9226648,1.223096,0.9833524,1.180848,0.7242026,0.8542757,0.64697987,1.1783756,1.4000418,0.28635478,-0.13190116,1.0263373,0.88326967,0.43999588,-0.17199731,0.6878353,0.32794255,0.08266512,-0.1049121,0.07152429,764.7619,840.9158,811.9048,753.0769,801.8315,-0.1390380859375,0.09771728515625,1.00213623046875,-6.661834716796875,-24.905242919921875,-7.85064697265625,1,1.0,1.0,1.0,1.0,10.00
2024-10-11 20:18:07.445,0.9226648,1.223096,0.9833524,1.180848,0.7242026,0.8542757,0.64697987,1.1783756,1.4000418,0.28635478,-0.13190116,1.0263373,0.88326967,0.43999588,-0.17199731,0.6878353,0.32794255,0.08266512,-0.1049121,0.07152429,745.82416,842.52747,806.26373,738.5714,720.84247,-0.1390380859375,0.09771728515625,1.00213623046875,-6.661834716796875,-24.905242919921875,-7.85064697265625,1,1.0,1.0,1.0,1.0,10.00
2024-10-11 20:18:07.446,0.9226648,1.223096,0.9833524,1.180848,0.7242026,0.8542757,0.64697987,1.1783756,1.4000418,0.28635478,-0.13190116,1.0263373,0.88326967,0.43999588,-0.17199731,0.6878353,0.32794255,0.08266512,-0.1049121,0.07152429,742.1978,845.34796,807.0696,739.3773,740.18317,-0.1390380859375,0.09771728515625,1.00213623046875,-6.661834716796875,-24.905242919921875,-7.85064697265625,1,1.0,1.0,1.0,1.0,10.00
2024-10-11 20:18:07.447,0.9226648,1.223096,0.9833524,1.180848,0.7242026,0.8542757,0.64697987,1.1783756,1.4000418,0.28635478,-0.13190116,1.0263373,0.88326967,0.43999588,-0.17199731,0.6878353,0.32794255,0.08266512,-0.1049121,0.07152429,742.6007,852.6007,809.89014,735.34796,620.10986,-0.1390380859375,0.09771728515625,1.00213623046875,-6.661834716796875,-24.905242919921875,-7.85064697265625,1,1.0,1.0,1.0,1.0,10.00
2024-10-11 20:18:07.448,0.9226648,1.223096,0.9833524,1.180848,0.7242026,0.8542757,0.64697987,1.1783756,1.4000418,0.28635478,-0.13190116,1.0263373,0.88326967,0.43999588,-0.17199731,0.6878353,0.32794255,0.08266512,-0.1049121,0.07152429,726.4835,866.7033,807.0696,708.3516,715.2015,-0.1390380859375,0.09771728515625,1.00213623046875,-6.661834716796875,-24.905242919921875,-7.85064697265625,1,1.0,1.0,1.0,1.0,10.00
2024-10-11 20:18:07.449,0.9226648,1.223096,0.9833524,1.180848,0.7242026,0.8542757,0.64697987,1.1783756,1.4000418,0.28635478,-0.13190116,1.0263373,0.88326967,0.43999588,-0.17199731,0.6878353,0.32794255,0.08266512,-0.1049121,0.07152429,705.12823,867.1062,803.8461,684.57874,914.65204,-0.1390380859375,0.09771728515625,1.00213623046875,-6.661834716796875,-24.905242919921875,-7.85064697265625,1,1.0,1.0,1.0,1.0,10.00
2024-10-11 20:18:07.450,0.9226648,1.223096,0.9833524,1.180848,0.7242026,0.8542757,0.64697987,1.1783756,1.4000418,0.28635478,-0.13190116,1.0263373,0.88326967,0.43999588,-0.17199731,0.6878353,0.32794255,0.08266512,-0.1049121,0.07152429,705.5311,865.89746,803.44324,694.2491,1044.3956,-0.1390380859375,0.09771728515625,1.00213623046875,-6.661834716796875,-24.905242919921875,-7.85064697265625,1,1.0,1.0,1.0,1.0,10.00
2024-10-11 20:18:07.451,0.9226648,1.223096,0.9833524,1.180848,0.7242026,0.8542757,0.64697987,1.1783756,1.4000418,0.28635478,-0.13190116,1.0263373,0.88326967,0.43999588,-0.17199731,0.6878353,0.32794255,0.08266512,-0.1049121,0.07152429,711.5751,871.53845,799.41394,700.293,918.68134,-0.1390380859375,0.09771728515625,1.00213623046875,-6.661834716796875,-24.905242919921875,-7.85064697265625,1,1.0,1.0,1.0,1.0,10.00
2024-10-11 20:18:07.452,0.9226648,1.223096,0.9833524,1.180848,0.7242026,0.8542757,0.64697987,1.1783756,1.4000418,0.28635478,-0.13190116,1.0263373,0.88326967,0.43999588,-0.17199731,0.6878353,0.32794255,0.08266512,-0.1049121,0.07152429,707.9487,875.56775,795.78754,686.5934,623.73627,-0.1390380859375,0.09771728515625,1.00213623046875,-6.661834716796875,-24.905242919921875,-7.85064697265625,1,1.0,1.0,1.0,1.0,10.00
2024-10-11 20:18:07.452,0.9226648,1.223096,0.9833524,1.180848,0.7242026,0.8542757,0.64697987,1.1783756,1.4000418,0.28635478,-0.13190116,1.0263373,0.88326967,0.43999588,-0.17199731,0.6878353,0.32794255,0.08266512,-0.1049121,0.07152429,698.2784,877.5824,789.7436,674.10254,891.685,-0.1390380859375,0.09771728515625,1.00213623046875,-6.661834716796875,-24.905242919921875,-7.85064697265625,1,1.0,1.0,1.0,1.0,10.00
2024-10-11 20:18:07.453,0.9226648,1.223096,0.9833524,1.180848,0.7242026,0.8542757,0.64697987,1.1783756,1.4000418,0.28635478,-0.13190116,1.0263373,0.88326967,0.43999588,-0.17199731,0.6878353,0.32794255,0.08266512,-0.1049121,0.07152429,696.6667,878.3883,784.90845,672.8938,1008.1319,-0.1390380859375,0.09771728515625,1.00213623046875,-6.661834716796875,-24.905242919921875,-7.85064697265625,1,1.0,1.0,1.0,1.0,10.00
2024-10-11 20:18:07.544,0.9226648,1.223096,0.9833524,1.180848,0.7242026,0.8542757,0.64697987,1.1783756,1.4000418,0.28635478,-0.13190116,1.0263373,0.88326967,0.43999588,-0.17199731,0.6878353,0.32794255,0.08266512,-0.1049121,0.07152429,708.3516,878.3883,788.93774,685.78754,828.4249,-0.1094970703125,0.08135986328125,0.98779296875,-6.68426513671875,-44.045867919921875,-13.316192626953125,1,1.0,1.0,1.0,1.0,10.00
2024-10-11 20:18:07.545,0.9226648,1.223096,0.9833524,1.180848,0.7242026,0.8542757,0.64697987,1.1783756,1.4000418,0.28635478,-0.13190116,1.0263373,0.88326967,0.43999588,-0.17199731,0.6878353,0.32794255,0.08266512,-0.1049121,0.07152429,709.9634,876.3736,788.93774,692.6374,737.3626,-0.1094970703125,0.08135986328125,0.98779296875,-6.68426513671875,-44.045867919921875,-13.316192626953125,1,1.0,1.0,1.0,1.0,10.00
2024-10-11 20:18:07.546,0.9226648,1.223096,0.9833524,1.180848,0.7242026,0.8542757,0.64697987,1.1783756,1.4000418,0.28635478,-0.13190116,1.0263373,0.88326967,0.43999588,-0.17199731,0.6878353,0.32794255,0.08266512,-0.1049121,0.07152429,711.978,873.1502,782.0879,695.05493,882.01465,-0.1094970703125,0.08135986328125,0.98779296875,-6.68426513671875,-44.045867919921875,-13.316192626953125,1,1.0,1.0,1.0,1.0,10.00
2024-10-11 20:18:07.547,0.9226648,1.1669228,0.9833524,1.180848,0.7242026,0.7666372,0.64697987,1.1783756,1.4000418,0.23635851,-0.13190116,1.0263373,0.88326967,0.4782142,-0.17199731,0.6878353,0.32794255,0.097334474,-0.1049121,0.07152429,714.7985,867.9121,784.10254,696.26373,1016.5934,-0.1094970703125,0.08135986328125,0.98779296875,-6.68426513671875,-44.045867919921875,-13.316192626953125,1,1.0,1.0,1.0,1.0,10.00
2024-10-11 20:18:07.551,0.9226648,1.1669228,0.9833524,1.180848,0.7242026,0.7666372,0.64697987,1.1783756,1.4000418,0.23635851,-0.13190116,1.0263373,0.88326967,0.4782142,-0.17199731,0.6878353,0.32794255,0.097334474,-0.1049121,0.07152429,722.8571,861.8681,787.326,707.1429,754.2857,-0.1094970703125,0.08135986328125,0.98779296875,-6.68426513671875,-44.045867919921875,-13.316192626953125,1,1.0,1.0,1.0,1.0,10.00
2024-10-11 20:18:07.552,0.9226648,1.1669228,0.9833524,1.180848,0.7242026,0.7666372,0.64697987,1.1783756,1.4000418,0.23635851,-0.13190116,1.0263373,0.88326967,0.4782142,-0.17199731,0.6878353,0.32794255,0.097334474,-0.1049121,0.07152429,746.63007,854.61536,783.69965,732.9304,712.381,-0.1094970703125,0.08135986328125,0.98779296875,-6.68426513671875,-44.045867919921875,-13.316192626953125,1,1.0,1.0,1.0,1.0,10.00
2024-10-11 20:18:07.553,0.9226648,1.1669228,0.9833524,1.180848,0.7242026,0.7666372,0.64697987,1.1783756,1.4000418,0.23635851,-0.13190116,1.0263373,0.88326967,0.4782142,-0.17199731,0.6878353,0.32794255,0.097334474,-0.1049121,0.07152429,766.3736,845.7509,784.10254,755.4945,1012.5641,-0.1094970703125,0.08135986328125,0.98779296875,-6.68426513671875,-44.045867919921875,-13.316192626953125,1,1.0,1.0,1.0,1.0,10.00
2024-10-11 20:18:07.554,0.9226648,1.1669228,0.9833524,1.180848,0.7242026,0.7666372,0.64697987,1.1783756,1.4000418,0.23635851,-0.13190116,1.0263373,0.88326967,0.4782142,-0.17199731,0.6878353,0.32794255,0.097334474,-0.1049121,0.07152429,776.8498,840.9158,780.07324,753.8828,1047.619,-0.1094970703125,0.08135986328125,0.98779296875,-6.68426513671875,-44.045867919921875,-13.316192626953125,1,1.0,1.0,1.0,1.0,10.00
2024-10-11 20:18:07.554,0.9226648,1.1669228,0.9833524,1.180848,0.7242026,0.7666372,0.64697987,1.1783756,1.4000418,0.23635851,-0.13190116,1.0263373,0.88326967,0.4782142,-0.17199731,0.6878353,0.32794255,0.097334474,-0.1049121,0.07152429,789.34064,838.9011,777.6557,749.0476,803.44324,-0.1094970703125,0.08135986328125,0.98779296875,-6.68426513671875,-44.045867919921875,-13.316192626953125,1,1.0,1.0,1.0,1.0,10.00
2024-10-11 20:18:07.555,0.9226648,1.1669228,0.9833524,1.180848,0.7242026,0.7666372,0.64697987,1.1783756,1.4000418,0.23635851,-0.13190116,1.0263373,0.88326967,0.4782142,-0.17199731,0.6878353,0.32794255,0.097334474,-0.1049121,0.07152429,809.0842,829.6337,778.0586,772.01465,586.6667,-0.1094970703125,0.08135986328125,0.98779296875,-6.68426513671875,-44.045867919921875,-13.316192626953125,1,1.0,1.0,1.0,1.0,10.00
2024-10-11 20:18:07.556,0.9226648,1.1669228,0.9833524,1.180848,0.7242026,0.7666372,0.64697987,1.1783756,1.4000418,0.23635851,-0.13190116,1.0263373,0.88326967,0.4782142,-0.17199731,0.6878353,0.32794255,0.097334474,-0.1049121,0.07152429,824.3956,814.7253,781.685,809.0842,757.9121,-0.1094970703125,0.08135986328125,0.98779296875,-6.68426513671875,-44.045867919921875,-13.316192626953125,1,1.0,1.0,1.0,1.0,10.00
2024-10-11 20:18:07.558,0.9226648,1.1669228,0.9833524,1.180848,0.7242026,0.7666372,0.64697987,1.1783756,1.4000418,0.23635851,-0.13190116,1.0263373,0.88326967,0.4782142,-0.17199731,0.6878353,0.32794255,0.097334474,-0.1049121,0.07152429,836.08057,812.71063,786.9231,833.2601,951.7216,-0.1094970703125,0.08135986328125,0.98779296875,-6.68426513671875,-44.045867919921875,-13.316192626953125,1,1.0,1.0,1.0,1.0,10.00
2024-10-11 20:18:07.559,0.9226648,1.1669228,0.9833524,1.180848,0.7242026,0.7666372,0.64697987,1.1783756,1.4000418,0.23635851,-0.13190116,1.0263373,0.88326967,0.4782142,-0.17199731,0.6878353,0.32794255,0.097334474,-0.1049121,0.07152429,832.0513,813.91943,781.28204,830.4396,765.16486,-0.1094970703125,0.08135986328125,0.98779296875,-6.68426513671875,-44.045867919921875,-13.316192626953125,1,1.0,1.0,1.0,1.0,10.00
2024-10-11 20:18:07.560,0.9226648,1.1669228,0.9833524,1.180848,0.7242026,0.7666372,0.64697987,1.1783756,1.4000418,0.23635851,-0.13190116,1.0263373,0.88326967,0.4782142,-0.17199731,0.6878353,0.32794255,0.097334474,-0.1049121,0.07152429,824.7985,802.6374,775.64105,823.9927,623.73627,-0.1094970703125,0.08135986328125,0.98779296875,-6.68426513671875,-44.045867919921875,-13.316192626953125,1,1.0,1.0,1.0,1.0,10.00
2024-10-11 20:18:07.560,0.9226648,1.1669228,0.9833524,1.180848,0.7242026,0.7666372,0.64697987,1.1783756,1.4000418,0.23635851,-0.13190116,1.0263373,0.88326967,0.4782142,-0.17199731,0.6878353,0.32794255,0.097334474,-0.1049121,0.07152429,839.304,801.8315,776.8498,834.87177,851.39197,-0.1094970703125,0.08135986328125,0.98779296875,-6.68426513671875,-44.045867919921875,-13.316192626953125,1,1.0,1.0,1.0,1.0,10.00
2024-10-11 20:18:07.561,0.9226648,1.1669228,0.9833524,1.180848,0.7242026,0.7666372,0.64697987,1.1783756,1.4000418,0.23635851,-0.13190116,1.0263373,0.88326967,0.4782142,-0.17199731,0.6878353,0.32794255,0.097334474,-0.1049121,0.07152429,846.55676,797.8022,778.46155,851.79486,1114.1025,-0.1094970703125,0.08135986328125,0.98779296875,-6.68426513671875,-44.045867919921875,-13.316192626953125,1,1.0,1.0,1.0,1.0,10.00
2024-10-11 20:18:07.561,0.9226648,1.1669228,0.9833524,1.180848,0.7242026,0.7666372,0.64697987,1.1783756,1.4000418,0.23635851,-0.13190116,1.0263373,0.88326967,0.4782142,-0.17199731,0.6878353,0.32794255,0.097334474,-0.1049121,0.07152429,854.21246,785.31134,787.326,861.06226,843.73627,-0.1094970703125,0.08135986328125,0.98779296875,-6.68426513671875,-44.045867919921875,-13.316192626953125,1,1.0,1.0,1.0,1.0,10.00
2024-10-11 20:18:07.562,0.9226648,1.1669228,0.9833524,1.180848,0.7242026,0.7666372,0.64697987,1.1783756,1.4000418,0.23635851,-0.13190116,1.0263373,0.88326967,0.4782142,-0.17199731,0.6878353,0.32794255,0.097334474,-0.1049121,0.07152429,864.2857,790.9524,789.7436,861.06226,832.8571,-0.1094970703125,0.08135986328125,0.98779296875,-6.68426513671875,-44.045867919921875,-13.316192626953125,1,1.0,1.0,1.0,1.0,10.00
2024-10-11 20:18:07.562,0.9226648,1.1669228,0.9833524,1.180848,0.7242026,0.7666372,0.64697987,1.1783756,1.4000418,0.23635851,-0.13190116,1.0263373,0.88326967,0.4782142,-0.17199731,0.6878353,0.32794255,0.097334474,-0.1049121,0.07152429,857.8388,787.72894,780.87915,850.989,1052.8572,-0.1094970703125,0.08135986328125,0.98779296875,-6.68426513671875,-44.045867919921875,-13.316192626953125,1,1.0,1.0,1.0,1.0,10.00
2024-10-11 20:18:07.562,0.9226648,1.1669228,0.9833524,1.180848,0.7242026,0.7666372,0.64697987,1.1783756,1.4000418,0.23635851,-0.13190116,1.0263373,0.88326967,0.4782142,-0.17199731,0.6878353,0.32794255,0.097334474,-0.1049121,0.07152429,853.4066,777.6557,776.04395,852.1978,926.7399,-0.1094970703125,0.08135986328125,0.98779296875,-6.68426513671875,-44.045867919921875,-13.316192626953125,1,1.0,1.0,1.0,1.0,10.00
2024-10-11 20:18:07.563,0.9226648,1.1669228,0.9833524,1.180848,0.7242026,0.7666372,0.64697987,1.1783756,1.4000418,0.23635851,-0.13190116,1.0263373,0.88326967,0.4782142,-0.17199731,0.6878353,0.32794255,0.097334474,-0.1049121,0.07152429,868.71796,779.2674,777.25275,865.89746,806.26373,-0.1094970703125,0.08135986328125,0.98779296875,-6.68426513671875,-44.045867919921875,-13.316192626953125,1,1.0,1.0,1.0,1.0,10.00
2024-10-11 20:18:07.563,0.9226648,1.1669228,0.9833524,1.180848,0.7242026,0.7666372,0.64697987,1.1783756,1.4000418,0.23635851,-0.13190116,1.0263373,0.88326967,0.4782142,-0.17199731,0.6878353,0.32794255,0.097334474,-0.1049121,0.07152429,876.3736,785.31134,780.87915,867.9121,742.6007,-0.1094970703125,0.08135986328125,0.98779296875,-6.68426513671875,-44.045867919921875,-13.316192626953125,1,1.0,1.0,1.0,1.0,10.00
2024-10-11 20:18:07.564,0.9226648,1.1669228,0.9833524,1.180848,0.7242026,0.7666372,0.64697987,1.1783756,1.4000418,0.23635851,-0.13190116,1.0263373,0.88326967,0.4782142,-0.17199731,0.6878353,0.32794255,0.097334474,-0.1049121,0.07152429,875.9707,784.10254,779.67035,869.92676,869.12085,-0.1094970703125,0.08135986328125,0.98779296875,-6.68426513671875,-44.045867919921875,-13.316192626953125,1,1.0,1.0,1.0,1.0,10.00
2024-10-11 20:18:07.564,0.9226648,1.1669228,0.9833524,1.180848,0.7242026,0.7666372,0.64697987,1.1783756,1.4000418,0.23635851,-0.13190116,1.0263373,0.88326967,0.4782142,-0.17199731,0.6878353,0.32794255,0.097334474,-0.1049121,0.07152429,887.25275,778.86444,786.52014,889.2674,875.16486,-0.1094970703125,0.08135986328125,0.98779296875,-6.68426513671875,-44.045867919921875,-13.316192626953125,1,1.0,1.0,1.0,1.0,10.00
2024-10-11 20:18:07.608,0.9226648,1.1669228,0.9833524,1.180848,0.7242026,0.7666372,0.64697987,1.1783756,1.4000418,0.23635851,-0.13190116,1.0263373,0.88326967,0.4782142,-0.17199731,0.6878353,0.32794255,0.097334474,-0.1049121,0.07152429,885.2381,778.0586,796.5934,896.52014,704.3223,-0.0184326171875,0.0709228515625,0.9757080078125,-4.32159423828125,-59.717254638671875,-20.523834228515625,1,1.0,1.0,1.0,1.0,10.00
2024-10-11 20:18:07.609,0.9226648,1.1669228,0.9833524,1.180848,0.7242026,0.7666372,0.64697987,1.1783756,1.4000418,0.23635851,-0.13190116,1.0263373,0.88326967,0.4782142,-0.17199731,0.6878353,0.32794255,0.097334474,-0.1049121,0.07152429,880.0,778.46155,792.5641,881.2088,772.4176,-0.0184326171875,0.0709228515625,0.9757080078125,-4.32159423828125,-59.717254638671875,-20.523834228515625,1,1.0,1.0,1.0,1.0,10.00
2024-10-11 20:18:07.609,0.9226648,1.1669228,0.9833524,1.180848,0.7242026,0.7666372,0.64697987,1.1783756,1.4000418,0.23635851,-0.13190116,1.0263373,0.88326967,0.4782142,-0.17199731,0.6878353,0.32794255,0.097334474,-0.1049121,0.07152429,878.3883,783.69965,788.5348,873.5531,853.8095,-0.0184326171875,0.0709228515625,0.9757080078125,-4.32159423828125,-59.717254638671875,-20.523834228515625,1,1.0,1.0,1.0,1.0,10.00
2024-10-11 20:18:07.610,0.9226648,1.1669228,0.9833524,1.180848,0.7242026,0.7666372,0.64697987,1.1783756,1.4000418,0.23635851,-0.13190116,1.0263373,0.88326967,0.4782142,-0.17199731,0.6878353,0.32794255,0.097334474,-0.1049121,0.07152429,884.43225,786.1172,785.7143,873.95605,785.7143,-0.0184326171875,0.0709228515625,0.9757080078125,-4.32159423828125,-59.717254638671875,-20.523834228515625,1,1.0,1.0,1.0,1.0,10.00
2024-10-11 20:18:07.610,0.9226648,1.1669228,0.9833524,1.180848,0.7242026,0.7666372,0.64697987,1.1783756,1.4000418,0.23635851,-0.13190116,1.0263373,0.88326967,0.4782142,-0.17199731,0.6878353,0.32794255,0.097334474,-0.1049121,0.07152429,885.2381,780.07324,784.5055,877.1795,764.35895,-0.0184326171875,0.0709228515625,0.9757080078125,-4.32159423828125,-59.717254638671875,-20.523834228515625,1,1.0,1.0,1.0,1.0,10.00
2024-10-11 20:18:07.611,0.9226648,1.00543,0.9833524,1.180848,0.7242026,0.59849745,0.64697987,1.1783756,1.4000418,0.2097564,-0.13190116,1.0263373,0.88326967,0.52948135,-0.17199731,0.6878353,0.32794255,0.12998226,-0.1049121,0.07152429,886.8498,774.83514,785.31134,880.40295,892.49084,-0.0184326171875,0.0709228515625,0.9757080078125,-4.32159423828125,-59.717254638671875,-20.523834228515625,1,1.0,1.0,1.0,1.0,10.00
2024-10-11 20:18:07.614,0.9226648,1.00543,0.9833524,1.180848,0.7242026,0.59849745,0.64697987,1.1783756,1.4000418,0.2097564,-0.13190116,1.0263373,0.88326967,0.52948135,-0.17199731,0.6878353,0.32794255,0.12998226,-0.1049121,0.07152429,891.685,772.8205,790.9524,884.83514,820.3663,-0.0184326171875,0.0709228515625,0.9757080078125,-4.32159423828125,-59.717254638671875,-20.523834228515625,1,1.0,1.0,1.0,1.0,10.00
2024-10-11 20:18:07.615,0.9226648,1.00543,0.9833524,1.180848,0.7242026,0.59849745,0.64697987,1.1783756,1.4000418,0.2097564,-0.13190116,1.0263373,0.88326967,0.52948135,-0.17199731,0.6878353,0.32794255,0.12998226,-0.1049121,0.07152429,888.86444,779.67035,794.57874,883.22345,673.69965,-0.0184326171875,0.0709228515625,0.9757080078125,-4.32159423828125,-59.717254638671875,-20.523834228515625,1,1.0,1.0,1.0,1.0,10.00
2024-10-11 20:18:07.615,0.9226648,1.00543,0.9833524,1.180848,0.7242026,0.59849745,0.64697987,1.1783756,1.4000418,0.2097564,-0.13190116,1.0263373,0.88326967,0.52948135,-0.17199731,0.6878353,0.32794255,0.12998226,-0.1049121,0.07152429,875.56775,784.10254,794.57874,873.1502,697.0696,-0.0184326171875,0.0709228515625,0.9757080078125,-4.32159423828125,-59.717254638671875,-20.523834228515625,1,1.0,1.0,1.0,1.0,10.00
2024-10-11 20:18:07.616,0.9226648,1.00543,0.9833524,1.180848,0.7242026,0.59849745,0.64697987,1.1783756,1.4000418,0.2097564,-0.13190116,1.0263373,0.88326967,0.52948135,-0.17199731,0.6878353,0.32794255,0.12998226,-0.1049121,0.07152429,862.27106,780.07324,789.34064,867.9121,823.1868,-0.0184326171875,0.0709228515625,0.9757080078125,-4.32159423828125,-59.717254638671875,-20.523834228515625,1,1.0,1.0,1.0,1.0,10.00
2024-10-11 20:18:07.616,0.9226648,1.00543,0.9833524,1.180848,0.7242026,0.59849745,0.64697987,1.1783756,1.4000418,0.2097564,-0.13190116,1.0263373,0.88326967,0.52948135,-0.17199731,0.6878353,0.32794255,0.12998226,-0.1049121,0.07152429,859.85345,772.8205,786.52014,877.98535,1208.7913,-0.0184326171875,0.0709228515625,0.9757080078125,-4.32159423828125,-59.717254638671875,-20.523834228515625,1,1.0,1.0,1.0,1.0,10.00
2024-10-11 20:18:07.617,0.9226648,1.00543,0.9833524,1.180848,0.7242026,0.59849745,0.64697987,1.1783756,1.4000418,0.2097564,-0.13190116,1.0263373,0.88326967,0.52948135,-0.17199731,0.6878353,0.32794255,0.12998226,-0.1049121,0.07152429,862.27106,765.56775,794.9817,889.2674,1039.1575,-0.0184326171875,0.0709228515625,0.9757080078125,-4.32159423828125,-59.717254638671875,-20.523834228515625,1,1.0,1.0,1.0,1.0,10.00
2024-10-11 20:18:07.617,0.9226648,1.00543,0.9833524,1.180848,0.7242026,0.59849745,0.64697987,1.1783756,1.4000418,0.2097564,-0.13190116,1.0263373,0.88326967,0.52948135,-0.17199731,0.6878353,0.32794255,0.12998226,-0.1049121,0.07152429,861.8681,774.83514,795.78754,882.01465,654.7619,0.09698486328125,0.07733154296875,0.98919677734375,-2.983245849609375,-60.255584716796875,-25.16693115234375,1,1.0,1.0,1.0,1.0,10.00
2024-10-11 20:18:07.618,0.9226648,1.00543,0.9833524,1.180848,0.7242026,0.59849745,0.64697987,1.1783756,1.4000418,0.2097564,-0.13190116,1.0263373,0.88326967,0.52948135,-0.17199731,0.6878353,0.32794255,0.12998226,-0.1049121,0.07152429,859.0476,782.49084,791.3553,862.27106,710.3663,0.09698486328125,0.07733154296875,0.98919677734375,-2.983245849609375,-60.255584716796875,-25.16693115234375,1,1.0,1.0,1.0,1.0,10.00
2024-10-11 20:18:07.619,0.9226648,1.00543,0.9833524,1.180848,0.7242026,0.59849745,0.64697987,1.1783756,1.4000418,0.2097564,-0.13190116,1.0263373,0.88326967,0.52948135,-0.17199731,0.6878353,0.32794255,0.12998226,-0.1049121,0.07152429,863.47986,780.87915,790.54944,857.4359,733.3333,0.09698486328125,0.07733154296875,0.98919677734375,-2.983245849609375,-60.255584716796875,-25.16693115234375,1,1.0,1.0,1.0,1.0,10.00
2024-10-11 20:18:07.619,0.9226648,1.00543,0.9833524,1.180848,0.7242026,0.59849745,0.64697987,1.1783756,1.4000418,0.2097564,-0.13190116,1.0263373,0.88326967,0.52948135,-0.17199731,0.6878353,0.32794255,0.12998226,-0.1049121,0.07152429,872.3443,780.4762,794.9817,867.9121,643.0769,0.09698486328125,0.07733154296875,0.98919677734375,-2.983245849609375,-60.255584716796875,-25.16693115234375,1,1.0,1.0,1.0,1.0,10.00
2024-10-11 20:18:07.620,0.9226648,1.00543,0.9833524,1.180848,0.7242026,0.59849745,0.64697987,1.1783756,1.4000418,0.2097564,-0.13190116,1.0263373,0.88326967,0.52948135,-0.17199731,0.6878353,0.32794255,0.12998226,-0.1049121,0.07152429,871.13556,782.8938,800.6227,870.32965,700.293,0.09698486328125,0.07733154296875,0.98919677734375,-2.983245849609375,-60.255584716796875,-25.16693115234375,1,1.0,1.0,1.0,1.0,10.00
2024-10-11 20:18:07.620,0.9226648,1.00543,0.9833524,1.180848,0.7242026,0.59849745,0.64697987,1.1783756,1.4000418,0.2097564,-0.13190116,1.0263373,0.88326967,0.52948135,-0.17199731,0.6878353,0.32794255,0.12998226,-0.1049121,0.07152429,866.30035,785.7143,796.5934,872.3443,919.89014,0.09698486328125,0.07733154296875,0.98919677734375,-2.983245849609375,-60.255584716796875,-25.16693115234375,1,1.0,1.0,1.0,1.0,10.00
2024-10-11 20:18:07.621,0.9226648,1.00543,0.9833524,1.180848,0.7242026,0.59849745,0.64697987,1.1783756,1.4000418,0.2097564,-0.13190116,1.0263373,0.88326967,0.52948135,-0.17199731,0.6878353,0.32794255,0.12998226,-0.1049121,0.07152429,873.5531,780.87915,801.02563,877.98535,922.71063,0.09698486328125,0.07733154296875,0.98919677734375,-2.983245849609375,-60.255584716796875,-25.16693115234375,1,1.0,1.0,1.0,1.0,10.00
2024-10-11 20:18:07.622,0.9226648,1.00543,0.9833524,1.180848,0.7242026,0.59849745,0.64697987,1.1783756,1.4000418,0.2097564,-0.13190116,1.0263373,0.88326967,0.52948135,-0.17199731,0.6878353,0.32794255,0.12998226,-0.1049121,0.07152429,881.6117,782.0879,802.6374,871.13556,717.619,0.09698486328125,0.07733154296875,0.98919677734375,-2.983245849609375,-60.255584716796875,-25.16693115234375,1,1.0,1.0,1.0,1.0,10.00
2024-10-11 20:18:07.623,0.9226648,1.00543,0.9833524,1.180848,0.7242026,0.59849745,0.64697987,1.1783756,1.4000418,0.2097564,-0.13190116,1.0263373,0.88326967,0.52948135,-0.17199731,0.6878353,0.32794255,0.12998226,-0.1049121,0.07152429,867.50916,791.3553,794.9817,852.1978,582.6374,0.09698486328125,0.07733154296875,0.98919677734375,-2.983245849609375,-60.255584716796875,-25.16693115234375,1,1.0,1.0,1.0,1.0,10.00
2024-10-11 20:18:07.623,0.9226648,1.00543,0.9833524,1.180848,0.7242026,0.59849745,0.64697987,1.1783756,1.4000418,0.2097564,-0.13190116,1.0263373,0.88326967,0.52948135,-0.17199731,0.6878353,0.32794255,0.12998226,-0.1049121,0.07152429,858.6447,785.31134,791.3553,855.82416,1025.4579,0.09698486328125,0.07733154296875,0.98919677734375,-2.983245849609375,-60.255584716796875,-25.16693115234375,1,1.0,1.0,1.0,1.0,10.00
2024-10-11 20:18:07.623,0.9226648,1.00543,0.9833524,1.180848,0.7242026,0.59849745,0.64697987,1.1783756,1.4000418,0.2097564,-0.13190116,1.0263373,0.88326967,0.52948135,-0.17199731,0.6878353,0.32794255,0.12998226,-0.1049121,0.07152429,853.4066,779.2674,794.57874,865.09155,1098.3883,0.09698486328125,0.07733154296875,0.98919677734375,-2.983245849609375,-60.255584716796875,-25.16693115234375,1,1.0,1.0,1.0,1.0,10.00
2024-10-11 20:18:07.624,0.9226648,1.00543,0.9833524,1.180848,0.7242026,0.59849745,0.64697987,1.1783756,1.4000418,0.2097564,-0.13190116,1.0263373,0.88326967,0.52948135,-0.17199731,0.6878353,0.32794255,0.12998226,-0.1049121,0.07152429,853.00366,785.7143,800.2198,854.21246,613.663,0.09698486328125,0.07733154296875,0.98919677734375,-2.983245849609375,-60.255584716796875,-25.16693115234375,1,1.0,1.0,1.0,1.0,10.00
2024-10-11 20:18:07.625,0.9226648,1.00543,0.9833524,1.180848,0.7242026,0.59849745,0.64697987,1.1783756,1.4000418,0.2097564,-0.13190116,1.0263373,0.88326967,0.52948135,-0.17199731,0.6878353,0.32794255,0.12998226,-0.1049121,0.07152429,853.00366,782.8938,794.9817,847.3626,693.8461,0.169677734375,0.0849609375,0.999267578125,-4.583282470703125,-54.610595703125,-26.69219970703125,1,1.0,1.0,1.0,1.0,10.00
2024-10-11 20:18:07.625,0.9226648,1.00543,0.9833524,1.180848,0.7242026,0.59849745,0.64697987,1.1783756,1.4000418,0.2097564,-0.13190116,1.0263373,0.88326967,0.52948135,-0.17199731,0.6878353,0.32794255,0.12998226,-0.1049121,0.07152429,850.989,778.46155,794.17584,853.4066,977.9121,0.169677734375,0.0849609375,0.999267578125,-4.583282470703125,-54.610595703125,-26.69219970703125,1,1.0,1.0,1.0,1.0,10.00
2024-10-11 20:18:07.626,0.9226648,1.00543,0.9833524,1.180848,0.7242026,0.59849745,0.64697987,1.1783756,1.4000418,0.2097564,-0.13190116,1.0263373,0.88326967,0.52948135,-0.17199731,0.6878353,0.32794255,0.12998226,-0.1049121,0.07152429,859.45056,788.1319,801.4286,857.8388,915.8608,0.169677734375,0.0849609375,0.999267578125,-4.583282470703125,-54.610595703125,-26.69219970703125,1,1.0,1.0,1.0,1.0,10.00
2024-10-11 20:18:07.626,0.9226648,1.00543,0.9833524,1.180848,0.7242026,0.59849745,0.64697987,1.1783756,1.4000418,0.2097564,-0.13190116,1.0263373,0.88326967,0.52948135,-0.17199731,0.6878353,0.32794255,0.12998226,-0.1049121,0.07152429,857.03296,790.9524,793.7729,838.0952,722.4542,0.169677734375,0.0849609375,0.999267578125,-4.583282470703125,-54.610595703125,-26.69219970703125,1,1.0,1.0,1.0,1.0,10.00
2024-10-11 20:18:07.627,0.9226648,1.00543,0.9833524,1.180848,0.7242026,0.59849745,0.64697987,1.1783756,1.4000418,0.2097564,-0.13190116,1.0263373,0.88326967,0.52948135,-0.17199731,0.6878353,0.32794255,0.12998226,-0.1049121,0.07152429,862.27106,782.8938,788.93774,839.304,705.5311,0.169677734375,0.0849609375,0.999267578125,-4.583282470703125,-54.610595703125,-26.69219970703125,1,1.0,1.0,1.0,1.0,10.00
2024-10-11 20:18:07.627,0.9226648,1.00543,0.9833524,1.180848,0.7242026,0.59849745,0.64697987,1.1783756,1.4000418,0.2097564,-0.13190116,1.0263373,0.88326967,0.52948135,-0.17199731,0.6878353,0.32794255,0.12998226,-0.1049121,0.07152429,866.30035,778.86444,797.8022,855.82416,934.7985,0.169677734375,0.0849609375,0.999267578125,-4.583282470703125,-54.610595703125,-26.69219970703125,1,1.0,1.0,1.0,1.0,10.00
2024-10-11 20:18:07.628,0.9226648,1.00543,0.9833524,1.180848,0.7242026,0.59849745,0.64697987,1.1783756,1.4000418,0.2097564,-0.13190116,1.0263373,0.88326967,0.52948135,-0.17199731,0.6878353,0.32794255,0.12998226,-0.1049121,0.07152429,856.63007,773.6264,799.011,852.1978,978.315,0.169677734375,0.0849609375,0.999267578125,-4.583282470703125,-54.610595703125,-26.69219970703125,1,1.0,1.0,1.0,1.0,10.00
2024-10-11 20:18:07,,,,,,,,,,,,,,,,,,,,,,,,,,,,,,,,,,,,,,/muse/elements/blink
2024-10-11 20:18:07.628,0.9226648,1.00543,0.9833524,1.180848,0.7242026,0.59849745,0.64697987,1.1783756,1.4000418,0.2097564,-0.13190116,1.0263373,0.88326967,0.52948135,-0.17199731,0.6878353,0.32794255,0.12998226,-0.1049121,0.07152429,855.0183,779.2674,790.9524,847.3626,764.7619,0.169677734375,0.0849609375,0.999267578125,-4.583282470703125,-54.610595703125,-26.69219970703125,1,1.0,1.0,1.0,1.0,10.00
2024-10-11 20:18:07.632,0.9226648,1.00543,0.9833524,1.180848,0.7242026,0.59849745,0.64697987,1.1783756,1.4000418,0.2097564,-0.13190116,1.0263373,0.88326967,0.52948135,-0.17199731,0.6878353,0.32794255,0.12998226,-0.1049121,0.07152429,850.989,787.72894,790.14655,838.9011,818.3516,0.169677734375,0.0849609375,0.999267578125,-4.583282470703125,-54.610595703125,-26.69219970703125,1,1.0,1.0,1.0,1.0,10.00
2024-10-11 20:18:07.633,0.9226648,1.00543,0.9833524,1.180848,0.7242026,0.59849745,0.64697987,1.1783756,1.4000418,0.2097564,-0.13190116,1.0263373,0.88326967,0.52948135,-0.17199731,0.6878353,0.32794255,0.12998226,-0.1049121,0.07152429,859.45056,774.83514,800.2198,855.42126,1056.0806,0.169677734375,0.0849609375,0.999267578125,-4.583282470703125,-54.610595703125,-26.69219970703125,1,1.0,1.0,1.0,1.0,10.00
2024-10-11 20:18:07.633,0.9226648,1.00543,0.9833524,1.180848,0.7242026,0.59849745,0.64697987,1.1783756,1.4000418,0.2097564,-0.13190116,1.0263373,0.88326967,0.52948135,-0.17199731,0.6878353,0.32794255,0.12998226,-0.1049121,0.07152429,867.9121,769.59705,813.5165,860.2564,856.2271,0.169677734375,0.0849609375,0.999267578125,-4.583282470703125,-54.610595703125,-26.69219970703125,1,1.0,1.0,1.0,1.0,10.00
2024-10-11 20:18:07.634,0.9226648,1.00543,0.9833524,1.180848,0.7242026,0.59849745,0.64697987,1.1783756,1.4000418,0.2097564,-0.13190116,1.0263373,0.88326967,0.52948135,-0.17199731,0.6878353,0.32794255,0.12998226,-0.1049121,0.07152429,863.0769,785.31134,810.696,851.79486,666.8498,0.169677734375,0.0849609375,0.999267578125,-4.583282470703125,-54.610595703125,-26.69219970703125,1,1.0,1.0,1.0,1.0,10.00
2024-10-11 20:18:07.675,0.9226648,1.00543,0.9833524,1.180848,0.7242026,0.59849745,0.64697987,1.1783756,1.4000418,0.2097564,-0.13190116,1.0263373,0.88326967,0.52948135,-0.17199731,0.6878353,0.32794255,0.12998226,-0.1049121,0.07152429,848.5714,784.90845,803.0403,843.3333,816.337,0.26812744140625,0.08209228515625,0.98046875,-8.61328125,-41.608428955078125,-27.08099365234375,1,1.0,1.0,1.0,1.0,10.00
2024-10-11 20:18:07.676,0.9226648,1.00543,0.9833524,1.180848,0.7242026,0.59849745,0.64697987,1.1783756,1.4000418,0.2097564,-0.13190116,1.0263373,0.88326967,0.52948135,-0.17199731,0.6878353,0.32794255,0.12998226,-0.1049121,0.07152429,839.707,774.83514,805.8608,841.7216,757.1062,0.26812744140625,0.08209228515625,0.98046875,-8.61328125,-41.608428955078125,-27.08099365234375,1,1.0,1.0,1.0,1.0,10.00
2024-10-11 20:18:07.677,0.9226648,1.00543,0.9833524,1.180848,0.7242026,0.59849745,0.64697987,1.1783756,1.4000418,0.2097564,-0.13190116,1.0263373,0.88326967,0.52948135,-0.17199731,0.6878353,0.32794255,0.12998226,-0.1049121,0.07152429,843.3333,780.87915,808.2784,848.97437,622.1245,0.26812744140625,0.08209228515625,0.98046875,-8.61328125,-41.608428955078125,-27.08099365234375,1,1.0,1.0,1.0,1.0,10.00
2024-10-11 20:18:07.678,0.9226648,1.00543,0.9833524,1.180848,0.7242026,0.59849745,0.64697987,1.1783756,1.4000418,0.2097564,-0.13190116,1.0263373,0.88326967,0.52948135,-0.17199731,0.6878353,0.32794255,0.12998226,-0.1049121,0.07152429,845.7509,789.34064,808.68134,844.94507,670.4762,0.26812744140625,0.08209228515625,0.98046875,-8.61328125,-41.608428955078125,-27.08099365234375,1,1.0,1.0,1.0,1.0,10.00
2024-10-11 20:18:07.678,0.9226648,1.00543,0.9833524,1.180848,0.7242026,0.59849745,0.64697987,1.1783756,1.4000418,0.2097564,-0.13190116,1.0263373,0.88326967,0.52948135,-0.17199731,0.6878353,0.32794255,0.12998226,-0.1049121,0.07152429,854.61536,793.7729,811.50183,851.79486,744.61536,0.26812744140625,0.08209228515625,0.98046875,-8.61328125,-41.608428955078125,-27.08099365234375,1,1.0,1.0,1.0,1.0,10.00
2024-10-11 20:18:07.679,0.9226648,1.00543,0.9833524,1.180848,0.7242026,0.59849745,0.64697987,1.1783756,1.4000418,0.2097564,-0.13190116,1.0263373,0.88326967,0.52948135,-0.17199731,0.6878353,0.32794255,0.12998226,-0.1049121,0.07152429,857.8388,794.9817,809.0842,856.63007,801.8315,0.26812744140625,0.08209228515625,0.98046875,-8.61328125,-41.608428955078125,-27.08099365234375,1,1.0,1.0,1.0,1.0,10.00
2024-10-11 20:18:07.679,0.9226648,1.00543,0.9833524,1.180848,0.7242026,0.59849745,0.64697987,1.1783756,1.4000418,0.2097564,-0.13190116,1.0263373,0.88326967,0.52948135,-0.17199731,0.6878353,0.32794255,0.12998226,-0.1049121,0.07152429,857.03296,796.1905,808.2784,855.0183,948.0952,0.26812744140625,0.08209228515625,0.98046875,-8.61328125,-41.608428955078125,-27.08099365234375,1,1.0,1.0,1.0,1.0,10.00
2024-10-11 20:18:07.680,0.9226648,1.00543,0.9833524,1.180848,0.7242026,0.59849745,0.64697987,1.1783756,1.4000418,0.2097564,-0.13190116,1.0263373,0.88326967,0.52948135,-0.17199731,0.6878353,0.32794255,0.12998226,-0.1049121,0.07152429,860.65936,794.57874,809.0842,856.63007,934.3956,0.26812744140625,0.08209228515625,0.98046875,-8.61328125,-41.608428955078125,-27.08099365234375,1,1.0,1.0,1.0,1.0,10.00
2024-10-11 20:18:07.680,0.9226648,1.00543,0.9833524,1.180848,0.7242026,0.59849745,0.64697987,1.1783756,1.4000418,0.2097564,-0.13190116,1.0263373,0.88326967,0.52948135,-0.17199731,0.6878353,0.32794255,0.12998226,-0.1049121,0.07152429,852.6007,786.52014,809.0842,850.58606,844.94507,0.26812744140625,0.08209228515625,0.98046875,-8.61328125,-41.608428955078125,-27.08099365234375,1,1.0,1.0,1.0,1.0,10.00
2024-10-11 20:18:07.681,0.9226648,1.00543,0.9833524,1.180848,0.7242026,0.59849745,0.64697987,1.1783756,1.4000418,0.2097564,-0.13190116,1.0263373,0.88326967,0.52948135,-0.17199731,0.6878353,0.32794255,0.12998226,-0.1049121,0.07152429,838.9011,784.90845,813.91943,842.1245,791.75824,0.26812744140625,0.08209228515625,0.98046875,-8.61328125,-41.608428955078125,-27.08099365234375,1,1.0,1.0,1.0,1.0,10.00
2024-10-11 20:18:07.681,0.9226648,1.00543,0.9833524,1.180848,0.7242026,0.59849745,0.64697987,1.1783756,1.4000418,0.2097564,-0.13190116,1.0263373,0.88326967,0.52948135,-0.17199731,0.6878353,0.32794255,0.12998226,-0.1049121,0.07152429,842.52747,790.14655,815.12823,851.79486,741.79486,0.26812744140625,0.08209228515625,0.98046875,-8.61328125,-41.608428955078125,-27.08099365234375,1,1.0,1.0,1.0,1.0,10.00
2024-10-11 20:18:07.682,0.9226648,1.00543,0.9833524,1.180848,0.7242026,0.59849745,0.64697987,1.1783756,1.4000418,0.2097564,-0.13190116,1.0263373,0.88326967,0.52948135,-0.17199731,0.6878353,0.32794255,0.12998226,-0.1049121,0.07152429,848.5714,788.1319,809.4872,855.42126,776.8498,0.26812744140625,0.08209228515625,0.98046875,-8.61328125,-41.608428955078125,-27.08099365234375,1,1.0,1.0,1.0,1.0,10.00
2024-10-11 20:18:07.708,0.9226648,1.00543,0.9833524,1.180848,0.7242026,0.59849745,0.64697987,1.1783756,1.4000418,0.2097564,-0.13190116,1.0263373,0.88326967,0.52948135,-0.17199731,0.6878353,0.32794255,0.12998226,-0.1049121,0.07152429,848.1685,786.9231,805.4579,842.52747,987.5824,0.26812744140625,0.08209228515625,0.98046875,-8.61328125,-41.608428955078125,-27.08099365234375,1,1.0,1.0,1.0,1.0,10.00
2024-10-11 20:18:07.708,0.9226648,1.00543,0.9833524,1.180848,0.7242026,0.59849745,0.64697987,1.1783756,1.4000418,0.2097564,-0.13190116,1.0263373,0.88326967,0.52948135,-0.17199731,0.6878353,0.32794255,0.12998226,-0.1049121,0.07152429,850.18317,796.99634,805.05493,832.0513,889.67035,0.26812744140625,0.08209228515625,0.98046875,-8.61328125,-41.608428955078125,-27.08099365234375,1,1.0,1.0,1.0,1.0,10.00
2024-10-11 20:18:07.709,0.9226648,1.00543,0.9833524,1.180848,0.7242026,0.59849745,0.64697987,1.1783756,1.4000418,0.2097564,-0.13190116,1.0263373,0.88326967,0.52948135,-0.17199731,0.6878353,0.32794255,0.12998226,-0.1049121,0.07152429,865.09155,796.5934,807.8755,840.10986,665.2381,0.26812744140625,0.08209228515625,0.98046875,-8.61328125,-41.608428955078125,-27.08099365234375,1,1.0,1.0,1.0,1.0,10.00
2024-10-11 20:18:07.709,0.9226648,1.00543,0.9833524,1.180848,0.7242026,0.59849745,0.64697987,1.1783756,1.4000418,0.2097564,-0.13190116,1.0263373,0.88326967,0.52948135,-0.17199731,0.6878353,0.32794255,0.12998226,-0.1049121,0.07152429,862.674,782.49084,811.0989,856.63007,915.05493,0.26812744140625,0.08209228515625,0.98046875,-8.61328125,-41.608428955078125,-27.08099365234375,1,1.0,1.0,1.0,1.0,10.00
2024-10-11 20:18:07.710,0.9226648,1.00543,0.9833524,1.180848,0.7242026,0.59849745,0.64697987,1.1783756,1.4000418,0.2097564,-0.13190116,1.0263373,0.88326967,0.52948135,-0.17199731,0.6878353,0.32794255,0.12998226,-0.1049121,0.07152429,853.4066,782.8938,813.5165,851.39197,936.4103,0.26812744140625,0.08209228515625,0.98046875,-8.61328125,-41.608428955078125,-27.08099365234375,1,1.0,1.0,1.0,1.0,10.00
2024-10-11 20:18:07.710,0.9226648,1.00543,0.9833524,1.180848,0.7242026,0.59849745,0.64697987,1.1783756,1.4000418,0.2097564,-0.13190116,1.0263373,0.88326967,0.52948135,-0.17199731,0.6878353,0.32794255,0.12998226,-0.1049121,0.07152429,857.03296,796.5934,807.0696,844.5421,771.2088,0.26812744140625,0.08209228515625,0.98046875,-8.61328125,-41.608428955078125,-27.08099365234375,1,1.0,1.0,1.0,1.0,10.00
2024-10-11 20:18:07.711,0.9226648,1.00543,0.9833524,1.180848,0.7242026,0.59849745,0.64697987,1.1783756,1.4000418,0.2097564,-0.13190116,1.0263373,0.88326967,0.52948135,-0.17199731,0.6878353,0.32794255,0.12998226,-0.1049121,0.07152429,853.4066,804.2491,803.44324,840.5128,720.84247,0.26812744140625,0.08209228515625,0.98046875,-8.61328125,-41.608428955078125,-27.08099365234375,1,1.0,1.0,1.0,1.0,10.00
2024-10-11 20:18:07.711,0.9226648,1.00543,0.9833524,1.180848,0.7242026,0.59849745,0.64697987,1.1783756,1.4000418,0.2097564,-0.13190116,1.0263373,0.88326967,0.52948135,-0.17199731,0.6878353,0.32794255,0.12998226,-0.1049121,0.07152429,845.34796,799.011,805.8608,840.10986,848.97437,0.26812744140625,0.08209228515625,0.98046875,-8.61328125,-41.608428955078125,-27.08099365234375,1,1.0,1.0,1.0,1.0,10.00
2024-10-11 20:18:07.712,0.9226648,1.00543,0.9833524,1.180848,0.7242026,0.59849745,0.64697987,1.1783756,1.4000418,0.2097564,-0.13190116,1.0263373,0.88326967,0.52948135,-0.17199731,0.6878353,0.32794255,0.12998226,-0.1049121,0.07152429,846.1539,791.75824,802.6374,841.31866,929.5604,0.26812744140625,0.08209228515625,0.98046875,-8.61328125,-41.608428955078125,-27.08099365234375,1,1.0,1.0,1.0,1.0,10.00
2024-10-11 20:18:07.712,0.9226648,1.00543,0.9833524,1.180848,0.7242026,0.59849745,0.64697987,1.1783756,1.4000418,0.2097564,-0.13190116,1.0263373,0.88326967,0.52948135,-0.17199731,0.6878353,0.32794255,0.12998226,-0.1049121,0.07152429,859.45056,785.31134,807.8755,844.1392,662.01465,0.26812744140625,0.08209228515625,0.98046875,-8.61328125,-41.608428955078125,-27.08099365234375,1,1.0,1.0,1.0,1.0,10.00
2024-10-11 20:18:07.716,0.9226648,1.00543,0.9833524,1.180848,0.7242026,0.59849745,0.64697987,1.1783756,1.4000418,0.2097564,-0.13190116,1.0263373,0.88326967,0.52948135,-0.17199731,0.6878353,0.32794255,0.12998226,-0.1049121,0.07152429,846.9597,783.69965,811.0989,836.8865,508.09525,0.26812744140625,0.08209228515625,0.98046875,-8.61328125,-41.608428955078125,-27.08099365234375,1,1.0,1.0,1.0,1.0,10.00
2024-10-11 20:18:07.716,0.9226648,1.00543,0.9833524,1.180848,0.7242026,0.59849745,0.64697987,1.1783756,1.4000418,0.2097564,-0.13190116,1.0263373,0.88326967,0.52948135,-0.17199731,0.6878353,0.32794255,0.12998226,-0.1049121,0.07152429,831.2454,790.14655,804.2491,830.0366,869.5238,0.26812744140625,0.08209228515625,0.98046875,-8.61328125,-41.608428955078125,-27.08099365234375,1,1.0,1.0,1.0,1.0,10.00
2024-10-11 20:18:07.717,0.9226648,1.00543,0.9833524,1.180848,0.7242026,0.59849745,0.64697987,1.1783756,1.4000418,0.2097564,-0.13190116,1.0263373,0.88326967,0.52948135,-0.17199731,0.6878353,0.32794255,0.12998226,-0.1049121,0.07152429,829.6337,789.34064,807.0696,838.0952,1132.6373,0.30950927734375,0.06500244140625,0.97979736328125,-10.3179931640625,-22.108917236328125,-23.036041259765625,1,1.0,1.0,1.0,1.0,10.00
2024-10-11 20:18:07.718,0.9226648,1.00543,0.9833524,1.180848,0.7242026,0.59849745,0.64697987,1.1783756,1.4000418,0.2097564,-0.13190116,1.0263373,0.88326967,0.52948135,-0.17199731,0.6878353,0.32794255,0.12998226,-0.1049121,0.07152429,818.3516,789.34064,813.1135,831.6484,837.28937,0.30950927734375,0.06500244140625,0.97979736328125,-10.3179931640625,-22.108917236328125,-23.036041259765625,1,1.0,1.0,1.0,1.0,10.00
2024-10-11 20:18:07.718,0.9226648,1.00543,0.9833524,1.180848,0.7242026,0.59849745,0.64697987,1.1783756,1.4000418,0.2097564,-0.13190116,1.0263373,0.88326967,0.52948135,-0.17199731,0.6878353,0.32794255,0.12998226,-0.1049121,0.07152429,815.9341,788.1319,808.68134,822.7839,766.77655,0.30950927734375,0.06500244140625,0.97979736328125,-10.3179931640625,-22.108917236328125,-23.036041259765625,1,1.0,1.0,1.0,1.0,10.00
2024-10-11 20:18:07.719,0.9226648,1.00543,0.9833524,1.180848,0.7242026,0.59849745,0.64697987,1.1783756,1.4000418,0.2097564,-0.13190116,1.0263373,0.88326967,0.52948135,-0.17199731,0.6878353,0.32794255,0.12998226,-0.1049121,0.07152429,826.0073,785.7143,809.89014,832.4542,813.5165,0.30950927734375,0.06500244140625,0.97979736328125,-10.3179931640625,-22.108917236328125,-23.036041259765625,1,1.0,1.0,1.0,1.0,10.00
2024-10-11 20:18:07.719,0.9226648,1.00543,0.9833524,1.180848,0.7242026,0.59849745,0.64697987,1.1783756,1.4000418,0.2097564,-0.13190116,1.0263373,0.88326967,0.52948135,-0.17199731,0.6878353,0.32794255,0.12998226,-0.1049121,0.07152429,821.978,790.54944,812.71063,828.8278,754.68866,0.30950927734375,0.06500244140625,0.97979736328125,-10.3179931640625,-22.108917236328125,-23.036041259765625,1,1.0,1.0,1.0,1.0,10.00
2024-10-11 20:18:07.720,0.9226648,1.00543,0.9833524,1.180848,0.7242026,0.59849745,0.64697987,1.1783756,1.4000418,0.2097564,-0.13190116,1.0263373,0.88326967,0.52948135,-0.17199731,0.6878353,0.32794255,0.12998226,-0.1049121,0.07152429,814.3223,790.9524,805.05493,816.7399,673.69965,0.30950927734375,0.06500244140625,0.97979736328125,-10.3179931640625,-22.108917236328125,-23.036041259765625,1,1.0,1.0,1.0,1.0,10.00
2024-10-11 20:18:07.720,0.9226648,1.00543,0.9833524,1.180848,0.7242026,0.59849745,0.64697987,1.1783756,1.4000418,0.2097564,-0.13190116,1.0263373,0.88326967,0.52948135,-0.17199731,0.6878353,0.32794255,0.12998226,-0.1049121,0.07152429,831.6484,789.34064,805.05493,824.3956,703.5165,0.30950927734375,0.06500244140625,0.97979736328125,-10.3179931640625,-22.108917236328125,-23.036041259765625,1,1.0,1.0,1.0,1.0,10.00
2024-10-11 20:18:07.721,0.9226648,1.00543,0.9833524,1.180848,0.7242026,0.59849745,0.64697987,1.1783756,1.4000418,0.2097564,-0.13190116,1.0263373,0.88326967,0.52948135,-0.17199731,0.6878353,0.32794255,0.12998226,-0.1049121,0.07152429,840.5128,788.5348,810.696,833.2601,890.07324,0.30950927734375,0.06500244140625,0.97979736328125,-10.3179931640625,-22.108917236328125,-23.036041259765625,1,1.0,1.0,1.0,1.0,10.00
2024-10-11 20:18:07.721,0.9226648,1.00543,0.9833524,1.180848,0.7242026,0.59849745,0.64697987,1.1783756,1.4000418,0.2097564,-0.13190116,1.0263373,0.88326967,0.52948135,-0.17199731,0.6878353,0.32794255,0.12998226,-0.1049121,0.07152429,831.2454,796.5934,807.47253,824.7985,840.9158,0.30950927734375,0.06500244140625,0.97979736328125,-10.3179931640625,-22.108917236328125,-23.036041259765625,1,1.0,1.0,1.0,1.0,10.00
2024-10-11 20:18:07.722,0.9226648,1.00543,0.9833524,1.180848,0.7242026,0.59849745,0.64697987,1.1783756,1.4000418,0.2097564,-0.13190116,1.0263373,0.88326967,0.52948135,-0.17199731,0.6878353,0.32794255,0.12998226,-0.1049121,0.07152429,825.6044,798.60803,801.4286,811.0989,624.1392,0.30950927734375,0.06500244140625,0.97979736328125,-10.3179931640625,-22.108917236328125,-23.036041259765625,1,1.0,1.0,1.0,1.0,10.00
2024-10-11 20:18:07.722,0.9226648,1.00543,0.9833524,1.180848,0.7242026,0.59849745,0.64697987,1.1783756,1.4000418,0.2097564,-0.13190116,1.0263373,0.88326967,0.52948135,-0.17199731,0.6878353,0.32794255,0.12998226,-0.1049121,0.07152429,826.4103,794.57874,798.20514,812.71063,675.7143,0.30950927734375,0.06500244140625,0.97979736328125,-10.3179931640625,-22.108917236328125,-23.036041259765625,1,1.0,1.0,1.0,1.0,10.00
2024-10-11 20:18:07.723,0.9226648,1.00543,0.9833524,1.180848,0.7242026,0.59849745,0.64697987,1.1783756,1.4000418,0.2097564,-0.13190116,1.0263373,0.88326967,0.52948135,-0.17199731,0.6878353,0.32794255,0.12998226,-0.1049121,0.07152429,831.2454,792.5641,803.44324,819.15753,828.4249,0.30950927734375,0.06500244140625,0.97979736328125,-10.3179931640625,-22.108917236328125,-23.036041259765625,1,1.0,1.0,1.0,1.0,10.00
2024-10-11 20:18:07.807,0.9226648,1.00543,0.9833524,1.180848,0.7242026,0.59849745,0.64697987,1.1783756,1.4000418,0.2097564,-0.13190116,1.0263373,0.88326967,0.52948135,-0.17199731,0.6878353,0.32794255,0.12998226,-0.1049121,0.07152429,826.0073,791.3553,808.2784,817.9487,883.22345,0.31304931640625,0.0462646484375,0.9783935546875,-8.127288818359375,-7.77587890625,-17.63031005859375,1,1.0,1.0,1.0,1.0,10.00
2024-10-11 20:18:07.808,0.9226648,1.00543,0.9833524,1.180848,0.7242026,0.59849745,0.64697987,1.1783756,1.4000418,0.2097564,-0.13190116,1.0263373,0.88326967,0.52948135,-0.17199731,0.6878353,0.32794255,0.12998226,-0.1049121,0.07152429,823.1868,796.99634,804.65204,811.9048,762.74725,0.31304931640625,0.0462646484375,0.9783935546875,-8.127288818359375,-7.77587890625,-17.63031005859375,1,1.0,1.0,1.0,1.0,10.00
2024-10-11 20:18:07.808,0.9226648,1.00543,0.9833524,1.180848,0.7242026,0.59849745,0.64697987,1.1783756,1.4000418,0.2097564,-0.13190116,1.0263373,0.88326967,0.52948135,-0.17199731,0.6878353,0.32794255,0.12998226,-0.1049121,0.07152429,829.6337,792.5641,803.0403,801.4286,820.7692,0.31304931640625,0.0462646484375,0.9783935546875,-8.127288818359375,-7.77587890625,-17.63031005859375,1,1.0,1.0,1.0,1.0,10.00
2024-10-11 20:18:07.809,0.9226648,1.00543,0.9833524,1.180848,0.7242026,0.59849745,0.64697987,1.1783756,1.4000418,0.2097564,-0.13190116,1.0263373,0.88326967,0.52948135,-0.17199731,0.6878353,0.32794255,0.12998226,-0.1049121,0.07152429,831.6484,786.9231,802.6374,796.5934,853.4066,0.31304931640625,0.0462646484375,0.9783935546875,-8.127288818359375,-7.77587890625,-17.63031005859375,1,1.0,1.0,1.0,1.0,10.00
2024-10-11 20:18:07.810,0.9226648,1.00543,0.9833524,1.180848,0.7242026,0.59849745,0.64697987,1.1783756,1.4000418,0.2097564,-0.13190116,1.0263373,0.88326967,0.52948135,-0.17199731,0.6878353,0.32794255,0.12998226,-0.1049121,0.07152429,821.5751,790.9524,802.6374,806.26373,757.9121,0.31304931640625,0.0462646484375,0.9783935546875,-8.127288818359375,-7.77587890625,-17.63031005859375,1,1.0,1.0,1.0,1.0,10.00
2024-10-11 20:18:07.810,0.9226648,1.00543,0.9833524,1.180848,0.7242026,0.59849745,0.64697987,1.1783756,1.4000418,0.2097564,-0.13190116,1.0263373,0.88326967,0.52948135,-0.17199731,0.6878353,0.32794255,0.12998226,-0.1049121,0.07152429,784.10254,790.14655,799.81683,806.6667,877.98535,0.31304931640625,0.0462646484375,0.9783935546875,-8.127288818359375,-7.77587890625,-17.63031005859375,1,1.0,1.0,1.0,1.0,10.00
2024-10-11 20:18:07.811,0.9226648,1.00543,0.9833524,1.180848,0.7242026,0.59849745,0.64697987,1.1783756,1.4000418,0.2097564,-0.13190116,1.0263373,0.88326967,0.52948135,-0.17199731,0.6878353,0.32794255,0.12998226,-0.1049121,0.07152429,760.32965,787.326,801.4286,802.6374,996.4469,0.31304931640625,0.0462646484375,0.9783935546875,-8.127288818359375,-7.77587890625,-17.63031005859375,1,1.0,1.0,1.0,1.0,10.00
2024-10-11 20:18:07.811,0.9226648,1.00543,0.9833524,1.180848,0.7242026,0.59849745,0.64697987,1.1783756,1.4000418,0.2097564,-0.13190116,1.0263373,0.88326967,0.52948135,-0.17199731,0.6878353,0.32794255,0.12998226,-0.1049121,0.07152429,769.59705,787.326,806.6667,812.3077,1193.8828,0.31304931640625,0.0462646484375,0.9783935546875,-8.127288818359375,-7.77587890625,-17.63031005859375,1,1.0,1.0,1.0,1.0,10.00
2024-10-11 20:18:07.811,0.9226648,1.00543,0.9833524,1.180848,0.7242026,0.59849745,0.64697987,1.1783756,1.4000418,0.2097564,-0.13190116,1.0263373,0.88326967,0.52948135,-0.17199731,0.6878353,0.32794255,0.12998226,-0.1049121,0.07152429,781.28204,788.93774,805.8608,817.9487,1286.9597,0.31304931640625,0.0462646484375,0.9783935546875,-8.127288818359375,-7.77587890625,-17.63031005859375,1,1.0,1.0,1.0,1.0,10.00
2024-10-11 20:18:07.812,0.9226648,1.00543,0.9833524,1.180848,0.7242026,0.59849745,0.64697987,1.1783756,1.4000418,0.2097564,-0.13190116,1.0263373,0.88326967,0.52948135,-0.17199731,0.6878353,0.32794255,0.12998226,-0.1049121,0.07152429,792.1612,794.17584,803.44324,813.91943,978.71796,0.31304931640625,0.0462646484375,0.9783935546875,-8.127288818359375,-7.77587890625,-17.63031005859375,1,1.0,1.0,1.0,1.0,10.00
2024-10-11 20:18:07.812,0.9226648,1.00543,0.9833524,1.180848,0.7242026,0.59849745,0.64697987,1.1783756,1.4000418,0.2097564,-0.13190116,1.0263373,0.88326967,0.52948135,-0.17199731,0.6878353,0.32794255,0.12998226,-0.1049121,0.07152429,792.5641,796.1905,803.0403,804.65204,792.96704,0.31304931640625,0.0462646484375,0.9783935546875,-8.127288818359375,-7.77587890625,-17.63031005859375,1,1.0,1.0,1.0,1.0,10.00
2024-10-11 20:18:07.813,0.9226648,1.00543,0.9833524,1.180848,0.7242026,0.59849745,0.64697987,1.1783756,1.4000418,0.2097564,-0.13190116,1.0263373,0.88326967,0.52948135,-0.17199731,0.6878353,0.32794255,0.12998226,-0.1049121,0.07152429,792.1612,794.57874,805.4579,799.011,770.0,0.31304931640625,0.0462646484375,0.9783935546875,-8.127288818359375,-7.77587890625,-17.63031005859375,1,1.0,1.0,1.0,1.0,10.00
2024-10-11 20:18:07.841,0.9226648,1.00543,0.9833524,1.180848,0.7242026,0.59849745,0.64697987,1.1783756,1.4000418,0.2097564,-0.13190116,1.0263373,0.88326967,0.52948135,-0.17199731,0.6878353,0.32794255,0.12998226,-0.1049121,0.07152429,796.5934,788.5348,807.47253,799.41394,708.7546,0.26947021484375,0.0340576171875,0.96942138671875,-6.26556396484375,3.192596435546875,-16.157379150390625,1,1.0,1.0,1.0,1.0,10.00
2024-10-11 20:18:07.842,0.9226648,1.00543,0.9833524,1.180848,0.7242026,0.59849745,0.64697987,1.1783756,1.4000418,0.2097564,-0.13190116,1.0263373,0.88326967,0.52948135,-0.17199731,0.6878353,0.32794255,0.12998226,-0.1049121,0.07152429,797.3993,788.1319,803.0403,801.02563,744.61536,0.26947021484375,0.0340576171875,0.96942138671875,-6.26556396484375,3.192596435546875,-16.157379150390625,1,1.0,1.0,1.0,1.0,10.00
2024-10-11 20:18:07.843,0.9226648,1.00543,0.9833524,1.180848,0.7242026,0.59849745,0.64697987,1.1783756,1.4000418,0.2097564,-0.13190116,1.0263373,0.88326967,0.52948135,-0.17199731,0.6878353,0.32794255,0.12998226,-0.1049121,0.07152429,804.2491,794.17584,807.47253,800.6227,745.82416,0.26947021484375,0.0340576171875,0.96942138671875,-6.26556396484375,3.192596435546875,-16.157379150390625,1,1.0,1.0,1.0,1.0,10.00
2024-10-11 20:18:07.843,0.9226648,1.00543,0.9833524,1.180848,0.7242026,0.59849745,0.64697987,1.1783756,1.4000418,0.2097564,-0.13190116,1.0263373,0.88326967,0.52948135,-0.17199731,0.6878353,0.32794255,0.12998226,-0.1049121,0.07152429,813.91943,797.3993,806.26373,794.9817,757.50916,0.26947021484375,0.0340576171875,0.96942138671875,-6.26556396484375,3.192596435546875,-16.157379150390625,1,1.0,1.0,1.0,1.0,10.00
2024-10-11 20:18:07.843,0.9226648,1.00543,0.9833524,1.180848,0.7242026,0.59849745,0.64697987,1.1783756,1.4000418,0.2097564,-0.13190116,1.0263373,0.88326967,0.52948135,-0.17199731,0.6878353,0.32794255,0.12998226,-0.1049121,0.07152429,832.8571,796.1905,799.81683,788.1319,680.54944,0.26947021484375,0.0340576171875,0.96942138671875,-6.26556396484375,3.192596435546875,-16.157379150390625,1,1.0,1.0,1.0,1.0,10.00
2024-10-11 20:18:07.844,0.9226648,1.00543,0.9833524,1.180848,0.7242026,0.59849745,0.64697987,1.1783756,1.4000418,0.2097564,-0.13190116,1.0263373,0.88326967,0.52948135,-0.17199731,0.6878353,0.32794255,0.12998226,-0.1049121,0.07152429,850.989,800.2198,801.4286,785.7143,737.3626,0.26947021484375,0.0340576171875,0.96942138671875,-6.26556396484375,3.192596435546875,-16.157379150390625,1,1.0,1.0,1.0,1.0,10.00
2024-10-11 20:18:07.844,0.9226648,1.00543,0.9833524,1.180848,0.7242026,0.59849745,0.64697987,1.1783756,1.4000418,0.2097564,-0.13190116,1.0263373,0.88326967,0.52948135,-0.17199731,0.6878353,0.32794255,0.12998226,-0.1049121,0.07152429,864.68866,800.6227,798.20514,786.9231,1139.4872,0.26947021484375,0.0340576171875,0.96942138671875,-6.26556396484375,3.192596435546875,-16.157379150390625,1,1.0,1.0,1.0,1.0,10.00
2024-10-11 20:18:07.845,0.9226648,1.00543,0.9833524,1.180848,0.7242026,0.59849745,0.64697987,1.1783756,1.4000418,0.2097564,-0.13190116,1.0263373,0.88326967,0.52948135,-0.17199731,0.6878353,0.32794255,0.12998226,-0.1049121,0.07152429,870.32965,794.57874,803.44324,786.1172,1065.751,0.26947021484375,0.0340576171875,0.96942138671875,-6.26556396484375,3.192596435546875,-16.157379150390625,1,1.0,1.0,1.0,1.0,10.00
2024-10-11 20:18:07.845,0.9226648,1.00543,0.9833524,1.180848,0.7242026,0.59849745,0.64697987,1.1783756,1.4000418,0.2097564,-0.13190116,1.0263373,0.88326967,0.52948135,-0.17199731,0.6878353,0.32794255,0.12998226,-0.1049121,0.07152429,828.4249,795.38464,804.2491,788.5348,600.3663,0.26947021484375,0.0340576171875,0.96942138671875,-6.26556396484375,3.192596435546875,-16.157379150390625,1,1.0,1.0,1.0,1.0,10.00
2024-10-11 20:18:07.846,0.9226648,1.00543,0.9833524,1.180848,0.7242026,0.59849745,0.64697987,1.1783756,1.4000418,0.2097564,-0.13190116,1.0263373,0.88326967,0.52948135,-0.17199731,0.6878353,0.32794255,0.12998226,-0.1049121,0.07152429,770.80585,796.1905,801.8315,800.2198,628.97437,0.26947021484375,0.0340576171875,0.96942138671875,-6.26556396484375,3.192596435546875,-16.157379150390625,1,1.0,1.0,1.0,1.0,10.00
2024-10-11 20:18:07.846,0.9226648,1.00543,0.9833524,1.180848,0.7242026,0.59849745,0.64697987,1.1783756,1.4000418,0.2097564,-0.13190116,1.0263373,0.88326967,0.52948135,-0.17199731,0.6878353,0.32794255,0.12998226,-0.1049121,0.07152429,752.27106,795.38464,804.2491,802.23444,748.24176,0.26947021484375,0.0340576171875,0.96942138671875,-6.26556396484375,3.192596435546875,-16.157379150390625,1,1.0,1.0,1.0,1.0,10.00
2024-10-11 20:18:07.847,0.9226648,1.00543,0.9833524,1.180848,0.7242026,0.59849745,0.64697987,1.1783756,1.4000418,0.2097564,-0.13190116,1.0263373,0.88326967,0.52948135,-0.17199731,0.6878353,0.32794255,0.12998226,-0.1049121,0.07152429,757.50916,794.9817,801.02563,802.23444,799.81683,0.26947021484375,0.0340576171875,0.96942138671875,-6.26556396484375,3.192596435546875,-16.157379150390625,1,1.0,1.0,1.0,1.0,10.00
2024-10-11 20:18:07.880,0.9226648,1.00543,0.9833524,1.180848,0.7242026,0.59849745,0.64697987,1.1783756,1.4000418,0.2097564,-0.13190116,1.0263373,0.88326967,0.52948135,-0.17199731,0.6878353,0.32794255,0.12998226,-0.1049121,0.07152429,759.12085,793.36993,801.02563,794.9817,703.91943,0.24151611328125,0.0521240234375,0.95892333984375,-2.1533203125,14.8638916015625,-36.464385986328125,1,1.0,1.0,1.0,1.0,10.00
2024-10-11 20:18:07.881,0.9226648,1.00543,0.9833524,1.180848,0.7242026,0.59849745,0.64697987,1.1783756,1.4000418,0.2097564,-0.13190116,1.0263373,0.88326967,0.52948135,-0.17199731,0.6878353,0.32794255,0.12998226,-0.1049121,0.07152429,754.68866,792.1612,797.8022,796.99634,728.49817,0.24151611328125,0.0521240234375,0.95892333984375,-2.1533203125,14.8638916015625,-36.464385986328125,1,1.0,1.0,1.0,1.0,10.00
2024-10-11 20:18:07.882,0.9226648,1.00543,0.9833524,1.180848,0.7242026,0.59849745,0.64697987,1.1783756,1.4000418,0.2097564,-0.13190116,1.0263373,0.88326967,0.52948135,-0.17199731,0.6878353,0.32794255,0.12998226,-0.1049121,0.07152429,748.24176,794.17584,799.011,802.23444,858.6447,0.24151611328125,0.0521240234375,0.95892333984375,-2.1533203125,14.8638916015625,-36.464385986328125,1,1.0,1.0,1.0,1.0,10.00
2024-10-11 20:18:07.882,0.9226648,1.00543,0.9833524,1.180848,0.7242026,0.59849745,0.64697987,1.1783756,1.4000418,0.2097564,-0.13190116,1.0263373,0.88326967,0.52948135,-0.17199731,0.6878353,0.32794255,0.12998226,-0.1049121,0.07152429,746.2271,796.5934,804.65204,798.60803,671.685,0.24151611328125,0.0521240234375,0.95892333984375,-2.1533203125,14.8638916015625,-36.464385986328125,1,1.0,1.0,1.0,1.0,10.00
2024-10-11 20:18:07.883,0.9226648,1.00543,0.9833524,1.180848,0.7242026,0.59849745,0.64697987,1.1783756,1.4000418,0.2097564,-0.13190116,1.0263373,0.88326967,0.52948135,-0.17199731,0.6878353,0.32794255,0.12998226,-0.1049121,0.07152429,752.674,799.011,805.8608,801.02563,521.79486,0.24151611328125,0.0521240234375,0.95892333984375,-2.1533203125,14.8638916015625,-36.464385986328125,1,1.0,1.0,1.0,1.0,10.00
2024-10-11 20:18:07.883,0.9226648,1.00543,0.9833524,1.180848,0.7242026,0.59849745,0.64697987,1.1783756,1.4000418,0.2097564,-0.13190116,1.0263373,0.88326967,0.52948135,-0.17199731,0.6878353,0.32794255,0.12998226,-0.1049121,0.07152429,763.95605,799.41394,803.44324,803.8461,798.60803,0.24151611328125,0.0521240234375,0.95892333984375,-2.1533203125,14.8638916015625,-36.464385986328125,1,1.0,1.0,1.0,1.0,10.00
2024-10-11 20:18:07.884,0.9226648,1.00543,0.9833524,1.180848,0.7242026,0.59849745,0.64697987,1.1783756,1.4000418,0.2097564,-0.13190116,1.0263373,0.88326967,0.52948135,-0.17199731,0.6878353,0.32794255,0.12998226,-0.1049121,0.07152429,772.01465,794.57874,801.02563,797.8022,1065.751,0.24151611328125,0.0521240234375,0.95892333984375,-2.1533203125,14.8638916015625,-36.464385986328125,1,1.0,1.0,1.0,1.0,10.00
2024-10-11 20:18:07.885,0.9226648,1.00543,0.9833524,1.180848,0.7242026,0.59849745,0.64697987,1.1783756,1.4000418,0.2097564,-0.13190116,1.0263373,0.88326967,0.52948135,-0.17199731,0.6878353,0.32794255,0.12998226,-0.1049121,0.07152429,769.59705,793.7729,797.8022,794.9817,765.16486,0.24151611328125,0.0521240234375,0.95892333984375,-2.1533203125,14.8638916015625,-36.464385986328125,1,1.0,1.0,1.0,1.0,10.00
2024-10-11 20:18:07.885,0.9226648,1.00543,0.9833524,1.180848,0.7242026,0.59849745,0.64697987,1.1783756,1.4000418,0.2097564,-0.13190116,1.0263373,0.88326967,0.52948135,-0.17199731,0.6878353,0.32794255,0.12998226,-0.1049121,0.07152429,770.0,797.8022,796.1905,792.5641,521.39197,0.24151611328125,0.0521240234375,0.95892333984375,-2.1533203125,14.8638916015625,-36.464385986328125,1,1.0,1.0,1.0,1.0,10.00
2024-10-11 20:18:07.886,0.9226648,1.00543,0.9833524,1.180848,0.7242026,0.59849745,0.64697987,1.1783756,1.4000418,0.2097564,-0.13190116,1.0263373,0.88326967,0.52948135,-0.17199731,0.6878353,0.32794255,0.12998226,-0.1049121,0.07152429,781.685,793.36993,794.57874,786.9231,726.8865,0.24151611328125,0.0521240234375,0.95892333984375,-2.1533203125,14.8638916015625,-36.464385986328125,1,1.0,1.0,1.0,1.0,10.00
2024-10-11 20:18:07.886,0.9226648,1.00543,0.9833524,1.180848,0.7242026,0.59849745,0.64697987,1.1783756,1.4000418,0.2097564,-0.13190116,1.0263373,0.88326967,0.52948135,-0.17199731,0.6878353,0.32794255,0.12998226,-0.1049121,0.07152429,790.9524,790.54944,794.9817,788.5348,972.674,0.24151611328125,0.0521240234375,0.95892333984375,-2.1533203125,14.8638916015625,-36.464385986328125,1,1.0,1.0,1.0,1.0,10.00
2024-10-11 20:18:07.887,0.9226648,1.00543,0.9833524,1.180848,0.7242026,0.59849745,0.64697987,1.1783756,1.4000418,0.2097564,-0.13190116,1.0263373,0.88326967,0.52948135,-0.17199731,0.6878353,0.32794255,0.12998226,-0.1049121,0.07152429,790.9524,794.17584,796.5934,782.49084,729.707,0.24151611328125,0.0521240234375,0.95892333984375,-2.1533203125,14.8638916015625,-36.464385986328125,1,1.0,1.0,1.0,1.0,10.00
2024-10-11 20:18:07.913,0.9226648,1.00543,0.9833524,1.180848,0.7242026,0.59849745,0.64697987,1.1783756,1.4000418,0.2097564,-0.13190116,1.0263373,0.88326967,0.52948135,-0.17199731,0.6878353,0.32794255,0.12998226,-0.1049121,0.07152429,809.89014,791.3553,793.36993,784.90845,572.5641,0.310302734375,0.06549072265625,0.99822998046875,-1.338348388671875,28.434295654296875,-39.776611328125,1,1.0,1.0,1.0,1.0,10.00
2024-10-11 20:18:07.914,0.9226648,1.00543,0.9833524,1.180848,0.7242026,0.59849745,0.64697987,1.1783756,1.4000418,0.2097564,-0.13190116,1.0263373,0.88326967,0.52948135,-0.17199731,0.6878353,0.32794255,0.12998226,-0.1049121,0.07152429,826.8132,789.7436,794.17584,788.1319,723.663,0.310302734375,0.06549072265625,0.99822998046875,-1.338348388671875,28.434295654296875,-39.776611328125,1,1.0,1.0,1.0,1.0,10.00
2024-10-11 20:18:07.918,0.9226648,1.00543,0.9833524,1.180848,0.7242026,0.59849745,0.64697987,1.1783756,1.4000418,0.2097564,-0.13190116,1.0263373,0.88326967,0.52948135,-0.17199731,0.6878353,0.32794255,0.12998226,-0.1049121,0.07152429,815.12823,790.9524,796.99634,788.1319,757.9121,0.310302734375,0.06549072265625,0.99822998046875,-1.338348388671875,28.434295654296875,-39.776611328125,1,1.0,1.0,1.0,1.0,10.00
2024-10-11 20:18:07.919,0.9226648,1.00543,0.9833524,1.180848,0.7242026,0.59849745,0.64697987,1.1783756,1.4000418,0.2097564,-0.13190116,1.0263373,0.88326967,0.52948135,-0.17199731,0.6878353,0.32794255,0.12998226,-0.1049121,0.07152429,800.6227,791.75824,798.60803,793.36993,649.12085,0.310302734375,0.06549072265625,0.99822998046875,-1.338348388671875,28.434295654296875,-39.776611328125,1,1.0,1.0,1.0,1.0,10.00
2024-10-11 20:18:07.920,0.9226648,1.00543,0.9833524,1.180848,0.7242026,0.59849745,0.64697987,1.1783756,1.4000418,0.2097564,-0.13190116,1.0263373,0.88326967,0.52948135,-0.17199731,0.6878353,0.32794255,0.12998226,-0.1049121,0.07152429,801.4286,796.5934,795.38464,790.14655,614.87177,0.310302734375,0.06549072265625,0.99822998046875,-1.338348388671875,28.434295654296875,-39.776611328125,1,1.0,1.0,1.0,1.0,10.00
2024-10-11 20:18:07.920,0.9226648,1.00543,0.9833524,1.180848,0.7242026,0.59849745,0.64697987,1.1783756,1.4000418,0.2097564,-0.13190116,1.0263373,0.88326967,0.52948135,-0.17199731,0.6878353,0.32794255,0.12998226,-0.1049121,0.07152429,805.8608,794.9817,794.57874,788.93774,870.32965,0.310302734375,0.06549072265625,0.99822998046875,-1.338348388671875,28.434295654296875,-39.776611328125,1,1.0,1.0,1.0,1.0,10.00
2024-10-11 20:18:07.921,0.9226648,1.00543,0.9833524,1.180848,0.7242026,0.59849745,0.64697987,1.1783756,1.4000418,0.2097564,-0.13190116,1.0263373,0.88326967,0.52948135,-0.17199731,0.6878353,0.32794255,0.12998226,-0.1049121,0.07152429,787.326,788.1319,798.20514,790.14655,1112.0879,0.310302734375,0.06549072265625,0.99822998046875,-1.338348388671875,28.434295654296875,-39.776611328125,1,1.0,1.0,1.0,1.0,10.00
2024-10-11 20:18:07.921,0.9226648,1.00543,0.9833524,1.180848,0.7242026,0.59849745,0.64697987,1.1783756,1.4000418,0.2097564,-0.13190116,1.0263373,0.88326967,0.52948135,-0.17199731,0.6878353,0.32794255,0.12998226,-0.1049121,0.07152429,768.7912,787.326,800.6227,791.3553,772.01465,0.310302734375,0.06549072265625,0.99822998046875,-1.338348388671875,28.434295654296875,-39.776611328125,1,1.0,1.0,1.0,1.0,10.00
2024-10-11 20:18:07.922,0.9226648,1.00543,0.9833524,1.180848,0.7242026,0.59849745,0.64697987,1.1783756,1.4000418,0.2097564,-0.13190116,1.0263373,0.88326967,0.52948135,-0.17199731,0.6878353,0.32794255,0.12998226,-0.1049121,0.07152429,772.4176,786.52014,796.5934,791.3553,610.84247,0.310302734375,0.06549072265625,0.99822998046875,-1.338348388671875,28.434295654296875,-39.776611328125,1,1.0,1.0,1.0,1.0,10.00
2024-10-11 20:18:07.922,0.9226648,1.00543,0.9833524,1.180848,0.7242026,0.59849745,0.64697987,1.1783756,1.4000418,0.2097564,-0.13190116,1.0263373,0.88326967,0.52948135,-0.17199731,0.6878353,0.32794255,0.12998226,-0.1049121,0.07152429,770.0,783.69965,795.38464,785.7143,734.94507,0.310302734375,0.06549072265625,0.99822998046875,-1.338348388671875,28.434295654296875,-39.776611328125,1,1.0,1.0,1.0,1.0,10.00
2024-10-11 20:18:07.923,0.9226648,1.00543,0.9833524,1.180848,0.7242026,0.59849745,0.64697987,1.1783756,1.4000418,0.2097564,-0.13190116,1.0263373,0.88326967,0.52948135,-0.17199731,0.6878353,0.32794255,0.12998226,-0.1049121,0.07152429,774.43225,786.9231,794.57874,786.1172,731.7216,0.310302734375,0.06549072265625,0.99822998046875,-1.338348388671875,28.434295654296875,-39.776611328125,1,1.0,1.0,1.0,1.0,10.00
2024-10-11 20:18:07.924,0.9226648,1.00543,0.9833524,1.180848,0.7242026,0.59849745,0.64697987,1.1783756,1.4000418,0.2097564,-0.13190116,1.0263373,0.88326967,0.52948135,-0.17199731,0.6878353,0.32794255,0.12998226,-0.1049121,0.07152429,774.43225,785.7143,789.34064,789.7436,781.28204,0.310302734375,0.06549072265625,0.99822998046875,-1.338348388671875,28.434295654296875,-39.776611328125,1,1.0,1.0,1.0,1.0,10.00
2024-10-11 20:18:07.980,0.9226648,1.00543,0.9833524,1.180848,0.7242026,0.59849745,0.64697987,1.1783756,1.4000418,0.2097564,-0.13190116,1.0263373,0.88326967,0.52948135,-0.17199731,0.6878353,0.32794255,0.12998226,-0.1049121,0.07152429,762.74725,782.49084,790.9524,794.9817,811.9048,0.310302734375,0.06549072265625,0.99822998046875,-1.338348388671875,28.434295654296875,-39.776611328125,1,1.0,1.0,1.0,1.0,10.00
2024-10-11 20:18:07.981,0.9226648,1.00543,0.9833524,1.180848,0.7242026,0.59849745,0.64697987,1.1783756,1.4000418,0.2097564,-0.13190116,1.0263373,0.88326967,0.52948135,-0.17199731,0.6878353,0.32794255,0.12998226,-0.1049121,0.07152429,770.80585,785.7143,792.5641,790.9524,724.4689,0.310302734375,0.06549072265625,0.99822998046875,-1.338348388671875,28.434295654296875,-39.776611328125,1,1.0,1.0,1.0,1.0,10.00
2024-10-11 20:18:07.982,0.9226648,1.00543,0.9833524,1.180848,0.7242026,0.59849745,0.64697987,1.1783756,1.4000418,0.2097564,-0.13190116,1.0263373,0.88326967,0.52948135,-0.17199731,0.6878353,0.32794255,0.12998226,-0.1049121,0.07152429,763.1502,789.7436,793.7729,790.14655,651.53845,0.310302734375,0.06549072265625,0.99822998046875,-1.338348388671875,28.434295654296875,-39.776611328125,1,1.0,1.0,1.0,1.0,10.00
2024-10-11 20:18:07.982,0.9226648,1.00543,0.9833524,1.180848,0.7242026,0.59849745,0.64697987,1.1783756,1.4000418,0.2097564,-0.13190116,1.0263373,0.88326967,0.52948135,-0.17199731,0.6878353,0.32794255,0.12998226,-0.1049121,0.07152429,750.2564,791.3553,799.41394,792.96704,623.73627,0.310302734375,0.06549072265625,0.99822998046875,-1.338348388671875,28.434295654296875,-39.776611328125,1,1.0,1.0,1.0,1.0,10.00
2024-10-11 20:18:07.983,0.9226648,1.00543,0.9833524,1.180848,0.7242026,0.59849745,0.64697987,1.1783756,1.4000418,0.2097564,-0.13190116,1.0263373,0.88326967,0.52948135,-0.17199731,0.6878353,0.32794255,0.12998226,-0.1049121,0.07152429,767.98535,790.54944,798.20514,791.3553,782.49084,0.310302734375,0.06549072265625,0.99822998046875,-1.338348388671875,28.434295654296875,-39.776611328125,1,1.0,1.0,1.0,1.0,10.00
2024-10-11 20:18:07.985,0.9226648,1.00543,0.9833524,1.180848,0.7242026,0.59849745,0.64697987,1.1783756,1.4000418,0.2097564,-0.13190116,1.0263373,0.88326967,0.52948135,-0.17199731,0.6878353,0.32794255,0.12998226,-0.1049121,0.07152429,793.7729,788.93774,794.9817,795.78754,938.8278,0.310302734375,0.06549072265625,0.99822998046875,-1.338348388671875,28.434295654296875,-39.776611328125,1,1.0,1.0,1.0,1.0,10.00
2024-10-11 20:18:07.986,0.9226648,1.00543,0.9833524,1.180848,0.7242026,0.59849745,0.64697987,1.1783756,1.4000418,0.2097564,-0.13190116,1.0263373,0.88326967,0.52948135,-0.17199731,0.6878353,0.32794255,0.12998226,-0.1049121,0.07152429,790.9524,789.7436,799.41394,790.54944,804.2491,0.310302734375,0.06549072265625,0.99822998046875,-1.338348388671875,28.434295654296875,-39.776611328125,1,1.0,1.0,1.0,1.0,10.00
2024-10-11 20:18:07.987,0.9226648,1.00543,0.9833524,1.180848,0.7242026,0.59849745,0.64697987,1.1783756,1.4000418,0.2097564,-0.13190116,1.0263373,0.88326967,0.52948135,-0.17199731,0.6878353,0.32794255,0.12998226,-0.1049121,0.07152429,778.86444,792.1612,798.60803,782.8938,712.7839,0.310302734375,0.06549072265625,0.99822998046875,-1.338348388671875,28.434295654296875,-39.776611328125,1,1.0,1.0,1.0,1.0,10.00
2024-10-11 20:18:07.988,0.9226648,1.00543,0.9833524,1.180848,0.7242026,0.59849745,0.64697987,1.1783756,1.4000418,0.2097564,-0.13190116,1.0263373,0.88326967,0.52948135,-0.17199731,0.6878353,0.32794255,0.12998226,-0.1049121,0.07152429,791.75824,790.9524,799.41394,786.1172,857.03296,0.310302734375,0.06549072265625,0.99822998046875,-1.338348388671875,28.434295654296875,-39.776611328125,1,1.0,1.0,1.0,1.0,10.00
2024-10-11 20:18:07.988,0.9226648,1.00543,0.9833524,1.180848,0.7242026,0.59849745,0.64697987,1.1783756,1.4000418,0.2097564,-0.13190116,1.0263373,0.88326967,0.52948135,-0.17199731,0.6878353,0.32794255,0.12998226,-0.1049121,0.07152429,790.54944,786.1172,800.6227,795.38464,1060.5128,0.310302734375,0.06549072265625,0.99822998046875,-1.338348388671875,28.434295654296875,-39.776611328125,1,1.0,1.0,1.0,1.0,10.00
2024-10-11 20:18:07.989,0.9226648,1.00543,0.9833524,1.180848,0.7242026,0.59849745,0.64697987,1.1783756,1.4000418,0.2097564,-0.13190116,1.0263373,0.88326967,0.52948135,-0.17199731,0.6878353,0.32794255,0.12998226,-0.1049121,0.07152429,792.96704,787.72894,799.81683,791.3553,754.68866,0.310302734375,0.06549072265625,0.99822998046875,-1.338348388671875,28.434295654296875,-39.776611328125,1,1.0,1.0,1.0,1.0,10.00
2024-10-11 20:18:07.990,0.9226648,1.00543,0.9833524,1.180848,0.7242026,0.59849745,0.64697987,1.1783756,1.4000418,0.2097564,-0.13190116,1.0263373,0.88326967,0.52948135,-0.17199731,0.6878353,0.32794255,0.12998226,-0.1049121,0.07152429,815.5311,788.93774,798.60803,788.93774,511.3187,0.310302734375,0.06549072265625,0.99822998046875,-1.338348388671875,28.434295654296875,-39.776611328125,1,1.0,1.0,1.0,1.0,10.00
2024-10-11 20:18:08.015,0.9226648,1.00543,0.9833524,1.180848,0.7242026,0.59849745,0.64697987,1.1783756,1.4000418,0.2097564,-0.13190116,1.0263373,0.88326967,0.52948135,-0.17199731,0.6878353,0.32794255,0.12998226,-0.1049121,0.07152429,825.6044,792.1612,792.96704,790.54944,641.06226,0.27001953125,0.06005859375,0.9954833984375,-5.84686279296875,40.31494140625,-27.507171630859375,1,1.0,1.0,1.0,1.0,10.00
2024-10-11 20:18:08.016,0.9226648,1.00543,0.9833524,1.180848,0.7242026,0.59849745,0.64697987,1.1783756,1.4000418,0.2097564,-0.13190116,1.0263373,0.88326967,0.52948135,-0.17199731,0.6878353,0.32794255,0.12998226,-0.1049121,0.07152429,806.6667,795.38464,795.38464,784.10254,603.9927,0.27001953125,0.06005859375,0.9954833984375,-5.84686279296875,40.31494140625,-27.507171630859375,1,1.0,1.0,1.0,1.0,10.00
2024-10-11 20:18:08.016,0.9226648,1.00543,0.9833524,1.180848,0.7242026,0.59849745,0.64697987,1.1783756,1.4000418,0.2097564,-0.13190116,1.0263373,0.88326967,0.52948135,-0.17199731,0.6878353,0.32794255,0.12998226,-0.1049121,0.07152429,801.8315,795.38464,796.5934,784.90845,561.28204,0.27001953125,0.06005859375,0.9954833984375,-5.84686279296875,40.31494140625,-27.507171630859375,1,1.0,1.0,1.0,1.0,10.00
2024-10-11 20:18:08.018,0.9226648,0.9970151,1.2170959,1.180848,0.7242026,0.5775841,0.79768795,1.1783756,1.4000418,0.17621446,0.86390704,1.0263373,0.88326967,0.551584,-0.046362232,0.6878353,0.32794255,0.15402155,-0.10387381,0.07152429,827.2161,799.011,797.3993,792.5641,608.8278,0.27001953125,0.06005859375,0.9954833984375,-5.84686279296875,40.31494140625,-27.507171630859375,1,1.0,1.0,1.0,1.0,10.00
2024-10-11 20:18:08.023,0.9226648,0.9970151,1.2170959,1.180848,0.7242026,0.5775841,0.79768795,1.1783756,1.4000418,0.17621446,0.86390704,1.0263373,0.88326967,0.551584,-0.046362232,0.6878353,0.32794255,0.15402155,-0.10387381,0.07152429,795.78754,796.5934,800.2198,798.60803,722.4542,0.27001953125,0.06005859375,0.9954833984375,-5.84686279296875,40.31494140625,-27.507171630859375,1,1.0,1.0,1.0,1.0,10.00
2024-10-11 20:18:08.024,0.9226648,0.9970151,1.2170959,1.180848,0.7242026,0.5775841,0.79768795,1.1783756,1.4000418,0.17621446,0.86390704,1.0263373,0.88326967,0.551584,-0.046362232,0.6878353,0.32794255,0.15402155,-0.10387381,0.07152429,753.47986,790.9524,795.38464,805.05493,772.01465,0.27001953125,0.06005859375,0.9954833984375,-5.84686279296875,40.31494140625,-27.507171630859375,1,1.0,1.0,1.0,1.0,10.00
2024-10-11 20:18:08.026,0.9226648,0.9970151,1.2170959,1.180848,0.7242026,0.5775841,0.79768795,1.1783756,1.4000418,0.17621446,0.86390704,1.0263373,0.88326967,0.551584,-0.046362232,0.6878353,0.32794255,0.15402155,-0.10387381,0.07152429,755.09155,793.36993,790.9524,797.8022,682.5641,0.27001953125,0.06005859375,0.9954833984375,-5.84686279296875,40.31494140625,-27.507171630859375,1,1.0,1.0,1.0,1.0,10.00
2024-10-11 20:18:08.026,0.9226648,0.9970151,1.2170959,1.180848,0.7242026,0.5775841,0.79768795,1.1783756,1.4000418,0.17621446,0.86390704,1.0263373,0.88326967,0.551584,-0.046362232,0.6878353,0.32794255,0.15402155,-0.10387381,0.07152429,759.12085,792.96704,794.17584,792.5641,754.68866,0.27001953125,0.06005859375,0.9954833984375,-5.84686279296875,40.31494140625,-27.507171630859375,1,1.0,1.0,1.0,1.0,10.00
2024-10-11 20:18:08.027,0.9226648,0.9970151,1.2170959,1.180848,0.7242026,0.5775841,0.79768795,1.1783756,1.4000418,0.17621446,0.86390704,1.0263373,0.88326967,0.551584,-0.046362232,0.6878353,0.32794255,0.15402155,-0.10387381,0.07152429,776.04395,792.96704,804.2491,803.8461,921.50183,0.27001953125,0.06005859375,0.9954833984375,-5.84686279296875,40.31494140625,-27.507171630859375,1,1.0,1.0,1.0,1.0,10.00
2024-10-11 20:18:08.028,0.9226648,0.9970151,1.2170959,1.180848,0.7242026,0.5775841,0.79768795,1.1783756,1.4000418,0.17621446,0.86390704,1.0263373,0.88326967,0.551584,-0.046362232,0.6878353,0.32794255,0.15402155,-0.10387381,0.07152429,788.93774,794.9817,802.6374,801.8315,830.0366,0.27001953125,0.06005859375,0.9954833984375,-5.84686279296875,40.31494140625,-27.507171630859375,1,1.0,1.0,1.0,1.0,10.00
2024-10-11 20:18:08.029,0.9226648,0.9970151,1.2170959,1.180848,0.7242026,0.5775841,0.79768795,1.1783756,1.4000418,0.17621446,0.86390704,1.0263373,0.88326967,0.551584,-0.046362232,0.6878353,0.32794255,0.15402155,-0.10387381,0.07152429,800.2198,797.3993,797.8022,785.7143,698.68134,0.27001953125,0.06005859375,0.9954833984375,-5.84686279296875,40.31494140625,-27.507171630859375,1,1.0,1.0,1.0,1.0,10.00
2024-10-11 20:18:08.029,0.9226648,0.9970151,1.2170959,1.180848,0.7242026,0.5775841,0.79768795,1.1783756,1.4000418,0.17621446,0.86390704,1.0263373,0.88326967,0.551584,-0.046362232,0.6878353,0.32794255,0.15402155,-0.10387381,0.07152429,826.0073,799.81683,799.011,782.8938,624.94507,0.27001953125,0.06005859375,0.9954833984375,-5.84686279296875,40.31494140625,-27.507171630859375,1,1.0,1.0,1.0,1.0,10.00
2024-10-11 20:18:08.052,0.9226648,0.9970151,1.2170959,1.180848,0.7242026,0.5775841,0.79768795,1.1783756,1.4000418,0.17621446,0.86390704,1.0263373,0.88326967,0.551584,-0.046362232,0.6878353,0.32794255,0.15402155,-0.10387381,0.07152429,820.7692,790.9524,796.5934,799.81683,943.2601,0.1827392578125,0.05303955078125,0.97320556640625,-8.022613525390625,52.35260009765625,-18.235931396484375,1,1.0,1.0,1.0,1.0,10.00
2024-10-11 20:18:08.053,0.9226648,0.9970151,1.2170959,1.180848,0.7242026,0.5775841,0.79768795,1.1783756,1.4000418,0.17621446,0.86390704,1.0263373,0.88326967,0.551584,-0.046362232,0.6878353,0.32794255,0.15402155,-0.10387381,0.07152429,779.67035,796.5934,798.20514,805.8608,1098.3883,0.1827392578125,0.05303955078125,0.97320556640625,-8.022613525390625,52.35260009765625,-18.235931396484375,1,1.0,1.0,1.0,1.0,10.00
2024-10-11 20:18:08.053,0.9226648,0.9970151,1.2170959,1.180848,0.7242026,0.5775841,0.79768795,1.1783756,1.4000418,0.17621446,0.86390704,1.0263373,0.88326967,0.551584,-0.046362232,0.6878353,0.32794255,0.15402155,-0.10387381,0.07152429,752.27106,801.8315,796.1905,799.41394,734.5421,0.1827392578125,0.05303955078125,0.97320556640625,-8.022613525390625,52.35260009765625,-18.235931396484375,1,1.0,1.0,1.0,1.0,10.00
2024-10-11 20:18:08.054,0.9226648,0.9970151,1.2170959,1.180848,0.7242026,0.5775841,0.79768795,1.1783756,1.4000418,0.17621446,0.86390704,1.0263373,0.88326967,0.551584,-0.046362232,0.6878353,0.32794255,0.15402155,-0.10387381,0.07152429,763.1502,795.38464,792.5641,790.54944,683.7729,0.1827392578125,0.05303955078125,0.97320556640625,-8.022613525390625,52.35260009765625,-18.235931396484375,1,1.0,1.0,1.0,1.0,10.00
2024-10-11 20:18:08.054,0.9226648,0.9970151,1.2170959,1.180848,0.7242026,0.5775841,0.79768795,1.1783756,1.4000418,0.17621446,0.86390704,1.0263373,0.88326967,0.551584,-0.046362232,0.6878353,0.32794255,0.15402155,-0.10387381,0.07152429,776.04395,798.60803,793.36993,784.90845,724.87177,0.1827392578125,0.05303955078125,0.97320556640625,-8.022613525390625,52.35260009765625,-18.235931396484375,1,1.0,1.0,1.0,1.0,10.00
2024-10-11 20:18:08.055,0.9226648,0.9970151,1.2170959,1.180848,0.7242026,0.5775841,0.79768795,1.1783756,1.4000418,0.17621446,0.86390704,1.0263373,0.88326967,0.551584,-0.046362232,0.6878353,0.32794255,0.15402155,-0.10387381,0.07152429,784.5055,793.36993,792.5641,791.75824,857.8388,0.1827392578125,0.05303955078125,0.97320556640625,-8.022613525390625,52.35260009765625,-18.235931396484375,1,1.0,1.0,1.0,1.0,10.00
2024-10-11 20:18:08.056,0.9226648,0.9970151,1.2170959,1.180848,0.7242026,0.5775841,0.79768795,1.1783756,1.4000418,0.17621446,0.86390704,1.0263373,0.88326967,0.551584,-0.046362232,0.6878353,0.32794255,0.15402155,-0.10387381,0.07152429,793.7729,791.75824,794.57874,800.2198,876.77655,0.1827392578125,0.05303955078125,0.97320556640625,-8.022613525390625,52.35260009765625,-18.235931396484375,1,1.0,1.0,1.0,1.0,10.00
2024-10-11 20:18:08.056,0.9226648,0.9970151,1.2170959,1.180848,0.7242026,0.5775841,0.79768795,1.1783756,1.4000418,0.17621446,0.86390704,1.0263373,0.88326967,0.551584,-0.046362232,0.6878353,0.32794255,0.15402155,-0.10387381,0.07152429,789.7436,797.3993,795.78754,781.685,853.4066,0.1827392578125,0.05303955078125,0.97320556640625,-8.022613525390625,52.35260009765625,-18.235931396484375,1,1.0,1.0,1.0,1.0,10.00
2024-10-11 20:18:08.057,0.9226648,0.9970151,1.2170959,1.180848,0.7242026,0.5775841,0.79768795,1.1783756,1.4000418,0.17621446,0.86390704,1.0263373,0.88326967,0.551584,-0.046362232,0.6878353,0.32794255,0.15402155,-0.10387381,0.07152429,778.46155,792.1612,791.75824,759.12085,923.91943,0.1827392578125,0.05303955078125,0.97320556640625,-8.022613525390625,52.35260009765625,-18.235931396484375,1,1.0,1.0,1.0,1.0,10.00
2024-10-11 20:18:08.057,0.9226648,0.9970151,1.2170959,1.180848,0.7242026,0.5775841,0.79768795,1.1783756,1.4000418,0.17621446,0.86390704,1.0263373,0.88326967,0.551584,-0.046362232,0.6878353,0.32794255,0.15402155,-0.10387381,0.07152429,796.1905,789.7436,792.1612,765.16486,763.95605,0.1827392578125,0.05303955078125,0.97320556640625,-8.022613525390625,52.35260009765625,-18.235931396484375,1,1.0,1.0,1.0,1.0,10.00
2024-10-11 20:18:08.058,0.9226648,0.9970151,1.2170959,1.180848,0.7242026,0.5775841,0.79768795,1.1783756,1.4000418,0.17621446,0.86390704,1.0263373,0.88326967,0.551584,-0.046362232,0.6878353,0.32794255,0.15402155,-0.10387381,0.07152429,759.92676,768.3883,790.9524,751.8681,682.1612,0.1827392578125,0.05303955078125,0.97320556640625,-8.022613525390625,52.35260009765625,-18.235931396484375,1,1.0,1.0,1.0,1.0,10.00
2024-10-11 20:18:08.058,0.9226648,0.9970151,1.2170959,1.180848,0.7242026,0.5775841,0.79768795,1.1783756,1.4000418,0.17621446,0.86390704,1.0263373,0.88326967,0.551584,-0.046362232,0.6878353,0.32794255,0.15402155,-0.10387381,0.07152429,713.1868,727.6923,790.14655,735.34796,763.1502,0.1827392578125,0.05303955078125,0.97320556640625,-8.022613525390625,52.35260009765625,-18.235931396484375,1,1.0,1.0,1.0,1.0,10.00
2024-10-11 20:18:08.083,0.9226648,0.9970151,1.2170959,1.180848,0.7242026,0.5775841,0.79768795,1.1783756,1.4000418,0.17621446,0.86390704,1.0263373,0.88326967,0.551584,-0.046362232,0.6878353,0.32794255,0.15402155,-0.10387381,0.07152429,740.58606,759.12085,785.7143,734.94507,697.47253,0.0419921875,0.03204345703125,0.9859619140625,2.97576904296875,72.09884643554688,-23.28277587890625,1,1.0,1.0,1.0,1.0,10.00
2024-10-11 20:18:08.084,0.9226648,0.9970151,1.2170959,1.180848,0.7242026,0.5775841,0.79768795,1.1783756,1.4000418,0.17621446,0.86390704,1.0263373,0.88326967,0.551584,-0.046362232,0.6878353,0.32794255,0.15402155,-0.10387381,0.07152429,760.32965,828.022,778.86444,728.49817,579.011,0.0419921875,0.03204345703125,0.9859619140625,2.97576904296875,72.09884643554688,-23.28277587890625,1,1.0,1.0,1.0,1.0,10.00
2024-10-11 20:18:08.084,0.9226648,0.9970151,1.2170959,1.180848,0.7242026,0.5775841,0.79768795,1.1783756,1.4000418,0.17621446,0.86390704,1.0263373,0.88326967,0.551584,-0.046362232,0.6878353,0.32794255,0.15402155,-0.10387381,0.07152429,743.4066,821.5751,774.0293,714.3956,669.67035,0.0419921875,0.03204345703125,0.9859619140625,2.97576904296875,72.09884643554688,-23.28277587890625,1,1.0,1.0,1.0,1.0,10.00
2024-10-11 20:18:08.085,0.9226648,0.9970151,1.2170959,1.180848,0.7242026,0.5775841,0.79768795,1.1783756,1.4000418,0.17621446,0.86390704,1.0263373,0.88326967,0.551584,-0.046362232,0.6878353,0.32794255,0.15402155,-0.10387381,0.07152429,708.7546,777.6557,776.8498,718.4249,668.0586,0.0419921875,0.03204345703125,0.9859619140625,2.97576904296875,72.09884643554688,-23.28277587890625,1,1.0,1.0,1.0,1.0,10.00
2024-10-11 20:18:08.086,0.9226648,0.9970151,1.2170959,1.180848,0.7242026,0.5775841,0.79768795,1.1783756,1.4000418,0.17621446,0.86390704,1.0263373,0.88326967,0.551584,-0.046362232,0.6878353,0.32794255,0.15402155,-0.10387381,0.07152429,682.96704,776.4469,775.2381,720.84247,560.07324,0.0419921875,0.03204345703125,0.9859619140625,2.97576904296875,72.09884643554688,-23.28277587890625,1,1.0,1.0,1.0,1.0,10.00
2024-10-11 20:18:08.086,0.9226648,1.0066998,1.2020319,1.180848,0.7242026,0.5223586,0.7294454,1.1783756,1.4000418,0.0675782,0.86390704,1.0263373,0.88326967,0.55822223,-0.07305975,0.6878353,0.32794255,0.17015988,-0.103773914,0.07152429,664.0293,811.0989,763.95605,700.293,680.9524,0.0419921875,0.03204345703125,0.9859619140625,2.97576904296875,72.09884643554688,-23.28277587890625,1,1.0,1.0,1.0,1.0,10.00
2024-10-11 20:18:08.091,0.9226648,1.0066998,1.2020319,1.180848,0.7242026,0.5223586,0.7294454,1.1783756,1.4000418,0.0675782,0.86390704,1.0263373,0.88326967,0.55822223,-0.07305975,0.6878353,0.32794255,0.17015988,-0.103773914,0.07152429,675.31134,819.9634,765.9707,700.696,775.64105,0.0419921875,0.03204345703125,0.9859619140625,2.97576904296875,72.09884643554688,-23.28277587890625,1,1.0,1.0,1.0,1.0,10.00
2024-10-11 20:18:08.092,0.9226648,1.0066998,1.2020319,1.180848,0.7242026,0.5223586,0.7294454,1.1783756,1.4000418,0.0675782,0.86390704,1.0263373,0.88326967,0.55822223,-0.07305975,0.6878353,0.32794255,0.17015988,-0.103773914,0.07152429,699.4872,819.9634,762.3443,712.381,790.14655,0.0419921875,0.03204345703125,0.9859619140625,2.97576904296875,72.09884643554688,-23.28277587890625,1,1.0,1.0,1.0,1.0,10.00
2024-10-11 20:18:08.092,0.9226648,1.0066998,1.2020319,1.180848,0.7242026,0.5223586,0.7294454,1.1783756,1.4000418,0.0675782,0.86390704,1.0263373,0.88326967,0.55822223,-0.07305975,0.6878353,0.32794255,0.17015988,-0.103773914,0.07152429,688.60803,815.5311,764.35895,707.1429,726.4835,0.0419921875,0.03204345703125,0.9859619140625,2.97576904296875,72.09884643554688,-23.28277587890625,1,1.0,1.0,1.0,1.0,10.00
2024-10-11 20:18:08.093,0.9226648,1.0066998,1.2020319,1.180848,0.7242026,0.5223586,0.7294454,1.1783756,1.4000418,0.0675782,0.86390704,1.0263373,0.88326967,0.55822223,-0.07305975,0.6878353,0.32794255,0.17015988,-0.103773914,0.07152429,687.3993,751.06226,780.07324,713.5897,670.87915,0.0419921875,0.03204345703125,0.9859619140625,2.97576904296875,72.09884643554688,-23.28277587890625,1,1.0,1.0,1.0,1.0,10.00
2024-10-11 20:18:08.093,0.9226648,1.0066998,1.2020319,1.180848,0.7242026,0.5223586,0.7294454,1.1783756,1.4000418,0.0675782,0.86390704,1.0263373,0.88326967,0.55822223,-0.07305975,0.6878353,0.32794255,0.17015988,-0.103773914,0.07152429,702.71063,745.0183,784.5055,725.6777,797.3993,0.0419921875,0.03204345703125,0.9859619140625,2.97576904296875,72.09884643554688,-23.28277587890625,1,1.0,1.0,1.0,1.0,10.00
2024-10-11 20:18:08.094,0.9226648,1.0066998,1.2020319,1.180848,0.7242026,0.5223586,0.7294454,1.1783756,1.4000418,0.0675782,0.86390704,1.0263373,0.88326967,0.55822223,-0.07305975,0.6878353,0.32794255,0.17015988,-0.103773914,0.07152429,709.9634,819.9634,778.0586,726.08057,954.5421,0.0419921875,0.03204345703125,0.9859619140625,2.97576904296875,72.09884643554688,-23.28277587890625,1,1.0,1.0,1.0,1.0,10.00
2024-10-11 20:18:08.148,0.9226648,1.0066998,1.2020319,1.180848,0.7242026,0.5223586,0.7294454,1.1783756,1.4000418,0.0675782,0.86390704,1.0263373,0.88326967,0.55822223,-0.07305975,0.6878353,0.32794255,0.17015988,-0.103773914,0.07152429,709.15753,817.9487,769.19415,711.1722,844.94507,-0.06683349609375,0.0513916015625,1.0228271484375,3.75335693359375,80.28594970703125,-30.84930419921875,1,1.0,1.0,1.0,1.0,10.00
2024-10-11 20:18:08.149,0.9226648,1.0066998,1.2020319,1.180848,0.7242026,0.5223586,0.7294454,1.1783756,1.4000418,0.0675782,0.86390704,1.0263373,0.88326967,0.55822223,-0.07305975,0.6878353,0.32794255,0.17015988,-0.103773914,0.07152429,713.1868,791.3553,768.3883,705.5311,645.09155,-0.06683349609375,0.0513916015625,1.0228271484375,3.75335693359375,80.28594970703125,-30.84930419921875,1,1.0,1.0,1.0,1.0,10.00
2024-10-11 20:18:08.149,0.9226648,1.0066998,1.2020319,1.180848,0.7242026,0.5223586,0.7294454,1.1783756,1.4000418,0.0675782,0.86390704,1.0263373,0.88326967,0.55822223,-0.07305975,0.6878353,0.32794255,0.17015988,-0.103773914,0.07152429,711.978,786.52014,771.2088,703.1135,780.4762,-0.06683349609375,0.0513916015625,1.0228271484375,3.75335693359375,80.28594970703125,-30.84930419921875,1,1.0,1.0,1.0,1.0,10.00
2024-10-11 20:18:08.150,0.9226648,1.0066998,1.2020319,1.180848,0.7242026,0.5223586,0.7294454,1.1783756,1.4000418,0.0675782,0.86390704,1.0263373,0.88326967,0.55822223,-0.07305975,0.6878353,0.32794255,0.17015988,-0.103773914,0.07152429,723.2601,794.17584,756.7033,703.1135,959.3773,-0.06683349609375,0.0513916015625,1.0228271484375,3.75335693359375,80.28594970703125,-30.84930419921875,1,1.0,1.0,1.0,1.0,10.00
2024-10-11 20:18:08.151,0.9226648,1.0066998,1.2020319,1.180848,0.7242026,0.5223586,0.7294454,1.1783756,1.4000418,0.0675782,0.86390704,1.0263373,0.88326967,0.55822223,-0.07305975,0.6878353,0.32794255,0.17015988,-0.103773914,0.07152429,744.21246,816.7399,751.8681,707.1429,799.011,-0.06683349609375,0.0513916015625,1.0228271484375,3.75335693359375,80.28594970703125,-30.84930419921875,1,1.0,1.0,1.0,1.0,10.00
2024-10-11 20:18:08.151,0.9226648,1.0066998,1.2020319,1.180848,0.7242026,0.5223586,0.7294454,1.1783756,1.4000418,0.0675782,0.86390704,1.0263373,0.88326967,0.55822223,-0.07305975,0.6878353,0.32794255,0.17015988,-0.103773914,0.07152429,753.0769,789.34064,770.0,703.91943,714.3956,-0.06683349609375,0.0513916015625,1.0228271484375,3.75335693359375,80.28594970703125,-30.84930419921875,1,1.0,1.0,1.0,1.0,10.00
2024-10-11 20:18:08.152,0.9226648,1.0066998,1.2020319,1.180848,0.7242026,0.5223586,0.7294454,1.1783756,1.4000418,0.0675782,0.86390704,1.0263373,0.88326967,0.55822223,-0.07305975,0.6878353,0.32794255,0.17015988,-0.103773914,0.07152429,693.0403,789.7436,787.326,709.15753,1102.4176,-0.06683349609375,0.0513916015625,1.0228271484375,3.75335693359375,80.28594970703125,-30.84930419921875,1,1.0,1.0,1.0,1.0,10.00
2024-10-11 20:18:08.152,0.9226648,1.0066998,1.2020319,1.180848,0.7242026,0.5223586,0.7294454,1.1783756,1.4000418,0.0675782,0.86390704,1.0263373,0.88326967,0.55822223,-0.07305975,0.6878353,0.32794255,0.17015988,-0.103773914,0.07152429,645.89746,821.5751,785.7143,724.4689,1262.7839,-0.06683349609375,0.0513916015625,1.0228271484375,3.75335693359375,80.28594970703125,-30.84930419921875,1,1.0,1.0,1.0,1.0,10.00
2024-10-11 20:18:08.153,0.9226648,1.0066998,1.2020319,1.180848,0.7242026,0.5223586,0.7294454,1.1783756,1.4000418,0.0675782,0.86390704,1.0263373,0.88326967,0.55822223,-0.07305975,0.6878353,0.32794255,0.17015988,-0.103773914,0.07152429,670.4762,819.5604,780.4762,718.8278,844.1392,-0.06683349609375,0.0513916015625,1.0228271484375,3.75335693359375,80.28594970703125,-30.84930419921875,1,1.0,1.0,1.0,1.0,10.00
2024-10-11 20:18:08.153,0.9226648,1.0066998,1.2020319,1.180848,0.7242026,0.5223586,0.7294454,1.1783756,1.4000418,0.0675782,0.86390704,1.0263373,0.88326967,0.55822223,-0.07305975,0.6878353,0.32794255,0.17015988,-0.103773914,0.07152429,672.8938,810.696,781.28204,694.65204,689.011,-0.06683349609375,0.0513916015625,1.0228271484375,3.75335693359375,80.28594970703125,-30.84930419921875,1,1.0,1.0,1.0,1.0,10.00
2024-10-11 20:18:08.154,0.9226648,1.0066998,1.2020319,1.180848,0.7242026,0.5223586,0.7294454,1.1783756,1.4000418,0.0675782,0.86390704,1.0263373,0.88326967,0.55822223,-0.07305975,0.6878353,0.32794255,0.17015988,-0.103773914,0.07152429,681.3553,799.81683,786.1172,684.17584,802.23444,-0.06683349609375,0.0513916015625,1.0228271484375,3.75335693359375,80.28594970703125,-30.84930419921875,1,1.0,1.0,1.0,1.0,10.00
2024-10-11 20:18:08.154,0.9226648,1.0066998,1.2020319,1.180848,0.7242026,0.5223586,0.7294454,1.1783756,1.4000418,0.0675782,0.86390704,1.0263373,0.88326967,0.55822223,-0.07305975,0.6878353,0.32794255,0.17015988,-0.103773914,0.07152429,678.5348,799.011,785.31134,695.8608,830.84247,-0.06683349609375,0.0513916015625,1.0228271484375,3.75335693359375,80.28594970703125,-30.84930419921875,1,1.0,1.0,1.0,1.0,10.00
2024-10-11 20:18:08.181,0.9226648,1.0066998,1.2020319,1.180848,0.7242026,0.5223586,0.7294454,1.1783756,1.4000418,0.0675782,0.86390704,1.0263373,0.88326967,0.55822223,-0.07305975,0.6878353,0.32794255,0.17015988,-0.103773914,0.07152429,675.7143,808.2784,782.49084,709.15753,745.0183,-0.06683349609375,0.0513916015625,1.0228271484375,3.75335693359375,80.28594970703125,-30.84930419921875,1,1.0,1.0,1.0,1.0,10.00
2024-10-11 20:18:08.182,0.9226648,1.0066998,1.2020319,1.180848,0.7242026,0.5223586,0.7294454,1.1783756,1.4000418,0.0675782,0.86390704,1.0263373,0.88326967,0.55822223,-0.07305975,0.6878353,0.32794255,0.17015988,-0.103773914,0.07152429,686.1905,801.02563,790.14655,715.6044,693.8461,-0.06683349609375,0.0513916015625,1.0228271484375,3.75335693359375,80.28594970703125,-30.84930419921875,1,1.0,1.0,1.0,1.0,10.00
2024-10-11 20:18:08.182,0.9226648,1.0066998,1.2020319,1.180848,0.7242026,0.5223586,0.7294454,1.1783756,1.4000418,0.0675782,0.86390704,1.0263373,0.88326967,0.55822223,-0.07305975,0.6878353,0.32794255,0.17015988,-0.103773914,0.07152429,694.2491,800.6227,790.54944,726.08057,840.5128,-0.06683349609375,0.0513916015625,1.0228271484375,3.75335693359375,80.28594970703125,-30.84930419921875,1,1.0,1.0,1.0,1.0,10.00
2024-10-11 20:18:08.183,0.9226648,1.0066998,1.2020319,1.180848,0.7242026,0.5223586,0.7294454,1.1783756,1.4000418,0.0675782,0.86390704,1.0263373,0.88326967,0.55822223,-0.07305975,0.6878353,0.32794255,0.17015988,-0.103773914,0.07152429,706.337,800.6227,782.0879,732.9304,900.14655,-0.06683349609375,0.0513916015625,1.0228271484375,3.75335693359375,80.28594970703125,-30.84930419921875,1,1.0,1.0,1.0,1.0,10.00
2024-10-11 20:18:08.184,0.9226648,1.0066998,1.2020319,1.180848,0.7242026,0.5223586,0.7294454,1.1783756,1.4000418,0.0675782,0.86390704,1.0263373,0.88326967,0.55822223,-0.07305975,0.6878353,0.32794255,0.17015988,-0.103773914,0.07152429,704.7253,771.2088,777.25275,718.8278,782.8938,-0.06683349609375,0.0513916015625,1.0228271484375,3.75335693359375,80.28594970703125,-30.84930419921875,1,1.0,1.0,1.0,1.0,10.00
2024-10-11 20:18:08.184,0.9226648,1.0066998,1.2020319,1.180848,0.7242026,0.5223586,0.7294454,1.1783756,1.4000418,0.0675782,0.86390704,1.0263373,0.88326967,0.55822223,-0.07305975,0.6878353,0.32794255,0.17015988,-0.103773914,0.07152429,707.9487,758.315,789.34064,707.1429,792.1612,-0.06683349609375,0.0513916015625,1.0228271484375,3.75335693359375,80.28594970703125,-30.84930419921875,1,1.0,1.0,1.0,1.0,10.00
2024-10-11 20:18:08.185,0.9226648,1.0066998,1.2020319,1.180848,0.7242026,0.5223586,0.7294454,1.1783756,1.4000418,0.0675782,0.86390704,1.0263373,0.88326967,0.55822223,-0.07305975,0.6878353,0.32794255,0.17015988,-0.103773914,0.07152429,715.6044,806.6667,793.36993,711.978,889.2674,-0.06683349609375,0.0513916015625,1.0228271484375,3.75335693359375,80.28594970703125,-30.84930419921875,1,1.0,1.0,1.0,1.0,10.00
2024-10-11 20:18:08.185,0.9226648,1.0066998,1.184745,1.180848,0.7242026,0.5223586,0.56668705,1.1783756,1.4000418,0.0675782,0.7633274,1.0263373,0.88326967,0.55822223,-0.1539255,0.6878353,0.32794255,0.17015988,-0.098429546,0.07152429,713.5897,828.022,788.5348,717.2161,925.5311,-0.06683349609375,0.0513916015625,1.0228271484375,3.75335693359375,80.28594970703125,-30.84930419921875,1,1.0,1.0,1.0,1.0,10.00
2024-10-11 20:18:08.190,0.9226648,1.0066998,1.184745,1.180848,0.7242026,0.5223586,0.56668705,1.1783756,1.4000418,0.0675782,0.7633274,1.0263373,0.88326967,0.55822223,-0.1539255,0.6878353,0.32794255,0.17015988,-0.098429546,0.07152429,718.8278,812.71063,787.72894,726.4835,761.9414,-0.06683349609375,0.0513916015625,1.0228271484375,3.75335693359375,80.28594970703125,-30.84930419921875,1,1.0,1.0,1.0,1.0,10.00
2024-10-11 20:18:08.190,0.9226648,1.0066998,1.184745,1.180848,0.7242026,0.5223586,0.56668705,1.1783756,1.4000418,0.0675782,0.7633274,1.0263373,0.88326967,0.55822223,-0.1539255,0.6878353,0.32794255,0.17015988,-0.098429546,0.07152429,731.31866,817.1429,792.96704,730.5128,545.9707,-0.06683349609375,0.0513916015625,1.0228271484375,3.75335693359375,80.28594970703125,-30.84930419921875,1,1.0,1.0,1.0,1.0,10.00
2024-10-11 20:18:08.191,0.9226648,1.0066998,1.184745,1.180848,0.7242026,0.5223586,0.56668705,1.1783756,1.4000418,0.0675782,0.7633274,1.0263373,0.88326967,0.55822223,-0.1539255,0.6878353,0.32794255,0.17015988,-0.098429546,0.07152429,741.39197,807.8755,790.9524,727.6923,919.89014,-0.06683349609375,0.0513916015625,1.0228271484375,3.75335693359375,80.28594970703125,-30.84930419921875,1,1.0,1.0,1.0,1.0,10.00
2024-10-11 20:18:08.191,0.9226648,1.0066998,1.184745,1.180848,0.7242026,0.5223586,0.56668705,1.1783756,1.4000418,0.0675782,0.7633274,1.0263373,0.88326967,0.55822223,-0.1539255,0.6878353,0.32794255,0.17015988,-0.098429546,0.07152429,757.9121,805.05493,785.31134,729.707,1129.011,-0.06683349609375,0.0513916015625,1.0228271484375,3.75335693359375,80.28594970703125,-30.84930419921875,1,1.0,1.0,1.0,1.0,10.00
2024-10-11 20:18:08.285,0.9226648,1.0066998,1.184745,1.180848,0.7242026,0.5223586,0.56668705,1.1783756,1.4000418,0.0675782,0.7633274,1.0263373,0.88326967,0.55822223,-0.1539255,0.6878353,0.32794255,0.17015988,-0.098429546,0.07152429,766.77655,820.3663,786.52014,732.52747,754.2857,-0.16156005859375,0.0469970703125,0.9998779296875,-2.67669677734375,70.56610107421875,-21.533203125,1,1.0,1.0,1.0,1.0,10.00
2024-10-11 20:18:08.286,0.9226648,1.0066998,1.184745,1.180848,0.7242026,0.5223586,0.56668705,1.1783756,1.4000418,0.0675782,0.7633274,1.0263373,0.88326967,0.55822223,-0.1539255,0.6878353,0.32794255,0.17015988,-0.098429546,0.07152429,747.4359,821.5751,787.72894,736.55676,740.989,-0.16156005859375,0.0469970703125,0.9998779296875,-2.67669677734375,70.56610107421875,-21.533203125,1,1.0,1.0,1.0,1.0,10.00
2024-10-11 20:18:08.286,0.9226648,1.0066998,1.184745,1.180848,0.7242026,0.5223586,0.56668705,1.1783756,1.4000418,0.0675782,0.7633274,1.0263373,0.88326967,0.55822223,-0.1539255,0.6878353,0.32794255,0.17015988,-0.098429546,0.07152429,733.3333,817.9487,791.75824,749.45056,811.50183,-0.16156005859375,0.0469970703125,0.9998779296875,-2.67669677734375,70.56610107421875,-21.533203125,1,1.0,1.0,1.0,1.0,10.00
2024-10-11 20:18:08.287,0.9226648,1.0066998,1.184745,1.180848,0.7242026,0.5223586,0.56668705,1.1783756,1.4000418,0.0675782,0.7633274,1.0263373,0.88326967,0.55822223,-0.1539255,0.6878353,0.32794255,0.17015988,-0.098429546,0.07152429,733.73627,811.0989,802.6374,762.74725,707.9487,-0.16156005859375,0.0469970703125,0.9998779296875,-2.67669677734375,70.56610107421875,-21.533203125,1,1.0,1.0,1.0,1.0,10.00
2024-10-11 20:18:08.287,0.9226648,1.0066998,1.184745,1.180848,0.7242026,0.5223586,0.56668705,1.1783756,1.4000418,0.0675782,0.7633274,1.0263373,0.88326967,0.55822223,-0.1539255,0.6878353,0.32794255,0.17015988,-0.098429546,0.07152429,743.8095,805.05493,809.4872,765.9707,676.1172,-0.16156005859375,0.0469970703125,0.9998779296875,-2.67669677734375,70.56610107421875,-21.533203125,1,1.0,1.0,1.0,1.0,10.00
2024-10-11 20:18:08.288,0.9226648,1.0066998,1.184745,1.180848,0.7242026,0.5223586,0.56668705,1.1783756,1.4000418,0.0675782,0.7633274,1.0263373,0.88326967,0.55822223,-0.1539255,0.6878353,0.32794255,0.17015988,-0.098429546,0.07152429,765.9707,793.7729,802.6374,768.7912,940.4396,-0.16156005859375,0.0469970703125,0.9998779296875,-2.67669677734375,70.56610107421875,-21.533203125,1,1.0,1.0,1.0,1.0,10.00
2024-10-11 20:18:08.289,0.9226648,1.0066998,1.184745,1.180848,0.7242026,0.5223586,0.56668705,1.1783756,1.4000418,0.0675782,0.7633274,1.0263373,0.88326967,0.55822223,-0.1539255,0.6878353,0.32794255,0.17015988,-0.098429546,0.07152429,789.7436,787.72894,792.1612,765.56775,984.7619,-0.16156005859375,0.0469970703125,0.9998779296875,-2.67669677734375,70.56610107421875,-21.533203125,1,1.0,1.0,1.0,1.0,10.00
2024-10-11 20:18:08.289,0.9226648,1.0066998,1.184745,1.180848,0.7242026,0.5223586,0.56668705,1.1783756,1.4000418,0.0675782,0.7633274,1.0263373,0.88326967,0.55822223,-0.1539255,0.6878353,0.32794255,0.17015988,-0.098429546,0.07152429,811.0989,796.99634,772.8205,760.7326,690.2198,-0.16156005859375,0.0469970703125,0.9998779296875,-2.67669677734375,70.56610107421875,-21.533203125,1,1.0,1.0,1.0,1.0,10.00
2024-10-11 20:18:08.290,0.9226648,1.0066998,1.184745,1.180848,0.7242026,0.5223586,0.56668705,1.1783756,1.4000418,0.0675782,0.7633274,1.0263373,0.88326967,0.55822223,-0.1539255,0.6878353,0.32794255,0.17015988,-0.098429546,0.07152429,820.7692,812.3077,774.43225,766.3736,548.3883,-0.16156005859375,0.0469970703125,0.9998779296875,-2.67669677734375,70.56610107421875,-21.533203125,1,1.0,1.0,1.0,1.0,10.00
2024-10-11 20:18:08.290,0.9226648,1.0066998,1.184745,1.180848,0.7242026,0.5223586,0.56668705,1.1783756,1.4000418,0.0675782,0.7633274,1.0263373,0.88326967,0.55822223,-0.1539255,0.6878353,0.32794255,0.17015988,-0.098429546,0.07152429,822.7839,804.2491,803.0403,777.6557,798.60803,-0.16156005859375,0.0469970703125,0.9998779296875,-2.67669677734375,70.56610107421875,-21.533203125,1,1.0,1.0,1.0,1.0,10.00
2024-10-11 20:18:08.291,0.9226648,1.0066998,1.184745,1.180848,0.7242026,0.5223586,0.56668705,1.1783756,1.4000418,0.0675782,0.7633274,1.0263373,0.88326967,0.55822223,-0.1539255,0.6878353,0.32794255,0.17015988,-0.098429546,0.07152429,773.6264,778.0586,826.0073,794.9817,965.82416,-0.16156005859375,0.0469970703125,0.9998779296875,-2.67669677734375,70.56610107421875,-21.533203125,1,1.0,1.0,1.0,1.0,10.00
2024-10-11 20:18:08.291,0.9226648,1.0066998,1.184745,1.180848,0.7242026,0.5223586,0.56668705,1.1783756,1.4000418,0.0675782,0.7633274,1.0263373,0.88326967,0.55822223,-0.1539255,0.6878353,0.32794255,0.17015988,-0.098429546,0.07152429,726.8865,799.41394,821.5751,797.8022,614.87177,-0.16156005859375,0.0469970703125,0.9998779296875,-2.67669677734375,70.56610107421875,-21.533203125,1,1.0,1.0,1.0,1.0,10.00
2024-10-11 20:18:08.315,0.9226648,1.0066998,1.184745,1.180848,0.7242026,0.5223586,0.56668705,1.1783756,1.4000418,0.0675782,0.7633274,1.0263373,0.88326967,0.55822223,-0.1539255,0.6878353,0.32794255,0.17015988,-0.098429546,0.07152429,741.79486,802.6374,801.4286,798.60803,648.315,-0.274169921875,0.02783203125,0.97882080078125,-7.304840087890625,58.655548095703125,-9.099273681640625,1,1.0,1.0,1.0,1.0,10.00
2024-10-11 20:18:08.316,0.9226648,1.0066998,1.184745,1.180848,0.7242026,0.5223586,0.56668705,1.1783756,1.4000418,0.0675782,0.7633274,1.0263373,0.88326967,0.55822223,-0.1539255,0.6878353,0.32794255,0.17015988,-0.098429546,0.07152429,755.89746,792.1612,809.0842,804.65204,756.30035,-0.274169921875,0.02783203125,0.97882080078125,-7.304840087890625,58.655548095703125,-9.099273681640625,1,1.0,1.0,1.0,1.0,10.00
2024-10-11 20:18:08.317,0.9226648,1.0066998,1.184745,1.180848,0.7242026,0.5223586,0.56668705,1.1783756,1.4000418,0.0675782,0.7633274,1.0263373,0.88326967,0.55822223,-0.1539255,0.6878353,0.32794255,0.17015988,-0.098429546,0.07152429,756.7033,828.022,820.7692,778.0586,696.26373,-0.274169921875,0.02783203125,0.97882080078125,-7.304840087890625,58.655548095703125,-9.099273681640625,1,1.0,1.0,1.0,1.0,10.00
2024-10-11 20:18:08.317,0.9226648,1.0066998,1.184745,1.180848,0.7242026,0.5223586,0.56668705,1.1783756,1.4000418,0.0675782,0.7633274,1.0263373,0.88326967,0.55822223,-0.1539255,0.6878353,0.32794255,0.17015988,-0.098429546,0.07152429,747.03296,817.9487,809.0842,759.5238,579.41394,-0.274169921875,0.02783203125,0.97882080078125,-7.304840087890625,58.655548095703125,-9.099273681640625,1,1.0,1.0,1.0,1.0,10.00
2024-10-11 20:18:08.318,0.9226648,1.0066998,1.184745,1.180848,0.7242026,0.5223586,0.56668705,1.1783756,1.4000418,0.0675782,0.7633274,1.0263373,0.88326967,0.55822223,-0.1539255,0.6878353,0.32794255,0.17015988,-0.098429546,0.07152429,772.01465,811.9048,790.54944,778.0586,619.304,-0.274169921875,0.02783203125,0.97882080078125,-7.304840087890625,58.655548095703125,-9.099273681640625,1,1.0,1.0,1.0,1.0,10.00
2024-10-11 20:18:08.319,0.9226648,1.0066998,1.184745,1.180848,0.7242026,0.5223586,0.56668705,1.1783756,1.4000418,0.0675782,0.7633274,1.0263373,0.88326967,0.55822223,-0.1539255,0.6878353,0.32794255,0.17015988,-0.098429546,0.07152429,797.8022,794.57874,807.0696,803.8461,793.36993,-0.274169921875,0.02783203125,0.97882080078125,-7.304840087890625,58.655548095703125,-9.099273681640625,1,1.0,1.0,1.0,1.0,10.00
2024-10-11 20:18:08.319,0.9226648,1.0066998,1.184745,1.180848,0.7242026,0.5223586,0.56668705,1.1783756,1.4000418,0.0675782,0.7633274,1.0263373,0.88326967,0.55822223,-0.1539255,0.6878353,0.32794255,0.17015988,-0.098429546,0.07152429,770.80585,836.08057,819.5604,798.60803,669.67035,-0.274169921875,0.02783203125,0.97882080078125,-7.304840087890625,58.655548095703125,-9.099273681640625,1,1.0,1.0,1.0,1.0,10.00
2024-10-11 20:18:08.320,0.9226648,1.0066998,1.184745,1.180848,0.7242026,0.5223586,0.56668705,1.1783756,1.4000418,0.0675782,0.7633274,1.0263373,0.88326967,0.55822223,-0.1539255,0.6878353,0.32794255,0.17015988,-0.098429546,0.07152429,740.58606,857.03296,810.696,785.7143,555.64105,-0.274169921875,0.02783203125,0.97882080078125,-7.304840087890625,58.655548095703125,-9.099273681640625,1,1.0,1.0,1.0,1.0,10.00
2024-10-11 20:18:08.320,0.9226648,1.0066998,1.184745,1.180848,0.7242026,0.5223586,0.56668705,1.1783756,1.4000418,0.0675782,0.7633274,1.0263373,0.88326967,0.55822223,-0.1539255,0.6878353,0.32794255,0.17015988,-0.098429546,0.07152429,734.5421,832.8571,808.68134,782.0879,635.42126,-0.274169921875,0.02783203125,0.97882080078125,-7.304840087890625,58.655548095703125,-9.099273681640625,1,1.0,1.0,1.0,1.0,10.00
2024-10-11 20:18:08,,,,,,,,,,,,,,,,,,,,,,,,,,,,,,,,,,,,,,/muse/elements/blink
2024-10-11 20:18:08.321,0.9226648,1.0066998,1.1615596,1.1484714,0.7242026,0.5223586,0.3764197,1.1586368,1.4000418,0.0675782,0.026003499,0.9330161,0.88326967,0.55822223,-0.2207985,0.6632943,0.32794255,0.17015988,-0.07117519,0.070170246,765.16486,825.6044,802.6374,791.3553,900.54944,-0.274169921875,0.02783203125,0.97882080078125,-7.304840087890625,58.655548095703125,-9.099273681640625,1,1.0,1.0,1.0,1.0,10.00
2024-10-11 20:18:08.325,0.9226648,1.0066998,1.1615596,1.1484714,0.7242026,0.5223586,0.3764197,1.1586368,1.4000418,0.0675782,0.026003499,0.9330161,0.88326967,0.55822223,-0.2207985,0.6632943,0.32794255,0.17015988,-0.07117519,0.070170246,784.10254,819.9634,798.20514,801.02563,845.34796,-0.274169921875,0.02783203125,0.97882080078125,-7.304840087890625,58.655548095703125,-9.099273681640625,1,1.0,1.0,1.0,1.0,10.00
2024-10-11 20:18:08.326,0.9226648,1.0066998,1.1615596,1.1484714,0.7242026,0.5223586,0.3764197,1.1586368,1.4000418,0.0675782,0.026003499,0.9330161,0.88326967,0.55822223,-0.2207985,0.6632943,0.32794255,0.17015988,-0.07117519,0.070170246,780.4762,818.7546,808.2784,797.3993,539.5238,-0.274169921875,0.02783203125,0.97882080078125,-7.304840087890625,58.655548095703125,-9.099273681640625,1,1.0,1.0,1.0,1.0,10.00
2024-10-11 20:18:08.382,0.9226648,1.0066998,1.1615596,1.1484714,0.7242026,0.5223586,0.3764197,1.1586368,1.4000418,0.0675782,0.026003499,0.9330161,0.88326967,0.55822223,-0.2207985,0.6632943,0.32794255,0.17015988,-0.07117519,0.070170246,795.38464,780.87915,814.7253,805.8608,570.54944,-0.32080078125,0.02410888671875,0.92388916015625,-5.90667724609375,49.93011474609375,-1.4654541015625,1,1.0,1.0,1.0,1.0,10.00
2024-10-11 20:18:08.383,0.9226648,1.0066998,1.1615596,1.1484714,0.7242026,0.5223586,0.3764197,1.1586368,1.4000418,0.0675782,0.026003499,0.9330161,0.88326967,0.55822223,-0.2207985,0.6632943,0.32794255,0.17015988,-0.07117519,0.070170246,803.8461,782.8938,806.26373,816.7399,846.9597,-0.32080078125,0.02410888671875,0.92388916015625,-5.90667724609375,49.93011474609375,-1.4654541015625,1,1.0,1.0,1.0,1.0,10.00
2024-10-11 20:18:08.383,0.9226648,1.0066998,1.1615596,1.1484714,0.7242026,0.5223586,0.3764197,1.1586368,1.4000418,0.0675782,0.026003499,0.9330161,0.88326967,0.55822223,-0.2207985,0.6632943,0.32794255,0.17015988,-0.07117519,0.070170246,799.81683,817.5458,787.72894,819.15753,815.5311,-0.32080078125,0.02410888671875,0.92388916015625,-5.90667724609375,49.93011474609375,-1.4654541015625,1,1.0,1.0,1.0,1.0,10.00
2024-10-11 20:18:08.384,0.9226648,1.0066998,1.1615596,1.1484714,0.7242026,0.5223586,0.3764197,1.1586368,1.4000418,0.0675782,0.026003499,0.9330161,0.88326967,0.55822223,-0.2207985,0.6632943,0.32794255,0.17015988,-0.07117519,0.070170246,814.3223,778.86444,786.1172,813.91943,669.2674,-0.32080078125,0.02410888671875,0.92388916015625,-5.90667724609375,49.93011474609375,-1.4654541015625,1,1.0,1.0,1.0,1.0,10.00
2024-10-11 20:18:08.385,0.9226648,1.0066998,1.1615596,1.1484714,0.7242026,0.5223586,0.3764197,1.1586368,1.4000418,0.0675782,0.026003499,0.9330161,0.88326967,0.55822223,-0.2207985,0.6632943,0.32794255,0.17015988,-0.07117519,0.070170246,809.4872,800.6227,800.6227,795.38464,749.0476,-0.32080078125,0.02410888671875,0.92388916015625,-5.90667724609375,49.93011474609375,-1.4654541015625,1,1.0,1.0,1.0,1.0,10.00
2024-10-11 20:18:08.385,0.9226648,1.0066998,1.1615596,1.1484714,0.7242026,0.5223586,0.3764197,1.1586368,1.4000418,0.0675782,0.026003499,0.9330161,0.88326967,0.55822223,-0.2207985,0.6632943,0.32794255,0.17015988,-0.07117519,0.070170246,803.44324,852.6007,805.05493,790.14655,994.83514,-0.32080078125,0.02410888671875,0.92388916015625,-5.90667724609375,49.93011474609375,-1.4654541015625,1,1.0,1.0,1.0,1.0,10.00
2024-10-11 20:18:08.386,0.9226648,1.0066998,1.1615596,1.1484714,0.7242026,0.5223586,0.3764197,1.1586368,1.4000418,0.0675782,0.026003499,0.9330161,0.88326967,0.55822223,-0.2207985,0.6632943,0.32794255,0.17015988,-0.07117519,0.070170246,795.38464,832.0513,819.9634,799.011,913.8461,-0.32080078125,0.02410888671875,0.92388916015625,-5.90667724609375,49.93011474609375,-1.4654541015625,1,1.0,1.0,1.0,1.0,10.00
2024-10-11 20:18:08.386,0.9226648,1.0066998,1.1615596,1.1484714,0.7242026,0.5223586,0.3764197,1.1586368,1.4000418,0.0675782,0.026003499,0.9330161,0.88326967,0.55822223,-0.2207985,0.6632943,0.32794255,0.17015988,-0.07117519,0.070170246,781.685,824.7985,812.71063,789.7436,632.1978,-0.32080078125,0.02410888671875,0.92388916015625,-5.90667724609375,49.93011474609375,-1.4654541015625,1,1.0,1.0,1.0,1.0,10.00
2024-10-11 20:18:08.387,0.9226648,1.0066998,1.1615596,1.1484714,0.7242026,0.5223586,0.3764197,1.1586368,1.4000418,0.0675782,0.026003499,0.9330161,0.88326967,0.55822223,-0.2207985,0.6632943,0.32794255,0.17015988,-0.07117519,0.070170246,814.7253,815.9341,803.0403,788.5348,660.80585,-0.32080078125,0.02410888671875,0.92388916015625,-5.90667724609375,49.93011474609375,-1.4654541015625,1,1.0,1.0,1.0,1.0,10.00
2024-10-11 20:18:08.387,0.9226648,1.0066998,1.1615596,1.1484714,0.7242026,0.5223586,0.3764197,1.1586368,1.4000418,0.0675782,0.026003499,0.9330161,0.88326967,0.55822223,-0.2207985,0.6632943,0.32794255,0.17015988,-0.07117519,0.070170246,857.03296,807.47253,814.3223,811.9048,1033.9194,-0.32080078125,0.02410888671875,0.92388916015625,-5.90667724609375,49.93011474609375,-1.4654541015625,1,1.0,1.0,1.0,1.0,10.00
2024-10-11 20:18:08.388,0.9226648,1.0066998,1.1615596,1.1484714,0.7242026,0.5223586,0.3764197,1.1586368,1.4000418,0.0675782,0.026003499,0.9330161,0.88326967,0.55822223,-0.2207985,0.6632943,0.32794255,0.17015988,-0.07117519,0.070170246,817.1429,824.7985,805.05493,811.50183,950.9158,-0.32080078125,0.02410888671875,0.92388916015625,-5.90667724609375,49.93011474609375,-1.4654541015625,1,1.0,1.0,1.0,1.0,10.00
2024-10-11 20:18:08.389,0.9226648,1.0066998,1.1615596,1.1484714,0.7242026,0.5223586,0.3764197,1.1586368,1.4000418,0.0675782,0.026003499,0.9330161,0.88326967,0.55822223,-0.2207985,0.6632943,0.32794255,0.17015988,-0.07117519,0.070170246,757.50916,796.5934,793.36993,818.3516,738.5714,-0.32080078125,0.02410888671875,0.92388916015625,-5.90667724609375,49.93011474609375,-1.4654541015625,1,1.0,1.0,1.0,1.0,10.00
2024-10-11 20:18:08.416,0.9226648,1.0066998,1.1615596,1.1484714,0.7242026,0.5223586,0.3764197,1.1586368,1.4000418,0.0675782,0.026003499,0.9330161,0.88326967,0.55822223,-0.2207985,0.6632943,0.32794255,0.17015988,-0.07117519,0.070170246,763.95605,781.685,785.7143,833.2601,787.72894,-0.384765625,0.02996826171875,0.90118408203125,-2.594451904296875,43.14117431640625,1.278533935546875,1,1.0,1.0,1.0,1.0,10.00
2024-10-11 20:18:08.417,0.9226648,1.0066998,1.1615596,1.1484714,0.7242026,0.5223586,0.3764197,1.1586368,1.4000418,0.0675782,0.026003499,0.9330161,0.88326967,0.55822223,-0.2207985,0.6632943,0.32794255,0.17015988,-0.07117519,0.070170246,765.56775,802.23444,796.99634,815.9341,656.77655,-0.384765625,0.02996826171875,0.90118408203125,-2.594451904296875,43.14117431640625,1.278533935546875,1,1.0,1.0,1.0,1.0,10.00
2024-10-11 20:18:08.418,0.9226648,1.0066998,1.1615596,1.1484714,0.7242026,0.5223586,0.3764197,1.1586368,1.4000418,0.0675782,0.026003499,0.9330161,0.88326967,0.55822223,-0.2207985,0.6632943,0.32794255,0.17015988,-0.07117519,0.070170246,770.80585,788.5348,817.5458,811.0989,576.1905,-0.384765625,0.02996826171875,0.90118408203125,-2.594451904296875,43.14117431640625,1.278533935546875,1,1.0,1.0,1.0,1.0,10.00
2024-10-11 20:18:08.419,0.9226648,1.0066998,1.1615596,1.1484714,0.7242026,0.5223586,0.3764197,1.1586368,1.4000418,0.0675782,0.026003499,0.9330161,0.88326967,0.55822223,-0.2207985,0.6632943,0.32794255,0.17015988,-0.07117519,0.070170246,782.0879,772.8205,807.8755,813.5165,586.6667,-0.384765625,0.02996826171875,0.90118408203125,-2.594451904296875,43.14117431640625,1.278533935546875,1,1.0,1.0,1.0,1.0,10.00
2024-10-11 20:18:08.419,0.9226648,1.0066998,1.1615596,1.1484714,0.7242026,0.5223586,0.3764197,1.1586368,1.4000418,0.0675782,0.026003499,0.9330161,0.88326967,0.55822223,-0.2207985,0.6632943,0.32794255,0.17015988,-0.07117519,0.070170246,778.86444,794.9817,812.3077,816.337,711.1722,-0.384765625,0.02996826171875,0.90118408203125,-2.594451904296875,43.14117431640625,1.278533935546875,1,1.0,1.0,1.0,1.0,10.00
2024-10-11 20:18:08.420,0.9226648,1.0066998,1.1615596,1.1484714,0.7242026,0.5223586,0.3764197,1.1586368,1.4000418,0.0675782,0.026003499,0.9330161,0.88326967,0.55822223,-0.2207985,0.6632943,0.32794255,0.17015988,-0.07117519,0.070170246,775.64105,820.3663,804.2491,812.71063,857.4359,-0.384765625,0.02996826171875,0.90118408203125,-2.594451904296875,43.14117431640625,1.278533935546875,1,1.0,1.0,1.0,1.0,10.00
2024-10-11 20:18:08.420,0.9226648,1.0066998,1.1615596,1.1484714,0.7242026,0.5223586,0.3764197,1.1586368,1.4000418,0.0675782,0.026003499,0.9330161,0.88326967,0.55822223,-0.2207985,0.6632943,0.32794255,0.17015988,-0.07117519,0.070170246,784.10254,833.663,782.0879,814.7253,825.2015,-0.384765625,0.02996826171875,0.90118408203125,-2.594451904296875,43.14117431640625,1.278533935546875,1,1.0,1.0,1.0,1.0,10.00
2024-10-11 20:18:08.421,0.9226648,1.0066998,1.1615596,1.1484714,0.7242026,0.5223586,0.3764197,1.1586368,1.4000418,0.0675782,0.026003499,0.9330161,0.88326967,0.55822223,-0.2207985,0.6632943,0.32794255,0.17015988,-0.07117519,0.070170246,806.26373,813.1135,788.1319,823.5897,698.68134,-0.384765625,0.02996826171875,0.90118408203125,-2.594451904296875,43.14117431640625,1.278533935546875,1,1.0,1.0,1.0,1.0,10.00
2024-10-11 20:18:08.421,0.9226648,1.0066998,1.1615596,1.1484714,0.7242026,0.5223586,0.3764197,1.1586368,1.4000418,0.0675782,0.026003499,0.9330161,0.88326967,0.55822223,-0.2207985,0.6632943,0.32794255,0.17015988,-0.07117519,0.070170246,801.8315,793.7729,813.1135,806.6667,773.22345,-0.384765625,0.02996826171875,0.90118408203125,-2.594451904296875,43.14117431640625,1.278533935546875,1,1.0,1.0,1.0,1.0,10.00
2024-10-11 20:18:08.422,0.9226648,1.0066998,1.1615596,1.1484714,0.7242026,0.5223586,0.3764197,1.1586368,1.4000418,0.0675782,0.026003499,0.9330161,0.88326967,0.55822223,-0.2207985,0.6632943,0.32794255,0.17015988,-0.07117519,0.070170246,776.4469,813.1135,808.68134,783.69965,707.1429,-0.384765625,0.02996826171875,0.90118408203125,-2.594451904296875,43.14117431640625,1.278533935546875,1,1.0,1.0,1.0,1.0,10.00
2024-10-11 20:18:08.423,0.9226648,1.0066998,1.1615596,1.1484714,0.7242026,0.5223586,0.3764197,1.1586368,1.4000418,0.0675782,0.026003499,0.9330161,0.88326967,0.55822223,-0.2207985,0.6632943,0.32794255,0.17015988,-0.07117519,0.070170246,767.98535,818.7546,811.9048,783.69965,450.87912,-0.384765625,0.02996826171875,0.90118408203125,-2.594451904296875,43.14117431640625,1.278533935546875,1,1.0,1.0,1.0,1.0,10.00
2024-10-11 20:18:08.423,0.9226648,1.0066998,1.1615596,1.1238443,0.7242026,0.5223586,0.3764197,1.14269,1.4000418,0.0675782,0.026003499,0.8155368,0.88326967,0.55822223,-0.2207985,0.6339641,0.32794255,0.17015988,-0.07117519,0.0810272,775.64105,826.4103,820.3663,792.5641,625.7509,-0.384765625,0.02996826171875,0.90118408203125,-2.594451904296875,43.14117431640625,1.278533935546875,1,1.0,1.0,1.0,1.0,10.00
2024-10-11 20:18:08.486,0.9226648,1.0066998,1.1615596,1.1238443,0.7242026,0.5223586,0.3764197,1.14269,1.4000418,0.0675782,0.026003499,0.8155368,0.88326967,0.55822223,-0.2207985,0.6339641,0.32794255,0.17015988,-0.07117519,0.0810272,788.93774,824.3956,803.8461,790.14655,766.3736,-0.384765625,0.02996826171875,0.90118408203125,-2.594451904296875,43.14117431640625,1.278533935546875,1,1.0,1.0,1.0,1.0,10.00
2024-10-11 20:18:08.487,0.9226648,1.0066998,1.1615596,1.1238443,0.7242026,0.5223586,0.3764197,1.14269,1.4000418,0.0675782,0.026003499,0.8155368,0.88326967,0.55822223,-0.2207985,0.6339641,0.32794255,0.17015988,-0.07117519,0.0810272,801.8315,807.47253,794.57874,791.3553,581.4286,-0.384765625,0.02996826171875,0.90118408203125,-2.594451904296875,43.14117431640625,1.278533935546875,1,1.0,1.0,1.0,1.0,10.00
2024-10-11 20:18:08.488,0.9226648,1.0066998,1.1615596,1.1238443,0.7242026,0.5223586,0.3764197,1.14269,1.4000418,0.0675782,0.026003499,0.8155368,0.88326967,0.55822223,-0.2207985,0.6339641,0.32794255,0.17015988,-0.07117519,0.0810272,807.0696,815.12823,808.2784,799.011,627.76556,-0.384765625,0.02996826171875,0.90118408203125,-2.594451904296875,43.14117431640625,1.278533935546875,1,1.0,1.0,1.0,1.0,10.00
2024-10-11 20:18:08.489,0.9226648,1.0066998,1.1615596,1.1238443,0.7242026,0.5223586,0.3764197,1.14269,1.4000418,0.0675782,0.026003499,0.8155368,0.88326967,0.55822223,-0.2207985,0.6339641,0.32794255,0.17015988,-0.07117519,0.0810272,803.8461,814.3223,825.2015,797.8022,863.0769,-0.384765625,0.02996826171875,0.90118408203125,-2.594451904296875,43.14117431640625,1.278533935546875,1,1.0,1.0,1.0,1.0,10.00
2024-10-11 20:18:08.489,0.9226648,1.0066998,1.1615596,1.1238443,0.7242026,0.5223586,0.3764197,1.14269,1.4000418,0.0675782,0.026003499,0.8155368,0.88326967,0.55822223,-0.2207985,0.6339641,0.32794255,0.17015988,-0.07117519,0.0810272,811.0989,813.5165,828.022,801.8315,815.5311,-0.384765625,0.02996826171875,0.90118408203125,-2.594451904296875,43.14117431640625,1.278533935546875,1,1.0,1.0,1.0,1.0,10.00
2024-10-11 20:18:08.490,0.9226648,1.0066998,1.1615596,1.1238443,0.7242026,0.5223586,0.3764197,1.14269,1.4000418,0.0675782,0.026003499,0.8155368,0.88326967,0.55822223,-0.2207985,0.6339641,0.32794255,0.17015988,-0.07117519,0.0810272,832.4542,819.15753,827.2161,801.02563,681.3553,-0.384765625,0.02996826171875,0.90118408203125,-2.594451904296875,43.14117431640625,1.278533935546875,1,1.0,1.0,1.0,1.0,10.00
2024-10-11 20:18:08.491,0.9226648,1.0066998,1.1615596,1.1238443,0.7242026,0.5223586,0.3764197,1.14269,1.4000418,0.0675782,0.026003499,0.8155368,0.88326967,0.55822223,-0.2207985,0.6339641,0.32794255,0.17015988,-0.07117519,0.0810272,835.2747,819.5604,819.9634,800.2198,743.4066,-0.384765625,0.02996826171875,0.90118408203125,-2.594451904296875,43.14117431640625,1.278533935546875,1,1.0,1.0,1.0,1.0,10.00
2024-10-11 20:18:08.491,0.9226648,1.0066998,1.1615596,1.1238443,0.7242026,0.5223586,0.3764197,1.14269,1.4000418,0.0675782,0.026003499,0.8155368,0.88326967,0.55822223,-0.2207985,0.6339641,0.32794255,0.17015988,-0.07117519,0.0810272,822.381,808.68134,827.2161,808.2784,924.7253,-0.384765625,0.02996826171875,0.90118408203125,-2.594451904296875,43.14117431640625,1.278533935546875,1,1.0,1.0,1.0,1.0,10.00
2024-10-11 20:18:08.492,0.9226648,1.0066998,1.1615596,1.1238443,0.7242026,0.5223586,0.3764197,1.14269,1.4000418,0.0675782,0.026003499,0.8155368,0.88326967,0.55822223,-0.2207985,0.6339641,0.32794255,0.17015988,-0.07117519,0.0810272,811.9048,821.978,834.0659,815.5311,875.56775,-0.384765625,0.02996826171875,0.90118408203125,-2.594451904296875,43.14117431640625,1.278533935546875,1,1.0,1.0,1.0,1.0,10.00
2024-10-11 20:18:08.493,0.9226648,1.0066998,1.1615596,1.1238443,0.7242026,0.5223586,0.3764197,1.14269,1.4000418,0.0675782,0.026003499,0.8155368,0.88326967,0.55822223,-0.2207985,0.6339641,0.32794255,0.17015988,-0.07117519,0.0810272,802.6374,831.6484,798.20514,817.1429,604.3956,-0.384765625,0.02996826171875,0.90118408203125,-2.594451904296875,43.14117431640625,1.278533935546875,1,1.0,1.0,1.0,1.0,10.00
2024-10-11 20:18:08.493,0.9226648,1.0066998,1.1615596,1.1238443,0.7242026,0.5223586,0.3764197,1.14269,1.4000418,0.0675782,0.026003499,0.8155368,0.88326967,0.55822223,-0.2207985,0.6339641,0.32794255,0.17015988,-0.07117519,0.0810272,810.696,811.50183,790.14655,812.3077,500.03662,-0.384765625,0.02996826171875,0.90118408203125,-2.594451904296875,43.14117431640625,1.278533935546875,1,1.0,1.0,1.0,1.0,10.00
2024-10-11 20:18:08.494,0.9226648,1.0066998,1.1615596,1.1238443,0.7242026,0.5223586,0.3764197,1.14269,1.4000418,0.0675782,0.026003499,0.8155368,0.88326967,0.55822223,-0.2207985,0.6339641,0.32794255,0.17015988,-0.07117519,0.0810272,829.6337,793.36993,840.10986,812.71063,793.36993,-0.384765625,0.02996826171875,0.90118408203125,-2.594451904296875,43.14117431640625,1.278533935546875,1,1.0,1.0,1.0,1.0,10.00
2024-10-11 20:18:08.557,0.9226648,1.0066998,1.1615596,1.1238443,0.7242026,0.5223586,0.3764197,1.14269,1.4000418,0.0675782,0.026003499,0.8155368,0.88326967,0.55822223,-0.2207985,0.6339641,0.32794255,0.17015988,-0.07117519,0.0810272,817.1429,804.2491,837.6923,826.0073,993.22345,-0.4349365234375,0.03021240234375,0.9024658203125,0.059814453125,35.955963134765625,3.2000732421875,1,1.0,1.0,1.0,1.0,10.00
2024-10-11 20:18:08.558,0.9226648,1.0066998,1.1615596,1.1238443,0.7242026,0.5223586,0.3764197,1.14269,1.4000418,0.0675782,0.026003499,0.8155368,0.88326967,0.55822223,-0.2207985,0.6339641,0.32794255,0.17015988,-0.07117519,0.0810272,785.7143,828.022,815.12823,825.6044,668.86444,-0.4349365234375,0.03021240234375,0.9024658203125,0.059814453125,35.955963134765625,3.2000732421875,1,1.0,1.0,1.0,1.0,10.00
2024-10-11 20:18:08.558,0.9226648,1.0066998,1.1615596,1.1238443,0.7242026,0.5223586,0.3764197,1.14269,1.4000418,0.0675782,0.026003499,0.8155368,0.88326967,0.55822223,-0.2207985,0.6339641,0.32794255,0.17015988,-0.07117519,0.0810272,761.9414,849.7802,819.5604,815.5311,451.68497,-0.4349365234375,0.03021240234375,0.9024658203125,0.059814453125,35.955963134765625,3.2000732421875,1,1.0,1.0,1.0,1.0,10.00
2024-10-11 20:18:08.559,0.9226648,1.0066998,1.1615596,1.1238443,0.7242026,0.5223586,0.3764197,1.14269,1.4000418,0.0675782,0.026003499,0.8155368,0.88326967,0.55822223,-0.2207985,0.6339641,0.32794255,0.17015988,-0.07117519,0.0810272,752.27106,815.9341,835.6777,813.91943,695.4579,-0.4349365234375,0.03021240234375,0.9024658203125,0.059814453125,35.955963134765625,3.2000732421875,1,1.0,1.0,1.0,1.0,10.00
2024-10-11 20:18:08.559,0.9226648,1.0066998,1.1615596,1.1238443,0.7242026,0.5223586,0.3764197,1.14269,1.4000418,0.0675782,0.026003499,0.8155368,0.88326967,0.55822223,-0.2207985,0.6339641,0.32794255,0.17015988,-0.07117519,0.0810272,764.7619,803.8461,838.0952,810.293,923.91943,-0.4349365234375,0.03021240234375,0.9024658203125,0.059814453125,35.955963134765625,3.2000732421875,1,1.0,1.0,1.0,1.0,10.00
