TimeStamp,Delta_TP9,Delta_AF7,Delta_AF8,Delta_TP10,Theta_TP9,Theta_AF7,Theta_AF8,Theta_TP10,Alpha_TP9,Alpha_AF7,Alpha_AF8,Alpha_TP10,Beta_TP9,Beta_AF7,Beta_AF8,Beta_TP10,Gamma_TP9,Gamma_AF7,Gamma_AF8,Gamma_TP10,RAW_TP9,RAW_AF7,RAW_AF8,RAW_TP10,AUX_RIGHT,Accelerometer_X,Accelerometer_Y,Accelerometer_Z,Gyro_X,Gyro_Y,Gyro_Z,HeadBandOn,HSI_TP9,HSI_AF7,HSI_AF8,HSI_TP10,Battery,Elements
2024-10-11 20:27:54.136,0.050260738,0.62273276,0.5981701,0.42372373,0.37115934,0.34714583,0.15050393,0.4564572,0.72756547,0.26896563,0.23300734,0.34145138,0.32341808,-0.14495802,0.13842508,0.36909866,-0.49505174,-0.5482586,-0.3072422,-0.50230336,796.1905,800.2198,796.1905,798.60803,657.1795,0.1756591796875,0.06207275390625,0.986328125,1.158905029296875,-11.162872314453125,-2.115936279296875,1,1.0,1.0,1.0,1.0,10.00
2024-10-11 20:27:54.137,0.050260738,0.62273276,0.5981701,0.42372373,0.37115934,0.34714583,0.15050393,0.4564572,0.72756547,0.26896563,0.23300734,0.34145138,0.32341808,-0.14495802,0.13842508,0.36909866,-0.49505174,-0.5482586,-0.3072422,-0.50230336,803.0403,794.57874,798.60803,798.20514,684.9817,0.1756591796875,0.06207275390625,0.986328125,1.158905029296875,-11.162872314453125,-2.115936279296875,1,1.0,1.0,1.0,1.0,10.00
2024-10-11 20:27:54.138,0.050260738,0.62273276,0.5981701,0.42372373,0.37115934,0.34714583,0.15050393,0.4564572,0.72756547,0.26896563,0.23300734,0.34145138,0.32341808,-0.14495802,0.13842508,0.36909866,-0.49505174,-0.5482586,-0.3072422,-0.50230336,806.6667,793.7729,793.7729,795.78754,635.42126,0.1756591796875,0.06207275390625,0.986328125,1.158905029296875,-11.162872314453125,-2.115936279296875,1,1.0,1.0,1.0,1.0,10.00
2024-10-11 20:27:54.138,0.050260738,0.62273276,0.5981701,0.42372373,0.37115934,0.34714583,0.15050393,0.4564572,0.72756547,0.26896563,0.23300734,0.34145138,0.32341808,-0.14495802,0.13842508,0.36909866,-0.49505174,-0.5482586,-0.3072422,-0.50230336,805.05493,796.99634,792.96704,798.20514,622.9304,0.1756591796875,0.06207275390625,0.986328125,1.158905029296875,-11.162872314453125,-2.115936279296875,1,1.0,1.0,1.0,1.0,10.00
2024-10-11 20:27:54.139,0.050260738,0.62273276,0.5981701,0.42372373,0.37115934,0.34714583,0.15050393,0.4564572,0.72756547,0.26896563,0.23300734,0.34145138,0.32341808,-0.14495802,0.13842508,0.36909866,-0.49505174,-0.5482586,-0.3072422,-0.50230336,802.6374,798.20514,795.38464,802.23444,685.38464,0.1756591796875,0.06207275390625,0.986328125,1.158905029296875,-11.162872314453125,-2.115936279296875,1,1.0,1.0,1.0,1.0,10.00
2024-10-11 20:27:54.139,0.050260738,0.62273276,0.5981701,0.42372373,0.37115934,0.34714583,0.15050393,0.4564572,0.72756547,0.26896563,0.23300734,0.34145138,0.32341808,-0.14495802,0.13842508,0.36909866,-0.49505174,-0.5482586,-0.3072422,-0.50230336,800.2198,801.8315,795.78754,807.0696,790.9524,0.1756591796875,0.06207275390625,0.986328125,1.158905029296875,-11.162872314453125,-2.115936279296875,1,1.0,1.0,1.0,1.0,10.00
2024-10-11 20:27:54.140,0.050260738,0.62273276,0.5981701,0.42372373,0.37115934,0.34714583,0.15050393,0.4564572,0.72756547,0.26896563,0.23300734,0.34145138,0.32341808,-0.14495802,0.13842508,0.36909866,-0.49505174,-0.5482586,-0.3072422,-0.50230336,800.6227,802.23444,801.8315,808.2784,682.5641,0.1756591796875,0.06207275390625,0.986328125,1.158905029296875,-11.162872314453125,-2.115936279296875,1,1.0,1.0,1.0,1.0,10.00
2024-10-11 20:27:54.140,0.050260738,0.62273276,0.5981701,0.42372373,0.37115934,0.34714583,0.15050393,0.4564572,0.72756547,0.26896563,0.23300734,0.34145138,0.32341808,-0.14495802,0.13842508,0.36909866,-0.49505174,-0.5482586,-0.3072422,-0.50230336,803.44324,796.5934,798.20514,802.23444,724.87177,0.1756591796875,0.06207275390625,0.986328125,1.158905029296875,-11.162872314453125,-2.115936279296875,1,1.0,1.0,1.0,1.0,10.00
2024-10-11 20:27:54.141,0.050260738,0.62273276,0.5981701,0.42372373,0.37115934,0.34714583,0.15050393,0.4564572,0.72756547,0.26896563,0.23300734,0.34145138,0.32341808,-0.14495802,0.13842508,0.36909866,-0.49505174,-0.5482586,-0.3072422,-0.50230336,806.26373,796.5934,797.3993,807.0696,916.6667,0.1756591796875,0.06207275390625,0.986328125,1.158905029296875,-11.162872314453125,-2.115936279296875,1,1.0,1.0,1.0,1.0,10.00
2024-10-11 20:27:54.141,0.050260738,0.62273276,0.5981701,0.42372373,0.37115934,0.34714583,0.15050393,0.4564572,0.72756547,0.26896563,0.23300734,0.34145138,0.32341808,-0.14495802,0.13842508,0.36909866,-0.49505174,-0.5482586,-0.3072422,-0.50230336,807.0696,799.41394,802.23444,814.7253,807.8755,0.1756591796875,0.06207275390625,0.986328125,1.158905029296875,-11.162872314453125,-2.115936279296875,1,1.0,1.0,1.0,1.0,10.00
2024-10-11 20:27:54.142,0.050260738,0.62273276,0.5981701,0.42372373,0.37115934,0.34714583,0.15050393,0.4564572,0.72756547,0.26896563,0.23300734,0.34145138,0.32341808,-0.14495802,0.13842508,0.36909866,-0.49505174,-0.5482586,-0.3072422,-0.50230336,805.05493,799.41394,803.8461,811.50183,590.696,0.1756591796875,0.06207275390625,0.986328125,1.158905029296875,-11.162872314453125,-2.115936279296875,1,1.0,1.0,1.0,1.0,10.00
2024-10-11 20:27:54.142,0.050260738,0.7775671,0.8524233,0.42372373,0.37115934,0.47060913,0.43886793,0.4564572,0.72756547,0.4099548,0.32327843,0.34145138,0.32341808,-0.113337904,0.13208368,0.36909866,-0.49505174,-0.548774,-0.29724663,-0.50230336,809.4872,799.41394,804.65204,809.4872,554.83514,0.1756591796875,0.06207275390625,0.986328125,1.158905029296875,-11.162872314453125,-2.115936279296875,1,1.0,1.0,1.0,1.0,10.00
2024-10-11 20:27:54.204,0.050260738,0.7775671,0.8524233,0.42372373,0.37115934,0.47060913,0.43886793,0.4564572,0.72756547,0.4099548,0.32327843,0.34145138,0.32341808,-0.113337904,0.13208368,0.36909866,-0.49505174,-0.548774,-0.29724663,-0.50230336,814.7253,797.3993,797.8022,812.71063,821.978,0.1810302734375,0.06182861328125,0.99176025390625,1.734619140625,-9.712371826171875,-2.34771728515625,1,1.0,1.0,1.0,1.0,10.00
2024-10-11 20:27:54.205,0.050260738,0.7775671,0.8524233,0.42372373,0.37115934,0.47060913,0.43886793,0.4564572,0.72756547,0.4099548,0.32327843,0.34145138,0.32341808,-0.113337904,0.13208368,0.36909866,-0.49505174,-0.548774,-0.29724663,-0.50230336,811.50183,799.011,803.44324,813.91943,838.49817,0.1810302734375,0.06182861328125,0.99176025390625,1.734619140625,-9.712371826171875,-2.34771728515625,1,1.0,1.0,1.0,1.0,10.00
2024-10-11 20:27:54.205,0.050260738,0.7775671,0.8524233,0.42372373,0.37115934,0.47060913,0.43886793,0.4564572,0.72756547,0.4099548,0.32327843,0.34145138,0.32341808,-0.113337904,0.13208368,0.36909866,-0.49505174,-0.548774,-0.29724663,-0.50230336,807.0696,795.78754,811.0989,811.50183,633.00366,0.1810302734375,0.06182861328125,0.99176025390625,1.734619140625,-9.712371826171875,-2.34771728515625,1,1.0,1.0,1.0,1.0,10.00
2024-10-11 20:27:54.206,0.050260738,0.7775671,0.8524233,0.42372373,0.37115934,0.47060913,0.43886793,0.4564572,0.72756547,0.4099548,0.32327843,0.34145138,0.32341808,-0.113337904,0.13208368,0.36909866,-0.49505174,-0.548774,-0.29724663,-0.50230336,807.8755,794.17584,809.4872,811.0989,674.10254,0.1810302734375,0.06182861328125,0.99176025390625,1.734619140625,-9.712371826171875,-2.34771728515625,1,1.0,1.0,1.0,1.0,10.00
2024-10-11 20:27:54.206,0.050260738,0.7775671,0.8524233,0.42372373,0.37115934,0.47060913,0.43886793,0.4564572,0.72756547,0.4099548,0.32327843,0.34145138,0.32341808,-0.113337904,0.13208368,0.36909866,-0.49505174,-0.548774,-0.29724663,-0.50230336,801.8315,794.57874,810.696,809.4872,877.98535,0.1810302734375,0.06182861328125,0.99176025390625,1.734619140625,-9.712371826171875,-2.34771728515625,1,1.0,1.0,1.0,1.0,10.00
2024-10-11 20:27:54.207,0.050260738,0.7775671,0.8524233,0.42372373,0.37115934,0.47060913,0.43886793,0.4564572,0.72756547,0.4099548,0.32327843,0.34145138,0.32341808,-0.113337904,0.13208368,0.36909866,-0.49505174,-0.548774,-0.29724663,-0.50230336,800.6227,794.57874,814.3223,810.696,950.10986,0.1810302734375,0.06182861328125,0.99176025390625,1.734619140625,-9.712371826171875,-2.34771728515625,1,1.0,1.0,1.0,1.0,10.00
2024-10-11 20:27:54.208,0.050260738,0.7775671,0.8524233,0.42372373,0.37115934,0.47060913,0.43886793,0.4564572,0.72756547,0.4099548,0.32327843,0.34145138,0.32341808,-0.113337904,0.13208368,0.36909866,-0.49505174,-0.548774,-0.29724663,-0.50230336,804.65204,801.02563,818.3516,815.9341,939.2308,0.1810302734375,0.06182861328125,0.99176025390625,1.734619140625,-9.712371826171875,-2.34771728515625,1,1.0,1.0,1.0,1.0,10.00
2024-10-11 20:27:54.208,0.050260738,0.7775671,0.8524233,0.42372373,0.37115934,0.47060913,0.43886793,0.4564572,0.72756547,0.4099548,0.32327843,0.34145138,0.32341808,-0.113337904,0.13208368,0.36909866,-0.49505174,-0.548774,-0.29724663,-0.50230336,793.7729,799.011,817.1429,807.8755,860.65936,0.1810302734375,0.06182861328125,0.99176025390625,1.734619140625,-9.712371826171875,-2.34771728515625,1,1.0,1.0,1.0,1.0,10.00
2024-10-11 20:27:54.209,0.050260738,0.7775671,0.8524233,0.42372373,0.37115934,0.47060913,0.43886793,0.4564572,0.72756547,0.4099548,0.32327843,0.34145138,0.32341808,-0.113337904,0.13208368,0.36909866,-0.49505174,-0.548774,-0.29724663,-0.50230336,789.34064,797.3993,817.1429,803.8461,722.4542,0.1810302734375,0.06182861328125,0.99176025390625,1.734619140625,-9.712371826171875,-2.34771728515625,1,1.0,1.0,1.0,1.0,10.00
2024-10-11 20:27:54.209,0.050260738,0.7775671,0.8524233,0.42372373,0.37115934,0.47060913,0.43886793,0.4564572,0.72756547,0.4099548,0.32327843,0.34145138,0.32341808,-0.113337904,0.13208368,0.36909866,-0.49505174,-0.548774,-0.29724663,-0.50230336,800.2198,791.75824,817.1429,812.3077,725.6777,0.1810302734375,0.06182861328125,0.99176025390625,1.734619140625,-9.712371826171875,-2.34771728515625,1,1.0,1.0,1.0,1.0,10.00
2024-10-11 20:27:54.210,0.050260738,0.7775671,0.8524233,0.42372373,0.37115934,0.47060913,0.43886793,0.4564572,0.72756547,0.4099548,0.32327843,0.34145138,0.32341808,-0.113337904,0.13208368,0.36909866,-0.49505174,-0.548774,-0.29724663,-0.50230336,805.8608,786.9231,811.0989,812.3077,833.2601,0.1810302734375,0.06182861328125,0.99176025390625,1.734619140625,-9.712371826171875,-2.34771728515625,1,1.0,1.0,1.0,1.0,10.00
2024-10-11 20:27:54.210,0.050260738,0.7775671,0.8524233,0.42372373,0.37115934,0.47060913,0.43886793,0.4564572,0.72756547,0.4099548,0.32327843,0.34145138,0.32341808,-0.113337904,0.13208368,0.36909866,-0.49505174,-0.548774,-0.29724663,-0.50230336,799.011,791.75824,810.293,805.05493,852.1978,0.1810302734375,0.06182861328125,0.99176025390625,1.734619140625,-9.712371826171875,-2.34771728515625,1,1.0,1.0,1.0,1.0,10.00
2024-10-11 20:27:54.282,0.050260738,0.7775671,0.8524233,0.42372373,0.37115934,0.47060913,0.43886793,0.4564572,0.72756547,0.4099548,0.32327843,0.34145138,0.32341808,-0.113337904,0.13208368,0.36909866,-0.49505174,-0.548774,-0.29724663,-0.50230336,789.34064,790.9524,807.0696,796.99634,877.98535,0.19012451171875,0.0684814453125,0.983154296875,1.876678466796875,-8.92730712890625,-2.093505859375,1,1.0,1.0,1.0,1.0,10.00
2024-10-11 20:27:54.283,0.050260738,0.7775671,0.8524233,0.42372373,0.37115934,0.47060913,0.43886793,0.4564572,0.72756547,0.4099548,0.32327843,0.34145138,0.32341808,-0.113337904,0.13208368,0.36909866,-0.49505174,-0.548774,-0.29724663,-0.50230336,792.1612,797.3993,799.011,791.3553,733.73627,0.19012451171875,0.0684814453125,0.983154296875,1.876678466796875,-8.92730712890625,-2.093505859375,1,1.0,1.0,1.0,1.0,10.00
2024-10-11 20:27:54.284,0.050260738,0.7775671,0.8524233,0.42372373,0.37115934,0.47060913,0.43886793,0.4564572,0.72756547,0.4099548,0.32327843,0.34145138,0.32341808,-0.113337904,0.13208368,0.36909866,-0.49505174,-0.548774,-0.29724663,-0.50230336,802.23444,799.81683,793.7729,795.78754,732.52747,0.19012451171875,0.0684814453125,0.983154296875,1.876678466796875,-8.92730712890625,-2.093505859375,1,1.0,1.0,1.0,1.0,10.00
2024-10-11 20:27:54.284,0.050260738,0.7775671,0.8524233,0.42372373,0.37115934,0.47060913,0.43886793,0.4564572,0.72756547,0.4099548,0.32327843,0.34145138,0.32341808,-0.113337904,0.13208368,0.36909866,-0.49505174,-0.548774,-0.29724663,-0.50230336,798.60803,779.2674,800.6227,794.9817,799.011,0.19012451171875,0.0684814453125,0.983154296875,1.876678466796875,-8.92730712890625,-2.093505859375,1,1.0,1.0,1.0,1.0,10.00
2024-10-11 20:27:54.285,0.050260738,0.7775671,0.8524233,0.42372373,0.37115934,0.47060913,0.43886793,0.4564572,0.72756547,0.4099548,0.32327843,0.34145138,0.32341808,-0.113337904,0.13208368,0.36909866,-0.49505174,-0.548774,-0.29724663,-0.50230336,788.1319,780.87915,799.81683,787.72894,697.47253,0.19012451171875,0.0684814453125,0.983154296875,1.876678466796875,-8.92730712890625,-2.093505859375,1,1.0,1.0,1.0,1.0,10.00
2024-10-11 20:27:54.285,0.050260738,0.7775671,0.8524233,0.42372373,0.37115934,0.47060913,0.43886793,0.4564572,0.72756547,0.4099548,0.32327843,0.34145138,0.32341808,-0.113337904,0.13208368,0.36909866,-0.49505174,-0.548774,-0.29724663,-0.50230336,791.3553,801.4286,792.5641,784.90845,700.293,0.19012451171875,0.0684814453125,0.983154296875,1.876678466796875,-8.92730712890625,-2.093505859375,1,1.0,1.0,1.0,1.0,10.00
2024-10-11 20:27:54.286,0.050260738,0.7775671,0.8524233,0.42372373,0.37115934,0.47060913,0.43886793,0.4564572,0.72756547,0.4099548,0.32327843,0.34145138,0.32341808,-0.113337904,0.13208368,0.36909866,-0.49505174,-0.548774,-0.29724663,-0.50230336,798.20514,803.0403,790.14655,788.93774,973.47986,0.19012451171875,0.0684814453125,0.983154296875,1.876678466796875,-8.92730712890625,-2.093505859375,1,1.0,1.0,1.0,1.0,10.00
2024-10-11 20:27:54.286,0.050260738,0.7775671,0.8524233,0.42372373,0.37115934,0.47060913,0.43886793,0.4564572,0.72756547,0.4099548,0.32327843,0.34145138,0.32341808,-0.113337904,0.13208368,0.36909866,-0.49505174,-0.548774,-0.29724663,-0.50230336,788.5348,796.5934,788.5348,782.49084,1064.1392,0.19012451171875,0.0684814453125,0.983154296875,1.876678466796875,-8.92730712890625,-2.093505859375,1,1.0,1.0,1.0,1.0,10.00
2024-10-11 20:27:54.286,0.050260738,0.7775671,0.8524233,0.42372373,0.37115934,0.47060913,0.43886793,0.4564572,0.72756547,0.4099548,0.32327843,0.34145138,0.32341808,-0.113337904,0.13208368,0.36909866,-0.49505174,-0.548774,-0.29724663,-0.50230336,778.46155,795.38464,790.14655,777.6557,877.1795,0.19012451171875,0.0684814453125,0.983154296875,1.876678466796875,-8.92730712890625,-2.093505859375,1,1.0,1.0,1.0,1.0,10.00
2024-10-11 20:27:54.287,0.050260738,0.7775671,0.8524233,0.42372373,0.37115934,0.47060913,0.43886793,0.4564572,0.72756547,0.4099548,0.32327843,0.34145138,0.32341808,-0.113337904,0.13208368,0.36909866,-0.49505174,-0.548774,-0.29724663,-0.50230336,784.90845,795.38464,792.1612,784.90845,662.4176,0.19012451171875,0.0684814453125,0.983154296875,1.876678466796875,-8.92730712890625,-2.093505859375,1,1.0,1.0,1.0,1.0,10.00
2024-10-11 20:27:54.288,0.050260738,0.7775671,0.8524233,0.42372373,0.37115934,0.47060913,0.43886793,0.4564572,0.72756547,0.4099548,0.32327843,0.34145138,0.32341808,-0.113337904,0.13208368,0.36909866,-0.49505174,-0.548774,-0.29724663,-0.50230336,788.5348,792.5641,790.54944,790.54944,650.32965,0.19012451171875,0.0684814453125,0.983154296875,1.876678466796875,-8.92730712890625,-2.093505859375,1,1.0,1.0,1.0,1.0,10.00
2024-10-11 20:27:54.288,0.050260738,0.7775671,0.8524233,0.42372373,0.37115934,0.47060913,0.43886793,0.4564572,0.72756547,0.4099548,0.32327843,0.34145138,0.32341808,-0.113337904,0.13208368,0.36909866,-0.49505174,-0.548774,-0.29724663,-0.50230336,795.78754,790.54944,788.1319,799.011,861.4652,0.19012451171875,0.0684814453125,0.983154296875,1.876678466796875,-8.92730712890625,-2.093505859375,1,1.0,1.0,1.0,1.0,10.00
2024-10-11 20:27:54.289,0.050260738,0.7775671,0.8524233,0.42372373,0.37115934,0.47060913,0.43886793,0.4564572,0.72756547,0.4099548,0.32327843,0.34145138,0.32341808,-0.113337904,0.13208368,0.36909866,-0.49505174,-0.548774,-0.29724663,-0.50230336,799.81683,793.36993,792.5641,803.8461,844.1392,0.1990966796875,0.06805419921875,0.98712158203125,1.30096435546875,-7.8955078125,-1.8243408203125,1,1.0,1.0,1.0,1.0,10.00
2024-10-11 20:27:54.289,0.050260738,0.8421772,0.9716825,0.42372373,0.37115934,0.5218565,0.5516356,0.4564572,0.72756547,0.41012675,0.328377,0.34145138,0.32341808,-0.084318064,0.1215137,0.36909866,-0.49505174,-0.5539164,-0.27545035,-0.50230336,799.011,797.3993,796.1905,802.6374,664.0293,0.1990966796875,0.06805419921875,0.98712158203125,1.30096435546875,-7.8955078125,-1.8243408203125,1,1.0,1.0,1.0,1.0,10.00
2024-10-11 20:27:54.293,0.050260738,0.8421772,0.9716825,0.42372373,0.37115934,0.5218565,0.5516356,0.4564572,0.72756547,0.41012675,0.328377,0.34145138,0.32341808,-0.084318064,0.1215137,0.36909866,-0.49505174,-0.5539164,-0.27545035,-0.50230336,801.4286,792.96704,790.54944,807.0696,744.61536,0.1990966796875,0.06805419921875,0.98712158203125,1.30096435546875,-7.8955078125,-1.8243408203125,1,1.0,1.0,1.0,1.0,10.00
2024-10-11 20:27:54.293,0.050260738,0.8421772,0.9716825,0.42372373,0.37115934,0.5218565,0.5516356,0.4564572,0.72756547,0.41012675,0.328377,0.34145138,0.32341808,-0.084318064,0.1215137,0.36909866,-0.49505174,-0.5539164,-0.27545035,-0.50230336,804.2491,790.54944,793.7729,817.5458,981.13556,0.1990966796875,0.06805419921875,0.98712158203125,1.30096435546875,-7.8955078125,-1.8243408203125,1,1.0,1.0,1.0,1.0,10.00
2024-10-11 20:27:54.294,0.050260738,0.8421772,0.9716825,0.42372373,0.37115934,0.5218565,0.5516356,0.4564572,0.72756547,0.41012675,0.328377,0.34145138,0.32341808,-0.084318064,0.1215137,0.36909866,-0.49505174,-0.5539164,-0.27545035,-0.50230336,801.8315,795.78754,801.8315,817.1429,821.5751,0.1990966796875,0.06805419921875,0.98712158203125,1.30096435546875,-7.8955078125,-1.8243408203125,1,1.0,1.0,1.0,1.0,10.00
2024-10-11 20:27:54.295,0.050260738,0.8421772,0.9716825,0.42372373,0.37115934,0.5218565,0.5516356,0.4564572,0.72756547,0.41012675,0.328377,0.34145138,0.32341808,-0.084318064,0.1215137,0.36909866,-0.49505174,-0.5539164,-0.27545035,-0.50230336,801.8315,782.8938,802.23444,808.2784,674.5055,0.1990966796875,0.06805419921875,0.98712158203125,1.30096435546875,-7.8955078125,-1.8243408203125,1,1.0,1.0,1.0,1.0,10.00
2024-10-11 20:27:54.296,0.050260738,0.8421772,0.9716825,0.42372373,0.37115934,0.5218565,0.5516356,0.4564572,0.72756547,0.41012675,0.328377,0.34145138,0.32341808,-0.084318064,0.1215137,0.36909866,-0.49505174,-0.5539164,-0.27545035,-0.50230336,801.8315,778.0586,798.60803,811.9048,894.5055,0.1990966796875,0.06805419921875,0.98712158203125,1.30096435546875,-7.8955078125,-1.8243408203125,1,1.0,1.0,1.0,1.0,10.00
2024-10-11 20:27:54.296,0.050260738,0.8421772,0.9716825,0.42372373,0.37115934,0.5218565,0.5516356,0.4564572,0.72756547,0.41012675,0.328377,0.34145138,0.32341808,-0.084318064,0.1215137,0.36909866,-0.49505174,-0.5539164,-0.27545035,-0.50230336,795.78754,793.7729,796.5934,811.50183,1027.0696,0.1990966796875,0.06805419921875,0.98712158203125,1.30096435546875,-7.8955078125,-1.8243408203125,1,1.0,1.0,1.0,1.0,10.00
2024-10-11 20:27:54.297,0.050260738,0.8421772,0.9716825,0.42372373,0.37115934,0.5218565,0.5516356,0.4564572,0.72756547,0.41012675,0.328377,0.34145138,0.32341808,-0.084318064,0.1215137,0.36909866,-0.49505174,-0.5539164,-0.27545035,-0.50230336,795.38464,798.20514,796.99634,802.23444,832.4542,0.1990966796875,0.06805419921875,0.98712158203125,1.30096435546875,-7.8955078125,-1.8243408203125,1,1.0,1.0,1.0,1.0,10.00
2024-10-11 20:27:54.298,0.050260738,0.8421772,0.9716825,0.42372373,0.37115934,0.5218565,0.5516356,0.4564572,0.72756547,0.41012675,0.328377,0.34145138,0.32341808,-0.084318064,0.1215137,0.36909866,-0.49505174,-0.5539164,-0.27545035,-0.50230336,794.17584,798.60803,796.99634,793.36993,669.2674,0.1990966796875,0.06805419921875,0.98712158203125,1.30096435546875,-7.8955078125,-1.8243408203125,1,1.0,1.0,1.0,1.0,10.00
2024-10-11 20:27:54.299,0.050260738,0.8421772,0.9716825,0.42372373,0.37115934,0.5218565,0.5516356,0.4564572,0.72756547,0.41012675,0.328377,0.34145138,0.32341808,-0.084318064,0.1215137,0.36909866,-0.49505174,-0.5539164,-0.27545035,-0.50230336,792.5641,796.99634,794.9817,791.75824,750.2564,0.1990966796875,0.06805419921875,0.98712158203125,1.30096435546875,-7.8955078125,-1.8243408203125,1,1.0,1.0,1.0,1.0,10.00
2024-10-11 20:27:54.299,0.050260738,0.8421772,0.9716825,0.42372373,0.37115934,0.5218565,0.5516356,0.4564572,0.72756547,0.41012675,0.328377,0.34145138,0.32341808,-0.084318064,0.1215137,0.36909866,-0.49505174,-0.5539164,-0.27545035,-0.50230336,790.9524,796.1905,789.7436,793.7729,907.8022,0.1990966796875,0.06805419921875,0.98712158203125,1.30096435546875,-7.8955078125,-1.8243408203125,1,1.0,1.0,1.0,1.0,10.00
2024-10-11 20:27:54.320,0.050260738,0.8421772,0.9716825,0.42372373,0.37115934,0.5218565,0.5516356,0.4564572,0.72756547,0.41012675,0.328377,0.34145138,0.32341808,-0.084318064,0.1215137,0.36909866,-0.49505174,-0.5539164,-0.27545035,-0.50230336,790.14655,796.5934,790.54944,792.1612,837.28937,0.1990966796875,0.06805419921875,0.98712158203125,1.30096435546875,-7.8955078125,-1.8243408203125,1,1.0,1.0,1.0,1.0,10.00
2024-10-11 20:27:54.321,0.050260738,0.8421772,0.9716825,0.42372373,0.37115934,0.5218565,0.5516356,0.4564572,0.72756547,0.41012675,0.328377,0.34145138,0.32341808,-0.084318064,0.1215137,0.36909866,-0.49505174,-0.5539164,-0.27545035,-0.50230336,787.326,791.3553,793.36993,792.1612,717.2161,0.1990966796875,0.06805419921875,0.98712158203125,1.30096435546875,-7.8955078125,-1.8243408203125,1,1.0,1.0,1.0,1.0,10.00
2024-10-11 20:27:54.321,0.050260738,0.8421772,0.9716825,0.42372373,0.37115934,0.5218565,0.5516356,0.4564572,0.72756547,0.41012675,0.328377,0.34145138,0.32341808,-0.084318064,0.1215137,0.36909866,-0.49505174,-0.5539164,-0.27545035,-0.50230336,788.5348,792.5641,792.5641,790.54944,742.1978,0.1990966796875,0.06805419921875,0.98712158203125,1.30096435546875,-7.8955078125,-1.8243408203125,1,1.0,1.0,1.0,1.0,10.00
2024-10-11 20:27:54.322,0.050260738,0.8421772,0.9716825,0.42372373,0.37115934,0.5218565,0.5516356,0.4564572,0.72756547,0.41012675,0.328377,0.34145138,0.32341808,-0.084318064,0.1215137,0.36909866,-0.49505174,-0.5539164,-0.27545035,-0.50230336,794.57874,795.38464,793.36993,796.99634,928.3516,0.1990966796875,0.06805419921875,0.98712158203125,1.30096435546875,-7.8955078125,-1.8243408203125,1,1.0,1.0,1.0,1.0,10.00
2024-10-11 20:27:54.322,0.050260738,0.8421772,0.9716825,0.42372373,0.37115934,0.5218565,0.5516356,0.4564572,0.72756547,0.41012675,0.328377,0.34145138,0.32341808,-0.084318064,0.1215137,0.36909866,-0.49505174,-0.5539164,-0.27545035,-0.50230336,792.1612,795.38464,798.20514,801.02563,817.1429,0.1990966796875,0.06805419921875,0.98712158203125,1.30096435546875,-7.8955078125,-1.8243408203125,1,1.0,1.0,1.0,1.0,10.00
2024-10-11 20:27:54.323,0.050260738,0.8421772,0.9716825,0.42372373,0.37115934,0.5218565,0.5516356,0.4564572,0.72756547,0.41012675,0.328377,0.34145138,0.32341808,-0.084318064,0.1215137,0.36909866,-0.49505174,-0.5539164,-0.27545035,-0.50230336,793.36993,797.3993,788.93774,800.6227,701.50183,0.1990966796875,0.06805419921875,0.98712158203125,1.30096435546875,-7.8955078125,-1.8243408203125,1,1.0,1.0,1.0,1.0,10.00
2024-10-11 20:27:54.323,0.050260738,0.8421772,0.9716825,0.42372373,0.37115934,0.5218565,0.5516356,0.4564572,0.72756547,0.41012675,0.328377,0.34145138,0.32341808,-0.084318064,0.1215137,0.36909866,-0.49505174,-0.5539164,-0.27545035,-0.50230336,793.36993,785.7143,790.14655,799.011,958.1685,0.1990966796875,0.06805419921875,0.98712158203125,1.30096435546875,-7.8955078125,-1.8243408203125,1,1.0,1.0,1.0,1.0,10.00
2024-10-11 20:27:54.324,0.050260738,0.8421772,0.9716825,0.42372373,0.37115934,0.5218565,0.5516356,0.4564572,0.72756547,0.41012675,0.328377,0.34145138,0.32341808,-0.084318064,0.1215137,0.36909866,-0.49505174,-0.5539164,-0.27545035,-0.50230336,790.54944,791.75824,801.4286,797.8022,952.52747,0.1990966796875,0.06805419921875,0.98712158203125,1.30096435546875,-7.8955078125,-1.8243408203125,1,1.0,1.0,1.0,1.0,10.00
2024-10-11 20:27:54.324,0.050260738,0.8421772,0.9716825,0.42372373,0.37115934,0.5218565,0.5516356,0.4564572,0.72756547,0.41012675,0.328377,0.34145138,0.32341808,-0.084318064,0.1215137,0.36909866,-0.49505174,-0.5539164,-0.27545035,-0.50230336,784.5055,810.696,801.02563,795.78754,680.54944,0.1990966796875,0.06805419921875,0.98712158203125,1.30096435546875,-7.8955078125,-1.8243408203125,1,1.0,1.0,1.0,1.0,10.00
2024-10-11 20:27:54.325,0.050260738,0.8421772,0.9716825,0.42372373,0.37115934,0.5218565,0.5516356,0.4564572,0.72756547,0.41012675,0.328377,0.34145138,0.32341808,-0.084318064,0.1215137,0.36909866,-0.49505174,-0.5539164,-0.27545035,-0.50230336,781.685,799.41394,797.3993,792.96704,645.89746,0.1990966796875,0.06805419921875,0.98712158203125,1.30096435546875,-7.8955078125,-1.8243408203125,1,1.0,1.0,1.0,1.0,10.00
2024-10-11 20:27:54.325,0.050260738,0.8421772,0.9716825,0.42372373,0.37115934,0.5218565,0.5516356,0.4564572,0.72756547,0.41012675,0.328377,0.34145138,0.32341808,-0.084318064,0.1215137,0.36909866,-0.49505174,-0.5539164,-0.27545035,-0.50230336,780.4762,788.1319,796.1905,790.54944,835.6777,0.1990966796875,0.06805419921875,0.98712158203125,1.30096435546875,-7.8955078125,-1.8243408203125,1,1.0,1.0,1.0,1.0,10.00
2024-10-11 20:27:54.326,0.050260738,0.8421772,0.9716825,0.42372373,0.37115934,0.5218565,0.5516356,0.4564572,0.72756547,0.41012675,0.328377,0.34145138,0.32341808,-0.084318064,0.1215137,0.36909866,-0.49505174,-0.5539164,-0.27545035,-0.50230336,782.49084,799.81683,795.38464,792.1612,868.71796,0.1990966796875,0.06805419921875,0.98712158203125,1.30096435546875,-7.8955078125,-1.8243408203125,1,1.0,1.0,1.0,1.0,10.00
2024-10-11 20:27:54.327,0.050260738,0.8421772,0.9716825,0.42372373,0.37115934,0.5218565,0.5516356,0.4564572,0.72756547,0.41012675,0.328377,0.34145138,0.32341808,-0.084318064,0.1215137,0.36909866,-0.49505174,-0.5539164,-0.27545035,-0.50230336,787.326,804.65204,794.57874,790.54944,606.0073,0.2017822265625,0.0665283203125,0.98260498046875,0.49346923828125,-7.723541259765625,-2.0635986328125,1,1.0,1.0,1.0,1.0,10.00
2024-10-11 20:27:54.328,0.050260738,0.8421772,0.9716825,0.42372373,0.37115934,0.5218565,0.5516356,0.4564572,0.72756547,0.41012675,0.328377,0.34145138,0.32341808,-0.084318064,0.1215137,0.36909866,-0.49505174,-0.5539164,-0.27545035,-0.50230336,792.96704,802.6374,797.8022,795.38464,535.89746,0.2017822265625,0.0665283203125,0.98260498046875,0.49346923828125,-7.723541259765625,-2.0635986328125,1,1.0,1.0,1.0,1.0,10.00
2024-10-11 20:27:54.328,0.050260738,0.8421772,0.9716825,0.42372373,0.37115934,0.5218565,0.5516356,0.4564572,0.72756547,0.41012675,0.328377,0.34145138,0.32341808,-0.084318064,0.1215137,0.36909866,-0.49505174,-0.5539164,-0.27545035,-0.50230336,797.8022,801.8315,800.2198,799.41394,750.2564,0.2017822265625,0.0665283203125,0.98260498046875,0.49346923828125,-7.723541259765625,-2.0635986328125,1,1.0,1.0,1.0,1.0,10.00
2024-10-11 20:27:54.329,0.050260738,0.86733085,1.0241095,0.42372373,0.37115934,0.53110766,0.5882269,0.4564572,0.72756547,0.41012675,0.32858127,0.34145138,0.32341808,-0.06317744,0.10349018,0.36909866,-0.49505174,-0.5487636,-0.25286245,-0.50230336,793.7729,798.60803,800.2198,791.75824,708.7546,0.2017822265625,0.0665283203125,0.98260498046875,0.49346923828125,-7.723541259765625,-2.0635986328125,1,1.0,1.0,1.0,1.0,10.00
2024-10-11 20:27:54.334,0.050260738,0.86733085,1.0241095,0.42372373,0.37115934,0.53110766,0.5882269,0.4564572,0.72756547,0.41012675,0.32858127,0.34145138,0.32341808,-0.06317744,0.10349018,0.36909866,-0.49505174,-0.5487636,-0.25286245,-0.50230336,795.78754,796.5934,803.0403,789.7436,585.05493,0.2017822265625,0.0665283203125,0.98260498046875,0.49346923828125,-7.723541259765625,-2.0635986328125,1,1.0,1.0,1.0,1.0,10.00
2024-10-11 20:27:54.334,0.050260738,0.86733085,1.0241095,0.42372373,0.37115934,0.53110766,0.5882269,0.4564572,0.72756547,0.41012675,0.32858127,0.34145138,0.32341808,-0.06317744,0.10349018,0.36909866,-0.49505174,-0.5487636,-0.25286245,-0.50230336,796.1905,795.78754,805.8608,796.5934,671.685,0.2017822265625,0.0665283203125,0.98260498046875,0.49346923828125,-7.723541259765625,-2.0635986328125,1,1.0,1.0,1.0,1.0,10.00
2024-10-11 20:27:54.335,0.050260738,0.86733085,1.0241095,0.42372373,0.37115934,0.53110766,0.5882269,0.4564572,0.72756547,0.41012675,0.32858127,0.34145138,0.32341808,-0.06317744,0.10349018,0.36909866,-0.49505174,-0.5487636,-0.25286245,-0.50230336,790.54944,793.36993,805.05493,794.57874,796.5934,0.2017822265625,0.0665283203125,0.98260498046875,0.49346923828125,-7.723541259765625,-2.0635986328125,1,1.0,1.0,1.0,1.0,10.00
2024-10-11 20:27:54.336,0.050260738,0.86733085,1.0241095,0.42372373,0.37115934,0.53110766,0.5882269,0.4564572,0.72756547,0.41012675,0.32858127,0.34145138,0.32341808,-0.06317744,0.10349018,0.36909866,-0.49505174,-0.5487636,-0.25286245,-0.50230336,786.1172,793.7729,794.9817,787.72894,718.8278,0.2017822265625,0.0665283203125,0.98260498046875,0.49346923828125,-7.723541259765625,-2.0635986328125,1,1.0,1.0,1.0,1.0,10.00
2024-10-11 20:27:54.337,0.050260738,0.86733085,1.0241095,0.42372373,0.37115934,0.53110766,0.5882269,0.4564572,0.72756547,0.41012675,0.32858127,0.34145138,0.32341808,-0.06317744,0.10349018,0.36909866,-0.49505174,-0.5487636,-0.25286245,-0.50230336,783.69965,795.78754,794.17584,787.326,646.30035,0.2017822265625,0.0665283203125,0.98260498046875,0.49346923828125,-7.723541259765625,-2.0635986328125,1,1.0,1.0,1.0,1.0,10.00
2024-10-11 20:27:54.337,0.050260738,0.86733085,1.0241095,0.42372373,0.37115934,0.53110766,0.5882269,0.4564572,0.72756547,0.41012675,0.32858127,0.34145138,0.32341808,-0.06317744,0.10349018,0.36909866,-0.49505174,-0.5487636,-0.25286245,-0.50230336,783.2967,792.1612,806.26373,786.52014,665.64105,0.2017822265625,0.0665283203125,0.98260498046875,0.49346923828125,-7.723541259765625,-2.0635986328125,1,1.0,1.0,1.0,1.0,10.00
2024-10-11 20:27:54.338,0.050260738,0.86733085,1.0241095,0.42372373,0.37115934,0.53110766,0.5882269,0.4564572,0.72756547,0.41012675,0.32858127,0.34145138,0.32341808,-0.06317744,0.10349018,0.36909866,-0.49505174,-0.5487636,-0.25286245,-0.50230336,781.685,794.17584,805.05493,787.326,776.04395,0.2017822265625,0.0665283203125,0.98260498046875,0.49346923828125,-7.723541259765625,-2.0635986328125,1,1.0,1.0,1.0,1.0,10.00
2024-10-11 20:27:54.338,0.050260738,0.86733085,1.0241095,0.42372373,0.37115934,0.53110766,0.5882269,0.4564572,0.72756547,0.41012675,0.32858127,0.34145138,0.32341808,-0.06317744,0.10349018,0.36909866,-0.49505174,-0.5487636,-0.25286245,-0.50230336,787.72894,799.81683,801.02563,784.10254,665.64105,0.2017822265625,0.0665283203125,0.98260498046875,0.49346923828125,-7.723541259765625,-2.0635986328125,1,1.0,1.0,1.0,1.0,10.00
2024-10-11 20:27:54.359,0.050260738,0.86733085,1.0241095,0.42372373,0.37115934,0.53110766,0.5882269,0.4564572,0.72756547,0.41012675,0.32858127,0.34145138,0.32341808,-0.06317744,0.10349018,0.36909866,-0.49505174,-0.5487636,-0.25286245,-0.50230336,794.9817,803.0403,803.0403,781.28204,596.7399,0.1990966796875,0.0667724609375,0.98529052734375,0.426177978515625,-6.542205810546875,-4.044952392578125,1,1.0,1.0,1.0,1.0,10.00
2024-10-11 20:27:54.360,0.050260738,0.86733085,1.0241095,0.42372373,0.37115934,0.53110766,0.5882269,0.4564572,0.72756547,0.41012675,0.32858127,0.34145138,0.32341808,-0.06317744,0.10349018,0.36909866,-0.49505174,-0.5487636,-0.25286245,-0.50230336,797.3993,797.3993,801.8315,786.9231,730.5128,0.1990966796875,0.0667724609375,0.98529052734375,0.426177978515625,-6.542205810546875,-4.044952392578125,1,1.0,1.0,1.0,1.0,10.00
2024-10-11 20:27:54.361,0.050260738,0.86733085,1.0241095,0.42372373,0.37115934,0.53110766,0.5882269,0.4564572,0.72756547,0.41012675,0.32858127,0.34145138,0.32341808,-0.06317744,0.10349018,0.36909866,-0.49505174,-0.5487636,-0.25286245,-0.50230336,802.23444,787.326,796.5934,790.54944,855.82416,0.1990966796875,0.0667724609375,0.98529052734375,0.426177978515625,-6.542205810546875,-4.044952392578125,1,1.0,1.0,1.0,1.0,10.00
2024-10-11 20:27:54.361,0.050260738,0.86733085,1.0241095,0.42372373,0.37115934,0.53110766,0.5882269,0.4564572,0.72756547,0.41012675,0.32858127,0.34145138,0.32341808,-0.06317744,0.10349018,0.36909866,-0.49505174,-0.5487636,-0.25286245,-0.50230336,808.68134,797.3993,797.8022,792.5641,695.8608,0.1990966796875,0.0667724609375,0.98529052734375,0.426177978515625,-6.542205810546875,-4.044952392578125,1,1.0,1.0,1.0,1.0,10.00
2024-10-11 20:27:54.362,0.050260738,0.86733085,1.0241095,0.42372373,0.37115934,0.53110766,0.5882269,0.4564572,0.72756547,0.41012675,0.32858127,0.34145138,0.32341808,-0.06317744,0.10349018,0.36909866,-0.49505174,-0.5487636,-0.25286245,-0.50230336,810.293,804.65204,799.81683,795.38464,614.87177,0.1990966796875,0.0667724609375,0.98529052734375,0.426177978515625,-6.542205810546875,-4.044952392578125,1,1.0,1.0,1.0,1.0,10.00
2024-10-11 20:27:54.363,0.050260738,0.86733085,1.0241095,0.42372373,0.37115934,0.53110766,0.5882269,0.4564572,0.72756547,0.41012675,0.32858127,0.34145138,0.32341808,-0.06317744,0.10349018,0.36909866,-0.49505174,-0.5487636,-0.25286245,-0.50230336,807.0696,799.81683,798.20514,798.60803,849.7802,0.1990966796875,0.0667724609375,0.98529052734375,0.426177978515625,-6.542205810546875,-4.044952392578125,1,1.0,1.0,1.0,1.0,10.00
2024-10-11 20:27:54.363,0.050260738,0.86733085,1.0241095,0.42372373,0.37115934,0.53110766,0.5882269,0.4564572,0.72756547,0.41012675,0.32858127,0.34145138,0.32341808,-0.06317744,0.10349018,0.36909866,-0.49505174,-0.5487636,-0.25286245,-0.50230336,800.2198,797.3993,795.38464,799.41394,1024.249,0.1990966796875,0.0667724609375,0.98529052734375,0.426177978515625,-6.542205810546875,-4.044952392578125,1,1.0,1.0,1.0,1.0,10.00
2024-10-11 20:27:54.364,0.050260738,0.86733085,1.0241095,0.42372373,0.37115934,0.53110766,0.5882269,0.4564572,0.72756547,0.41012675,0.32858127,0.34145138,0.32341808,-0.06317744,0.10349018,0.36909866,-0.49505174,-0.5487636,-0.25286245,-0.50230336,792.96704,799.011,797.8022,803.8461,700.293,0.1990966796875,0.0667724609375,0.98529052734375,0.426177978515625,-6.542205810546875,-4.044952392578125,1,1.0,1.0,1.0,1.0,10.00
2024-10-11 20:27:54.365,0.050260738,0.86733085,1.0241095,0.42372373,0.37115934,0.53110766,0.5882269,0.4564572,0.72756547,0.41012675,0.32858127,0.34145138,0.32341808,-0.06317744,0.10349018,0.36909866,-0.49505174,-0.5487636,-0.25286245,-0.50230336,793.36993,795.38464,800.6227,806.6667,566.52014,0.1990966796875,0.0667724609375,0.98529052734375,0.426177978515625,-6.542205810546875,-4.044952392578125,1,1.0,1.0,1.0,1.0,10.00
2024-10-11 20:27:54.365,0.050260738,0.86733085,1.0241095,0.42372373,0.37115934,0.53110766,0.5882269,0.4564572,0.72756547,0.41012675,0.32858127,0.34145138,0.32341808,-0.06317744,0.10349018,0.36909866,-0.49505174,-0.5487636,-0.25286245,-0.50230336,800.2198,793.36993,804.65204,810.696,942.8571,0.1990966796875,0.0667724609375,0.98529052734375,0.426177978515625,-6.542205810546875,-4.044952392578125,1,1.0,1.0,1.0,1.0,10.00
2024-10-11 20:27:54.366,0.050260738,0.86733085,1.0241095,0.42372373,0.37115934,0.53110766,0.5882269,0.4564572,0.72756547,0.41012675,0.32858127,0.34145138,0.32341808,-0.06317744,0.10349018,0.36909866,-0.49505174,-0.5487636,-0.25286245,-0.50230336,803.44324,800.2198,809.4872,814.7253,841.31866,0.1990966796875,0.0667724609375,0.98529052734375,0.426177978515625,-6.542205810546875,-4.044952392578125,1,1.0,1.0,1.0,1.0,10.00
2024-10-11 20:27:54.366,0.050260738,0.86733085,1.0241095,0.42372373,0.37115934,0.53110766,0.5882269,0.4564572,0.72756547,0.41012675,0.32858127,0.34145138,0.32341808,-0.06317744,0.10349018,0.36909866,-0.49505174,-0.5487636,-0.25286245,-0.50230336,800.6227,799.41394,801.02563,807.47253,587.8755,0.1990966796875,0.0667724609375,0.98529052734375,0.426177978515625,-6.542205810546875,-4.044952392578125,1,1.0,1.0,1.0,1.0,10.00
2024-10-11 20:27:54.449,0.050260738,0.86733085,1.0241095,0.42372373,0.37115934,0.53110766,0.5882269,0.4564572,0.72756547,0.41012675,0.32858127,0.34145138,0.32341808,-0.06317744,0.10349018,0.36909866,-0.49505174,-0.5487636,-0.25286245,-0.50230336,796.5934,793.7729,801.4286,803.8461,663.6264,0.20074462890625,0.06683349609375,0.98150634765625,1.697235107421875,-5.15899658203125,-7.58148193359375,1,1.0,1.0,1.0,1.0,10.00
2024-10-11 20:27:54.450,0.050260738,0.86733085,1.0241095,0.42372373,0.37115934,0.53110766,0.5882269,0.4564572,0.72756547,0.41012675,0.32858127,0.34145138,0.32341808,-0.06317744,0.10349018,0.36909866,-0.49505174,-0.5487636,-0.25286245,-0.50230336,792.5641,791.3553,807.47253,802.23444,914.2491,0.20074462890625,0.06683349609375,0.98150634765625,1.697235107421875,-5.15899658203125,-7.58148193359375,1,1.0,1.0,1.0,1.0,10.00
2024-10-11 20:27:54.450,0.050260738,0.86733085,1.0241095,0.42372373,0.37115934,0.53110766,0.5882269,0.4564572,0.72756547,0.41012675,0.32858127,0.34145138,0.32341808,-0.06317744,0.10349018,0.36909866,-0.49505174,-0.5487636,-0.25286245,-0.50230336,790.14655,795.78754,805.8608,790.14655,836.8865,0.20074462890625,0.06683349609375,0.98150634765625,1.697235107421875,-5.15899658203125,-7.58148193359375,1,1.0,1.0,1.0,1.0,10.00
2024-10-11 20:27:54.451,0.050260738,0.86733085,1.0241095,0.42372373,0.37115934,0.53110766,0.5882269,0.4564572,0.72756547,0.41012675,0.32858127,0.34145138,0.32341808,-0.06317744,0.10349018,0.36909866,-0.49505174,-0.5487636,-0.25286245,-0.50230336,792.1612,801.4286,805.4579,788.1319,659.19415,0.20074462890625,0.06683349609375,0.98150634765625,1.697235107421875,-5.15899658203125,-7.58148193359375,1,1.0,1.0,1.0,1.0,10.00
2024-10-11 20:27:54.451,0.050260738,0.86733085,1.0241095,0.42372373,0.37115934,0.53110766,0.5882269,0.4564572,0.72756547,0.41012675,0.32858127,0.34145138,0.32341808,-0.06317744,0.10349018,0.36909866,-0.49505174,-0.5487636,-0.25286245,-0.50230336,796.99634,800.2198,806.6667,793.36993,678.93774,0.20074462890625,0.06683349609375,0.98150634765625,1.697235107421875,-5.15899658203125,-7.58148193359375,1,1.0,1.0,1.0,1.0,10.00
2024-10-11 20:27:54.452,0.050260738,0.8814137,1.048064,0.42372373,0.37115934,0.52028704,0.6012643,0.4564572,0.72756547,0.41012675,0.34192002,0.34145138,0.32341808,-0.05311225,0.07461616,0.36909866,-0.49505174,-0.51652694,-0.23771644,-0.50230336,804.65204,796.99634,803.44324,803.8461,1030.6959,0.20074462890625,0.06683349609375,0.98150634765625,1.697235107421875,-5.15899658203125,-7.58148193359375,1,1.0,1.0,1.0,1.0,10.00
2024-10-11 20:27:54.455,0.050260738,0.8814137,1.048064,0.42372373,0.37115934,0.52028704,0.6012643,0.4564572,0.72756547,0.41012675,0.34192002,0.34145138,0.32341808,-0.05311225,0.07461616,0.36909866,-0.49505174,-0.51652694,-0.23771644,-0.50230336,801.8315,796.5934,796.99634,809.4872,1413.4799,0.20074462890625,0.06683349609375,0.98150634765625,1.697235107421875,-5.15899658203125,-7.58148193359375,1,1.0,1.0,1.0,1.0,10.00
2024-10-11 20:27:54.456,0.050260738,0.8814137,1.048064,0.42372373,0.37115934,0.52028704,0.6012643,0.4564572,0.72756547,0.41012675,0.34192002,0.34145138,0.32341808,-0.05311225,0.07461616,0.36909866,-0.49505174,-0.51652694,-0.23771644,-0.50230336,791.75824,803.0403,795.78754,805.05493,1310.7325,0.20074462890625,0.06683349609375,0.98150634765625,1.697235107421875,-5.15899658203125,-7.58148193359375,1,1.0,1.0,1.0,1.0,10.00
2024-10-11 20:27:54.456,0.050260738,0.8814137,1.048064,0.42372373,0.37115934,0.52028704,0.6012643,0.4564572,0.72756547,0.41012675,0.34192002,0.34145138,0.32341808,-0.05311225,0.07461616,0.36909866,-0.49505174,-0.51652694,-0.23771644,-0.50230336,804.2491,805.4579,795.38464,814.7253,953.73627,0.20074462890625,0.06683349609375,0.98150634765625,1.697235107421875,-5.15899658203125,-7.58148193359375,1,1.0,1.0,1.0,1.0,10.00
2024-10-11 20:27:54.457,0.050260738,0.8814137,1.048064,0.42372373,0.37115934,0.52028704,0.6012643,0.4564572,0.72756547,0.41012675,0.34192002,0.34145138,0.32341808,-0.05311225,0.07461616,0.36909866,-0.49505174,-0.51652694,-0.23771644,-0.50230336,811.9048,805.4579,791.75824,818.7546,865.4945,0.20074462890625,0.06683349609375,0.98150634765625,1.697235107421875,-5.15899658203125,-7.58148193359375,1,1.0,1.0,1.0,1.0,10.00
2024-10-11 20:27:54.457,0.050260738,0.8814137,1.048064,0.42372373,0.37115934,0.52028704,0.6012643,0.4564572,0.72756547,0.41012675,0.34192002,0.34145138,0.32341808,-0.05311225,0.07461616,0.36909866,-0.49505174,-0.51652694,-0.23771644,-0.50230336,804.2491,803.44324,793.36993,809.0842,658.7912,0.20074462890625,0.06683349609375,0.98150634765625,1.697235107421875,-5.15899658203125,-7.58148193359375,1,1.0,1.0,1.0,1.0,10.00
2024-10-11 20:27:54.458,0.050260738,0.8814137,1.048064,0.42372373,0.37115934,0.52028704,0.6012643,0.4564572,0.72756547,0.41012675,0.34192002,0.34145138,0.32341808,-0.05311225,0.07461616,0.36909866,-0.49505174,-0.51652694,-0.23771644,-0.50230336,803.0403,800.2198,797.3993,807.0696,543.5531,0.20074462890625,0.06683349609375,0.98150634765625,1.697235107421875,-5.15899658203125,-7.58148193359375,1,1.0,1.0,1.0,1.0,10.00
2024-10-11 20:27:54.482,0.050260738,0.8814137,1.048064,0.42372373,0.37115934,0.52028704,0.6012643,0.4564572,0.72756547,0.41012675,0.34192002,0.34145138,0.32341808,-0.05311225,0.07461616,0.36909866,-0.49505174,-0.51652694,-0.23771644,-0.50230336,795.78754,808.68134,794.9817,794.57874,692.23444,0.21466064453125,0.07879638671875,0.9759521484375,2.848663330078125,-4.388885498046875,-12.7105712890625,1,1.0,1.0,1.0,1.0,10.00
2024-10-11 20:27:54.482,0.050260738,0.8814137,1.048064,0.42372373,0.37115934,0.52028704,0.6012643,0.4564572,0.72756547,0.41012675,0.34192002,0.34145138,0.32341808,-0.05311225,0.07461616,0.36909866,-0.49505174,-0.51652694,-0.23771644,-0.50230336,796.99634,813.5165,789.7436,790.54944,731.31866,0.21466064453125,0.07879638671875,0.9759521484375,2.848663330078125,-4.388885498046875,-12.7105712890625,1,1.0,1.0,1.0,1.0,10.00
2024-10-11 20:27:54.483,0.050260738,0.8814137,1.048064,0.42372373,0.37115934,0.52028704,0.6012643,0.4564572,0.72756547,0.41012675,0.34192002,0.34145138,0.32341808,-0.05311225,0.07461616,0.36909866,-0.49505174,-0.51652694,-0.23771644,-0.50230336,797.8022,807.8755,789.34064,795.78754,668.86444,0.21466064453125,0.07879638671875,0.9759521484375,2.848663330078125,-4.388885498046875,-12.7105712890625,1,1.0,1.0,1.0,1.0,10.00
2024-10-11 20:27:54.485,0.050260738,0.8814137,1.048064,0.42372373,0.37115934,0.52028704,0.6012643,0.4564572,0.72756547,0.41012675,0.34192002,0.34145138,0.32341808,-0.05311225,0.07461616,0.36909866,-0.49505174,-0.51652694,-0.23771644,-0.50230336,797.8022,807.0696,784.10254,792.5641,605.6044,0.21466064453125,0.07879638671875,0.9759521484375,2.848663330078125,-4.388885498046875,-12.7105712890625,1,1.0,1.0,1.0,1.0,10.00
2024-10-11 20:27:54.486,0.050260738,0.8814137,1.048064,0.42372373,0.37115934,0.52028704,0.6012643,0.4564572,0.72756547,0.41012675,0.34192002,0.34145138,0.32341808,-0.05311225,0.07461616,0.36909866,-0.49505174,-0.51652694,-0.23771644,-0.50230336,804.65204,805.8608,771.6117,790.9524,772.4176,0.21466064453125,0.07879638671875,0.9759521484375,2.848663330078125,-4.388885498046875,-12.7105712890625,1,1.0,1.0,1.0,1.0,10.00
2024-10-11 20:27:54.486,0.050260738,0.8814137,1.048064,0.42372373,0.37115934,0.52028704,0.6012643,0.4564572,0.72756547,0.41012675,0.34192002,0.34145138,0.32341808,-0.05311225,0.07461616,0.36909866,-0.49505174,-0.51652694,-0.23771644,-0.50230336,799.41394,807.0696,773.6264,782.0879,1098.7913,0.21466064453125,0.07879638671875,0.9759521484375,2.848663330078125,-4.388885498046875,-12.7105712890625,1,1.0,1.0,1.0,1.0,10.00
2024-10-11 20:27:54.487,0.050260738,0.8814137,1.048064,0.42372373,0.37115934,0.52028704,0.6012643,0.4564572,0.72756547,0.41012675,0.34192002,0.34145138,0.32341808,-0.05311225,0.07461616,0.36909866,-0.49505174,-0.51652694,-0.23771644,-0.50230336,807.47253,809.89014,779.67035,779.67035,929.15753,0.21466064453125,0.07879638671875,0.9759521484375,2.848663330078125,-4.388885498046875,-12.7105712890625,1,1.0,1.0,1.0,1.0,10.00
2024-10-11 20:27:54.488,0.050260738,0.8814137,1.048064,0.42372373,0.37115934,0.52028704,0.6012643,0.4564572,0.72756547,0.41012675,0.34192002,0.34145138,0.32341808,-0.05311225,0.07461616,0.36909866,-0.49505174,-0.51652694,-0.23771644,-0.50230336,807.47253,809.4872,777.25275,783.69965,698.68134,0.21466064453125,0.07879638671875,0.9759521484375,2.848663330078125,-4.388885498046875,-12.7105712890625,1,1.0,1.0,1.0,1.0,10.00
2024-10-11 20:27:54.488,0.050260738,0.8814137,1.048064,0.42372373,0.37115934,0.52028704,0.6012643,0.4564572,0.72756547,0.41012675,0.34192002,0.34145138,0.32341808,-0.05311225,0.07461616,0.36909866,-0.49505174,-0.51652694,-0.23771644,-0.50230336,789.34064,808.68134,773.22345,780.87915,886.4469,0.21466064453125,0.07879638671875,0.9759521484375,2.848663330078125,-4.388885498046875,-12.7105712890625,1,1.0,1.0,1.0,1.0,10.00
2024-10-11 20:27:54.489,0.050260738,0.8814137,1.048064,0.42372373,0.37115934,0.52028704,0.6012643,0.4564572,0.72756547,0.41012675,0.34192002,0.34145138,0.32341808,-0.05311225,0.07461616,0.36909866,-0.49505174,-0.51652694,-0.23771644,-0.50230336,792.96704,810.696,770.0,784.90845,1115.7142,0.21466064453125,0.07879638671875,0.9759521484375,2.848663330078125,-4.388885498046875,-12.7105712890625,1,1.0,1.0,1.0,1.0,10.00
2024-10-11 20:27:54.489,0.050260738,0.8814137,1.048064,0.42372373,0.37115934,0.52028704,0.6012643,0.4564572,0.72756547,0.41012675,0.34192002,0.34145138,0.32341808,-0.05311225,0.07461616,0.36909866,-0.49505174,-0.51652694,-0.23771644,-0.50230336,797.3993,813.1135,768.7912,776.8498,774.43225,0.21466064453125,0.07879638671875,0.9759521484375,2.848663330078125,-4.388885498046875,-12.7105712890625,1,1.0,1.0,1.0,1.0,10.00
2024-10-11 20:27:54.490,0.050260738,0.8814137,1.048064,0.42372373,0.37115934,0.52028704,0.6012643,0.4564572,0.72756547,0.41012675,0.34192002,0.34145138,0.32341808,-0.05311225,0.07461616,0.36909866,-0.49505174,-0.51652694,-0.23771644,-0.50230336,792.96704,817.9487,763.5531,776.04395,683.7729,0.21466064453125,0.07879638671875,0.9759521484375,2.848663330078125,-4.388885498046875,-12.7105712890625,1,1.0,1.0,1.0,1.0,10.00
2024-10-11 20:27:54.517,0.050260738,0.8814137,1.048064,0.42372373,0.37115934,0.52028704,0.6012643,0.4564572,0.72756547,0.41012675,0.34192002,0.34145138,0.32341808,-0.05311225,0.07461616,0.36909866,-0.49505174,-0.51652694,-0.23771644,-0.50230336,797.8022,821.5751,759.12085,782.49084,896.9231,0.22503662109375,0.0859375,0.97955322265625,1.71966552734375,-4.6356201171875,-13.420867919921875,1,1.0,1.0,1.0,1.0,10.00
2024-10-11 20:27:54.518,0.050260738,0.8814137,1.048064,0.42372373,0.37115934,0.52028704,0.6012643,0.4564572,0.72756547,0.41012675,0.34192002,0.34145138,0.32341808,-0.05311225,0.07461616,0.36909866,-0.49505174,-0.51652694,-0.23771644,-0.50230336,799.41394,820.3663,763.1502,777.6557,776.04395,0.22503662109375,0.0859375,0.97955322265625,1.71966552734375,-4.6356201171875,-13.420867919921875,1,1.0,1.0,1.0,1.0,10.00
2024-10-11 20:27:54.519,0.050260738,0.8814137,1.048064,0.42372373,0.37115934,0.52028704,0.6012643,0.4564572,0.72756547,0.41012675,0.34192002,0.34145138,0.32341808,-0.05311225,0.07461616,0.36909866,-0.49505174,-0.51652694,-0.23771644,-0.50230336,793.7729,818.3516,762.74725,774.83514,641.06226,0.22503662109375,0.0859375,0.97955322265625,1.71966552734375,-4.6356201171875,-13.420867919921875,1,1.0,1.0,1.0,1.0,10.00
2024-10-11 20:27:54.520,0.050260738,0.8814137,1.048064,0.42372373,0.37115934,0.52028704,0.6012643,0.4564572,0.72756547,0.41012675,0.34192002,0.34145138,0.32341808,-0.05311225,0.07461616,0.36909866,-0.49505174,-0.51652694,-0.23771644,-0.50230336,791.3553,817.9487,757.1062,776.8498,770.0,0.22503662109375,0.0859375,0.97955322265625,1.71966552734375,-4.6356201171875,-13.420867919921875,1,1.0,1.0,1.0,1.0,10.00
2024-10-11 20:27:54.521,0.050260738,0.8814137,1.048064,0.42372373,0.37115934,0.52028704,0.6012643,0.4564572,0.72756547,0.41012675,0.34192002,0.34145138,0.32341808,-0.05311225,0.07461616,0.36909866,-0.49505174,-0.51652694,-0.23771644,-0.50230336,802.6374,818.7546,762.3443,786.1172,938.8278,0.22503662109375,0.0859375,0.97955322265625,1.71966552734375,-4.6356201171875,-13.420867919921875,1,1.0,1.0,1.0,1.0,10.00
2024-10-11 20:27:54.522,0.050260738,0.8814137,1.048064,0.42372373,0.37115934,0.52028704,0.6012643,0.4564572,0.72756547,0.41012675,0.34192002,0.34145138,0.32341808,-0.05311225,0.07461616,0.36909866,-0.49505174,-0.51652694,-0.23771644,-0.50230336,810.696,815.12823,765.56775,790.54944,841.31866,0.22503662109375,0.0859375,0.97955322265625,1.71966552734375,-4.6356201171875,-13.420867919921875,1,1.0,1.0,1.0,1.0,10.00
2024-10-11 20:27:54.523,0.050260738,0.8814137,1.048064,0.42372373,0.37115934,0.52028704,0.6012643,0.4564572,0.72756547,0.41012675,0.34192002,0.34145138,0.32341808,-0.05311225,0.07461616,0.36909866,-0.49505174,-0.51652694,-0.23771644,-0.50230336,811.9048,813.91943,766.3736,788.93774,787.72894,0.22503662109375,0.0859375,0.97955322265625,1.71966552734375,-4.6356201171875,-13.420867919921875,1,1.0,1.0,1.0,1.0,10.00
2024-10-11 20:27:54.523,0.050260738,0.8982419,1.0661628,0.42372373,0.37115934,0.49905792,0.6205192,0.4564572,0.72756547,0.38077676,0.40509766,0.34145138,0.32341808,-0.053650502,0.038061187,0.36909866,-0.49505174,-0.45076346,-0.2332601,-0.50230336,813.1135,813.91943,768.7912,791.75824,935.6044,0.22503662109375,0.0859375,0.97955322265625,1.71966552734375,-4.6356201171875,-13.420867919921875,1,1.0,1.0,1.0,1.0,10.00
2024-10-11 20:27:54.527,0.050260738,0.8982419,1.0661628,0.42372373,0.37115934,0.49905792,0.6205192,0.4564572,0.72756547,0.38077676,0.40509766,0.34145138,0.32341808,-0.053650502,0.038061187,0.36909866,-0.49505174,-0.45076346,-0.2332601,-0.50230336,815.5311,807.0696,770.0,799.011,1191.0623,0.22503662109375,0.0859375,0.97955322265625,1.71966552734375,-4.6356201171875,-13.420867919921875,1,1.0,1.0,1.0,1.0,10.00
2024-10-11 20:27:54.528,0.050260738,0.8982419,1.0661628,0.42372373,0.37115934,0.49905792,0.6205192,0.4564572,0.72756547,0.38077676,0.40509766,0.34145138,0.32341808,-0.053650502,0.038061187,0.36909866,-0.49505174,-0.45076346,-0.2332601,-0.50230336,813.91943,805.4579,768.7912,791.75824,880.40295,0.22503662109375,0.0859375,0.97955322265625,1.71966552734375,-4.6356201171875,-13.420867919921875,1,1.0,1.0,1.0,1.0,10.00
2024-10-11 20:27:54.528,0.050260738,0.8982419,1.0661628,0.42372373,0.37115934,0.49905792,0.6205192,0.4564572,0.72756547,0.38077676,0.40509766,0.34145138,0.32341808,-0.053650502,0.038061187,0.36909866,-0.49505174,-0.45076346,-0.2332601,-0.50230336,805.4579,809.89014,765.9707,784.10254,605.2015,0.22503662109375,0.0859375,0.97955322265625,1.71966552734375,-4.6356201171875,-13.420867919921875,1,1.0,1.0,1.0,1.0,10.00
2024-10-11 20:27:54.529,0.050260738,0.8982419,1.0661628,0.42372373,0.37115934,0.49905792,0.6205192,0.4564572,0.72756547,0.38077676,0.40509766,0.34145138,0.32341808,-0.053650502,0.038061187,0.36909866,-0.49505174,-0.45076346,-0.2332601,-0.50230336,801.4286,806.26373,770.0,785.7143,793.7729,0.22503662109375,0.0859375,0.97955322265625,1.71966552734375,-4.6356201171875,-13.420867919921875,1,1.0,1.0,1.0,1.0,10.00
2024-10-11 20:27:54.529,0.050260738,0.8982419,1.0661628,0.42372373,0.37115934,0.49905792,0.6205192,0.4564572,0.72756547,0.38077676,0.40509766,0.34145138,0.32341808,-0.053650502,0.038061187,0.36909866,-0.49505174,-0.45076346,-0.2332601,-0.50230336,794.17584,806.6667,772.4176,787.72894,923.5165,0.22503662109375,0.0859375,0.97955322265625,1.71966552734375,-4.6356201171875,-13.420867919921875,1,1.0,1.0,1.0,1.0,10.00
2024-10-11 20:27:54.530,0.050260738,0.8982419,1.0661628,0.42372373,0.37115934,0.49905792,0.6205192,0.4564572,0.72756547,0.38077676,0.40509766,0.34145138,0.32341808,-0.053650502,0.038061187,0.36909866,-0.49505174,-0.45076346,-0.2332601,-0.50230336,798.60803,807.8755,772.4176,790.54944,783.69965,0.22503662109375,0.0859375,0.97955322265625,1.71966552734375,-4.6356201171875,-13.420867919921875,1,1.0,1.0,1.0,1.0,10.00
2024-10-11 20:27:54.530,0.050260738,0.8982419,1.0661628,0.42372373,0.37115934,0.49905792,0.6205192,0.4564572,0.72756547,0.38077676,0.40509766,0.34145138,0.32341808,-0.053650502,0.038061187,0.36909866,-0.49505174,-0.45076346,-0.2332601,-0.50230336,802.6374,803.8461,776.04395,790.54944,661.2088,0.22503662109375,0.0859375,0.97955322265625,1.71966552734375,-4.6356201171875,-13.420867919921875,1,1.0,1.0,1.0,1.0,10.00
2024-10-11 20:27:54.531,0.050260738,0.8982419,1.0661628,0.42372373,0.37115934,0.49905792,0.6205192,0.4564572,0.72756547,0.38077676,0.40509766,0.34145138,0.32341808,-0.053650502,0.038061187,0.36909866,-0.49505174,-0.45076346,-0.2332601,-0.50230336,797.3993,799.81683,775.64105,794.17584,741.39197,0.22503662109375,0.0859375,0.97955322265625,1.71966552734375,-4.6356201171875,-13.420867919921875,1,1.0,1.0,1.0,1.0,10.00
2024-10-11 20:27:54.531,0.050260738,0.8982419,1.0661628,0.42372373,0.37115934,0.49905792,0.6205192,0.4564572,0.72756547,0.38077676,0.40509766,0.34145138,0.32341808,-0.053650502,0.038061187,0.36909866,-0.49505174,-0.45076346,-0.2332601,-0.50230336,805.4579,801.8315,777.6557,801.02563,844.5421,0.22503662109375,0.0859375,0.97955322265625,1.71966552734375,-4.6356201171875,-13.420867919921875,1,1.0,1.0,1.0,1.0,10.00
2024-10-11 20:27:54.532,0.050260738,0.8982419,1.0661628,0.42372373,0.37115934,0.49905792,0.6205192,0.4564572,0.72756547,0.38077676,0.40509766,0.34145138,0.32341808,-0.053650502,0.038061187,0.36909866,-0.49505174,-0.45076346,-0.2332601,-0.50230336,812.3077,803.44324,789.7436,805.4579,850.18317,0.22503662109375,0.0859375,0.97955322265625,1.71966552734375,-4.6356201171875,-13.420867919921875,1,1.0,1.0,1.0,1.0,10.00
2024-10-11 20:27:54.532,0.050260738,0.8982419,1.0661628,0.42372373,0.37115934,0.49905792,0.6205192,0.4564572,0.72756547,0.38077676,0.40509766,0.34145138,0.32341808,-0.053650502,0.038061187,0.36909866,-0.49505174,-0.45076346,-0.2332601,-0.50230336,813.91943,801.4286,790.54944,805.8608,874.7619,0.22503662109375,0.0859375,0.97955322265625,1.71966552734375,-4.6356201171875,-13.420867919921875,1,1.0,1.0,1.0,1.0,10.00
2024-10-11 20:27:54.533,0.050260738,0.8982419,1.0661628,0.42372373,0.37115934,0.49905792,0.6205192,0.4564572,0.72756547,0.38077676,0.40509766,0.34145138,0.32341808,-0.053650502,0.038061187,0.36909866,-0.49505174,-0.45076346,-0.2332601,-0.50230336,815.5311,801.02563,786.9231,804.65204,1050.0366,0.22503662109375,0.0859375,0.97955322265625,1.71966552734375,-4.6356201171875,-13.420867919921875,1,1.0,1.0,1.0,1.0,10.00
2024-10-11 20:27:54.533,0.050260738,0.8982419,1.0661628,0.42372373,0.37115934,0.49905792,0.6205192,0.4564572,0.72756547,0.38077676,0.40509766,0.34145138,0.32341808,-0.053650502,0.038061187,0.36909866,-0.49505174,-0.45076346,-0.2332601,-0.50230336,809.89014,802.6374,788.1319,805.8608,933.9927,0.22503662109375,0.0859375,0.97955322265625,1.71966552734375,-4.6356201171875,-13.420867919921875,1,1.0,1.0,1.0,1.0,10.00
2024-10-11 20:27:54.534,0.050260738,0.8982419,1.0661628,0.42372373,0.37115934,0.49905792,0.6205192,0.4564572,0.72756547,0.38077676,0.40509766,0.34145138,0.32341808,-0.053650502,0.038061187,0.36909866,-0.49505174,-0.45076346,-0.2332601,-0.50230336,809.4872,804.65204,790.9524,801.4286,695.8608,0.22503662109375,0.0859375,0.97955322265625,1.71966552734375,-4.6356201171875,-13.420867919921875,1,1.0,1.0,1.0,1.0,10.00
2024-10-11 20:27:54.534,0.050260738,0.8982419,1.0661628,0.42372373,0.37115934,0.49905792,0.6205192,0.4564572,0.72756547,0.38077676,0.40509766,0.34145138,0.32341808,-0.053650502,0.038061187,0.36909866,-0.49505174,-0.45076346,-0.2332601,-0.50230336,812.3077,801.4286,790.9524,797.3993,714.3956,0.22503662109375,0.0859375,0.97955322265625,1.71966552734375,-4.6356201171875,-13.420867919921875,1,1.0,1.0,1.0,1.0,10.00
2024-10-11 20:27:54.535,0.050260738,0.8982419,1.0661628,0.42372373,0.37115934,0.49905792,0.6205192,0.4564572,0.72756547,0.38077676,0.40509766,0.34145138,0.32341808,-0.053650502,0.038061187,0.36909866,-0.49505174,-0.45076346,-0.2332601,-0.50230336,802.6374,798.20514,788.1319,802.6374,853.00366,0.22503662109375,0.0859375,0.97955322265625,1.71966552734375,-4.6356201171875,-13.420867919921875,1,1.0,1.0,1.0,1.0,10.00
2024-10-11 20:27:54.556,0.050260738,0.8982419,1.0661628,0.42372373,0.37115934,0.49905792,0.6205192,0.4564572,0.72756547,0.38077676,0.40509766,0.34145138,0.32341808,-0.053650502,0.038061187,0.36909866,-0.49505174,-0.45076346,-0.2332601,-0.50230336,801.4286,801.4286,788.93774,805.4579,844.5421,0.2308349609375,0.089111328125,0.97637939453125,0.261688232421875,-5.674896240234375,-10.39276123046875,1,1.0,1.0,1.0,1.0,10.00
2024-10-11 20:27:54.557,0.050260738,0.8982419,1.0661628,0.42372373,0.37115934,0.49905792,0.6205192,0.4564572,0.72756547,0.38077676,0.40509766,0.34145138,0.32341808,-0.053650502,0.038061187,0.36909866,-0.49505174,-0.45076346,-0.2332601,-0.50230336,803.8461,803.8461,790.14655,806.26373,732.52747,0.2308349609375,0.089111328125,0.97637939453125,0.261688232421875,-5.674896240234375,-10.39276123046875,1,1.0,1.0,1.0,1.0,10.00
2024-10-11 20:27:54.557,0.050260738,0.8982419,1.0661628,0.42372373,0.37115934,0.49905792,0.6205192,0.4564572,0.72756547,0.38077676,0.40509766,0.34145138,0.32341808,-0.053650502,0.038061187,0.36909866,-0.49505174,-0.45076346,-0.2332601,-0.50230336,806.26373,804.65204,790.54944,806.6667,765.16486,0.2308349609375,0.089111328125,0.97637939453125,0.261688232421875,-5.674896240234375,-10.39276123046875,1,1.0,1.0,1.0,1.0,10.00
2024-10-11 20:27:54.558,0.050260738,0.8982419,1.0661628,0.42372373,0.37115934,0.49905792,0.6205192,0.4564572,0.72756547,0.38077676,0.40509766,0.34145138,0.32341808,-0.053650502,0.038061187,0.36909866,-0.49505174,-0.45076346,-0.2332601,-0.50230336,808.68134,805.8608,789.34064,809.4872,1043.5897,0.2308349609375,0.089111328125,0.97637939453125,0.261688232421875,-5.674896240234375,-10.39276123046875,1,1.0,1.0,1.0,1.0,10.00
2024-10-11 20:27:54.558,0.050260738,0.8982419,1.0661628,0.42372373,0.37115934,0.49905792,0.6205192,0.4564572,0.72756547,0.38077676,0.40509766,0.34145138,0.32341808,-0.053650502,0.038061187,0.36909866,-0.49505174,-0.45076346,-0.2332601,-0.50230336,806.6667,803.8461,790.14655,807.8755,1035.5311,0.2308349609375,0.089111328125,0.97637939453125,0.261688232421875,-5.674896240234375,-10.39276123046875,1,1.0,1.0,1.0,1.0,10.00
2024-10-11 20:27:54.559,0.050260738,0.8982419,1.0661628,0.42372373,0.37115934,0.49905792,0.6205192,0.4564572,0.72756547,0.38077676,0.40509766,0.34145138,0.32341808,-0.053650502,0.038061187,0.36909866,-0.49505174,-0.45076346,-0.2332601,-0.50230336,809.4872,804.2491,794.57874,807.47253,767.1795,0.2308349609375,0.089111328125,0.97637939453125,0.261688232421875,-5.674896240234375,-10.39276123046875,1,1.0,1.0,1.0,1.0,10.00
2024-10-11 20:27:54.559,0.050260738,0.8982419,1.0661628,0.42372373,0.37115934,0.49905792,0.6205192,0.4564572,0.72756547,0.38077676,0.40509766,0.34145138,0.32341808,-0.053650502,0.038061187,0.36909866,-0.49505174,-0.45076346,-0.2332601,-0.50230336,813.1135,800.2198,794.17584,806.6667,897.326,0.2308349609375,0.089111328125,0.97637939453125,0.261688232421875,-5.674896240234375,-10.39276123046875,1,1.0,1.0,1.0,1.0,10.00
2024-10-11 20:27:54.560,0.050260738,0.8982419,1.0661628,0.42372373,0.37115934,0.49905792,0.6205192,0.4564572,0.72756547,0.38077676,0.40509766,0.34145138,0.32341808,-0.053650502,0.038061187,0.36909866,-0.49505174,-0.45076346,-0.2332601,-0.50230336,811.9048,796.1905,794.9817,805.8608,960.18317,0.2308349609375,0.089111328125,0.97637939453125,0.261688232421875,-5.674896240234375,-10.39276123046875,1,1.0,1.0,1.0,1.0,10.00
2024-10-11 20:27:54.560,0.050260738,0.8982419,1.0661628,0.42372373,0.37115934,0.49905792,0.6205192,0.4564572,0.72756547,0.38077676,0.40509766,0.34145138,0.32341808,-0.053650502,0.038061187,0.36909866,-0.49505174,-0.45076346,-0.2332601,-0.50230336,815.5311,801.8315,797.3993,809.0842,764.7619,0.2308349609375,0.089111328125,0.97637939453125,0.261688232421875,-5.674896240234375,-10.39276123046875,1,1.0,1.0,1.0,1.0,10.00
2024-10-11 20:27:54.561,0.050260738,0.90816754,1.0732586,0.42372373,0.37115934,0.47024238,0.6532441,0.4564572,0.72756547,0.3654786,0.46713498,0.34145138,0.32341808,-0.056225475,0.0025982226,0.36909866,-0.49505174,-0.36798656,-0.23939614,-0.50230336,817.9487,803.8461,796.99634,807.47253,679.7436,0.2308349609375,0.089111328125,0.97637939453125,0.261688232421875,-5.674896240234375,-10.39276123046875,1,1.0,1.0,1.0,1.0,10.00
2024-10-11 20:27:54.564,0.050260738,0.90816754,1.0732586,0.42372373,0.37115934,0.47024238,0.6532441,0.4564572,0.72756547,0.3654786,0.46713498,0.34145138,0.32341808,-0.056225475,0.0025982226,0.36909866,-0.49505174,-0.36798656,-0.23939614,-0.50230336,815.5311,803.44324,792.96704,803.44324,772.8205,0.2308349609375,0.089111328125,0.97637939453125,0.261688232421875,-5.674896240234375,-10.39276123046875,1,1.0,1.0,1.0,1.0,10.00
2024-10-11 20:27:54.565,0.050260738,0.90816754,1.0732586,0.42372373,0.37115934,0.47024238,0.6532441,0.4564572,0.72756547,0.3654786,0.46713498,0.34145138,0.32341808,-0.056225475,0.0025982226,0.36909866,-0.49505174,-0.36798656,-0.23939614,-0.50230336,812.3077,803.44324,792.96704,802.6374,872.74725,0.2308349609375,0.089111328125,0.97637939453125,0.261688232421875,-5.674896240234375,-10.39276123046875,1,1.0,1.0,1.0,1.0,10.00
2024-10-11 20:27:54.653,0.050260738,0.90816754,1.0732586,0.42372373,0.37115934,0.47024238,0.6532441,0.4564572,0.72756547,0.3654786,0.46713498,0.34145138,0.32341808,-0.056225475,0.0025982226,0.36909866,-0.49505174,-0.36798656,-0.23939614,-0.50230336,807.47253,804.2491,793.36993,803.0403,741.39197,0.240966796875,0.0887451171875,0.97869873046875,-0.680389404296875,-6.183319091796875,-6.198272705078125,1,1.0,1.0,1.0,1.0,10.00
2024-10-11 20:27:54.654,0.050260738,0.90816754,1.0732586,0.42372373,0.37115934,0.47024238,0.6532441,0.4564572,0.72756547,0.3654786,0.46713498,0.34145138,0.32341808,-0.056225475,0.0025982226,0.36909866,-0.49505174,-0.36798656,-0.23939614,-0.50230336,807.47253,802.23444,786.52014,807.47253,643.47986,0.240966796875,0.0887451171875,0.97869873046875,-0.680389404296875,-6.183319091796875,-6.198272705078125,1,1.0,1.0,1.0,1.0,10.00
2024-10-11 20:27:54.654,0.050260738,0.90816754,1.0732586,0.42372373,0.37115934,0.47024238,0.6532441,0.4564572,0.72756547,0.3654786,0.46713498,0.34145138,0.32341808,-0.056225475,0.0025982226,0.36909866,-0.49505174,-0.36798656,-0.23939614,-0.50230336,805.8608,802.23444,790.9524,807.8755,699.89014,0.240966796875,0.0887451171875,0.97869873046875,-0.680389404296875,-6.183319091796875,-6.198272705078125,1,1.0,1.0,1.0,1.0,10.00
2024-10-11 20:27:54.655,0.050260738,0.90816754,1.0732586,0.42372373,0.37115934,0.47024238,0.6532441,0.4564572,0.72756547,0.3654786,0.46713498,0.34145138,0.32341808,-0.056225475,0.0025982226,0.36909866,-0.49505174,-0.36798656,-0.23939614,-0.50230336,797.8022,800.6227,799.41394,807.8755,1083.4799,0.240966796875,0.0887451171875,0.97869873046875,-0.680389404296875,-6.183319091796875,-6.198272705078125,1,1.0,1.0,1.0,1.0,10.00
2024-10-11 20:27:54.655,0.050260738,0.90816754,1.0732586,0.42372373,0.37115934,0.47024238,0.6532441,0.4564572,0.72756547,0.3654786,0.46713498,0.34145138,0.32341808,-0.056225475,0.0025982226,0.36909866,-0.49505174,-0.36798656,-0.23939614,-0.50230336,796.5934,796.5934,796.1905,800.2198,1055.6776,0.240966796875,0.0887451171875,0.97869873046875,-0.680389404296875,-6.183319091796875,-6.198272705078125,1,1.0,1.0,1.0,1.0,10.00
2024-10-11 20:27:54.656,0.050260738,0.90816754,1.0732586,0.42372373,0.37115934,0.47024238,0.6532441,0.4564572,0.72756547,0.3654786,0.46713498,0.34145138,0.32341808,-0.056225475,0.0025982226,0.36909866,-0.49505174,-0.36798656,-0.23939614,-0.50230336,794.17584,800.6227,796.99634,790.54944,742.1978,0.240966796875,0.0887451171875,0.97869873046875,-0.680389404296875,-6.183319091796875,-6.198272705078125,1,1.0,1.0,1.0,1.0,10.00
2024-10-11 20:27:54.657,0.050260738,0.90816754,1.0732586,0.42372373,0.37115934,0.47024238,0.6532441,0.4564572,0.72756547,0.3654786,0.46713498,0.34145138,0.32341808,-0.056225475,0.0025982226,0.36909866,-0.49505174,-0.36798656,-0.23939614,-0.50230336,790.14655,801.4286,799.011,791.3553,898.1319,0.240966796875,0.0887451171875,0.97869873046875,-0.680389404296875,-6.183319091796875,-6.198272705078125,1,1.0,1.0,1.0,1.0,10.00
2024-10-11 20:27:54.657,0.050260738,0.90816754,1.0732586,0.42372373,0.37115934,0.47024238,0.6532441,0.4564572,0.72756547,0.3654786,0.46713498,0.34145138,0.32341808,-0.056225475,0.0025982226,0.36909866,-0.49505174,-0.36798656,-0.23939614,-0.50230336,788.5348,796.99634,796.99634,793.7729,908.60803,0.240966796875,0.0887451171875,0.97869873046875,-0.680389404296875,-6.183319091796875,-6.198272705078125,1,1.0,1.0,1.0,1.0,10.00
2024-10-11 20:27:54.658,0.050260738,0.90816754,1.0732586,0.42372373,0.37115934,0.47024238,0.6532441,0.4564572,0.72756547,0.3654786,0.46713498,0.34145138,0.32341808,-0.056225475,0.0025982226,0.36909866,-0.49505174,-0.36798656,-0.23939614,-0.50230336,789.34064,799.81683,794.17584,795.78754,599.5604,0.240966796875,0.0887451171875,0.97869873046875,-0.680389404296875,-6.183319091796875,-6.198272705078125,1,1.0,1.0,1.0,1.0,10.00
2024-10-11 20:27:54.659,0.050260738,0.90816754,1.0732586,0.42372373,0.37115934,0.47024238,0.6532441,0.4564572,0.72756547,0.3654786,0.46713498,0.34145138,0.32341808,-0.056225475,0.0025982226,0.36909866,-0.49505174,-0.36798656,-0.23939614,-0.50230336,793.7729,800.2198,795.38464,797.8022,564.90845,0.240966796875,0.0887451171875,0.97869873046875,-0.680389404296875,-6.183319091796875,-6.198272705078125,1,1.0,1.0,1.0,1.0,10.00
2024-10-11 20:27:54.659,0.050260738,0.90816754,1.0732586,0.42372373,0.37115934,0.47024238,0.6532441,0.4564572,0.72756547,0.3654786,0.46713498,0.34145138,0.32341808,-0.056225475,0.0025982226,0.36909866,-0.49505174,-0.36798656,-0.23939614,-0.50230336,794.17584,795.78754,794.9817,796.5934,920.696,0.240966796875,0.0887451171875,0.97869873046875,-0.680389404296875,-6.183319091796875,-6.198272705078125,1,1.0,1.0,1.0,1.0,10.00
2024-10-11 20:27:54.660,0.050260738,0.90816754,1.0732586,0.42372373,0.37115934,0.47024238,0.6532441,0.4564572,0.72756547,0.3654786,0.46713498,0.34145138,0.32341808,-0.056225475,0.0025982226,0.36909866,-0.49505174,-0.36798656,-0.23939614,-0.50230336,798.60803,802.23444,798.60803,796.1905,876.3736,0.240966796875,0.0887451171875,0.97869873046875,-0.680389404296875,-6.183319091796875,-6.198272705078125,1,1.0,1.0,1.0,1.0,10.00
2024-10-11 20:27:54.688,0.050260738,0.90816754,1.0732586,0.42372373,0.37115934,0.47024238,0.6532441,0.4564572,0.72756547,0.3654786,0.46713498,0.34145138,0.32341808,-0.056225475,0.0025982226,0.36909866,-0.49505174,-0.36798656,-0.23939614,-0.50230336,804.2491,798.60803,798.60803,794.9817,595.5311,0.24346923828125,0.086181640625,0.97454833984375,-1.024322509765625,-6.676788330078125,-1.31591796875,1,1.0,1.0,1.0,1.0,10.00
2024-10-11 20:27:54.689,0.050260738,0.90816754,1.0732586,0.42372373,0.37115934,0.47024238,0.6532441,0.4564572,0.72756547,0.3654786,0.46713498,0.34145138,0.32341808,-0.056225475,0.0025982226,0.36909866,-0.49505174,-0.36798656,-0.23939614,-0.50230336,802.6374,794.17584,794.9817,794.9817,690.6227,0.24346923828125,0.086181640625,0.97454833984375,-1.024322509765625,-6.676788330078125,-1.31591796875,1,1.0,1.0,1.0,1.0,10.00
2024-10-11 20:27:54.689,0.050260738,0.90816754,1.0732586,0.42372373,0.37115934,0.47024238,0.6532441,0.4564572,0.72756547,0.3654786,0.46713498,0.34145138,0.32341808,-0.056225475,0.0025982226,0.36909866,-0.49505174,-0.36798656,-0.23939614,-0.50230336,799.41394,798.20514,795.78754,796.5934,888.86444,0.24346923828125,0.086181640625,0.97454833984375,-1.024322509765625,-6.676788330078125,-1.31591796875,1,1.0,1.0,1.0,1.0,10.00
2024-10-11 20:27:54.690,0.050260738,0.90816754,1.0732586,0.42372373,0.37115934,0.47024238,0.6532441,0.4564572,0.72756547,0.3654786,0.46713498,0.34145138,0.32341808,-0.056225475,0.0025982226,0.36909866,-0.49505174,-0.36798656,-0.23939614,-0.50230336,802.6374,799.011,796.5934,792.96704,802.23444,0.24346923828125,0.086181640625,0.97454833984375,-1.024322509765625,-6.676788330078125,-1.31591796875,1,1.0,1.0,1.0,1.0,10.00
2024-10-11 20:27:54.691,0.050260738,0.90816754,1.0732586,0.42372373,0.37115934,0.47024238,0.6532441,0.4564572,0.72756547,0.3654786,0.46713498,0.34145138,0.32341808,-0.056225475,0.0025982226,0.36909866,-0.49505174,-0.36798656,-0.23939614,-0.50230336,805.8608,802.23444,796.1905,792.5641,597.1429,0.24346923828125,0.086181640625,0.97454833984375,-1.024322509765625,-6.676788330078125,-1.31591796875,1,1.0,1.0,1.0,1.0,10.00
2024-10-11 20:27:54.691,0.050260738,0.90816754,1.0732586,0.42372373,0.37115934,0.47024238,0.6532441,0.4564572,0.72756547,0.3654786,0.46713498,0.34145138,0.32341808,-0.056225475,0.0025982226,0.36909866,-0.49505174,-0.36798656,-0.23939614,-0.50230336,807.47253,801.4286,795.38464,796.5934,765.9707,0.24346923828125,0.086181640625,0.97454833984375,-1.024322509765625,-6.676788330078125,-1.31591796875,1,1.0,1.0,1.0,1.0,10.00
2024-10-11 20:27:54.692,0.050260738,0.90816754,1.0732586,0.42372373,0.37115934,0.47024238,0.6532441,0.4564572,0.72756547,0.3654786,0.46713498,0.34145138,0.32341808,-0.056225475,0.0025982226,0.36909866,-0.49505174,-0.36798656,-0.23939614,-0.50230336,808.2784,793.7729,793.7729,800.6227,1123.773,0.24346923828125,0.086181640625,0.97454833984375,-1.024322509765625,-6.676788330078125,-1.31591796875,1,1.0,1.0,1.0,1.0,10.00
2024-10-11 20:27:54.692,0.050260738,0.90816754,1.0732586,0.42372373,0.37115934,0.47024238,0.6532441,0.4564572,0.72756547,0.3654786,0.46713498,0.34145138,0.32341808,-0.056225475,0.0025982226,0.36909866,-0.49505174,-0.36798656,-0.23939614,-0.50230336,811.9048,796.99634,793.36993,797.3993,911.8315,0.24346923828125,0.086181640625,0.97454833984375,-1.024322509765625,-6.676788330078125,-1.31591796875,1,1.0,1.0,1.0,1.0,10.00
2024-10-11 20:27:54.693,0.050260738,0.90816754,1.0732586,0.42372373,0.37115934,0.47024238,0.6532441,0.4564572,0.72756547,0.3654786,0.46713498,0.34145138,0.32341808,-0.056225475,0.0025982226,0.36909866,-0.49505174,-0.36798656,-0.23939614,-0.50230336,809.0842,800.2198,792.5641,794.57874,656.77655,0.24346923828125,0.086181640625,0.97454833984375,-1.024322509765625,-6.676788330078125,-1.31591796875,1,1.0,1.0,1.0,1.0,10.00
2024-10-11 20:27:54.693,0.050260738,0.90816754,1.0732586,0.42372373,0.37115934,0.47024238,0.6532441,0.4564572,0.72756547,0.3654786,0.46713498,0.34145138,0.32341808,-0.056225475,0.0025982226,0.36909866,-0.49505174,-0.36798656,-0.23939614,-0.50230336,803.0403,799.41394,794.17584,794.17584,699.0842,0.24346923828125,0.086181640625,0.97454833984375,-1.024322509765625,-6.676788330078125,-1.31591796875,1,1.0,1.0,1.0,1.0,10.00
2024-10-11 20:27:54.694,0.050260738,0.90816754,1.0732586,0.42372373,0.37115934,0.47024238,0.6532441,0.4564572,0.72756547,0.3654786,0.46713498,0.34145138,0.32341808,-0.056225475,0.0025982226,0.36909866,-0.49505174,-0.36798656,-0.23939614,-0.50230336,802.23444,796.99634,798.60803,801.4286,898.93774,0.24346923828125,0.086181640625,0.97454833984375,-1.024322509765625,-6.676788330078125,-1.31591796875,1,1.0,1.0,1.0,1.0,10.00
2024-10-11 20:27:54.695,0.050260738,0.8915562,1.075917,0.42372373,0.37115934,0.42382145,0.7050723,0.4564572,0.72756547,0.353771,0.50238645,0.34145138,0.32341808,-0.051049855,-0.022756055,0.36909866,-0.49505174,-0.29979357,-0.26095852,-0.50230336,800.2198,798.60803,802.23444,801.4286,811.9048,0.24346923828125,0.086181640625,0.97454833984375,-1.024322509765625,-6.676788330078125,-1.31591796875,1,1.0,1.0,1.0,1.0,10.00
2024-10-11 20:27:54.699,0.050260738,0.8915562,1.075917,0.42372373,0.37115934,0.42382145,0.7050723,0.4564572,0.72756547,0.353771,0.50238645,0.34145138,0.32341808,-0.051049855,-0.022756055,0.36909866,-0.49505174,-0.29979357,-0.26095852,-0.50230336,801.8315,799.81683,801.8315,799.011,653.5531,0.2562255859375,0.0816650390625,0.97003173828125,-0.022430419921875,-8.38897705078125,2.213134765625,1,1.0,1.0,1.0,1.0,10.00
2024-10-11 20:27:54.700,0.050260738,0.8915562,1.075917,0.42372373,0.37115934,0.42382145,0.7050723,0.4564572,0.72756547,0.353771,0.50238645,0.34145138,0.32341808,-0.051049855,-0.022756055,0.36909866,-0.49505174,-0.29979357,-0.26095852,-0.50230336,800.6227,798.20514,800.6227,801.4286,780.87915,0.2562255859375,0.0816650390625,0.97003173828125,-0.022430419921875,-8.38897705078125,2.213134765625,1,1.0,1.0,1.0,1.0,10.00
2024-10-11 20:27:54.701,0.050260738,0.8915562,1.075917,0.42372373,0.37115934,0.42382145,0.7050723,0.4564572,0.72756547,0.353771,0.50238645,0.34145138,0.32341808,-0.051049855,-0.022756055,0.36909866,-0.49505174,-0.29979357,-0.26095852,-0.50230336,797.8022,801.8315,800.2198,800.2198,819.9634,0.2562255859375,0.0816650390625,0.97003173828125,-0.022430419921875,-8.38897705078125,2.213134765625,1,1.0,1.0,1.0,1.0,10.00
2024-10-11 20:27:54.702,0.050260738,0.8915562,1.075917,0.42372373,0.37115934,0.42382145,0.7050723,0.4564572,0.72756547,0.353771,0.50238645,0.34145138,0.32341808,-0.051049855,-0.022756055,0.36909866,-0.49505174,-0.29979357,-0.26095852,-0.50230336,803.8461,804.2491,805.05493,804.65204,647.1062,0.2562255859375,0.0816650390625,0.97003173828125,-0.022430419921875,-8.38897705078125,2.213134765625,1,1.0,1.0,1.0,1.0,10.00
2024-10-11 20:27:54.703,0.050260738,0.8915562,1.075917,0.42372373,0.37115934,0.42382145,0.7050723,0.4564572,0.72756547,0.353771,0.50238645,0.34145138,0.32341808,-0.051049855,-0.022756055,0.36909866,-0.49505174,-0.29979357,-0.26095852,-0.50230336,811.0989,801.8315,807.0696,806.26373,642.674,0.2562255859375,0.0816650390625,0.97003173828125,-0.022430419921875,-8.38897705078125,2.213134765625,1,1.0,1.0,1.0,1.0,10.00
2024-10-11 20:27:54.703,0.050260738,0.8915562,1.075917,0.42372373,0.37115934,0.42382145,0.7050723,0.4564572,0.72756547,0.353771,0.50238645,0.34145138,0.32341808,-0.051049855,-0.022756055,0.36909866,-0.49505174,-0.29979357,-0.26095852,-0.50230336,809.4872,799.41394,802.6374,802.6374,874.7619,0.2562255859375,0.0816650390625,0.97003173828125,-0.022430419921875,-8.38897705078125,2.213134765625,1,1.0,1.0,1.0,1.0,10.00
2024-10-11 20:27:54.704,0.050260738,0.8915562,1.075917,0.42372373,0.37115934,0.42382145,0.7050723,0.4564572,0.72756547,0.353771,0.50238645,0.34145138,0.32341808,-0.051049855,-0.022756055,0.36909866,-0.49505174,-0.29979357,-0.26095852,-0.50230336,805.05493,802.23444,805.8608,803.8461,869.5238,0.2562255859375,0.0816650390625,0.97003173828125,-0.022430419921875,-8.38897705078125,2.213134765625,1,1.0,1.0,1.0,1.0,10.00
2024-10-11 20:27:54.704,0.050260738,0.8915562,1.075917,0.42372373,0.37115934,0.42382145,0.7050723,0.4564572,0.72756547,0.353771,0.50238645,0.34145138,0.32341808,-0.051049855,-0.022756055,0.36909866,-0.49505174,-0.29979357,-0.26095852,-0.50230336,801.02563,803.8461,805.05493,804.2491,668.86444,0.2562255859375,0.0816650390625,0.97003173828125,-0.022430419921875,-8.38897705078125,2.213134765625,1,1.0,1.0,1.0,1.0,10.00
2024-10-11 20:27:54.705,0.050260738,0.8915562,1.075917,0.42372373,0.37115934,0.42382145,0.7050723,0.4564572,0.72756547,0.353771,0.50238645,0.34145138,0.32341808,-0.051049855,-0.022756055,0.36909866,-0.49505174,-0.29979357,-0.26095852,-0.50230336,805.8608,804.65204,801.02563,802.6374,631.79486,0.2562255859375,0.0816650390625,0.97003173828125,-0.022430419921875,-8.38897705078125,2.213134765625,1,1.0,1.0,1.0,1.0,10.00
2024-10-11 20:27:54.705,0.050260738,0.8915562,1.075917,0.42372373,0.37115934,0.42382145,0.7050723,0.4564572,0.72756547,0.353771,0.50238645,0.34145138,0.32341808,-0.051049855,-0.022756055,0.36909866,-0.49505174,-0.29979357,-0.26095852,-0.50230336,809.89014,806.26373,800.6227,806.6667,906.1905,0.2562255859375,0.0816650390625,0.97003173828125,-0.022430419921875,-8.38897705078125,2.213134765625,1,1.0,1.0,1.0,1.0,10.00
2024-10-11 20:27:54.706,0.050260738,0.8915562,1.075917,0.42372373,0.37115934,0.42382145,0.7050723,0.4564572,0.72756547,0.353771,0.50238645,0.34145138,0.32341808,-0.051049855,-0.022756055,0.36909866,-0.49505174,-0.29979357,-0.26095852,-0.50230336,807.8755,808.68134,801.4286,804.65204,863.47986,0.2562255859375,0.0816650390625,0.97003173828125,-0.022430419921875,-8.38897705078125,2.213134765625,1,1.0,1.0,1.0,1.0,10.00
2024-10-11 20:27:54.707,0.050260738,0.8915562,1.075917,0.42372373,0.37115934,0.42382145,0.7050723,0.4564572,0.72756547,0.353771,0.50238645,0.34145138,0.32341808,-0.051049855,-0.022756055,0.36909866,-0.49505174,-0.29979357,-0.26095852,-0.50230336,802.23444,813.1135,800.6227,796.1905,590.293,0.2562255859375,0.0816650390625,0.97003173828125,-0.022430419921875,-8.38897705078125,2.213134765625,1,1.0,1.0,1.0,1.0,10.00
2024-10-11 20:27:54.731,0.050260738,0.8915562,1.075917,0.42372373,0.37115934,0.42382145,0.7050723,0.4564572,0.72756547,0.353771,0.50238645,0.34145138,0.32341808,-0.051049855,-0.022756055,0.36909866,-0.49505174,-0.29979357,-0.26095852,-0.50230336,802.23444,812.71063,801.4286,800.2198,676.52014,0.2562255859375,0.0816650390625,0.97003173828125,-0.022430419921875,-8.38897705078125,2.213134765625,1,1.0,1.0,1.0,1.0,10.00
2024-10-11 20:27:54.732,0.050260738,0.8915562,1.075917,0.42372373,0.37115934,0.42382145,0.7050723,0.4564572,0.72756547,0.353771,0.50238645,0.34145138,0.32341808,-0.051049855,-0.022756055,0.36909866,-0.49505174,-0.29979357,-0.26095852,-0.50230336,796.1905,809.89014,793.36993,792.96704,877.5824,0.2562255859375,0.0816650390625,0.97003173828125,-0.022430419921875,-8.38897705078125,2.213134765625,1,1.0,1.0,1.0,1.0,10.00
2024-10-11 20:27:54.733,0.050260738,0.8915562,1.075917,0.42372373,0.37115934,0.42382145,0.7050723,0.4564572,0.72756547,0.353771,0.50238645,0.34145138,0.32341808,-0.051049855,-0.022756055,0.36909866,-0.49505174,-0.29979357,-0.26095852,-0.50230336,799.011,817.5458,779.2674,786.1172,761.13556,0.2562255859375,0.0816650390625,0.97003173828125,-0.022430419921875,-8.38897705078125,2.213134765625,1,1.0,1.0,1.0,1.0,10.00
2024-10-11 20:27:54.733,0.050260738,0.8915562,1.075917,0.42372373,0.37115934,0.42382145,0.7050723,0.4564572,0.72756547,0.353771,0.50238645,0.34145138,0.32341808,-0.051049855,-0.022756055,0.36909866,-0.49505174,-0.29979357,-0.26095852,-0.50230336,820.7692,821.978,782.49084,808.68134,646.30035,0.2562255859375,0.0816650390625,0.97003173828125,-0.022430419921875,-8.38897705078125,2.213134765625,1,1.0,1.0,1.0,1.0,10.00
2024-10-11 20:27:54.734,0.050260738,0.8915562,1.075917,0.42372373,0.37115934,0.42382145,0.7050723,0.4564572,0.72756547,0.353771,0.50238645,0.34145138,0.32341808,-0.051049855,-0.022756055,0.36909866,-0.49505174,-0.29979357,-0.26095852,-0.50230336,811.0989,802.6374,808.2784,817.5458,786.1172,0.2562255859375,0.0816650390625,0.97003173828125,-0.022430419921875,-8.38897705078125,2.213134765625,1,1.0,1.0,1.0,1.0,10.00
2024-10-11 20:27:54.735,0.050260738,0.8915562,1.075917,0.42372373,0.37115934,0.42382145,0.7050723,0.4564572,0.72756547,0.353771,0.50238645,0.34145138,0.32341808,-0.051049855,-0.022756055,0.36909866,-0.49505174,-0.29979357,-0.26095852,-0.50230336,782.8938,790.54944,817.5458,806.6667,1209.1941,0.2562255859375,0.0816650390625,0.97003173828125,-0.022430419921875,-8.38897705078125,2.213134765625,1,1.0,1.0,1.0,1.0,10.00
2024-10-11 20:27:54.735,0.050260738,0.8915562,1.075917,0.42372373,0.37115934,0.42382145,0.7050723,0.4564572,0.72756547,0.353771,0.50238645,0.34145138,0.32341808,-0.051049855,-0.022756055,0.36909866,-0.49505174,-0.29979357,-0.26095852,-0.50230336,778.46155,800.2198,810.293,801.8315,1356.2638,0.2562255859375,0.0816650390625,0.97003173828125,-0.022430419921875,-8.38897705078125,2.213134765625,1,1.0,1.0,1.0,1.0,10.00
2024-10-11 20:27:54.736,0.050260738,0.8915562,1.075917,0.42372373,0.37115934,0.42382145,0.7050723,0.4564572,0.72756547,0.353771,0.50238645,0.34145138,0.32341808,-0.051049855,-0.022756055,0.36909866,-0.49505174,-0.29979357,-0.26095852,-0.50230336,794.17584,807.0696,803.8461,801.02563,810.696,0.2562255859375,0.0816650390625,0.97003173828125,-0.022430419921875,-8.38897705078125,2.213134765625,1,1.0,1.0,1.0,1.0,10.00
2024-10-11 20:27:54.736,0.050260738,0.8915562,1.075917,0.42372373,0.37115934,0.42382145,0.7050723,0.4564572,0.72756547,0.353771,0.50238645,0.34145138,0.32341808,-0.051049855,-0.022756055,0.36909866,-0.49505174,-0.29979357,-0.26095852,-0.50230336,792.5641,795.78754,802.6374,806.6667,673.2967,0.2562255859375,0.0816650390625,0.97003173828125,-0.022430419921875,-8.38897705078125,2.213134765625,1,1.0,1.0,1.0,1.0,10.00
2024-10-11 20:27:54.737,0.050260738,0.8915562,1.075917,0.42372373,0.37115934,0.42382145,0.7050723,0.4564572,0.72756547,0.353771,0.50238645,0.34145138,0.32341808,-0.051049855,-0.022756055,0.36909866,-0.49505174,-0.29979357,-0.26095852,-0.50230336,784.5055,778.46155,811.9048,808.2784,888.46155,0.2562255859375,0.0816650390625,0.97003173828125,-0.022430419921875,-8.38897705078125,2.213134765625,1,1.0,1.0,1.0,1.0,10.00
2024-10-11 20:27:54.738,0.050260738,0.8915562,1.075917,0.42372373,0.37115934,0.42382145,0.7050723,0.4564572,0.72756547,0.353771,0.50238645,0.34145138,0.32341808,-0.051049855,-0.022756055,0.36909866,-0.49505174,-0.29979357,-0.26095852,-0.50230336,778.0586,771.6117,823.1868,802.6374,663.6264,0.2562255859375,0.0816650390625,0.97003173828125,-0.022430419921875,-8.38897705078125,2.213134765625,1,1.0,1.0,1.0,1.0,10.00
2024-10-11 20:27:54.738,0.050260738,0.8915562,1.075917,0.42372373,0.37115934,0.42382145,0.7050723,0.4564572,0.72756547,0.353771,0.50238645,0.34145138,0.32341808,-0.051049855,-0.022756055,0.36909866,-0.49505174,-0.29979357,-0.26095852,-0.50230336,768.7912,783.2967,823.1868,803.44324,511.3187,0.2562255859375,0.0816650390625,0.97003173828125,-0.022430419921875,-8.38897705078125,2.213134765625,1,1.0,1.0,1.0,1.0,10.00
2024-10-11 20:27:54.804,0.050260738,0.8915562,1.075917,0.42372373,0.37115934,0.42382145,0.7050723,0.4564572,0.72756547,0.353771,0.50238645,0.34145138,0.32341808,-0.051049855,-0.022756055,0.36909866,-0.49505174,-0.29979357,-0.26095852,-0.50230336,766.77655,786.9231,821.978,807.8755,678.5348,0.2694091796875,0.079833984375,0.9630126953125,0.456085205078125,-7.932891845703125,5.03936767578125,1,1.0,1.0,1.0,1.0,10.00
2024-10-11 20:27:54.805,0.050260738,0.78550404,1.069692,1.0548439,0.37115934,0.2871183,0.76764196,0.7710942,0.72756547,0.30338985,0.5060005,0.75981086,0.32341808,-0.034731284,-0.035400555,0.63837314,-0.49505174,-0.2666579,-0.30828333,-0.053372186,765.9707,783.69965,827.2161,805.8608,739.7802,0.2694091796875,0.079833984375,0.9630126953125,0.456085205078125,-7.932891845703125,5.03936767578125,1,1.0,1.0,1.0,1.0,10.00
2024-10-11 20:27:54.810,0.050260738,0.78550404,1.069692,1.0548439,0.37115934,0.2871183,0.76764196,0.7710942,0.72756547,0.30338985,0.5060005,0.75981086,0.32341808,-0.034731284,-0.035400555,0.63837314,-0.49505174,-0.2666579,-0.30828333,-0.053372186,776.4469,782.49084,834.4689,805.8608,655.9707,0.2694091796875,0.079833984375,0.9630126953125,0.456085205078125,-7.932891845703125,5.03936767578125,1,1.0,1.0,1.0,1.0,10.00
2024-10-11 20:27:54.811,0.050260738,0.78550404,1.069692,1.0548439,0.37115934,0.2871183,0.76764196,0.7710942,0.72756547,0.30338985,0.5060005,0.75981086,0.32341808,-0.034731284,-0.035400555,0.63837314,-0.49505174,-0.2666579,-0.30828333,-0.053372186,783.69965,779.2674,836.08057,814.7253,643.8828,0.2694091796875,0.079833984375,0.9630126953125,0.456085205078125,-7.932891845703125,5.03936767578125,1,1.0,1.0,1.0,1.0,10.00
2024-10-11 20:27:54.811,0.050260738,0.78550404,1.069692,1.0548439,0.37115934,0.2871183,0.76764196,0.7710942,0.72756547,0.30338985,0.5060005,0.75981086,0.32341808,-0.034731284,-0.035400555,0.63837314,-0.49505174,-0.2666579,-0.30828333,-0.053372186,783.69965,778.0586,836.4835,814.7253,815.12823,0.2694091796875,0.079833984375,0.9630126953125,0.456085205078125,-7.932891845703125,5.03936767578125,1,1.0,1.0,1.0,1.0,10.00
2024-10-11 20:27:54.812,0.050260738,0.78550404,1.069692,1.0548439,0.37115934,0.2871183,0.76764196,0.7710942,0.72756547,0.30338985,0.5060005,0.75981086,0.32341808,-0.034731284,-0.035400555,0.63837314,-0.49505174,-0.2666579,-0.30828333,-0.053372186,782.49084,778.86444,835.6777,809.4872,917.47253,0.2694091796875,0.079833984375,0.9630126953125,0.456085205078125,-7.932891845703125,5.03936767578125,1,1.0,1.0,1.0,1.0,10.00
2024-10-11 20:27:54.812,0.050260738,0.78550404,1.069692,1.0548439,0.37115934,0.2871183,0.76764196,0.7710942,0.72756547,0.30338985,0.5060005,0.75981086,0.32341808,-0.034731284,-0.035400555,0.63837314,-0.49505174,-0.2666579,-0.30828333,-0.053372186,784.5055,778.46155,837.28937,816.337,757.9121,0.2694091796875,0.079833984375,0.9630126953125,0.456085205078125,-7.932891845703125,5.03936767578125,1,1.0,1.0,1.0,1.0,10.00
2024-10-11 20:27:54.813,0.050260738,0.78550404,1.069692,1.0548439,0.37115934,0.2871183,0.76764196,0.7710942,0.72756547,0.30338985,0.5060005,0.75981086,0.32341808,-0.034731284,-0.035400555,0.63837314,-0.49505174,-0.2666579,-0.30828333,-0.053372186,784.10254,781.685,842.52747,816.337,590.696,0.2694091796875,0.079833984375,0.9630126953125,0.456085205078125,-7.932891845703125,5.03936767578125,1,1.0,1.0,1.0,1.0,10.00
2024-10-11 20:27:54.814,0.050260738,0.78550404,1.069692,1.0548439,0.37115934,0.2871183,0.76764196,0.7710942,0.72756547,0.30338985,0.5060005,0.75981086,0.32341808,-0.034731284,-0.035400555,0.63837314,-0.49505174,-0.2666579,-0.30828333,-0.053372186,784.90845,776.8498,842.9304,818.3516,787.72894,0.2694091796875,0.079833984375,0.9630126953125,0.456085205078125,-7.932891845703125,5.03936767578125,1,1.0,1.0,1.0,1.0,10.00
2024-10-11 20:27:54.814,0.050260738,0.78550404,1.069692,1.0548439,0.37115934,0.2871183,0.76764196,0.7710942,0.72756547,0.30338985,0.5060005,0.75981086,0.32341808,-0.034731284,-0.035400555,0.63837314,-0.49505174,-0.2666579,-0.30828333,-0.053372186,786.9231,766.3736,838.0952,826.0073,1102.0146,0.2694091796875,0.079833984375,0.9630126953125,0.456085205078125,-7.932891845703125,5.03936767578125,1,1.0,1.0,1.0,1.0,10.00
2024-10-11 20:27:54.815,0.050260738,0.78550404,1.069692,1.0548439,0.37115934,0.2871183,0.76764196,0.7710942,0.72756547,0.30338985,0.5060005,0.75981086,0.32341808,-0.034731284,-0.035400555,0.63837314,-0.49505174,-0.2666579,-0.30828333,-0.053372186,794.9817,765.9707,838.0952,828.022,773.22345,0.2694091796875,0.079833984375,0.9630126953125,0.456085205078125,-7.932891845703125,5.03936767578125,1,1.0,1.0,1.0,1.0,10.00
2024-10-11 20:27:54.815,0.050260738,0.78550404,1.069692,1.0548439,0.37115934,0.2871183,0.76764196,0.7710942,0.72756547,0.30338985,0.5060005,0.75981086,0.32341808,-0.034731284,-0.035400555,0.63837314,-0.49505174,-0.2666579,-0.30828333,-0.053372186,788.1319,765.16486,841.7216,811.9048,599.5604,0.2694091796875,0.079833984375,0.9630126953125,0.456085205078125,-7.932891845703125,5.03936767578125,1,1.0,1.0,1.0,1.0,10.00
2024-10-11 20:27:54.839,0.050260738,0.78550404,1.069692,1.0548439,0.37115934,0.2871183,0.76764196,0.7710942,0.72756547,0.30338985,0.5060005,0.75981086,0.32341808,-0.034731284,-0.035400555,0.63837314,-0.49505174,-0.2666579,-0.30828333,-0.053372186,783.69965,773.22345,846.1539,798.20514,645.4945,0.277587890625,0.08282470703125,0.9674072265625,1.79443359375,-3.401947021484375,7.4169921875,1,1.0,1.0,1.0,1.0,10.00
2024-10-11 20:27:54.840,0.050260738,0.78550404,1.069692,1.0548439,0.37115934,0.2871183,0.76764196,0.7710942,0.72756547,0.30338985,0.5060005,0.75981086,0.32341808,-0.034731284,-0.035400555,0.63837314,-0.49505174,-0.2666579,-0.30828333,-0.053372186,786.1172,774.83514,850.58606,799.41394,618.0952,0.277587890625,0.08282470703125,0.9674072265625,1.79443359375,-3.401947021484375,7.4169921875,1,1.0,1.0,1.0,1.0,10.00
2024-10-11 20:27:54.841,0.050260738,0.78550404,1.069692,1.0548439,0.37115934,0.2871183,0.76764196,0.7710942,0.72756547,0.30338985,0.5060005,0.75981086,0.32341808,-0.034731284,-0.035400555,0.63837314,-0.49505174,-0.2666579,-0.30828333,-0.053372186,799.41394,765.9707,840.5128,808.68134,670.87915,0.277587890625,0.08282470703125,0.9674072265625,1.79443359375,-3.401947021484375,7.4169921875,1,1.0,1.0,1.0,1.0,10.00
2024-10-11 20:27:54.842,0.050260738,0.78550404,1.069692,1.0548439,0.37115934,0.2871183,0.76764196,0.7710942,0.72756547,0.30338985,0.5060005,0.75981086,0.32341808,-0.034731284,-0.035400555,0.63837314,-0.49505174,-0.2666579,-0.30828333,-0.053372186,807.0696,763.95605,836.08057,821.5751,669.67035,0.277587890625,0.08282470703125,0.9674072265625,1.79443359375,-3.401947021484375,7.4169921875,1,1.0,1.0,1.0,1.0,10.00
2024-10-11 20:27:54.842,0.050260738,0.78550404,1.069692,1.0548439,0.37115934,0.2871183,0.76764196,0.7710942,0.72756547,0.30338985,0.5060005,0.75981086,0.32341808,-0.034731284,-0.035400555,0.63837314,-0.49505174,-0.2666579,-0.30828333,-0.053372186,784.90845,766.3736,841.7216,819.15753,740.989,0.277587890625,0.08282470703125,0.9674072265625,1.79443359375,-3.401947021484375,7.4169921875,1,1.0,1.0,1.0,1.0,10.00
2024-10-11 20:27:54.843,0.050260738,0.78550404,1.069692,1.0548439,0.37115934,0.2871183,0.76764196,0.7710942,0.72756547,0.30338985,0.5060005,0.75981086,0.32341808,-0.034731284,-0.035400555,0.63837314,-0.49505174,-0.2666579,-0.30828333,-0.053372186,765.9707,767.5824,845.7509,815.12823,899.34064,0.277587890625,0.08282470703125,0.9674072265625,1.79443359375,-3.401947021484375,7.4169921875,1,1.0,1.0,1.0,1.0,10.00
2024-10-11 20:27:54.843,0.050260738,0.78550404,1.069692,1.0548439,0.37115934,0.2871183,0.76764196,0.7710942,0.72756547,0.30338985,0.5060005,0.75981086,0.32341808,-0.034731284,-0.035400555,0.63837314,-0.49505174,-0.2666579,-0.30828333,-0.053372186,764.35895,768.3883,844.5421,818.7546,865.4945,0.277587890625,0.08282470703125,0.9674072265625,1.79443359375,-3.401947021484375,7.4169921875,1,1.0,1.0,1.0,1.0,10.00
2024-10-11 20:27:54.844,0.050260738,0.78550404,1.069692,1.0548439,0.37115934,0.2871183,0.76764196,0.7710942,0.72756547,0.30338985,0.5060005,0.75981086,0.32341808,-0.034731284,-0.035400555,0.63837314,-0.49505174,-0.2666579,-0.30828333,-0.053372186,776.4469,767.5824,842.9304,823.9927,807.0696,0.277587890625,0.08282470703125,0.9674072265625,1.79443359375,-3.401947021484375,7.4169921875,1,1.0,1.0,1.0,1.0,10.00
2024-10-11 20:27:54.844,0.050260738,0.78550404,1.069692,1.0548439,0.37115934,0.2871183,0.76764196,0.7710942,0.72756547,0.30338985,0.5060005,0.75981086,0.32341808,-0.034731284,-0.035400555,0.63837314,-0.49505174,-0.2666579,-0.30828333,-0.053372186,786.9231,770.40295,846.55676,827.2161,759.92676,0.277587890625,0.08282470703125,0.9674072265625,1.79443359375,-3.401947021484375,7.4169921875,1,1.0,1.0,1.0,1.0,10.00
2024-10-11 20:27:54.845,0.050260738,0.78550404,1.069692,1.0548439,0.37115934,0.2871183,0.76764196,0.7710942,0.72756547,0.30338985,0.5060005,0.75981086,0.32341808,-0.034731284,-0.035400555,0.63837314,-0.49505174,-0.2666579,-0.30828333,-0.053372186,789.34064,772.8205,843.73627,823.1868,674.90845,0.277587890625,0.08282470703125,0.9674072265625,1.79443359375,-3.401947021484375,7.4169921875,1,1.0,1.0,1.0,1.0,10.00
2024-10-11 20:27:54.846,0.050260738,0.78550404,1.069692,1.0548439,0.37115934,0.2871183,0.76764196,0.7710942,0.72756547,0.30338985,0.5060005,0.75981086,0.32341808,-0.034731284,-0.035400555,0.63837314,-0.49505174,-0.2666579,-0.30828333,-0.053372186,787.326,766.77655,839.707,812.71063,713.5897,0.277587890625,0.08282470703125,0.9674072265625,1.79443359375,-3.401947021484375,7.4169921875,1,1.0,1.0,1.0,1.0,10.00
2024-10-11 20:27:54.846,0.050260738,0.78550404,1.069692,1.0548439,0.37115934,0.2871183,0.76764196,0.7710942,0.72756547,0.30338985,0.5060005,0.75981086,0.32341808,-0.034731284,-0.035400555,0.63837314,-0.49505174,-0.2666579,-0.30828333,-0.053372186,783.2967,770.0,838.9011,803.44324,768.3883,0.277587890625,0.08282470703125,0.9674072265625,1.79443359375,-3.401947021484375,7.4169921875,1,1.0,1.0,1.0,1.0,10.00
2024-10-11 20:27:54.905,0.050260738,0.78550404,1.069692,1.0548439,0.37115934,0.2871183,0.76764196,0.7710942,0.72756547,0.30338985,0.5060005,0.75981086,0.32341808,-0.034731284,-0.035400555,0.63837314,-0.49505174,-0.2666579,-0.30828333,-0.053372186,786.1172,770.0,839.304,813.91943,1093.5531,0.28314208984375,0.09320068359375,0.97113037109375,2.1533203125,1.383209228515625,8.433837890625,1,1.0,1.0,1.0,1.0,10.00
2024-10-11 20:27:54.906,0.050260738,0.78550404,1.069692,1.0548439,0.37115934,0.2871183,0.76764196,0.7710942,0.72756547,0.30338985,0.5060005,0.75981086,0.32341808,-0.034731284,-0.035400555,0.63837314,-0.49505174,-0.2666579,-0.30828333,-0.053372186,791.3553,771.2088,841.31866,819.5604,943.2601,0.28314208984375,0.09320068359375,0.97113037109375,2.1533203125,1.383209228515625,8.433837890625,1,1.0,1.0,1.0,1.0,10.00
2024-10-11 20:27:54.906,0.050260738,0.78550404,1.069692,1.0548439,0.37115934,0.2871183,0.76764196,0.7710942,0.72756547,0.30338985,0.5060005,0.75981086,0.32341808,-0.034731284,-0.035400555,0.63837314,-0.49505174,-0.2666579,-0.30828333,-0.053372186,786.52014,774.43225,838.9011,813.5165,654.7619,0.28314208984375,0.09320068359375,0.97113037109375,2.1533203125,1.383209228515625,8.433837890625,1,1.0,1.0,1.0,1.0,10.00
2024-10-11 20:27:54.907,0.050260738,0.80145353,1.069692,0.9990707,0.37115934,0.30263805,0.76764196,0.8241897,0.72756547,0.3055799,0.5060005,0.75981086,0.32341808,-0.04364,-0.035400555,0.65244466,-0.49505174,-0.27693406,-0.30828333,-0.08452631,781.685,774.43225,842.1245,808.2784,801.4286,0.28314208984375,0.09320068359375,0.97113037109375,2.1533203125,1.383209228515625,8.433837890625,1,1.0,1.0,1.0,1.0,10.00
2024-10-11 20:27:54.912,0.050260738,0.80145353,1.069692,0.9990707,0.37115934,0.30263805,0.76764196,0.8241897,0.72756547,0.3055799,0.5060005,0.75981086,0.32341808,-0.04364,-0.035400555,0.65244466,-0.49505174,-0.27693406,-0.30828333,-0.08452631,802.6374,772.8205,848.97437,821.5751,767.1795,0.28314208984375,0.09320068359375,0.97113037109375,2.1533203125,1.383209228515625,8.433837890625,1,1.0,1.0,1.0,1.0,10.00
2024-10-11 20:27:54.913,0.050260738,0.80145353,1.069692,0.9990707,0.37115934,0.30263805,0.76764196,0.8241897,0.72756547,0.3055799,0.5060005,0.75981086,0.32341808,-0.04364,-0.035400555,0.65244466,-0.49505174,-0.27693406,-0.30828333,-0.08452631,810.696,771.2088,850.18317,823.1868,743.8095,0.28314208984375,0.09320068359375,0.97113037109375,2.1533203125,1.383209228515625,8.433837890625,1,1.0,1.0,1.0,1.0,10.00
2024-10-11 20:27:54.913,0.050260738,0.80145353,1.069692,0.9990707,0.37115934,0.30263805,0.76764196,0.8241897,0.72756547,0.3055799,0.5060005,0.75981086,0.32341808,-0.04364,-0.035400555,0.65244466,-0.49505174,-0.27693406,-0.30828333,-0.08452631,791.75824,774.43225,841.7216,802.6374,918.68134,0.28314208984375,0.09320068359375,0.97113037109375,2.1533203125,1.383209228515625,8.433837890625,1,1.0,1.0,1.0,1.0,10.00
2024-10-11 20:27:54.914,0.050260738,0.80145353,1.069692,0.9990707,0.37115934,0.30263805,0.76764196,0.8241897,0.72756547,0.3055799,0.5060005,0.75981086,0.32341808,-0.04364,-0.035400555,0.65244466,-0.49505174,-0.27693406,-0.30828333,-0.08452631,797.3993,774.83514,835.2747,811.50183,1165.6776,0.28314208984375,0.09320068359375,0.97113037109375,2.1533203125,1.383209228515625,8.433837890625,1,1.0,1.0,1.0,1.0,10.00
2024-10-11 20:27:54.914,0.050260738,0.80145353,1.069692,0.9990707,0.37115934,0.30263805,0.76764196,0.8241897,0.72756547,0.3055799,0.5060005,0.75981086,0.32341808,-0.04364,-0.035400555,0.65244466,-0.49505174,-0.27693406,-0.30828333,-0.08452631,803.0403,774.0293,834.0659,818.7546,1200.3297,0.28314208984375,0.09320068359375,0.97113037109375,2.1533203125,1.383209228515625,8.433837890625,1,1.0,1.0,1.0,1.0,10.00
2024-10-11 20:27:54.915,0.050260738,0.80145353,1.069692,0.9990707,0.37115934,0.30263805,0.76764196,0.8241897,0.72756547,0.3055799,0.5060005,0.75981086,0.32341808,-0.04364,-0.035400555,0.65244466,-0.49505174,-0.27693406,-0.30828333,-0.08452631,790.9524,780.4762,833.663,799.011,784.90845,0.28314208984375,0.09320068359375,0.97113037109375,2.1533203125,1.383209228515625,8.433837890625,1,1.0,1.0,1.0,1.0,10.00
2024-10-11 20:27:54.915,0.050260738,0.80145353,1.069692,0.9990707,0.37115934,0.30263805,0.76764196,0.8241897,0.72756547,0.3055799,0.5060005,0.75981086,0.32341808,-0.04364,-0.035400555,0.65244466,-0.49505174,-0.27693406,-0.30828333,-0.08452631,793.36993,782.8938,834.4689,796.5934,687.3993,0.28314208984375,0.09320068359375,0.97113037109375,2.1533203125,1.383209228515625,8.433837890625,1,1.0,1.0,1.0,1.0,10.00
2024-10-11 20:27:54.916,0.050260738,0.80145353,1.069692,0.9990707,0.37115934,0.30263805,0.76764196,0.8241897,0.72756547,0.3055799,0.5060005,0.75981086,0.32341808,-0.04364,-0.035400555,0.65244466,-0.49505174,-0.27693406,-0.30828333,-0.08452631,802.6374,781.28204,831.6484,809.0842,805.8608,0.28314208984375,0.09320068359375,0.97113037109375,2.1533203125,1.383209228515625,8.433837890625,1,1.0,1.0,1.0,1.0,10.00
2024-10-11 20:27:55.039,0.050260738,0.80145353,1.069692,0.9990707,0.37115934,0.30263805,0.76764196,0.8241897,0.72756547,0.3055799,0.5060005,0.75981086,0.32341808,-0.04364,-0.035400555,0.65244466,-0.49505174,-0.27693406,-0.30828333,-0.08452631,802.23444,780.4762,832.4542,815.12823,803.8461,0.2762451171875,0.09521484375,0.96478271484375,0.04486083984375,5.09918212890625,7.19268798828125,1,1.0,1.0,1.0,1.0,10.00
2024-10-11 20:27:55.040,0.050260738,0.80145353,1.069692,0.9990707,0.37115934,0.30263805,0.76764196,0.8241897,0.72756547,0.3055799,0.5060005,0.75981086,0.32341808,-0.04364,-0.035400555,0.65244466,-0.49505174,-0.27693406,-0.30828333,-0.08452631,803.44324,779.67035,835.2747,805.8608,707.5458,0.2762451171875,0.09521484375,0.96478271484375,0.04486083984375,5.09918212890625,7.19268798828125,1,1.0,1.0,1.0,1.0,10.00
2024-10-11 20:27:55.041,0.050260738,0.80145353,1.069692,0.9990707,0.37115934,0.30263805,0.76764196,0.8241897,0.72756547,0.3055799,0.5060005,0.75981086,0.32341808,-0.04364,-0.035400555,0.65244466,-0.49505174,-0.27693406,-0.30828333,-0.08452631,782.0879,778.46155,834.87177,786.1172,763.1502,0.2762451171875,0.09521484375,0.96478271484375,0.04486083984375,5.09918212890625,7.19268798828125,1,1.0,1.0,1.0,1.0,10.00
2024-10-11 20:27:55.041,0.050260738,0.80145353,1.069692,0.9990707,0.37115934,0.30263805,0.76764196,0.8241897,0.72756547,0.3055799,0.5060005,0.75981086,0.32341808,-0.04364,-0.035400555,0.65244466,-0.49505174,-0.27693406,-0.30828333,-0.08452631,767.1795,774.83514,828.8278,779.2674,1055.2748,0.2762451171875,0.09521484375,0.96478271484375,0.04486083984375,5.09918212890625,7.19268798828125,1,1.0,1.0,1.0,1.0,10.00
2024-10-11 20:27:55.042,0.050260738,0.80145353,1.069692,0.9990707,0.37115934,0.30263805,0.76764196,0.8241897,0.72756547,0.3055799,0.5060005,0.75981086,0.32341808,-0.04364,-0.035400555,0.65244466,-0.49505174,-0.27693406,-0.30828333,-0.08452631,777.25275,775.64105,829.2308,786.1172,945.2747,0.2762451171875,0.09521484375,0.96478271484375,0.04486083984375,5.09918212890625,7.19268798828125,1,1.0,1.0,1.0,1.0,10.00
2024-10-11 20:27:55.043,0.050260738,0.80145353,1.069692,0.9990707,0.37115934,0.30263805,0.76764196,0.8241897,0.72756547,0.3055799,0.5060005,0.75981086,0.32341808,-0.04364,-0.035400555,0.65244466,-0.49505174,-0.27693406,-0.30828333,-0.08452631,770.80585,776.04395,835.2747,780.4762,791.75824,0.2762451171875,0.09521484375,0.96478271484375,0.04486083984375,5.09918212890625,7.19268798828125,1,1.0,1.0,1.0,1.0,10.00
2024-10-11 20:27:55.043,0.050260738,0.80145353,1.069692,0.9990707,0.37115934,0.30263805,0.76764196,0.8241897,0.72756547,0.3055799,0.5060005,0.75981086,0.32341808,-0.04364,-0.035400555,0.65244466,-0.49505174,-0.27693406,-0.30828333,-0.08452631,768.3883,783.2967,834.87177,781.28204,975.4945,0.2762451171875,0.09521484375,0.96478271484375,0.04486083984375,5.09918212890625,7.19268798828125,1,1.0,1.0,1.0,1.0,10.00
2024-10-11 20:27:55.044,0.050260738,0.80145353,1.069692,0.9990707,0.37115934,0.30263805,0.76764196,0.8241897,0.72756547,0.3055799,0.5060005,0.75981086,0.32341808,-0.04364,-0.035400555,0.65244466,-0.49505174,-0.27693406,-0.30828333,-0.08452631,768.7912,787.72894,829.2308,784.10254,1097.1794,0.2762451171875,0.09521484375,0.96478271484375,0.04486083984375,5.09918212890625,7.19268798828125,1,1.0,1.0,1.0,1.0,10.00
2024-10-11 20:27:55.044,0.050260738,0.80145353,1.069692,0.9990707,0.37115934,0.30263805,0.76764196,0.8241897,0.72756547,0.3055799,0.5060005,0.75981086,0.32341808,-0.04364,-0.035400555,0.65244466,-0.49505174,-0.27693406,-0.30828333,-0.08452631,756.30035,784.90845,827.2161,768.7912,819.9634,0.2762451171875,0.09521484375,0.96478271484375,0.04486083984375,5.09918212890625,7.19268798828125,1,1.0,1.0,1.0,1.0,10.00
2024-10-11 20:27:55.045,0.050260738,0.80145353,1.069692,0.9990707,0.37115934,0.30263805,0.76764196,0.8241897,0.72756547,0.3055799,0.5060005,0.75981086,0.32341808,-0.04364,-0.035400555,0.65244466,-0.49505174,-0.27693406,-0.30828333,-0.08452631,757.50916,783.2967,830.0366,764.35895,651.53845,0.2762451171875,0.09521484375,0.96478271484375,0.04486083984375,5.09918212890625,7.19268798828125,1,1.0,1.0,1.0,1.0,10.00
2024-10-11 20:27:55.045,0.050260738,0.80145353,1.069692,0.9990707,0.37115934,0.30263805,0.76764196,0.8241897,0.72756547,0.3055799,0.5060005,0.75981086,0.32341808,-0.04364,-0.035400555,0.65244466,-0.49505174,-0.27693406,-0.30828333,-0.08452631,767.5824,781.28204,830.4396,776.4469,760.32965,0.2762451171875,0.09521484375,0.96478271484375,0.04486083984375,5.09918212890625,7.19268798828125,1,1.0,1.0,1.0,1.0,10.00
2024-10-11 20:27:55.046,0.050260738,0.80145353,1.069692,0.9990707,0.37115934,0.30263805,0.76764196,0.8241897,0.72756547,0.3055799,0.5060005,0.75981086,0.32341808,-0.04364,-0.035400555,0.65244466,-0.49505174,-0.27693406,-0.30828333,-0.08452631,770.80585,778.0586,829.6337,785.7143,923.1135,0.2762451171875,0.09521484375,0.96478271484375,0.04486083984375,5.09918212890625,7.19268798828125,1,1.0,1.0,1.0,1.0,10.00
2024-10-11 20:27:55.047,0.050260738,0.80145353,1.069692,0.9990707,0.37115934,0.30263805,0.76764196,0.8241897,0.72756547,0.3055799,0.5060005,0.75981086,0.32341808,-0.04364,-0.035400555,0.65244466,-0.49505174,-0.27693406,-0.30828333,-0.08452631,770.80585,776.04395,826.4103,782.8938,792.96704,0.2762451171875,0.09521484375,0.96478271484375,0.04486083984375,5.09918212890625,7.19268798828125,1,1.0,1.0,1.0,1.0,10.00
2024-10-11 20:27:55.047,0.050260738,0.80145353,1.069692,0.9990707,0.37115934,0.30263805,0.76764196,0.8241897,0.72756547,0.3055799,0.5060005,0.75981086,0.32341808,-0.04364,-0.035400555,0.65244466,-0.49505174,-0.27693406,-0.30828333,-0.08452631,775.64105,779.67035,826.8132,786.52014,658.3883,0.2762451171875,0.09521484375,0.96478271484375,0.04486083984375,5.09918212890625,7.19268798828125,1,1.0,1.0,1.0,1.0,10.00
2024-10-11 20:27:55.048,0.050260738,0.80145353,1.069692,0.9990707,0.37115934,0.30263805,0.76764196,0.8241897,0.72756547,0.3055799,0.5060005,0.75981086,0.32341808,-0.04364,-0.035400555,0.65244466,-0.49505174,-0.27693406,-0.30828333,-0.08452631,775.2381,781.685,826.0073,789.7436,708.7546,0.2762451171875,0.09521484375,0.96478271484375,0.04486083984375,5.09918212890625,7.19268798828125,1,1.0,1.0,1.0,1.0,10.00
2024-10-11 20:27:55.049,0.050260738,0.80145353,1.069692,0.9990707,0.37115934,0.30263805,0.76764196,0.8241897,0.72756547,0.3055799,0.5060005,0.75981086,0.32341808,-0.04364,-0.035400555,0.65244466,-0.49505174,-0.27693406,-0.30828333,-0.08452631,774.43225,782.8938,821.1722,793.36993,899.7436,0.2762451171875,0.09521484375,0.96478271484375,0.04486083984375,5.09918212890625,7.19268798828125,1,1.0,1.0,1.0,1.0,10.00
2024-10-11 20:27:55.050,0.050260738,0.80145353,1.069692,0.9990707,0.37115934,0.30263805,0.76764196,0.8241897,0.72756547,0.3055799,0.5060005,0.75981086,0.32341808,-0.04364,-0.035400555,0.65244466,-0.49505174,-0.27693406,-0.30828333,-0.08452631,772.8205,784.5055,823.5897,787.72894,817.5458,0.2762451171875,0.09521484375,0.96478271484375,0.04486083984375,5.09918212890625,7.19268798828125,1,1.0,1.0,1.0,1.0,10.00
2024-10-11 20:27:55.050,0.050260738,0.8471848,1.069692,0.96348673,0.37115934,0.33841607,0.76764196,0.8568479,0.72756547,0.3095888,0.5060005,0.75981086,0.32341808,-0.05110088,-0.035400555,0.6421594,-0.49505174,-0.29761285,-0.30828333,-0.09789479,768.3883,787.72894,827.2161,782.8938,736.1539,0.2762451171875,0.09521484375,0.96478271484375,0.04486083984375,5.09918212890625,7.19268798828125,1,1.0,1.0,1.0,1.0,10.00
2024-10-11 20:27:55.055,0.050260738,0.8471848,1.069692,0.96348673,0.37115934,0.33841607,0.76764196,0.8568479,0.72756547,0.3095888,0.5060005,0.75981086,0.32341808,-0.05110088,-0.035400555,0.6421594,-0.49505174,-0.29761285,-0.30828333,-0.09789479,768.7912,784.10254,825.6044,786.52014,1050.4396,0.2762451171875,0.09521484375,0.96478271484375,0.04486083984375,5.09918212890625,7.19268798828125,1,1.0,1.0,1.0,1.0,10.00
2024-10-11 20:27:55.056,0.050260738,0.8471848,1.069692,0.96348673,0.37115934,0.33841607,0.76764196,0.8568479,0.72756547,0.3095888,0.5060005,0.75981086,0.32341808,-0.05110088,-0.035400555,0.6421594,-0.49505174,-0.29761285,-0.30828333,-0.09789479,777.25275,784.10254,827.2161,794.17584,973.47986,0.2762451171875,0.09521484375,0.96478271484375,0.04486083984375,5.09918212890625,7.19268798828125,1,1.0,1.0,1.0,1.0,10.00
2024-10-11 20:27:55.057,0.050260738,0.8471848,1.069692,0.96348673,0.37115934,0.33841607,0.76764196,0.8568479,0.72756547,0.3095888,0.5060005,0.75981086,0.32341808,-0.05110088,-0.035400555,0.6421594,-0.49505174,-0.29761285,-0.30828333,-0.09789479,780.07324,789.7436,822.381,794.17584,708.3516,0.2762451171875,0.09521484375,0.96478271484375,0.04486083984375,5.09918212890625,7.19268798828125,1,1.0,1.0,1.0,1.0,10.00
2024-10-11 20:27:55.057,0.050260738,0.8471848,1.069692,0.96348673,0.37115934,0.33841607,0.76764196,0.8568479,0.72756547,0.3095888,0.5060005,0.75981086,0.32341808,-0.05110088,-0.035400555,0.6421594,-0.49505174,-0.29761285,-0.30828333,-0.09789479,782.0879,791.3553,822.381,793.36993,718.022,0.2762451171875,0.09521484375,0.96478271484375,0.04486083984375,5.09918212890625,7.19268798828125,1,1.0,1.0,1.0,1.0,10.00
2024-10-11 20:27:55.058,0.050260738,0.8471848,1.069692,0.96348673,0.37115934,0.33841607,0.76764196,0.8568479,0.72756547,0.3095888,0.5060005,0.75981086,0.32341808,-0.05110088,-0.035400555,0.6421594,-0.49505174,-0.29761285,-0.30828333,-0.09789479,784.90845,791.3553,825.2015,792.5641,804.2491,0.2762451171875,0.09521484375,0.96478271484375,0.04486083984375,5.09918212890625,7.19268798828125,1,1.0,1.0,1.0,1.0,10.00
2024-10-11 20:27:55.059,0.050260738,0.8471848,1.069692,0.96348673,0.37115934,0.33841607,0.76764196,0.8568479,0.72756547,0.3095888,0.5060005,0.75981086,0.32341808,-0.05110088,-0.035400555,0.6421594,-0.49505174,-0.29761285,-0.30828333,-0.09789479,788.5348,790.14655,817.9487,792.1612,777.25275,0.2762451171875,0.09521484375,0.96478271484375,0.04486083984375,5.09918212890625,7.19268798828125,1,1.0,1.0,1.0,1.0,10.00
2024-10-11 20:27:55.083,0.050260738,0.8471848,1.069692,0.96348673,0.37115934,0.33841607,0.76764196,0.8568479,0.72756547,0.3095888,0.5060005,0.75981086,0.32341808,-0.05110088,-0.035400555,0.6421594,-0.49505174,-0.29761285,-0.30828333,-0.09789479,788.1319,790.54944,811.0989,789.34064,663.22345,0.2606201171875,0.08544921875,0.962158203125,-1.8841552734375,8.673095703125,4.9945068359375,1,1.0,1.0,1.0,1.0,10.00
2024-10-11 20:27:55.084,0.050260738,0.8471848,1.069692,0.96348673,0.37115934,0.33841607,0.76764196,0.8568479,0.72756547,0.3095888,0.5060005,0.75981086,0.32341808,-0.05110088,-0.035400555,0.6421594,-0.49505174,-0.29761285,-0.30828333,-0.09789479,788.5348,791.3553,806.6667,794.57874,692.23444,0.2606201171875,0.08544921875,0.962158203125,-1.8841552734375,8.673095703125,4.9945068359375,1,1.0,1.0,1.0,1.0,10.00
2024-10-11 20:27:55.084,0.050260738,0.8471848,1.069692,0.96348673,0.37115934,0.33841607,0.76764196,0.8568479,0.72756547,0.3095888,0.5060005,0.75981086,0.32341808,-0.05110088,-0.035400555,0.6421594,-0.49505174,-0.29761285,-0.30828333,-0.09789479,788.93774,792.1612,806.26373,800.2198,841.31866,0.2606201171875,0.08544921875,0.962158203125,-1.8841552734375,8.673095703125,4.9945068359375,1,1.0,1.0,1.0,1.0,10.00
2024-10-11 20:27:55.085,0.050260738,0.8471848,1.069692,0.96348673,0.37115934,0.33841607,0.76764196,0.8568479,0.72756547,0.3095888,0.5060005,0.75981086,0.32341808,-0.05110088,-0.035400555,0.6421594,-0.49505174,-0.29761285,-0.30828333,-0.09789479,786.52014,790.9524,811.9048,795.38464,720.0366,0.2606201171875,0.08544921875,0.962158203125,-1.8841552734375,8.673095703125,4.9945068359375,1,1.0,1.0,1.0,1.0,10.00
2024-10-11 20:27:55.086,0.050260738,0.8471848,1.069692,0.96348673,0.37115934,0.33841607,0.76764196,0.8568479,0.72756547,0.3095888,0.5060005,0.75981086,0.32341808,-0.05110088,-0.035400555,0.6421594,-0.49505174,-0.29761285,-0.30828333,-0.09789479,789.7436,784.5055,808.2784,799.41394,607.619,0.2606201171875,0.08544921875,0.962158203125,-1.8841552734375,8.673095703125,4.9945068359375,1,1.0,1.0,1.0,1.0,10.00
2024-10-11 20:27:55.086,0.050260738,0.8471848,1.069692,0.96348673,0.37115934,0.33841607,0.76764196,0.8568479,0.72756547,0.3095888,0.5060005,0.75981086,0.32341808,-0.05110088,-0.035400555,0.6421594,-0.49505174,-0.29761285,-0.30828333,-0.09789479,794.17584,785.31134,811.0989,802.6374,819.9634,0.2606201171875,0.08544921875,0.962158203125,-1.8841552734375,8.673095703125,4.9945068359375,1,1.0,1.0,1.0,1.0,10.00
2024-10-11 20:27:55.087,0.050260738,0.8471848,1.069692,0.96348673,0.37115934,0.33841607,0.76764196,0.8568479,0.72756547,0.3095888,0.5060005,0.75981086,0.32341808,-0.05110088,-0.035400555,0.6421594,-0.49505174,-0.29761285,-0.30828333,-0.09789479,792.1612,788.5348,815.5311,796.99634,1115.7142,0.2606201171875,0.08544921875,0.962158203125,-1.8841552734375,8.673095703125,4.9945068359375,1,1.0,1.0,1.0,1.0,10.00
2024-10-11 20:27:55.088,0.050260738,0.8471848,1.069692,0.96348673,0.37115934,0.33841607,0.76764196,0.8568479,0.72756547,0.3095888,0.5060005,0.75981086,0.32341808,-0.05110088,-0.035400555,0.6421594,-0.49505174,-0.29761285,-0.30828333,-0.09789479,799.81683,792.5641,815.12823,796.1905,891.685,0.2606201171875,0.08544921875,0.962158203125,-1.8841552734375,8.673095703125,4.9945068359375,1,1.0,1.0,1.0,1.0,10.00
2024-10-11 20:27:55.088,0.050260738,0.8471848,1.069692,0.96348673,0.37115934,0.33841607,0.76764196,0.8568479,0.72756547,0.3095888,0.5060005,0.75981086,0.32341808,-0.05110088,-0.035400555,0.6421594,-0.49505174,-0.29761285,-0.30828333,-0.09789479,812.71063,789.7436,813.1135,798.20514,605.2015,0.2606201171875,0.08544921875,0.962158203125,-1.8841552734375,8.673095703125,4.9945068359375,1,1.0,1.0,1.0,1.0,10.00
2024-10-11 20:27:55.089,0.050260738,0.8471848,1.069692,0.96348673,0.37115934,0.33841607,0.76764196,0.8568479,0.72756547,0.3095888,0.5060005,0.75981086,0.32341808,-0.05110088,-0.035400555,0.6421594,-0.49505174,-0.29761285,-0.30828333,-0.09789479,804.65204,789.7436,809.0842,799.81683,798.20514,0.2606201171875,0.08544921875,0.962158203125,-1.8841552734375,8.673095703125,4.9945068359375,1,1.0,1.0,1.0,1.0,10.00
2024-10-11 20:27:55.090,0.050260738,0.8471848,1.069692,0.96348673,0.37115934,0.33841607,0.76764196,0.8568479,0.72756547,0.3095888,0.5060005,0.75981086,0.32341808,-0.05110088,-0.035400555,0.6421594,-0.49505174,-0.29761285,-0.30828333,-0.09789479,792.1612,797.3993,806.26373,798.20514,904.9817,0.2606201171875,0.08544921875,0.962158203125,-1.8841552734375,8.673095703125,4.9945068359375,1,1.0,1.0,1.0,1.0,10.00
2024-10-11 20:27:55.090,0.050260738,0.8471848,1.069692,0.96348673,0.37115934,0.33841607,0.76764196,0.8568479,0.72756547,0.3095888,0.5060005,0.75981086,0.32341808,-0.05110088,-0.035400555,0.6421594,-0.49505174,-0.29761285,-0.30828333,-0.09789479,789.7436,792.1612,803.44324,791.3553,657.5824,0.2606201171875,0.08544921875,0.962158203125,-1.8841552734375,8.673095703125,4.9945068359375,1,1.0,1.0,1.0,1.0,10.00
2024-10-11 20:27:55.174,0.050260738,0.8471848,1.069692,0.96348673,0.37115934,0.33841607,0.76764196,0.8568479,0.72756547,0.3095888,0.5060005,0.75981086,0.32341808,-0.05110088,-0.035400555,0.6421594,-0.49505174,-0.29761285,-0.30828333,-0.09789479,781.685,794.9817,803.44324,785.7143,612.0513,0.23876953125,0.07354736328125,0.98468017578125,-2.28790283203125,12.927398681640625,3.24493408203125,1,1.0,1.0,1.0,1.0,10.00
2024-10-11 20:27:55.175,0.050260738,0.8471848,1.069692,0.96348673,0.37115934,0.33841607,0.76764196,0.8568479,0.72756547,0.3095888,0.5060005,0.75981086,0.32341808,-0.05110088,-0.035400555,0.6421594,-0.49505174,-0.29761285,-0.30828333,-0.09789479,781.685,799.011,799.011,793.36993,761.9414,0.23876953125,0.07354736328125,0.98468017578125,-2.28790283203125,12.927398681640625,3.24493408203125,1,1.0,1.0,1.0,1.0,10.00
2024-10-11 20:27:55.176,0.050260738,0.8471848,1.069692,0.96348673,0.37115934,0.33841607,0.76764196,0.8568479,0.72756547,0.3095888,0.5060005,0.75981086,0.32341808,-0.05110088,-0.035400555,0.6421594,-0.49505174,-0.29761285,-0.30828333,-0.09789479,785.7143,795.78754,795.38464,801.8315,995.2381,0.23876953125,0.07354736328125,0.98468017578125,-2.28790283203125,12.927398681640625,3.24493408203125,1,1.0,1.0,1.0,1.0,10.00
2024-10-11 20:27:55.177,0.050260738,0.8471848,1.069692,0.96348673,0.37115934,0.33841607,0.76764196,0.8568479,0.72756547,0.3095888,0.5060005,0.75981086,0.32341808,-0.05110088,-0.035400555,0.6421594,-0.49505174,-0.29761285,-0.30828333,-0.09789479,780.87915,795.78754,799.011,798.20514,731.7216,0.23876953125,0.07354736328125,0.98468017578125,-2.28790283203125,12.927398681640625,3.24493408203125,1,1.0,1.0,1.0,1.0,10.00
2024-10-11 20:27:55.178,0.050260738,0.8471848,1.069692,0.96348673,0.37115934,0.33841607,0.76764196,0.8568479,0.72756547,0.3095888,0.5060005,0.75981086,0.32341808,-0.05110088,-0.035400555,0.6421594,-0.49505174,-0.29761285,-0.30828333,-0.09789479,780.87915,792.1612,801.4286,798.60803,445.64102,0.23876953125,0.07354736328125,0.98468017578125,-2.28790283203125,12.927398681640625,3.24493408203125,1,1.0,1.0,1.0,1.0,10.00
2024-10-11 20:27:55.178,0.050260738,0.8471848,1.069692,0.96348673,0.37115934,0.33841607,0.76764196,0.8568479,0.72756547,0.3095888,0.5060005,0.75981086,0.32341808,-0.05110088,-0.035400555,0.6421594,-0.49505174,-0.29761285,-0.30828333,-0.09789479,787.326,792.1612,807.47253,802.6374,666.8498,0.23876953125,0.07354736328125,0.98468017578125,-2.28790283203125,12.927398681640625,3.24493408203125,1,1.0,1.0,1.0,1.0,10.00
2024-10-11 20:27:55.179,0.050260738,0.8471848,1.069692,0.96348673,0.37115934,0.33841607,0.76764196,0.8568479,0.72756547,0.3095888,0.5060005,0.75981086,0.32341808,-0.05110088,-0.035400555,0.6421594,-0.49505174,-0.29761285,-0.30828333,-0.09789479,788.5348,788.5348,802.6374,803.8461,805.05493,0.23876953125,0.07354736328125,0.98468017578125,-2.28790283203125,12.927398681640625,3.24493408203125,1,1.0,1.0,1.0,1.0,10.00
2024-10-11 20:27:55.180,0.8548608,0.9128581,1.069692,0.9519558,0.37920317,0.39368397,0.76764196,0.8644286,0.61294806,0.3437461,0.5060005,0.75981086,0.62035483,-0.0512782,-0.035400555,0.61829674,-0.0077280127,-0.31200033,-0.30828333,-0.093245186,790.9524,784.90845,802.23444,797.3993,589.0842,0.23876953125,0.07354736328125,0.98468017578125,-2.28790283203125,12.927398681640625,3.24493408203125,1,1.0,1.0,1.0,1.0,10.00
2024-10-11 20:27:55.185,0.8548608,0.9128581,1.069692,0.9519558,0.37920317,0.39368397,0.76764196,0.8644286,0.61294806,0.3437461,0.5060005,0.75981086,0.62035483,-0.0512782,-0.035400555,0.61829674,-0.0077280127,-0.31200033,-0.30828333,-0.093245186,788.1319,785.31134,811.9048,791.3553,626.55676,0.23876953125,0.07354736328125,0.98468017578125,-2.28790283203125,12.927398681640625,3.24493408203125,1,1.0,1.0,1.0,1.0,10.00
2024-10-11 20:27:55.185,0.8548608,0.9128581,1.069692,0.9519558,0.37920317,0.39368397,0.76764196,0.8644286,0.61294806,0.3437461,0.5060005,0.75981086,0.62035483,-0.0512782,-0.035400555,0.61829674,-0.0077280127,-0.31200033,-0.30828333,-0.093245186,786.1172,784.10254,812.3077,798.20514,1008.5348,0.23876953125,0.07354736328125,0.98468017578125,-2.28790283203125,12.927398681640625,3.24493408203125,1,1.0,1.0,1.0,1.0,10.00
2024-10-11 20:27:55.186,0.8548608,0.9128581,1.069692,0.9519558,0.37920317,0.39368397,0.76764196,0.8644286,0.61294806,0.3437461,0.5060005,0.75981086,0.62035483,-0.0512782,-0.035400555,0.61829674,-0.0077280127,-0.31200033,-0.30828333,-0.093245186,792.5641,788.5348,809.4872,805.8608,988.3883,0.23876953125,0.07354736328125,0.98468017578125,-2.28790283203125,12.927398681640625,3.24493408203125,1,1.0,1.0,1.0,1.0,10.00
2024-10-11 20:27:55.187,0.8548608,0.9128581,1.069692,0.9519558,0.37920317,0.39368397,0.76764196,0.8644286,0.61294806,0.3437461,0.5060005,0.75981086,0.62035483,-0.0512782,-0.035400555,0.61829674,-0.0077280127,-0.31200033,-0.30828333,-0.093245186,790.9524,788.93774,805.4579,799.011,796.5934,0.23876953125,0.07354736328125,0.98468017578125,-2.28790283203125,12.927398681640625,3.24493408203125,1,1.0,1.0,1.0,1.0,10.00
2024-10-11 20:27:55.212,0.8548608,0.9128581,1.069692,0.9519558,0.37920317,0.39368397,0.76764196,0.8644286,0.61294806,0.3437461,0.5060005,0.75981086,0.62035483,-0.0512782,-0.035400555,0.61829674,-0.0077280127,-0.31200033,-0.30828333,-0.093245186,789.34064,782.8938,800.6227,794.57874,714.3956,0.21624755859375,0.06915283203125,0.989990234375,-2.130889892578125,18.265838623046875,3.730926513671875,1,1.0,1.0,1.0,1.0,10.00
2024-10-11 20:27:55.213,0.8548608,0.9128581,1.069692,0.9519558,0.37920317,0.39368397,0.76764196,0.8644286,0.61294806,0.3437461,0.5060005,0.75981086,0.62035483,-0.0512782,-0.035400555,0.61829674,-0.0077280127,-0.31200033,-0.30828333,-0.093245186,817.1429,785.31134,799.81683,823.5897,946.4835,0.21624755859375,0.06915283203125,0.989990234375,-2.130889892578125,18.265838623046875,3.730926513671875,1,1.0,1.0,1.0,1.0,10.00
2024-10-11 20:27:55.213,0.8548608,0.9128581,1.069692,0.9519558,0.37920317,0.39368397,0.76764196,0.8644286,0.61294806,0.3437461,0.5060005,0.75981086,0.62035483,-0.0512782,-0.035400555,0.61829674,-0.0077280127,-0.31200033,-0.30828333,-0.093245186,809.4872,794.17584,809.0842,830.0366,948.49817,0.21624755859375,0.06915283203125,0.989990234375,-2.130889892578125,18.265838623046875,3.730926513671875,1,1.0,1.0,1.0,1.0,10.00
2024-10-11 20:27:55.214,0.8548608,0.9128581,1.069692,0.9519558,0.37920317,0.39368397,0.76764196,0.8644286,0.61294806,0.3437461,0.5060005,0.75981086,0.62035483,-0.0512782,-0.035400555,0.61829674,-0.0077280127,-0.31200033,-0.30828333,-0.093245186,748.24176,801.4286,802.6374,768.3883,673.69965,0.21624755859375,0.06915283203125,0.989990234375,-2.130889892578125,18.265838623046875,3.730926513671875,1,1.0,1.0,1.0,1.0,10.00
2024-10-11 20:27:55.215,0.8548608,0.9128581,1.069692,0.9519558,0.37920317,0.39368397,0.76764196,0.8644286,0.61294806,0.3437461,0.5060005,0.75981086,0.62035483,-0.0512782,-0.035400555,0.61829674,-0.0077280127,-0.31200033,-0.30828333,-0.093245186,738.97437,794.17584,799.81683,749.45056,761.9414,0.21624755859375,0.06915283203125,0.989990234375,-2.130889892578125,18.265838623046875,3.730926513671875,1,1.0,1.0,1.0,1.0,10.00
2024-10-11 20:27:55.215,0.8548608,0.9128581,1.069692,0.9519558,0.37920317,0.39368397,0.76764196,0.8644286,0.61294806,0.3437461,0.5060005,0.75981086,0.62035483,-0.0512782,-0.035400555,0.61829674,-0.0077280127,-0.31200033,-0.30828333,-0.093245186,750.2564,786.1172,809.4872,764.7619,1223.2968,0.21624755859375,0.06915283203125,0.989990234375,-2.130889892578125,18.265838623046875,3.730926513671875,1,1.0,1.0,1.0,1.0,10.00
2024-10-11 20:27:55.216,0.8548608,0.9128581,1.069692,0.9519558,0.37920317,0.39368397,0.76764196,0.8644286,0.61294806,0.3437461,0.5060005,0.75981086,0.62035483,-0.0512782,-0.035400555,0.61829674,-0.0077280127,-0.31200033,-0.30828333,-0.093245186,730.5128,792.1612,804.2491,746.2271,1104.0293,0.21624755859375,0.06915283203125,0.989990234375,-2.130889892578125,18.265838623046875,3.730926513671875,1,1.0,1.0,1.0,1.0,10.00
2024-10-11 20:27:55.216,0.8548608,0.9128581,1.069692,0.9519558,0.37920317,0.39368397,0.76764196,0.8644286,0.61294806,0.3437461,0.5060005,0.75981086,0.62035483,-0.0512782,-0.035400555,0.61829674,-0.0077280127,-0.31200033,-0.30828333,-0.093245186,724.87177,796.1905,801.8315,738.5714,709.5604,0.21624755859375,0.06915283203125,0.989990234375,-2.130889892578125,18.265838623046875,3.730926513671875,1,1.0,1.0,1.0,1.0,10.00
2024-10-11 20:27:55.217,0.8548608,0.9128581,1.069692,0.9519558,0.37920317,0.39368397,0.76764196,0.8644286,0.61294806,0.3437461,0.5060005,0.75981086,0.62035483,-0.0512782,-0.035400555,0.61829674,-0.0077280127,-0.31200033,-0.30828333,-0.093245186,724.0659,791.75824,807.0696,743.00366,695.8608,0.21624755859375,0.06915283203125,0.989990234375,-2.130889892578125,18.265838623046875,3.730926513671875,1,1.0,1.0,1.0,1.0,10.00
2024-10-11 20:27:55.218,0.8548608,0.9128581,1.069692,0.9519558,0.37920317,0.39368397,0.76764196,0.8644286,0.61294806,0.3437461,0.5060005,0.75981086,0.62035483,-0.0512782,-0.035400555,0.61829674,-0.0077280127,-0.31200033,-0.30828333,-0.093245186,702.71063,784.90845,799.011,723.663,719.6337,0.21624755859375,0.06915283203125,0.989990234375,-2.130889892578125,18.265838623046875,3.730926513671875,1,1.0,1.0,1.0,1.0,10.00
