TimeStamp,Delta_TP9,Delta_AF7,Delta_AF8,Delta_TP10,Theta_TP9,Theta_AF7,Theta_AF8,Theta_TP10,Alpha_TP9,Alpha_AF7,Alpha_AF8,Alpha_TP10,Beta_TP9,Beta_AF7,Beta_AF8,Beta_TP10,Gamma_TP9,Gamma_AF7,Gamma_AF8,Gamma_TP10,RAW_TP9,RAW_AF7,RAW_AF8,RAW_TP10,AUX_RIGHT,Accelerometer_X,Accelerometer_Y,Accelerometer_Z,Gyro_X,Gyro_Y,Gyro_Z,HeadBandOn,HSI_TP9,HSI_AF7,HSI_AF8,HSI_TP10,Battery,Elements
2024-10-11 20:21:20.720,0.76588243,0.9112366,0.8127096,0.8114598,0.45364344,0.782154,0.30647925,0.14673063,0.41685864,0.6385842,0.17898661,0.5747402,0.6457035,0.40225047,0.04075885,0.52843326,-0.25685045,0.07857812,-0.30083847,-0.17260931,761.13556,809.89014,771.2088,793.7729,882.4176,-0.17547607421875,0.1014404296875,0.98736572265625,0.052337646484375,-1.891632080078125,-0.889739990234375,1,1.0,1.0,1.0,1.0,10.00
2024-10-11 20:21:20.721,0.76588243,0.9112366,0.8127096,0.8114598,0.45364344,0.782154,0.30647925,0.14673063,0.41685864,0.6385842,0.17898661,0.5747402,0.6457035,0.40225047,0.04075885,0.52843326,-0.25685045,0.07857812,-0.30083847,-0.17260931,803.8461,798.20514,781.28204,902.96704,949.304,-0.17547607421875,0.1014404296875,0.98736572265625,0.052337646484375,-1.891632080078125,-0.889739990234375,1,1.0,1.0,1.0,1.0,10.00
2024-10-11 20:21:20.722,0.76588243,0.9112366,0.8127096,0.8114598,0.45364344,0.782154,0.30647925,0.14673063,0.41685864,0.6385842,0.17898661,0.5747402,0.6457035,0.40225047,0.04075885,0.52843326,-0.25685045,0.07857812,-0.30083847,-0.17260931,782.8938,786.9231,832.4542,799.81683,753.8828,-0.17547607421875,0.1014404296875,0.98736572265625,0.052337646484375,-1.891632080078125,-0.889739990234375,1,1.0,1.0,1.0,1.0,10.00
2024-10-11 20:21:20.723,0.76588243,0.9112366,0.8127096,0.8114598,0.45364344,0.782154,0.30647925,0.14673063,0.41685864,0.6385842,0.17898661,0.5747402,0.6457035,0.40225047,0.04075885,0.52843326,-0.25685045,0.07857812,-0.30083847,-0.17260931,722.8571,786.1172,832.8571,745.42126,665.2381,-0.17547607421875,0.1014404296875,0.98736572265625,0.052337646484375,-1.891632080078125,-0.889739990234375,1,1.0,1.0,1.0,1.0,10.00
2024-10-11 20:21:20.723,0.76588243,0.9112366,0.8127096,0.8114598,0.45364344,0.782154,0.30647925,0.14673063,0.41685864,0.6385842,0.17898661,0.5747402,0.6457035,0.40225047,0.04075885,0.52843326,-0.25685045,0.07857812,-0.30083847,-0.17260931,776.4469,793.7729,793.36993,857.4359,766.77655,-0.17547607421875,0.1014404296875,0.98736572265625,0.052337646484375,-1.891632080078125,-0.889739990234375,1,1.0,1.0,1.0,1.0,10.00
2024-10-11 20:21:20.724,0.76588243,0.91070515,0.8127096,0.8114598,0.45364344,0.78006405,0.30647925,0.14673063,0.41685864,0.6403394,0.17898661,0.5747402,0.6457035,0.46390238,0.04075885,0.52843326,-0.25685045,0.16813159,-0.30083847,-0.17260931,788.5348,788.93774,826.0073,835.6777,875.9707,-0.17547607421875,0.1014404296875,0.98736572265625,0.052337646484375,-1.891632080078125,-0.889739990234375,1,1.0,1.0,1.0,1.0,10.00
2024-10-11 20:21:20.729,0.76588243,0.91070515,0.8127096,0.8114598,0.45364344,0.78006405,0.30647925,0.14673063,0.41685864,0.6403394,0.17898661,0.5747402,0.6457035,0.46390238,0.04075885,0.52843326,-0.25685045,0.16813159,-0.30083847,-0.17260931,772.01465,762.74725,819.9634,815.5311,837.28937,-0.17547607421875,0.1014404296875,0.98736572265625,0.052337646484375,-1.891632080078125,-0.889739990234375,1,1.0,1.0,1.0,1.0,10.00
2024-10-11 20:21:20.730,0.76588243,0.91070515,0.8127096,0.8114598,0.45364344,0.78006405,0.30647925,0.14673063,0.41685864,0.6403394,0.17898661,0.5747402,0.6457035,0.46390238,0.04075885,0.52843326,-0.25685045,0.16813159,-0.30083847,-0.17260931,791.75824,780.87915,817.9487,825.2015,694.2491,-0.17547607421875,0.1014404296875,0.98736572265625,0.052337646484375,-1.891632080078125,-0.889739990234375,1,1.0,1.0,1.0,1.0,10.00
2024-10-11 20:21:20.731,0.76588243,0.91070515,0.8127096,0.8114598,0.45364344,0.78006405,0.30647925,0.14673063,0.41685864,0.6403394,0.17898661,0.5747402,0.6457035,0.46390238,0.04075885,0.52843326,-0.25685045,0.16813159,-0.30083847,-0.17260931,788.1319,791.75824,828.8278,785.31134,724.87177,-0.17547607421875,0.1014404296875,0.98736572265625,0.052337646484375,-1.891632080078125,-0.889739990234375,1,1.0,1.0,1.0,1.0,10.00
2024-10-11 20:21:20.731,0.76588243,0.91070515,0.8127096,0.8114598,0.45364344,0.78006405,0.30647925,0.14673063,0.41685864,0.6403394,0.17898661,0.5747402,0.6457035,0.46390238,0.04075885,0.52843326,-0.25685045,0.16813159,-0.30083847,-0.17260931,812.71063,783.69965,800.6227,794.17584,828.4249,-0.17547607421875,0.1014404296875,0.98736572265625,0.052337646484375,-1.891632080078125,-0.889739990234375,1,1.0,1.0,1.0,1.0,10.00
2024-10-11 20:21:20.732,0.76588243,0.91070515,0.8127096,0.8114598,0.45364344,0.78006405,0.30647925,0.14673063,0.41685864,0.6403394,0.17898661,0.5747402,0.6457035,0.46390238,0.04075885,0.52843326,-0.25685045,0.16813159,-0.30083847,-0.17260931,782.0879,792.5641,830.0366,817.5458,729.707,-0.17547607421875,0.1014404296875,0.98736572265625,0.052337646484375,-1.891632080078125,-0.889739990234375,1,1.0,1.0,1.0,1.0,10.00
2024-10-11 20:21:20.733,0.76588243,0.91070515,0.8127096,0.8114598,0.45364344,0.78006405,0.30647925,0.14673063,0.41685864,0.6403394,0.17898661,0.5747402,0.6457035,0.46390238,0.04075885,0.52843326,-0.25685045,0.16813159,-0.30083847,-0.17260931,718.4249,798.20514,836.8865,799.011,678.1319,-0.17547607421875,0.1014404296875,0.98736572265625,0.052337646484375,-1.891632080078125,-0.889739990234375,1,1.0,1.0,1.0,1.0,10.00
2024-10-11 20:21:20.802,0.76588243,0.91070515,0.8127096,0.8114598,0.45364344,0.78006405,0.30647925,0.14673063,0.41685864,0.6403394,0.17898661,0.5747402,0.6457035,0.46390238,0.04075885,0.52843326,-0.25685045,0.16813159,-0.30083847,-0.17260931,782.0879,764.35895,857.8388,797.3993,895.31134,-0.17547607421875,0.1014404296875,0.98736572265625,0.052337646484375,-1.891632080078125,-0.889739990234375,1,1.0,1.0,1.0,1.0,10.00
2024-10-11 20:21:20.803,0.76588243,0.91070515,0.8127096,0.8114598,0.45364344,0.78006405,0.30647925,0.14673063,0.41685864,0.6403394,0.17898661,0.5747402,0.6457035,0.46390238,0.04075885,0.52843326,-0.25685045,0.16813159,-0.30083847,-0.17260931,835.2747,767.1795,841.7216,873.5531,984.35895,-0.17547607421875,0.1014404296875,0.98736572265625,0.052337646484375,-1.891632080078125,-0.889739990234375,1,1.0,1.0,1.0,1.0,10.00
2024-10-11 20:21:20.804,0.76588243,0.91070515,0.8127096,0.8114598,0.45364344,0.78006405,0.30647925,0.14673063,0.41685864,0.6403394,0.17898661,0.5747402,0.6457035,0.46390238,0.04075885,0.52843326,-0.25685045,0.16813159,-0.30083847,-0.17260931,767.1795,797.8022,798.20514,852.6007,820.3663,-0.17547607421875,0.1014404296875,0.98736572265625,0.052337646484375,-1.891632080078125,-0.889739990234375,1,1.0,1.0,1.0,1.0,10.00
2024-10-11 20:21:20.804,0.76588243,0.91070515,0.8127096,0.8114598,0.45364344,0.78006405,0.30647925,0.14673063,0.41685864,0.6403394,0.17898661,0.5747402,0.6457035,0.46390238,0.04075885,0.52843326,-0.25685045,0.16813159,-0.30083847,-0.17260931,736.1539,790.54944,815.9341,805.4579,806.26373,-0.17547607421875,0.1014404296875,0.98736572265625,0.052337646484375,-1.891632080078125,-0.889739990234375,1,1.0,1.0,1.0,1.0,10.00
2024-10-11 20:21:20.805,0.76588243,0.91070515,0.8127096,0.8114598,0.45364344,0.78006405,0.30647925,0.14673063,0.41685864,0.6403394,0.17898661,0.5747402,0.6457035,0.46390238,0.04075885,0.52843326,-0.25685045,0.16813159,-0.30083847,-0.17260931,865.09155,759.12085,838.49817,863.0769,795.38464,-0.17547607421875,0.1014404296875,0.98736572265625,0.052337646484375,-1.891632080078125,-0.889739990234375,1,1.0,1.0,1.0,1.0,10.00
2024-10-11 20:21:20.806,0.76588243,0.91070515,0.8127096,0.8114598,0.45364344,0.78006405,0.30647925,0.14673063,0.41685864,0.6403394,0.17898661,0.5747402,0.6457035,0.46390238,0.04075885,0.52843326,-0.25685045,0.16813159,-0.30083847,-0.17260931,803.0403,776.04395,829.6337,854.21246,1041.978,-0.17547607421875,0.1014404296875,0.98736572265625,0.052337646484375,-1.891632080078125,-0.889739990234375,1,1.0,1.0,1.0,1.0,10.00
2024-10-11 20:21:20.806,0.76588243,0.91070515,0.8127096,0.8114598,0.45364344,0.78006405,0.30647925,0.14673063,0.41685864,0.6403394,0.17898661,0.5747402,0.6457035,0.46390238,0.04075885,0.52843326,-0.25685045,0.16813159,-0.30083847,-0.17260931,758.315,784.10254,802.23444,815.5311,1123.773,-0.17547607421875,0.1014404296875,0.98736572265625,0.052337646484375,-1.891632080078125,-0.889739990234375,1,1.0,1.0,1.0,1.0,10.00
2024-10-11 20:21:20.807,0.76588243,0.91070515,0.8127096,0.8114598,0.45364344,0.78006405,0.30647925,0.14673063,0.41685864,0.6403394,0.17898661,0.5747402,0.6457035,0.46390238,0.04075885,0.52843326,-0.25685045,0.16813159,-0.30083847,-0.17260931,844.1392,767.1795,803.8461,847.3626,911.02563,-0.17547607421875,0.1014404296875,0.98736572265625,0.052337646484375,-1.891632080078125,-0.889739990234375,1,1.0,1.0,1.0,1.0,10.00
2024-10-11 20:21:20.808,0.76588243,0.91070515,0.8127096,0.8114598,0.45364344,0.78006405,0.30647925,0.14673063,0.41685864,0.6403394,0.17898661,0.5747402,0.6457035,0.46390238,0.04075885,0.52843326,-0.25685045,0.16813159,-0.30083847,-0.17260931,814.7253,797.8022,834.0659,824.7985,1024.249,-0.17547607421875,0.1014404296875,0.98736572265625,0.052337646484375,-1.891632080078125,-0.889739990234375,1,1.0,1.0,1.0,1.0,10.00
2024-10-11 20:21:20.809,0.76588243,0.91070515,0.8127096,0.8114598,0.45364344,0.78006405,0.30647925,0.14673063,0.41685864,0.6403394,0.17898661,0.5747402,0.6457035,0.46390238,0.04075885,0.52843326,-0.25685045,0.16813159,-0.30083847,-0.17260931,768.7912,807.8755,817.9487,749.85345,951.7216,-0.17547607421875,0.1014404296875,0.98736572265625,0.052337646484375,-1.891632080078125,-0.889739990234375,1,1.0,1.0,1.0,1.0,10.00
2024-10-11 20:21:20.809,0.76588243,0.91070515,0.8127096,0.8114598,0.45364344,0.78006405,0.30647925,0.14673063,0.41685864,0.6403394,0.17898661,0.5747402,0.6457035,0.46390238,0.04075885,0.52843326,-0.25685045,0.16813159,-0.30083847,-0.17260931,801.02563,782.8938,829.2308,807.0696,716.4103,-0.17547607421875,0.1014404296875,0.98736572265625,0.052337646484375,-1.891632080078125,-0.889739990234375,1,1.0,1.0,1.0,1.0,10.00
2024-10-11 20:21:20.810,0.76588243,0.91070515,0.8127096,0.8114598,0.45364344,0.78006405,0.30647925,0.14673063,0.41685864,0.6403394,0.17898661,0.5747402,0.6457035,0.46390238,0.04075885,0.52843326,-0.25685045,0.16813159,-0.30083847,-0.17260931,834.0659,793.7729,813.5165,881.2088,752.674,-0.17547607421875,0.1014404296875,0.98736572265625,0.052337646484375,-1.891632080078125,-0.889739990234375,1,1.0,1.0,1.0,1.0,10.00
2024-10-11 20:21:20.832,0.76588243,0.91070515,0.8127096,0.8114598,0.45364344,0.78006405,0.30647925,0.14673063,0.41685864,0.6403394,0.17898661,0.5747402,0.6457035,0.46390238,0.04075885,0.52843326,-0.25685045,0.16813159,-0.30083847,-0.17260931,801.8315,782.49084,783.2967,860.65936,740.989,-0.1741943359375,0.107666015625,0.98321533203125,0.037384033203125,-2.25799560546875,0.22430419921875,1,1.0,1.0,1.0,1.0,10.00
2024-10-11 20:21:20.834,0.76588243,0.91070515,0.8127096,0.8114598,0.45364344,0.78006405,0.30647925,0.14673063,0.41685864,0.6403394,0.17898661,0.5747402,0.6457035,0.46390238,0.04075885,0.52843326,-0.25685045,0.16813159,-0.30083847,-0.17260931,836.8865,772.8205,794.9817,887.6557,668.86444,-0.1741943359375,0.107666015625,0.98321533203125,0.037384033203125,-2.25799560546875,0.22430419921875,1,1.0,1.0,1.0,1.0,10.00
2024-10-11 20:21:20.834,0.76588243,0.91070515,0.8127096,0.8114598,0.45364344,0.78006405,0.30647925,0.14673063,0.41685864,0.6403394,0.17898661,0.5747402,0.6457035,0.46390238,0.04075885,0.52843326,-0.25685045,0.16813159,-0.30083847,-0.17260931,803.0403,801.02563,789.7436,842.9304,686.99634,-0.1741943359375,0.107666015625,0.98321533203125,0.037384033203125,-2.25799560546875,0.22430419921875,1,1.0,1.0,1.0,1.0,10.00
2024-10-11 20:21:20.835,0.76588243,0.91070515,0.8127096,0.8114598,0.45364344,0.78006405,0.30647925,0.14673063,0.41685864,0.6403394,0.17898661,0.5747402,0.6457035,0.46390238,0.04075885,0.52843326,-0.25685045,0.16813159,-0.30083847,-0.17260931,782.49084,812.71063,789.34064,802.6374,772.4176,-0.1741943359375,0.107666015625,0.98321533203125,0.037384033203125,-2.25799560546875,0.22430419921875,1,1.0,1.0,1.0,1.0,10.00
2024-10-11 20:21:20.836,0.76588243,0.91070515,0.8127096,0.8114598,0.45364344,0.78006405,0.30647925,0.14673063,0.41685864,0.6403394,0.17898661,0.5747402,0.6457035,0.46390238,0.04075885,0.52843326,-0.25685045,0.16813159,-0.30083847,-0.17260931,832.8571,793.7729,806.6667,826.0073,814.7253,-0.1741943359375,0.107666015625,0.98321533203125,0.037384033203125,-2.25799560546875,0.22430419921875,1,1.0,1.0,1.0,1.0,10.00
2024-10-11 20:21:20.836,0.76588243,0.91070515,0.8127096,0.8114598,0.45364344,0.78006405,0.30647925,0.14673063,0.41685864,0.6403394,0.17898661,0.5747402,0.6457035,0.46390238,0.04075885,0.52843326,-0.25685045,0.16813159,-0.30083847,-0.17260931,801.4286,792.5641,838.9011,836.4835,776.8498,-0.1741943359375,0.107666015625,0.98321533203125,0.037384033203125,-2.25799560546875,0.22430419921875,1,1.0,1.0,1.0,1.0,10.00
2024-10-11 20:21:20.837,0.76588243,0.91070515,0.8127096,0.8114598,0.45364344,0.78006405,0.30647925,0.14673063,0.41685864,0.6403394,0.17898661,0.5747402,0.6457035,0.46390238,0.04075885,0.52843326,-0.25685045,0.16813159,-0.30083847,-0.17260931,780.07324,770.0,843.73627,791.75824,684.17584,-0.1741943359375,0.107666015625,0.98321533203125,0.037384033203125,-2.25799560546875,0.22430419921875,1,1.0,1.0,1.0,1.0,10.00
2024-10-11 20:21:20,,,,,,,,,,,,,,,,,,,,,,,,,,,,,,,,,,,,,,/muse/elements/jaw_clench
2024-10-11 20:21:20.838,0.76588243,0.9100642,0.8127096,0.8114598,0.45364344,0.7812231,0.30647925,0.14673063,0.41685864,0.6372919,0.17898661,0.5747402,0.6457035,0.5243932,0.04075885,0.52843326,-0.25685045,0.2503033,-0.30083847,-0.17260931,830.84247,764.35895,808.68134,799.41394,987.5824,-0.1741943359375,0.107666015625,0.98321533203125,0.037384033203125,-2.25799560546875,0.22430419921875,1,1.0,1.0,1.0,1.0,10.00
2024-10-11 20:21:20.854,0.76588243,0.9100642,0.8127096,0.8114598,0.45364344,0.7812231,0.30647925,0.14673063,0.41685864,0.6372919,0.17898661,0.5747402,0.6457035,0.5243932,0.04075885,0.52843326,-0.25685045,0.2503033,-0.30083847,-0.17260931,814.3223,780.07324,822.7839,819.9634,1060.9158,-0.1741943359375,0.107666015625,0.98321533203125,0.037384033203125,-2.25799560546875,0.22430419921875,1,1.0,1.0,1.0,1.0,10.00
2024-10-11 20:21:20.855,0.76588243,0.9100642,0.8127096,0.8114598,0.45364344,0.7812231,0.30647925,0.14673063,0.41685864,0.6372919,0.17898661,0.5747402,0.6457035,0.5243932,0.04075885,0.52843326,-0.25685045,0.2503033,-0.30083847,-0.17260931,780.87915,788.5348,813.1135,853.00366,608.4249,-0.1741943359375,0.107666015625,0.98321533203125,0.037384033203125,-2.25799560546875,0.22430419921875,1,1.0,1.0,1.0,1.0,10.00
2024-10-11 20:21:20.855,0.76588243,0.9100642,0.8127096,0.8114598,0.45364344,0.7812231,0.30647925,0.14673063,0.41685864,0.6372919,0.17898661,0.5747402,0.6457035,0.5243932,0.04075885,0.52843326,-0.25685045,0.2503033,-0.30083847,-0.17260931,782.0879,811.0989,787.326,852.1978,528.24176,-0.1741943359375,0.107666015625,0.98321533203125,0.037384033203125,-2.25799560546875,0.22430419921875,1,1.0,1.0,1.0,1.0,10.00
2024-10-11 20:21:20.856,0.76588243,0.9100642,0.8127096,0.8114598,0.45364344,0.7812231,0.30647925,0.14673063,0.41685864,0.6372919,0.17898661,0.5747402,0.6457035,0.5243932,0.04075885,0.52843326,-0.25685045,0.2503033,-0.30083847,-0.17260931,770.80585,798.20514,802.6374,844.94507,839.304,-0.1741943359375,0.107666015625,0.98321533203125,0.037384033203125,-2.25799560546875,0.22430419921875,1,1.0,1.0,1.0,1.0,10.00
2024-10-11 20:21:20.857,0.76588243,0.9100642,0.8127096,0.8114598,0.45364344,0.7812231,0.30647925,0.14673063,0.41685864,0.6372919,0.17898661,0.5747402,0.6457035,0.5243932,0.04075885,0.52843326,-0.25685045,0.2503033,-0.30083847,-0.17260931,813.1135,796.1905,788.93774,868.315,915.05493,-0.1754150390625,0.1092529296875,0.9989013671875,-0.321502685546875,-2.205657958984375,0.28411865234375,1,1.0,1.0,1.0,1.0,10.00
2024-10-11 20:21:20.858,0.76588243,0.9100642,0.8127096,0.8114598,0.45364344,0.7812231,0.30647925,0.14673063,0.41685864,0.6372919,0.17898661,0.5747402,0.6457035,0.5243932,0.04075885,0.52843326,-0.25685045,0.2503033,-0.30083847,-0.17260931,857.03296,796.1905,816.7399,826.8132,592.71063,-0.1754150390625,0.1092529296875,0.9989013671875,-0.321502685546875,-2.205657958984375,0.28411865234375,1,1.0,1.0,1.0,1.0,10.00
2024-10-11 20:21:20.859,0.76588243,0.9100642,0.8127096,0.8114598,0.45364344,0.7812231,0.30647925,0.14673063,0.41685864,0.6372919,0.17898661,0.5747402,0.6457035,0.5243932,0.04075885,0.52843326,-0.25685045,0.2503033,-0.30083847,-0.17260931,841.7216,792.5641,818.3516,828.4249,618.0952,-0.1754150390625,0.1092529296875,0.9989013671875,-0.321502685546875,-2.205657958984375,0.28411865234375,1,1.0,1.0,1.0,1.0,10.00
2024-10-11 20:21:20.859,0.76588243,0.9100642,0.8127096,0.8114598,0.45364344,0.7812231,0.30647925,0.14673063,0.41685864,0.6372919,0.17898661,0.5747402,0.6457035,0.5243932,0.04075885,0.52843326,-0.25685045,0.2503033,-0.30083847,-0.17260931,803.0403,790.54944,817.9487,838.49817,799.41394,-0.1754150390625,0.1092529296875,0.9989013671875,-0.321502685546875,-2.205657958984375,0.28411865234375,1,1.0,1.0,1.0,1.0,10.00
2024-10-11 20:21:20.860,0.76588243,0.9100642,0.8127096,0.8114598,0.45364344,0.7812231,0.30647925,0.14673063,0.41685864,0.6372919,0.17898661,0.5747402,0.6457035,0.5243932,0.04075885,0.52843326,-0.25685045,0.2503033,-0.30083847,-0.17260931,850.18317,803.44324,809.4872,806.6667,756.30035,-0.1754150390625,0.1092529296875,0.9989013671875,-0.321502685546875,-2.205657958984375,0.28411865234375,1,1.0,1.0,1.0,1.0,10.00
2024-10-11 20:21:20.861,0.76588243,0.9100642,0.8127096,0.8114598,0.45364344,0.7812231,0.30647925,0.14673063,0.41685864,0.6372919,0.17898661,0.5747402,0.6457035,0.5243932,0.04075885,0.52843326,-0.25685045,0.2503033,-0.30083847,-0.17260931,811.9048,803.44324,792.96704,805.4579,694.2491,-0.1754150390625,0.1092529296875,0.9989013671875,-0.321502685546875,-2.205657958984375,0.28411865234375,1,1.0,1.0,1.0,1.0,10.00
2024-10-11 20:21:20.861,0.76588243,0.9100642,0.8127096,0.8114598,0.45364344,0.7812231,0.30647925,0.14673063,0.41685864,0.6372919,0.17898661,0.5747402,0.6457035,0.5243932,0.04075885,0.52843326,-0.25685045,0.2503033,-0.30083847,-0.17260931,815.5311,794.17584,786.1172,838.9011,888.46155,-0.1754150390625,0.1092529296875,0.9989013671875,-0.321502685546875,-2.205657958984375,0.28411865234375,1,1.0,1.0,1.0,1.0,10.00
2024-10-11 20:21:20.862,0.76588243,0.9100642,0.8127096,0.8114598,0.45364344,0.7812231,0.30647925,0.14673063,0.41685864,0.6372919,0.17898661,0.5747402,0.6457035,0.5243932,0.04075885,0.52843326,-0.25685045,0.2503033,-0.30083847,-0.17260931,853.8095,795.38464,797.3993,859.45056,1003.69965,-0.1754150390625,0.1092529296875,0.9989013671875,-0.321502685546875,-2.205657958984375,0.28411865234375,1,1.0,1.0,1.0,1.0,10.00
2024-10-11 20:21:20.863,0.76588243,0.9100642,0.8127096,0.8114598,0.45364344,0.7812231,0.30647925,0.14673063,0.41685864,0.6372919,0.17898661,0.5747402,0.6457035,0.5243932,0.04075885,0.52843326,-0.25685045,0.2503033,-0.30083847,-0.17260931,846.9597,788.93774,810.293,862.27106,802.6374,-0.1754150390625,0.1092529296875,0.9989013671875,-0.321502685546875,-2.205657958984375,0.28411865234375,1,1.0,1.0,1.0,1.0,10.00
2024-10-11 20:21:20.863,0.76588243,0.9100642,0.8127096,0.8114598,0.45364344,0.7812231,0.30647925,0.14673063,0.41685864,0.6372919,0.17898661,0.5747402,0.6457035,0.5243932,0.04075885,0.52843326,-0.25685045,0.2503033,-0.30083847,-0.17260931,865.09155,787.326,799.41394,855.42126,651.9414,-0.1754150390625,0.1092529296875,0.9989013671875,-0.321502685546875,-2.205657958984375,0.28411865234375,1,1.0,1.0,1.0,1.0,10.00
2024-10-11 20:21:20.864,0.76588243,0.9100642,0.8127096,0.8114598,0.45364344,0.7812231,0.30647925,0.14673063,0.41685864,0.6372919,0.17898661,0.5747402,0.6457035,0.5243932,0.04075885,0.52843326,-0.25685045,0.2503033,-0.30083847,-0.17260931,759.5238,808.68134,829.2308,796.1905,716.4103,-0.1754150390625,0.1092529296875,0.9989013671875,-0.321502685546875,-2.205657958984375,0.28411865234375,1,1.0,1.0,1.0,1.0,10.00
2024-10-11 20:21:20.865,0.76588243,0.9100642,0.8127096,0.8114598,0.45364344,0.7812231,0.30647925,0.14673063,0.41685864,0.6372919,0.17898661,0.5747402,0.6457035,0.5243932,0.04075885,0.52843326,-0.25685045,0.2503033,-0.30083847,-0.17260931,721.6484,813.5165,804.2491,781.28204,817.9487,-0.1754150390625,0.1092529296875,0.9989013671875,-0.321502685546875,-2.205657958984375,0.28411865234375,1,1.0,1.0,1.0,1.0,10.00
2024-10-11 20:21:20.901,0.76588243,0.9100642,0.8127096,0.8114598,0.45364344,0.7812231,0.30647925,0.14673063,0.41685864,0.6372919,0.17898661,0.5747402,0.6457035,0.5243932,0.04075885,0.52843326,-0.25685045,0.2503033,-0.30083847,-0.17260931,857.8388,777.25275,811.9048,825.2015,784.90845,-0.16851806640625,0.10614013671875,0.98443603515625,-2.160797119140625,-2.429962158203125,-0.82244873046875,1,1.0,1.0,1.0,1.0,10.00
2024-10-11 20:21:20.902,0.76588243,0.9100642,0.8127096,0.8114598,0.45364344,0.7812231,0.30647925,0.14673063,0.41685864,0.6372919,0.17898661,0.5747402,0.6457035,0.5243932,0.04075885,0.52843326,-0.25685045,0.2503033,-0.30083847,-0.17260931,855.42126,774.83514,825.6044,840.10986,660.80585,-0.16851806640625,0.10614013671875,0.98443603515625,-2.160797119140625,-2.429962158203125,-0.82244873046875,1,1.0,1.0,1.0,1.0,10.00
2024-10-11 20:21:20.903,0.76588243,0.9100642,0.8127096,0.8114598,0.45364344,0.7812231,0.30647925,0.14673063,0.41685864,0.6372919,0.17898661,0.5747402,0.6457035,0.5243932,0.04075885,0.52843326,-0.25685045,0.2503033,-0.30083847,-0.17260931,823.1868,807.47253,789.34064,868.71796,767.98535,-0.16851806640625,0.10614013671875,0.98443603515625,-2.160797119140625,-2.429962158203125,-0.82244873046875,1,1.0,1.0,1.0,1.0,10.00
2024-10-11 20:21:20.904,0.76588243,0.9100642,0.8127096,0.8114598,0.45364344,0.7812231,0.30647925,0.14673063,0.41685864,0.6372919,0.17898661,0.5747402,0.6457035,0.5243932,0.04075885,0.52843326,-0.25685045,0.2503033,-0.30083847,-0.17260931,854.61536,796.1905,815.12823,853.8095,1107.2528,-0.16851806640625,0.10614013671875,0.98443603515625,-2.160797119140625,-2.429962158203125,-0.82244873046875,1,1.0,1.0,1.0,1.0,10.00
2024-10-11 20:21:20.904,0.76588243,0.9100642,0.8127096,0.8114598,0.45364344,0.7812231,0.30647925,0.14673063,0.41685864,0.6372919,0.17898661,0.5747402,0.6457035,0.5243932,0.04075885,0.52843326,-0.25685045,0.2503033,-0.30083847,-0.17260931,838.9011,800.2198,811.0989,826.8132,966.2271,-0.16851806640625,0.10614013671875,0.98443603515625,-2.160797119140625,-2.429962158203125,-0.82244873046875,1,1.0,1.0,1.0,1.0,10.00
2024-10-11 20:21:20.905,0.76588243,0.9100642,0.8127096,0.8114598,0.45364344,0.7812231,0.30647925,0.14673063,0.41685864,0.6372919,0.17898661,0.5747402,0.6457035,0.5243932,0.04075885,0.52843326,-0.25685045,0.2503033,-0.30083847,-0.17260931,755.4945,816.7399,794.9817,802.6374,815.9341,-0.16851806640625,0.10614013671875,0.98443603515625,-2.160797119140625,-2.429962158203125,-0.82244873046875,1,1.0,1.0,1.0,1.0,10.00
2024-10-11 20:21:20.906,0.76588243,0.9100642,0.8127096,0.8114598,0.45364344,0.7812231,0.30647925,0.14673063,0.41685864,0.6372919,0.17898661,0.5747402,0.6457035,0.5243932,0.04075885,0.52843326,-0.25685045,0.2503033,-0.30083847,-0.17260931,777.6557,797.3993,824.7985,783.2967,1027.4725,-0.16851806640625,0.10614013671875,0.98443603515625,-2.160797119140625,-2.429962158203125,-0.82244873046875,1,1.0,1.0,1.0,1.0,10.00
2024-10-11 20:21:20.906,0.76588243,0.9100642,0.8127096,0.8114598,0.45364344,0.7812231,0.30647925,0.14673063,0.41685864,0.6372919,0.17898661,0.5747402,0.6457035,0.5243932,0.04075885,0.52843326,-0.25685045,0.2503033,-0.30083847,-0.17260931,803.0403,792.1612,819.15753,833.663,1046.0073,-0.16851806640625,0.10614013671875,0.98443603515625,-2.160797119140625,-2.429962158203125,-0.82244873046875,1,1.0,1.0,1.0,1.0,10.00
2024-10-11 20:21:20.907,0.76588243,0.9100642,0.8127096,0.8114598,0.45364344,0.7812231,0.30647925,0.14673063,0.41685864,0.6372919,0.17898661,0.5747402,0.6457035,0.5243932,0.04075885,0.52843326,-0.25685045,0.2503033,-0.30083847,-0.17260931,752.674,807.47253,804.65204,757.1062,730.5128,-0.16851806640625,0.10614013671875,0.98443603515625,-2.160797119140625,-2.429962158203125,-0.82244873046875,1,1.0,1.0,1.0,1.0,10.00
2024-10-11 20:21:20.908,0.76588243,0.90897965,0.8127096,0.8114598,0.45364344,0.78665525,0.30647925,0.14673063,0.41685864,0.6372919,0.17898661,0.5747402,0.6457035,0.5782396,0.04075885,0.52843326,-0.25685045,0.32003748,-0.30083847,-0.17260931,855.0183,802.23444,785.7143,807.47253,581.4286,-0.16851806640625,0.10614013671875,0.98443603515625,-2.160797119140625,-2.429962158203125,-0.82244873046875,1,1.0,1.0,1.0,1.0,10.00
2024-10-11 20:21:20.913,0.76588243,0.90897965,0.8127096,0.8114598,0.45364344,0.78665525,0.30647925,0.14673063,0.41685864,0.6372919,0.17898661,0.5747402,0.6457035,0.5782396,0.04075885,0.52843326,-0.25685045,0.32003748,-0.30083847,-0.17260931,813.5165,789.34064,796.99634,844.94507,539.5238,-0.16851806640625,0.10614013671875,0.98443603515625,-2.160797119140625,-2.429962158203125,-0.82244873046875,1,1.0,1.0,1.0,1.0,10.00
2024-10-11 20:21:20.914,0.76588243,0.90897965,0.8127096,0.8114598,0.45364344,0.78665525,0.30647925,0.14673063,0.41685864,0.6372919,0.17898661,0.5747402,0.6457035,0.5782396,0.04075885,0.52843326,-0.25685045,0.32003748,-0.30083847,-0.17260931,716.8132,808.68134,792.96704,796.1905,582.23444,-0.16851806640625,0.10614013671875,0.98443603515625,-2.160797119140625,-2.429962158203125,-0.82244873046875,1,1.0,1.0,1.0,1.0,10.00
2024-10-11 20:21:20.943,0.76588243,0.90897965,0.8127096,0.8114598,0.45364344,0.78665525,0.30647925,0.14673063,0.41685864,0.6372919,0.17898661,0.5747402,0.6457035,0.5782396,0.04075885,0.52843326,-0.25685045,0.32003748,-0.30083847,-0.17260931,831.2454,810.293,757.9121,859.0476,568.93774,-0.17791748046875,0.09954833984375,0.99786376953125,-2.07855224609375,-2.9608154296875,-0.695343017578125,1,1.0,1.0,1.0,1.0,10.00
2024-10-11 20:21:20.944,0.76588243,0.90897965,0.8127096,0.8114598,0.45364344,0.78665525,0.30647925,0.14673063,0.41685864,0.6372919,0.17898661,0.5747402,0.6457035,0.5782396,0.04075885,0.52843326,-0.25685045,0.32003748,-0.30083847,-0.17260931,844.1392,778.46155,809.89014,857.4359,566.9231,-0.17791748046875,0.09954833984375,0.99786376953125,-2.07855224609375,-2.9608154296875,-0.695343017578125,1,1.0,1.0,1.0,1.0,10.00
2024-10-11 20:21:20.945,0.76588243,0.90897965,0.8127096,0.8114598,0.45364344,0.78665525,0.30647925,0.14673063,0.41685864,0.6372919,0.17898661,0.5747402,0.6457035,0.5782396,0.04075885,0.52843326,-0.25685045,0.32003748,-0.30083847,-0.17260931,778.0586,781.28204,844.5421,767.98535,623.73627,-0.17791748046875,0.09954833984375,0.99786376953125,-2.07855224609375,-2.9608154296875,-0.695343017578125,1,1.0,1.0,1.0,1.0,10.00
2024-10-11 20:21:20.946,0.76588243,0.90897965,0.8127096,0.8114598,0.45364344,0.78665525,0.30647925,0.14673063,0.41685864,0.6372919,0.17898661,0.5747402,0.6457035,0.5782396,0.04075885,0.52843326,-0.25685045,0.32003748,-0.30083847,-0.17260931,852.6007,786.1172,788.1319,790.9524,643.47986,-0.17791748046875,0.09954833984375,0.99786376953125,-2.07855224609375,-2.9608154296875,-0.695343017578125,1,1.0,1.0,1.0,1.0,10.00
2024-10-11 20:21:20.947,0.76588243,0.90897965,0.8127096,0.8114598,0.45364344,0.78665525,0.30647925,0.14673063,0.41685864,0.6372919,0.17898661,0.5747402,0.6457035,0.5782396,0.04075885,0.52843326,-0.25685045,0.32003748,-0.30083847,-0.17260931,881.6117,794.57874,782.8938,870.32965,690.6227,-0.17791748046875,0.09954833984375,0.99786376953125,-2.07855224609375,-2.9608154296875,-0.695343017578125,1,1.0,1.0,1.0,1.0,10.00
2024-10-11 20:21:20.947,0.76588243,0.90897965,0.8127096,0.8114598,0.45364344,0.78665525,0.30647925,0.14673063,0.41685864,0.6372919,0.17898661,0.5747402,0.6457035,0.5782396,0.04075885,0.52843326,-0.25685045,0.32003748,-0.30083847,-0.17260931,822.381,805.8608,790.14655,837.6923,806.26373,-0.17791748046875,0.09954833984375,0.99786376953125,-2.07855224609375,-2.9608154296875,-0.695343017578125,1,1.0,1.0,1.0,1.0,10.00
2024-10-11 20:21:20.948,0.76588243,0.90897965,0.8127096,0.8114598,0.45364344,0.78665525,0.30647925,0.14673063,0.41685864,0.6372919,0.17898661,0.5747402,0.6457035,0.5782396,0.04075885,0.52843326,-0.25685045,0.32003748,-0.30083847,-0.17260931,792.1612,804.65204,790.9524,811.0989,1052.4542,-0.17791748046875,0.09954833984375,0.99786376953125,-2.07855224609375,-2.9608154296875,-0.695343017578125,1,1.0,1.0,1.0,1.0,10.00
2024-10-11 20:21:20.949,0.76588243,0.90897965,0.8127096,0.8114598,0.45364344,0.78665525,0.30647925,0.14673063,0.41685864,0.6372919,0.17898661,0.5747402,0.6457035,0.5782396,0.04075885,0.52843326,-0.25685045,0.32003748,-0.30083847,-0.17260931,830.4396,805.4579,778.86444,805.05493,861.8681,-0.17791748046875,0.09954833984375,0.99786376953125,-2.07855224609375,-2.9608154296875,-0.695343017578125,1,1.0,1.0,1.0,1.0,10.00
2024-10-11 20:21:20.950,0.76588243,0.90897965,0.8127096,0.8114598,0.45364344,0.78665525,0.30647925,0.14673063,0.41685864,0.6372919,0.17898661,0.5747402,0.6457035,0.5782396,0.04075885,0.52843326,-0.25685045,0.32003748,-0.30083847,-0.17260931,763.95605,808.2784,774.0293,803.8461,530.65936,-0.17791748046875,0.09954833984375,0.99786376953125,-2.07855224609375,-2.9608154296875,-0.695343017578125,1,1.0,1.0,1.0,1.0,10.00
2024-10-11 20:21:20.950,0.76588243,0.90897965,0.8127096,0.8114598,0.45364344,0.78665525,0.30647925,0.14673063,0.41685864,0.6372919,0.17898661,0.5747402,0.6457035,0.5782396,0.04075885,0.52843326,-0.25685045,0.32003748,-0.30083847,-0.17260931,802.6374,801.4286,822.7839,804.2491,715.6044,-0.17791748046875,0.09954833984375,0.99786376953125,-2.07855224609375,-2.9608154296875,-0.695343017578125,1,1.0,1.0,1.0,1.0,10.00
2024-10-11 20:21:20.951,0.76588243,0.90897965,0.8127096,0.8114598,0.45364344,0.78665525,0.30647925,0.14673063,0.41685864,0.6372919,0.17898661,0.5747402,0.6457035,0.5782396,0.04075885,0.52843326,-0.25685045,0.32003748,-0.30083847,-0.17260931,878.3883,774.83514,830.84247,820.7692,719.2308,-0.17791748046875,0.09954833984375,0.99786376953125,-2.07855224609375,-2.9608154296875,-0.695343017578125,1,1.0,1.0,1.0,1.0,10.00
2024-10-11 20:21:20.952,0.76588243,0.90897965,0.8127096,0.8114598,0.45364344,0.78665525,0.30647925,0.14673063,0.41685864,0.6372919,0.17898661,0.5747402,0.6457035,0.5782396,0.04075885,0.52843326,-0.25685045,0.32003748,-0.30083847,-0.17260931,832.8571,778.0586,790.9524,823.9927,537.1062,-0.17791748046875,0.09954833984375,0.99786376953125,-2.07855224609375,-2.9608154296875,-0.695343017578125,1,1.0,1.0,1.0,1.0,10.00
2024-10-11 20:21:20.985,0.76588243,0.90897965,0.8127096,0.8114598,0.45364344,0.78665525,0.30647925,0.14673063,0.41685864,0.6372919,0.17898661,0.5747402,0.6457035,0.5782396,0.04075885,0.52843326,-0.25685045,0.32003748,-0.30083847,-0.17260931,792.96704,804.2491,763.5531,848.97437,525.42126,-0.1771240234375,0.10943603515625,0.976806640625,-1.487884521484375,-6.38519287109375,-2.19818115234375,1,1.0,1.0,1.0,1.0,10.00
2024-10-11 20:21:20.986,0.76588243,0.90897965,0.8127096,0.8114598,0.45364344,0.78665525,0.30647925,0.14673063,0.41685864,0.6372919,0.17898661,0.5747402,0.6457035,0.5782396,0.04075885,0.52843326,-0.25685045,0.32003748,-0.30083847,-0.17260931,774.83514,788.93774,792.96704,826.4103,679.7436,-0.1771240234375,0.10943603515625,0.976806640625,-1.487884521484375,-6.38519287109375,-2.19818115234375,1,1.0,1.0,1.0,1.0,10.00
2024-10-11 20:21:20.987,0.76588243,0.90897965,0.8127096,0.8114598,0.45364344,0.78665525,0.30647925,0.14673063,0.41685864,0.6372919,0.17898661,0.5747402,0.6457035,0.5782396,0.04075885,0.52843326,-0.25685045,0.32003748,-0.30083847,-0.17260931,830.0366,786.52014,812.3077,805.05493,884.0293,-0.1771240234375,0.10943603515625,0.976806640625,-1.487884521484375,-6.38519287109375,-2.19818115234375,1,1.0,1.0,1.0,1.0,10.00
2024-10-11 20:21:20.988,0.76588243,0.90897965,0.8127096,0.8114598,0.45364344,0.78665525,0.30647925,0.14673063,0.41685864,0.6372919,0.17898661,0.5747402,0.6457035,0.5782396,0.04075885,0.52843326,-0.25685045,0.32003748,-0.30083847,-0.17260931,796.99634,796.99634,800.6227,819.9634,750.2564,-0.1771240234375,0.10943603515625,0.976806640625,-1.487884521484375,-6.38519287109375,-2.19818115234375,1,1.0,1.0,1.0,1.0,10.00
2024-10-11 20:21:20.989,0.76588243,0.90897965,0.8127096,0.8114598,0.45364344,0.78665525,0.30647925,0.14673063,0.41685864,0.6372919,0.17898661,0.5747402,0.6457035,0.5782396,0.04075885,0.52843326,-0.25685045,0.32003748,-0.30083847,-0.17260931,793.7729,787.72894,781.28204,848.97437,562.49084,-0.1771240234375,0.10943603515625,0.976806640625,-1.487884521484375,-6.38519287109375,-2.19818115234375,1,1.0,1.0,1.0,1.0,10.00
2024-10-11 20:21:20.990,0.76588243,0.90897965,0.8127096,0.8114598,0.45364344,0.78665525,0.30647925,0.14673063,0.41685864,0.6372919,0.17898661,0.5747402,0.6457035,0.5782396,0.04075885,0.52843326,-0.25685045,0.32003748,-0.30083847,-0.17260931,859.45056,790.54944,786.52014,853.00366,1008.5348,-0.1771240234375,0.10943603515625,0.976806640625,-1.487884521484375,-6.38519287109375,-2.19818115234375,1,1.0,1.0,1.0,1.0,10.00
2024-10-11 20:21:20.991,0.76588243,0.90897965,0.8127096,0.8114598,0.45364344,0.78665525,0.30647925,0.14673063,0.41685864,0.6372919,0.17898661,0.5747402,0.6457035,0.5782396,0.04075885,0.52843326,-0.25685045,0.32003748,-0.30083847,-0.17260931,878.7912,780.4762,817.1429,845.34796,1317.5824,-0.1771240234375,0.10943603515625,0.976806640625,-1.487884521484375,-6.38519287109375,-2.19818115234375,1,1.0,1.0,1.0,1.0,10.00
2024-10-11 20:21:20.992,0.76588243,0.90897965,0.8127096,0.8114598,0.45364344,0.78665525,0.30647925,0.14673063,0.41685864,0.6372919,0.17898661,0.5747402,0.6457035,0.5782396,0.04075885,0.52843326,-0.25685045,0.32003748,-0.30083847,-0.17260931,846.55676,784.90845,805.05493,838.9011,855.82416,-0.1771240234375,0.10943603515625,0.976806640625,-1.487884521484375,-6.38519287109375,-2.19818115234375,1,1.0,1.0,1.0,1.0,10.00
2024-10-11 20:21:20.992,0.76588243,0.90897965,0.8127096,0.8114598,0.45364344,0.78665525,0.30647925,0.14673063,0.41685864,0.6372919,0.17898661,0.5747402,0.6457035,0.5782396,0.04075885,0.52843326,-0.25685045,0.32003748,-0.30083847,-0.17260931,759.92676,800.6227,810.293,777.6557,680.54944,-0.1771240234375,0.10943603515625,0.976806640625,-1.487884521484375,-6.38519287109375,-2.19818115234375,1,1.0,1.0,1.0,1.0,10.00
2024-10-11 20:21:20.993,0.76588243,0.90897965,0.8127096,0.8114598,0.45364344,0.78665525,0.30647925,0.14673063,0.41685864,0.6372919,0.17898661,0.5747402,0.6457035,0.5782396,0.04075885,0.52843326,-0.25685045,0.32003748,-0.30083847,-0.17260931,780.4762,797.3993,836.08057,766.77655,850.58606,-0.1771240234375,0.10943603515625,0.976806640625,-1.487884521484375,-6.38519287109375,-2.19818115234375,1,1.0,1.0,1.0,1.0,10.00
2024-10-11 20:21:20.994,0.76588243,0.90897965,0.8127096,0.8114598,0.45364344,0.78665525,0.30647925,0.14673063,0.41685864,0.6372919,0.17898661,0.5747402,0.6457035,0.5782396,0.04075885,0.52843326,-0.25685045,0.32003748,-0.30083847,-0.17260931,827.2161,801.4286,786.1172,841.7216,904.57874,-0.1771240234375,0.10943603515625,0.976806640625,-1.487884521484375,-6.38519287109375,-2.19818115234375,1,1.0,1.0,1.0,1.0,10.00
2024-10-11 20:21:20.995,0.76588243,0.9120766,0.8127096,0.8114598,0.45364344,0.7951984,0.30647925,0.14673063,0.41685864,0.6377156,0.17898661,0.5747402,0.6457035,0.6216881,0.04075885,0.52843326,-0.25685045,0.38093722,-0.30083847,-0.17260931,825.6044,812.71063,757.9121,851.39197,734.94507,-0.1771240234375,0.10943603515625,0.976806640625,-1.487884521484375,-6.38519287109375,-2.19818115234375,1,1.0,1.0,1.0,1.0,10.00
2024-10-11 20:21:21.029,0.76588243,0.9120766,0.8127096,0.8114598,0.45364344,0.7951984,0.30647925,0.14673063,0.41685864,0.6377156,0.17898661,0.5747402,0.6457035,0.6216881,0.04075885,0.52843326,-0.25685045,0.38093722,-0.30083847,-0.17260931,774.83514,807.0696,784.10254,817.1429,640.65936,-0.1771240234375,0.10943603515625,0.976806640625,-1.487884521484375,-6.38519287109375,-2.19818115234375,1,1.0,1.0,1.0,1.0,10.00
2024-10-11 20:21:21.031,0.76588243,0.9120766,0.8127096,0.8114598,0.45364344,0.7951984,0.30647925,0.14673063,0.41685864,0.6377156,0.17898661,0.5747402,0.6457035,0.6216881,0.04075885,0.52843326,-0.25685045,0.38093722,-0.30083847,-0.17260931,773.6264,814.7253,813.1135,806.26373,670.4762,-0.1771240234375,0.10943603515625,0.976806640625,-1.487884521484375,-6.38519287109375,-2.19818115234375,1,1.0,1.0,1.0,1.0,10.00
2024-10-11 20:21:21.035,0.76588243,0.9120766,0.8127096,0.8114598,0.45364344,0.7951984,0.30647925,0.14673063,0.41685864,0.6377156,0.17898661,0.5747402,0.6457035,0.6216881,0.04075885,0.52843326,-0.25685045,0.38093722,-0.30083847,-0.17260931,869.92676,801.8315,799.81683,818.3516,699.0842,-0.1771240234375,0.10943603515625,0.976806640625,-1.487884521484375,-6.38519287109375,-2.19818115234375,1,1.0,1.0,1.0,1.0,10.00
2024-10-11 20:21:21.036,0.76588243,0.9120766,0.8127096,0.8114598,0.45364344,0.7951984,0.30647925,0.14673063,0.41685864,0.6377156,0.17898661,0.5747402,0.6457035,0.6216881,0.04075885,0.52843326,-0.25685045,0.38093722,-0.30083847,-0.17260931,863.8828,777.6557,806.26373,829.6337,612.8571,-0.1771240234375,0.10943603515625,0.976806640625,-1.487884521484375,-6.38519287109375,-2.19818115234375,1,1.0,1.0,1.0,1.0,10.00
2024-10-11 20:21:21.037,0.76588243,0.9120766,0.8127096,0.8114598,0.45364344,0.7951984,0.30647925,0.14673063,0.41685864,0.6377156,0.17898661,0.5747402,0.6457035,0.6216881,0.04075885,0.52843326,-0.25685045,0.38093722,-0.30083847,-0.17260931,817.9487,794.17584,800.2198,805.8608,581.4286,-0.1771240234375,0.10943603515625,0.976806640625,-1.487884521484375,-6.38519287109375,-2.19818115234375,1,1.0,1.0,1.0,1.0,10.00
2024-10-11 20:21:21.038,0.76588243,0.9120766,0.8127096,0.8114598,0.45364344,0.7951984,0.30647925,0.14673063,0.41685864,0.6377156,0.17898661,0.5747402,0.6457035,0.6216881,0.04075885,0.52843326,-0.25685045,0.38093722,-0.30083847,-0.17260931,764.35895,794.17584,813.1135,780.87915,866.30035,-0.1771240234375,0.10943603515625,0.976806640625,-1.487884521484375,-6.38519287109375,-2.19818115234375,1,1.0,1.0,1.0,1.0,10.00
2024-10-11 20:21:21.039,0.76588243,0.9120766,0.8127096,0.8114598,0.45364344,0.7951984,0.30647925,0.14673063,0.41685864,0.6377156,0.17898661,0.5747402,0.6457035,0.6216881,0.04075885,0.52843326,-0.25685045,0.38093722,-0.30083847,-0.17260931,810.293,777.25275,796.5934,855.0183,1012.1612,-0.1771240234375,0.10943603515625,0.976806640625,-1.487884521484375,-6.38519287109375,-2.19818115234375,1,1.0,1.0,1.0,1.0,10.00
2024-10-11 20:21:21.040,0.76588243,0.9120766,0.8127096,0.8114598,0.45364344,0.7951984,0.30647925,0.14673063,0.41685864,0.6377156,0.17898661,0.5747402,0.6457035,0.6216881,0.04075885,0.52843326,-0.25685045,0.38093722,-0.30083847,-0.17260931,799.41394,790.9524,777.25275,856.2271,756.7033,-0.1771240234375,0.10943603515625,0.976806640625,-1.487884521484375,-6.38519287109375,-2.19818115234375,1,1.0,1.0,1.0,1.0,10.00
2024-10-11 20:21:21.041,0.76588243,0.9120766,0.8127096,0.8114598,0.45364344,0.7951984,0.30647925,0.14673063,0.41685864,0.6377156,0.17898661,0.5747402,0.6457035,0.6216881,0.04075885,0.52843326,-0.25685045,0.38093722,-0.30083847,-0.17260931,796.5934,780.07324,809.89014,820.7692,684.17584,-0.1771240234375,0.10943603515625,0.976806640625,-1.487884521484375,-6.38519287109375,-2.19818115234375,1,1.0,1.0,1.0,1.0,10.00
2024-10-11 20:21:21.041,0.76588243,0.9120766,0.8127096,0.8114598,0.45364344,0.7951984,0.30647925,0.14673063,0.41685864,0.6377156,0.17898661,0.5747402,0.6457035,0.6216881,0.04075885,0.52843326,-0.25685045,0.38093722,-0.30083847,-0.17260931,826.4103,794.57874,791.3553,826.8132,811.9048,-0.1771240234375,0.10943603515625,0.976806640625,-1.487884521484375,-6.38519287109375,-2.19818115234375,1,1.0,1.0,1.0,1.0,10.00
2024-10-11 20:21:21.042,0.76588243,0.9120766,0.8127096,0.8114598,0.45364344,0.7951984,0.30647925,0.14673063,0.41685864,0.6377156,0.17898661,0.5747402,0.6457035,0.6216881,0.04075885,0.52843326,-0.25685045,0.38093722,-0.30083847,-0.17260931,815.9341,816.337,803.44324,804.2491,871.53845,-0.1771240234375,0.10943603515625,0.976806640625,-1.487884521484375,-6.38519287109375,-2.19818115234375,1,1.0,1.0,1.0,1.0,10.00
2024-10-11 20:21:21.043,0.76588243,0.9120766,0.8127096,0.8114598,0.45364344,0.7951984,0.30647925,0.14673063,0.41685864,0.6377156,0.17898661,0.5747402,0.6457035,0.6216881,0.04075885,0.52843326,-0.25685045,0.38093722,-0.30083847,-0.17260931,789.34064,812.71063,812.71063,828.4249,847.3626,-0.1771240234375,0.10943603515625,0.976806640625,-1.487884521484375,-6.38519287109375,-2.19818115234375,1,1.0,1.0,1.0,1.0,10.00
2024-10-11 20:21:21.076,0.76588243,0.9120766,0.8127096,0.8114598,0.45364344,0.7951984,0.30647925,0.14673063,0.41685864,0.6377156,0.17898661,0.5747402,0.6457035,0.6216881,0.04075885,0.52843326,-0.25685045,0.38093722,-0.30083847,-0.17260931,815.9341,798.60803,796.5934,830.84247,898.5348,-0.1712646484375,0.1065673828125,0.9923095703125,-2.9010009765625,-10.0189208984375,-6.20574951171875,1,1.0,1.0,1.0,1.0,10.00
2024-10-11 20:21:21.078,0.76588243,0.9120766,0.8127096,0.8114598,0.45364344,0.7951984,0.30647925,0.14673063,0.41685864,0.6377156,0.17898661,0.5747402,0.6457035,0.6216881,0.04075885,0.52843326,-0.25685045,0.38093722,-0.30083847,-0.17260931,843.73627,795.78754,785.31134,799.81683,859.0476,-0.1712646484375,0.1065673828125,0.9923095703125,-2.9010009765625,-10.0189208984375,-6.20574951171875,1,1.0,1.0,1.0,1.0,10.00
2024-10-11 20:21:21.078,0.76588243,0.9120766,0.8127096,0.8114598,0.45364344,0.7951984,0.30647925,0.14673063,0.41685864,0.6377156,0.17898661,0.5747402,0.6457035,0.6216881,0.04075885,0.52843326,-0.25685045,0.38093722,-0.30083847,-0.17260931,832.8571,797.3993,786.52014,846.55676,773.6264,-0.1712646484375,0.1065673828125,0.9923095703125,-2.9010009765625,-10.0189208984375,-6.20574951171875,1,1.0,1.0,1.0,1.0,10.00
2024-10-11 20:21:21.079,0.76588243,0.9120766,0.8127096,0.8114598,0.45364344,0.7951984,0.30647925,0.14673063,0.41685864,0.6377156,0.17898661,0.5747402,0.6457035,0.6216881,0.04075885,0.52843326,-0.25685045,0.38093722,-0.30083847,-0.17260931,791.3553,799.41394,830.4396,838.9011,810.696,-0.1712646484375,0.1065673828125,0.9923095703125,-2.9010009765625,-10.0189208984375,-6.20574951171875,1,1.0,1.0,1.0,1.0,10.00
2024-10-11 20:21:21.080,0.76588243,0.9120766,0.8127096,0.8114598,0.45364344,0.7951984,0.30647925,0.14673063,0.41685864,0.6377156,0.17898661,0.5747402,0.6457035,0.6216881,0.04075885,0.52843326,-0.25685045,0.38093722,-0.30083847,-0.17260931,750.65936,799.41394,849.7802,727.28937,866.30035,-0.1712646484375,0.1065673828125,0.9923095703125,-2.9010009765625,-10.0189208984375,-6.20574951171875,1,1.0,1.0,1.0,1.0,10.00
2024-10-11 20:21:21.080,0.76588243,0.9120766,0.8127096,0.8114598,0.45364344,0.7951984,0.30647925,0.14673063,0.41685864,0.6377156,0.17898661,0.5747402,0.6457035,0.6216881,0.04075885,0.52843326,-0.25685045,0.38093722,-0.30083847,-0.17260931,803.0403,790.54944,782.0879,781.685,1153.1868,-0.1712646484375,0.1065673828125,0.9923095703125,-2.9010009765625,-10.0189208984375,-6.20574951171875,1,1.0,1.0,1.0,1.0,10.00
2024-10-11 20:21:21.081,0.76588243,0.9120766,0.8127096,0.8114598,0.45364344,0.7951984,0.30647925,0.14673063,0.41685864,0.6377156,0.17898661,0.5747402,0.6457035,0.6216881,0.04075885,0.52843326,-0.25685045,0.38093722,-0.30083847,-0.17260931,852.1978,783.69965,779.67035,884.43225,1089.9268,-0.1712646484375,0.1065673828125,0.9923095703125,-2.9010009765625,-10.0189208984375,-6.20574951171875,1,1.0,1.0,1.0,1.0,10.00
2024-10-11 20:21:21.082,0.76588243,0.9120766,0.8127096,0.8114598,0.45364344,0.7951984,0.30647925,0.14673063,0.41685864,0.6377156,0.17898661,0.5747402,0.6457035,0.6216881,0.04075885,0.52843326,-0.25685045,0.38093722,-0.30083847,-0.17260931,825.6044,797.8022,810.696,838.49817,883.6264,-0.1712646484375,0.1065673828125,0.9923095703125,-2.9010009765625,-10.0189208984375,-6.20574951171875,1,1.0,1.0,1.0,1.0,10.00
2024-10-11 20:21:21.082,0.76588243,0.9120766,0.8127096,0.8114598,0.45364344,0.7951984,0.30647925,0.14673063,0.41685864,0.6377156,0.17898661,0.5747402,0.6457035,0.6216881,0.04075885,0.52843326,-0.25685045,0.38093722,-0.30083847,-0.17260931,786.52014,797.3993,819.5604,786.1172,1037.5458,-0.1712646484375,0.1065673828125,0.9923095703125,-2.9010009765625,-10.0189208984375,-6.20574951171875,1,1.0,1.0,1.0,1.0,10.00
2024-10-11 20:21:21.083,0.76588243,0.9120766,0.8127096,0.8114598,0.45364344,0.7951984,0.30647925,0.14673063,0.41685864,0.6377156,0.17898661,0.5747402,0.6457035,0.6216881,0.04075885,0.52843326,-0.25685045,0.38093722,-0.30083847,-0.17260931,763.5531,787.72894,842.52747,758.71796,956.1539,-0.1712646484375,0.1065673828125,0.9923095703125,-2.9010009765625,-10.0189208984375,-6.20574951171875,1,1.0,1.0,1.0,1.0,10.00
2024-10-11 20:21:21.084,0.76588243,0.9120766,0.8127096,0.8114598,0.45364344,0.7951984,0.30647925,0.14673063,0.41685864,0.6377156,0.17898661,0.5747402,0.6457035,0.6216881,0.04075885,0.52843326,-0.25685045,0.38093722,-0.30083847,-0.17260931,813.5165,801.8315,811.9048,837.28937,510.91574,-0.1712646484375,0.1065673828125,0.9923095703125,-2.9010009765625,-10.0189208984375,-6.20574951171875,1,1.0,1.0,1.0,1.0,10.00
2024-10-11 20:21:21.084,0.76588243,0.9120766,0.8127096,0.8114598,0.45364344,0.7951984,0.30647925,0.14673063,0.41685864,0.6377156,0.17898661,0.5747402,0.6457035,0.6216881,0.04075885,0.52843326,-0.25685045,0.38093722,-0.30083847,-0.17260931,859.45056,788.93774,798.20514,877.5824,505.27472,-0.1712646484375,0.1065673828125,0.9923095703125,-2.9010009765625,-10.0189208984375,-6.20574951171875,1,1.0,1.0,1.0,1.0,10.00
2024-10-11 20:21:21.116,0.76588243,0.9120766,0.8127096,0.8114598,0.45364344,0.7951984,0.30647925,0.14673063,0.41685864,0.6377156,0.17898661,0.5747402,0.6457035,0.6216881,0.04075885,0.52843326,-0.25685045,0.38093722,-0.30083847,-0.17260931,802.23444,795.78754,806.26373,830.4396,828.4249,-0.15985107421875,0.10009765625,1.00604248046875,-5.15899658203125,-10.295562744140625,-7.955322265625,1,1.0,1.0,1.0,1.0,10.00
2024-10-11 20:21:21.117,0.76588243,0.9151046,0.6963659,0.8114598,0.45364344,0.79656845,0.6099773,0.14673063,0.41685864,0.63390887,0.4672417,0.5747402,0.6457035,0.6532656,0.8261054,0.52843326,-0.25685045,0.44029066,1.1354862,-0.17260931,794.57874,799.81683,806.6667,809.89014,841.31866,-0.15985107421875,0.10009765625,1.00604248046875,-5.15899658203125,-10.295562744140625,-7.955322265625,1,1.0,1.0,1.0,1.0,10.00
2024-10-11 20:21:21.122,0.76588243,0.9151046,0.6963659,0.8114598,0.45364344,0.79656845,0.6099773,0.14673063,0.41685864,0.63390887,0.4672417,0.5747402,0.6457035,0.6532656,0.8261054,0.52843326,-0.25685045,0.44029066,1.1354862,-0.17260931,771.2088,769.59705,822.7839,796.1905,576.5934,-0.15985107421875,0.10009765625,1.00604248046875,-5.15899658203125,-10.295562744140625,-7.955322265625,1,1.0,1.0,1.0,1.0,10.00
2024-10-11 20:21:21.123,0.76588243,0.9151046,0.6963659,0.8114598,0.45364344,0.79656845,0.6099773,0.14673063,0.41685864,0.63390887,0.4672417,0.5747402,0.6457035,0.6532656,0.8261054,0.52843326,-0.25685045,0.44029066,1.1354862,-0.17260931,784.90845,793.7729,797.3993,758.71796,604.7985,-0.15985107421875,0.10009765625,1.00604248046875,-5.15899658203125,-10.295562744140625,-7.955322265625,1,1.0,1.0,1.0,1.0,10.00
2024-10-11 20:21:21.124,0.76588243,0.9151046,0.6963659,0.8114598,0.45364344,0.79656845,0.6099773,0.14673063,0.41685864,0.63390887,0.4672417,0.5747402,0.6457035,0.6532656,0.8261054,0.52843326,-0.25685045,0.44029066,1.1354862,-0.17260931,806.26373,824.3956,779.67035,810.293,693.0403,-0.15985107421875,0.10009765625,1.00604248046875,-5.15899658203125,-10.295562744140625,-7.955322265625,1,1.0,1.0,1.0,1.0,10.00
2024-10-11 20:21:21.124,0.76588243,0.9151046,0.6963659,0.8114598,0.45364344,0.79656845,0.6099773,0.14673063,0.41685864,0.63390887,0.4672417,0.5747402,0.6457035,0.6532656,0.8261054,0.52843326,-0.25685045,0.44029066,1.1354862,-0.17260931,725.6777,825.2015,790.9524,813.91943,750.2564,-0.15985107421875,0.10009765625,1.00604248046875,-5.15899658203125,-10.295562744140625,-7.955322265625,1,1.0,1.0,1.0,1.0,10.00
2024-10-11 20:21:21.125,0.76588243,0.9151046,0.6963659,0.8114598,0.45364344,0.79656845,0.6099773,0.14673063,0.41685864,0.63390887,0.4672417,0.5747402,0.6457035,0.6532656,0.8261054,0.52843326,-0.25685045,0.44029066,1.1354862,-0.17260931,800.6227,801.4286,795.78754,761.9414,696.26373,-0.15985107421875,0.10009765625,1.00604248046875,-5.15899658203125,-10.295562744140625,-7.955322265625,1,1.0,1.0,1.0,1.0,10.00
2024-10-11 20:21:21.126,0.76588243,0.9151046,0.6963659,0.8114598,0.45364344,0.79656845,0.6099773,0.14673063,0.41685864,0.63390887,0.4672417,0.5747402,0.6457035,0.6532656,0.8261054,0.52843326,-0.25685045,0.44029066,1.1354862,-0.17260931,836.08057,795.38464,782.49084,801.4286,680.54944,-0.15985107421875,0.10009765625,1.00604248046875,-5.15899658203125,-10.295562744140625,-7.955322265625,1,1.0,1.0,1.0,1.0,10.00
2024-10-11 20:21:21.126,0.76588243,0.9151046,0.6963659,0.8114598,0.45364344,0.79656845,0.6099773,0.14673063,0.41685864,0.63390887,0.4672417,0.5747402,0.6457035,0.6532656,0.8261054,0.52843326,-0.25685045,0.44029066,1.1354862,-0.17260931,805.05493,780.87915,775.64105,819.15753,1066.9597,-0.15985107421875,0.10009765625,1.00604248046875,-5.15899658203125,-10.295562744140625,-7.955322265625,1,1.0,1.0,1.0,1.0,10.00
2024-10-11 20:21:21.127,0.76588243,0.9151046,0.6963659,0.8114598,0.45364344,0.79656845,0.6099773,0.14673063,0.41685864,0.63390887,0.4672417,0.5747402,0.6457035,0.6532656,0.8261054,0.52843326,-0.25685045,0.44029066,1.1354862,-0.17260931,858.6447,782.0879,776.04395,809.89014,1014.57874,-0.15985107421875,0.10009765625,1.00604248046875,-5.15899658203125,-10.295562744140625,-7.955322265625,1,1.0,1.0,1.0,1.0,10.00
2024-10-11 20:21:21.128,0.76588243,0.9151046,0.6963659,0.8114598,0.45364344,0.79656845,0.6099773,0.14673063,0.41685864,0.63390887,0.4672417,0.5747402,0.6457035,0.6532656,0.8261054,0.52843326,-0.25685045,0.44029066,1.1354862,-0.17260931,753.8828,793.36993,822.7839,774.0293,666.8498,-0.15985107421875,0.10009765625,1.00604248046875,-5.15899658203125,-10.295562744140625,-7.955322265625,1,1.0,1.0,1.0,1.0,10.00
2024-10-11 20:21:21.129,0.76588243,0.9151046,0.6963659,0.8114598,0.45364344,0.79656845,0.6099773,0.14673063,0.41685864,0.63390887,0.4672417,0.5747402,0.6457035,0.6532656,0.8261054,0.52843326,-0.25685045,0.44029066,1.1354862,-0.17260931,722.8571,794.17584,807.0696,747.4359,699.4872,-0.15985107421875,0.10009765625,1.00604248046875,-5.15899658203125,-10.295562744140625,-7.955322265625,1,1.0,1.0,1.0,1.0,10.00
2024-10-11 20:21:21.162,0.76588243,0.9151046,0.6963659,0.8114598,0.45364344,0.79656845,0.6099773,0.14673063,0.41685864,0.63390887,0.4672417,0.5747402,0.6457035,0.6532656,0.8261054,0.52843326,-0.25685045,0.44029066,1.1354862,-0.17260931,850.18317,808.2784,749.45056,836.4835,803.8461,-0.1533203125,0.08599853515625,0.9947509765625,-5.93658447265625,-11.461944580078125,-6.916046142578125,1,1.0,1.0,1.0,1.0,10.00
2024-10-11 20:21:21.163,0.76588243,0.9151046,0.6963659,0.8114598,0.45364344,0.79656845,0.6099773,0.14673063,0.41685864,0.63390887,0.4672417,0.5747402,0.6457035,0.6532656,0.8261054,0.52843326,-0.25685045,0.44029066,1.1354862,-0.17260931,846.1539,806.6667,800.6227,839.707,712.381,-0.1533203125,0.08599853515625,0.9947509765625,-5.93658447265625,-11.461944580078125,-6.916046142578125,1,1.0,1.0,1.0,1.0,10.00
2024-10-11 20:21:21.164,0.76588243,0.9151046,0.6963659,0.8114598,0.45364344,0.79656845,0.6099773,0.14673063,0.41685864,0.63390887,0.4672417,0.5747402,0.6457035,0.6532656,0.8261054,0.52843326,-0.25685045,0.44029066,1.1354862,-0.17260931,803.8461,789.7436,810.696,789.34064,606.4103,-0.1533203125,0.08599853515625,0.9947509765625,-5.93658447265625,-11.461944580078125,-6.916046142578125,1,1.0,1.0,1.0,1.0,10.00
2024-10-11 20:21:21.164,0.76588243,0.9151046,0.6963659,0.8114598,0.45364344,0.79656845,0.6099773,0.14673063,0.41685864,0.63390887,0.4672417,0.5747402,0.6457035,0.6532656,0.8261054,0.52843326,-0.25685045,0.44029066,1.1354862,-0.17260931,792.1612,783.2967,809.0842,810.696,582.23444,-0.1533203125,0.08599853515625,0.9947509765625,-5.93658447265625,-11.461944580078125,-6.916046142578125,1,1.0,1.0,1.0,1.0,10.00
2024-10-11 20:21:21.165,0.76588243,0.9151046,0.6963659,0.8114598,0.45364344,0.79656845,0.6099773,0.14673063,0.41685864,0.63390887,0.4672417,0.5747402,0.6457035,0.6532656,0.8261054,0.52843326,-0.25685045,0.44029066,1.1354862,-0.17260931,785.7143,791.3553,809.89014,822.7839,707.1429,-0.1533203125,0.08599853515625,0.9947509765625,-5.93658447265625,-11.461944580078125,-6.916046142578125,1,1.0,1.0,1.0,1.0,10.00
2024-10-11 20:21:21.166,0.76588243,0.9151046,0.6963659,0.8114598,0.45364344,0.79656845,0.6099773,0.14673063,0.41685864,0.63390887,0.4672417,0.5747402,0.6457035,0.6532656,0.8261054,0.52843326,-0.25685045,0.44029066,1.1354862,-0.17260931,813.5165,808.2784,786.9231,813.5165,851.39197,-0.1533203125,0.08599853515625,0.9947509765625,-5.93658447265625,-11.461944580078125,-6.916046142578125,1,1.0,1.0,1.0,1.0,10.00
2024-10-11 20:21:21.166,0.76588243,0.9151046,0.6963659,0.8114598,0.45364344,0.79656845,0.6099773,0.14673063,0.41685864,0.63390887,0.4672417,0.5747402,0.6457035,0.6532656,0.8261054,0.52843326,-0.25685045,0.44029066,1.1354862,-0.17260931,777.25275,818.3516,784.5055,807.0696,796.99634,-0.1533203125,0.08599853515625,0.9947509765625,-5.93658447265625,-11.461944580078125,-6.916046142578125,1,1.0,1.0,1.0,1.0,10.00
2024-10-11 20:21:21.167,0.76588243,0.9151046,0.6963659,0.8114598,0.45364344,0.79656845,0.6099773,0.14673063,0.41685864,0.63390887,0.4672417,0.5747402,0.6457035,0.6532656,0.8261054,0.52843326,-0.25685045,0.44029066,1.1354862,-0.17260931,781.28204,794.57874,794.57874,803.8461,855.82416,-0.1533203125,0.08599853515625,0.9947509765625,-5.93658447265625,-11.461944580078125,-6.916046142578125,1,1.0,1.0,1.0,1.0,10.00
2024-10-11 20:21:21.168,0.76588243,0.9151046,0.6963659,0.8114598,0.45364344,0.79656845,0.6099773,0.14673063,0.41685864,0.63390887,0.4672417,0.5747402,0.6457035,0.6532656,0.8261054,0.52843326,-0.25685045,0.44029066,1.1354862,-0.17260931,792.1612,800.2198,789.34064,815.5311,893.2967,-0.1533203125,0.08599853515625,0.9947509765625,-5.93658447265625,-11.461944580078125,-6.916046142578125,1,1.0,1.0,1.0,1.0,10.00
2024-10-11 20:21:21.168,0.76588243,0.9151046,0.6963659,0.8114598,0.45364344,0.79656845,0.6099773,0.14673063,0.41685864,0.63390887,0.4672417,0.5747402,0.6457035,0.6532656,0.8261054,0.52843326,-0.25685045,0.44029066,1.1354862,-0.17260931,780.07324,820.7692,809.4872,763.5531,740.18317,-0.1533203125,0.08599853515625,0.9947509765625,-5.93658447265625,-11.461944580078125,-6.916046142578125,1,1.0,1.0,1.0,1.0,10.00
2024-10-11 20:21:21.169,0.76588243,0.9151046,0.6963659,0.8114598,0.45364344,0.79656845,0.6099773,0.14673063,0.41685864,0.63390887,0.4672417,0.5747402,0.6457035,0.6532656,0.8261054,0.52843326,-0.25685045,0.44029066,1.1354862,-0.17260931,820.3663,802.6374,810.293,737.76556,703.1135,-0.1533203125,0.08599853515625,0.9947509765625,-5.93658447265625,-11.461944580078125,-6.916046142578125,1,1.0,1.0,1.0,1.0,10.00
2024-10-11 20:21:21.170,0.76588243,0.9151046,0.6963659,0.8114598,0.45364344,0.79656845,0.6099773,0.14673063,0.41685864,0.63390887,0.4672417,0.5747402,0.6457035,0.6532656,0.8261054,0.52843326,-0.25685045,0.44029066,1.1354862,-0.17260931,810.696,794.17584,801.02563,826.8132,844.94507,-0.1533203125,0.08599853515625,0.9947509765625,-5.93658447265625,-11.461944580078125,-6.916046142578125,1,1.0,1.0,1.0,1.0,10.00
2024-10-11 20:21:21.203,0.76588243,0.9151046,0.6963659,0.8114598,0.45364344,0.79656845,0.6099773,0.14673063,0.41685864,0.63390887,0.4672417,0.5747402,0.6457035,0.6532656,0.8261054,0.52843326,-0.25685045,0.44029066,1.1354862,-0.17260931,816.337,801.8315,801.8315,837.28937,928.7546,-0.14312744140625,0.07159423828125,0.99951171875,-7.52166748046875,-13.136749267578125,-4.007568359375,1,1.0,1.0,1.0,1.0,10.00
2024-10-11 20:21:21.204,0.76588243,0.9151046,0.6963659,0.8114598,0.45364344,0.79656845,0.6099773,0.14673063,0.41685864,0.63390887,0.4672417,0.5747402,0.6457035,0.6532656,0.8261054,0.52843326,-0.25685045,0.44029066,1.1354862,-0.17260931,851.39197,812.3077,761.13556,814.3223,896.52014,-0.14312744140625,0.07159423828125,0.99951171875,-7.52166748046875,-13.136749267578125,-4.007568359375,1,1.0,1.0,1.0,1.0,10.00
2024-10-11 20:21:21.205,0.76588243,0.9151046,0.6963659,0.8114598,0.45364344,0.79656845,0.6099773,0.14673063,0.41685864,0.63390887,0.4672417,0.5747402,0.6457035,0.6532656,0.8261054,0.52843326,-0.25685045,0.44029066,1.1354862,-0.17260931,818.7546,778.46155,786.52014,830.84247,772.4176,-0.14312744140625,0.07159423828125,0.99951171875,-7.52166748046875,-13.136749267578125,-4.007568359375,1,1.0,1.0,1.0,1.0,10.00
2024-10-11 20:21:21.205,0.76588243,0.91352767,0.7607428,0.8114598,0.45364344,0.782182,0.69551665,0.14673063,0.41685864,0.6156682,0.6072116,0.5747402,0.6457035,0.66891015,0.88376874,0.52843326,-0.25685045,0.46120906,1.1642416,-0.17260931,776.04395,780.07324,805.8608,819.15753,794.9817,-0.14312744140625,0.07159423828125,0.99951171875,-7.52166748046875,-13.136749267578125,-4.007568359375,1,1.0,1.0,1.0,1.0,10.00
2024-10-11 20:21:21.211,0.76588243,0.91352767,0.7607428,0.8114598,0.45364344,0.782182,0.69551665,0.14673063,0.41685864,0.6156682,0.6072116,0.5747402,0.6457035,0.66891015,0.88376874,0.52843326,-0.25685045,0.46120906,1.1642416,-0.17260931,832.4542,797.3993,793.7729,823.1868,904.57874,-0.14312744140625,0.07159423828125,0.99951171875,-7.52166748046875,-13.136749267578125,-4.007568359375,1,1.0,1.0,1.0,1.0,10.00
2024-10-11 20:21:21.211,0.76588243,0.91352767,0.7607428,0.8114598,0.45364344,0.782182,0.69551665,0.14673063,0.41685864,0.6156682,0.6072116,0.5747402,0.6457035,0.66891015,0.88376874,0.52843326,-0.25685045,0.46120906,1.1642416,-0.17260931,848.5714,809.4872,799.81683,815.9341,871.9414,-0.14312744140625,0.07159423828125,0.99951171875,-7.52166748046875,-13.136749267578125,-4.007568359375,1,1.0,1.0,1.0,1.0,10.00
2024-10-11 20:21:21.212,0.76588243,0.91352767,0.7607428,0.8114598,0.45364344,0.782182,0.69551665,0.14673063,0.41685864,0.6156682,0.6072116,0.5747402,0.6457035,0.66891015,0.88376874,0.52843326,-0.25685045,0.46120906,1.1642416,-0.17260931,777.25275,818.7546,773.22345,808.2784,900.14655,-0.14312744140625,0.07159423828125,0.99951171875,-7.52166748046875,-13.136749267578125,-4.007568359375,1,1.0,1.0,1.0,1.0,10.00
2024-10-11 20:21:21.213,0.76588243,0.91352767,0.7607428,0.8114598,0.45364344,0.782182,0.69551665,0.14673063,0.41685864,0.6156682,0.6072116,0.5747402,0.6457035,0.66891015,0.88376874,0.52843326,-0.25685045,0.46120906,1.1642416,-0.17260931,717.2161,801.8315,808.2784,796.99634,1177.7656,-0.14312744140625,0.07159423828125,0.99951171875,-7.52166748046875,-13.136749267578125,-4.007568359375,1,1.0,1.0,1.0,1.0,10.00
2024-10-11 20:21:21.213,0.76588243,0.91352767,0.7607428,0.8114598,0.45364344,0.782182,0.69551665,0.14673063,0.41685864,0.6156682,0.6072116,0.5747402,0.6457035,0.66891015,0.88376874,0.52843326,-0.25685045,0.46120906,1.1642416,-0.17260931,815.12823,780.87915,813.91943,816.337,1034.7252,-0.14312744140625,0.07159423828125,0.99951171875,-7.52166748046875,-13.136749267578125,-4.007568359375,1,1.0,1.0,1.0,1.0,10.00
2024-10-11 20:21:21.214,0.76588243,0.91352767,0.7607428,0.8114598,0.45364344,0.782182,0.69551665,0.14673063,0.41685864,0.6156682,0.6072116,0.5747402,0.6457035,0.66891015,0.88376874,0.52843326,-0.25685045,0.46120906,1.1642416,-0.17260931,794.57874,805.05493,796.5934,809.4872,798.60803,-0.14312744140625,0.07159423828125,0.99951171875,-7.52166748046875,-13.136749267578125,-4.007568359375,1,1.0,1.0,1.0,1.0,10.00
2024-10-11 20:21:21.215,0.76588243,0.91352767,0.7607428,0.8114598,0.45364344,0.782182,0.69551665,0.14673063,0.41685864,0.6156682,0.6072116,0.5747402,0.6457035,0.66891015,0.88376874,0.52843326,-0.25685045,0.46120906,1.1642416,-0.17260931,729.304,828.4249,813.91943,782.0879,854.21246,-0.14312744140625,0.07159423828125,0.99951171875,-7.52166748046875,-13.136749267578125,-4.007568359375,1,1.0,1.0,1.0,1.0,10.00
2024-10-11 20:21:21.215,0.76588243,0.91352767,0.7607428,0.8114598,0.45364344,0.782182,0.69551665,0.14673063,0.41685864,0.6156682,0.6072116,0.5747402,0.6457035,0.66891015,0.88376874,0.52843326,-0.25685045,0.46120906,1.1642416,-0.17260931,778.86444,802.23444,821.978,784.90845,829.6337,-0.14312744140625,0.07159423828125,0.99951171875,-7.52166748046875,-13.136749267578125,-4.007568359375,1,1.0,1.0,1.0,1.0,10.00
2024-10-11 20:21:21.275,0.76588243,0.91352767,0.7607428,0.8114598,0.45364344,0.782182,0.69551665,0.14673063,0.41685864,0.6156682,0.6072116,0.5747402,0.6457035,0.66891015,0.88376874,0.52843326,-0.25685045,0.46120906,1.1642416,-0.17260931,854.61536,793.7729,795.38464,826.8132,699.4872,-0.14312744140625,0.07159423828125,0.99951171875,-7.52166748046875,-13.136749267578125,-4.007568359375,1,1.0,1.0,1.0,1.0,10.00
2024-10-11 20:21:21.276,0.76588243,0.91352767,0.7607428,0.8114598,0.45364344,0.782182,0.69551665,0.14673063,0.41685864,0.6156682,0.6072116,0.5747402,0.6457035,0.66891015,0.88376874,0.52843326,-0.25685045,0.46120906,1.1642416,-0.17260931,818.3516,803.0403,794.17584,840.10986,741.79486,-0.14312744140625,0.07159423828125,0.99951171875,-7.52166748046875,-13.136749267578125,-4.007568359375,1,1.0,1.0,1.0,1.0,10.00
2024-10-11 20:21:21.277,0.76588243,0.91352767,0.7607428,0.8114598,0.45364344,0.782182,0.69551665,0.14673063,0.41685864,0.6156682,0.6072116,0.5747402,0.6457035,0.66891015,0.88376874,0.52843326,-0.25685045,0.46120906,1.1642416,-0.17260931,784.10254,801.02563,828.4249,800.2198,869.92676,-0.14312744140625,0.07159423828125,0.99951171875,-7.52166748046875,-13.136749267578125,-4.007568359375,1,1.0,1.0,1.0,1.0,10.00
2024-10-11 20:21:21.278,0.76588243,0.91352767,0.7607428,0.8114598,0.45364344,0.782182,0.69551665,0.14673063,0.41685864,0.6156682,0.6072116,0.5747402,0.6457035,0.66891015,0.88376874,0.52843326,-0.25685045,0.46120906,1.1642416,-0.17260931,801.02563,807.8755,795.38464,825.2015,846.55676,-0.14312744140625,0.07159423828125,0.99951171875,-7.52166748046875,-13.136749267578125,-4.007568359375,1,1.0,1.0,1.0,1.0,10.00
2024-10-11 20:21:21.279,0.76588243,0.91352767,0.7607428,0.8114598,0.45364344,0.782182,0.69551665,0.14673063,0.41685864,0.6156682,0.6072116,0.5747402,0.6457035,0.66891015,0.88376874,0.52843326,-0.25685045,0.46120906,1.1642416,-0.17260931,842.1245,804.2491,769.19415,837.28937,719.2308,-0.14312744140625,0.07159423828125,0.99951171875,-7.52166748046875,-13.136749267578125,-4.007568359375,1,1.0,1.0,1.0,1.0,10.00
2024-10-11 20:21:21.279,0.76588243,0.91352767,0.7607428,0.8114598,0.45364344,0.782182,0.69551665,0.14673063,0.41685864,0.6156682,0.6072116,0.5747402,0.6457035,0.66891015,0.88376874,0.52843326,-0.25685045,0.46120906,1.1642416,-0.17260931,804.65204,785.7143,782.0879,836.8865,732.9304,-0.14312744140625,0.07159423828125,0.99951171875,-7.52166748046875,-13.136749267578125,-4.007568359375,1,1.0,1.0,1.0,1.0,10.00
2024-10-11 20:21:21.280,0.76588243,0.91352767,0.7607428,0.8114598,0.45364344,0.782182,0.69551665,0.14673063,0.41685864,0.6156682,0.6072116,0.5747402,0.6457035,0.66891015,0.88376874,0.52843326,-0.25685045,0.46120906,1.1642416,-0.17260931,776.4469,780.07324,797.8022,824.3956,1181.7949,-0.14312744140625,0.07159423828125,0.99951171875,-7.52166748046875,-13.136749267578125,-4.007568359375,1,1.0,1.0,1.0,1.0,10.00
2024-10-11 20:21:21.281,0.76588243,0.91352767,0.7607428,0.8114598,0.45364344,0.782182,0.69551665,0.14673063,0.41685864,0.6156682,0.6072116,0.5747402,0.6457035,0.66891015,0.88376874,0.52843326,-0.25685045,0.46120906,1.1642416,-0.17260931,868.71796,794.17584,805.8608,805.4579,1178.1685,-0.14312744140625,0.07159423828125,0.99951171875,-7.52166748046875,-13.136749267578125,-4.007568359375,1,1.0,1.0,1.0,1.0,10.00
2024-10-11 20:21:21.281,0.76588243,0.91352767,0.7607428,0.8114598,0.45364344,0.782182,0.69551665,0.14673063,0.41685864,0.6156682,0.6072116,0.5747402,0.6457035,0.66891015,0.88376874,0.52843326,-0.25685045,0.46120906,1.1642416,-0.17260931,844.5421,805.8608,792.1612,835.6777,767.98535,-0.14312744140625,0.07159423828125,0.99951171875,-7.52166748046875,-13.136749267578125,-4.007568359375,1,1.0,1.0,1.0,1.0,10.00
2024-10-11 20:21:21.282,0.76588243,0.91352767,0.7607428,0.8114598,0.45364344,0.782182,0.69551665,0.14673063,0.41685864,0.6156682,0.6072116,0.5747402,0.6457035,0.66891015,0.88376874,0.52843326,-0.25685045,0.46120906,1.1642416,-0.17260931,803.8461,802.23444,804.65204,832.4542,722.0513,-0.14312744140625,0.07159423828125,0.99951171875,-7.52166748046875,-13.136749267578125,-4.007568359375,1,1.0,1.0,1.0,1.0,10.00
2024-10-11 20:21:21.283,0.76588243,0.91352767,0.7607428,0.8114598,0.45364344,0.782182,0.69551665,0.14673063,0.41685864,0.6156682,0.6072116,0.5747402,0.6457035,0.66891015,0.88376874,0.52843326,-0.25685045,0.46120906,1.1642416,-0.17260931,790.9524,807.47253,824.7985,797.3993,1002.8938,-0.14312744140625,0.07159423828125,0.99951171875,-7.52166748046875,-13.136749267578125,-4.007568359375,1,1.0,1.0,1.0,1.0,10.00
2024-10-11 20:21:21.283,0.76588243,0.91352767,0.7607428,0.8114598,0.45364344,0.782182,0.69551665,0.14673063,0.41685864,0.6156682,0.6072116,0.5747402,0.6457035,0.66891015,0.88376874,0.52843326,-0.25685045,0.46120906,1.1642416,-0.17260931,799.41394,809.4872,801.4286,816.7399,1154.7986,-0.14312744140625,0.07159423828125,0.99951171875,-7.52166748046875,-13.136749267578125,-4.007568359375,1,1.0,1.0,1.0,1.0,10.00
2024-10-11 20:21:21.313,0.76588243,0.91352767,0.7607428,0.8114598,0.45364344,0.782182,0.69551665,0.14673063,0.41685864,0.6156682,0.6072116,0.5747402,0.6457035,0.66891015,0.88376874,0.52843326,-0.25685045,0.46120906,1.1642416,-0.17260931,790.9524,792.5641,797.8022,840.5128,821.5751,-0.12469482421875,0.05169677734375,0.9903564453125,-9.144134521484375,-12.740478515625,-2.04864501953125,1,1.0,1.0,1.0,1.0,10.00
2024-10-11 20:21:21.314,0.76588243,0.91352767,0.7607428,0.8114598,0.45364344,0.782182,0.69551665,0.14673063,0.41685864,0.6156682,0.6072116,0.5747402,0.6457035,0.66891015,0.88376874,0.52843326,-0.25685045,0.46120906,1.1642416,-0.17260931,785.31134,792.1612,809.0842,811.50183,589.0842,-0.12469482421875,0.05169677734375,0.9903564453125,-9.144134521484375,-12.740478515625,-2.04864501953125,1,1.0,1.0,1.0,1.0,10.00
2024-10-11 20:21:21.315,0.76588243,0.91352767,0.7607428,0.8114598,0.45364344,0.782182,0.69551665,0.14673063,0.41685864,0.6156682,0.6072116,0.5747402,0.6457035,0.66891015,0.88376874,0.52843326,-0.25685045,0.46120906,1.1642416,-0.17260931,820.7692,794.57874,797.8022,795.38464,655.9707,-0.12469482421875,0.05169677734375,0.9903564453125,-9.144134521484375,-12.740478515625,-2.04864501953125,1,1.0,1.0,1.0,1.0,10.00
2024-10-11 20:21:21.316,0.76588243,0.91352767,0.7607428,0.8114598,0.45364344,0.782182,0.69551665,0.14673063,0.41685864,0.6156682,0.6072116,0.5747402,0.6457035,0.66891015,0.88376874,0.52843326,-0.25685045,0.46120906,1.1642416,-0.17260931,761.13556,787.72894,811.9048,814.7253,834.4689,-0.12469482421875,0.05169677734375,0.9903564453125,-9.144134521484375,-12.740478515625,-2.04864501953125,1,1.0,1.0,1.0,1.0,10.00
2024-10-11 20:21:21.316,0.76588243,0.91352767,0.7607428,0.8114598,0.45364344,0.782182,0.69551665,0.14673063,0.41685864,0.6156682,0.6072116,0.5747402,0.6457035,0.66891015,0.88376874,0.52843326,-0.25685045,0.46120906,1.1642416,-0.17260931,723.2601,806.6667,805.05493,796.99634,752.27106,-0.12469482421875,0.05169677734375,0.9903564453125,-9.144134521484375,-12.740478515625,-2.04864501953125,1,1.0,1.0,1.0,1.0,10.00
2024-10-11 20:21:21.317,0.76588243,0.8966725,0.80508906,0.8114598,0.45364344,0.73284227,0.72081745,0.14673063,0.41685864,0.57552665,0.6550739,0.5747402,0.6457035,0.68481743,0.9081799,0.52843326,-0.25685045,0.48223042,1.1774347,-0.17260931,823.9927,807.0696,777.6557,807.0696,830.4396,-0.12469482421875,0.05169677734375,0.9903564453125,-9.144134521484375,-12.740478515625,-2.04864501953125,1,1.0,1.0,1.0,1.0,10.00
2024-10-11 20:21:21.323,0.76588243,0.8966725,0.80508906,0.8114598,0.45364344,0.73284227,0.72081745,0.14673063,0.41685864,0.57552665,0.6550739,0.5747402,0.6457035,0.68481743,0.9081799,0.52843326,-0.25685045,0.48223042,1.1774347,-0.17260931,873.5531,788.93774,809.89014,810.696,1014.9817,-0.12469482421875,0.05169677734375,0.9903564453125,-9.144134521484375,-12.740478515625,-2.04864501953125,1,1.0,1.0,1.0,1.0,10.00
2024-10-11 20:21:21.323,0.76588243,0.8966725,0.80508906,0.8114598,0.45364344,0.73284227,0.72081745,0.14673063,0.41685864,0.57552665,0.6550739,0.5747402,0.6457035,0.68481743,0.9081799,0.52843326,-0.25685045,0.48223042,1.1774347,-0.17260931,818.7546,791.3553,808.68134,820.3663,904.9817,-0.12469482421875,0.05169677734375,0.9903564453125,-9.144134521484375,-12.740478515625,-2.04864501953125,1,1.0,1.0,1.0,1.0,10.00
2024-10-11 20:21:21.324,0.76588243,0.8966725,0.80508906,0.8114598,0.45364344,0.73284227,0.72081745,0.14673063,0.41685864,0.57552665,0.6550739,0.5747402,0.6457035,0.68481743,0.9081799,0.52843326,-0.25685045,0.48223042,1.1774347,-0.17260931,738.5714,781.28204,819.15753,798.60803,741.39197,-0.12469482421875,0.05169677734375,0.9903564453125,-9.144134521484375,-12.740478515625,-2.04864501953125,1,1.0,1.0,1.0,1.0,10.00
2024-10-11 20:21:21.325,0.76588243,0.8966725,0.80508906,0.8114598,0.45364344,0.73284227,0.72081745,0.14673063,0.41685864,0.57552665,0.6550739,0.5747402,0.6457035,0.68481743,0.9081799,0.52843326,-0.25685045,0.48223042,1.1774347,-0.17260931,755.4945,786.1172,811.9048,774.83514,772.01465,-0.12469482421875,0.05169677734375,0.9903564453125,-9.144134521484375,-12.740478515625,-2.04864501953125,1,1.0,1.0,1.0,1.0,10.00
2024-10-11 20:21:21.325,0.76588243,0.8966725,0.80508906,0.8114598,0.45364344,0.73284227,0.72081745,0.14673063,0.41685864,0.57552665,0.6550739,0.5747402,0.6457035,0.68481743,0.9081799,0.52843326,-0.25685045,0.48223042,1.1774347,-0.17260931,784.10254,791.3553,781.28204,815.5311,899.34064,-0.12469482421875,0.05169677734375,0.9903564453125,-9.144134521484375,-12.740478515625,-2.04864501953125,1,1.0,1.0,1.0,1.0,10.00
2024-10-11 20:21:21.326,0.76588243,0.8966725,0.80508906,0.8114598,0.45364344,0.73284227,0.72081745,0.14673063,0.41685864,0.57552665,0.6550739,0.5747402,0.6457035,0.68481743,0.9081799,0.52843326,-0.25685045,0.48223042,1.1774347,-0.17260931,769.59705,803.8461,799.41394,800.2198,855.0183,-0.12469482421875,0.05169677734375,0.9903564453125,-9.144134521484375,-12.740478515625,-2.04864501953125,1,1.0,1.0,1.0,1.0,10.00
2024-10-11 20:21:21.356,0.76588243,0.8966725,0.80508906,0.8114598,0.45364344,0.73284227,0.72081745,0.14673063,0.41685864,0.57552665,0.6550739,0.5747402,0.6457035,0.68481743,0.9081799,0.52843326,-0.25685045,0.48223042,1.1774347,-0.17260931,761.13556,809.89014,813.91943,767.1795,751.06226,-0.12255859375,0.03253173828125,1.00994873046875,-9.413299560546875,-8.6431884765625,-0.0299072265625,1,1.0,1.0,1.0,1.0,10.00
2024-10-11 20:21:21.357,0.76588243,0.8966725,0.80508906,0.8114598,0.45364344,0.73284227,0.72081745,0.14673063,0.41685864,0.57552665,0.6550739,0.5747402,0.6457035,0.68481743,0.9081799,0.52843326,-0.25685045,0.48223042,1.1774347,-0.17260931,789.7436,800.2198,799.41394,784.90845,765.9707,-0.12255859375,0.03253173828125,1.00994873046875,-9.413299560546875,-8.6431884765625,-0.0299072265625,1,1.0,1.0,1.0,1.0,10.00
2024-10-11 20:21:21.358,0.76588243,0.8966725,0.80508906,0.8114598,0.45364344,0.73284227,0.72081745,0.14673063,0.41685864,0.57552665,0.6550739,0.5747402,0.6457035,0.68481743,0.9081799,0.52843326,-0.25685045,0.48223042,1.1774347,-0.17260931,859.45056,786.1172,787.326,837.6923,959.7802,-0.12255859375,0.03253173828125,1.00994873046875,-9.413299560546875,-8.6431884765625,-0.0299072265625,1,1.0,1.0,1.0,1.0,10.00
2024-10-11 20:21:21.358,0.76588243,0.8966725,0.80508906,0.8114598,0.45364344,0.73284227,0.72081745,0.14673063,0.41685864,0.57552665,0.6550739,0.5747402,0.6457035,0.68481743,0.9081799,0.52843326,-0.25685045,0.48223042,1.1774347,-0.17260931,830.0366,792.5641,769.59705,842.1245,855.82416,-0.12255859375,0.03253173828125,1.00994873046875,-9.413299560546875,-8.6431884765625,-0.0299072265625,1,1.0,1.0,1.0,1.0,10.00
2024-10-11 20:21:21.359,0.76588243,0.8966725,0.80508906,0.8114598,0.45364344,0.73284227,0.72081745,0.14673063,0.41685864,0.57552665,0.6550739,0.5747402,0.6457035,0.68481743,0.9081799,0.52843326,-0.25685045,0.48223042,1.1774347,-0.17260931,793.36993,802.6374,785.31134,800.6227,664.83514,-0.12255859375,0.03253173828125,1.00994873046875,-9.413299560546875,-8.6431884765625,-0.0299072265625,1,1.0,1.0,1.0,1.0,10.00
2024-10-11 20:21:21.360,0.76588243,0.8966725,0.80508906,0.8114598,0.45364344,0.73284227,0.72081745,0.14673063,0.41685864,0.57552665,0.6550739,0.5747402,0.6457035,0.68481743,0.9081799,0.52843326,-0.25685045,0.48223042,1.1774347,-0.17260931,794.9817,789.7436,805.05493,784.90845,862.27106,-0.12255859375,0.03253173828125,1.00994873046875,-9.413299560546875,-8.6431884765625,-0.0299072265625,1,1.0,1.0,1.0,1.0,10.00
2024-10-11 20:21:21.360,0.76588243,0.8966725,0.80508906,0.8114598,0.45364344,0.73284227,0.72081745,0.14673063,0.41685864,0.57552665,0.6550739,0.5747402,0.6457035,0.68481743,0.9081799,0.52843326,-0.25685045,0.48223042,1.1774347,-0.17260931,837.28937,769.19415,794.17584,829.2308,926.7399,-0.12255859375,0.03253173828125,1.00994873046875,-9.413299560546875,-8.6431884765625,-0.0299072265625,1,1.0,1.0,1.0,1.0,10.00
2024-10-11 20:21:21.361,0.76588243,0.8966725,0.80508906,0.8114598,0.45364344,0.73284227,0.72081745,0.14673063,0.41685864,0.57552665,0.6550739,0.5747402,0.6457035,0.68481743,0.9081799,0.52843326,-0.25685045,0.48223042,1.1774347,-0.17260931,865.89746,782.8938,791.3553,848.97437,759.5238,-0.12255859375,0.03253173828125,1.00994873046875,-9.413299560546875,-8.6431884765625,-0.0299072265625,1,1.0,1.0,1.0,1.0,10.00
2024-10-11 20:21:21.362,0.76588243,0.8966725,0.80508906,0.8114598,0.45364344,0.73284227,0.72081745,0.14673063,0.41685864,0.57552665,0.6550739,0.5747402,0.6457035,0.68481743,0.9081799,0.52843326,-0.25685045,0.48223042,1.1774347,-0.17260931,825.6044,804.2491,780.4762,820.7692,684.9817,-0.12255859375,0.03253173828125,1.00994873046875,-9.413299560546875,-8.6431884765625,-0.0299072265625,1,1.0,1.0,1.0,1.0,10.00
2024-10-11 20:21:21.362,0.76588243,0.8966725,0.80508906,0.8114598,0.45364344,0.73284227,0.72081745,0.14673063,0.41685864,0.57552665,0.6550739,0.5747402,0.6457035,0.68481743,0.9081799,0.52843326,-0.25685045,0.48223042,1.1774347,-0.17260931,759.92676,813.91943,782.0879,803.0403,983.1502,-0.12255859375,0.03253173828125,1.00994873046875,-9.413299560546875,-8.6431884765625,-0.0299072265625,1,1.0,1.0,1.0,1.0,10.00
2024-10-11 20:21:21.363,0.76588243,0.8966725,0.80508906,0.8114598,0.45364344,0.73284227,0.72081745,0.14673063,0.41685864,0.57552665,0.6550739,0.5747402,0.6457035,0.68481743,0.9081799,0.52843326,-0.25685045,0.48223042,1.1774347,-0.17260931,732.52747,802.6374,798.60803,806.26373,1124.5787,-0.12255859375,0.03253173828125,1.00994873046875,-9.413299560546875,-8.6431884765625,-0.0299072265625,1,1.0,1.0,1.0,1.0,10.00
2024-10-11 20:21:21.364,0.76588243,0.8966725,0.80508906,0.8114598,0.45364344,0.73284227,0.72081745,0.14673063,0.41685864,0.57552665,0.6550739,0.5747402,0.6457035,0.68481743,0.9081799,0.52843326,-0.25685045,0.48223042,1.1774347,-0.17260931,838.0952,794.17584,794.9817,805.4579,749.45056,-0.12255859375,0.03253173828125,1.00994873046875,-9.413299560546875,-8.6431884765625,-0.0299072265625,1,1.0,1.0,1.0,1.0,10.00
2024-10-11 20:21:21.427,0.76588243,0.8966725,0.80508906,0.8114598,0.45364344,0.73284227,0.72081745,0.14673063,0.41685864,0.57552665,0.6550739,0.5747402,0.6457035,0.68481743,0.9081799,0.52843326,-0.25685045,0.48223042,1.1774347,-0.17260931,828.8278,788.5348,804.2491,785.7143,717.619,-0.12115478515625,0.01165771484375,1.0001220703125,-8.366546630859375,-6.11602783203125,1.2261962890625,1,1.0,1.0,1.0,1.0,10.00
2024-10-11 20:21:21.428,0.76588243,0.8966725,0.80508906,0.8114598,0.45364344,0.73284227,0.72081745,0.14673063,0.41685864,0.57552665,0.6550739,0.5747402,0.6457035,0.68481743,0.9081799,0.52843326,-0.25685045,0.48223042,1.1774347,-0.17260931,817.5458,780.4762,828.8278,804.65204,717.619,-0.12115478515625,0.01165771484375,1.0001220703125,-8.366546630859375,-6.11602783203125,1.2261962890625,1,1.0,1.0,1.0,1.0,10.00
2024-10-11 20:21:21.429,0.76588243,0.8966725,0.80508906,0.8114598,0.45364344,0.73284227,0.72081745,0.14673063,0.41685864,0.57552665,0.6550739,0.5747402,0.6457035,0.68481743,0.9081799,0.52843326,-0.25685045,0.48223042,1.1774347,-0.17260931,812.3077,809.0842,815.12823,800.6227,651.13556,-0.12115478515625,0.01165771484375,1.0001220703125,-8.366546630859375,-6.11602783203125,1.2261962890625,1,1.0,1.0,1.0,1.0,10.00
2024-10-11 20:21:21.430,0.76588243,0.8966725,0.80508906,0.8114598,0.45364344,0.73284227,0.72081745,0.14673063,0.41685864,0.57552665,0.6550739,0.5747402,0.6457035,0.68481743,0.9081799,0.52843326,-0.25685045,0.48223042,1.1774347,-0.17260931,730.5128,797.8022,787.72894,784.5055,623.73627,-0.12115478515625,0.01165771484375,1.0001220703125,-8.366546630859375,-6.11602783203125,1.2261962890625,1,1.0,1.0,1.0,1.0,10.00
2024-10-11 20:21:21.430,0.76588243,0.8966725,0.80508906,0.8114598,0.45364344,0.73284227,0.72081745,0.14673063,0.41685864,0.57552665,0.6550739,0.5747402,0.6457035,0.68481743,0.9081799,0.52843326,-0.25685045,0.48223042,1.1774347,-0.17260931,795.38464,766.3736,783.69965,819.15753,727.28937,-0.12115478515625,0.01165771484375,1.0001220703125,-8.366546630859375,-6.11602783203125,1.2261962890625,1,1.0,1.0,1.0,1.0,10.00
2024-10-11 20:21:21.431,0.76588243,0.8966725,0.80508906,0.8114598,0.45364344,0.73284227,0.72081745,0.14673063,0.41685864,0.57552665,0.6550739,0.5747402,0.6457035,0.68481743,0.9081799,0.52843326,-0.25685045,0.48223042,1.1774347,-0.17260931,839.707,788.93774,793.36993,810.293,860.65936,-0.12115478515625,0.01165771484375,1.0001220703125,-8.366546630859375,-6.11602783203125,1.2261962890625,1,1.0,1.0,1.0,1.0,10.00
2024-10-11 20:21:21.432,0.76588243,0.8966725,0.80508906,0.8114598,0.45364344,0.73284227,0.72081745,0.14673063,0.41685864,0.57552665,0.6550739,0.5747402,0.6457035,0.68481743,0.9081799,0.52843326,-0.25685045,0.48223042,1.1774347,-0.17260931,812.3077,805.05493,791.75824,800.6227,763.95605,-0.12115478515625,0.01165771484375,1.0001220703125,-8.366546630859375,-6.11602783203125,1.2261962890625,1,1.0,1.0,1.0,1.0,10.00
2024-10-11 20:21:21.433,0.76588243,0.85185426,0.8180061,0.8114598,0.45364344,0.64433825,0.7095932,0.14673063,0.41685864,0.5173172,0.66440016,0.5747402,0.6457035,0.7033125,0.90939146,0.52843326,-0.25685045,0.5033372,1.184697,-0.17260931,852.1978,786.52014,797.3993,813.5165,530.65936,-0.12115478515625,0.01165771484375,1.0001220703125,-8.366546630859375,-6.11602783203125,1.2261962890625,1,1.0,1.0,1.0,1.0,10.00
2024-10-11 20:21:21.438,0.76588243,0.85185426,0.8180061,0.8114598,0.45364344,0.64433825,0.7095932,0.14673063,0.41685864,0.5173172,0.66440016,0.5747402,0.6457035,0.7033125,0.90939146,0.52843326,-0.25685045,0.5033372,1.184697,-0.17260931,787.72894,794.17584,809.89014,785.7143,637.03296,-0.12115478515625,0.01165771484375,1.0001220703125,-8.366546630859375,-6.11602783203125,1.2261962890625,1,1.0,1.0,1.0,1.0,10.00
2024-10-11 20:21:21.439,0.76588243,0.85185426,0.8180061,0.8114598,0.45364344,0.64433825,0.7095932,0.14673063,0.41685864,0.5173172,0.66440016,0.5747402,0.6457035,0.7033125,0.90939146,0.52843326,-0.25685045,0.5033372,1.184697,-0.17260931,718.8278,803.8461,843.73627,761.53845,858.6447,-0.12115478515625,0.01165771484375,1.0001220703125,-8.366546630859375,-6.11602783203125,1.2261962890625,1,1.0,1.0,1.0,1.0,10.00
2024-10-11 20:21:21.439,0.76588243,0.85185426,0.8180061,0.8114598,0.45364344,0.64433825,0.7095932,0.14673063,0.41685864,0.5173172,0.66440016,0.5747402,0.6457035,0.7033125,0.90939146,0.52843326,-0.25685045,0.5033372,1.184697,-0.17260931,765.56775,793.36993,848.97437,786.1172,696.6667,-0.12115478515625,0.01165771484375,1.0001220703125,-8.366546630859375,-6.11602783203125,1.2261962890625,1,1.0,1.0,1.0,1.0,10.00
2024-10-11 20:21:21.440,0.76588243,0.85185426,0.8180061,0.8114598,0.45364344,0.64433825,0.7095932,0.14673063,0.41685864,0.5173172,0.66440016,0.5747402,0.6457035,0.7033125,0.90939146,0.52843326,-0.25685045,0.5033372,1.184697,-0.17260931,858.24176,784.5055,800.6227,824.3956,591.50183,-0.12115478515625,0.01165771484375,1.0001220703125,-8.366546630859375,-6.11602783203125,1.2261962890625,1,1.0,1.0,1.0,1.0,10.00
2024-10-11 20:21:21.469,0.76588243,0.85185426,0.8180061,0.8114598,0.45364344,0.64433825,0.7095932,0.14673063,0.41685864,0.5173172,0.66440016,0.5747402,0.6457035,0.7033125,0.90939146,0.52843326,-0.25685045,0.5033372,1.184697,-0.17260931,835.2747,779.2674,784.5055,847.3626,741.39197,-0.1163330078125,0.0068359375,0.9866943359375,-6.736602783203125,-3.93280029296875,1.1065673828125,1,1.0,1.0,1.0,1.0,10.00
2024-10-11 20:21:21.470,0.76588243,0.85185426,0.8180061,0.8114598,0.45364344,0.64433825,0.7095932,0.14673063,0.41685864,0.5173172,0.66440016,0.5747402,0.6457035,0.7033125,0.90939146,0.52843326,-0.25685045,0.5033372,1.184697,-0.17260931,756.7033,788.1319,815.9341,800.6227,1032.7106,-0.1163330078125,0.0068359375,0.9866943359375,-6.736602783203125,-3.93280029296875,1.1065673828125,1,1.0,1.0,1.0,1.0,10.00
2024-10-11 20:21:21.471,0.76588243,0.85185426,0.8180061,0.8114598,0.45364344,0.64433825,0.7095932,0.14673063,0.41685864,0.5173172,0.66440016,0.5747402,0.6457035,0.7033125,0.90939146,0.52843326,-0.25685045,0.5033372,1.184697,-0.17260931,736.1539,836.08057,790.54944,785.7143,846.1539,-0.1163330078125,0.0068359375,0.9866943359375,-6.736602783203125,-3.93280029296875,1.1065673828125,1,1.0,1.0,1.0,1.0,10.00
2024-10-11 20:21:21.471,0.76588243,0.85185426,0.8180061,0.8114598,0.45364344,0.64433825,0.7095932,0.14673063,0.41685864,0.5173172,0.66440016,0.5747402,0.6457035,0.7033125,0.90939146,0.52843326,-0.25685045,0.5033372,1.184697,-0.17260931,834.4689,801.02563,791.3553,828.022,630.58606,-0.1163330078125,0.0068359375,0.9866943359375,-6.736602783203125,-3.93280029296875,1.1065673828125,1,1.0,1.0,1.0,1.0,10.00
2024-10-11 20:21:21.472,0.76588243,0.85185426,0.8180061,0.8114598,0.45364344,0.64433825,0.7095932,0.14673063,0.41685864,0.5173172,0.66440016,0.5747402,0.6457035,0.7033125,0.90939146,0.52843326,-0.25685045,0.5033372,1.184697,-0.17260931,877.98535,761.53845,802.23444,828.8278,702.71063,-0.1163330078125,0.0068359375,0.9866943359375,-6.736602783203125,-3.93280029296875,1.1065673828125,1,1.0,1.0,1.0,1.0,10.00
2024-10-11 20:21:21.473,0.76588243,0.85185426,0.8180061,0.8114598,0.45364344,0.64433825,0.7095932,0.14673063,0.41685864,0.5173172,0.66440016,0.5747402,0.6457035,0.7033125,0.90939146,0.52843326,-0.25685045,0.5033372,1.184697,-0.17260931,778.86444,794.57874,799.011,804.2491,832.4542,-0.1163330078125,0.0068359375,0.9866943359375,-6.736602783203125,-3.93280029296875,1.1065673828125,1,1.0,1.0,1.0,1.0,10.00
2024-10-11 20:21:21.474,0.76588243,0.85185426,0.8180061,0.8114598,0.45364344,0.64433825,0.7095932,0.14673063,0.41685864,0.5173172,0.66440016,0.5747402,0.6457035,0.7033125,0.90939146,0.52843326,-0.25685045,0.5033372,1.184697,-0.17260931,782.8938,795.38464,822.7839,801.02563,847.76556,-0.1163330078125,0.0068359375,0.9866943359375,-6.736602783203125,-3.93280029296875,1.1065673828125,1,1.0,1.0,1.0,1.0,10.00
2024-10-11 20:21:21.474,0.76588243,0.85185426,0.8180061,0.8114598,0.45364344,0.64433825,0.7095932,0.14673063,0.41685864,0.5173172,0.66440016,0.5747402,0.6457035,0.7033125,0.90939146,0.52843326,-0.25685045,0.5033372,1.184697,-0.17260931,850.18317,795.78754,801.4286,820.3663,699.0842,-0.1163330078125,0.0068359375,0.9866943359375,-6.736602783203125,-3.93280029296875,1.1065673828125,1,1.0,1.0,1.0,1.0,10.00
2024-10-11 20:21:21.475,0.76588243,0.85185426,0.8180061,0.8114598,0.45364344,0.64433825,0.7095932,0.14673063,0.41685864,0.5173172,0.66440016,0.5747402,0.6457035,0.7033125,0.90939146,0.52843326,-0.25685045,0.5033372,1.184697,-0.17260931,841.7216,796.5934,786.52014,826.4103,800.6227,-0.1163330078125,0.0068359375,0.9866943359375,-6.736602783203125,-3.93280029296875,1.1065673828125,1,1.0,1.0,1.0,1.0,10.00
2024-10-11 20:21:21.475,0.76588243,0.85185426,0.8180061,0.8114598,0.45364344,0.64433825,0.7095932,0.14673063,0.41685864,0.5173172,0.66440016,0.5747402,0.6457035,0.7033125,0.90939146,0.52843326,-0.25685045,0.5033372,1.184697,-0.17260931,774.0293,808.68134,790.54944,805.4579,941.2454,-0.1163330078125,0.0068359375,0.9866943359375,-6.736602783203125,-3.93280029296875,1.1065673828125,1,1.0,1.0,1.0,1.0,10.00
2024-10-11 20:21:21.476,0.76588243,0.85185426,0.8180061,0.8114598,0.45364344,0.64433825,0.7095932,0.14673063,0.41685864,0.5173172,0.66440016,0.5747402,0.6457035,0.7033125,0.90939146,0.52843326,-0.25685045,0.5033372,1.184697,-0.17260931,788.1319,823.5897,794.9817,784.90845,772.4176,-0.1163330078125,0.0068359375,0.9866943359375,-6.736602783203125,-3.93280029296875,1.1065673828125,1,1.0,1.0,1.0,1.0,10.00
2024-10-11 20:21:21.477,0.76588243,0.85185426,0.8180061,0.8114598,0.45364344,0.64433825,0.7095932,0.14673063,0.41685864,0.5173172,0.66440016,0.5747402,0.6457035,0.7033125,0.90939146,0.52843326,-0.25685045,0.5033372,1.184697,-0.17260931,832.0513,788.1319,805.8608,811.9048,617.28937,-0.1163330078125,0.0068359375,0.9866943359375,-6.736602783203125,-3.93280029296875,1.1065673828125,1,1.0,1.0,1.0,1.0,10.00
2024-10-11 20:21:21.513,0.76588243,0.85185426,0.8180061,0.8114598,0.45364344,0.64433825,0.7095932,0.14673063,0.41685864,0.5173172,0.66440016,0.5747402,0.6457035,0.7033125,0.90939146,0.52843326,-0.25685045,0.5033372,1.184697,-0.17260931,829.6337,772.8205,821.1722,810.293,649.5238,-0.1163330078125,0.0068359375,0.9866943359375,-6.736602783203125,-3.93280029296875,1.1065673828125,1,1.0,1.0,1.0,1.0,10.00
2024-10-11 20:21:21.514,0.76588243,0.85185426,0.8180061,0.8114598,0.45364344,0.64433825,0.7095932,0.14673063,0.41685864,0.5173172,0.66440016,0.5747402,0.6457035,0.7033125,0.90939146,0.52843326,-0.25685045,0.5033372,1.184697,-0.17260931,784.10254,784.5055,818.7546,785.31134,664.0293,-0.1163330078125,0.0068359375,0.9866943359375,-6.736602783203125,-3.93280029296875,1.1065673828125,1,1.0,1.0,1.0,1.0,10.00
2024-10-11 20:21:21.515,0.76588243,0.85185426,0.8180061,0.8114598,0.45364344,0.64433825,0.7095932,0.14673063,0.41685864,0.5173172,0.66440016,0.5747402,0.6457035,0.7033125,0.90939146,0.52843326,-0.25685045,0.5033372,1.184697,-0.17260931,722.0513,795.38464,803.8461,807.0696,608.8278,-0.1163330078125,0.0068359375,0.9866943359375,-6.736602783203125,-3.93280029296875,1.1065673828125,1,1.0,1.0,1.0,1.0,10.00
2024-10-11 20:21:21.516,0.76588243,0.85185426,0.8180061,0.8114598,0.45364344,0.64433825,0.7095932,0.14673063,0.41685864,0.5173172,0.66440016,0.5747402,0.6457035,0.7033125,0.90939146,0.52843326,-0.25685045,0.5033372,1.184697,-0.17260931,798.20514,799.81683,802.23444,806.6667,692.23444,-0.1163330078125,0.0068359375,0.9866943359375,-6.736602783203125,-3.93280029296875,1.1065673828125,1,1.0,1.0,1.0,1.0,10.00
2024-10-11 20:21:21.517,0.76588243,0.85185426,0.8180061,0.8114598,0.45364344,0.64433825,0.7095932,0.14673063,0.41685864,0.5173172,0.66440016,0.5747402,0.6457035,0.7033125,0.90939146,0.52843326,-0.25685045,0.5033372,1.184697,-0.17260931,813.1135,792.5641,813.91943,775.64105,738.1685,-0.1163330078125,0.0068359375,0.9866943359375,-6.736602783203125,-3.93280029296875,1.1065673828125,1,1.0,1.0,1.0,1.0,10.00
2024-10-11 20:21:21.517,0.76588243,0.85185426,0.8180061,0.8114598,0.45364344,0.64433825,0.7095932,0.14673063,0.41685864,0.5173172,0.66440016,0.5747402,0.6457035,0.7033125,0.90939146,0.52843326,-0.25685045,0.5033372,1.184697,-0.17260931,738.1685,807.0696,792.96704,767.98535,791.75824,-0.1163330078125,0.0068359375,0.9866943359375,-6.736602783203125,-3.93280029296875,1.1065673828125,1,1.0,1.0,1.0,1.0,10.00
2024-10-11 20:21:21.518,0.76588243,0.85185426,0.8180061,0.8114598,0.45364344,0.64433825,0.7095932,0.14673063,0.41685864,0.5173172,0.66440016,0.5747402,0.6457035,0.7033125,0.90939146,0.52843326,-0.25685045,0.5033372,1.184697,-0.17260931,748.6447,796.99634,792.5641,780.07324,770.80585,-0.1163330078125,0.0068359375,0.9866943359375,-6.736602783203125,-3.93280029296875,1.1065673828125,1,1.0,1.0,1.0,1.0,10.00
2024-10-11 20:21:21.519,0.76588243,0.85185426,0.8180061,0.8114598,0.45364344,0.64433825,0.7095932,0.14673063,0.41685864,0.5173172,0.66440016,0.5747402,0.6457035,0.7033125,0.90939146,0.52843326,-0.25685045,0.5033372,1.184697,-0.17260931,796.99634,768.3883,821.978,784.5055,672.49084,-0.1163330078125,0.0068359375,0.9866943359375,-6.736602783203125,-3.93280029296875,1.1065673828125,1,1.0,1.0,1.0,1.0,10.00
2024-10-11 20:21:21.519,0.76588243,0.85185426,0.8180061,0.8114598,0.45364344,0.64433825,0.7095932,0.14673063,0.41685864,0.5173172,0.66440016,0.5747402,0.6457035,0.7033125,0.90939146,0.52843326,-0.25685045,0.5033372,1.184697,-0.17260931,794.9817,779.67035,820.3663,782.49084,753.0769,-0.1163330078125,0.0068359375,0.9866943359375,-6.736602783203125,-3.93280029296875,1.1065673828125,1,1.0,1.0,1.0,1.0,10.00
2024-10-11 20:21:21.520,0.76588243,0.74888444,0.8025624,0.8114598,0.45364344,0.50272477,0.685779,0.14673063,0.41685864,0.43774185,0.6818488,0.5747402,0.6457035,0.7363185,0.9001074,0.52843326,-0.25685045,0.5647026,1.1862203,-0.17260931,762.3443,802.23444,808.68134,787.72894,715.6044,-0.1163330078125,0.0068359375,0.9866943359375,-6.736602783203125,-3.93280029296875,1.1065673828125,1,1.0,1.0,1.0,1.0,10.00
2024-10-11 20:21:21.525,0.76588243,0.74888444,0.8025624,0.8114598,0.45364344,0.50272477,0.685779,0.14673063,0.41685864,0.43774185,0.6818488,0.5747402,0.6457035,0.7363185,0.9001074,0.52843326,-0.25685045,0.5647026,1.1862203,-0.17260931,772.01465,801.02563,804.2491,792.1612,701.50183,-0.1163330078125,0.0068359375,0.9866943359375,-6.736602783203125,-3.93280029296875,1.1065673828125,1,1.0,1.0,1.0,1.0,10.00
2024-10-11 20:21:21.526,0.76588243,0.74888444,0.8025624,0.8114598,0.45364344,0.50272477,0.685779,0.14673063,0.41685864,0.43774185,0.6818488,0.5747402,0.6457035,0.7363185,0.9001074,0.52843326,-0.25685045,0.5647026,1.1862203,-0.17260931,798.20514,778.86444,807.0696,799.41394,768.3883,-0.1163330078125,0.0068359375,0.9866943359375,-6.736602783203125,-3.93280029296875,1.1065673828125,1,1.0,1.0,1.0,1.0,10.00
2024-10-11 20:21:21.559,0.76588243,0.74888444,0.8025624,0.8114598,0.45364344,0.50272477,0.685779,0.14673063,0.41685864,0.43774185,0.6818488,0.5747402,0.6457035,0.7363185,0.9001074,0.52843326,-0.25685045,0.5647026,1.1862203,-0.17260931,790.14655,803.0403,787.72894,802.23444,1027.4725,-0.11553955078125,0.00665283203125,0.99798583984375,-4.942169189453125,-3.117828369140625,1.86920166015625,1,1.0,1.0,1.0,1.0,10.00
2024-10-11 20:21:21.560,0.76588243,0.74888444,0.8025624,0.8114598,0.45364344,0.50272477,0.685779,0.14673063,0.41685864,0.43774185,0.6818488,0.5747402,0.6457035,0.7363185,0.9001074,0.52843326,-0.25685045,0.5647026,1.1862203,-0.17260931,730.10986,815.9341,788.1319,798.60803,904.17584,-0.11553955078125,0.00665283203125,0.99798583984375,-4.942169189453125,-3.117828369140625,1.86920166015625,1,1.0,1.0,1.0,1.0,10.00
2024-10-11 20:21:21.561,0.76588243,0.74888444,0.8025624,0.8114598,0.45364344,0.50272477,0.685779,0.14673063,0.41685864,0.43774185,0.6818488,0.5747402,0.6457035,0.7363185,0.9001074,0.52843326,-0.25685045,0.5647026,1.1862203,-0.17260931,831.6484,767.1795,811.0989,801.02563,609.2308,-0.11553955078125,0.00665283203125,0.99798583984375,-4.942169189453125,-3.117828369140625,1.86920166015625,1,1.0,1.0,1.0,1.0,10.00
2024-10-11 20:21:21.561,0.76588243,0.74888444,0.8025624,0.8114598,0.45364344,0.50272477,0.685779,0.14673063,0.41685864,0.43774185,0.6818488,0.5747402,0.6457035,0.7363185,0.9001074,0.52843326,-0.25685045,0.5647026,1.1862203,-0.17260931,854.61536,771.6117,811.50183,815.5311,673.2967,-0.11553955078125,0.00665283203125,0.99798583984375,-4.942169189453125,-3.117828369140625,1.86920166015625,1,1.0,1.0,1.0,1.0,10.00
2024-10-11 20:21:21.562,0.76588243,0.74888444,0.8025624,0.8114598,0.45364344,0.50272477,0.685779,0.14673063,0.41685864,0.43774185,0.6818488,0.5747402,0.6457035,0.7363185,0.9001074,0.52843326,-0.25685045,0.5647026,1.1862203,-0.17260931,799.81683,785.31134,817.5458,791.75824,632.6007,-0.11553955078125,0.00665283203125,0.99798583984375,-4.942169189453125,-3.117828369140625,1.86920166015625,1,1.0,1.0,1.0,1.0,10.00
2024-10-11 20:21:21.563,0.76588243,0.74888444,0.8025624,0.8114598,0.45364344,0.50272477,0.685779,0.14673063,0.41685864,0.43774185,0.6818488,0.5747402,0.6457035,0.7363185,0.9001074,0.52843326,-0.25685045,0.5647026,1.1862203,-0.17260931,792.1612,784.90845,798.20514,775.2381,632.1978,-0.11553955078125,0.00665283203125,0.99798583984375,-4.942169189453125,-3.117828369140625,1.86920166015625,1,1.0,1.0,1.0,1.0,10.00
2024-10-11 20:21:21.563,0.76588243,0.74888444,0.8025624,0.8114598,0.45364344,0.50272477,0.685779,0.14673063,0.41685864,0.43774185,0.6818488,0.5747402,0.6457035,0.7363185,0.9001074,0.52843326,-0.25685045,0.5647026,1.1862203,-0.17260931,773.6264,801.8315,783.69965,803.0403,765.16486,-0.11553955078125,0.00665283203125,0.99798583984375,-4.942169189453125,-3.117828369140625,1.86920166015625,1,1.0,1.0,1.0,1.0,10.00
2024-10-11 20:21:21.564,0.76588243,0.74888444,0.8025624,0.8114598,0.45364344,0.50272477,0.685779,0.14673063,0.41685864,0.43774185,0.6818488,0.5747402,0.6457035,0.7363185,0.9001074,0.52843326,-0.25685045,0.5647026,1.1862203,-0.17260931,764.7619,811.9048,799.41394,788.1319,1081.4652,-0.11553955078125,0.00665283203125,0.99798583984375,-4.942169189453125,-3.117828369140625,1.86920166015625,1,1.0,1.0,1.0,1.0,10.00
2024-10-11 20:21:21.565,0.76588243,0.74888444,0.8025624,0.8114598,0.45364344,0.50272477,0.685779,0.14673063,0.41685864,0.43774185,0.6818488,0.5747402,0.6457035,0.7363185,0.9001074,0.52843326,-0.25685045,0.5647026,1.1862203,-0.17260931,778.46155,791.75824,804.65204,792.5641,1014.9817,-0.11553955078125,0.00665283203125,0.99798583984375,-4.942169189453125,-3.117828369140625,1.86920166015625,1,1.0,1.0,1.0,1.0,10.00
2024-10-11 20:21:21.565,0.76588243,0.74888444,0.8025624,0.8114598,0.45364344,0.50272477,0.685779,0.14673063,0.41685864,0.43774185,0.6818488,0.5747402,0.6457035,0.7363185,0.9001074,0.52843326,-0.25685045,0.5647026,1.1862203,-0.17260931,794.9817,785.31134,810.293,807.8755,542.74725,-0.11553955078125,0.00665283203125,0.99798583984375,-4.942169189453125,-3.117828369140625,1.86920166015625,1,1.0,1.0,1.0,1.0,10.00
2024-10-11 20:21:21.566,0.76588243,0.74888444,0.8025624,0.8114598,0.45364344,0.50272477,0.685779,0.14673063,0.41685864,0.43774185,0.6818488,0.5747402,0.6457035,0.7363185,0.9001074,0.52843326,-0.25685045,0.5647026,1.1862203,-0.17260931,808.68134,786.52014,822.7839,799.41394,545.9707,-0.11553955078125,0.00665283203125,0.99798583984375,-4.942169189453125,-3.117828369140625,1.86920166015625,1,1.0,1.0,1.0,1.0,10.00
2024-10-11 20:21:21.567,0.76588243,0.74888444,0.8025624,0.8114598,0.45364344,0.50272477,0.685779,0.14673063,0.41685864,0.43774185,0.6818488,0.5747402,0.6457035,0.7363185,0.9001074,0.52843326,-0.25685045,0.5647026,1.1862203,-0.17260931,834.87177,785.31134,812.71063,806.6667,769.19415,-0.11553955078125,0.00665283203125,0.99798583984375,-4.942169189453125,-3.117828369140625,1.86920166015625,1,1.0,1.0,1.0,1.0,10.00
2024-10-11 20:21:21.600,0.76588243,0.74888444,0.8025624,0.8114598,0.45364344,0.50272477,0.685779,0.14673063,0.41685864,0.43774185,0.6818488,0.5747402,0.6457035,0.7363185,0.9001074,0.52843326,-0.25685045,0.5647026,1.1862203,-0.17260931,838.0952,786.52014,804.65204,805.05493,731.31866,-0.107177734375,-6.103515625E-4,1.0068359375,-3.581390380859375,-5.031890869140625,3.70849609375,1,1.0,1.0,1.0,1.0,10.00
2024-10-11 20:21:21.601,0.76588243,0.74888444,0.8025624,0.8114598,0.45364344,0.50272477,0.685779,0.14673063,0.41685864,0.43774185,0.6818488,0.5747402,0.6457035,0.7363185,0.9001074,0.52843326,-0.25685045,0.5647026,1.1862203,-0.17260931,826.8132,807.0696,807.47253,788.93774,570.54944,-0.107177734375,-6.103515625E-4,1.0068359375,-3.581390380859375,-5.031890869140625,3.70849609375,1,1.0,1.0,1.0,1.0,10.00
2024-10-11 20:21:21.602,0.76588243,0.74888444,0.8025624,0.8114598,0.45364344,0.50272477,0.685779,0.14673063,0.41685864,0.43774185,0.6818488,0.5747402,0.6457035,0.7363185,0.9001074,0.52843326,-0.25685045,0.5647026,1.1862203,-0.17260931,775.64105,815.12823,795.38464,800.2198,566.1172,-0.107177734375,-6.103515625E-4,1.0068359375,-3.581390380859375,-5.031890869140625,3.70849609375,1,1.0,1.0,1.0,1.0,10.00
2024-10-11 20:21:21.602,0.76588243,0.74888444,0.8025624,0.8114598,0.45364344,0.50272477,0.685779,0.14673063,0.41685864,0.43774185,0.6818488,0.5747402,0.6457035,0.7363185,0.9001074,0.52843326,-0.25685045,0.5647026,1.1862203,-0.17260931,825.2015,789.34064,806.26373,817.1429,832.8571,-0.107177734375,-6.103515625E-4,1.0068359375,-3.581390380859375,-5.031890869140625,3.70849609375,1,1.0,1.0,1.0,1.0,10.00
2024-10-11 20:21:21.603,0.76588243,0.74888444,0.8025624,0.8114598,0.45364344,0.50272477,0.685779,0.14673063,0.41685864,0.43774185,0.6818488,0.5747402,0.6457035,0.7363185,0.9001074,0.52843326,-0.25685045,0.5647026,1.1862203,-0.17260931,809.4872,781.685,805.8608,807.47253,792.1612,-0.107177734375,-6.103515625E-4,1.0068359375,-3.581390380859375,-5.031890869140625,3.70849609375,1,1.0,1.0,1.0,1.0,10.00
2024-10-11 20:21:21.604,0.76588243,0.74888444,0.8025624,0.8114598,0.45364344,0.50272477,0.685779,0.14673063,0.41685864,0.43774185,0.6818488,0.5747402,0.6457035,0.7363185,0.9001074,0.52843326,-0.25685045,0.5647026,1.1862203,-0.17260931,770.0,804.65204,786.52014,788.1319,603.1868,-0.107177734375,-6.103515625E-4,1.0068359375,-3.581390380859375,-5.031890869140625,3.70849609375,1,1.0,1.0,1.0,1.0,10.00
2024-10-11 20:21:21.604,0.76588243,0.74888444,0.8025624,0.8114598,0.45364344,0.50272477,0.685779,0.14673063,0.41685864,0.43774185,0.6818488,0.5747402,0.6457035,0.7363185,0.9001074,0.52843326,-0.25685045,0.5647026,1.1862203,-0.17260931,802.23444,790.9524,800.6227,788.5348,796.99634,-0.107177734375,-6.103515625E-4,1.0068359375,-3.581390380859375,-5.031890869140625,3.70849609375,1,1.0,1.0,1.0,1.0,10.00
2024-10-11 20:21:21.605,0.76588243,0.74888444,0.8025624,0.8114598,0.45364344,0.50272477,0.685779,0.14673063,0.41685864,0.43774185,0.6818488,0.5747402,0.6457035,0.7363185,0.9001074,0.52843326,-0.25685045,0.5647026,1.1862203,-0.17260931,780.07324,791.75824,806.6667,809.89014,926.7399,-0.107177734375,-6.103515625E-4,1.0068359375,-3.581390380859375,-5.031890869140625,3.70849609375,1,1.0,1.0,1.0,1.0,10.00
2024-10-11 20:21:21.606,0.76588243,0.74888444,0.8025624,0.8114598,0.45364344,0.50272477,0.685779,0.14673063,0.41685864,0.43774185,0.6818488,0.5747402,0.6457035,0.7363185,0.9001074,0.52843326,-0.25685045,0.5647026,1.1862203,-0.17260931,774.83514,815.12823,796.1905,817.9487,749.85345,-0.107177734375,-6.103515625E-4,1.0068359375,-3.581390380859375,-5.031890869140625,3.70849609375,1,1.0,1.0,1.0,1.0,10.00
2024-10-11 20:21:21.606,0.76588243,0.74888444,0.8025624,0.8114598,0.45364344,0.50272477,0.685779,0.14673063,0.41685864,0.43774185,0.6818488,0.5747402,0.6457035,0.7363185,0.9001074,0.52843326,-0.25685045,0.5647026,1.1862203,-0.17260931,830.84247,800.6227,801.02563,812.71063,644.2857,-0.107177734375,-6.103515625E-4,1.0068359375,-3.581390380859375,-5.031890869140625,3.70849609375,1,1.0,1.0,1.0,1.0,10.00
2024-10-11 20:21:21.607,0.76588243,0.74888444,0.8025624,0.8114598,0.45364344,0.50272477,0.685779,0.14673063,0.41685864,0.43774185,0.6818488,0.5747402,0.6457035,0.7363185,0.9001074,0.52843326,-0.25685045,0.5647026,1.1862203,-0.17260931,826.8132,784.5055,803.0403,820.3663,747.8388,-0.107177734375,-6.103515625E-4,1.0068359375,-3.581390380859375,-5.031890869140625,3.70849609375,1,1.0,1.0,1.0,1.0,10.00
2024-10-11 20:21:21.608,0.76588243,0.6245017,0.7720059,0.8114598,0.45364344,0.37091368,0.66318715,0.14673063,0.41685864,0.34108564,0.71679044,0.5747402,0.6457035,0.76284486,0.891454,0.52843326,-0.25685045,0.61910117,1.1793607,-0.17260931,813.1135,792.5641,800.6227,813.1135,832.8571,-0.107177734375,-6.103515625E-4,1.0068359375,-3.581390380859375,-5.031890869140625,3.70849609375,1,1.0,1.0,1.0,1.0,10.00
2024-10-11 20:21:21.679,0.76588243,0.6245017,0.7720059,0.8114598,0.45364344,0.37091368,0.66318715,0.14673063,0.41685864,0.34108564,0.71679044,0.5747402,0.6457035,0.76284486,0.891454,0.52843326,-0.25685045,0.61910117,1.1793607,-0.17260931,814.7253,794.17584,816.337,789.7436,719.6337,-0.10150146484375,-0.00537109375,1.00762939453125,-1.71966552734375,-8.874969482421875,2.773895263671875,1,1.0,1.0,1.0,1.0,10.00
2024-10-11 20:21:21.680,0.76588243,0.6245017,0.7720059,0.8114598,0.45364344,0.37091368,0.66318715,0.14673063,0.41685864,0.34108564,0.71679044,0.5747402,0.6457035,0.76284486,0.891454,0.52843326,-0.25685045,0.61910117,1.1793607,-0.17260931,773.6264,788.1319,831.2454,780.4762,643.0769,-0.10150146484375,-0.00537109375,1.00762939453125,-1.71966552734375,-8.874969482421875,2.773895263671875,1,1.0,1.0,1.0,1.0,10.00
2024-10-11 20:21:21.681,0.76588243,0.6245017,0.7720059,0.8114598,0.45364344,0.37091368,0.66318715,0.14673063,0.41685864,0.34108564,0.71679044,0.5747402,0.6457035,0.76284486,0.891454,0.52843326,-0.25685045,0.61910117,1.1793607,-0.17260931,796.99634,789.7436,793.36993,805.8608,789.7436,-0.10150146484375,-0.00537109375,1.00762939453125,-1.71966552734375,-8.874969482421875,2.773895263671875,1,1.0,1.0,1.0,1.0,10.00
2024-10-11 20:21:21.681,0.76588243,0.6245017,0.7720059,0.8114598,0.45364344,0.37091368,0.66318715,0.14673063,0.41685864,0.34108564,0.71679044,0.5747402,0.6457035,0.76284486,0.891454,0.52843326,-0.25685045,0.61910117,1.1793607,-0.17260931,821.5751,792.5641,775.2381,813.5165,823.5897,-0.10150146484375,-0.00537109375,1.00762939453125,-1.71966552734375,-8.874969482421875,2.773895263671875,1,1.0,1.0,1.0,1.0,10.00
2024-10-11 20:21:21.682,0.76588243,0.6245017,0.7720059,0.8114598,0.45364344,0.37091368,0.66318715,0.14673063,0.41685864,0.34108564,0.71679044,0.5747402,0.6457035,0.76284486,0.891454,0.52843326,-0.25685045,0.61910117,1.1793607,-0.17260931,792.1612,786.9231,793.36993,803.0403,667.25275,-0.10150146484375,-0.00537109375,1.00762939453125,-1.71966552734375,-8.874969482421875,2.773895263671875,1,1.0,1.0,1.0,1.0,10.00
2024-10-11 20:21:21.683,0.76588243,0.6245017,0.7720059,0.8114598,0.45364344,0.37091368,0.66318715,0.14673063,0.41685864,0.34108564,0.71679044,0.5747402,0.6457035,0.76284486,0.891454,0.52843326,-0.25685045,0.61910117,1.1793607,-0.17260931,798.20514,790.14655,810.293,799.41394,666.8498,-0.10150146484375,-0.00537109375,1.00762939453125,-1.71966552734375,-8.874969482421875,2.773895263671875,1,1.0,1.0,1.0,1.0,10.00
2024-10-11 20:21:21.683,0.76588243,0.6245017,0.7720059,0.8114598,0.45364344,0.37091368,0.66318715,0.14673063,0.41685864,0.34108564,0.71679044,0.5747402,0.6457035,0.76284486,0.891454,0.52843326,-0.25685045,0.61910117,1.1793607,-0.17260931,802.23444,799.81683,800.6227,793.7729,927.5458,-0.10150146484375,-0.00537109375,1.00762939453125,-1.71966552734375,-8.874969482421875,2.773895263671875,1,1.0,1.0,1.0,1.0,10.00
2024-10-11 20:21:21.684,0.76588243,0.6245017,0.7720059,0.8114598,0.45364344,0.37091368,0.66318715,0.14673063,0.41685864,0.34108564,0.71679044,0.5747402,0.6457035,0.76284486,0.891454,0.52843326,-0.25685045,0.61910117,1.1793607,-0.17260931,749.85345,798.20514,808.2784,775.2381,1017.8022,-0.10150146484375,-0.00537109375,1.00762939453125,-1.71966552734375,-8.874969482421875,2.773895263671875,1,1.0,1.0,1.0,1.0,10.00
2024-10-11 20:21:21.685,0.76588243,0.6245017,0.7720059,0.8114598,0.45364344,0.37091368,0.66318715,0.14673063,0.41685864,0.34108564,0.71679044,0.5747402,0.6457035,0.76284486,0.891454,0.52843326,-0.25685045,0.61910117,1.1793607,-0.17260931,786.52014,795.38464,809.4872,768.3883,763.5531,-0.10150146484375,-0.00537109375,1.00762939453125,-1.71966552734375,-8.874969482421875,2.773895263671875,1,1.0,1.0,1.0,1.0,10.00
2024-10-11 20:21:21.686,0.76588243,0.6245017,0.7720059,0.8114598,0.45364344,0.37091368,0.66318715,0.14673063,0.41685864,0.34108564,0.71679044,0.5747402,0.6457035,0.76284486,0.891454,0.52843326,-0.25685045,0.61910117,1.1793607,-0.17260931,780.07324,799.011,804.2491,775.2381,736.1539,-0.10150146484375,-0.00537109375,1.00762939453125,-1.71966552734375,-8.874969482421875,2.773895263671875,1,1.0,1.0,1.0,1.0,10.00
2024-10-11 20:21:21.686,0.76588243,0.6245017,0.7720059,0.8114598,0.45364344,0.37091368,0.66318715,0.14673063,0.41685864,0.34108564,0.71679044,0.5747402,0.6457035,0.76284486,0.891454,0.52843326,-0.25685045,0.61910117,1.1793607,-0.17260931,740.58606,810.293,805.4579,780.87915,975.09155,-0.10150146484375,-0.00537109375,1.00762939453125,-1.71966552734375,-8.874969482421875,2.773895263671875,1,1.0,1.0,1.0,1.0,10.00
2024-10-11 20:21:21.687,0.76588243,0.6245017,0.7720059,0.8114598,0.45364344,0.37091368,0.66318715,0.14673063,0.41685864,0.34108564,0.71679044,0.5747402,0.6457035,0.76284486,0.891454,0.52843326,-0.25685045,0.61910117,1.1793607,-0.17260931,817.1429,794.57874,805.8608,780.87915,1119.7435,-0.10150146484375,-0.00537109375,1.00762939453125,-1.71966552734375,-8.874969482421875,2.773895263671875,1,1.0,1.0,1.0,1.0,10.00
2024-10-11 20:21:21.688,0.76588243,0.6245017,0.7720059,0.8114598,0.45364344,0.37091368,0.66318715,0.14673063,0.41685864,0.34108564,0.71679044,0.5747402,0.6457035,0.76284486,0.891454,0.52843326,-0.25685045,0.61910117,1.1793607,-0.17260931,809.4872,774.83514,811.50183,780.4762,821.5751,-0.0916748046875,-0.00335693359375,1.00146484375,-0.770111083984375,-8.2843017578125,-0.61309814453125,1,1.0,1.0,1.0,1.0,10.00
2024-10-11 20:21:21.689,0.76588243,0.6245017,0.7720059,0.8114598,0.45364344,0.37091368,0.66318715,0.14673063,0.41685864,0.34108564,0.71679044,0.5747402,0.6457035,0.76284486,0.891454,0.52843326,-0.25685045,0.61910117,1.1793607,-0.17260931,803.8461,785.7143,809.89014,796.99634,790.54944,-0.0916748046875,-0.00335693359375,1.00146484375,-0.770111083984375,-8.2843017578125,-0.61309814453125,1,1.0,1.0,1.0,1.0,10.00
2024-10-11 20:21:21.690,0.76588243,0.6245017,0.7720059,0.8114598,0.45364344,0.37091368,0.66318715,0.14673063,0.41685864,0.34108564,0.71679044,0.5747402,0.6457035,0.76284486,0.891454,0.52843326,-0.25685045,0.61910117,1.1793607,-0.17260931,831.6484,795.78754,799.81683,799.81683,911.02563,-0.0916748046875,-0.00335693359375,1.00146484375,-0.770111083984375,-8.2843017578125,-0.61309814453125,1,1.0,1.0,1.0,1.0,10.00
2024-10-11 20:21:21.691,0.76588243,0.6245017,0.7720059,0.8114598,0.45364344,0.37091368,0.66318715,0.14673063,0.41685864,0.34108564,0.71679044,0.5747402,0.6457035,0.76284486,0.891454,0.52843326,-0.25685045,0.61910117,1.1793607,-0.17260931,813.91943,789.7436,805.4579,810.696,873.1502,-0.0916748046875,-0.00335693359375,1.00146484375,-0.770111083984375,-8.2843017578125,-0.61309814453125,1,1.0,1.0,1.0,1.0,10.00
2024-10-11 20:21:21.692,0.76588243,0.6245017,0.7720059,0.8114598,0.45364344,0.37091368,0.66318715,0.14673063,0.41685864,0.34108564,0.71679044,0.5747402,0.6457035,0.76284486,0.891454,0.52843326,-0.25685045,0.61910117,1.1793607,-0.17260931,781.28204,792.1612,813.1135,773.22345,787.326,-0.0916748046875,-0.00335693359375,1.00146484375,-0.770111083984375,-8.2843017578125,-0.61309814453125,1,1.0,1.0,1.0,1.0,10.00
2024-10-11 20:21:21.692,0.76588243,0.6245017,0.7720059,0.8114598,0.45364344,0.37091368,0.66318715,0.14673063,0.41685864,0.34108564,0.71679044,0.5747402,0.6457035,0.76284486,0.891454,0.52843326,-0.25685045,0.61910117,1.1793607,-0.17260931,814.3223,785.7143,799.011,769.19415,813.91943,-0.0916748046875,-0.00335693359375,1.00146484375,-0.770111083984375,-8.2843017578125,-0.61309814453125,1,1.0,1.0,1.0,1.0,10.00
2024-10-11 20:21:21.693,0.76588243,0.6245017,0.7720059,0.8114598,0.45364344,0.37091368,0.66318715,0.14673063,0.41685864,0.34108564,0.71679044,0.5747402,0.6457035,0.76284486,0.891454,0.52843326,-0.25685045,0.61910117,1.1793607,-0.17260931,829.2308,802.23444,782.8938,810.696,979.12085,-0.0916748046875,-0.00335693359375,1.00146484375,-0.770111083984375,-8.2843017578125,-0.61309814453125,1,1.0,1.0,1.0,1.0,10.00
2024-10-11 20:21:21.694,0.76588243,0.6245017,0.7720059,0.8114598,0.45364344,0.37091368,0.66318715,0.14673063,0.41685864,0.34108564,0.71679044,0.5747402,0.6457035,0.76284486,0.891454,0.52843326,-0.25685045,0.61910117,1.1793607,-0.17260931,826.4103,807.0696,796.1905,789.34064,917.8755,-0.0916748046875,-0.00335693359375,1.00146484375,-0.770111083984375,-8.2843017578125,-0.61309814453125,1,1.0,1.0,1.0,1.0,10.00
2024-10-11 20:21:21.694,0.76588243,0.6245017,0.7720059,0.8114598,0.45364344,0.37091368,0.66318715,0.14673063,0.41685864,0.34108564,0.71679044,0.5747402,0.6457035,0.76284486,0.891454,0.52843326,-0.25685045,0.61910117,1.1793607,-0.17260931,764.35895,791.3553,805.4579,789.34064,702.71063,-0.0916748046875,-0.00335693359375,1.00146484375,-0.770111083984375,-8.2843017578125,-0.61309814453125,1,1.0,1.0,1.0,1.0,10.00
2024-10-11 20:21:21.695,0.76588243,0.6245017,0.7720059,0.8114598,0.45364344,0.37091368,0.66318715,0.14673063,0.41685864,0.34108564,0.71679044,0.5747402,0.6457035,0.76284486,0.891454,0.52843326,-0.25685045,0.61910117,1.1793607,-0.17260931,749.45056,811.0989,798.60803,801.02563,804.2491,-0.0916748046875,-0.00335693359375,1.00146484375,-0.770111083984375,-8.2843017578125,-0.61309814453125,1,1.0,1.0,1.0,1.0,10.00
2024-10-11 20:21:21.696,0.76588243,0.6245017,0.7720059,0.8114598,0.45364344,0.37091368,0.66318715,0.14673063,0.41685864,0.34108564,0.71679044,0.5747402,0.6457035,0.76284486,0.891454,0.52843326,-0.25685045,0.61910117,1.1793607,-0.17260931,818.7546,800.6227,807.8755,802.23444,1013.7729,-0.0916748046875,-0.00335693359375,1.00146484375,-0.770111083984375,-8.2843017578125,-0.61309814453125,1,1.0,1.0,1.0,1.0,10.00
2024-10-11 20:21:21.696,0.76588243,0.6245017,0.7720059,0.8114598,0.45364344,0.37091368,0.66318715,0.14673063,0.41685864,0.34108564,0.71679044,0.5747402,0.6457035,0.76284486,0.891454,0.52843326,-0.25685045,0.61910117,1.1793607,-0.17260931,833.663,790.9524,814.3223,813.5165,857.4359,-0.0916748046875,-0.00335693359375,1.00146484375,-0.770111083984375,-8.2843017578125,-0.61309814453125,1,1.0,1.0,1.0,1.0,10.00
2024-10-11 20:21:21.726,0.76588243,0.6245017,0.7720059,0.8114598,0.45364344,0.37091368,0.66318715,0.14673063,0.41685864,0.34108564,0.71679044,0.5747402,0.6457035,0.76284486,0.891454,0.52843326,-0.25685045,0.61910117,1.1793607,-0.17260931,770.0,807.0696,814.7253,790.54944,640.2564,-0.07244873046875,0.0047607421875,1.01776123046875,-0.844879150390625,-6.62445068359375,-1.727142333984375,1,1.0,1.0,1.0,1.0,10.00
2024-10-11 20:21:21.727,0.76588243,0.52985173,0.7400678,0.8114598,0.45364344,0.31620264,0.64211094,0.14673063,0.41685864,0.26753527,0.75266653,0.5747402,0.6457035,0.7838665,0.88667655,0.52843326,-0.25685045,0.64742416,1.1673771,-0.17260931,740.18317,811.50183,804.65204,768.3883,845.34796,-0.07244873046875,0.0047607421875,1.01776123046875,-0.844879150390625,-6.62445068359375,-1.727142333984375,1,1.0,1.0,1.0,1.0,10.00
2024-10-11 20:21:21.732,0.76588243,0.52985173,0.7400678,0.8114598,0.45364344,0.31620264,0.64211094,0.14673063,0.41685864,0.26753527,0.75266653,0.5747402,0.6457035,0.7838665,0.88667655,0.52843326,-0.25685045,0.64742416,1.1673771,-0.17260931,767.5824,808.2784,812.3077,783.69965,977.9121,-0.07244873046875,0.0047607421875,1.01776123046875,-0.844879150390625,-6.62445068359375,-1.727142333984375,1,1.0,1.0,1.0,1.0,10.00
2024-10-11 20:21:21.733,0.76588243,0.52985173,0.7400678,0.8114598,0.45364344,0.31620264,0.64211094,0.14673063,0.41685864,0.26753527,0.75266653,0.5747402,0.6457035,0.7838665,0.88667655,0.52843326,-0.25685045,0.64742416,1.1673771,-0.17260931,836.4835,787.72894,821.978,810.293,689.011,-0.07244873046875,0.0047607421875,1.01776123046875,-0.844879150390625,-6.62445068359375,-1.727142333984375,1,1.0,1.0,1.0,1.0,10.00
2024-10-11 20:21:21.734,0.76588243,0.52985173,0.7400678,0.8114598,0.45364344,0.31620264,0.64211094,0.14673063,0.41685864,0.26753527,0.75266653,0.5747402,0.6457035,0.7838665,0.88667655,0.52843326,-0.25685045,0.64742416,1.1673771,-0.17260931,882.01465,765.9707,805.8608,830.84247,567.326,-0.07244873046875,0.0047607421875,1.01776123046875,-0.844879150390625,-6.62445068359375,-1.727142333984375,1,1.0,1.0,1.0,1.0,10.00
2024-10-11 20:21:21.734,0.76588243,0.52985173,0.7400678,0.8114598,0.45364344,0.31620264,0.64211094,0.14673063,0.41685864,0.26753527,0.75266653,0.5747402,0.6457035,0.7838665,0.88667655,0.52843326,-0.25685045,0.64742416,1.1673771,-0.17260931,834.87177,786.52014,811.0989,808.2784,898.93774,-0.07244873046875,0.0047607421875,1.01776123046875,-0.844879150390625,-6.62445068359375,-1.727142333984375,1,1.0,1.0,1.0,1.0,10.00
2024-10-11 20:21:21.735,0.76588243,0.52985173,0.7400678,0.8114598,0.45364344,0.31620264,0.64211094,0.14673063,0.41685864,0.26753527,0.75266653,0.5747402,0.6457035,0.7838665,0.88667655,0.52843326,-0.25685045,0.64742416,1.1673771,-0.17260931,789.7436,800.6227,812.71063,775.2381,1024.652,-0.07244873046875,0.0047607421875,1.01776123046875,-0.844879150390625,-6.62445068359375,-1.727142333984375,1,1.0,1.0,1.0,1.0,10.00
2024-10-11 20:21:21.736,0.76588243,0.52985173,0.7400678,0.8114598,0.45364344,0.31620264,0.64211094,0.14673063,0.41685864,0.26753527,0.75266653,0.5747402,0.6457035,0.7838665,0.88667655,0.52843326,-0.25685045,0.64742416,1.1673771,-0.17260931,706.7399,806.6667,810.696,784.90845,806.26373,-0.07244873046875,0.0047607421875,1.01776123046875,-0.844879150390625,-6.62445068359375,-1.727142333984375,1,1.0,1.0,1.0,1.0,10.00
2024-10-11 20:21:21.736,0.76588243,0.52985173,0.7400678,0.8114598,0.45364344,0.31620264,0.64211094,0.14673063,0.41685864,0.26753527,0.75266653,0.5747402,0.6457035,0.7838665,0.88667655,0.52843326,-0.25685045,0.64742416,1.1673771,-0.17260931,801.02563,797.8022,807.47253,804.65204,683.7729,-0.07244873046875,0.0047607421875,1.01776123046875,-0.844879150390625,-6.62445068359375,-1.727142333984375,1,1.0,1.0,1.0,1.0,10.00
2024-10-11 20:21:21.737,0.76588243,0.52985173,0.7400678,0.8114598,0.45364344,0.31620264,0.64211094,0.14673063,0.41685864,0.26753527,0.75266653,0.5747402,0.6457035,0.7838665,0.88667655,0.52843326,-0.25685045,0.64742416,1.1673771,-0.17260931,849.7802,784.90845,807.0696,822.7839,826.4103,-0.07244873046875,0.0047607421875,1.01776123046875,-0.844879150390625,-6.62445068359375,-1.727142333984375,1,1.0,1.0,1.0,1.0,10.00
2024-10-11 20:21:21.738,0.76588243,0.52985173,0.7400678,0.8114598,0.45364344,0.31620264,0.64211094,0.14673063,0.41685864,0.26753527,0.75266653,0.5747402,0.6457035,0.7838665,0.88667655,0.52843326,-0.25685045,0.64742416,1.1673771,-0.17260931,819.5604,794.17584,803.0403,820.7692,1342.5641,-0.07244873046875,0.0047607421875,1.01776123046875,-0.844879150390625,-6.62445068359375,-1.727142333984375,1,1.0,1.0,1.0,1.0,10.00
2024-10-11 20:21:21.739,0.76588243,0.52985173,0.7400678,0.8114598,0.45364344,0.31620264,0.64211094,0.14673063,0.41685864,0.26753527,0.75266653,0.5747402,0.6457035,0.7838665,0.88667655,0.52843326,-0.25685045,0.64742416,1.1673771,-0.17260931,816.337,806.6667,804.2491,796.99634,1085.0916,-0.07244873046875,0.0047607421875,1.01776123046875,-0.844879150390625,-6.62445068359375,-1.727142333984375,1,1.0,1.0,1.0,1.0,10.00
2024-10-11 20:21:21.767,0.76588243,0.52985173,0.7400678,0.8114598,0.45364344,0.31620264,0.64211094,0.14673063,0.41685864,0.26753527,0.75266653,0.5747402,0.6457035,0.7838665,0.88667655,0.52843326,-0.25685045,0.64742416,1.1673771,-0.17260931,809.4872,787.72894,802.6374,799.011,576.99634,-0.07244873046875,0.0047607421875,1.01776123046875,-0.844879150390625,-6.62445068359375,-1.727142333984375,1,1.0,1.0,1.0,1.0,10.00
2024-10-11 20:21:21.768,0.76588243,0.52985173,0.7400678,0.8114598,0.45364344,0.31620264,0.64211094,0.14673063,0.41685864,0.26753527,0.75266653,0.5747402,0.6457035,0.7838665,0.88667655,0.52843326,-0.25685045,0.64742416,1.1673771,-0.17260931,826.8132,788.5348,808.68134,802.6374,619.304,-0.07244873046875,0.0047607421875,1.01776123046875,-0.844879150390625,-6.62445068359375,-1.727142333984375,1,1.0,1.0,1.0,1.0,10.00
2024-10-11 20:21:21.769,0.76588243,0.52985173,0.7400678,0.8114598,0.45364344,0.31620264,0.64211094,0.14673063,0.41685864,0.26753527,0.75266653,0.5747402,0.6457035,0.7838665,0.88667655,0.52843326,-0.25685045,0.64742416,1.1673771,-0.17260931,795.78754,794.17584,812.3077,802.6374,759.5238,-0.07244873046875,0.0047607421875,1.01776123046875,-0.844879150390625,-6.62445068359375,-1.727142333984375,1,1.0,1.0,1.0,1.0,10.00
2024-10-11 20:21:21.769,0.76588243,0.52985173,0.7400678,0.8114598,0.45364344,0.31620264,0.64211094,0.14673063,0.41685864,0.26753527,0.75266653,0.5747402,0.6457035,0.7838665,0.88667655,0.52843326,-0.25685045,0.64742416,1.1673771,-0.17260931,782.0879,803.8461,801.4286,809.89014,702.71063,-0.07244873046875,0.0047607421875,1.01776123046875,-0.844879150390625,-6.62445068359375,-1.727142333984375,1,1.0,1.0,1.0,1.0,10.00
2024-10-11 20:21:21.770,0.76588243,0.52985173,0.7400678,0.8114598,0.45364344,0.31620264,0.64211094,0.14673063,0.41685864,0.26753527,0.75266653,0.5747402,0.6457035,0.7838665,0.88667655,0.52843326,-0.25685045,0.64742416,1.1673771,-0.17260931,748.24176,816.7399,792.5641,793.7729,626.1539,-0.07244873046875,0.0047607421875,1.01776123046875,-0.844879150390625,-6.62445068359375,-1.727142333984375,1,1.0,1.0,1.0,1.0,10.00
2024-10-11 20:21:21.771,0.76588243,0.52985173,0.7400678,0.8114598,0.45364344,0.31620264,0.64211094,0.14673063,0.41685864,0.26753527,0.75266653,0.5747402,0.6457035,0.7838665,0.88667655,0.52843326,-0.25685045,0.64742416,1.1673771,-0.17260931,797.8022,782.49084,811.50183,784.10254,794.9817,-0.07244873046875,0.0047607421875,1.01776123046875,-0.844879150390625,-6.62445068359375,-1.727142333984375,1,1.0,1.0,1.0,1.0,10.00
2024-10-11 20:21:21.771,0.76588243,0.52985173,0.7400678,0.8114598,0.45364344,0.31620264,0.64211094,0.14673063,0.41685864,0.26753527,0.75266653,0.5747402,0.6457035,0.7838665,0.88667655,0.52843326,-0.25685045,0.64742416,1.1673771,-0.17260931,785.7143,788.93774,814.7253,786.1172,865.09155,-0.07244873046875,0.0047607421875,1.01776123046875,-0.844879150390625,-6.62445068359375,-1.727142333984375,1,1.0,1.0,1.0,1.0,10.00
2024-10-11 20:21:21.772,0.76588243,0.52985173,0.7400678,0.8114598,0.45364344,0.31620264,0.64211094,0.14673063,0.41685864,0.26753527,0.75266653,0.5747402,0.6457035,0.7838665,0.88667655,0.52843326,-0.25685045,0.64742416,1.1673771,-0.17260931,817.1429,799.81683,801.4286,823.9927,772.8205,-0.07244873046875,0.0047607421875,1.01776123046875,-0.844879150390625,-6.62445068359375,-1.727142333984375,1,1.0,1.0,1.0,1.0,10.00
2024-10-11 20:21:21.773,0.76588243,0.52985173,0.7400678,0.8114598,0.45364344,0.31620264,0.64211094,0.14673063,0.41685864,0.26753527,0.75266653,0.5747402,0.6457035,0.7838665,0.88667655,0.52843326,-0.25685045,0.64742416,1.1673771,-0.17260931,854.21246,786.1172,802.23444,825.6044,686.1905,-0.07244873046875,0.0047607421875,1.01776123046875,-0.844879150390625,-6.62445068359375,-1.727142333984375,1,1.0,1.0,1.0,1.0,10.00
2024-10-11 20:21:21.774,0.76588243,0.52985173,0.7400678,0.8114598,0.45364344,0.31620264,0.64211094,0.14673063,0.41685864,0.26753527,0.75266653,0.5747402,0.6457035,0.7838665,0.88667655,0.52843326,-0.25685045,0.64742416,1.1673771,-0.17260931,804.2491,786.9231,807.8755,812.3077,734.94507,-0.07244873046875,0.0047607421875,1.01776123046875,-0.844879150390625,-6.62445068359375,-1.727142333984375,1,1.0,1.0,1.0,1.0,10.00
2024-10-11 20:21:21.774,0.76588243,0.52985173,0.7400678,0.8114598,0.45364344,0.31620264,0.64211094,0.14673063,0.41685864,0.26753527,0.75266653,0.5747402,0.6457035,0.7838665,0.88667655,0.52843326,-0.25685045,0.64742416,1.1673771,-0.17260931,835.6777,795.78754,806.26373,809.89014,740.989,-0.07244873046875,0.0047607421875,1.01776123046875,-0.844879150390625,-6.62445068359375,-1.727142333984375,1,1.0,1.0,1.0,1.0,10.00
2024-10-11 20:21:21.775,0.76588243,0.52985173,0.7400678,0.8114598,0.45364344,0.31620264,0.64211094,0.14673063,0.41685864,0.26753527,0.75266653,0.5747402,0.6457035,0.7838665,0.88667655,0.52843326,-0.25685045,0.64742416,1.1673771,-0.17260931,770.0,804.2491,796.1905,788.5348,638.6447,-0.07244873046875,0.0047607421875,1.01776123046875,-0.844879150390625,-6.62445068359375,-1.727142333984375,1,1.0,1.0,1.0,1.0,10.00
2024-10-11 20:21:21.880,0.76588243,0.52985173,0.7400678,0.8114598,0.45364344,0.31620264,0.64211094,0.14673063,0.41685864,0.26753527,0.75266653,0.5747402,0.6457035,0.7838665,0.88667655,0.52843326,-0.25685045,0.64742416,1.1673771,-0.17260931,771.6117,809.89014,792.96704,792.1612,691.8315,-0.07757568359375,0.00494384765625,1.01470947265625,-1.77947998046875,-3.99261474609375,-1.757049560546875,1,1.0,1.0,1.0,1.0,10.00
