TimeStamp,Delta_TP9,Delta_AF7,Delta_AF8,Delta_TP10,Theta_TP9,Theta_AF7,Theta_AF8,Theta_TP10,Alpha_TP9,Alpha_AF7,Alpha_AF8,Alpha_TP10,Beta_TP9,Beta_AF7,Beta_AF8,Beta_TP10,Gamma_TP9,Gamma_AF7,Gamma_AF8,Gamma_TP10,RAW_TP9,RAW_AF7,RAW_AF8,RAW_TP10,AUX_RIGHT,Accelerometer_X,Accelerometer_Y,Accelerometer_Z,Gyro_X,Gyro_Y,Gyro_Z,HeadBandOn,HSI_TP9,HSI_AF7,HSI_AF8,HSI_TP10,Battery,Elements
2024-10-11 20:13:55.359,1.3973404,0.4086817,0.47719097,1.1672304,1.2302192,-0.15374328,0.17025907,0.85514677,1.0173757,0.009653506,0.30525112,0.65594554,0.5088472,-0.009651456,-0.21072717,0.24055964,-0.055850476,-0.25923577,-0.43032923,-0.38297388,809.0842,798.60803,799.81683,815.9341,715.6044,0.16046142578125,0.19696044921875,0.98333740234375,-6.572113037109375,-4.314117431640625,-14.183502197265625,1,1.0,1.0,1.0,1.0,10.00
2024-10-11 20:13:55.359,1.3973404,0.4086817,0.47719097,1.1672304,1.2302192,-0.15374328,0.17025907,0.85514677,1.0173757,0.009653506,0.30525112,0.65594554,0.5088472,-0.009651456,-0.21072717,0.24055964,-0.055850476,-0.25923577,-0.43032923,-0.38297388,805.4579,801.8315,797.8022,810.696,539.92676,0.16046142578125,0.19696044921875,0.98333740234375,-6.572113037109375,-4.314117431640625,-14.183502197265625,1,1.0,1.0,1.0,1.0,10.00
2024-10-11 20:13:55.360,1.3973404,0.4086817,0.47719097,1.1672304,1.2302192,-0.15374328,0.17025907,0.85514677,1.0173757,0.009653506,0.30525112,0.65594554,0.5088472,-0.009651456,-0.21072717,0.24055964,-0.055850476,-0.25923577,-0.43032923,-0.38297388,818.3516,795.78754,793.7729,808.68134,722.0513,0.16046142578125,0.19696044921875,0.98333740234375,-6.572113037109375,-4.314117431640625,-14.183502197265625,1,1.0,1.0,1.0,1.0,10.00
2024-10-11 20:13:55.361,1.3973404,0.4086817,0.47719097,1.1672304,1.2302192,-0.15374328,0.17025907,0.85514677,1.0173757,0.009653506,0.30525112,0.65594554,0.5088472,-0.009651456,-0.21072717,0.24055964,-0.055850476,-0.25923577,-0.43032923,-0.38297388,826.8132,796.5934,795.78754,804.2491,866.30035,0.16046142578125,0.19696044921875,0.98333740234375,-6.572113037109375,-4.314117431640625,-14.183502197265625,1,1.0,1.0,1.0,1.0,10.00
2024-10-11 20:13:55.361,1.3973404,0.4086817,0.47719097,1.1672304,1.2302192,-0.15374328,0.17025907,0.85514677,1.0173757,0.009653506,0.30525112,0.65594554,0.5088472,-0.009651456,-0.21072717,0.24055964,-0.055850476,-0.25923577,-0.43032923,-0.38297388,817.1429,800.6227,799.011,802.23444,742.6007,0.16046142578125,0.19696044921875,0.98333740234375,-6.572113037109375,-4.314117431640625,-14.183502197265625,1,1.0,1.0,1.0,1.0,10.00
2024-10-11 20:13:55.363,1.3973404,0.4086817,0.47719097,1.1672304,1.2302192,-0.15374328,0.17025907,0.85514677,1.0173757,0.009653506,0.30525112,0.65594554,0.5088472,-0.009651456,-0.21072717,0.24055964,-0.055850476,-0.25923577,-0.43032923,-0.38297388,802.6374,793.7729,800.6227,804.2491,686.1905,0.16046142578125,0.19696044921875,0.98333740234375,-6.572113037109375,-4.314117431640625,-14.183502197265625,1,1.0,1.0,1.0,1.0,10.00
2024-10-11 20:13:55.364,1.3973404,0.4086817,0.47719097,1.1672304,1.2302192,-0.15374328,0.17025907,0.85514677,1.0173757,0.009653506,0.30525112,0.65594554,0.5088472,-0.009651456,-0.21072717,0.24055964,-0.055850476,-0.25923577,-0.43032923,-0.38297388,808.2784,791.3553,805.05493,809.0842,864.2857,0.16046142578125,0.19696044921875,0.98333740234375,-6.572113037109375,-4.314117431640625,-14.183502197265625,1,1.0,1.0,1.0,1.0,10.00
2024-10-11 20:13:55.365,1.3973404,0.4086817,0.47719097,1.1672304,1.2302192,-0.15374328,0.17025907,0.85514677,1.0173757,0.009653506,0.30525112,0.65594554,0.5088472,-0.009651456,-0.21072717,0.24055964,-0.055850476,-0.25923577,-0.43032923,-0.38297388,820.3663,800.6227,803.8461,811.0989,930.3663,0.16046142578125,0.19696044921875,0.98333740234375,-6.572113037109375,-4.314117431640625,-14.183502197265625,1,1.0,1.0,1.0,1.0,10.00
2024-10-11 20:13:55.366,1.3973404,0.4086817,0.47719097,1.1672304,1.2302192,-0.15374328,0.17025907,0.85514677,1.0173757,0.009653506,0.30525112,0.65594554,0.5088472,-0.009651456,-0.21072717,0.24055964,-0.055850476,-0.25923577,-0.43032923,-0.38297388,818.3516,805.05493,801.02563,811.9048,887.25275,0.16046142578125,0.19696044921875,0.98333740234375,-6.572113037109375,-4.314117431640625,-14.183502197265625,1,1.0,1.0,1.0,1.0,10.00
2024-10-11 20:13:55.367,1.3973404,0.4086817,0.47719097,1.1672304,1.2302192,-0.15374328,0.17025907,0.85514677,1.0173757,0.009653506,0.30525112,0.65594554,0.5088472,-0.009651456,-0.21072717,0.24055964,-0.055850476,-0.25923577,-0.43032923,-0.38297388,817.5458,805.05493,806.26373,809.4872,765.16486,0.16046142578125,0.19696044921875,0.98333740234375,-6.572113037109375,-4.314117431640625,-14.183502197265625,1,1.0,1.0,1.0,1.0,10.00
2024-10-11 20:13:55.367,1.3973404,0.4086817,0.47719097,1.1672304,1.2302192,-0.15374328,0.17025907,0.85514677,1.0173757,0.009653506,0.30525112,0.65594554,0.5088472,-0.009651456,-0.21072717,0.24055964,-0.055850476,-0.25923577,-0.43032923,-0.38297388,819.15753,803.44324,807.8755,812.71063,729.707,0.16046142578125,0.19696044921875,0.98333740234375,-6.572113037109375,-4.314117431640625,-14.183502197265625,1,1.0,1.0,1.0,1.0,10.00
2024-10-11 20:13:55.368,1.3973404,0.4086817,0.47719097,1.1672304,1.2302192,-0.15374328,0.17025907,0.85514677,1.0173757,0.009653506,0.30525112,0.65594554,0.5088472,-0.009651456,-0.21072717,0.24055964,-0.055850476,-0.25923577,-0.43032923,-0.38297388,819.9634,795.38464,805.05493,822.7839,1220.0732,0.16046142578125,0.19696044921875,0.98333740234375,-6.572113037109375,-4.314117431640625,-14.183502197265625,1,1.0,1.0,1.0,1.0,10.00
2024-10-11 20:13:55.411,1.3973404,0.4086817,0.47719097,1.1672304,1.2302192,-0.15374328,0.17025907,0.85514677,1.0173757,0.009653506,0.30525112,0.65594554,0.5088472,-0.009651456,-0.21072717,0.24055964,-0.055850476,-0.25923577,-0.43032923,-0.38297388,812.3077,796.1905,804.2491,816.337,1267.2161,0.1776123046875,0.1795654296875,0.9808349609375,-8.306732177734375,-7.04315185546875,-19.87335205078125,1,1.0,1.0,1.0,1.0,10.00
2024-10-11 20:13:55.412,1.3973404,0.4086817,0.47719097,1.1672304,1.2302192,-0.15374328,0.17025907,0.85514677,1.0173757,0.009653506,0.30525112,0.65594554,0.5088472,-0.009651456,-0.21072717,0.24055964,-0.055850476,-0.25923577,-0.43032923,-0.38297388,807.0696,800.2198,802.23444,806.26373,778.86444,0.1776123046875,0.1795654296875,0.9808349609375,-8.306732177734375,-7.04315185546875,-19.87335205078125,1,1.0,1.0,1.0,1.0,10.00
2024-10-11 20:13:55.413,1.3973404,0.4086817,0.47719097,1.1672304,1.2302192,-0.15374328,0.17025907,0.85514677,1.0173757,0.009653506,0.30525112,0.65594554,0.5088472,-0.009651456,-0.21072717,0.24055964,-0.055850476,-0.25923577,-0.43032923,-0.38297388,806.26373,798.20514,804.2491,808.68134,671.28204,0.1776123046875,0.1795654296875,0.9808349609375,-8.306732177734375,-7.04315185546875,-19.87335205078125,1,1.0,1.0,1.0,1.0,10.00
2024-10-11 20:13:55.414,1.3973404,0.4086817,0.47719097,1.1672304,1.2302192,-0.15374328,0.17025907,0.85514677,1.0173757,0.009653506,0.30525112,0.65594554,0.5088472,-0.009651456,-0.21072717,0.24055964,-0.055850476,-0.25923577,-0.43032923,-0.38297388,807.8755,801.02563,804.65204,806.6667,710.3663,0.1776123046875,0.1795654296875,0.9808349609375,-8.306732177734375,-7.04315185546875,-19.87335205078125,1,1.0,1.0,1.0,1.0,10.00
2024-10-11 20:13:55.415,1.3973404,0.4086817,0.47719097,1.1672304,1.2302192,-0.15374328,0.17025907,0.85514677,1.0173757,0.009653506,0.30525112,0.65594554,0.5088472,-0.009651456,-0.21072717,0.24055964,-0.055850476,-0.25923577,-0.43032923,-0.38297388,803.44324,807.0696,806.6667,803.0403,666.04395,0.1776123046875,0.1795654296875,0.9808349609375,-8.306732177734375,-7.04315185546875,-19.87335205078125,1,1.0,1.0,1.0,1.0,10.00
2024-10-11 20:13:55.415,1.3973404,0.4086817,0.47719097,1.1672304,1.2302192,-0.15374328,0.17025907,0.85514677,1.0173757,0.009653506,0.30525112,0.65594554,0.5088472,-0.009651456,-0.21072717,0.24055964,-0.055850476,-0.25923577,-0.43032923,-0.38297388,800.6227,806.6667,806.6667,806.26373,705.12823,0.1776123046875,0.1795654296875,0.9808349609375,-8.306732177734375,-7.04315185546875,-19.87335205078125,1,1.0,1.0,1.0,1.0,10.00
2024-10-11 20:13:55.416,1.3973404,0.4086817,0.47719097,1.1672304,1.2302192,-0.15374328,0.17025907,0.85514677,1.0173757,0.009653506,0.30525112,0.65594554,0.5088472,-0.009651456,-0.21072717,0.24055964,-0.055850476,-0.25923577,-0.43032923,-0.38297388,805.8608,799.81683,804.2491,809.0842,737.3626,0.1776123046875,0.1795654296875,0.9808349609375,-8.306732177734375,-7.04315185546875,-19.87335205078125,1,1.0,1.0,1.0,1.0,10.00
2024-10-11 20:13:55.416,1.3973404,0.4086817,0.47719097,1.1672304,1.2302192,-0.15374328,0.17025907,0.85514677,1.0173757,0.009653506,0.30525112,0.65594554,0.5088472,-0.009651456,-0.21072717,0.24055964,-0.055850476,-0.25923577,-0.43032923,-0.38297388,807.8755,799.011,805.8608,814.7253,649.92676,0.1776123046875,0.1795654296875,0.9808349609375,-8.306732177734375,-7.04315185546875,-19.87335205078125,1,1.0,1.0,1.0,1.0,10.00
2024-10-11 20:13:55.417,1.3973404,0.4086817,0.47719097,1.1672304,1.2302192,-0.15374328,0.17025907,0.85514677,1.0173757,0.009653506,0.30525112,0.65594554,0.5088472,-0.009651456,-0.21072717,0.24055964,-0.055850476,-0.25923577,-0.43032923,-0.38297388,806.26373,802.23444,808.2784,814.3223,615.6777,0.1776123046875,0.1795654296875,0.9808349609375,-8.306732177734375,-7.04315185546875,-19.87335205078125,1,1.0,1.0,1.0,1.0,10.00
2024-10-11 20:13:55.417,1.3973404,0.40906385,0.5452592,1.1672304,1.2302192,-0.10553076,0.2187197,0.85514677,1.0173757,0.02136118,0.35405967,0.65594554,0.5088472,-0.026848016,-0.20524178,0.24055964,-0.055850476,-0.27791092,-0.42250535,-0.38297388,803.8461,802.23444,807.47253,808.2784,634.21246,0.1776123046875,0.1795654296875,0.9808349609375,-8.306732177734375,-7.04315185546875,-19.87335205078125,1,1.0,1.0,1.0,1.0,10.00
2024-10-11 20:13:55.421,1.3973404,0.40906385,0.5452592,1.1672304,1.2302192,-0.10553076,0.2187197,0.85514677,1.0173757,0.02136118,0.35405967,0.65594554,0.5088472,-0.026848016,-0.20524178,0.24055964,-0.055850476,-0.27791092,-0.42250535,-0.38297388,807.0696,795.38464,804.65204,809.0842,735.34796,0.1776123046875,0.1795654296875,0.9808349609375,-8.306732177734375,-7.04315185546875,-19.87335205078125,1,1.0,1.0,1.0,1.0,10.00
2024-10-11 20:13:55.422,1.3973404,0.40906385,0.5452592,1.1672304,1.2302192,-0.10553076,0.2187197,0.85514677,1.0173757,0.02136118,0.35405967,0.65594554,0.5088472,-0.026848016,-0.20524178,0.24055964,-0.055850476,-0.27791092,-0.42250535,-0.38297388,826.0073,798.60803,807.0696,822.381,692.6374,0.1776123046875,0.1795654296875,0.9808349609375,-8.306732177734375,-7.04315185546875,-19.87335205078125,1,1.0,1.0,1.0,1.0,10.00
2024-10-11 20:13:55.476,1.3973404,0.40906385,0.5452592,1.1672304,1.2302192,-0.10553076,0.2187197,0.85514677,1.0173757,0.02136118,0.35405967,0.65594554,0.5088472,-0.026848016,-0.20524178,0.24055964,-0.055850476,-0.27791092,-0.42250535,-0.38297388,820.7692,807.0696,803.44324,807.47253,616.08057,0.19464111328125,0.16241455078125,0.9727783203125,-10.66192626953125,-7.633819580078125,-26.15386962890625,1,1.0,1.0,1.0,1.0,10.00
2024-10-11 20:13:55.477,1.3973404,0.40906385,0.5452592,1.1672304,1.2302192,-0.10553076,0.2187197,0.85514677,1.0173757,0.02136118,0.35405967,0.65594554,0.5088472,-0.026848016,-0.20524178,0.24055964,-0.055850476,-0.27791092,-0.42250535,-0.38297388,791.75824,804.2491,799.81683,784.5055,643.47986,0.19464111328125,0.16241455078125,0.9727783203125,-10.66192626953125,-7.633819580078125,-26.15386962890625,1,1.0,1.0,1.0,1.0,10.00
2024-10-11 20:13:55.478,1.3973404,0.40906385,0.5452592,1.1672304,1.2302192,-0.10553076,0.2187197,0.85514677,1.0173757,0.02136118,0.35405967,0.65594554,0.5088472,-0.026848016,-0.20524178,0.24055964,-0.055850476,-0.27791092,-0.42250535,-0.38297388,794.17584,801.4286,796.99634,801.4286,880.40295,0.19464111328125,0.16241455078125,0.9727783203125,-10.66192626953125,-7.633819580078125,-26.15386962890625,1,1.0,1.0,1.0,1.0,10.00
2024-10-11 20:13:55.478,1.3973404,0.40906385,0.5452592,1.1672304,1.2302192,-0.10553076,0.2187197,0.85514677,1.0173757,0.02136118,0.35405967,0.65594554,0.5088472,-0.026848016,-0.20524178,0.24055964,-0.055850476,-0.27791092,-0.42250535,-0.38297388,810.696,803.44324,793.7729,826.4103,788.5348,0.19464111328125,0.16241455078125,0.9727783203125,-10.66192626953125,-7.633819580078125,-26.15386962890625,1,1.0,1.0,1.0,1.0,10.00
2024-10-11 20:13:55.479,1.3973404,0.40906385,0.5452592,1.1672304,1.2302192,-0.10553076,0.2187197,0.85514677,1.0173757,0.02136118,0.35405967,0.65594554,0.5088472,-0.026848016,-0.20524178,0.24055964,-0.055850476,-0.27791092,-0.42250535,-0.38297388,819.9634,808.2784,796.5934,821.5751,648.315,0.19464111328125,0.16241455078125,0.9727783203125,-10.66192626953125,-7.633819580078125,-26.15386962890625,1,1.0,1.0,1.0,1.0,10.00
2024-10-11 20:13:55.479,1.3973404,0.40906385,0.5452592,1.1672304,1.2302192,-0.10553076,0.2187197,0.85514677,1.0173757,0.02136118,0.35405967,0.65594554,0.5088472,-0.026848016,-0.20524178,0.24055964,-0.055850476,-0.27791092,-0.42250535,-0.38297388,816.337,801.02563,796.99634,813.1135,916.6667,0.19464111328125,0.16241455078125,0.9727783203125,-10.66192626953125,-7.633819580078125,-26.15386962890625,1,1.0,1.0,1.0,1.0,10.00
2024-10-11 20:13:55.480,1.3973404,0.40906385,0.5452592,1.1672304,1.2302192,-0.10553076,0.2187197,0.85514677,1.0173757,0.02136118,0.35405967,0.65594554,0.5088472,-0.026848016,-0.20524178,0.24055964,-0.055850476,-0.27791092,-0.42250535,-0.38297388,817.1429,800.2198,795.38464,831.2454,921.0989,0.19464111328125,0.16241455078125,0.9727783203125,-10.66192626953125,-7.633819580078125,-26.15386962890625,1,1.0,1.0,1.0,1.0,10.00
2024-10-11 20:13:55.481,1.3973404,0.40906385,0.5452592,1.1672304,1.2302192,-0.10553076,0.2187197,0.85514677,1.0173757,0.02136118,0.35405967,0.65594554,0.5088472,-0.026848016,-0.20524178,0.24055964,-0.055850476,-0.27791092,-0.42250535,-0.38297388,821.1722,801.8315,799.011,841.31866,637.4359,0.19464111328125,0.16241455078125,0.9727783203125,-10.66192626953125,-7.633819580078125,-26.15386962890625,1,1.0,1.0,1.0,1.0,10.00
2024-10-11 20:13:55.482,1.3973404,0.40906385,0.5452592,1.1672304,1.2302192,-0.10553076,0.2187197,0.85514677,1.0173757,0.02136118,0.35405967,0.65594554,0.5088472,-0.026848016,-0.20524178,0.24055964,-0.055850476,-0.27791092,-0.42250535,-0.38297388,819.5604,799.81683,803.0403,843.73627,603.9927,0.19464111328125,0.16241455078125,0.9727783203125,-10.66192626953125,-7.633819580078125,-26.15386962890625,1,1.0,1.0,1.0,1.0,10.00
2024-10-11 20:13:55.482,1.3973404,0.40906385,0.5452592,1.1672304,1.2302192,-0.10553076,0.2187197,0.85514677,1.0173757,0.02136118,0.35405967,0.65594554,0.5088472,-0.026848016,-0.20524178,0.24055964,-0.055850476,-0.27791092,-0.42250535,-0.38297388,830.4396,802.23444,802.6374,854.21246,761.9414,0.19464111328125,0.16241455078125,0.9727783203125,-10.66192626953125,-7.633819580078125,-26.15386962890625,1,1.0,1.0,1.0,1.0,10.00
2024-10-11 20:13:55.483,1.3973404,0.40906385,0.5452592,1.1672304,1.2302192,-0.10553076,0.2187197,0.85514677,1.0173757,0.02136118,0.35405967,0.65594554,0.5088472,-0.026848016,-0.20524178,0.24055964,-0.055850476,-0.27791092,-0.42250535,-0.38297388,837.6923,799.81683,798.20514,858.24176,812.3077,0.19464111328125,0.16241455078125,0.9727783203125,-10.66192626953125,-7.633819580078125,-26.15386962890625,1,1.0,1.0,1.0,1.0,10.00
2024-10-11 20:13:55.483,1.3973404,0.40906385,0.5452592,1.1672304,1.2302192,-0.10553076,0.2187197,0.85514677,1.0173757,0.02136118,0.35405967,0.65594554,0.5088472,-0.026848016,-0.20524178,0.24055964,-0.055850476,-0.27791092,-0.42250535,-0.38297388,842.52747,794.9817,794.57874,843.73627,585.8608,0.19464111328125,0.16241455078125,0.9727783203125,-10.66192626953125,-7.633819580078125,-26.15386962890625,1,1.0,1.0,1.0,1.0,10.00
2024-10-11 20:13:55.515,1.3973404,0.40906385,0.5452592,1.1672304,1.2302192,-0.10553076,0.2187197,0.85514677,1.0173757,0.02136118,0.35405967,0.65594554,0.5088472,-0.026848016,-0.20524178,0.24055964,-0.055850476,-0.27791092,-0.42250535,-0.38297388,850.58606,788.5348,792.96704,845.34796,607.2161,0.20697021484375,0.14453125,0.9696044921875,-10.57220458984375,-4.613189697265625,-28.232421875,1,1.0,1.0,1.0,1.0,10.00
2024-10-11 20:13:55.516,1.3973404,0.40906385,0.5452592,1.1672304,1.2302192,-0.10553076,0.2187197,0.85514677,1.0173757,0.02136118,0.35405967,0.65594554,0.5088472,-0.026848016,-0.20524178,0.24055964,-0.055850476,-0.27791092,-0.42250535,-0.38297388,862.674,792.5641,793.36993,858.24176,845.7509,0.20697021484375,0.14453125,0.9696044921875,-10.57220458984375,-4.613189697265625,-28.232421875,1,1.0,1.0,1.0,1.0,10.00
2024-10-11 20:13:55.516,1.3973404,0.40906385,0.5452592,1.1672304,1.2302192,-0.10553076,0.2187197,0.85514677,1.0173757,0.02136118,0.35405967,0.65594554,0.5088472,-0.026848016,-0.20524178,0.24055964,-0.055850476,-0.27791092,-0.42250535,-0.38297388,859.45056,800.6227,791.75824,855.82416,852.1978,0.20697021484375,0.14453125,0.9696044921875,-10.57220458984375,-4.613189697265625,-28.232421875,1,1.0,1.0,1.0,1.0,10.00
2024-10-11 20:13:55.517,1.3973404,0.40906385,0.5452592,1.1672304,1.2302192,-0.10553076,0.2187197,0.85514677,1.0173757,0.02136118,0.35405967,0.65594554,0.5088472,-0.026848016,-0.20524178,0.24055964,-0.055850476,-0.27791092,-0.42250535,-0.38297388,851.39197,803.44324,792.5641,844.1392,666.8498,0.20697021484375,0.14453125,0.9696044921875,-10.57220458984375,-4.613189697265625,-28.232421875,1,1.0,1.0,1.0,1.0,10.00
2024-10-11 20:13:55.518,1.3973404,0.40906385,0.5452592,1.1672304,1.2302192,-0.10553076,0.2187197,0.85514677,1.0173757,0.02136118,0.35405967,0.65594554,0.5088472,-0.026848016,-0.20524178,0.24055964,-0.055850476,-0.27791092,-0.42250535,-0.38297388,854.21246,805.8608,792.96704,840.9158,654.7619,0.20697021484375,0.14453125,0.9696044921875,-10.57220458984375,-4.613189697265625,-28.232421875,1,1.0,1.0,1.0,1.0,10.00
2024-10-11 20:13:55.518,1.3973404,0.40906385,0.5452592,1.1672304,1.2302192,-0.10553076,0.2187197,0.85514677,1.0173757,0.02136118,0.35405967,0.65594554,0.5088472,-0.026848016,-0.20524178,0.24055964,-0.055850476,-0.27791092,-0.42250535,-0.38297388,861.8681,800.2198,789.7436,853.8095,1008.93774,0.20697021484375,0.14453125,0.9696044921875,-10.57220458984375,-4.613189697265625,-28.232421875,1,1.0,1.0,1.0,1.0,10.00
2024-10-11 20:13:55.519,1.3973404,0.40906385,0.5452592,1.1672304,1.2302192,-0.10553076,0.2187197,0.85514677,1.0173757,0.02136118,0.35405967,0.65594554,0.5088472,-0.026848016,-0.20524178,0.24055964,-0.055850476,-0.27791092,-0.42250535,-0.38297388,855.82416,795.38464,786.9231,852.6007,1163.2601,0.20697021484375,0.14453125,0.9696044921875,-10.57220458984375,-4.613189697265625,-28.232421875,1,1.0,1.0,1.0,1.0,10.00
2024-10-11 20:13:55.519,1.3973404,0.40906385,0.5452592,1.1672304,1.2302192,-0.10553076,0.2187197,0.85514677,1.0173757,0.02136118,0.35405967,0.65594554,0.5088472,-0.026848016,-0.20524178,0.24055964,-0.055850476,-0.27791092,-0.42250535,-0.38297388,853.4066,804.2491,788.93774,846.1539,720.0366,0.20697021484375,0.14453125,0.9696044921875,-10.57220458984375,-4.613189697265625,-28.232421875,1,1.0,1.0,1.0,1.0,10.00
2024-10-11 20:13:55.520,1.3973404,0.40906385,0.5452592,1.1672304,1.2302192,-0.10553076,0.2187197,0.85514677,1.0173757,0.02136118,0.35405967,0.65594554,0.5088472,-0.026848016,-0.20524178,0.24055964,-0.055850476,-0.27791092,-0.42250535,-0.38297388,863.8828,811.0989,794.17584,842.52747,635.42126,0.20697021484375,0.14453125,0.9696044921875,-10.57220458984375,-4.613189697265625,-28.232421875,1,1.0,1.0,1.0,1.0,10.00
2024-10-11 20:13:55.521,1.3973404,0.40906385,0.5452592,1.1672304,1.2302192,-0.10553076,0.2187197,0.85514677,1.0173757,0.02136118,0.35405967,0.65594554,0.5088472,-0.026848016,-0.20524178,0.24055964,-0.055850476,-0.27791092,-0.42250535,-0.38297388,853.00366,801.8315,795.78754,831.6484,954.1392,0.20697021484375,0.14453125,0.9696044921875,-10.57220458984375,-4.613189697265625,-28.232421875,1,1.0,1.0,1.0,1.0,10.00
2024-10-11 20:13:55.521,1.3973404,0.40906385,0.5452592,1.1672304,1.2302192,-0.10553076,0.2187197,0.85514677,1.0173757,0.02136118,0.35405967,0.65594554,0.5088472,-0.026848016,-0.20524178,0.24055964,-0.055850476,-0.27791092,-0.42250535,-0.38297388,839.707,800.2198,795.78754,835.6777,920.293,0.20697021484375,0.14453125,0.9696044921875,-10.57220458984375,-4.613189697265625,-28.232421875,1,1.0,1.0,1.0,1.0,10.00
2024-10-11 20:13:55.522,1.3973404,0.41481075,0.61750203,1.1672304,1.2302192,-0.043034554,0.24858724,0.85514677,1.0173757,0.026615782,0.43056276,0.65594554,0.5088472,-0.045577984,-0.18579699,0.24055964,-0.055850476,-0.2965629,-0.41851592,-0.38297388,848.5714,807.0696,790.14655,840.9158,757.1062,0.20697021484375,0.14453125,0.9696044921875,-10.57220458984375,-4.613189697265625,-28.232421875,1,1.0,1.0,1.0,1.0,10.00
2024-10-11 20:13:55.582,1.3973404,0.41481075,0.61750203,1.1672304,1.2302192,-0.043034554,0.24858724,0.85514677,1.0173757,0.026615782,0.43056276,0.65594554,0.5088472,-0.045577984,-0.18579699,0.24055964,-0.055850476,-0.2965629,-0.41851592,-0.38297388,857.03296,807.0696,789.7436,838.49817,734.5421,0.20697021484375,0.14453125,0.9696044921875,-10.57220458984375,-4.613189697265625,-28.232421875,1,1.0,1.0,1.0,1.0,10.00
2024-10-11 20:13:55.583,1.3973404,0.41481075,0.61750203,1.1672304,1.2302192,-0.043034554,0.24858724,0.85514677,1.0173757,0.026615782,0.43056276,0.65594554,0.5088472,-0.045577984,-0.18579699,0.24055964,-0.055850476,-0.2965629,-0.41851592,-0.38297388,839.304,805.05493,790.14655,844.1392,890.87915,0.20697021484375,0.14453125,0.9696044921875,-10.57220458984375,-4.613189697265625,-28.232421875,1,1.0,1.0,1.0,1.0,10.00
2024-10-11 20:13:55.584,1.3973404,0.41481075,0.61750203,1.1672304,1.2302192,-0.043034554,0.24858724,0.85514677,1.0173757,0.026615782,0.43056276,0.65594554,0.5088472,-0.045577984,-0.18579699,0.24055964,-0.055850476,-0.2965629,-0.41851592,-0.38297388,832.0513,808.2784,787.72894,847.3626,837.28937,0.20697021484375,0.14453125,0.9696044921875,-10.57220458984375,-4.613189697265625,-28.232421875,1,1.0,1.0,1.0,1.0,10.00
2024-10-11 20:13:55.586,1.3973404,0.41481075,0.61750203,1.1672304,1.2302192,-0.043034554,0.24858724,0.85514677,1.0173757,0.026615782,0.43056276,0.65594554,0.5088472,-0.045577984,-0.18579699,0.24055964,-0.055850476,-0.2965629,-0.41851592,-0.38297388,830.84247,807.0696,790.14655,835.2747,677.326,0.20697021484375,0.14453125,0.9696044921875,-10.57220458984375,-4.613189697265625,-28.232421875,1,1.0,1.0,1.0,1.0,10.00
2024-10-11 20:13:55.587,1.3973404,0.41481075,0.61750203,1.1672304,1.2302192,-0.043034554,0.24858724,0.85514677,1.0173757,0.026615782,0.43056276,0.65594554,0.5088472,-0.045577984,-0.18579699,0.24055964,-0.055850476,-0.2965629,-0.41851592,-0.38297388,825.6044,803.44324,791.75824,828.8278,793.7729,0.20697021484375,0.14453125,0.9696044921875,-10.57220458984375,-4.613189697265625,-28.232421875,1,1.0,1.0,1.0,1.0,10.00
2024-10-11 20:13:55.588,1.3973404,0.41481075,0.61750203,1.1672304,1.2302192,-0.043034554,0.24858724,0.85514677,1.0173757,0.026615782,0.43056276,0.65594554,0.5088472,-0.045577984,-0.18579699,0.24055964,-0.055850476,-0.2965629,-0.41851592,-0.38297388,835.2747,802.23444,788.93774,827.619,956.55676,0.20697021484375,0.14453125,0.9696044921875,-10.57220458984375,-4.613189697265625,-28.232421875,1,1.0,1.0,1.0,1.0,10.00
2024-10-11 20:13:55.589,1.3973404,0.41481075,0.61750203,1.1672304,1.2302192,-0.043034554,0.24858724,0.85514677,1.0173757,0.026615782,0.43056276,0.65594554,0.5088472,-0.045577984,-0.18579699,0.24055964,-0.055850476,-0.2965629,-0.41851592,-0.38297388,830.84247,806.6667,787.72894,819.5604,916.6667,0.20697021484375,0.14453125,0.9696044921875,-10.57220458984375,-4.613189697265625,-28.232421875,1,1.0,1.0,1.0,1.0,10.00
2024-10-11 20:13:55.590,1.3973404,0.41481075,0.61750203,1.1672304,1.2302192,-0.043034554,0.24858724,0.85514677,1.0173757,0.026615782,0.43056276,0.65594554,0.5088472,-0.045577984,-0.18579699,0.24055964,-0.055850476,-0.2965629,-0.41851592,-0.38297388,822.7839,805.05493,786.9231,814.7253,830.84247,0.20697021484375,0.14453125,0.9696044921875,-10.57220458984375,-4.613189697265625,-28.232421875,1,1.0,1.0,1.0,1.0,10.00
2024-10-11 20:13:55.591,1.3973404,0.41481075,0.61750203,1.1672304,1.2302192,-0.043034554,0.24858724,0.85514677,1.0173757,0.026615782,0.43056276,0.65594554,0.5088472,-0.045577984,-0.18579699,0.24055964,-0.055850476,-0.2965629,-0.41851592,-0.38297388,825.6044,801.4286,791.75824,811.50183,815.5311,0.20697021484375,0.14453125,0.9696044921875,-10.57220458984375,-4.613189697265625,-28.232421875,1,1.0,1.0,1.0,1.0,10.00
2024-10-11 20:13:55.592,1.3973404,0.41481075,0.61750203,1.1672304,1.2302192,-0.043034554,0.24858724,0.85514677,1.0173757,0.026615782,0.43056276,0.65594554,0.5088472,-0.045577984,-0.18579699,0.24055964,-0.055850476,-0.2965629,-0.41851592,-0.38297388,817.5458,801.4286,792.1612,815.5311,1167.6923,0.20697021484375,0.14453125,0.9696044921875,-10.57220458984375,-4.613189697265625,-28.232421875,1,1.0,1.0,1.0,1.0,10.00
2024-10-11 20:13:55.593,1.3973404,0.41481075,0.61750203,1.1672304,1.2302192,-0.043034554,0.24858724,0.85514677,1.0173757,0.026615782,0.43056276,0.65594554,0.5088472,-0.045577984,-0.18579699,0.24055964,-0.055850476,-0.2965629,-0.41851592,-0.38297388,810.293,800.2198,794.17584,812.71063,984.35895,0.20697021484375,0.14453125,0.9696044921875,-10.57220458984375,-4.613189697265625,-28.232421875,1,1.0,1.0,1.0,1.0,10.00
2024-10-11 20:13:55.593,1.3973404,0.41481075,0.61750203,1.1672304,1.2302192,-0.043034554,0.24858724,0.85514677,1.0173757,0.026615782,0.43056276,0.65594554,0.5088472,-0.045577984,-0.18579699,0.24055964,-0.055850476,-0.2965629,-0.41851592,-0.38297388,802.23444,795.38464,800.2198,807.8755,651.13556,0.20697021484375,0.14453125,0.9696044921875,-10.57220458984375,-4.613189697265625,-28.232421875,1,1.0,1.0,1.0,1.0,10.00
2024-10-11 20:13:55.594,1.3973404,0.41481075,0.61750203,1.1672304,1.2302192,-0.043034554,0.24858724,0.85514677,1.0173757,0.026615782,0.43056276,0.65594554,0.5088472,-0.045577984,-0.18579699,0.24055964,-0.055850476,-0.2965629,-0.41851592,-0.38297388,799.81683,798.20514,798.20514,809.0842,670.4762,0.2178955078125,0.13568115234375,0.962890625,-8.486175537109375,-1.86920166015625,-27.67913818359375,1,1.0,1.0,1.0,1.0,10.00
2024-10-11 20:13:55.595,1.3973404,0.41481075,0.61750203,1.1672304,1.2302192,-0.043034554,0.24858724,0.85514677,1.0173757,0.026615782,0.43056276,0.65594554,0.5088472,-0.045577984,-0.18579699,0.24055964,-0.055850476,-0.2965629,-0.41851592,-0.38297388,803.0403,799.41394,792.5641,806.26373,614.0659,0.2178955078125,0.13568115234375,0.962890625,-8.486175537109375,-1.86920166015625,-27.67913818359375,1,1.0,1.0,1.0,1.0,10.00
2024-10-11 20:13:55.596,1.3973404,0.41481075,0.61750203,1.1672304,1.2302192,-0.043034554,0.24858724,0.85514677,1.0173757,0.026615782,0.43056276,0.65594554,0.5088472,-0.045577984,-0.18579699,0.24055964,-0.055850476,-0.2965629,-0.41851592,-0.38297388,804.2491,798.60803,795.38464,810.696,643.0769,0.2178955078125,0.13568115234375,0.962890625,-8.486175537109375,-1.86920166015625,-27.67913818359375,1,1.0,1.0,1.0,1.0,10.00
2024-10-11 20:13:55.596,1.3973404,0.41481075,0.61750203,1.1672304,1.2302192,-0.043034554,0.24858724,0.85514677,1.0173757,0.026615782,0.43056276,0.65594554,0.5088472,-0.045577984,-0.18579699,0.24055964,-0.055850476,-0.2965629,-0.41851592,-0.38297388,808.2784,803.0403,796.1905,810.696,717.619,0.2178955078125,0.13568115234375,0.962890625,-8.486175537109375,-1.86920166015625,-27.67913818359375,1,1.0,1.0,1.0,1.0,10.00
2024-10-11 20:13:55.598,1.3973404,0.41481075,0.61750203,1.1672304,1.2302192,-0.043034554,0.24858724,0.85514677,1.0173757,0.026615782,0.43056276,0.65594554,0.5088472,-0.045577984,-0.18579699,0.24055964,-0.055850476,-0.2965629,-0.41851592,-0.38297388,816.337,802.6374,793.7729,808.68134,712.7839,0.2178955078125,0.13568115234375,0.962890625,-8.486175537109375,-1.86920166015625,-27.67913818359375,1,1.0,1.0,1.0,1.0,10.00
2024-10-11 20:13:55.599,1.3973404,0.41481075,0.61750203,1.1672304,1.2302192,-0.043034554,0.24858724,0.85514677,1.0173757,0.026615782,0.43056276,0.65594554,0.5088472,-0.045577984,-0.18579699,0.24055964,-0.055850476,-0.2965629,-0.41851592,-0.38297388,811.9048,804.2491,792.96704,813.91943,770.40295,0.2178955078125,0.13568115234375,0.962890625,-8.486175537109375,-1.86920166015625,-27.67913818359375,1,1.0,1.0,1.0,1.0,10.00
2024-10-11 20:13:55.599,1.3973404,0.41481075,0.61750203,1.1672304,1.2302192,-0.043034554,0.24858724,0.85514677,1.0173757,0.026615782,0.43056276,0.65594554,0.5088472,-0.045577984,-0.18579699,0.24055964,-0.055850476,-0.2965629,-0.41851592,-0.38297388,807.0696,807.0696,793.36993,811.50183,909.011,0.2178955078125,0.13568115234375,0.962890625,-8.486175537109375,-1.86920166015625,-27.67913818359375,1,1.0,1.0,1.0,1.0,10.00
2024-10-11 20:13:55.600,1.3973404,0.41481075,0.61750203,1.1672304,1.2302192,-0.043034554,0.24858724,0.85514677,1.0173757,0.026615782,0.43056276,0.65594554,0.5088472,-0.045577984,-0.18579699,0.24055964,-0.055850476,-0.2965629,-0.41851592,-0.38297388,808.2784,802.6374,795.38464,811.9048,958.1685,0.2178955078125,0.13568115234375,0.962890625,-8.486175537109375,-1.86920166015625,-27.67913818359375,1,1.0,1.0,1.0,1.0,10.00
2024-10-11 20:13:55.601,1.3973404,0.41481075,0.61750203,1.1672304,1.2302192,-0.043034554,0.24858724,0.85514677,1.0173757,0.026615782,0.43056276,0.65594554,0.5088472,-0.045577984,-0.18579699,0.24055964,-0.055850476,-0.2965629,-0.41851592,-0.38297388,811.50183,793.7729,793.36993,813.5165,991.2088,0.2178955078125,0.13568115234375,0.962890625,-8.486175537109375,-1.86920166015625,-27.67913818359375,1,1.0,1.0,1.0,1.0,10.00
2024-10-11 20:13:55.601,1.3973404,0.41481075,0.61750203,1.1672304,1.2302192,-0.043034554,0.24858724,0.85514677,1.0173757,0.026615782,0.43056276,0.65594554,0.5088472,-0.045577984,-0.18579699,0.24055964,-0.055850476,-0.2965629,-0.41851592,-0.38297388,813.91943,797.8022,793.36993,810.696,762.74725,0.2178955078125,0.13568115234375,0.962890625,-8.486175537109375,-1.86920166015625,-27.67913818359375,1,1.0,1.0,1.0,1.0,10.00
2024-10-11 20:13:55.602,1.3973404,0.41481075,0.61750203,1.1672304,1.2302192,-0.043034554,0.24858724,0.85514677,1.0173757,0.026615782,0.43056276,0.65594554,0.5088472,-0.045577984,-0.18579699,0.24055964,-0.055850476,-0.2965629,-0.41851592,-0.38297388,805.8608,802.6374,794.17584,813.5165,632.1978,0.2178955078125,0.13568115234375,0.962890625,-8.486175537109375,-1.86920166015625,-27.67913818359375,1,1.0,1.0,1.0,1.0,10.00
2024-10-11 20:13:55.602,1.3973404,0.41481075,0.61750203,1.1672304,1.2302192,-0.043034554,0.24858724,0.85514677,1.0173757,0.026615782,0.43056276,0.65594554,0.5088472,-0.045577984,-0.18579699,0.24055964,-0.055850476,-0.2965629,-0.41851592,-0.38297388,807.8755,797.8022,794.9817,814.3223,745.42126,0.2178955078125,0.13568115234375,0.962890625,-8.486175537109375,-1.86920166015625,-27.67913818359375,1,1.0,1.0,1.0,1.0,10.00
2024-10-11 20:13:55.631,1.3973404,0.41481075,0.61750203,1.1672304,1.2302192,-0.043034554,0.24858724,0.85514677,1.0173757,0.026615782,0.43056276,0.65594554,0.5088472,-0.045577984,-0.18579699,0.24055964,-0.055850476,-0.2965629,-0.41851592,-0.38297388,815.12823,796.99634,799.011,813.91943,905.78754,0.2232666015625,0.1383056640625,0.9744873046875,-5.136566162109375,-0.665435791015625,-24.0753173828125,1,1.0,1.0,1.0,1.0,10.00
2024-10-11 20:13:55.632,1.3973404,0.42319822,0.68460613,1.1672304,1.2302192,0.017885664,0.26543224,0.85514677,1.0173757,0.02840201,0.5010323,0.65594554,0.5088472,-0.057214912,-0.15716243,0.24055964,-0.055850476,-0.30939502,-0.41856024,-0.38297388,807.8755,799.011,793.36993,812.3077,806.26373,0.2232666015625,0.1383056640625,0.9744873046875,-5.136566162109375,-0.665435791015625,-24.0753173828125,1,1.0,1.0,1.0,1.0,10.00
2024-10-11 20:13:55.638,1.3973404,0.42319822,0.68460613,1.1672304,1.2302192,0.017885664,0.26543224,0.85514677,1.0173757,0.02840201,0.5010323,0.65594554,0.5088472,-0.057214912,-0.15716243,0.24055964,-0.055850476,-0.30939502,-0.41856024,-0.38297388,807.47253,801.8315,795.78754,808.68134,727.6923,0.2232666015625,0.1383056640625,0.9744873046875,-5.136566162109375,-0.665435791015625,-24.0753173828125,1,1.0,1.0,1.0,1.0,10.00
2024-10-11 20:13:55.638,1.3973404,0.42319822,0.68460613,1.1672304,1.2302192,0.017885664,0.26543224,0.85514677,1.0173757,0.02840201,0.5010323,0.65594554,0.5088472,-0.057214912,-0.15716243,0.24055964,-0.055850476,-0.30939502,-0.41856024,-0.38297388,817.1429,805.4579,802.6374,807.8755,909.011,0.2232666015625,0.1383056640625,0.9744873046875,-5.136566162109375,-0.665435791015625,-24.0753173828125,1,1.0,1.0,1.0,1.0,10.00
2024-10-11 20:13:55.639,1.3973404,0.42319822,0.68460613,1.1672304,1.2302192,0.017885664,0.26543224,0.85514677,1.0173757,0.02840201,0.5010323,0.65594554,0.5088472,-0.057214912,-0.15716243,0.24055964,-0.055850476,-0.30939502,-0.41856024,-0.38297388,818.3516,802.23444,801.4286,807.8755,996.04395,0.2232666015625,0.1383056640625,0.9744873046875,-5.136566162109375,-0.665435791015625,-24.0753173828125,1,1.0,1.0,1.0,1.0,10.00
2024-10-11 20:13:55.639,1.3973404,0.42319822,0.68460613,1.1672304,1.2302192,0.017885664,0.26543224,0.85514677,1.0173757,0.02840201,0.5010323,0.65594554,0.5088472,-0.057214912,-0.15716243,0.24055964,-0.055850476,-0.30939502,-0.41856024,-0.38297388,808.2784,795.78754,798.20514,807.8755,914.65204,0.2232666015625,0.1383056640625,0.9744873046875,-5.136566162109375,-0.665435791015625,-24.0753173828125,1,1.0,1.0,1.0,1.0,10.00
2024-10-11 20:13:55.640,1.3973404,0.42319822,0.68460613,1.1672304,1.2302192,0.017885664,0.26543224,0.85514677,1.0173757,0.02840201,0.5010323,0.65594554,0.5088472,-0.057214912,-0.15716243,0.24055964,-0.055850476,-0.30939502,-0.41856024,-0.38297388,795.38464,801.02563,799.81683,809.0842,893.2967,0.2232666015625,0.1383056640625,0.9744873046875,-5.136566162109375,-0.665435791015625,-24.0753173828125,1,1.0,1.0,1.0,1.0,10.00
2024-10-11 20:13:55.641,1.3973404,0.42319822,0.68460613,1.1672304,1.2302192,0.017885664,0.26543224,0.85514677,1.0173757,0.02840201,0.5010323,0.65594554,0.5088472,-0.057214912,-0.15716243,0.24055964,-0.055850476,-0.30939502,-0.41856024,-0.38297388,798.60803,801.8315,801.02563,816.337,885.64105,0.2232666015625,0.1383056640625,0.9744873046875,-5.136566162109375,-0.665435791015625,-24.0753173828125,1,1.0,1.0,1.0,1.0,10.00
2024-10-11 20:13:55.641,1.3973404,0.42319822,0.68460613,1.1672304,1.2302192,0.017885664,0.26543224,0.85514677,1.0173757,0.02840201,0.5010323,0.65594554,0.5088472,-0.057214912,-0.15716243,0.24055964,-0.055850476,-0.30939502,-0.41856024,-0.38297388,798.60803,799.41394,799.81683,824.7985,1252.3077,0.2232666015625,0.1383056640625,0.9744873046875,-5.136566162109375,-0.665435791015625,-24.0753173828125,1,1.0,1.0,1.0,1.0,10.00
2024-10-11 20:13:55.642,1.3973404,0.42319822,0.68460613,1.1672304,1.2302192,0.017885664,0.26543224,0.85514677,1.0173757,0.02840201,0.5010323,0.65594554,0.5088472,-0.057214912,-0.15716243,0.24055964,-0.055850476,-0.30939502,-0.41856024,-0.38297388,798.20514,801.4286,804.2491,823.1868,1234.5787,0.2232666015625,0.1383056640625,0.9744873046875,-5.136566162109375,-0.665435791015625,-24.0753173828125,1,1.0,1.0,1.0,1.0,10.00
2024-10-11 20:13:55.642,1.3973404,0.42319822,0.68460613,1.1672304,1.2302192,0.017885664,0.26543224,0.85514677,1.0173757,0.02840201,0.5010323,0.65594554,0.5088472,-0.057214912,-0.15716243,0.24055964,-0.055850476,-0.30939502,-0.41856024,-0.38297388,804.65204,800.6227,804.65204,809.0842,694.2491,0.2232666015625,0.1383056640625,0.9744873046875,-5.136566162109375,-0.665435791015625,-24.0753173828125,1,1.0,1.0,1.0,1.0,10.00
2024-10-11 20:13:55.643,1.3973404,0.42319822,0.68460613,1.1672304,1.2302192,0.017885664,0.26543224,0.85514677,1.0173757,0.02840201,0.5010323,0.65594554,0.5088472,-0.057214912,-0.15716243,0.24055964,-0.055850476,-0.30939502,-0.41856024,-0.38297388,807.0696,801.4286,802.23444,806.6667,724.0659,0.2232666015625,0.1383056640625,0.9744873046875,-5.136566162109375,-0.665435791015625,-24.0753173828125,1,1.0,1.0,1.0,1.0,10.00
2024-10-11 20:13:55.670,1.3973404,0.42319822,0.68460613,1.1672304,1.2302192,0.017885664,0.26543224,0.85514677,1.0173757,0.02840201,0.5010323,0.65594554,0.5088472,-0.057214912,-0.15716243,0.24055964,-0.055850476,-0.30939502,-0.41856024,-0.38297388,809.0842,801.8315,805.4579,810.293,846.1539,0.21954345703125,0.13323974609375,0.97882080078125,-3.715972900390625,0.897216796875,-19.00604248046875,1,1.0,1.0,1.0,1.0,10.00
2024-10-11 20:13:55.671,1.3973404,0.42319822,0.68460613,1.1672304,1.2302192,0.017885664,0.26543224,0.85514677,1.0173757,0.02840201,0.5010323,0.65594554,0.5088472,-0.057214912,-0.15716243,0.24055964,-0.055850476,-0.30939502,-0.41856024,-0.38297388,805.05493,805.05493,807.0696,811.0989,740.58606,0.21954345703125,0.13323974609375,0.97882080078125,-3.715972900390625,0.897216796875,-19.00604248046875,1,1.0,1.0,1.0,1.0,10.00
2024-10-11 20:13:55.672,1.3973404,0.42319822,0.68460613,1.1672304,1.2302192,0.017885664,0.26543224,0.85514677,1.0173757,0.02840201,0.5010323,0.65594554,0.5088472,-0.057214912,-0.15716243,0.24055964,-0.055850476,-0.30939502,-0.41856024,-0.38297388,805.05493,805.4579,807.0696,815.12823,693.44324,0.21954345703125,0.13323974609375,0.97882080078125,-3.715972900390625,0.897216796875,-19.00604248046875,1,1.0,1.0,1.0,1.0,10.00
2024-10-11 20:13:55.673,1.3973404,0.42319822,0.68460613,1.1672304,1.2302192,0.017885664,0.26543224,0.85514677,1.0173757,0.02840201,0.5010323,0.65594554,0.5088472,-0.057214912,-0.15716243,0.24055964,-0.055850476,-0.30939502,-0.41856024,-0.38297388,799.41394,804.2491,812.71063,816.337,807.0696,0.21954345703125,0.13323974609375,0.97882080078125,-3.715972900390625,0.897216796875,-19.00604248046875,1,1.0,1.0,1.0,1.0,10.00
2024-10-11 20:13:55.673,1.3973404,0.42319822,0.68460613,1.1672304,1.2302192,0.017885664,0.26543224,0.85514677,1.0173757,0.02840201,0.5010323,0.65594554,0.5088472,-0.057214912,-0.15716243,0.24055964,-0.055850476,-0.30939502,-0.41856024,-0.38297388,788.5348,794.57874,810.696,810.293,780.4762,0.21954345703125,0.13323974609375,0.97882080078125,-3.715972900390625,0.897216796875,-19.00604248046875,1,1.0,1.0,1.0,1.0,10.00
2024-10-11 20:13:55.674,1.3973404,0.42319822,0.68460613,1.1672304,1.2302192,0.017885664,0.26543224,0.85514677,1.0173757,0.02840201,0.5010323,0.65594554,0.5088472,-0.057214912,-0.15716243,0.24055964,-0.055850476,-0.30939502,-0.41856024,-0.38297388,794.17584,787.326,808.2784,807.0696,681.75824,0.21954345703125,0.13323974609375,0.97882080078125,-3.715972900390625,0.897216796875,-19.00604248046875,1,1.0,1.0,1.0,1.0,10.00
2024-10-11 20:13:55.674,1.3973404,0.42319822,0.68460613,1.1672304,1.2302192,0.017885664,0.26543224,0.85514677,1.0173757,0.02840201,0.5010323,0.65594554,0.5088472,-0.057214912,-0.15716243,0.24055964,-0.055850476,-0.30939502,-0.41856024,-0.38297388,798.20514,790.9524,809.4872,806.6667,785.31134,0.21954345703125,0.13323974609375,0.97882080078125,-3.715972900390625,0.897216796875,-19.00604248046875,1,1.0,1.0,1.0,1.0,10.00
2024-10-11 20:13:55.675,1.3973404,0.42319822,0.68460613,1.1672304,1.2302192,0.017885664,0.26543224,0.85514677,1.0173757,0.02840201,0.5010323,0.65594554,0.5088472,-0.057214912,-0.15716243,0.24055964,-0.055850476,-0.30939502,-0.41856024,-0.38297388,797.3993,794.9817,807.47253,809.0842,976.7033,0.21954345703125,0.13323974609375,0.97882080078125,-3.715972900390625,0.897216796875,-19.00604248046875,1,1.0,1.0,1.0,1.0,10.00
2024-10-11 20:13:55.675,1.3973404,0.42319822,0.68460613,1.1672304,1.2302192,0.017885664,0.26543224,0.85514677,1.0173757,0.02840201,0.5010323,0.65594554,0.5088472,-0.057214912,-0.15716243,0.24055964,-0.055850476,-0.30939502,-0.41856024,-0.38297388,806.6667,799.81683,809.0842,813.5165,958.1685,0.21954345703125,0.13323974609375,0.97882080078125,-3.715972900390625,0.897216796875,-19.00604248046875,1,1.0,1.0,1.0,1.0,10.00
2024-10-11 20:13:55.676,1.3973404,0.42319822,0.68460613,1.1672304,1.2302192,0.017885664,0.26543224,0.85514677,1.0173757,0.02840201,0.5010323,0.65594554,0.5088472,-0.057214912,-0.15716243,0.24055964,-0.055850476,-0.30939502,-0.41856024,-0.38297388,823.1868,801.4286,809.0842,813.91943,741.79486,0.21954345703125,0.13323974609375,0.97882080078125,-3.715972900390625,0.897216796875,-19.00604248046875,1,1.0,1.0,1.0,1.0,10.00
2024-10-11 20:13:55.677,1.3973404,0.42319822,0.68460613,1.1672304,1.2302192,0.017885664,0.26543224,0.85514677,1.0173757,0.02840201,0.5010323,0.65594554,0.5088472,-0.057214912,-0.15716243,0.24055964,-0.055850476,-0.30939502,-0.41856024,-0.38297388,817.1429,799.41394,804.65204,812.3077,634.61536,0.21954345703125,0.13323974609375,0.97882080078125,-3.715972900390625,0.897216796875,-19.00604248046875,1,1.0,1.0,1.0,1.0,10.00
2024-10-11 20:13:55.677,1.3973404,0.42319822,0.68460613,1.1672304,1.2302192,0.017885664,0.26543224,0.85514677,1.0173757,0.02840201,0.5010323,0.65594554,0.5088472,-0.057214912,-0.15716243,0.24055964,-0.055850476,-0.30939502,-0.41856024,-0.38297388,799.011,792.96704,804.65204,808.2784,610.84247,0.21954345703125,0.13323974609375,0.97882080078125,-3.715972900390625,0.897216796875,-19.00604248046875,1,1.0,1.0,1.0,1.0,10.00
2024-10-11 20:13:55.772,1.3973404,0.42319822,0.68460613,1.1672304,1.2302192,0.017885664,0.26543224,0.85514677,1.0173757,0.02840201,0.5010323,0.65594554,0.5088472,-0.057214912,-0.15716243,0.24055964,-0.055850476,-0.30939502,-0.41856024,-0.38297388,799.81683,794.57874,805.05493,806.6667,629.3773,0.21136474609375,0.1326904296875,0.98394775390625,-3.5888671875,3.12530517578125,-14.228363037109375,1,1.0,1.0,1.0,1.0,10.00
2024-10-11 20:13:55.773,1.3973404,0.42319822,0.68460613,1.1672304,1.2302192,0.017885664,0.26543224,0.85514677,1.0173757,0.02840201,0.5010323,0.65594554,0.5088472,-0.057214912,-0.15716243,0.24055964,-0.055850476,-0.30939502,-0.41856024,-0.38297388,805.8608,801.8315,802.6374,807.0696,680.14655,0.21136474609375,0.1326904296875,0.98394775390625,-3.5888671875,3.12530517578125,-14.228363037109375,1,1.0,1.0,1.0,1.0,10.00
2024-10-11 20:13:55.774,1.3973404,0.42319822,0.68460613,1.1672304,1.2302192,0.017885664,0.26543224,0.85514677,1.0173757,0.02840201,0.5010323,0.65594554,0.5088472,-0.057214912,-0.15716243,0.24055964,-0.055850476,-0.30939502,-0.41856024,-0.38297388,801.02563,801.4286,799.011,810.696,645.4945,0.21136474609375,0.1326904296875,0.98394775390625,-3.5888671875,3.12530517578125,-14.228363037109375,1,1.0,1.0,1.0,1.0,10.00
2024-10-11 20:13:55.774,1.3973404,0.4317233,0.73780596,1.1672304,1.2302192,0.055765506,0.27654758,0.85514677,1.0173757,0.019147694,0.5128436,0.65594554,0.5088472,-0.05779285,-0.1294619,0.24055964,-0.055850476,-0.31521216,-0.42066276,-0.38297388,795.78754,796.1905,799.41394,810.293,699.89014,0.21136474609375,0.1326904296875,0.98394775390625,-3.5888671875,3.12530517578125,-14.228363037109375,1,1.0,1.0,1.0,1.0,10.00
2024-10-11 20:13:55.779,1.3973404,0.4317233,0.73780596,1.1672304,1.2302192,0.055765506,0.27654758,0.85514677,1.0173757,0.019147694,0.5128436,0.65594554,0.5088472,-0.05779285,-0.1294619,0.24055964,-0.055850476,-0.31521216,-0.42066276,-0.38297388,798.60803,796.1905,802.23444,805.05493,749.85345,0.21136474609375,0.1326904296875,0.98394775390625,-3.5888671875,3.12530517578125,-14.228363037109375,1,1.0,1.0,1.0,1.0,10.00
2024-10-11 20:13:55.780,1.3973404,0.4317233,0.73780596,1.1672304,1.2302192,0.055765506,0.27654758,0.85514677,1.0173757,0.019147694,0.5128436,0.65594554,0.5088472,-0.05779285,-0.1294619,0.24055964,-0.055850476,-0.31521216,-0.42066276,-0.38297388,803.0403,797.3993,802.23444,807.8755,803.44324,0.21136474609375,0.1326904296875,0.98394775390625,-3.5888671875,3.12530517578125,-14.228363037109375,1,1.0,1.0,1.0,1.0,10.00
2024-10-11 20:13:55.781,1.3973404,0.4317233,0.73780596,1.1672304,1.2302192,0.055765506,0.27654758,0.85514677,1.0173757,0.019147694,0.5128436,0.65594554,0.5088472,-0.05779285,-0.1294619,0.24055964,-0.055850476,-0.31521216,-0.42066276,-0.38297388,802.6374,795.78754,801.8315,807.8755,920.696,0.21136474609375,0.1326904296875,0.98394775390625,-3.5888671875,3.12530517578125,-14.228363037109375,1,1.0,1.0,1.0,1.0,10.00
2024-10-11 20:13:55.781,1.3973404,0.4317233,0.73780596,1.1672304,1.2302192,0.055765506,0.27654758,0.85514677,1.0173757,0.019147694,0.5128436,0.65594554,0.5088472,-0.05779285,-0.1294619,0.24055964,-0.055850476,-0.31521216,-0.42066276,-0.38297388,801.02563,796.5934,803.8461,807.0696,930.7692,0.21136474609375,0.1326904296875,0.98394775390625,-3.5888671875,3.12530517578125,-14.228363037109375,1,1.0,1.0,1.0,1.0,10.00
2024-10-11 20:13:55.782,1.3973404,0.4317233,0.73780596,1.1672304,1.2302192,0.055765506,0.27654758,0.85514677,1.0173757,0.019147694,0.5128436,0.65594554,0.5088472,-0.05779285,-0.1294619,0.24055964,-0.055850476,-0.31521216,-0.42066276,-0.38297388,798.60803,796.1905,807.0696,805.4579,779.67035,0.21136474609375,0.1326904296875,0.98394775390625,-3.5888671875,3.12530517578125,-14.228363037109375,1,1.0,1.0,1.0,1.0,10.00
2024-10-11 20:13:55.782,1.3973404,0.4317233,0.73780596,1.1672304,1.2302192,0.055765506,0.27654758,0.85514677,1.0173757,0.019147694,0.5128436,0.65594554,0.5088472,-0.05779285,-0.1294619,0.24055964,-0.055850476,-0.31521216,-0.42066276,-0.38297388,800.2198,791.75824,804.2491,801.02563,705.5311,0.21136474609375,0.1326904296875,0.98394775390625,-3.5888671875,3.12530517578125,-14.228363037109375,1,1.0,1.0,1.0,1.0,10.00
2024-10-11 20:13:55.783,1.3973404,0.4317233,0.73780596,1.1672304,1.2302192,0.055765506,0.27654758,0.85514677,1.0173757,0.019147694,0.5128436,0.65594554,0.5088472,-0.05779285,-0.1294619,0.24055964,-0.055850476,-0.31521216,-0.42066276,-0.38297388,805.4579,792.96704,803.44324,803.44324,767.1795,0.21136474609375,0.1326904296875,0.98394775390625,-3.5888671875,3.12530517578125,-14.228363037109375,1,1.0,1.0,1.0,1.0,10.00
2024-10-11 20:13:55.784,1.3973404,0.4317233,0.73780596,1.1672304,1.2302192,0.055765506,0.27654758,0.85514677,1.0173757,0.019147694,0.5128436,0.65594554,0.5088472,-0.05779285,-0.1294619,0.24055964,-0.055850476,-0.31521216,-0.42066276,-0.38297388,803.0403,797.8022,805.4579,805.05493,772.01465,0.21136474609375,0.1326904296875,0.98394775390625,-3.5888671875,3.12530517578125,-14.228363037109375,1,1.0,1.0,1.0,1.0,10.00
2024-10-11 20:13:55.808,1.3973404,0.4317233,0.73780596,1.1672304,1.2302192,0.055765506,0.27654758,0.85514677,1.0173757,0.019147694,0.5128436,0.65594554,0.5088472,-0.05779285,-0.1294619,0.24055964,-0.055850476,-0.31521216,-0.42066276,-0.38297388,797.8022,801.02563,804.2491,805.8608,579.81683,0.21136474609375,0.1326904296875,0.98394775390625,-3.5888671875,3.12530517578125,-14.228363037109375,1,1.0,1.0,1.0,1.0,10.00
2024-10-11 20:13:55.809,1.3973404,0.4317233,0.73780596,1.1672304,1.2302192,0.055765506,0.27654758,0.85514677,1.0173757,0.019147694,0.5128436,0.65594554,0.5088472,-0.05779285,-0.1294619,0.24055964,-0.055850476,-0.31521216,-0.42066276,-0.38297388,800.2198,802.23444,805.05493,813.1135,581.4286,0.21136474609375,0.1326904296875,0.98394775390625,-3.5888671875,3.12530517578125,-14.228363037109375,1,1.0,1.0,1.0,1.0,10.00
2024-10-11 20:13:55.809,1.3973404,0.4317233,0.73780596,1.1672304,1.2302192,0.055765506,0.27654758,0.85514677,1.0173757,0.019147694,0.5128436,0.65594554,0.5088472,-0.05779285,-0.1294619,0.24055964,-0.055850476,-0.31521216,-0.42066276,-0.38297388,804.65204,794.57874,803.0403,813.91943,859.85345,0.21136474609375,0.1326904296875,0.98394775390625,-3.5888671875,3.12530517578125,-14.228363037109375,1,1.0,1.0,1.0,1.0,10.00
2024-10-11 20:13:55.810,1.3973404,0.4317233,0.73780596,1.1672304,1.2302192,0.055765506,0.27654758,0.85514677,1.0173757,0.019147694,0.5128436,0.65594554,0.5088472,-0.05779285,-0.1294619,0.24055964,-0.055850476,-0.31521216,-0.42066276,-0.38297388,805.8608,794.17584,799.81683,806.26373,890.4762,0.21136474609375,0.1326904296875,0.98394775390625,-3.5888671875,3.12530517578125,-14.228363037109375,1,1.0,1.0,1.0,1.0,10.00
2024-10-11 20:13:55.811,1.3973404,0.4317233,0.73780596,1.1672304,1.2302192,0.055765506,0.27654758,0.85514677,1.0173757,0.019147694,0.5128436,0.65594554,0.5088472,-0.05779285,-0.1294619,0.24055964,-0.055850476,-0.31521216,-0.42066276,-0.38297388,799.41394,798.60803,804.65204,801.8315,774.43225,0.21136474609375,0.1326904296875,0.98394775390625,-3.5888671875,3.12530517578125,-14.228363037109375,1,1.0,1.0,1.0,1.0,10.00
2024-10-11 20:13:55.811,1.3973404,0.4317233,0.73780596,1.1672304,1.2302192,0.055765506,0.27654758,0.85514677,1.0173757,0.019147694,0.5128436,0.65594554,0.5088472,-0.05779285,-0.1294619,0.24055964,-0.055850476,-0.31521216,-0.42066276,-0.38297388,807.47253,794.57874,805.4579,810.696,902.5641,0.21136474609375,0.1326904296875,0.98394775390625,-3.5888671875,3.12530517578125,-14.228363037109375,1,1.0,1.0,1.0,1.0,10.00
2024-10-11 20:13:55.812,1.3973404,0.4317233,0.73780596,1.1672304,1.2302192,0.055765506,0.27654758,0.85514677,1.0173757,0.019147694,0.5128436,0.65594554,0.5088472,-0.05779285,-0.1294619,0.24055964,-0.055850476,-0.31521216,-0.42066276,-0.38297388,809.89014,791.3553,806.26373,817.5458,1073.0037,0.21136474609375,0.1326904296875,0.98394775390625,-3.5888671875,3.12530517578125,-14.228363037109375,1,1.0,1.0,1.0,1.0,10.00
2024-10-11 20:13:55.812,1.3973404,0.4317233,0.73780596,1.1672304,1.2302192,0.055765506,0.27654758,0.85514677,1.0173757,0.019147694,0.5128436,0.65594554,0.5088472,-0.05779285,-0.1294619,0.24055964,-0.055850476,-0.31521216,-0.42066276,-0.38297388,809.4872,797.8022,806.26373,812.3077,873.1502,0.21136474609375,0.1326904296875,0.98394775390625,-3.5888671875,3.12530517578125,-14.228363037109375,1,1.0,1.0,1.0,1.0,10.00
2024-10-11 20:13:55.813,1.3973404,0.4317233,0.73780596,1.1672304,1.2302192,0.055765506,0.27654758,0.85514677,1.0173757,0.019147694,0.5128436,0.65594554,0.5088472,-0.05779285,-0.1294619,0.24055964,-0.055850476,-0.31521216,-0.42066276,-0.38297388,817.5458,793.7729,805.05493,802.6374,533.47986,0.21136474609375,0.1326904296875,0.98394775390625,-3.5888671875,3.12530517578125,-14.228363037109375,1,1.0,1.0,1.0,1.0,10.00
2024-10-11 20:13:55.813,1.3973404,0.4317233,0.73780596,1.1672304,1.2302192,0.055765506,0.27654758,0.85514677,1.0173757,0.019147694,0.5128436,0.65594554,0.5088472,-0.05779285,-0.1294619,0.24055964,-0.055850476,-0.31521216,-0.42066276,-0.38297388,810.293,790.14655,807.47253,806.6667,622.1245,0.21136474609375,0.1326904296875,0.98394775390625,-3.5888671875,3.12530517578125,-14.228363037109375,1,1.0,1.0,1.0,1.0,10.00
2024-10-11 20:13:55.814,1.3973404,0.4317233,0.73780596,1.1672304,1.2302192,0.055765506,0.27654758,0.85514677,1.0173757,0.019147694,0.5128436,0.65594554,0.5088472,-0.05779285,-0.1294619,0.24055964,-0.055850476,-0.31521216,-0.42066276,-0.38297388,792.5641,794.17584,803.44324,813.91943,990.40295,0.21136474609375,0.1326904296875,0.98394775390625,-3.5888671875,3.12530517578125,-14.228363037109375,1,1.0,1.0,1.0,1.0,10.00
2024-10-11 20:13:55.815,1.3973404,0.4317233,0.73780596,1.1672304,1.2302192,0.055765506,0.27654758,0.85514677,1.0173757,0.019147694,0.5128436,0.65594554,0.5088472,-0.05779285,-0.1294619,0.24055964,-0.055850476,-0.31521216,-0.42066276,-0.38297388,788.93774,796.1905,803.0403,812.3077,881.2088,0.21136474609375,0.1326904296875,0.98394775390625,-3.5888671875,3.12530517578125,-14.228363037109375,1,1.0,1.0,1.0,1.0,10.00
2024-10-11 20:13:55.876,1.3973404,0.4317233,0.73780596,1.1672304,1.2302192,0.055765506,0.27654758,0.85514677,1.0173757,0.019147694,0.5128436,0.65594554,0.5088472,-0.05779285,-0.1294619,0.24055964,-0.055850476,-0.31521216,-0.42066276,-0.38297388,792.96704,798.20514,803.8461,807.47253,566.52014,0.19696044921875,0.12799072265625,0.98138427734375,-3.536529541015625,4.254302978515625,-11.805877685546875,1,1.0,1.0,1.0,1.0,10.00
2024-10-11 20:13:55.877,1.3973404,0.4317233,0.73780596,1.1672304,1.2302192,0.055765506,0.27654758,0.85514677,1.0173757,0.019147694,0.5128436,0.65594554,0.5088472,-0.05779285,-0.1294619,0.24055964,-0.055850476,-0.31521216,-0.42066276,-0.38297388,793.36993,797.3993,803.44324,807.8755,608.4249,0.19696044921875,0.12799072265625,0.98138427734375,-3.536529541015625,4.254302978515625,-11.805877685546875,1,1.0,1.0,1.0,1.0,10.00
2024-10-11 20:13:55.878,1.3973404,0.4317233,0.73780596,1.1672304,1.2302192,0.055765506,0.27654758,0.85514677,1.0173757,0.019147694,0.5128436,0.65594554,0.5088472,-0.05779285,-0.1294619,0.24055964,-0.055850476,-0.31521216,-0.42066276,-0.38297388,802.23444,792.96704,801.8315,815.12823,901.3553,0.19696044921875,0.12799072265625,0.98138427734375,-3.536529541015625,4.254302978515625,-11.805877685546875,1,1.0,1.0,1.0,1.0,10.00
2024-10-11 20:13:55.879,1.3973404,0.4317233,0.73780596,1.1672304,1.2302192,0.055765506,0.27654758,0.85514677,1.0173757,0.019147694,0.5128436,0.65594554,0.5088472,-0.05779285,-0.1294619,0.24055964,-0.055850476,-0.31521216,-0.42066276,-0.38297388,803.0403,795.78754,802.23444,809.89014,801.02563,0.19696044921875,0.12799072265625,0.98138427734375,-3.536529541015625,4.254302978515625,-11.805877685546875,1,1.0,1.0,1.0,1.0,10.00
2024-10-11 20:13:55.879,1.3973404,0.4317233,0.73780596,1.1672304,1.2302192,0.055765506,0.27654758,0.85514677,1.0173757,0.019147694,0.5128436,0.65594554,0.5088472,-0.05779285,-0.1294619,0.24055964,-0.055850476,-0.31521216,-0.42066276,-0.38297388,800.6227,798.60803,803.8461,803.8461,664.0293,0.19696044921875,0.12799072265625,0.98138427734375,-3.536529541015625,4.254302978515625,-11.805877685546875,1,1.0,1.0,1.0,1.0,10.00
2024-10-11 20:13:55.880,1.3973404,0.4302005,0.7699475,1.1672304,1.2302192,0.05970939,0.27943912,0.85514677,1.0173757,-0.033422213,0.5128436,0.65594554,0.5088472,-0.052222356,-0.10842882,0.24055964,-0.055850476,-0.31977773,-0.42317677,-0.38297388,810.293,796.1905,803.44324,806.6667,807.8755,0.19696044921875,0.12799072265625,0.98138427734375,-3.536529541015625,4.254302978515625,-11.805877685546875,1,1.0,1.0,1.0,1.0,10.00
2024-10-11 20:13:55.886,1.3973404,0.4302005,0.7699475,1.1672304,1.2302192,0.05970939,0.27943912,0.85514677,1.0173757,-0.033422213,0.5128436,0.65594554,0.5088472,-0.052222356,-0.10842882,0.24055964,-0.055850476,-0.31977773,-0.42317677,-0.38297388,812.71063,793.7729,801.02563,811.9048,1019.41394,0.19696044921875,0.12799072265625,0.98138427734375,-3.536529541015625,4.254302978515625,-11.805877685546875,1,1.0,1.0,1.0,1.0,10.00
2024-10-11 20:13:55.887,1.3973404,0.4302005,0.7699475,1.1672304,1.2302192,0.05970939,0.27943912,0.85514677,1.0173757,-0.033422213,0.5128436,0.65594554,0.5088472,-0.052222356,-0.10842882,0.24055964,-0.055850476,-0.31977773,-0.42317677,-0.38297388,805.4579,793.7729,801.4286,813.5165,1021.02563,0.19696044921875,0.12799072265625,0.98138427734375,-3.536529541015625,4.254302978515625,-11.805877685546875,1,1.0,1.0,1.0,1.0,10.00
2024-10-11 20:13:55.888,1.3973404,0.4302005,0.7699475,1.1672304,1.2302192,0.05970939,0.27943912,0.85514677,1.0173757,-0.033422213,0.5128436,0.65594554,0.5088472,-0.052222356,-0.10842882,0.24055964,-0.055850476,-0.31977773,-0.42317677,-0.38297388,796.5934,796.1905,805.8608,810.696,745.82416,0.19696044921875,0.12799072265625,0.98138427734375,-3.536529541015625,4.254302978515625,-11.805877685546875,1,1.0,1.0,1.0,1.0,10.00
2024-10-11 20:13:55.888,1.3973404,0.4302005,0.7699475,1.1672304,1.2302192,0.05970939,0.27943912,0.85514677,1.0173757,-0.033422213,0.5128436,0.65594554,0.5088472,-0.052222356,-0.10842882,0.24055964,-0.055850476,-0.31977773,-0.42317677,-0.38297388,795.78754,795.78754,812.3077,813.1135,654.7619,0.19696044921875,0.12799072265625,0.98138427734375,-3.536529541015625,4.254302978515625,-11.805877685546875,1,1.0,1.0,1.0,1.0,10.00
2024-10-11 20:13:55.889,1.3973404,0.4302005,0.7699475,1.1672304,1.2302192,0.05970939,0.27943912,0.85514677,1.0173757,-0.033422213,0.5128436,0.65594554,0.5088472,-0.052222356,-0.10842882,0.24055964,-0.055850476,-0.31977773,-0.42317677,-0.38297388,807.8755,799.81683,813.1135,820.3663,828.022,0.19696044921875,0.12799072265625,0.98138427734375,-3.536529541015625,4.254302978515625,-11.805877685546875,1,1.0,1.0,1.0,1.0,10.00
2024-10-11 20:13:55.890,1.3973404,0.4302005,0.7699475,1.1672304,1.2302192,0.05970939,0.27943912,0.85514677,1.0173757,-0.033422213,0.5128436,0.65594554,0.5088472,-0.052222356,-0.10842882,0.24055964,-0.055850476,-0.31977773,-0.42317677,-0.38297388,807.8755,799.81683,809.4872,821.5751,774.43225,0.19696044921875,0.12799072265625,0.98138427734375,-3.536529541015625,4.254302978515625,-11.805877685546875,1,1.0,1.0,1.0,1.0,10.00
2024-10-11 20:13:55.939,1.3973404,0.4302005,0.7699475,1.1672304,1.2302192,0.05970939,0.27943912,0.85514677,1.0173757,-0.033422213,0.5128436,0.65594554,0.5088472,-0.052222356,-0.10842882,0.24055964,-0.055850476,-0.31977773,-0.42317677,-0.38297388,796.99634,797.3993,807.47253,819.5604,713.9927,0.17803955078125,0.1253662109375,0.98651123046875,-3.476715087890625,7.53662109375,-11.663818359375,1,1.0,1.0,1.0,1.0,10.00
2024-10-11 20:13:55.940,1.3973404,0.4302005,0.7699475,1.1672304,1.2302192,0.05970939,0.27943912,0.85514677,1.0173757,-0.033422213,0.5128436,0.65594554,0.5088472,-0.052222356,-0.10842882,0.24055964,-0.055850476,-0.31977773,-0.42317677,-0.38297388,789.7436,799.81683,806.26373,819.9634,866.30035,0.17803955078125,0.1253662109375,0.98651123046875,-3.476715087890625,7.53662109375,-11.663818359375,1,1.0,1.0,1.0,1.0,10.00
2024-10-11 20:13:55.941,1.3973404,0.4302005,0.7699475,1.1672304,1.2302192,0.05970939,0.27943912,0.85514677,1.0173757,-0.033422213,0.5128436,0.65594554,0.5088472,-0.052222356,-0.10842882,0.24055964,-0.055850476,-0.31977773,-0.42317677,-0.38297388,793.36993,796.99634,805.8608,824.7985,882.01465,0.17803955078125,0.1253662109375,0.98651123046875,-3.476715087890625,7.53662109375,-11.663818359375,1,1.0,1.0,1.0,1.0,10.00
2024-10-11 20:13:55.942,1.3973404,0.4302005,0.7699475,1.1672304,1.2302192,0.05970939,0.27943912,0.85514677,1.0173757,-0.033422213,0.5128436,0.65594554,0.5088472,-0.052222356,-0.10842882,0.24055964,-0.055850476,-0.31977773,-0.42317677,-0.38297388,795.38464,794.9817,805.4579,818.7546,746.63007,0.17803955078125,0.1253662109375,0.98651123046875,-3.476715087890625,7.53662109375,-11.663818359375,1,1.0,1.0,1.0,1.0,10.00
2024-10-11 20:13:55.942,1.3973404,0.4302005,0.7699475,1.1672304,1.2302192,0.05970939,0.27943912,0.85514677,1.0173757,-0.033422213,0.5128436,0.65594554,0.5088472,-0.052222356,-0.10842882,0.24055964,-0.055850476,-0.31977773,-0.42317677,-0.38297388,796.5934,798.20514,805.05493,809.0842,726.4835,0.17803955078125,0.1253662109375,0.98651123046875,-3.476715087890625,7.53662109375,-11.663818359375,1,1.0,1.0,1.0,1.0,10.00
2024-10-11 20:13:55.943,1.3973404,0.4302005,0.7699475,1.1672304,1.2302192,0.05970939,0.27943912,0.85514677,1.0173757,-0.033422213,0.5128436,0.65594554,0.5088472,-0.052222356,-0.10842882,0.24055964,-0.055850476,-0.31977773,-0.42317677,-0.38297388,801.8315,795.78754,803.0403,813.5165,1070.586,0.17803955078125,0.1253662109375,0.98651123046875,-3.476715087890625,7.53662109375,-11.663818359375,1,1.0,1.0,1.0,1.0,10.00
2024-10-11 20:13:55.943,1.3973404,0.4302005,0.7699475,1.1672304,1.2302192,0.05970939,0.27943912,0.85514677,1.0173757,-0.033422213,0.5128436,0.65594554,0.5088472,-0.052222356,-0.10842882,0.24055964,-0.055850476,-0.31977773,-0.42317677,-0.38297388,801.4286,794.17584,802.23444,813.1135,1093.956,0.17803955078125,0.1253662109375,0.98651123046875,-3.476715087890625,7.53662109375,-11.663818359375,1,1.0,1.0,1.0,1.0,10.00
2024-10-11 20:13:55.944,1.3973404,0.4302005,0.7699475,1.1672304,1.2302192,0.05970939,0.27943912,0.85514677,1.0173757,-0.033422213,0.5128436,0.65594554,0.5088472,-0.052222356,-0.10842882,0.24055964,-0.055850476,-0.31977773,-0.42317677,-0.38297388,796.1905,799.81683,796.5934,811.9048,779.67035,0.17803955078125,0.1253662109375,0.98651123046875,-3.476715087890625,7.53662109375,-11.663818359375,1,1.0,1.0,1.0,1.0,10.00
2024-10-11 20:13:55.944,1.3973404,0.4302005,0.7699475,1.1672304,1.2302192,0.05970939,0.27943912,0.85514677,1.0173757,-0.033422213,0.5128436,0.65594554,0.5088472,-0.052222356,-0.10842882,0.24055964,-0.055850476,-0.31977773,-0.42317677,-0.38297388,797.8022,800.2198,798.60803,813.1135,779.67035,0.17803955078125,0.1253662109375,0.98651123046875,-3.476715087890625,7.53662109375,-11.663818359375,1,1.0,1.0,1.0,1.0,10.00
2024-10-11 20:13:55.945,1.3973404,0.4302005,0.7699475,1.1672304,1.2302192,0.05970939,0.27943912,0.85514677,1.0173757,-0.033422213,0.5128436,0.65594554,0.5088472,-0.052222356,-0.10842882,0.24055964,-0.055850476,-0.31977773,-0.42317677,-0.38297388,805.4579,794.17584,805.8608,815.5311,1010.54944,0.17803955078125,0.1253662109375,0.98651123046875,-3.476715087890625,7.53662109375,-11.663818359375,1,1.0,1.0,1.0,1.0,10.00
2024-10-11 20:13:55.945,1.3973404,0.4302005,0.7699475,1.1672304,1.2302192,0.05970939,0.27943912,0.85514677,1.0173757,-0.033422213,0.5128436,0.65594554,0.5088472,-0.052222356,-0.10842882,0.24055964,-0.055850476,-0.31977773,-0.42317677,-0.38297388,799.41394,789.7436,803.8461,810.696,877.98535,0.17803955078125,0.1253662109375,0.98651123046875,-3.476715087890625,7.53662109375,-11.663818359375,1,1.0,1.0,1.0,1.0,10.00
2024-10-11 20:13:55.946,1.3973404,0.4302005,0.7699475,1.1672304,1.2302192,0.05970939,0.27943912,0.85514677,1.0173757,-0.033422213,0.5128436,0.65594554,0.5088472,-0.052222356,-0.10842882,0.24055964,-0.055850476,-0.31977773,-0.42317677,-0.38297388,802.23444,791.3553,805.05493,809.89014,720.0366,0.17803955078125,0.1253662109375,0.98651123046875,-3.476715087890625,7.53662109375,-11.663818359375,1,1.0,1.0,1.0,1.0,10.00
2024-10-11 20:13:56.006,1.3973404,0.4302005,0.7699475,1.1672304,1.2302192,0.05970939,0.27943912,0.85514677,1.0173757,-0.033422213,0.5128436,0.65594554,0.5088472,-0.052222356,-0.10842882,0.24055964,-0.055850476,-0.31977773,-0.42317677,-0.38297388,804.2491,794.17584,809.0842,815.12823,825.2015,0.15618896484375,0.1234130859375,0.989501953125,-2.01873779296875,10.086212158203125,-12.06756591796875,1,1.0,1.0,1.0,1.0,10.00
2024-10-11 20:13:56.008,1.3973404,0.4302005,0.7699475,1.1672304,1.2302192,0.05970939,0.27943912,0.85514677,1.0173757,-0.033422213,0.5128436,0.65594554,0.5088472,-0.052222356,-0.10842882,0.24055964,-0.055850476,-0.31977773,-0.42317677,-0.38297388,803.8461,791.75824,807.47253,811.0989,858.24176,0.15618896484375,0.1234130859375,0.989501953125,-2.01873779296875,10.086212158203125,-12.06756591796875,1,1.0,1.0,1.0,1.0,10.00
2024-10-11 20:13:56.008,1.3973404,0.4302005,0.7699475,1.1672304,1.2302192,0.05970939,0.27943912,0.85514677,1.0173757,-0.033422213,0.5128436,0.65594554,0.5088472,-0.052222356,-0.10842882,0.24055964,-0.055850476,-0.31977773,-0.42317677,-0.38297388,812.71063,794.17584,803.44324,804.2491,699.89014,0.15618896484375,0.1234130859375,0.989501953125,-2.01873779296875,10.086212158203125,-12.06756591796875,1,1.0,1.0,1.0,1.0,10.00
2024-10-11 20:13:56.009,1.3973404,0.4302005,0.7699475,1.1672304,1.2302192,0.05970939,0.27943912,0.85514677,1.0173757,-0.033422213,0.5128436,0.65594554,0.5088472,-0.052222356,-0.10842882,0.24055964,-0.055850476,-0.31977773,-0.42317677,-0.38297388,807.0696,799.011,803.8461,806.6667,720.84247,0.15618896484375,0.1234130859375,0.989501953125,-2.01873779296875,10.086212158203125,-12.06756591796875,1,1.0,1.0,1.0,1.0,10.00
2024-10-11 20:13:56.009,1.3973404,0.4302005,0.7699475,1.1672304,1.2302192,0.05970939,0.27943912,0.85514677,1.0173757,-0.033422213,0.5128436,0.65594554,0.5088472,-0.052222356,-0.10842882,0.24055964,-0.055850476,-0.31977773,-0.42317677,-0.38297388,806.26373,796.5934,807.47253,812.71063,870.7326,0.15618896484375,0.1234130859375,0.989501953125,-2.01873779296875,10.086212158203125,-12.06756591796875,1,1.0,1.0,1.0,1.0,10.00
2024-10-11 20:13:56.010,1.3973404,0.4302005,0.7699475,1.1672304,1.2302192,0.05970939,0.27943912,0.85514677,1.0173757,-0.033422213,0.5128436,0.65594554,0.5088472,-0.052222356,-0.10842882,0.24055964,-0.055850476,-0.31977773,-0.42317677,-0.38297388,808.68134,801.8315,807.0696,814.7253,985.56775,0.15618896484375,0.1234130859375,0.989501953125,-2.01873779296875,10.086212158203125,-12.06756591796875,1,1.0,1.0,1.0,1.0,10.00
2024-10-11 20:13:56.011,1.3973404,0.4302005,0.7699475,1.1672304,1.2302192,0.05970939,0.27943912,0.85514677,1.0173757,-0.033422213,0.5128436,0.65594554,0.5088472,-0.052222356,-0.10842882,0.24055964,-0.055850476,-0.31977773,-0.42317677,-0.38297388,799.81683,801.8315,807.8755,807.0696,864.68866,0.15618896484375,0.1234130859375,0.989501953125,-2.01873779296875,10.086212158203125,-12.06756591796875,1,1.0,1.0,1.0,1.0,10.00
2024-10-11 20:13:56.011,1.3544271,0.4063022,0.7818543,1.1020494,1.1862749,0.03459225,0.26994935,0.8323584,1.0139387,-0.10557767,0.5128436,0.6428279,0.5061367,-0.04723225,-0.0933851,0.19363338,-0.025189303,-0.32781473,-0.42586473,-0.42497525,777.25275,797.8022,801.4286,808.2784,670.4762,0.15618896484375,0.1234130859375,0.989501953125,-2.01873779296875,10.086212158203125,-12.06756591796875,1,1.0,1.0,1.0,1.0,10.00
2024-10-11 20:13:56.016,1.3544271,0.4063022,0.7818543,1.1020494,1.1862749,0.03459225,0.26994935,0.8323584,1.0139387,-0.10557767,0.5128436,0.6428279,0.5061367,-0.04723225,-0.0933851,0.19363338,-0.025189303,-0.32781473,-0.42586473,-0.42497525,765.56775,793.7729,799.81683,817.9487,784.5055,0.15618896484375,0.1234130859375,0.989501953125,-2.01873779296875,10.086212158203125,-12.06756591796875,1,1.0,1.0,1.0,1.0,10.00
2024-10-11 20:13:56.017,1.3544271,0.4063022,0.7818543,1.1020494,1.1862749,0.03459225,0.26994935,0.8323584,1.0139387,-0.10557767,0.5128436,0.6428279,0.5061367,-0.04723225,-0.0933851,0.19363338,-0.025189303,-0.32781473,-0.42586473,-0.42497525,775.2381,791.75824,802.6374,822.381,911.02563,0.15618896484375,0.1234130859375,0.989501953125,-2.01873779296875,10.086212158203125,-12.06756591796875,1,1.0,1.0,1.0,1.0,10.00
2024-10-11 20:13:56.017,1.3544271,0.4063022,0.7818543,1.1020494,1.1862749,0.03459225,0.26994935,0.8323584,1.0139387,-0.10557767,0.5128436,0.6428279,0.5061367,-0.04723225,-0.0933851,0.19363338,-0.025189303,-0.32781473,-0.42586473,-0.42497525,789.7436,793.7729,801.8315,821.1722,709.15753,0.15618896484375,0.1234130859375,0.989501953125,-2.01873779296875,10.086212158203125,-12.06756591796875,1,1.0,1.0,1.0,1.0,10.00
2024-10-11 20:13:56.018,1.3544271,0.4063022,0.7818543,1.1020494,1.1862749,0.03459225,0.26994935,0.8323584,1.0139387,-0.10557767,0.5128436,0.6428279,0.5061367,-0.04723225,-0.0933851,0.19363338,-0.025189303,-0.32781473,-0.42586473,-0.42497525,799.011,792.5641,797.3993,819.15753,658.7912,0.15618896484375,0.1234130859375,0.989501953125,-2.01873779296875,10.086212158203125,-12.06756591796875,1,1.0,1.0,1.0,1.0,10.00
2024-10-11 20:13:56.074,1.3544271,0.4063022,0.7818543,1.1020494,1.1862749,0.03459225,0.26994935,0.8323584,1.0139387,-0.10557767,0.5128436,0.6428279,0.5061367,-0.04723225,-0.0933851,0.19363338,-0.025189303,-0.32781473,-0.42586473,-0.42497525,807.47253,796.99634,798.60803,825.6044,883.22345,0.13641357421875,0.12579345703125,0.9886474609375,-0.95703125,13.86199951171875,-13.390960693359375,1,1.0,1.0,1.0,1.0,10.00
2024-10-11 20:13:56.075,1.3544271,0.4063022,0.7818543,1.1020494,1.1862749,0.03459225,0.26994935,0.8323584,1.0139387,-0.10557767,0.5128436,0.6428279,0.5061367,-0.04723225,-0.0933851,0.19363338,-0.025189303,-0.32781473,-0.42586473,-0.42497525,805.4579,797.8022,803.44324,828.8278,937.2161,0.13641357421875,0.12579345703125,0.9886474609375,-0.95703125,13.86199951171875,-13.390960693359375,1,1.0,1.0,1.0,1.0,10.00
2024-10-11 20:13:56.076,1.3544271,0.4063022,0.7818543,1.1020494,1.1862749,0.03459225,0.26994935,0.8323584,1.0139387,-0.10557767,0.5128436,0.6428279,0.5061367,-0.04723225,-0.0933851,0.19363338,-0.025189303,-0.32781473,-0.42586473,-0.42497525,790.9524,795.78754,802.23444,821.1722,732.9304,0.13641357421875,0.12579345703125,0.9886474609375,-0.95703125,13.86199951171875,-13.390960693359375,1,1.0,1.0,1.0,1.0,10.00
2024-10-11 20:13:56.077,1.3544271,0.4063022,0.7818543,1.1020494,1.1862749,0.03459225,0.26994935,0.8323584,1.0139387,-0.10557767,0.5128436,0.6428279,0.5061367,-0.04723225,-0.0933851,0.19363338,-0.025189303,-0.32781473,-0.42586473,-0.42497525,801.4286,798.60803,805.05493,814.3223,648.71796,0.13641357421875,0.12579345703125,0.9886474609375,-0.95703125,13.86199951171875,-13.390960693359375,1,1.0,1.0,1.0,1.0,10.00
2024-10-11 20:13:56.077,1.3544271,0.4063022,0.7818543,1.1020494,1.1862749,0.03459225,0.26994935,0.8323584,1.0139387,-0.10557767,0.5128436,0.6428279,0.5061367,-0.04723225,-0.0933851,0.19363338,-0.025189303,-0.32781473,-0.42586473,-0.42497525,807.8755,795.78754,807.47253,812.71063,921.9048,0.13641357421875,0.12579345703125,0.9886474609375,-0.95703125,13.86199951171875,-13.390960693359375,1,1.0,1.0,1.0,1.0,10.00
2024-10-11 20:13:56.078,1.3544271,0.4063022,0.7818543,1.1020494,1.1862749,0.03459225,0.26994935,0.8323584,1.0139387,-0.10557767,0.5128436,0.6428279,0.5061367,-0.04723225,-0.0933851,0.19363338,-0.025189303,-0.32781473,-0.42586473,-0.42497525,792.96704,795.78754,801.8315,811.9048,1064.1392,0.13641357421875,0.12579345703125,0.9886474609375,-0.95703125,13.86199951171875,-13.390960693359375,1,1.0,1.0,1.0,1.0,10.00
2024-10-11 20:13:56.079,1.3544271,0.4063022,0.7818543,1.1020494,1.1862749,0.03459225,0.26994935,0.8323584,1.0139387,-0.10557767,0.5128436,0.6428279,0.5061367,-0.04723225,-0.0933851,0.19363338,-0.025189303,-0.32781473,-0.42586473,-0.42497525,792.5641,799.011,800.6227,813.1135,875.16486,0.13641357421875,0.12579345703125,0.9886474609375,-0.95703125,13.86199951171875,-13.390960693359375,1,1.0,1.0,1.0,1.0,10.00
2024-10-11 20:13:56.079,1.3544271,0.4063022,0.7818543,1.1020494,1.1862749,0.03459225,0.26994935,0.8323584,1.0139387,-0.10557767,0.5128436,0.6428279,0.5061367,-0.04723225,-0.0933851,0.19363338,-0.025189303,-0.32781473,-0.42586473,-0.42497525,808.68134,796.99634,802.23444,811.50183,692.6374,0.13641357421875,0.12579345703125,0.9886474609375,-0.95703125,13.86199951171875,-13.390960693359375,1,1.0,1.0,1.0,1.0,10.00
2024-10-11 20:13:56.080,1.3544271,0.4063022,0.7818543,1.1020494,1.1862749,0.03459225,0.26994935,0.8323584,1.0139387,-0.10557767,0.5128436,0.6428279,0.5061367,-0.04723225,-0.0933851,0.19363338,-0.025189303,-0.32781473,-0.42586473,-0.42497525,817.1429,790.54944,802.6374,818.3516,889.2674,0.13641357421875,0.12579345703125,0.9886474609375,-0.95703125,13.86199951171875,-13.390960693359375,1,1.0,1.0,1.0,1.0,10.00
2024-10-11 20:13:56.080,1.3544271,0.4063022,0.7818543,1.1020494,1.1862749,0.03459225,0.26994935,0.8323584,1.0139387,-0.10557767,0.5128436,0.6428279,0.5061367,-0.04723225,-0.0933851,0.19363338,-0.025189303,-0.32781473,-0.42586473,-0.42497525,822.381,790.9524,804.65204,825.2015,905.78754,0.13641357421875,0.12579345703125,0.9886474609375,-0.95703125,13.86199951171875,-13.390960693359375,1,1.0,1.0,1.0,1.0,10.00
2024-10-11 20:13:56.081,1.3544271,0.4063022,0.7818543,1.1020494,1.1862749,0.03459225,0.26994935,0.8323584,1.0139387,-0.10557767,0.5128436,0.6428279,0.5061367,-0.04723225,-0.0933851,0.19363338,-0.025189303,-0.32781473,-0.42586473,-0.42497525,820.3663,798.20514,807.8755,819.9634,700.696,0.13641357421875,0.12579345703125,0.9886474609375,-0.95703125,13.86199951171875,-13.390960693359375,1,1.0,1.0,1.0,1.0,10.00
2024-10-11 20:13:56.081,1.3544271,0.4063022,0.7818543,1.1020494,1.1862749,0.03459225,0.26994935,0.8323584,1.0139387,-0.10557767,0.5128436,0.6428279,0.5061367,-0.04723225,-0.0933851,0.19363338,-0.025189303,-0.32781473,-0.42586473,-0.42497525,807.0696,795.78754,809.4872,819.9634,693.0403,0.13641357421875,0.12579345703125,0.9886474609375,-0.95703125,13.86199951171875,-13.390960693359375,1,1.0,1.0,1.0,1.0,10.00
2024-10-11 20:13:56.082,1.3544271,0.4063022,0.7818543,1.1020494,1.1862749,0.03459225,0.26994935,0.8323584,1.0139387,-0.10557767,0.5128436,0.6428279,0.5061367,-0.04723225,-0.0933851,0.19363338,-0.025189303,-0.32781473,-0.42586473,-0.42497525,793.36993,798.60803,807.0696,819.9634,822.381,0.13641357421875,0.12579345703125,0.9886474609375,-0.95703125,13.86199951171875,-13.390960693359375,1,1.0,1.0,1.0,1.0,10.00
2024-10-11 20:13:56.083,1.3544271,0.4063022,0.7818543,1.1020494,1.1862749,0.03459225,0.26994935,0.8323584,1.0139387,-0.10557767,0.5128436,0.6428279,0.5061367,-0.04723225,-0.0933851,0.19363338,-0.025189303,-0.32781473,-0.42586473,-0.42497525,790.54944,801.02563,803.8461,821.978,795.38464,0.13641357421875,0.12579345703125,0.9886474609375,-0.95703125,13.86199951171875,-13.390960693359375,1,1.0,1.0,1.0,1.0,10.00
2024-10-11 20:13:56.083,1.3544271,0.4063022,0.7818543,1.1020494,1.1862749,0.03459225,0.26994935,0.8323584,1.0139387,-0.10557767,0.5128436,0.6428279,0.5061367,-0.04723225,-0.0933851,0.19363338,-0.025189303,-0.32781473,-0.42586473,-0.42497525,799.81683,798.20514,805.8608,820.7692,692.23444,0.13641357421875,0.12579345703125,0.9886474609375,-0.95703125,13.86199951171875,-13.390960693359375,1,1.0,1.0,1.0,1.0,10.00
2024-10-11 20:13:56.084,1.3544271,0.4063022,0.7818543,1.1020494,1.1862749,0.03459225,0.26994935,0.8323584,1.0139387,-0.10557767,0.5128436,0.6428279,0.5061367,-0.04723225,-0.0933851,0.19363338,-0.025189303,-0.32781473,-0.42586473,-0.42497525,800.6227,796.99634,808.2784,817.5458,777.25275,0.13641357421875,0.12579345703125,0.9886474609375,-0.95703125,13.86199951171875,-13.390960693359375,1,1.0,1.0,1.0,1.0,10.00
2024-10-11 20:13:56.084,1.3544271,0.4063022,0.7818543,1.1020494,1.1862749,0.03459225,0.26994935,0.8323584,1.0139387,-0.10557767,0.5128436,0.6428279,0.5061367,-0.04723225,-0.0933851,0.19363338,-0.025189303,-0.32781473,-0.42586473,-0.42497525,809.4872,800.2198,807.0696,821.5751,807.47253,0.13641357421875,0.12579345703125,0.9886474609375,-0.95703125,13.86199951171875,-13.390960693359375,1,1.0,1.0,1.0,1.0,10.00
2024-10-11 20:13:56.085,1.3544271,0.4063022,0.7818543,1.1020494,1.1862749,0.03459225,0.26994935,0.8323584,1.0139387,-0.10557767,0.5128436,0.6428279,0.5061367,-0.04723225,-0.0933851,0.19363338,-0.025189303,-0.32781473,-0.42586473,-0.42497525,811.50183,799.011,806.26373,823.1868,868.315,0.13641357421875,0.12579345703125,0.9886474609375,-0.95703125,13.86199951171875,-13.390960693359375,1,1.0,1.0,1.0,1.0,10.00
2024-10-11 20:13:56.085,1.3544271,0.4063022,0.7818543,1.1020494,1.1862749,0.03459225,0.26994935,0.8323584,1.0139387,-0.10557767,0.5128436,0.6428279,0.5061367,-0.04723225,-0.0933851,0.19363338,-0.025189303,-0.32781473,-0.42586473,-0.42497525,808.2784,799.011,811.9048,823.1868,919.4872,0.13641357421875,0.12579345703125,0.9886474609375,-0.95703125,13.86199951171875,-13.390960693359375,1,1.0,1.0,1.0,1.0,10.00
2024-10-11 20:13:56.086,1.3544271,0.4063022,0.7818543,1.1020494,1.1862749,0.03459225,0.26994935,0.8323584,1.0139387,-0.10557767,0.5128436,0.6428279,0.5061367,-0.04723225,-0.0933851,0.19363338,-0.025189303,-0.32781473,-0.42586473,-0.42497525,801.4286,798.20514,810.696,822.7839,812.3077,0.13641357421875,0.12579345703125,0.9886474609375,-0.95703125,13.86199951171875,-13.390960693359375,1,1.0,1.0,1.0,1.0,10.00
2024-10-11 20:13:56.086,1.3544271,0.4063022,0.7818543,1.1020494,1.1862749,0.03459225,0.26994935,0.8323584,1.0139387,-0.10557767,0.5128436,0.6428279,0.5061367,-0.04723225,-0.0933851,0.19363338,-0.025189303,-0.32781473,-0.42586473,-0.42497525,789.7436,795.78754,806.26373,822.381,773.22345,0.13641357421875,0.12579345703125,0.9886474609375,-0.95703125,13.86199951171875,-13.390960693359375,1,1.0,1.0,1.0,1.0,10.00
2024-10-11 20:13:56.087,1.3544271,0.3544046,0.77849156,1.1020494,1.1862749,-0.0014888468,0.25028262,0.8323584,1.0139387,-0.15472753,0.5098931,0.6428279,0.5061367,-0.045191016,-0.08260632,0.19363338,-0.025189303,-0.33706698,-0.43115497,-0.42497525,797.3993,796.1905,807.47253,823.5897,759.92676,0.13641357421875,0.12579345703125,0.9886474609375,-0.95703125,13.86199951171875,-13.390960693359375,1,1.0,1.0,1.0,1.0,10.00
2024-10-11 20:13:56.092,1.3544271,0.3544046,0.77849156,1.1020494,1.1862749,-0.0014888468,0.25028262,0.8323584,1.0139387,-0.15472753,0.5098931,0.6428279,0.5061367,-0.045191016,-0.08260632,0.19363338,-0.025189303,-0.33706698,-0.43115497,-0.42497525,804.2491,792.1612,808.2784,821.1722,691.02563,0.13641357421875,0.12579345703125,0.9886474609375,-0.95703125,13.86199951171875,-13.390960693359375,1,1.0,1.0,1.0,1.0,10.00
2024-10-11 20:13:56.092,1.3544271,0.3544046,0.77849156,1.1020494,1.1862749,-0.0014888468,0.25028262,0.8323584,1.0139387,-0.15472753,0.5098931,0.6428279,0.5061367,-0.045191016,-0.08260632,0.19363338,-0.025189303,-0.33706698,-0.43115497,-0.42497525,799.011,791.3553,807.0696,817.5458,770.0,0.13641357421875,0.12579345703125,0.9886474609375,-0.95703125,13.86199951171875,-13.390960693359375,1,1.0,1.0,1.0,1.0,10.00
2024-10-11 20:13:56.117,1.3544271,0.3544046,0.77849156,1.1020494,1.1862749,-0.0014888468,0.25028262,0.8323584,1.0139387,-0.15472753,0.5098931,0.6428279,0.5061367,-0.045191016,-0.08260632,0.19363338,-0.025189303,-0.33706698,-0.43115497,-0.42497525,801.4286,789.34064,807.47253,818.7546,841.7216,0.10772705078125,0.13507080078125,0.98406982421875,0.142059326171875,17.15179443359375,-15.59661865234375,1,1.0,1.0,1.0,1.0,10.00
2024-10-11 20:13:56.118,1.3544271,0.3544046,0.77849156,1.1020494,1.1862749,-0.0014888468,0.25028262,0.8323584,1.0139387,-0.15472753,0.5098931,0.6428279,0.5061367,-0.045191016,-0.08260632,0.19363338,-0.025189303,-0.33706698,-0.43115497,-0.42497525,808.2784,792.96704,807.8755,823.1868,711.978,0.10772705078125,0.13507080078125,0.98406982421875,0.142059326171875,17.15179443359375,-15.59661865234375,1,1.0,1.0,1.0,1.0,10.00
2024-10-11 20:13:56.118,1.3544271,0.3544046,0.77849156,1.1020494,1.1862749,-0.0014888468,0.25028262,0.8323584,1.0139387,-0.15472753,0.5098931,0.6428279,0.5061367,-0.045191016,-0.08260632,0.19363338,-0.025189303,-0.33706698,-0.43115497,-0.42497525,804.2491,793.7729,807.8755,826.4103,745.0183,0.10772705078125,0.13507080078125,0.98406982421875,0.142059326171875,17.15179443359375,-15.59661865234375,1,1.0,1.0,1.0,1.0,10.00
2024-10-11 20:13:56.119,1.3544271,0.3544046,0.77849156,1.1020494,1.1862749,-0.0014888468,0.25028262,0.8323584,1.0139387,-0.15472753,0.5098931,0.6428279,0.5061367,-0.045191016,-0.08260632,0.19363338,-0.025189303,-0.33706698,-0.43115497,-0.42497525,803.44324,791.3553,806.6667,826.0073,943.2601,0.10772705078125,0.13507080078125,0.98406982421875,0.142059326171875,17.15179443359375,-15.59661865234375,1,1.0,1.0,1.0,1.0,10.00
2024-10-11 20:13:56.120,1.3544271,0.3544046,0.77849156,1.1020494,1.1862749,-0.0014888468,0.25028262,0.8323584,1.0139387,-0.15472753,0.5098931,0.6428279,0.5061367,-0.045191016,-0.08260632,0.19363338,-0.025189303,-0.33706698,-0.43115497,-0.42497525,807.8755,794.9817,809.0842,821.978,840.10986,0.10772705078125,0.13507080078125,0.98406982421875,0.142059326171875,17.15179443359375,-15.59661865234375,1,1.0,1.0,1.0,1.0,10.00
2024-10-11 20:13:56.120,1.3544271,0.3544046,0.77849156,1.1020494,1.1862749,-0.0014888468,0.25028262,0.8323584,1.0139387,-0.15472753,0.5098931,0.6428279,0.5061367,-0.045191016,-0.08260632,0.19363338,-0.025189303,-0.33706698,-0.43115497,-0.42497525,807.8755,796.1905,814.7253,821.1722,755.09155,0.10772705078125,0.13507080078125,0.98406982421875,0.142059326171875,17.15179443359375,-15.59661865234375,1,1.0,1.0,1.0,1.0,10.00
2024-10-11 20:13:56.121,1.3544271,0.3544046,0.77849156,1.1020494,1.1862749,-0.0014888468,0.25028262,0.8323584,1.0139387,-0.15472753,0.5098931,0.6428279,0.5061367,-0.045191016,-0.08260632,0.19363338,-0.025189303,-0.33706698,-0.43115497,-0.42497525,810.696,796.99634,808.2784,825.6044,968.6447,0.10772705078125,0.13507080078125,0.98406982421875,0.142059326171875,17.15179443359375,-15.59661865234375,1,1.0,1.0,1.0,1.0,10.00
2024-10-11 20:13:56.121,1.3544271,0.3544046,0.77849156,1.1020494,1.1862749,-0.0014888468,0.25028262,0.8323584,1.0139387,-0.15472753,0.5098931,0.6428279,0.5061367,-0.045191016,-0.08260632,0.19363338,-0.025189303,-0.33706698,-0.43115497,-0.42497525,800.2198,793.36993,804.65204,829.2308,1154.7986,0.10772705078125,0.13507080078125,0.98406982421875,0.142059326171875,17.15179443359375,-15.59661865234375,1,1.0,1.0,1.0,1.0,10.00
2024-10-11 20:13:56.122,1.3544271,0.3544046,0.77849156,1.1020494,1.1862749,-0.0014888468,0.25028262,0.8323584,1.0139387,-0.15472753,0.5098931,0.6428279,0.5061367,-0.045191016,-0.08260632,0.19363338,-0.025189303,-0.33706698,-0.43115497,-0.42497525,789.34064,789.7436,809.89014,823.5897,928.7546,0.10772705078125,0.13507080078125,0.98406982421875,0.142059326171875,17.15179443359375,-15.59661865234375,1,1.0,1.0,1.0,1.0,10.00
2024-10-11 20:13:56.123,1.3544271,0.3544046,0.77849156,1.1020494,1.1862749,-0.0014888468,0.25028262,0.8323584,1.0139387,-0.15472753,0.5098931,0.6428279,0.5061367,-0.045191016,-0.08260632,0.19363338,-0.025189303,-0.33706698,-0.43115497,-0.42497525,794.57874,793.36993,809.4872,821.1722,666.8498,0.10772705078125,0.13507080078125,0.98406982421875,0.142059326171875,17.15179443359375,-15.59661865234375,1,1.0,1.0,1.0,1.0,10.00
2024-10-11 20:13:56.123,1.3544271,0.3544046,0.77849156,1.1020494,1.1862749,-0.0014888468,0.25028262,0.8323584,1.0139387,-0.15472753,0.5098931,0.6428279,0.5061367,-0.045191016,-0.08260632,0.19363338,-0.025189303,-0.33706698,-0.43115497,-0.42497525,802.6374,795.78754,809.89014,818.7546,800.6227,0.10772705078125,0.13507080078125,0.98406982421875,0.142059326171875,17.15179443359375,-15.59661865234375,1,1.0,1.0,1.0,1.0,10.00
2024-10-11 20:13:56.124,1.3544271,0.3544046,0.77849156,1.1020494,1.1862749,-0.0014888468,0.25028262,0.8323584,1.0139387,-0.15472753,0.5098931,0.6428279,0.5061367,-0.045191016,-0.08260632,0.19363338,-0.025189303,-0.33706698,-0.43115497,-0.42497525,810.293,779.67035,810.293,817.9487,971.8681,0.10772705078125,0.13507080078125,0.98406982421875,0.142059326171875,17.15179443359375,-15.59661865234375,1,1.0,1.0,1.0,1.0,10.00
2024-10-11 20:13:56.125,1.3544271,0.3544046,0.77849156,1.1020494,1.1862749,-0.0014888468,0.25028262,0.8323584,1.0139387,-0.15472753,0.5098931,0.6428279,0.5061367,-0.045191016,-0.08260632,0.19363338,-0.025189303,-0.33706698,-0.43115497,-0.42497525,829.6337,778.0586,810.293,838.0952,778.0586,0.08197021484375,0.14398193359375,0.99432373046875,0.897216796875,21.092071533203125,-16.86767578125,1,1.0,1.0,1.0,1.0,10.00
2024-10-11 20:13:56.125,1.3544271,0.3544046,0.77849156,1.1020494,1.1862749,-0.0014888468,0.25028262,0.8323584,1.0139387,-0.15472753,0.5098931,0.6428279,0.5061367,-0.045191016,-0.08260632,0.19363338,-0.025189303,-0.33706698,-0.43115497,-0.42497525,853.00366,805.05493,812.71063,847.76556,657.1795,0.08197021484375,0.14398193359375,0.99432373046875,0.897216796875,21.092071533203125,-16.86767578125,1,1.0,1.0,1.0,1.0,10.00
2024-10-11 20:13:56.126,1.3544271,0.3544046,0.77849156,1.1020494,1.1862749,-0.0014888468,0.25028262,0.8323584,1.0139387,-0.15472753,0.5098931,0.6428279,0.5061367,-0.045191016,-0.08260632,0.19363338,-0.025189303,-0.33706698,-0.43115497,-0.42497525,808.68134,805.4579,808.68134,811.50183,807.0696,0.08197021484375,0.14398193359375,0.99432373046875,0.897216796875,21.092071533203125,-16.86767578125,1,1.0,1.0,1.0,1.0,10.00
2024-10-11 20:13:56.126,1.3544271,0.3544046,0.77849156,1.1020494,1.1862749,-0.0014888468,0.25028262,0.8323584,1.0139387,-0.15472753,0.5098931,0.6428279,0.5061367,-0.045191016,-0.08260632,0.19363338,-0.025189303,-0.33706698,-0.43115497,-0.42497525,765.16486,799.41394,798.20514,790.54944,982.3443,0.08197021484375,0.14398193359375,0.99432373046875,0.897216796875,21.092071533203125,-16.86767578125,1,1.0,1.0,1.0,1.0,10.00
2024-10-11 20:13:56.127,1.3544271,0.3544046,0.77849156,1.1020494,1.1862749,-0.0014888468,0.25028262,0.8323584,1.0139387,-0.15472753,0.5098931,0.6428279,0.5061367,-0.045191016,-0.08260632,0.19363338,-0.025189303,-0.33706698,-0.43115497,-0.42497525,769.59705,806.26373,794.17584,794.9817,816.7399,0.08197021484375,0.14398193359375,0.99432373046875,0.897216796875,21.092071533203125,-16.86767578125,1,1.0,1.0,1.0,1.0,10.00
2024-10-11 20:13:56.128,1.3544271,0.3544046,0.77849156,1.1020494,1.1862749,-0.0014888468,0.25028262,0.8323584,1.0139387,-0.15472753,0.5098931,0.6428279,0.5061367,-0.045191016,-0.08260632,0.19363338,-0.025189303,-0.33706698,-0.43115497,-0.42497525,776.8498,804.65204,794.17584,788.1319,803.0403,0.08197021484375,0.14398193359375,0.99432373046875,0.897216796875,21.092071533203125,-16.86767578125,1,1.0,1.0,1.0,1.0,10.00
2024-10-11 20:13:56.128,1.3544271,0.3544046,0.77849156,1.1020494,1.1862749,-0.0014888468,0.25028262,0.8323584,1.0139387,-0.15472753,0.5098931,0.6428279,0.5061367,-0.045191016,-0.08260632,0.19363338,-0.025189303,-0.33706698,-0.43115497,-0.42497525,759.5238,795.78754,790.54944,774.83514,1006.52014,0.08197021484375,0.14398193359375,0.99432373046875,0.897216796875,21.092071533203125,-16.86767578125,1,1.0,1.0,1.0,1.0,10.00
2024-10-11 20:13:56.129,1.3544271,0.3544046,0.77849156,1.1020494,1.1862749,-0.0014888468,0.25028262,0.8323584,1.0139387,-0.15472753,0.5098931,0.6428279,0.5061367,-0.045191016,-0.08260632,0.19363338,-0.025189303,-0.33706698,-0.43115497,-0.42497525,732.52747,788.5348,788.5348,764.7619,1055.6776,0.08197021484375,0.14398193359375,0.99432373046875,0.897216796875,21.092071533203125,-16.86767578125,1,1.0,1.0,1.0,1.0,10.00
2024-10-11 20:13:56.129,1.3544271,0.3544046,0.77849156,1.1020494,1.1862749,-0.0014888468,0.25028262,0.8323584,1.0139387,-0.15472753,0.5098931,0.6428279,0.5061367,-0.045191016,-0.08260632,0.19363338,-0.025189303,-0.33706698,-0.43115497,-0.42497525,753.47986,806.26373,788.1319,758.315,855.42126,0.08197021484375,0.14398193359375,0.99432373046875,0.897216796875,21.092071533203125,-16.86767578125,1,1.0,1.0,1.0,1.0,10.00
2024-10-11 20:13:56.130,1.3544271,0.3544046,0.77849156,1.1020494,1.1862749,-0.0014888468,0.25028262,0.8323584,1.0139387,-0.15472753,0.5098931,0.6428279,0.5061367,-0.045191016,-0.08260632,0.19363338,-0.025189303,-0.33706698,-0.43115497,-0.42497525,762.74725,818.7546,788.1319,752.674,743.8095,0.08197021484375,0.14398193359375,0.99432373046875,0.897216796875,21.092071533203125,-16.86767578125,1,1.0,1.0,1.0,1.0,10.00
2024-10-11 20:13:56.130,1.3544271,0.3544046,0.77849156,1.1020494,1.1862749,-0.0014888468,0.25028262,0.8323584,1.0139387,-0.15472753,0.5098931,0.6428279,0.5061367,-0.045191016,-0.08260632,0.19363338,-0.025189303,-0.33706698,-0.43115497,-0.42497525,741.79486,810.696,792.96704,754.68866,822.7839,0.08197021484375,0.14398193359375,0.99432373046875,0.897216796875,21.092071533203125,-16.86767578125,1,1.0,1.0,1.0,1.0,10.00
2024-10-11 20:13:56.131,1.3544271,0.27949262,0.7702898,1.1020494,1.1862749,-0.029736316,0.23041396,0.8323584,1.0139387,-0.15295596,0.50927997,0.6428279,0.5061367,-0.04500299,-0.07488588,0.19363338,-0.025189303,-0.34294719,-0.44112355,-0.42497525,731.31866,803.8461,788.1319,749.85345,806.6667,0.08197021484375,0.14398193359375,0.99432373046875,0.897216796875,21.092071533203125,-16.86767578125,1,1.0,1.0,1.0,1.0,10.00
2024-10-11 20:13:56.159,1.3544271,0.27949262,0.7702898,1.1020494,1.1862749,-0.029736316,0.23041396,0.8323584,1.0139387,-0.15295596,0.50927997,0.6428279,0.5061367,-0.04500299,-0.07488588,0.19363338,-0.025189303,-0.34294719,-0.44112355,-0.42497525,731.31866,807.8755,789.34064,737.3626,657.5824,0.0509033203125,0.14599609375,0.99969482421875,1.278533935546875,25.443572998046875,-17.1966552734375,1,1.0,1.0,1.0,1.0,10.00
2024-10-11 20:13:56.160,1.3544271,0.27949262,0.7702898,1.1020494,1.1862749,-0.029736316,0.23041396,0.8323584,1.0139387,-0.15295596,0.50927997,0.6428279,0.5061367,-0.04500299,-0.07488588,0.19363338,-0.025189303,-0.34294719,-0.44112355,-0.42497525,731.7216,811.0989,790.54944,731.7216,606.8132,0.0509033203125,0.14599609375,0.99969482421875,1.278533935546875,25.443572998046875,-17.1966552734375,1,1.0,1.0,1.0,1.0,10.00
2024-10-11 20:13:56.161,1.3544271,0.27949262,0.7702898,1.1020494,1.1862749,-0.029736316,0.23041396,0.8323584,1.0139387,-0.15295596,0.50927997,0.6428279,0.5061367,-0.04500299,-0.07488588,0.19363338,-0.025189303,-0.34294719,-0.44112355,-0.42497525,734.1392,813.5165,782.8938,738.5714,793.7729,0.0509033203125,0.14599609375,0.99969482421875,1.278533935546875,25.443572998046875,-17.1966552734375,1,1.0,1.0,1.0,1.0,10.00
2024-10-11 20:13:56.162,1.3544271,0.27949262,0.7702898,1.1020494,1.1862749,-0.029736316,0.23041396,0.8323584,1.0139387,-0.15295596,0.50927997,0.6428279,0.5061367,-0.04500299,-0.07488588,0.19363338,-0.025189303,-0.34294719,-0.44112355,-0.42497525,727.6923,807.8755,782.0879,749.0476,1205.9707,0.0509033203125,0.14599609375,0.99969482421875,1.278533935546875,25.443572998046875,-17.1966552734375,1,1.0,1.0,1.0,1.0,10.00
2024-10-11 20:13:56.162,1.3544271,0.27949262,0.7702898,1.1020494,1.1862749,-0.029736316,0.23041396,0.8323584,1.0139387,-0.15295596,0.50927997,0.6428279,0.5061367,-0.04500299,-0.07488588,0.19363338,-0.025189303,-0.34294719,-0.44112355,-0.42497525,710.7692,810.696,786.1172,737.3626,1006.1172,0.0509033203125,0.14599609375,0.99969482421875,1.278533935546875,25.443572998046875,-17.1966552734375,1,1.0,1.0,1.0,1.0,10.00
2024-10-11 20:13:56.163,1.3544271,0.27949262,0.7702898,1.1020494,1.1862749,-0.029736316,0.23041396,0.8323584,1.0139387,-0.15295596,0.50927997,0.6428279,0.5061367,-0.04500299,-0.07488588,0.19363338,-0.025189303,-0.34294719,-0.44112355,-0.42497525,706.7399,809.4872,784.10254,714.3956,676.9231,0.0509033203125,0.14599609375,0.99969482421875,1.278533935546875,25.443572998046875,-17.1966552734375,1,1.0,1.0,1.0,1.0,10.00
2024-10-11 20:13:56.163,1.3544271,0.27949262,0.7702898,1.1020494,1.1862749,-0.029736316,0.23041396,0.8323584,1.0139387,-0.15295596,0.50927997,0.6428279,0.5061367,-0.04500299,-0.07488588,0.19363338,-0.025189303,-0.34294719,-0.44112355,-0.42497525,728.49817,802.23444,786.1172,714.7985,788.1319,0.0509033203125,0.14599609375,0.99969482421875,1.278533935546875,25.443572998046875,-17.1966552734375,1,1.0,1.0,1.0,1.0,10.00
2024-10-11 20:13:56.164,1.3544271,0.27949262,0.7702898,1.1020494,1.1862749,-0.029736316,0.23041396,0.8323584,1.0139387,-0.15295596,0.50927997,0.6428279,0.5061367,-0.04500299,-0.07488588,0.19363338,-0.025189303,-0.34294719,-0.44112355,-0.42497525,745.42126,810.696,792.1612,729.304,677.72894,0.0509033203125,0.14599609375,0.99969482421875,1.278533935546875,25.443572998046875,-17.1966552734375,1,1.0,1.0,1.0,1.0,10.00
2024-10-11 20:13:56.164,1.3544271,0.27949262,0.7702898,1.1020494,1.1862749,-0.029736316,0.23041396,0.8323584,1.0139387,-0.15295596,0.50927997,0.6428279,0.5061367,-0.04500299,-0.07488588,0.19363338,-0.025189303,-0.34294719,-0.44112355,-0.42497525,738.5714,809.4872,789.7436,720.84247,608.022,0.0509033203125,0.14599609375,0.99969482421875,1.278533935546875,25.443572998046875,-17.1966552734375,1,1.0,1.0,1.0,1.0,10.00
2024-10-11 20:13:56.165,1.3544271,0.27949262,0.7702898,1.1020494,1.1862749,-0.029736316,0.23041396,0.8323584,1.0139387,-0.15295596,0.50927997,0.6428279,0.5061367,-0.04500299,-0.07488588,0.19363338,-0.025189303,-0.34294719,-0.44112355,-0.42497525,728.9011,803.0403,786.9231,720.4396,643.8828,0.0509033203125,0.14599609375,0.99969482421875,1.278533935546875,25.443572998046875,-17.1966552734375,1,1.0,1.0,1.0,1.0,10.00
2024-10-11 20:13:56.166,1.3544271,0.27949262,0.7702898,1.1020494,1.1862749,-0.029736316,0.23041396,0.8323584,1.0139387,-0.15295596,0.50927997,0.6428279,0.5061367,-0.04500299,-0.07488588,0.19363338,-0.025189303,-0.34294719,-0.44112355,-0.42497525,733.3333,785.7143,783.69965,738.1685,799.41394,0.0509033203125,0.14599609375,0.99969482421875,1.278533935546875,25.443572998046875,-17.1966552734375,1,1.0,1.0,1.0,1.0,10.00
2024-10-11 20:13:56.168,1.3544271,0.27949262,0.7702898,1.1020494,1.1862749,-0.029736316,0.23041396,0.8323584,1.0139387,-0.15295596,0.50927997,0.6428279,0.5061367,-0.04500299,-0.07488588,0.19363338,-0.025189303,-0.34294719,-0.44112355,-0.42497525,731.31866,788.93774,782.0879,729.304,1160.4396,0.0509033203125,0.14599609375,0.99969482421875,1.278533935546875,25.443572998046875,-17.1966552734375,1,1.0,1.0,1.0,1.0,10.00
2024-10-11 20:13:56.195,1.3544271,0.27949262,0.7702898,1.1020494,1.1862749,-0.029736316,0.23041396,0.8323584,1.0139387,-0.15295596,0.50927997,0.6428279,0.5061367,-0.04500299,-0.07488588,0.19363338,-0.025189303,-0.34294719,-0.44112355,-0.42497525,713.9927,811.50183,781.685,713.9927,1135.4579,0.00958251953125,0.140380859375,0.9945068359375,1.435546875,30.04180908203125,-16.04522705078125,1,1.0,1.0,1.0,1.0,10.00
2024-10-11 20:13:56.196,1.3544271,0.27949262,0.7702898,1.1020494,1.1862749,-0.029736316,0.23041396,0.8323584,1.0139387,-0.15295596,0.50927997,0.6428279,0.5061367,-0.04500299,-0.07488588,0.19363338,-0.025189303,-0.34294719,-0.44112355,-0.42497525,724.4689,814.7253,786.1172,724.0659,706.337,0.00958251953125,0.140380859375,0.9945068359375,1.435546875,30.04180908203125,-16.04522705078125,1,1.0,1.0,1.0,1.0,10.00
2024-10-11 20:13:56.196,1.3544271,0.27949262,0.7702898,1.1020494,1.1862749,-0.029736316,0.23041396,0.8323584,1.0139387,-0.15295596,0.50927997,0.6428279,0.5061367,-0.04500299,-0.07488588,0.19363338,-0.025189303,-0.34294719,-0.44112355,-0.42497525,730.10986,814.7253,787.326,718.8278,501.24542,0.00958251953125,0.140380859375,0.9945068359375,1.435546875,30.04180908203125,-16.04522705078125,1,1.0,1.0,1.0,1.0,10.00
2024-10-11 20:13:56.197,1.3544271,0.27949262,0.7702898,1.1020494,1.1862749,-0.029736316,0.23041396,0.8323584,1.0139387,-0.15295596,0.50927997,0.6428279,0.5061367,-0.04500299,-0.07488588,0.19363338,-0.025189303,-0.34294719,-0.44112355,-0.42497525,713.5897,814.7253,781.685,707.9487,536.30035,0.00958251953125,0.140380859375,0.9945068359375,1.435546875,30.04180908203125,-16.04522705078125,1,1.0,1.0,1.0,1.0,10.00
2024-10-11 20:13:56.198,1.3544271,0.27949262,0.7702898,1.1020494,1.1862749,-0.029736316,0.23041396,0.8323584,1.0139387,-0.15295596,0.50927997,0.6428279,0.5061367,-0.04500299,-0.07488588,0.19363338,-0.025189303,-0.34294719,-0.44112355,-0.42497525,732.9304,811.50183,784.90845,719.2308,575.38464,0.00958251953125,0.140380859375,0.9945068359375,1.435546875,30.04180908203125,-16.04522705078125,1,1.0,1.0,1.0,1.0,10.00
2024-10-11 20:13:56.199,1.3544271,0.27949262,0.7702898,1.1020494,1.1862749,-0.029736316,0.23041396,0.8323584,1.0139387,-0.15295596,0.50927997,0.6428279,0.5061367,-0.04500299,-0.07488588,0.19363338,-0.025189303,-0.34294719,-0.44112355,-0.42497525,734.1392,799.011,787.72894,716.0073,697.47253,0.00958251953125,0.140380859375,0.9945068359375,1.435546875,30.04180908203125,-16.04522705078125,1,1.0,1.0,1.0,1.0,10.00
2024-10-11 20:13:56.199,1.3544271,0.27949262,0.7702898,1.1020494,1.1862749,-0.029736316,0.23041396,0.8323584,1.0139387,-0.15295596,0.50927997,0.6428279,0.5061367,-0.04500299,-0.07488588,0.19363338,-0.025189303,-0.34294719,-0.44112355,-0.42497525,716.0073,801.8315,784.90845,711.978,782.8938,0.00958251953125,0.140380859375,0.9945068359375,1.435546875,30.04180908203125,-16.04522705078125,1,1.0,1.0,1.0,1.0,10.00
2024-10-11 20:13:56.200,1.3544271,0.27949262,0.7702898,1.1020494,1.1862749,-0.029736316,0.23041396,0.8323584,1.0139387,-0.15295596,0.50927997,0.6428279,0.5061367,-0.04500299,-0.07488588,0.19363338,-0.025189303,-0.34294719,-0.44112355,-0.42497525,721.6484,809.0842,783.2967,722.8571,577.3993,0.00958251953125,0.140380859375,0.9945068359375,1.435546875,30.04180908203125,-16.04522705078125,1,1.0,1.0,1.0,1.0,10.00
2024-10-11 20:13:56.201,1.3544271,0.27949262,0.7702898,1.1020494,1.1862749,-0.029736316,0.23041396,0.8323584,1.0139387,-0.15295596,0.50927997,0.6428279,0.5061367,-0.04500299,-0.07488588,0.19363338,-0.025189303,-0.34294719,-0.44112355,-0.42497525,723.2601,809.4872,785.7143,722.8571,506.88644,0.00958251953125,0.140380859375,0.9945068359375,1.435546875,30.04180908203125,-16.04522705078125,1,1.0,1.0,1.0,1.0,10.00
2024-10-11 20:13:56.201,1.3544271,0.27949262,0.7702898,1.1020494,1.1862749,-0.029736316,0.23041396,0.8323584,1.0139387,-0.15295596,0.50927997,0.6428279,0.5061367,-0.04500299,-0.07488588,0.19363338,-0.025189303,-0.34294719,-0.44112355,-0.42497525,727.28937,804.65204,790.54944,724.87177,676.1172,0.00958251953125,0.140380859375,0.9945068359375,1.435546875,30.04180908203125,-16.04522705078125,1,1.0,1.0,1.0,1.0,10.00
2024-10-11 20:13:56.202,1.3544271,0.27949262,0.7702898,1.1020494,1.1862749,-0.029736316,0.23041396,0.8323584,1.0139387,-0.15295596,0.50927997,0.6428279,0.5061367,-0.04500299,-0.07488588,0.19363338,-0.025189303,-0.34294719,-0.44112355,-0.42497525,743.8095,804.65204,791.75824,734.5421,757.1062,0.00958251953125,0.140380859375,0.9945068359375,1.435546875,30.04180908203125,-16.04522705078125,1,1.0,1.0,1.0,1.0,10.00
2024-10-11 20:13:56.203,1.3544271,0.27949262,0.7702898,1.1020494,1.1862749,-0.029736316,0.23041396,0.8323584,1.0139387,-0.15295596,0.50927997,0.6428279,0.5061367,-0.04500299,-0.07488588,0.19363338,-0.025189303,-0.34294719,-0.44112355,-0.42497525,758.71796,799.81683,791.3553,736.1539,625.34796,0.00958251953125,0.140380859375,0.9945068359375,1.435546875,30.04180908203125,-16.04522705078125,1,1.0,1.0,1.0,1.0,10.00
2024-10-11 20:13:56.291,1.3544271,0.27949262,0.7702898,1.1020494,1.1862749,-0.029736316,0.23041396,0.8323584,1.0139387,-0.15295596,0.50927997,0.6428279,0.5061367,-0.04500299,-0.07488588,0.19363338,-0.025189303,-0.34294719,-0.44112355,-0.42497525,761.13556,794.9817,792.1612,740.18317,639.0476,-0.03411865234375,0.1513671875,0.9908447265625,1.62994384765625,30.587615966796875,-12.72552490234375,1,1.0,1.0,1.0,1.0,10.00
2024-10-11 20:13:56.292,1.3544271,0.19474201,0.76818794,1.1020494,1.1862749,-0.041468397,0.21723722,0.8323584,1.0139387,-0.15295596,0.50927997,0.6428279,0.5061367,-0.045745213,-0.07061842,0.19363338,-0.025189303,-0.34382895,-0.45443186,-0.42497525,759.12085,795.38464,793.36993,756.7033,859.85345,-0.03411865234375,0.1513671875,0.9908447265625,1.62994384765625,30.587615966796875,-12.72552490234375,1,1.0,1.0,1.0,1.0,10.00
2024-10-11 20:13:56.297,1.3544271,0.19474201,0.76818794,1.1020494,1.1862749,-0.041468397,0.21723722,0.8323584,1.0139387,-0.15295596,0.50927997,0.6428279,0.5061367,-0.045745213,-0.07061842,0.19363338,-0.025189303,-0.34382895,-0.45443186,-0.42497525,755.4945,791.75824,794.9817,764.35895,921.9048,-0.03411865234375,0.1513671875,0.9908447265625,1.62994384765625,30.587615966796875,-12.72552490234375,1,1.0,1.0,1.0,1.0,10.00
2024-10-11 20:13:56.298,1.3544271,0.19474201,0.76818794,1.1020494,1.1862749,-0.041468397,0.21723722,0.8323584,1.0139387,-0.15295596,0.50927997,0.6428279,0.5061367,-0.045745213,-0.07061842,0.19363338,-0.025189303,-0.34382895,-0.45443186,-0.42497525,753.8828,797.3993,797.3993,764.35895,647.50916,-0.03411865234375,0.1513671875,0.9908447265625,1.62994384765625,30.587615966796875,-12.72552490234375,1,1.0,1.0,1.0,1.0,10.00
2024-10-11 20:13:56.298,1.3544271,0.19474201,0.76818794,1.1020494,1.1862749,-0.041468397,0.21723722,0.8323584,1.0139387,-0.15295596,0.50927997,0.6428279,0.5061367,-0.045745213,-0.07061842,0.19363338,-0.025189303,-0.34382895,-0.45443186,-0.42497525,761.13556,798.20514,801.02563,775.64105,518.97437,-0.03411865234375,0.1513671875,0.9908447265625,1.62994384765625,30.587615966796875,-12.72552490234375,1,1.0,1.0,1.0,1.0,10.00
2024-10-11 20:13:56.299,1.3544271,0.19474201,0.76818794,1.1020494,1.1862749,-0.041468397,0.21723722,0.8323584,1.0139387,-0.15295596,0.50927997,0.6428279,0.5061367,-0.045745213,-0.07061842,0.19363338,-0.025189303,-0.34382895,-0.45443186,-0.42497525,774.43225,795.38464,802.6374,787.72894,938.4249,-0.03411865234375,0.1513671875,0.9908447265625,1.62994384765625,30.587615966796875,-12.72552490234375,1,1.0,1.0,1.0,1.0,10.00
2024-10-11 20:13:56.299,1.3544271,0.19474201,0.76818794,1.1020494,1.1862749,-0.041468397,0.21723722,0.8323584,1.0139387,-0.15295596,0.50927997,0.6428279,0.5061367,-0.045745213,-0.07061842,0.19363338,-0.025189303,-0.34382895,-0.45443186,-0.42497525,780.07324,799.011,799.41394,786.52014,1018.60803,-0.03411865234375,0.1513671875,0.9908447265625,1.62994384765625,30.587615966796875,-12.72552490234375,1,1.0,1.0,1.0,1.0,10.00
2024-10-11 20:13:56.300,1.3544271,0.19474201,0.76818794,1.1020494,1.1862749,-0.041468397,0.21723722,0.8323584,1.0139387,-0.15295596,0.50927997,0.6428279,0.5061367,-0.045745213,-0.07061842,0.19363338,-0.025189303,-0.34382895,-0.45443186,-0.42497525,789.34064,804.2491,796.99634,786.52014,684.17584,-0.03411865234375,0.1513671875,0.9908447265625,1.62994384765625,30.587615966796875,-12.72552490234375,1,1.0,1.0,1.0,1.0,10.00
2024-10-11 20:13:56.300,1.3544271,0.19474201,0.76818794,1.1020494,1.1862749,-0.041468397,0.21723722,0.8323584,1.0139387,-0.15295596,0.50927997,0.6428279,0.5061367,-0.045745213,-0.07061842,0.19363338,-0.025189303,-0.34382895,-0.45443186,-0.42497525,788.5348,798.60803,799.81683,791.75824,609.2308,-0.03411865234375,0.1513671875,0.9908447265625,1.62994384765625,30.587615966796875,-12.72552490234375,1,1.0,1.0,1.0,1.0,10.00
2024-10-11 20:13:56.301,1.3544271,0.19474201,0.76818794,1.1020494,1.1862749,-0.041468397,0.21723722,0.8323584,1.0139387,-0.15295596,0.50927997,0.6428279,0.5061367,-0.045745213,-0.07061842,0.19363338,-0.025189303,-0.34382895,-0.45443186,-0.42497525,789.7436,788.5348,800.2198,801.4286,1009.7436,-0.03411865234375,0.1513671875,0.9908447265625,1.62994384765625,30.587615966796875,-12.72552490234375,1,1.0,1.0,1.0,1.0,10.00
2024-10-11 20:13:56.301,1.3544271,0.19474201,0.76818794,1.1020494,1.1862749,-0.041468397,0.21723722,0.8323584,1.0139387,-0.15295596,0.50927997,0.6428279,0.5061367,-0.045745213,-0.07061842,0.19363338,-0.025189303,-0.34382895,-0.45443186,-0.42497525,822.7839,790.54944,796.5934,802.23444,1030.2931,-0.03411865234375,0.1513671875,0.9908447265625,1.62994384765625,30.587615966796875,-12.72552490234375,1,1.0,1.0,1.0,1.0,10.00
2024-10-11 20:13:56.302,1.3544271,0.19474201,0.76818794,1.1020494,1.1862749,-0.041468397,0.21723722,0.8323584,1.0139387,-0.15295596,0.50927997,0.6428279,0.5061367,-0.045745213,-0.07061842,0.19363338,-0.025189303,-0.34382895,-0.45443186,-0.42497525,821.5751,803.0403,796.1905,800.6227,579.81683,-0.03411865234375,0.1513671875,0.9908447265625,1.62994384765625,30.587615966796875,-12.72552490234375,1,1.0,1.0,1.0,1.0,10.00
2024-10-11 20:13:56.326,1.3544271,0.19474201,0.76818794,1.1020494,1.1862749,-0.041468397,0.21723722,0.8323584,1.0139387,-0.15295596,0.50927997,0.6428279,0.5061367,-0.045745213,-0.07061842,0.19363338,-0.025189303,-0.34382895,-0.45443186,-0.42497525,797.3993,809.4872,796.1905,804.65204,576.99634,-0.03411865234375,0.1513671875,0.9908447265625,1.62994384765625,30.587615966796875,-12.72552490234375,1,1.0,1.0,1.0,1.0,10.00
2024-10-11 20:13:56.327,1.3544271,0.19474201,0.76818794,1.1020494,1.1862749,-0.041468397,0.21723722,0.8323584,1.0139387,-0.15295596,0.50927997,0.6428279,0.5061367,-0.045745213,-0.07061842,0.19363338,-0.025189303,-0.34382895,-0.45443186,-0.42497525,788.1319,809.89014,799.81683,808.2784,738.97437,-0.03411865234375,0.1513671875,0.9908447265625,1.62994384765625,30.587615966796875,-12.72552490234375,1,1.0,1.0,1.0,1.0,10.00
2024-10-11 20:13:56.328,1.3544271,0.19474201,0.76818794,1.1020494,1.1862749,-0.041468397,0.21723722,0.8323584,1.0139387,-0.15295596,0.50927997,0.6428279,0.5061367,-0.045745213,-0.07061842,0.19363338,-0.025189303,-0.34382895,-0.45443186,-0.42497525,782.49084,803.44324,805.4579,811.50183,768.7912,-0.03411865234375,0.1513671875,0.9908447265625,1.62994384765625,30.587615966796875,-12.72552490234375,1,1.0,1.0,1.0,1.0,10.00
2024-10-11 20:13:56.328,1.3544271,0.19474201,0.76818794,1.1020494,1.1862749,-0.041468397,0.21723722,0.8323584,1.0139387,-0.15295596,0.50927997,0.6428279,0.5061367,-0.045745213,-0.07061842,0.19363338,-0.025189303,-0.34382895,-0.45443186,-0.42497525,794.17584,798.60803,803.44324,805.05493,734.1392,-0.03411865234375,0.1513671875,0.9908447265625,1.62994384765625,30.587615966796875,-12.72552490234375,1,1.0,1.0,1.0,1.0,10.00
2024-10-11 20:13:56.329,1.3544271,0.19474201,0.76818794,1.1020494,1.1862749,-0.041468397,0.21723722,0.8323584,1.0139387,-0.15295596,0.50927997,0.6428279,0.5061367,-0.045745213,-0.07061842,0.19363338,-0.025189303,-0.34382895,-0.45443186,-0.42497525,799.41394,799.41394,803.44324,798.60803,670.4762,-0.03411865234375,0.1513671875,0.9908447265625,1.62994384765625,30.587615966796875,-12.72552490234375,1,1.0,1.0,1.0,1.0,10.00
2024-10-11 20:13:56.330,1.3544271,0.19474201,0.76818794,1.1020494,1.1862749,-0.041468397,0.21723722,0.8323584,1.0139387,-0.15295596,0.50927997,0.6428279,0.5061367,-0.045745213,-0.07061842,0.19363338,-0.025189303,-0.34382895,-0.45443186,-0.42497525,790.54944,795.38464,809.89014,806.6667,874.35895,-0.03411865234375,0.1513671875,0.9908447265625,1.62994384765625,30.587615966796875,-12.72552490234375,1,1.0,1.0,1.0,1.0,10.00
2024-10-11 20:13:56.330,1.3544271,0.19474201,0.76818794,1.1020494,1.1862749,-0.041468397,0.21723722,0.8323584,1.0139387,-0.15295596,0.50927997,0.6428279,0.5061367,-0.045745213,-0.07061842,0.19363338,-0.025189303,-0.34382895,-0.45443186,-0.42497525,775.2381,797.3993,811.0989,813.1135,985.9707,-0.03411865234375,0.1513671875,0.9908447265625,1.62994384765625,30.587615966796875,-12.72552490234375,1,1.0,1.0,1.0,1.0,10.00
2024-10-11 20:13:56.331,1.3544271,0.19474201,0.76818794,1.1020494,1.1862749,-0.041468397,0.21723722,0.8323584,1.0139387,-0.15295596,0.50927997,0.6428279,0.5061367,-0.045745213,-0.07061842,0.19363338,-0.025189303,-0.34382895,-0.45443186,-0.42497525,774.83514,794.9817,810.293,808.2784,761.53845,-0.03411865234375,0.1513671875,0.9908447265625,1.62994384765625,30.587615966796875,-12.72552490234375,1,1.0,1.0,1.0,1.0,10.00
2024-10-11 20:13:56.331,1.3544271,0.19474201,0.76818794,1.1020494,1.1862749,-0.041468397,0.21723722,0.8323584,1.0139387,-0.15295596,0.50927997,0.6428279,0.5061367,-0.045745213,-0.07061842,0.19363338,-0.025189303,-0.34382895,-0.45443186,-0.42497525,795.78754,785.7143,811.0989,819.9634,669.67035,-0.03411865234375,0.1513671875,0.9908447265625,1.62994384765625,30.587615966796875,-12.72552490234375,1,1.0,1.0,1.0,1.0,10.00
2024-10-11 20:13:56.332,1.3544271,0.19474201,0.76818794,1.1020494,1.1862749,-0.041468397,0.21723722,0.8323584,1.0139387,-0.15295596,0.50927997,0.6428279,0.5061367,-0.045745213,-0.07061842,0.19363338,-0.025189303,-0.34382895,-0.45443186,-0.42497525,799.41394,795.78754,808.2784,821.5751,782.49084,-0.03411865234375,0.1513671875,0.9908447265625,1.62994384765625,30.587615966796875,-12.72552490234375,1,1.0,1.0,1.0,1.0,10.00
2024-10-11 20:13:56.332,1.3544271,0.19474201,0.76818794,1.1020494,1.1862749,-0.041468397,0.21723722,0.8323584,1.0139387,-0.15295596,0.50927997,0.6428279,0.5061367,-0.045745213,-0.07061842,0.19363338,-0.025189303,-0.34382895,-0.45443186,-0.42497525,782.8938,806.6667,802.23444,794.9817,729.707,-0.03411865234375,0.1513671875,0.9908447265625,1.62994384765625,30.587615966796875,-12.72552490234375,1,1.0,1.0,1.0,1.0,10.00
2024-10-11 20:13:56.333,1.3544271,0.19474201,0.76818794,1.1020494,1.1862749,-0.041468397,0.21723722,0.8323584,1.0139387,-0.15295596,0.50927997,0.6428279,0.5061367,-0.045745213,-0.07061842,0.19363338,-0.025189303,-0.34382895,-0.45443186,-0.42497525,782.8938,807.0696,801.02563,785.31134,740.58606,-0.03411865234375,0.1513671875,0.9908447265625,1.62994384765625,30.587615966796875,-12.72552490234375,1,1.0,1.0,1.0,1.0,10.00
2024-10-11 20:13:56.334,1.3544271,0.19474201,0.76818794,1.1020494,1.1862749,-0.041468397,0.21723722,0.8323584,1.0139387,-0.15295596,0.50927997,0.6428279,0.5061367,-0.045745213,-0.07061842,0.19363338,-0.025189303,-0.34382895,-0.45443186,-0.42497525,798.60803,799.011,807.0696,795.38464,792.96704,-0.08599853515625,0.15167236328125,0.98040771484375,2.071075439453125,31.574554443359375,-10.235748291015625,1,1.0,1.0,1.0,1.0,10.00
2024-10-11 20:13:56.334,1.3544271,0.19474201,0.76818794,1.1020494,1.1862749,-0.041468397,0.21723722,0.8323584,1.0139387,-0.15295596,0.50927997,0.6428279,0.5061367,-0.045745213,-0.07061842,0.19363338,-0.025189303,-0.34382895,-0.45443186,-0.42497525,790.54944,795.38464,808.68134,796.5934,753.0769,-0.08599853515625,0.15167236328125,0.98040771484375,2.071075439453125,31.574554443359375,-10.235748291015625,1,1.0,1.0,1.0,1.0,10.00
2024-10-11 20:13:56.335,1.3544271,0.19474201,0.76818794,1.1020494,1.1862749,-0.041468397,0.21723722,0.8323584,1.0139387,-0.15295596,0.50927997,0.6428279,0.5061367,-0.045745213,-0.07061842,0.19363338,-0.025189303,-0.34382895,-0.45443186,-0.42497525,778.0586,806.6667,804.2491,787.72894,759.12085,-0.08599853515625,0.15167236328125,0.98040771484375,2.071075439453125,31.574554443359375,-10.235748291015625,1,1.0,1.0,1.0,1.0,10.00
2024-10-11 20:13:56,,,,,,,,,,,,,,,,,,,,,,,,,,,,,,,,,,,,,,/muse/elements/blink
2024-10-11 20:13:56.336,1.3544271,0.12508303,0.7752157,1.1020494,1.1862749,-0.03577042,0.21794946,0.8323584,1.0139387,-0.14370513,0.50927997,0.6428279,0.5061367,-0.047653724,-0.0696203,0.19363338,-0.025189303,-0.33557472,-0.46852592,-0.42497525,779.67035,805.05493,805.4579,776.4469,811.0989,-0.08599853515625,0.15167236328125,0.98040771484375,2.071075439453125,31.574554443359375,-10.235748291015625,1,1.0,1.0,1.0,1.0,10.00
2024-10-11 20:13:56.340,1.3544271,0.12508303,0.7752157,1.1020494,1.1862749,-0.03577042,0.21794946,0.8323584,1.0139387,-0.14370513,0.50927997,0.6428279,0.5061367,-0.047653724,-0.0696203,0.19363338,-0.025189303,-0.33557472,-0.46852592,-0.42497525,782.0879,796.5934,803.0403,774.0293,975.89746,-0.08599853515625,0.15167236328125,0.98040771484375,2.071075439453125,31.574554443359375,-10.235748291015625,1,1.0,1.0,1.0,1.0,10.00
2024-10-11 20:13:56.341,1.3544271,0.12508303,0.7752157,1.1020494,1.1862749,-0.03577042,0.21794946,0.8323584,1.0139387,-0.14370513,0.50927997,0.6428279,0.5061367,-0.047653724,-0.0696203,0.19363338,-0.025189303,-0.33557472,-0.46852592,-0.42497525,765.9707,791.75824,798.60803,776.4469,1027.0696,-0.08599853515625,0.15167236328125,0.98040771484375,2.071075439453125,31.574554443359375,-10.235748291015625,1,1.0,1.0,1.0,1.0,10.00
2024-10-11 20:13:56.342,1.3544271,0.12508303,0.7752157,1.1020494,1.1862749,-0.03577042,0.21794946,0.8323584,1.0139387,-0.14370513,0.50927997,0.6428279,0.5061367,-0.047653724,-0.0696203,0.19363338,-0.025189303,-0.33557472,-0.46852592,-0.42497525,745.42126,795.38464,801.4286,774.83514,871.53845,-0.08599853515625,0.15167236328125,0.98040771484375,2.071075439453125,31.574554443359375,-10.235748291015625,1,1.0,1.0,1.0,1.0,10.00
2024-10-11 20:13:56.342,1.3544271,0.12508303,0.7752157,1.1020494,1.1862749,-0.03577042,0.21794946,0.8323584,1.0139387,-0.14370513,0.50927997,0.6428279,0.5061367,-0.047653724,-0.0696203,0.19363338,-0.025189303,-0.33557472,-0.46852592,-0.42497525,755.4945,806.6667,805.05493,773.22345,926.7399,-0.08599853515625,0.15167236328125,0.98040771484375,2.071075439453125,31.574554443359375,-10.235748291015625,1,1.0,1.0,1.0,1.0,10.00
2024-10-11 20:13:56.343,1.3544271,0.12508303,0.7752157,1.1020494,1.1862749,-0.03577042,0.21794946,0.8323584,1.0139387,-0.14370513,0.50927997,0.6428279,0.5061367,-0.047653724,-0.0696203,0.19363338,-0.025189303,-0.33557472,-0.46852592,-0.42497525,772.4176,809.4872,809.89014,773.22345,1131.0256,-0.08599853515625,0.15167236328125,0.98040771484375,2.071075439453125,31.574554443359375,-10.235748291015625,1,1.0,1.0,1.0,1.0,10.00
2024-10-11 20:13:56.343,1.3544271,0.12508303,0.7752157,1.1020494,1.1862749,-0.03577042,0.21794946,0.8323584,1.0139387,-0.14370513,0.50927997,0.6428279,0.5061367,-0.047653724,-0.0696203,0.19363338,-0.025189303,-0.33557472,-0.46852592,-0.42497525,773.6264,802.23444,813.1135,772.4176,880.80585,-0.08599853515625,0.15167236328125,0.98040771484375,2.071075439453125,31.574554443359375,-10.235748291015625,1,1.0,1.0,1.0,1.0,10.00
2024-10-11 20:13:56.344,1.3544271,0.12508303,0.7752157,1.1020494,1.1862749,-0.03577042,0.21794946,0.8323584,1.0139387,-0.14370513,0.50927997,0.6428279,0.5061367,-0.047653724,-0.0696203,0.19363338,-0.025189303,-0.33557472,-0.46852592,-0.42497525,772.4176,806.6667,811.9048,773.22345,745.0183,-0.08599853515625,0.15167236328125,0.98040771484375,2.071075439453125,31.574554443359375,-10.235748291015625,1,1.0,1.0,1.0,1.0,10.00
2024-10-11 20:13:56.344,1.3544271,0.12508303,0.7752157,1.1020494,1.1862749,-0.03577042,0.21794946,0.8323584,1.0139387,-0.14370513,0.50927997,0.6428279,0.5061367,-0.047653724,-0.0696203,0.19363338,-0.025189303,-0.33557472,-0.46852592,-0.42497525,761.53845,815.12823,799.41394,769.59705,994.43225,-0.08599853515625,0.15167236328125,0.98040771484375,2.071075439453125,31.574554443359375,-10.235748291015625,1,1.0,1.0,1.0,1.0,10.00
2024-10-11 20:13:56.368,1.3544271,0.12508303,0.7752157,1.1020494,1.1862749,-0.03577042,0.21794946,0.8323584,1.0139387,-0.14370513,0.50927997,0.6428279,0.5061367,-0.047653724,-0.0696203,0.19363338,-0.025189303,-0.33557472,-0.46852592,-0.42497525,756.30035,810.293,798.60803,782.8938,1105.238,-0.1365966796875,0.157470703125,0.97869873046875,3.072967529296875,30.69976806640625,-9.43572998046875,1,1.0,1.0,1.0,1.0,10.00
2024-10-11 20:13:56.369,1.3544271,0.12508303,0.7752157,1.1020494,1.1862749,-0.03577042,0.21794946,0.8323584,1.0139387,-0.14370513,0.50927997,0.6428279,0.5061367,-0.047653724,-0.0696203,0.19363338,-0.025189303,-0.33557472,-0.46852592,-0.42497525,759.5238,798.60803,803.44324,791.3553,869.12085,-0.1365966796875,0.157470703125,0.97869873046875,3.072967529296875,30.69976806640625,-9.43572998046875,1,1.0,1.0,1.0,1.0,10.00
2024-10-11 20:13:56.370,1.3544271,0.12508303,0.7752157,1.1020494,1.1862749,-0.03577042,0.21794946,0.8323584,1.0139387,-0.14370513,0.50927997,0.6428279,0.5061367,-0.047653724,-0.0696203,0.19363338,-0.025189303,-0.33557472,-0.46852592,-0.42497525,776.4469,803.0403,806.26373,784.5055,735.7509,-0.1365966796875,0.157470703125,0.97869873046875,3.072967529296875,30.69976806640625,-9.43572998046875,1,1.0,1.0,1.0,1.0,10.00
2024-10-11 20:13:56.371,1.3544271,0.12508303,0.7752157,1.1020494,1.1862749,-0.03577042,0.21794946,0.8323584,1.0139387,-0.14370513,0.50927997,0.6428279,0.5061367,-0.047653724,-0.0696203,0.19363338,-0.025189303,-0.33557472,-0.46852592,-0.42497525,782.8938,805.05493,809.89014,791.75824,891.28204,-0.1365966796875,0.157470703125,0.97869873046875,3.072967529296875,30.69976806640625,-9.43572998046875,1,1.0,1.0,1.0,1.0,10.00
2024-10-11 20:13:56.371,1.3544271,0.12508303,0.7752157,1.1020494,1.1862749,-0.03577042,0.21794946,0.8323584,1.0139387,-0.14370513,0.50927997,0.6428279,0.5061367,-0.047653724,-0.0696203,0.19363338,-0.025189303,-0.33557472,-0.46852592,-0.42497525,776.8498,794.57874,803.8461,807.0696,1258.3517,-0.1365966796875,0.157470703125,0.97869873046875,3.072967529296875,30.69976806640625,-9.43572998046875,1,1.0,1.0,1.0,1.0,10.00
2024-10-11 20:13:56.372,1.3544271,0.12508303,0.7752157,1.1020494,1.1862749,-0.03577042,0.21794946,0.8323584,1.0139387,-0.14370513,0.50927997,0.6428279,0.5061367,-0.047653724,-0.0696203,0.19363338,-0.025189303,-0.33557472,-0.46852592,-0.42497525,780.07324,794.57874,799.011,812.3077,1228.9377,-0.1365966796875,0.157470703125,0.97869873046875,3.072967529296875,30.69976806640625,-9.43572998046875,1,1.0,1.0,1.0,1.0,10.00
2024-10-11 20:13:56.372,1.3544271,0.12508303,0.7752157,1.1020494,1.1862749,-0.03577042,0.21794946,0.8323584,1.0139387,-0.14370513,0.50927997,0.6428279,0.5061367,-0.047653724,-0.0696203,0.19363338,-0.025189303,-0.33557472,-0.46852592,-0.42497525,780.4762,796.5934,798.60803,807.8755,790.9524,-0.1365966796875,0.157470703125,0.97869873046875,3.072967529296875,30.69976806640625,-9.43572998046875,1,1.0,1.0,1.0,1.0,10.00
2024-10-11 20:13:56.373,1.3544271,0.12508303,0.7752157,1.1020494,1.1862749,-0.03577042,0.21794946,0.8323584,1.0139387,-0.14370513,0.50927997,0.6428279,0.5061367,-0.047653724,-0.0696203,0.19363338,-0.025189303,-0.33557472,-0.46852592,-0.42497525,786.9231,787.326,803.44324,805.8608,820.3663,-0.1365966796875,0.157470703125,0.97869873046875,3.072967529296875,30.69976806640625,-9.43572998046875,1,1.0,1.0,1.0,1.0,10.00
2024-10-11 20:13:56.373,1.3544271,0.12508303,0.7752157,1.1020494,1.1862749,-0.03577042,0.21794946,0.8323584,1.0139387,-0.14370513,0.50927997,0.6428279,0.5061367,-0.047653724,-0.0696203,0.19363338,-0.025189303,-0.33557472,-0.46852592,-0.42497525,798.60803,782.8938,805.05493,801.4286,951.7216,-0.1365966796875,0.157470703125,0.97869873046875,3.072967529296875,30.69976806640625,-9.43572998046875,1,1.0,1.0,1.0,1.0,10.00
2024-10-11 20:13:56.374,1.3544271,0.12508303,0.7752157,1.1020494,1.1862749,-0.03577042,0.21794946,0.8323584,1.0139387,-0.14370513,0.50927997,0.6428279,0.5061367,-0.047653724,-0.0696203,0.19363338,-0.025189303,-0.33557472,-0.46852592,-0.42497525,809.4872,797.3993,805.8608,799.011,784.5055,-0.1365966796875,0.157470703125,0.97869873046875,3.072967529296875,30.69976806640625,-9.43572998046875,1,1.0,1.0,1.0,1.0,10.00
2024-10-11 20:13:56.375,1.3544271,0.12508303,0.7752157,1.1020494,1.1862749,-0.03577042,0.21794946,0.8323584,1.0139387,-0.14370513,0.50927997,0.6428279,0.5061367,-0.047653724,-0.0696203,0.19363338,-0.025189303,-0.33557472,-0.46852592,-0.42497525,813.5165,801.4286,805.05493,803.44324,722.4542,-0.1365966796875,0.157470703125,0.97869873046875,3.072967529296875,30.69976806640625,-9.43572998046875,1,1.0,1.0,1.0,1.0,10.00
2024-10-11 20:13:56.375,1.3544271,0.12508303,0.7752157,1.1020494,1.1862749,-0.03577042,0.21794946,0.8323584,1.0139387,-0.14370513,0.50927997,0.6428279,0.5061367,-0.047653724,-0.0696203,0.19363338,-0.025189303,-0.33557472,-0.46852592,-0.42497525,817.1429,791.3553,805.05493,814.7253,918.2784,-0.1365966796875,0.157470703125,0.97869873046875,3.072967529296875,30.69976806640625,-9.43572998046875,1,1.0,1.0,1.0,1.0,10.00
2024-10-11 20:13:56.399,1.3544271,0.12508303,0.7752157,1.1020494,1.1862749,-0.03577042,0.21794946,0.8323584,1.0139387,-0.14370513,0.50927997,0.6428279,0.5061367,-0.047653724,-0.0696203,0.19363338,-0.025189303,-0.33557472,-0.46852592,-0.42497525,805.05493,792.96704,805.05493,817.1429,1102.0146,-0.1849365234375,0.1612548828125,0.9884033203125,3.0804443359375,27.55950927734375,-9.936676025390625,1,1.0,1.0,1.0,1.0,10.00
2024-10-11 20:13:56.400,1.3544271,0.12508303,0.7752157,1.1020494,1.1862749,-0.03577042,0.21794946,0.8323584,1.0139387,-0.14370513,0.50927997,0.6428279,0.5061367,-0.047653724,-0.0696203,0.19363338,-0.025189303,-0.33557472,-0.46852592,-0.42497525,802.23444,798.60803,807.47253,810.696,794.57874,-0.1849365234375,0.1612548828125,0.9884033203125,3.0804443359375,27.55950927734375,-9.936676025390625,1,1.0,1.0,1.0,1.0,10.00
2024-10-11 20:13:56.400,1.3544271,0.12508303,0.7752157,1.1020494,1.1862749,-0.03577042,0.21794946,0.8323584,1.0139387,-0.14370513,0.50927997,0.6428279,0.5061367,-0.047653724,-0.0696203,0.19363338,-0.025189303,-0.33557472,-0.46852592,-0.42497525,815.5311,795.38464,810.293,816.7399,589.0842,-0.1849365234375,0.1612548828125,0.9884033203125,3.0804443359375,27.55950927734375,-9.936676025390625,1,1.0,1.0,1.0,1.0,10.00
2024-10-11 20:13:56.401,1.3544271,0.12508303,0.7752157,1.1020494,1.1862749,-0.03577042,0.21794946,0.8323584,1.0139387,-0.14370513,0.50927997,0.6428279,0.5061367,-0.047653724,-0.0696203,0.19363338,-0.025189303,-0.33557472,-0.46852592,-0.42497525,807.47253,790.14655,806.6667,820.7692,821.5751,-0.1849365234375,0.1612548828125,0.9884033203125,3.0804443359375,27.55950927734375,-9.936676025390625,1,1.0,1.0,1.0,1.0,10.00
2024-10-11 20:13:56.401,1.3544271,0.12508303,0.7752157,1.1020494,1.1862749,-0.03577042,0.21794946,0.8323584,1.0139387,-0.14370513,0.50927997,0.6428279,0.5061367,-0.047653724,-0.0696203,0.19363338,-0.025189303,-0.33557472,-0.46852592,-0.42497525,785.7143,794.17584,806.6667,821.5751,859.85345,-0.1849365234375,0.1612548828125,0.9884033203125,3.0804443359375,27.55950927734375,-9.936676025390625,1,1.0,1.0,1.0,1.0,10.00
2024-10-11 20:13:56.402,1.3544271,0.095775805,0.7957134,1.1020494,1.1862749,-0.011648435,0.23930535,0.8323584,1.0139387,-0.09714043,0.50927997,0.6428279,0.5061367,-0.048413735,-0.071853675,0.19363338,-0.025189303,-0.30402145,-0.48196307,-0.42497525,782.0879,796.1905,809.0842,824.3956,741.79486,-0.1849365234375,0.1612548828125,0.9884033203125,3.0804443359375,27.55950927734375,-9.936676025390625,1,1.0,1.0,1.0,1.0,10.00
2024-10-11 20:13:56.407,1.3544271,0.095775805,0.7957134,1.1020494,1.1862749,-0.011648435,0.23930535,0.8323584,1.0139387,-0.09714043,0.50927997,0.6428279,0.5061367,-0.048413735,-0.071853675,0.19363338,-0.025189303,-0.30402145,-0.48196307,-0.42497525,787.72894,798.60803,809.0842,825.6044,857.8388,-0.1849365234375,0.1612548828125,0.9884033203125,3.0804443359375,27.55950927734375,-9.936676025390625,1,1.0,1.0,1.0,1.0,10.00
2024-10-11 20:13:56.407,1.3544271,0.095775805,0.7957134,1.1020494,1.1862749,-0.011648435,0.23930535,0.8323584,1.0139387,-0.09714043,0.50927997,0.6428279,0.5061367,-0.048413735,-0.071853675,0.19363338,-0.025189303,-0.30402145,-0.48196307,-0.42497525,790.54944,797.8022,806.6667,835.6777,1126.9963,-0.1849365234375,0.1612548828125,0.9884033203125,3.0804443359375,27.55950927734375,-9.936676025390625,1,1.0,1.0,1.0,1.0,10.00
