TimeStamp,Delta_TP9,Delta_AF7,Delta_AF8,Delta_TP10,Theta_TP9,Theta_AF7,Theta_AF8,Theta_TP10,Alpha_TP9,Alpha_AF7,Alpha_AF8,Alpha_TP10,Beta_TP9,Beta_AF7,Beta_AF8,Beta_TP10,Gamma_TP9,Gamma_AF7,Gamma_AF8,Gamma_TP10,RAW_TP9,RAW_AF7,RAW_AF8,RAW_TP10,AUX_RIGHT,Accelerometer_X,Accelerometer_Y,Accelerometer_Z,Gyro_X,Gyro_Y,Gyro_Z,HeadBandOn,HSI_TP9,HSI_AF7,HSI_AF8,HSI_TP10,Battery,Elements
2024-10-11 20:20:12.272,0.88623196,0.15281555,0.35318932,0.87216735,0.49161398,-0.01832538,0.16001469,0.7641938,1.2005516,0.1632987,0.17905179,0.6619266,0.5370218,0.16821463,0.07673788,0.6337014,0.018727792,-0.062241018,-0.22669242,0.059064556,782.8938,790.9524,805.05493,799.011,817.5458,-0.10748291015625,0.09381103515625,0.9976806640625,-1.293487548828125,-1.33087158203125,-3.282318115234375,1,1.0,1.0,1.0,1.0,10.00
2024-10-11 20:20:12.273,0.8707309,0.15462565,0.3729706,0.86060774,0.5016561,-0.011299131,0.18491109,0.76026165,1.2005516,0.17221057,0.19760327,0.7226373,0.5587422,0.1683772,0.08588775,0.6614853,0.042577494,-0.06920714,-0.2050653,0.096666284,814.3223,792.5641,816.337,826.4103,868.315,-0.10748291015625,0.09381103515625,0.9976806640625,-1.293487548828125,-1.33087158203125,-3.282318115234375,1,1.0,1.0,1.0,1.0,10.00
2024-10-11 20:20:12.278,0.8707309,0.15462565,0.3729706,0.86060774,0.5016561,-0.011299131,0.18491109,0.76026165,1.2005516,0.17221057,0.19760327,0.7226373,0.5587422,0.1683772,0.08588775,0.6614853,0.042577494,-0.06920714,-0.2050653,0.096666284,810.696,791.3553,817.9487,821.5751,653.1502,-0.10748291015625,0.09381103515625,0.9976806640625,-1.293487548828125,-1.33087158203125,-3.282318115234375,1,1.0,1.0,1.0,1.0,10.00
2024-10-11 20:20:12.278,0.8707309,0.15462565,0.3729706,0.86060774,0.5016561,-0.011299131,0.18491109,0.76026165,1.2005516,0.17221057,0.19760327,0.7226373,0.5587422,0.1683772,0.08588775,0.6614853,0.042577494,-0.06920714,-0.2050653,0.096666284,779.2674,803.44324,807.0696,791.75824,706.337,-0.10748291015625,0.09381103515625,0.9976806640625,-1.293487548828125,-1.33087158203125,-3.282318115234375,1,1.0,1.0,1.0,1.0,10.00
2024-10-11 20:20:12.279,0.8707309,0.15462565,0.3729706,0.86060774,0.5016561,-0.011299131,0.18491109,0.76026165,1.2005516,0.17221057,0.19760327,0.7226373,0.5587422,0.1683772,0.08588775,0.6614853,0.042577494,-0.06920714,-0.2050653,0.096666284,772.8205,808.68134,803.8461,781.28204,819.5604,-0.10748291015625,0.09381103515625,0.9976806640625,-1.293487548828125,-1.33087158203125,-3.282318115234375,1,1.0,1.0,1.0,1.0,10.00
2024-10-11 20:20:12.280,0.8707309,0.15462565,0.3729706,0.86060774,0.5016561,-0.011299131,0.18491109,0.76026165,1.2005516,0.17221057,0.19760327,0.7226373,0.5587422,0.1683772,0.08588775,0.6614853,0.042577494,-0.06920714,-0.2050653,0.096666284,774.43225,798.60803,803.44324,767.1795,830.4396,-0.10748291015625,0.09381103515625,0.9976806640625,-1.293487548828125,-1.33087158203125,-3.282318115234375,1,1.0,1.0,1.0,1.0,10.00
2024-10-11 20:20:12.280,0.8707309,0.15462565,0.3729706,0.86060774,0.5016561,-0.011299131,0.18491109,0.76026165,1.2005516,0.17221057,0.19760327,0.7226373,0.5587422,0.1683772,0.08588775,0.6614853,0.042577494,-0.06920714,-0.2050653,0.096666284,759.5238,807.47253,807.8755,756.7033,767.1795,-0.10748291015625,0.09381103515625,0.9976806640625,-1.293487548828125,-1.33087158203125,-3.282318115234375,1,1.0,1.0,1.0,1.0,10.00
2024-10-11 20:20:12.280,0.8707309,0.15462565,0.3729706,0.86060774,0.5016561,-0.011299131,0.18491109,0.76026165,1.2005516,0.17221057,0.19760327,0.7226373,0.5587422,0.1683772,0.08588775,0.6614853,0.042577494,-0.06920714,-0.2050653,0.096666284,728.0952,803.8461,803.8461,739.7802,648.71796,-0.10748291015625,0.09381103515625,0.9976806640625,-1.293487548828125,-1.33087158203125,-3.282318115234375,1,1.0,1.0,1.0,1.0,10.00
2024-10-11 20:20:12.281,0.8707309,0.15462565,0.3729706,0.86060774,0.5016561,-0.011299131,0.18491109,0.76026165,1.2005516,0.17221057,0.19760327,0.7226373,0.5587422,0.1683772,0.08588775,0.6614853,0.042577494,-0.06920714,-0.2050653,0.096666284,720.84247,801.8315,811.9048,744.21246,886.4469,-0.10748291015625,0.09381103515625,0.9976806640625,-1.293487548828125,-1.33087158203125,-3.282318115234375,1,1.0,1.0,1.0,1.0,10.00
2024-10-11 20:20:12.281,0.8707309,0.15462565,0.3729706,0.86060774,0.5016561,-0.011299131,0.18491109,0.76026165,1.2005516,0.17221057,0.19760327,0.7226373,0.5587422,0.1683772,0.08588775,0.6614853,0.042577494,-0.06920714,-0.2050653,0.096666284,721.2454,813.5165,812.71063,749.45056,1144.3224,-0.10748291015625,0.09381103515625,0.9976806640625,-1.293487548828125,-1.33087158203125,-3.282318115234375,1,1.0,1.0,1.0,1.0,10.00
2024-10-11 20:20:12.282,0.8707309,0.15462565,0.3729706,0.86060774,0.5016561,-0.011299131,0.18491109,0.76026165,1.2005516,0.17221057,0.19760327,0.7226373,0.5587422,0.1683772,0.08588775,0.6614853,0.042577494,-0.06920714,-0.2050653,0.096666284,727.28937,817.5458,807.8755,725.2747,716.8132,-0.10748291015625,0.09381103515625,0.9976806640625,-1.293487548828125,-1.33087158203125,-3.282318115234375,1,1.0,1.0,1.0,1.0,10.00
2024-10-11 20:20:12.282,0.8707309,0.15462565,0.3729706,0.86060774,0.5016561,-0.011299131,0.18491109,0.76026165,1.2005516,0.17221057,0.19760327,0.7226373,0.5587422,0.1683772,0.08588775,0.6614853,0.042577494,-0.06920714,-0.2050653,0.096666284,705.9341,817.9487,807.47253,704.7253,621.31866,-0.10748291015625,0.09381103515625,0.9976806640625,-1.293487548828125,-1.33087158203125,-3.282318115234375,1,1.0,1.0,1.0,1.0,10.00
2024-10-11 20:20:12.283,0.8707309,0.15462565,0.3729706,0.86060774,0.5016561,-0.011299131,0.18491109,0.76026165,1.2005516,0.17221057,0.19760327,0.7226373,0.5587422,0.1683772,0.08588775,0.6614853,0.042577494,-0.06920714,-0.2050653,0.096666284,695.05493,820.7692,812.71063,706.7399,777.6557,-0.106201171875,0.08404541015625,0.9991455078125,-1.398162841796875,-0.740203857421875,-3.72344970703125,1,1.0,1.0,1.0,1.0,10.00
2024-10-11 20:20:12.284,0.8707309,0.15462565,0.3729706,0.86060774,0.5016561,-0.011299131,0.18491109,0.76026165,1.2005516,0.17221057,0.19760327,0.7226373,0.5587422,0.1683772,0.08588775,0.6614853,0.042577494,-0.06920714,-0.2050653,0.096666284,692.23444,839.707,808.68134,705.9341,691.4286,-0.106201171875,0.08404541015625,0.9991455078125,-1.398162841796875,-0.740203857421875,-3.72344970703125,1,1.0,1.0,1.0,1.0,10.00
2024-10-11 20:20:12.284,0.8707309,0.15462565,0.3729706,0.86060774,0.5016561,-0.011299131,0.18491109,0.76026165,1.2005516,0.17221057,0.19760327,0.7226373,0.5587422,0.1683772,0.08588775,0.6614853,0.042577494,-0.06920714,-0.2050653,0.096666284,677.326,838.0952,800.2198,687.8022,708.7546,-0.106201171875,0.08404541015625,0.9991455078125,-1.398162841796875,-0.740203857421875,-3.72344970703125,1,1.0,1.0,1.0,1.0,10.00
2024-10-11 20:20:12.284,0.8707309,0.15462565,0.3729706,0.86060774,0.5016561,-0.011299131,0.18491109,0.76026165,1.2005516,0.17221057,0.19760327,0.7226373,0.5587422,0.1683772,0.08588775,0.6614853,0.042577494,-0.06920714,-0.2050653,0.096666284,686.1905,819.9634,814.7253,692.6374,811.0989,-0.106201171875,0.08404541015625,0.9991455078125,-1.398162841796875,-0.740203857421875,-3.72344970703125,1,1.0,1.0,1.0,1.0,10.00
2024-10-11 20:20:12.285,0.8707309,0.15462565,0.3729706,0.86060774,0.5016561,-0.011299131,0.18491109,0.76026165,1.2005516,0.17221057,0.19760327,0.7226373,0.5587422,0.1683772,0.08588775,0.6614853,0.042577494,-0.06920714,-0.2050653,0.096666284,686.5934,821.978,815.12823,692.6374,917.47253,-0.106201171875,0.08404541015625,0.9991455078125,-1.398162841796875,-0.740203857421875,-3.72344970703125,1,1.0,1.0,1.0,1.0,10.00
2024-10-11 20:20:12.285,0.8707309,0.15462565,0.3729706,0.86060774,0.5016561,-0.011299131,0.18491109,0.76026165,1.2005516,0.17221057,0.19760327,0.7226373,0.5587422,0.1683772,0.08588775,0.6614853,0.042577494,-0.06920714,-0.2050653,0.096666284,682.1612,822.7839,806.26373,684.9817,917.47253,-0.106201171875,0.08404541015625,0.9991455078125,-1.398162841796875,-0.740203857421875,-3.72344970703125,1,1.0,1.0,1.0,1.0,10.00
2024-10-11 20:20:12.286,0.8707309,0.15462565,0.3729706,0.86060774,0.5016561,-0.011299131,0.18491109,0.76026165,1.2005516,0.17221057,0.19760327,0.7226373,0.5587422,0.1683772,0.08588775,0.6614853,0.042577494,-0.06920714,-0.2050653,0.096666284,680.54944,817.9487,804.65204,695.05493,803.8461,-0.106201171875,0.08404541015625,0.9991455078125,-1.398162841796875,-0.740203857421875,-3.72344970703125,1,1.0,1.0,1.0,1.0,10.00
2024-10-11 20:20:12.286,0.8707309,0.15462565,0.3729706,0.86060774,0.5016561,-0.011299131,0.18491109,0.76026165,1.2005516,0.17221057,0.19760327,0.7226373,0.5587422,0.1683772,0.08588775,0.6614853,0.042577494,-0.06920714,-0.2050653,0.096666284,668.0586,815.12823,803.44324,684.9817,845.7509,-0.106201171875,0.08404541015625,0.9991455078125,-1.398162841796875,-0.740203857421875,-3.72344970703125,1,1.0,1.0,1.0,1.0,10.00
2024-10-11 20:20:12.287,0.8707309,0.15462565,0.3729706,0.86060774,0.5016561,-0.011299131,0.18491109,0.76026165,1.2005516,0.17221057,0.19760327,0.7226373,0.5587422,0.1683772,0.08588775,0.6614853,0.042577494,-0.06920714,-0.2050653,0.096666284,667.25275,821.978,809.4872,677.72894,1016.5934,-0.106201171875,0.08404541015625,0.9991455078125,-1.398162841796875,-0.740203857421875,-3.72344970703125,1,1.0,1.0,1.0,1.0,10.00
2024-10-11 20:20:12.288,0.8707309,0.15462565,0.3729706,0.86060774,0.5016561,-0.011299131,0.18491109,0.76026165,1.2005516,0.17221057,0.19760327,0.7226373,0.5587422,0.1683772,0.08588775,0.6614853,0.042577494,-0.06920714,-0.2050653,0.096666284,668.46155,826.8132,815.12823,691.02563,842.52747,-0.106201171875,0.08404541015625,0.9991455078125,-1.398162841796875,-0.740203857421875,-3.72344970703125,1,1.0,1.0,1.0,1.0,10.00
2024-10-11 20:20:12.288,0.8707309,0.15462565,0.3729706,0.86060774,0.5016561,-0.011299131,0.18491109,0.76026165,1.2005516,0.17221057,0.19760327,0.7226373,0.5587422,0.1683772,0.08588775,0.6614853,0.042577494,-0.06920714,-0.2050653,0.096666284,662.01465,826.4103,802.23444,690.2198,662.4176,-0.106201171875,0.08404541015625,0.9991455078125,-1.398162841796875,-0.740203857421875,-3.72344970703125,1,1.0,1.0,1.0,1.0,10.00
2024-10-11 20:20:12.288,0.8707309,0.15462565,0.3729706,0.86060774,0.5016561,-0.011299131,0.18491109,0.76026165,1.2005516,0.17221057,0.19760327,0.7226373,0.5587422,0.1683772,0.08588775,0.6614853,0.042577494,-0.06920714,-0.2050653,0.096666284,681.3553,828.022,811.50183,692.6374,721.6484,-0.106201171875,0.08404541015625,0.9991455078125,-1.398162841796875,-0.740203857421875,-3.72344970703125,1,1.0,1.0,1.0,1.0,10.00
2024-10-11 20:20:12.316,0.8707309,0.15462565,0.3729706,0.86060774,0.5016561,-0.011299131,0.18491109,0.76026165,1.2005516,0.17221057,0.19760327,0.7226373,0.5587422,0.1683772,0.08588775,0.6614853,0.042577494,-0.06920714,-0.2050653,0.096666284,695.8608,821.978,812.71063,706.337,866.30035,-0.108154296875,0.08502197265625,0.99810791015625,-0.897216796875,-0.5084228515625,-3.5589599609375,1,1.0,1.0,1.0,1.0,10.00
2024-10-11 20:20:12.317,0.8707309,0.15462565,0.3729706,0.86060774,0.5016561,-0.011299131,0.18491109,0.76026165,1.2005516,0.17221057,0.19760327,0.7226373,0.5587422,0.1683772,0.08588775,0.6614853,0.042577494,-0.06920714,-0.2050653,0.096666284,686.1905,824.3956,804.2491,702.71063,776.8498,-0.108154296875,0.08502197265625,0.99810791015625,-0.897216796875,-0.5084228515625,-3.5589599609375,1,1.0,1.0,1.0,1.0,10.00
2024-10-11 20:20:12.318,0.8707309,0.15462565,0.3729706,0.86060774,0.5016561,-0.011299131,0.18491109,0.76026165,1.2005516,0.17221057,0.19760327,0.7226373,0.5587422,0.1683772,0.08588775,0.6614853,0.042577494,-0.06920714,-0.2050653,0.096666284,680.14655,824.3956,807.0696,697.47253,597.1429,-0.108154296875,0.08502197265625,0.99810791015625,-0.897216796875,-0.5084228515625,-3.5589599609375,1,1.0,1.0,1.0,1.0,10.00
2024-10-11 20:20:12.319,0.8707309,0.16359295,0.38261497,0.86060774,0.5016561,0.0077959504,0.2030256,0.76026165,1.2005516,0.19310513,0.19651963,0.7226373,0.5587422,0.17514674,0.0949101,0.6614853,0.042577494,-0.074520595,-0.18382978,0.096666284,671.28204,810.696,809.4872,699.4872,699.89014,-0.108154296875,0.08502197265625,0.99810791015625,-0.897216796875,-0.5084228515625,-3.5589599609375,1,1.0,1.0,1.0,1.0,10.00
2024-10-11 20:20:12.323,0.8707309,0.16359295,0.38261497,0.86060774,0.5016561,0.0077959504,0.2030256,0.76026165,1.2005516,0.19310513,0.19651963,0.7226373,0.5587422,0.17514674,0.0949101,0.6614853,0.042577494,-0.074520595,-0.18382978,0.096666284,681.3553,805.4579,812.3077,706.337,787.72894,-0.108154296875,0.08502197265625,0.99810791015625,-0.897216796875,-0.5084228515625,-3.5589599609375,1,1.0,1.0,1.0,1.0,10.00
2024-10-11 20:20:12.323,0.8707309,0.16359295,0.38261497,0.86060774,0.5016561,0.0077959504,0.2030256,0.76026165,1.2005516,0.19310513,0.19651963,0.7226373,0.5587422,0.17514674,0.0949101,0.6614853,0.042577494,-0.074520595,-0.18382978,0.096666284,704.3223,794.9817,823.1868,715.2015,784.10254,-0.108154296875,0.08502197265625,0.99810791015625,-0.897216796875,-0.5084228515625,-3.5589599609375,1,1.0,1.0,1.0,1.0,10.00
2024-10-11 20:20:12.324,0.8707309,0.16359295,0.38261497,0.86060774,0.5016561,0.0077959504,0.2030256,0.76026165,1.2005516,0.19310513,0.19651963,0.7226373,0.5587422,0.17514674,0.0949101,0.6614853,0.042577494,-0.074520595,-0.18382978,0.096666284,703.5165,798.60803,826.8132,719.2308,826.4103,-0.108154296875,0.08502197265625,0.99810791015625,-0.897216796875,-0.5084228515625,-3.5589599609375,1,1.0,1.0,1.0,1.0,10.00
2024-10-11 20:20:12.325,0.8707309,0.16359295,0.38261497,0.86060774,0.5016561,0.0077959504,0.2030256,0.76026165,1.2005516,0.19310513,0.19651963,0.7226373,0.5587422,0.17514674,0.0949101,0.6614853,0.042577494,-0.074520595,-0.18382978,0.096666284,702.71063,800.6227,817.5458,732.1245,897.72894,-0.108154296875,0.08502197265625,0.99810791015625,-0.897216796875,-0.5084228515625,-3.5589599609375,1,1.0,1.0,1.0,1.0,10.00
2024-10-11 20:20:12.326,0.8707309,0.16359295,0.38261497,0.86060774,0.5016561,0.0077959504,0.2030256,0.76026165,1.2005516,0.19310513,0.19651963,0.7226373,0.5587422,0.17514674,0.0949101,0.6614853,0.042577494,-0.074520595,-0.18382978,0.096666284,718.4249,804.2491,811.0989,736.9597,1118.5348,-0.108154296875,0.08502197265625,0.99810791015625,-0.897216796875,-0.5084228515625,-3.5589599609375,1,1.0,1.0,1.0,1.0,10.00
2024-10-11 20:20:12.327,0.8707309,0.16359295,0.38261497,0.86060774,0.5016561,0.0077959504,0.2030256,0.76026165,1.2005516,0.19310513,0.19651963,0.7226373,0.5587422,0.17514674,0.0949101,0.6614853,0.042577494,-0.074520595,-0.18382978,0.096666284,730.5128,813.5165,815.12823,726.08057,956.1539,-0.108154296875,0.08502197265625,0.99810791015625,-0.897216796875,-0.5084228515625,-3.5589599609375,1,1.0,1.0,1.0,1.0,10.00
2024-10-11 20:20:12.328,0.8707309,0.16359295,0.38261497,0.86060774,0.5016561,0.0077959504,0.2030256,0.76026165,1.2005516,0.19310513,0.19651963,0.7226373,0.5587422,0.17514674,0.0949101,0.6614853,0.042577494,-0.074520595,-0.18382978,0.096666284,731.31866,806.26373,809.89014,720.4396,832.0513,-0.108154296875,0.08502197265625,0.99810791015625,-0.897216796875,-0.5084228515625,-3.5589599609375,1,1.0,1.0,1.0,1.0,10.00
2024-10-11 20:20:12.328,0.8707309,0.16359295,0.38261497,0.86060774,0.5016561,0.0077959504,0.2030256,0.76026165,1.2005516,0.19310513,0.19651963,0.7226373,0.5587422,0.17514674,0.0949101,0.6614853,0.042577494,-0.074520595,-0.18382978,0.096666284,729.304,801.02563,797.8022,727.28937,1020.2198,-0.108154296875,0.08502197265625,0.99810791015625,-0.897216796875,-0.5084228515625,-3.5589599609375,1,1.0,1.0,1.0,1.0,10.00
2024-10-11 20:20:12.393,0.8707309,0.16359295,0.38261497,0.86060774,0.5016561,0.0077959504,0.2030256,0.76026165,1.2005516,0.19310513,0.19651963,0.7226373,0.5587422,0.17514674,0.0949101,0.6614853,0.042577494,-0.074520595,-0.18382978,0.096666284,738.5714,803.44324,798.60803,735.7509,913.8461,-0.1085205078125,0.083740234375,1.00213623046875,-0.657958984375,0.28411865234375,-2.205657958984375,1,1.0,1.0,1.0,1.0,10.00
2024-10-11 20:20:12.394,0.8707309,0.16359295,0.38261497,0.86060774,0.5016561,0.0077959504,0.2030256,0.76026165,1.2005516,0.19310513,0.19651963,0.7226373,0.5587422,0.17514674,0.0949101,0.6614853,0.042577494,-0.074520595,-0.18382978,0.096666284,741.39197,799.41394,803.44324,735.7509,751.4652,-0.1085205078125,0.083740234375,1.00213623046875,-0.657958984375,0.28411865234375,-2.205657958984375,1,1.0,1.0,1.0,1.0,10.00
2024-10-11 20:20:12.395,0.8707309,0.16359295,0.38261497,0.86060774,0.5016561,0.0077959504,0.2030256,0.76026165,1.2005516,0.19310513,0.19651963,0.7226373,0.5587422,0.17514674,0.0949101,0.6614853,0.042577494,-0.074520595,-0.18382978,0.096666284,726.8865,794.57874,810.293,737.3626,782.8938,-0.1085205078125,0.083740234375,1.00213623046875,-0.657958984375,0.28411865234375,-2.205657958984375,1,1.0,1.0,1.0,1.0,10.00
2024-10-11 20:20:12.396,0.8707309,0.16359295,0.38261497,0.86060774,0.5016561,0.0077959504,0.2030256,0.76026165,1.2005516,0.19310513,0.19651963,0.7226373,0.5587422,0.17514674,0.0949101,0.6614853,0.042577494,-0.074520595,-0.18382978,0.096666284,732.1245,795.78754,802.6374,746.2271,849.7802,-0.1085205078125,0.083740234375,1.00213623046875,-0.657958984375,0.28411865234375,-2.205657958984375,1,1.0,1.0,1.0,1.0,10.00
2024-10-11 20:20:12.396,0.8707309,0.16359295,0.38261497,0.86060774,0.5016561,0.0077959504,0.2030256,0.76026165,1.2005516,0.19310513,0.19651963,0.7226373,0.5587422,0.17514674,0.0949101,0.6614853,0.042577494,-0.074520595,-0.18382978,0.096666284,756.30035,791.3553,805.8608,764.7619,729.304,-0.1085205078125,0.083740234375,1.00213623046875,-0.657958984375,0.28411865234375,-2.205657958984375,1,1.0,1.0,1.0,1.0,10.00
2024-10-11 20:20:12.397,0.8707309,0.16359295,0.38261497,0.86060774,0.5016561,0.0077959504,0.2030256,0.76026165,1.2005516,0.19310513,0.19651963,0.7226373,0.5587422,0.17514674,0.0949101,0.6614853,0.042577494,-0.074520595,-0.18382978,0.096666284,762.74725,786.9231,817.1429,773.22345,790.14655,-0.1085205078125,0.083740234375,1.00213623046875,-0.657958984375,0.28411865234375,-2.205657958984375,1,1.0,1.0,1.0,1.0,10.00
2024-10-11 20:20:12.398,0.8707309,0.16359295,0.38261497,0.86060774,0.5016561,0.0077959504,0.2030256,0.76026165,1.2005516,0.19310513,0.19651963,0.7226373,0.5587422,0.17514674,0.0949101,0.6614853,0.042577494,-0.074520595,-0.18382978,0.096666284,764.35895,788.5348,807.47253,765.9707,977.9121,-0.1085205078125,0.083740234375,1.00213623046875,-0.657958984375,0.28411865234375,-2.205657958984375,1,1.0,1.0,1.0,1.0,10.00
2024-10-11 20:20:12.399,0.8707309,0.16359295,0.38261497,0.86060774,0.5016561,0.0077959504,0.2030256,0.76026165,1.2005516,0.19310513,0.19651963,0.7226373,0.5587422,0.17514674,0.0949101,0.6614853,0.042577494,-0.074520595,-0.18382978,0.096666284,748.6447,794.9817,799.81683,753.0769,984.35895,-0.1085205078125,0.083740234375,1.00213623046875,-0.657958984375,0.28411865234375,-2.205657958984375,1,1.0,1.0,1.0,1.0,10.00
2024-10-11 20:20:12.400,0.8707309,0.16359295,0.38261497,0.86060774,0.5016561,0.0077959504,0.2030256,0.76026165,1.2005516,0.19310513,0.19651963,0.7226373,0.5587422,0.17514674,0.0949101,0.6614853,0.042577494,-0.074520595,-0.18382978,0.096666284,752.674,795.38464,805.4579,766.3736,766.77655,-0.1085205078125,0.083740234375,1.00213623046875,-0.657958984375,0.28411865234375,-2.205657958984375,1,1.0,1.0,1.0,1.0,10.00
2024-10-11 20:20:12.400,0.8707309,0.16359295,0.38261497,0.86060774,0.5016561,0.0077959504,0.2030256,0.76026165,1.2005516,0.19310513,0.19651963,0.7226373,0.5587422,0.17514674,0.0949101,0.6614853,0.042577494,-0.074520595,-0.18382978,0.096666284,783.69965,786.52014,801.8315,788.93774,660.40295,-0.1085205078125,0.083740234375,1.00213623046875,-0.657958984375,0.28411865234375,-2.205657958984375,1,1.0,1.0,1.0,1.0,10.00
2024-10-11 20:20:12.401,0.8707309,0.16359295,0.38261497,0.86060774,0.5016561,0.0077959504,0.2030256,0.76026165,1.2005516,0.19310513,0.19651963,0.7226373,0.5587422,0.17514674,0.0949101,0.6614853,0.042577494,-0.074520595,-0.18382978,0.096666284,788.93774,790.9524,799.81683,790.14655,869.92676,-0.1085205078125,0.083740234375,1.00213623046875,-0.657958984375,0.28411865234375,-2.205657958984375,1,1.0,1.0,1.0,1.0,10.00
2024-10-11 20:20:12.401,0.8707309,0.16359295,0.38261497,0.86060774,0.5016561,0.0077959504,0.2030256,0.76026165,1.2005516,0.19310513,0.19651963,0.7226373,0.5587422,0.17514674,0.0949101,0.6614853,0.042577494,-0.074520595,-0.18382978,0.096666284,776.04395,792.1612,802.6374,789.7436,1303.4799,-0.1085205078125,0.083740234375,1.00213623046875,-0.657958984375,0.28411865234375,-2.205657958984375,1,1.0,1.0,1.0,1.0,10.00
2024-10-11 20:20:12.492,0.8707309,0.16359295,0.38261497,0.86060774,0.5016561,0.0077959504,0.2030256,0.76026165,1.2005516,0.19310513,0.19651963,0.7226373,0.5587422,0.17514674,0.0949101,0.6614853,0.042577494,-0.074520595,-0.18382978,0.096666284,780.07324,798.20514,802.23444,788.93774,910.2198,-0.1143798828125,0.0841064453125,0.99981689453125,-1.495361328125,0.059814453125,-1.435546875,1,1.0,1.0,1.0,1.0,10.00
2024-10-11 20:20:12.493,0.8707309,0.16359295,0.38261497,0.86060774,0.5016561,0.0077959504,0.2030256,0.76026165,1.2005516,0.19310513,0.19651963,0.7226373,0.5587422,0.17514674,0.0949101,0.6614853,0.042577494,-0.074520595,-0.18382978,0.096666284,793.7729,794.57874,813.1135,789.34064,553.22345,-0.1143798828125,0.0841064453125,0.99981689453125,-1.495361328125,0.059814453125,-1.435546875,1,1.0,1.0,1.0,1.0,10.00
2024-10-11 20:20:12.494,0.8707309,0.16359295,0.38261497,0.86060774,0.5016561,0.0077959504,0.2030256,0.76026165,1.2005516,0.19310513,0.19651963,0.7226373,0.5587422,0.17514674,0.0949101,0.6614853,0.042577494,-0.074520595,-0.18382978,0.096666284,789.7436,792.1612,814.3223,797.8022,847.3626,-0.1143798828125,0.0841064453125,0.99981689453125,-1.495361328125,0.059814453125,-1.435546875,1,1.0,1.0,1.0,1.0,10.00
2024-10-11 20:20:12.494,0.8707309,0.16359295,0.38261497,0.86060774,0.5016561,0.0077959504,0.2030256,0.76026165,1.2005516,0.19310513,0.19651963,0.7226373,0.5587422,0.17514674,0.0949101,0.6614853,0.042577494,-0.074520595,-0.18382978,0.096666284,792.96704,792.5641,814.3223,804.2491,847.76556,-0.1143798828125,0.0841064453125,0.99981689453125,-1.495361328125,0.059814453125,-1.435546875,1,1.0,1.0,1.0,1.0,10.00
2024-10-11 20:20:12.495,0.8707309,0.16359295,0.38261497,0.86060774,0.5016561,0.0077959504,0.2030256,0.76026165,1.2005516,0.19310513,0.19651963,0.7226373,0.5587422,0.17514674,0.0949101,0.6614853,0.042577494,-0.074520595,-0.18382978,0.096666284,809.0842,792.96704,819.15753,807.0696,628.97437,-0.1143798828125,0.0841064453125,0.99981689453125,-1.495361328125,0.059814453125,-1.435546875,1,1.0,1.0,1.0,1.0,10.00
2024-10-11 20:20:12.496,0.89478195,0.19336124,0.40555087,0.86060774,0.523509,0.048946492,0.21521285,0.76026165,1.1884255,0.23441023,0.19651963,0.7226373,0.5729642,0.19137344,0.10222681,0.6614853,0.055059657,-0.07121773,-0.16270968,0.096666284,818.3516,784.5055,803.44324,808.68134,654.35895,-0.1143798828125,0.0841064453125,0.99981689453125,-1.495361328125,0.059814453125,-1.435546875,1,1.0,1.0,1.0,1.0,10.00
2024-10-11 20:20:12.501,0.89478195,0.19336124,0.40555087,0.86060774,0.523509,0.048946492,0.21521285,0.76026165,1.1884255,0.23441023,0.19651963,0.7226373,0.5729642,0.19137344,0.10222681,0.6614853,0.055059657,-0.07121773,-0.16270968,0.096666284,815.5311,785.7143,802.23444,808.2784,965.82416,-0.1143798828125,0.0841064453125,0.99981689453125,-1.495361328125,0.059814453125,-1.435546875,1,1.0,1.0,1.0,1.0,10.00
2024-10-11 20:20:12.501,0.89478195,0.19336124,0.40555087,0.86060774,0.523509,0.048946492,0.21521285,0.76026165,1.1884255,0.23441023,0.19651963,0.7226373,0.5729642,0.19137344,0.10222681,0.6614853,0.055059657,-0.07121773,-0.16270968,0.096666284,804.2491,799.81683,799.81683,805.05493,938.022,-0.1143798828125,0.0841064453125,0.99981689453125,-1.495361328125,0.059814453125,-1.435546875,1,1.0,1.0,1.0,1.0,10.00
2024-10-11 20:20:12.502,0.89478195,0.19336124,0.40555087,0.86060774,0.523509,0.048946492,0.21521285,0.76026165,1.1884255,0.23441023,0.19651963,0.7226373,0.5729642,0.19137344,0.10222681,0.6614853,0.055059657,-0.07121773,-0.16270968,0.096666284,804.2491,796.99634,792.5641,803.8461,620.5128,-0.1143798828125,0.0841064453125,0.99981689453125,-1.495361328125,0.059814453125,-1.435546875,1,1.0,1.0,1.0,1.0,10.00
2024-10-11 20:20:12.502,0.89478195,0.19336124,0.40555087,0.86060774,0.523509,0.048946492,0.21521285,0.76026165,1.1884255,0.23441023,0.19651963,0.7226373,0.5729642,0.19137344,0.10222681,0.6614853,0.055059657,-0.07121773,-0.16270968,0.096666284,814.7253,798.20514,800.6227,803.44324,643.47986,-0.1143798828125,0.0841064453125,0.99981689453125,-1.495361328125,0.059814453125,-1.435546875,1,1.0,1.0,1.0,1.0,10.00
2024-10-11 20:20:12.503,0.89478195,0.19336124,0.40555087,0.86060774,0.523509,0.048946492,0.21521285,0.76026165,1.1884255,0.23441023,0.19651963,0.7226373,0.5729642,0.19137344,0.10222681,0.6614853,0.055059657,-0.07121773,-0.16270968,0.096666284,819.15753,800.6227,808.2784,815.5311,912.6374,-0.1143798828125,0.0841064453125,0.99981689453125,-1.495361328125,0.059814453125,-1.435546875,1,1.0,1.0,1.0,1.0,10.00
2024-10-11 20:20:12.503,0.89478195,0.19336124,0.40555087,0.86060774,0.523509,0.048946492,0.21521285,0.76026165,1.1884255,0.23441023,0.19651963,0.7226373,0.5729642,0.19137344,0.10222681,0.6614853,0.055059657,-0.07121773,-0.16270968,0.096666284,814.7253,795.38464,819.15753,820.3663,888.0586,-0.1143798828125,0.0841064453125,0.99981689453125,-1.495361328125,0.059814453125,-1.435546875,1,1.0,1.0,1.0,1.0,10.00
2024-10-11 20:20:12.504,0.89478195,0.19336124,0.40555087,0.86060774,0.523509,0.048946492,0.21521285,0.76026165,1.1884255,0.23441023,0.19651963,0.7226373,0.5729642,0.19137344,0.10222681,0.6614853,0.055059657,-0.07121773,-0.16270968,0.096666284,807.8755,799.011,817.9487,812.71063,721.6484,-0.133544921875,0.08990478515625,1.0152587890625,-4.269256591796875,-0.665435791015625,-5.271148681640625,1,1.0,1.0,1.0,1.0,10.00
2024-10-11 20:20:12.505,0.89478195,0.19336124,0.40555087,0.86060774,0.523509,0.048946492,0.21521285,0.76026165,1.1884255,0.23441023,0.19651963,0.7226373,0.5729642,0.19137344,0.10222681,0.6614853,0.055059657,-0.07121773,-0.16270968,0.096666284,811.50183,790.9524,799.81683,814.7253,716.8132,-0.133544921875,0.08990478515625,1.0152587890625,-4.269256591796875,-0.665435791015625,-5.271148681640625,1,1.0,1.0,1.0,1.0,10.00
2024-10-11 20:20:12.506,0.89478195,0.19336124,0.40555087,0.86060774,0.523509,0.048946492,0.21521285,0.76026165,1.1884255,0.23441023,0.19651963,0.7226373,0.5729642,0.19137344,0.10222681,0.6614853,0.055059657,-0.07121773,-0.16270968,0.096666284,819.5604,788.93774,798.60803,822.381,1041.1721,-0.133544921875,0.08990478515625,1.0152587890625,-4.269256591796875,-0.665435791015625,-5.271148681640625,1,1.0,1.0,1.0,1.0,10.00
2024-10-11 20:20:12.506,0.89478195,0.19336124,0.40555087,0.86060774,0.523509,0.048946492,0.21521285,0.76026165,1.1884255,0.23441023,0.19651963,0.7226373,0.5729642,0.19137344,0.10222681,0.6614853,0.055059657,-0.07121773,-0.16270968,0.096666284,823.9927,804.65204,798.20514,818.7546,932.381,-0.133544921875,0.08990478515625,1.0152587890625,-4.269256591796875,-0.665435791015625,-5.271148681640625,1,1.0,1.0,1.0,1.0,10.00
2024-10-11 20:20:12.507,0.89478195,0.19336124,0.40555087,0.86060774,0.523509,0.048946492,0.21521285,0.76026165,1.1884255,0.23441023,0.19651963,0.7226373,0.5729642,0.19137344,0.10222681,0.6614853,0.055059657,-0.07121773,-0.16270968,0.096666284,825.2015,794.17584,799.41394,813.91943,643.8828,-0.133544921875,0.08990478515625,1.0152587890625,-4.269256591796875,-0.665435791015625,-5.271148681640625,1,1.0,1.0,1.0,1.0,10.00
2024-10-11 20:20:12.508,0.89478195,0.19336124,0.40555087,0.86060774,0.523509,0.048946492,0.21521285,0.76026165,1.1884255,0.23441023,0.19651963,0.7226373,0.5729642,0.19137344,0.10222681,0.6614853,0.055059657,-0.07121773,-0.16270968,0.096666284,814.3223,785.7143,802.23444,812.3077,796.1905,-0.133544921875,0.08990478515625,1.0152587890625,-4.269256591796875,-0.665435791015625,-5.271148681640625,1,1.0,1.0,1.0,1.0,10.00
2024-10-11 20:20:12.508,0.89478195,0.19336124,0.40555087,0.86060774,0.523509,0.048946492,0.21521285,0.76026165,1.1884255,0.23441023,0.19651963,0.7226373,0.5729642,0.19137344,0.10222681,0.6614853,0.055059657,-0.07121773,-0.16270968,0.096666284,805.05493,783.2967,800.6227,819.9634,949.707,-0.133544921875,0.08990478515625,1.0152587890625,-4.269256591796875,-0.665435791015625,-5.271148681640625,1,1.0,1.0,1.0,1.0,10.00
2024-10-11 20:20:12.509,0.89478195,0.19336124,0.40555087,0.86060774,0.523509,0.048946492,0.21521285,0.76026165,1.1884255,0.23441023,0.19651963,0.7226373,0.5729642,0.19137344,0.10222681,0.6614853,0.055059657,-0.07121773,-0.16270968,0.096666284,803.0403,783.2967,807.8755,820.7692,851.79486,-0.133544921875,0.08990478515625,1.0152587890625,-4.269256591796875,-0.665435791015625,-5.271148681640625,1,1.0,1.0,1.0,1.0,10.00
2024-10-11 20:20:12.510,0.89478195,0.19336124,0.40555087,0.86060774,0.523509,0.048946492,0.21521285,0.76026165,1.1884255,0.23441023,0.19651963,0.7226373,0.5729642,0.19137344,0.10222681,0.6614853,0.055059657,-0.07121773,-0.16270968,0.096666284,801.4286,791.3553,811.50183,823.1868,701.0989,-0.133544921875,0.08990478515625,1.0152587890625,-4.269256591796875,-0.665435791015625,-5.271148681640625,1,1.0,1.0,1.0,1.0,10.00
2024-10-11 20:20:12.511,0.89478195,0.19336124,0.40555087,0.86060774,0.523509,0.048946492,0.21521285,0.76026165,1.1884255,0.23441023,0.19651963,0.7226373,0.5729642,0.19137344,0.10222681,0.6614853,0.055059657,-0.07121773,-0.16270968,0.096666284,815.12823,794.17584,811.0989,834.4689,711.1722,-0.133544921875,0.08990478515625,1.0152587890625,-4.269256591796875,-0.665435791015625,-5.271148681640625,1,1.0,1.0,1.0,1.0,10.00
2024-10-11 20:20:12.512,0.89478195,0.19336124,0.40555087,0.86060774,0.523509,0.048946492,0.21521285,0.76026165,1.1884255,0.23441023,0.19651963,0.7226373,0.5729642,0.19137344,0.10222681,0.6614853,0.055059657,-0.07121773,-0.16270968,0.096666284,821.978,797.8022,806.26373,832.8571,786.52014,-0.133544921875,0.08990478515625,1.0152587890625,-4.269256591796875,-0.665435791015625,-5.271148681640625,1,1.0,1.0,1.0,1.0,10.00
2024-10-11 20:20:12.512,0.89478195,0.19336124,0.40555087,0.86060774,0.523509,0.048946492,0.21521285,0.76026165,1.1884255,0.23441023,0.19651963,0.7226373,0.5729642,0.19137344,0.10222681,0.6614853,0.055059657,-0.07121773,-0.16270968,0.096666284,815.9341,798.60803,796.5934,825.2015,770.80585,-0.133544921875,0.08990478515625,1.0152587890625,-4.269256591796875,-0.665435791015625,-5.271148681640625,1,1.0,1.0,1.0,1.0,10.00
2024-10-11 20:20:12.547,0.89478195,0.19336124,0.40555087,0.86060774,0.523509,0.048946492,0.21521285,0.76026165,1.1884255,0.23441023,0.19651963,0.7226373,0.5729642,0.19137344,0.10222681,0.6614853,0.055059657,-0.07121773,-0.16270968,0.096666284,812.71063,797.3993,792.96704,819.15753,772.01465,-0.133544921875,0.08990478515625,1.0152587890625,-4.269256591796875,-0.665435791015625,-5.271148681640625,1,1.0,1.0,1.0,1.0,10.00
2024-10-11 20:20:12.549,0.89478195,0.19336124,0.40555087,0.86060774,0.523509,0.048946492,0.21521285,0.76026165,1.1884255,0.23441023,0.19651963,0.7226373,0.5729642,0.19137344,0.10222681,0.6614853,0.055059657,-0.07121773,-0.16270968,0.096666284,812.3077,800.2198,794.9817,820.3663,832.8571,-0.133544921875,0.08990478515625,1.0152587890625,-4.269256591796875,-0.665435791015625,-5.271148681640625,1,1.0,1.0,1.0,1.0,10.00
2024-10-11 20:20:12.550,0.89478195,0.19336124,0.40555087,0.86060774,0.523509,0.048946492,0.21521285,0.76026165,1.1884255,0.23441023,0.19651963,0.7226373,0.5729642,0.19137344,0.10222681,0.6614853,0.055059657,-0.07121773,-0.16270968,0.096666284,818.3516,799.81683,795.78754,822.7839,784.5055,-0.133544921875,0.08990478515625,1.0152587890625,-4.269256591796875,-0.665435791015625,-5.271148681640625,1,1.0,1.0,1.0,1.0,10.00
2024-10-11 20:20:12.552,0.89478195,0.19336124,0.40555087,0.86060774,0.523509,0.048946492,0.21521285,0.76026165,1.1884255,0.23441023,0.19651963,0.7226373,0.5729642,0.19137344,0.10222681,0.6614853,0.055059657,-0.07121773,-0.16270968,0.096666284,823.1868,801.8315,799.41394,820.7692,670.87915,-0.133544921875,0.08990478515625,1.0152587890625,-4.269256591796875,-0.665435791015625,-5.271148681640625,1,1.0,1.0,1.0,1.0,10.00
2024-10-11 20:20:12.553,0.89478195,0.19336124,0.40555087,0.86060774,0.523509,0.048946492,0.21521285,0.76026165,1.1884255,0.23441023,0.19651963,0.7226373,0.5729642,0.19137344,0.10222681,0.6614853,0.055059657,-0.07121773,-0.16270968,0.096666284,829.2308,795.38464,805.8608,824.7985,743.4066,-0.133544921875,0.08990478515625,1.0152587890625,-4.269256591796875,-0.665435791015625,-5.271148681640625,1,1.0,1.0,1.0,1.0,10.00
2024-10-11 20:20:12.553,0.89478195,0.19336124,0.40555087,0.86060774,0.523509,0.048946492,0.21521285,0.76026165,1.1884255,0.23441023,0.19651963,0.7226373,0.5729642,0.19137344,0.10222681,0.6614853,0.055059657,-0.07121773,-0.16270968,0.096666284,825.2015,789.34064,799.41394,817.9487,965.42126,-0.133544921875,0.08990478515625,1.0152587890625,-4.269256591796875,-0.665435791015625,-5.271148681640625,1,1.0,1.0,1.0,1.0,10.00
2024-10-11 20:20:12.554,0.89478195,0.19336124,0.40555087,0.86060774,0.523509,0.048946492,0.21521285,0.76026165,1.1884255,0.23441023,0.19651963,0.7226373,0.5729642,0.19137344,0.10222681,0.6614853,0.055059657,-0.07121773,-0.16270968,0.096666284,825.6044,794.17584,792.5641,813.5165,937.619,-0.133544921875,0.08990478515625,1.0152587890625,-4.269256591796875,-0.665435791015625,-5.271148681640625,1,1.0,1.0,1.0,1.0,10.00
2024-10-11 20:20:12,,,,,,,,,,,,,,,,,,,,,,,,,,,,,,,,,,,,,,/muse/elements/blink
2024-10-11 20:20:12.555,0.92215216,0.2650169,0.45445678,0.88598317,0.54823965,0.12924978,0.22005302,0.78783286,1.1728191,0.29516396,0.19651963,0.7226373,0.5866682,0.21608953,0.10889425,0.6787707,0.067488715,-0.058928445,-0.14153482,0.10584379,821.978,797.3993,801.8315,812.71063,832.4542,-0.133544921875,0.08990478515625,1.0152587890625,-4.269256591796875,-0.665435791015625,-5.271148681640625,1,1.0,1.0,1.0,1.0,10.00
2024-10-11 20:20:12.561,0.92215216,0.2650169,0.45445678,0.88598317,0.54823965,0.12924978,0.22005302,0.78783286,1.1728191,0.29516396,0.19651963,0.7226373,0.5866682,0.21608953,0.10889425,0.6787707,0.067488715,-0.058928445,-0.14153482,0.10584379,827.619,798.20514,805.05493,816.337,861.8681,-0.133544921875,0.08990478515625,1.0152587890625,-4.269256591796875,-0.665435791015625,-5.271148681640625,1,1.0,1.0,1.0,1.0,10.00
2024-10-11 20:20:12.562,0.92215216,0.2650169,0.45445678,0.88598317,0.54823965,0.12924978,0.22005302,0.78783286,1.1728191,0.29516396,0.19651963,0.7226373,0.5866682,0.21608953,0.10889425,0.6787707,0.067488715,-0.058928445,-0.14153482,0.10584379,834.87177,791.75824,803.44324,830.0366,923.91943,-0.133544921875,0.08990478515625,1.0152587890625,-4.269256591796875,-0.665435791015625,-5.271148681640625,1,1.0,1.0,1.0,1.0,10.00
2024-10-11 20:20:12.563,0.92215216,0.2650169,0.45445678,0.88598317,0.54823965,0.12924978,0.22005302,0.78783286,1.1728191,0.29516396,0.19651963,0.7226373,0.5866682,0.21608953,0.10889425,0.6787707,0.067488715,-0.058928445,-0.14153482,0.10584379,831.2454,798.60803,804.2491,836.4835,773.6264,-0.133544921875,0.08990478515625,1.0152587890625,-4.269256591796875,-0.665435791015625,-5.271148681640625,1,1.0,1.0,1.0,1.0,10.00
2024-10-11 20:20:12.563,0.92215216,0.2650169,0.45445678,0.88598317,0.54823965,0.12924978,0.22005302,0.78783286,1.1728191,0.29516396,0.19651963,0.7226373,0.5866682,0.21608953,0.10889425,0.6787707,0.067488715,-0.058928445,-0.14153482,0.10584379,825.2015,801.02563,800.6227,830.4396,702.71063,-0.133544921875,0.08990478515625,1.0152587890625,-4.269256591796875,-0.665435791015625,-5.271148681640625,1,1.0,1.0,1.0,1.0,10.00
2024-10-11 20:20:12.617,0.92215216,0.2650169,0.45445678,0.88598317,0.54823965,0.12924978,0.22005302,0.78783286,1.1728191,0.29516396,0.19651963,0.7226373,0.5866682,0.21608953,0.10889425,0.6787707,0.067488715,-0.058928445,-0.14153482,0.10584379,826.8132,797.3993,803.0403,826.8132,840.5128,-0.12347412109375,0.0771484375,1.01513671875,-8.9422607421875,0.994415283203125,-11.073150634765625,1,1.0,1.0,1.0,1.0,10.00
2024-10-11 20:20:12.618,0.92215216,0.2650169,0.45445678,0.88598317,0.54823965,0.12924978,0.22005302,0.78783286,1.1728191,0.29516396,0.19651963,0.7226373,0.5866682,0.21608953,0.10889425,0.6787707,0.067488715,-0.058928445,-0.14153482,0.10584379,821.1722,796.1905,807.0696,838.0952,1159.6337,-0.12347412109375,0.0771484375,1.01513671875,-8.9422607421875,0.994415283203125,-11.073150634765625,1,1.0,1.0,1.0,1.0,10.00
2024-10-11 20:20:12.619,0.92215216,0.2650169,0.45445678,0.88598317,0.54823965,0.12924978,0.22005302,0.78783286,1.1728191,0.29516396,0.19651963,0.7226373,0.5866682,0.21608953,0.10889425,0.6787707,0.067488715,-0.058928445,-0.14153482,0.10584379,818.7546,795.38464,805.05493,842.1245,1278.0952,-0.12347412109375,0.0771484375,1.01513671875,-8.9422607421875,0.994415283203125,-11.073150634765625,1,1.0,1.0,1.0,1.0,10.00
2024-10-11 20:20:12.620,0.92215216,0.2650169,0.45445678,0.88598317,0.54823965,0.12924978,0.22005302,0.78783286,1.1728191,0.29516396,0.19651963,0.7226373,0.5866682,0.21608953,0.10889425,0.6787707,0.067488715,-0.058928445,-0.14153482,0.10584379,823.9927,800.2198,799.011,827.2161,825.2015,-0.12347412109375,0.0771484375,1.01513671875,-8.9422607421875,0.994415283203125,-11.073150634765625,1,1.0,1.0,1.0,1.0,10.00
2024-10-11 20:20:12.620,0.92215216,0.2650169,0.45445678,0.88598317,0.54823965,0.12924978,0.22005302,0.78783286,1.1728191,0.29516396,0.19651963,0.7226373,0.5866682,0.21608953,0.10889425,0.6787707,0.067488715,-0.058928445,-0.14153482,0.10584379,827.619,792.5641,801.02563,831.6484,721.2454,-0.12347412109375,0.0771484375,1.01513671875,-8.9422607421875,0.994415283203125,-11.073150634765625,1,1.0,1.0,1.0,1.0,10.00
2024-10-11 20:20:12.621,0.92215216,0.2650169,0.45445678,0.88598317,0.54823965,0.12924978,0.22005302,0.78783286,1.1728191,0.29516396,0.19651963,0.7226373,0.5866682,0.21608953,0.10889425,0.6787707,0.067488715,-0.058928445,-0.14153482,0.10584379,827.619,789.7436,800.2198,833.2601,954.1392,-0.12347412109375,0.0771484375,1.01513671875,-8.9422607421875,0.994415283203125,-11.073150634765625,1,1.0,1.0,1.0,1.0,10.00
2024-10-11 20:20:12.622,0.92215216,0.2650169,0.45445678,0.88598317,0.54823965,0.12924978,0.22005302,0.78783286,1.1728191,0.29516396,0.19651963,0.7226373,0.5866682,0.21608953,0.10889425,0.6787707,0.067488715,-0.058928445,-0.14153482,0.10584379,832.4542,794.9817,799.41394,827.2161,740.58606,-0.12347412109375,0.0771484375,1.01513671875,-8.9422607421875,0.994415283203125,-11.073150634765625,1,1.0,1.0,1.0,1.0,10.00
2024-10-11 20:20:12.622,0.92215216,0.2650169,0.45445678,0.88598317,0.54823965,0.12924978,0.22005302,0.78783286,1.1728191,0.29516396,0.19651963,0.7226373,0.5866682,0.21608953,0.10889425,0.6787707,0.067488715,-0.058928445,-0.14153482,0.10584379,838.9011,799.41394,795.78754,829.2308,573.7729,-0.12347412109375,0.0771484375,1.01513671875,-8.9422607421875,0.994415283203125,-11.073150634765625,1,1.0,1.0,1.0,1.0,10.00
2024-10-11 20:20:12.623,0.92215216,0.2650169,0.45445678,0.88598317,0.54823965,0.12924978,0.22005302,0.78783286,1.1728191,0.29516396,0.19651963,0.7226373,0.5866682,0.21608953,0.10889425,0.6787707,0.067488715,-0.058928445,-0.14153482,0.10584379,839.707,802.23444,794.9817,832.0513,840.5128,-0.12347412109375,0.0771484375,1.01513671875,-8.9422607421875,0.994415283203125,-11.073150634765625,1,1.0,1.0,1.0,1.0,10.00
2024-10-11 20:20:12.624,0.92215216,0.2650169,0.45445678,0.88598317,0.54823965,0.12924978,0.22005302,0.78783286,1.1728191,0.29516396,0.19651963,0.7226373,0.5866682,0.21608953,0.10889425,0.6787707,0.067488715,-0.058928445,-0.14153482,0.10584379,832.8571,811.0989,803.44324,834.0659,948.49817,-0.12347412109375,0.0771484375,1.01513671875,-8.9422607421875,0.994415283203125,-11.073150634765625,1,1.0,1.0,1.0,1.0,10.00
2024-10-11 20:20:12.624,0.92215216,0.2650169,0.45445678,0.88598317,0.54823965,0.12924978,0.22005302,0.78783286,1.1728191,0.29516396,0.19651963,0.7226373,0.5866682,0.21608953,0.10889425,0.6787707,0.067488715,-0.058928445,-0.14153482,0.10584379,824.7985,808.2784,798.20514,830.0366,784.5055,-0.12347412109375,0.0771484375,1.01513671875,-8.9422607421875,0.994415283203125,-11.073150634765625,1,1.0,1.0,1.0,1.0,10.00
2024-10-11 20:20:12.625,0.92215216,0.2650169,0.45445678,0.88598317,0.54823965,0.12924978,0.22005302,0.78783286,1.1728191,0.29516396,0.19651963,0.7226373,0.5866682,0.21608953,0.10889425,0.6787707,0.067488715,-0.058928445,-0.14153482,0.10584379,823.9927,796.99634,794.9817,831.6484,670.4762,-0.12347412109375,0.0771484375,1.01513671875,-8.9422607421875,0.994415283203125,-11.073150634765625,1,1.0,1.0,1.0,1.0,10.00
2024-10-11 20:20:12.626,0.92215216,0.2650169,0.45445678,0.88598317,0.54823965,0.12924978,0.22005302,0.78783286,1.1728191,0.29516396,0.19651963,0.7226373,0.5866682,0.21608953,0.10889425,0.6787707,0.067488715,-0.058928445,-0.14153482,0.10584379,826.0073,801.4286,803.0403,837.28937,714.7985,-0.13055419921875,0.04034423828125,0.9970703125,-12.78533935546875,1.136474609375,-13.166656494140625,1,1.0,1.0,1.0,1.0,10.00
2024-10-11 20:20:12.627,0.92215216,0.2650169,0.45445678,0.88598317,0.54823965,0.12924978,0.22005302,0.78783286,1.1728191,0.29516396,0.19651963,0.7226373,0.5866682,0.21608953,0.10889425,0.6787707,0.067488715,-0.058928445,-0.14153482,0.10584379,825.6044,792.96704,803.8461,830.84247,784.5055,-0.13055419921875,0.04034423828125,0.9970703125,-12.78533935546875,1.136474609375,-13.166656494140625,1,1.0,1.0,1.0,1.0,10.00
2024-10-11 20:20:12.627,0.92215216,0.2650169,0.45445678,0.88598317,0.54823965,0.12924978,0.22005302,0.78783286,1.1728191,0.29516396,0.19651963,0.7226373,0.5866682,0.21608953,0.10889425,0.6787707,0.067488715,-0.058928445,-0.14153482,0.10584379,823.9927,788.1319,797.3993,817.9487,741.79486,-0.13055419921875,0.04034423828125,0.9970703125,-12.78533935546875,1.136474609375,-13.166656494140625,1,1.0,1.0,1.0,1.0,10.00
2024-10-11 20:20:12.628,0.92215216,0.2650169,0.45445678,0.88598317,0.54823965,0.12924978,0.22005302,0.78783286,1.1728191,0.29516396,0.19651963,0.7226373,0.5866682,0.21608953,0.10889425,0.6787707,0.067488715,-0.058928445,-0.14153482,0.10584379,816.7399,800.2198,796.1905,815.12823,647.9121,-0.13055419921875,0.04034423828125,0.9970703125,-12.78533935546875,1.136474609375,-13.166656494140625,1,1.0,1.0,1.0,1.0,10.00
2024-10-11 20:20:12.629,0.92215216,0.2650169,0.45445678,0.88598317,0.54823965,0.12924978,0.22005302,0.78783286,1.1728191,0.29516396,0.19651963,0.7226373,0.5866682,0.21608953,0.10889425,0.6787707,0.067488715,-0.058928445,-0.14153482,0.10584379,823.9927,804.2491,797.3993,830.4396,872.74725,-0.13055419921875,0.04034423828125,0.9970703125,-12.78533935546875,1.136474609375,-13.166656494140625,1,1.0,1.0,1.0,1.0,10.00
2024-10-11 20:20:12.629,0.92215216,0.2650169,0.45445678,0.88598317,0.54823965,0.12924978,0.22005302,0.78783286,1.1728191,0.29516396,0.19651963,0.7226373,0.5866682,0.21608953,0.10889425,0.6787707,0.067488715,-0.058928445,-0.14153482,0.10584379,826.4103,799.81683,794.9817,836.08057,1178.5714,-0.13055419921875,0.04034423828125,0.9970703125,-12.78533935546875,1.136474609375,-13.166656494140625,1,1.0,1.0,1.0,1.0,10.00
2024-10-11 20:20:12.630,0.92215216,0.2650169,0.45445678,0.88598317,0.54823965,0.12924978,0.22005302,0.78783286,1.1728191,0.29516396,0.19651963,0.7226373,0.5866682,0.21608953,0.10889425,0.6787707,0.067488715,-0.058928445,-0.14153482,0.10584379,819.9634,797.3993,794.17584,828.8278,1002.8938,-0.13055419921875,0.04034423828125,0.9970703125,-12.78533935546875,1.136474609375,-13.166656494140625,1,1.0,1.0,1.0,1.0,10.00
2024-10-11 20:20:12.631,0.92215216,0.2650169,0.45445678,0.88598317,0.54823965,0.12924978,0.22005302,0.78783286,1.1728191,0.29516396,0.19651963,0.7226373,0.5866682,0.21608953,0.10889425,0.6787707,0.067488715,-0.058928445,-0.14153482,0.10584379,821.1722,798.20514,796.99634,828.8278,826.8132,-0.13055419921875,0.04034423828125,0.9970703125,-12.78533935546875,1.136474609375,-13.166656494140625,1,1.0,1.0,1.0,1.0,10.00
2024-10-11 20:20:12.632,0.92215216,0.2650169,0.45445678,0.88598317,0.54823965,0.12924978,0.22005302,0.78783286,1.1728191,0.29516396,0.19651963,0.7226373,0.5866682,0.21608953,0.10889425,0.6787707,0.067488715,-0.058928445,-0.14153482,0.10584379,822.381,793.7729,802.6374,831.6484,933.9927,-0.13055419921875,0.04034423828125,0.9970703125,-12.78533935546875,1.136474609375,-13.166656494140625,1,1.0,1.0,1.0,1.0,10.00
2024-10-11 20:20:12.632,0.9510186,0.37872514,0.51605207,0.9149081,0.5740599,0.24839577,0.21387827,0.8168083,1.1478219,0.3440992,0.19651963,0.7226373,0.60097384,0.24478547,0.12270298,0.69901145,0.07918599,-0.04338851,-0.122924656,0.12090016,819.9634,799.011,803.0403,827.2161,987.5824,-0.13055419921875,0.04034423828125,0.9970703125,-12.78533935546875,1.136474609375,-13.166656494140625,1,1.0,1.0,1.0,1.0,10.00
2024-10-11 20:20:12.638,0.9510186,0.37872514,0.51605207,0.9149081,0.5740599,0.24839577,0.21387827,0.8168083,1.1478219,0.3440992,0.19651963,0.7226373,0.60097384,0.24478547,0.12270298,0.69901145,0.07918599,-0.04338851,-0.122924656,0.12090016,812.3077,803.8461,798.60803,816.7399,933.5897,-0.13055419921875,0.04034423828125,0.9970703125,-12.78533935546875,1.136474609375,-13.166656494140625,1,1.0,1.0,1.0,1.0,10.00
2024-10-11 20:20:12.639,0.9510186,0.37872514,0.51605207,0.9149081,0.5740599,0.24839577,0.21387827,0.8168083,1.1478219,0.3440992,0.19651963,0.7226373,0.60097384,0.24478547,0.12270298,0.69901145,0.07918599,-0.04338851,-0.122924656,0.12090016,817.1429,794.17584,798.60803,821.5751,921.50183,-0.13055419921875,0.04034423828125,0.9970703125,-12.78533935546875,1.136474609375,-13.166656494140625,1,1.0,1.0,1.0,1.0,10.00
2024-10-11 20:20:12.667,0.9510186,0.37872514,0.51605207,0.9149081,0.5740599,0.24839577,0.21387827,0.8168083,1.1478219,0.3440992,0.19651963,0.7226373,0.60097384,0.24478547,0.12270298,0.69901145,0.07918599,-0.04338851,-0.122924656,0.12090016,821.5751,789.34064,800.6227,828.4249,1048.022,-0.13287353515625,0.0166015625,0.99066162109375,-11.476898193359375,0.91217041015625,-15.095672607421875,1,1.0,1.0,1.0,1.0,10.00
2024-10-11 20:20:12.668,0.9510186,0.37872514,0.51605207,0.9149081,0.5740599,0.24839577,0.21387827,0.8168083,1.1478219,0.3440992,0.19651963,0.7226373,0.60097384,0.24478547,0.12270298,0.69901145,0.07918599,-0.04338851,-0.122924656,0.12090016,818.3516,794.17584,799.41394,821.978,1027.8755,-0.13287353515625,0.0166015625,0.99066162109375,-11.476898193359375,0.91217041015625,-15.095672607421875,1,1.0,1.0,1.0,1.0,10.00
2024-10-11 20:20:12.669,0.9510186,0.37872514,0.51605207,0.9149081,0.5740599,0.24839577,0.21387827,0.8168083,1.1478219,0.3440992,0.19651963,0.7226373,0.60097384,0.24478547,0.12270298,0.69901145,0.07918599,-0.04338851,-0.122924656,0.12090016,817.9487,793.7729,801.8315,817.1429,743.8095,-0.13287353515625,0.0166015625,0.99066162109375,-11.476898193359375,0.91217041015625,-15.095672607421875,1,1.0,1.0,1.0,1.0,10.00
2024-10-11 20:20:12.669,0.9510186,0.37872514,0.51605207,0.9149081,0.5740599,0.24839577,0.21387827,0.8168083,1.1478219,0.3440992,0.19651963,0.7226373,0.60097384,0.24478547,0.12270298,0.69901145,0.07918599,-0.04338851,-0.122924656,0.12090016,819.5604,793.36993,801.8315,815.9341,657.5824,-0.13287353515625,0.0166015625,0.99066162109375,-11.476898193359375,0.91217041015625,-15.095672607421875,1,1.0,1.0,1.0,1.0,10.00
2024-10-11 20:20:12.670,0.9510186,0.37872514,0.51605207,0.9149081,0.5740599,0.24839577,0.21387827,0.8168083,1.1478219,0.3440992,0.19651963,0.7226373,0.60097384,0.24478547,0.12270298,0.69901145,0.07918599,-0.04338851,-0.122924656,0.12090016,824.7985,800.6227,796.1905,815.5311,786.52014,-0.13287353515625,0.0166015625,0.99066162109375,-11.476898193359375,0.91217041015625,-15.095672607421875,1,1.0,1.0,1.0,1.0,10.00
2024-10-11 20:20:12.671,0.9510186,0.37872514,0.51605207,0.9149081,0.5740599,0.24839577,0.21387827,0.8168083,1.1478219,0.3440992,0.19651963,0.7226373,0.60097384,0.24478547,0.12270298,0.69901145,0.07918599,-0.04338851,-0.122924656,0.12090016,815.12823,803.8461,801.4286,815.9341,880.80585,-0.13287353515625,0.0166015625,0.99066162109375,-11.476898193359375,0.91217041015625,-15.095672607421875,1,1.0,1.0,1.0,1.0,10.00
2024-10-11 20:20:12.671,0.9510186,0.37872514,0.51605207,0.9149081,0.5740599,0.24839577,0.21387827,0.8168083,1.1478219,0.3440992,0.19651963,0.7226373,0.60097384,0.24478547,0.12270298,0.69901145,0.07918599,-0.04338851,-0.122924656,0.12090016,812.71063,799.011,796.5934,815.9341,874.35895,-0.13287353515625,0.0166015625,0.99066162109375,-11.476898193359375,0.91217041015625,-15.095672607421875,1,1.0,1.0,1.0,1.0,10.00
2024-10-11 20:20:12.672,0.9510186,0.37872514,0.51605207,0.9149081,0.5740599,0.24839577,0.21387827,0.8168083,1.1478219,0.3440992,0.19651963,0.7226373,0.60097384,0.24478547,0.12270298,0.69901145,0.07918599,-0.04338851,-0.122924656,0.12090016,820.7692,788.93774,795.38464,820.7692,848.1685,-0.13287353515625,0.0166015625,0.99066162109375,-11.476898193359375,0.91217041015625,-15.095672607421875,1,1.0,1.0,1.0,1.0,10.00
2024-10-11 20:20:12.673,0.9510186,0.37872514,0.51605207,0.9149081,0.5740599,0.24839577,0.21387827,0.8168083,1.1478219,0.3440992,0.19651963,0.7226373,0.60097384,0.24478547,0.12270298,0.69901145,0.07918599,-0.04338851,-0.122924656,0.12090016,819.5604,789.34064,800.6227,827.2161,1005.31134,-0.13287353515625,0.0166015625,0.99066162109375,-11.476898193359375,0.91217041015625,-15.095672607421875,1,1.0,1.0,1.0,1.0,10.00
2024-10-11 20:20:12.673,0.9510186,0.37872514,0.51605207,0.9149081,0.5740599,0.24839577,0.21387827,0.8168083,1.1478219,0.3440992,0.19651963,0.7226373,0.60097384,0.24478547,0.12270298,0.69901145,0.07918599,-0.04338851,-0.122924656,0.12090016,819.9634,799.41394,800.6227,822.381,751.4652,-0.13287353515625,0.0166015625,0.99066162109375,-11.476898193359375,0.91217041015625,-15.095672607421875,1,1.0,1.0,1.0,1.0,10.00
2024-10-11 20:20:12.674,0.9510186,0.37872514,0.51605207,0.9149081,0.5740599,0.24839577,0.21387827,0.8168083,1.1478219,0.3440992,0.19651963,0.7226373,0.60097384,0.24478547,0.12270298,0.69901145,0.07918599,-0.04338851,-0.122924656,0.12090016,816.7399,797.3993,801.8315,822.381,689.011,-0.13287353515625,0.0166015625,0.99066162109375,-11.476898193359375,0.91217041015625,-15.095672607421875,1,1.0,1.0,1.0,1.0,10.00
2024-10-11 20:20:12.675,0.9510186,0.37872514,0.51605207,0.9149081,0.5740599,0.24839577,0.21387827,0.8168083,1.1478219,0.3440992,0.19651963,0.7226373,0.60097384,0.24478547,0.12270298,0.69901145,0.07918599,-0.04338851,-0.122924656,0.12090016,817.9487,786.9231,807.0696,823.5897,803.8461,-0.13287353515625,0.0166015625,0.99066162109375,-11.476898193359375,0.91217041015625,-15.095672607421875,1,1.0,1.0,1.0,1.0,10.00
2024-10-11 20:20:12.737,0.9510186,0.37872514,0.51605207,0.9149081,0.5740599,0.24839577,0.21387827,0.8168083,1.1478219,0.3440992,0.19651963,0.7226373,0.60097384,0.24478547,0.12270298,0.69901145,0.07918599,-0.04338851,-0.122924656,0.12090016,816.7399,794.17584,804.2491,824.7985,725.2747,-0.12884521484375,0.00836181640625,0.99371337890625,-9.458160400390625,-0.800018310546875,-16.949920654296875,1,1.0,1.0,1.0,1.0,10.00
2024-10-11 20:20:12.738,0.9510186,0.37872514,0.51605207,0.9149081,0.5740599,0.24839577,0.21387827,0.8168083,1.1478219,0.3440992,0.19651963,0.7226373,0.60097384,0.24478547,0.12270298,0.69901145,0.07918599,-0.04338851,-0.122924656,0.12090016,811.0989,801.8315,803.8461,817.9487,730.5128,-0.12884521484375,0.00836181640625,0.99371337890625,-9.458160400390625,-0.800018310546875,-16.949920654296875,1,1.0,1.0,1.0,1.0,10.00
2024-10-11 20:20:12.739,0.9510186,0.37872514,0.51605207,0.9149081,0.5740599,0.24839577,0.21387827,0.8168083,1.1478219,0.3440992,0.19651963,0.7226373,0.60097384,0.24478547,0.12270298,0.69901145,0.07918599,-0.04338851,-0.122924656,0.12090016,809.89014,796.1905,800.2198,818.7546,690.6227,-0.12884521484375,0.00836181640625,0.99371337890625,-9.458160400390625,-0.800018310546875,-16.949920654296875,1,1.0,1.0,1.0,1.0,10.00
2024-10-11 20:20:12.740,0.9510186,0.37872514,0.51605207,0.9149081,0.5740599,0.24839577,0.21387827,0.8168083,1.1478219,0.3440992,0.19651963,0.7226373,0.60097384,0.24478547,0.12270298,0.69901145,0.07918599,-0.04338851,-0.122924656,0.12090016,807.47253,794.17584,795.78754,822.381,809.0842,-0.12884521484375,0.00836181640625,0.99371337890625,-9.458160400390625,-0.800018310546875,-16.949920654296875,1,1.0,1.0,1.0,1.0,10.00
2024-10-11 20:20:12.740,0.9510186,0.37872514,0.51605207,0.9149081,0.5740599,0.24839577,0.21387827,0.8168083,1.1478219,0.3440992,0.19651963,0.7226373,0.60097384,0.24478547,0.12270298,0.69901145,0.07918599,-0.04338851,-0.122924656,0.12090016,817.9487,802.23444,797.8022,822.381,821.5751,-0.12884521484375,0.00836181640625,0.99371337890625,-9.458160400390625,-0.800018310546875,-16.949920654296875,1,1.0,1.0,1.0,1.0,10.00
2024-10-11 20:20:12.741,0.9510186,0.37872514,0.51605207,0.9149081,0.5740599,0.24839577,0.21387827,0.8168083,1.1478219,0.3440992,0.19651963,0.7226373,0.60097384,0.24478547,0.12270298,0.69901145,0.07918599,-0.04338851,-0.122924656,0.12090016,822.381,802.23444,803.0403,822.7839,767.1795,-0.12884521484375,0.00836181640625,0.99371337890625,-9.458160400390625,-0.800018310546875,-16.949920654296875,1,1.0,1.0,1.0,1.0,10.00
2024-10-11 20:20:12.742,0.9510186,0.37872514,0.51605207,0.9149081,0.5740599,0.24839577,0.21387827,0.8168083,1.1478219,0.3440992,0.19651963,0.7226373,0.60097384,0.24478547,0.12270298,0.69901145,0.07918599,-0.04338851,-0.122924656,0.12090016,818.7546,796.5934,809.4872,821.5751,855.0183,-0.12884521484375,0.00836181640625,0.99371337890625,-9.458160400390625,-0.800018310546875,-16.949920654296875,1,1.0,1.0,1.0,1.0,10.00
2024-10-11 20:20:12.742,0.9510186,0.37872514,0.51605207,0.9149081,0.5740599,0.24839577,0.21387827,0.8168083,1.1478219,0.3440992,0.19651963,0.7226373,0.60097384,0.24478547,0.12270298,0.69901145,0.07918599,-0.04338851,-0.122924656,0.12090016,820.3663,787.72894,804.65204,832.8571,1085.4945,-0.12884521484375,0.00836181640625,0.99371337890625,-9.458160400390625,-0.800018310546875,-16.949920654296875,1,1.0,1.0,1.0,1.0,10.00
2024-10-11 20:20:12.743,0.9510186,0.37872514,0.51605207,0.9149081,0.5740599,0.24839577,0.21387827,0.8168083,1.1478219,0.3440992,0.19651963,0.7226373,0.60097384,0.24478547,0.12270298,0.69901145,0.07918599,-0.04338851,-0.122924656,0.12090016,811.9048,787.72894,797.8022,832.4542,1124.1758,-0.12884521484375,0.00836181640625,0.99371337890625,-9.458160400390625,-0.800018310546875,-16.949920654296875,1,1.0,1.0,1.0,1.0,10.00
2024-10-11 20:20:12.744,0.9510186,0.37872514,0.51605207,0.9149081,0.5740599,0.24839577,0.21387827,0.8168083,1.1478219,0.3440992,0.19651963,0.7226373,0.60097384,0.24478547,0.12270298,0.69901145,0.07918599,-0.04338851,-0.122924656,0.12090016,812.3077,798.60803,798.60803,821.5751,772.4176,-0.12884521484375,0.00836181640625,0.99371337890625,-9.458160400390625,-0.800018310546875,-16.949920654296875,1,1.0,1.0,1.0,1.0,10.00
2024-10-11 20:20:12.744,0.9510186,0.37872514,0.51605207,0.9149081,0.5740599,0.24839577,0.21387827,0.8168083,1.1478219,0.3440992,0.19651963,0.7226373,0.60097384,0.24478547,0.12270298,0.69901145,0.07918599,-0.04338851,-0.122924656,0.12090016,813.91943,799.81683,800.2198,821.5751,701.9048,-0.12884521484375,0.00836181640625,0.99371337890625,-9.458160400390625,-0.800018310546875,-16.949920654296875,1,1.0,1.0,1.0,1.0,10.00
2024-10-11 20:20:12.745,0.97259194,0.5034126,0.5660098,0.9388776,0.5975671,0.37074047,0.19153741,0.84183675,1.0978632,0.3887579,0.19651963,0.7226373,0.6170195,0.27206624,0.15194212,0.7233271,0.091807164,-0.029670764,-0.106986046,0.1440884,811.9048,794.57874,802.6374,819.15753,859.0476,-0.12884521484375,0.00836181640625,0.99371337890625,-9.458160400390625,-0.800018310546875,-16.949920654296875,1,1.0,1.0,1.0,1.0,10.00
2024-10-11 20:20:12.751,0.97259194,0.5034126,0.5660098,0.9388776,0.5975671,0.37074047,0.19153741,0.84183675,1.0978632,0.3887579,0.19651963,0.7226373,0.6170195,0.27206624,0.15194212,0.7233271,0.091807164,-0.029670764,-0.106986046,0.1440884,815.9341,798.20514,801.4286,815.12823,793.36993,-0.12884521484375,0.00836181640625,0.99371337890625,-9.458160400390625,-0.800018310546875,-16.949920654296875,1,1.0,1.0,1.0,1.0,10.00
2024-10-11 20:20:12.752,0.97259194,0.5034126,0.5660098,0.9388776,0.5975671,0.37074047,0.19153741,0.84183675,1.0978632,0.3887579,0.19651963,0.7226373,0.6170195,0.27206624,0.15194212,0.7233271,0.091807164,-0.029670764,-0.106986046,0.1440884,817.1429,799.81683,792.5641,811.9048,662.8205,-0.12884521484375,0.00836181640625,0.99371337890625,-9.458160400390625,-0.800018310546875,-16.949920654296875,1,1.0,1.0,1.0,1.0,10.00
2024-10-11 20:20:12.753,0.97259194,0.5034126,0.5660098,0.9388776,0.5975671,0.37074047,0.19153741,0.84183675,1.0978632,0.3887579,0.19651963,0.7226373,0.6170195,0.27206624,0.15194212,0.7233271,0.091807164,-0.029670764,-0.106986046,0.1440884,820.7692,791.75824,788.93774,813.91943,630.989,-0.12884521484375,0.00836181640625,0.99371337890625,-9.458160400390625,-0.800018310546875,-16.949920654296875,1,1.0,1.0,1.0,1.0,10.00
2024-10-11 20:20:12.753,0.97259194,0.5034126,0.5660098,0.9388776,0.5975671,0.37074047,0.19153741,0.84183675,1.0978632,0.3887579,0.19651963,0.7226373,0.6170195,0.27206624,0.15194212,0.7233271,0.091807164,-0.029670764,-0.106986046,0.1440884,821.5751,799.011,794.57874,815.5311,782.0879,-0.12884521484375,0.00836181640625,0.99371337890625,-9.458160400390625,-0.800018310546875,-16.949920654296875,1,1.0,1.0,1.0,1.0,10.00
2024-10-11 20:20:12.754,0.97259194,0.5034126,0.5660098,0.9388776,0.5975671,0.37074047,0.19153741,0.84183675,1.0978632,0.3887579,0.19651963,0.7226373,0.6170195,0.27206624,0.15194212,0.7233271,0.091807164,-0.029670764,-0.106986046,0.1440884,828.022,802.23444,802.23444,822.381,875.16486,-0.12884521484375,0.00836181640625,0.99371337890625,-9.458160400390625,-0.800018310546875,-16.949920654296875,1,1.0,1.0,1.0,1.0,10.00
2024-10-11 20:20:12.755,0.97259194,0.5034126,0.5660098,0.9388776,0.5975671,0.37074047,0.19153741,0.84183675,1.0978632,0.3887579,0.19651963,0.7226373,0.6170195,0.27206624,0.15194212,0.7233271,0.091807164,-0.029670764,-0.106986046,0.1440884,826.4103,796.99634,804.65204,826.0073,794.57874,-0.12884521484375,0.00836181640625,0.99371337890625,-9.458160400390625,-0.800018310546875,-16.949920654296875,1,1.0,1.0,1.0,1.0,10.00
2024-10-11 20:20:12.755,0.97259194,0.5034126,0.5660098,0.9388776,0.5975671,0.37074047,0.19153741,0.84183675,1.0978632,0.3887579,0.19651963,0.7226373,0.6170195,0.27206624,0.15194212,0.7233271,0.091807164,-0.029670764,-0.106986046,0.1440884,800.2198,794.57874,801.4286,811.50183,821.1722,-0.12884521484375,0.00836181640625,0.99371337890625,-9.458160400390625,-0.800018310546875,-16.949920654296875,1,1.0,1.0,1.0,1.0,10.00
2024-10-11 20:20:12.756,0.97259194,0.5034126,0.5660098,0.9388776,0.5975671,0.37074047,0.19153741,0.84183675,1.0978632,0.3887579,0.19651963,0.7226373,0.6170195,0.27206624,0.15194212,0.7233271,0.091807164,-0.029670764,-0.106986046,0.1440884,804.65204,792.1612,799.81683,815.12823,850.18317,-0.12884521484375,0.00836181640625,0.99371337890625,-9.458160400390625,-0.800018310546875,-16.949920654296875,1,1.0,1.0,1.0,1.0,10.00
2024-10-11 20:20:12.757,0.97259194,0.5034126,0.5660098,0.9388776,0.5975671,0.37074047,0.19153741,0.84183675,1.0978632,0.3887579,0.19651963,0.7226373,0.6170195,0.27206624,0.15194212,0.7233271,0.091807164,-0.029670764,-0.106986046,0.1440884,819.15753,788.1319,803.8461,821.1722,707.1429,-0.12884521484375,0.00836181640625,0.99371337890625,-9.458160400390625,-0.800018310546875,-16.949920654296875,1,1.0,1.0,1.0,1.0,10.00
2024-10-11 20:20:12.758,0.97259194,0.5034126,0.5660098,0.9388776,0.5975671,0.37074047,0.19153741,0.84183675,1.0978632,0.3887579,0.19651963,0.7226373,0.6170195,0.27206624,0.15194212,0.7233271,0.091807164,-0.029670764,-0.106986046,0.1440884,815.9341,792.96704,807.47253,814.7253,618.9011,-0.12884521484375,0.00836181640625,0.99371337890625,-9.458160400390625,-0.800018310546875,-16.949920654296875,1,1.0,1.0,1.0,1.0,10.00
2024-10-11 20:20:12.758,0.97259194,0.5034126,0.5660098,0.9388776,0.5975671,0.37074047,0.19153741,0.84183675,1.0978632,0.3887579,0.19651963,0.7226373,0.6170195,0.27206624,0.15194212,0.7233271,0.091807164,-0.029670764,-0.106986046,0.1440884,820.7692,799.011,805.8608,815.5311,635.82416,-0.12884521484375,0.00836181640625,0.99371337890625,-9.458160400390625,-0.800018310546875,-16.949920654296875,1,1.0,1.0,1.0,1.0,10.00
2024-10-11 20:20:12.759,0.97259194,0.5034126,0.5660098,0.9388776,0.5975671,0.37074047,0.19153741,0.84183675,1.0978632,0.3887579,0.19651963,0.7226373,0.6170195,0.27206624,0.15194212,0.7233271,0.091807164,-0.029670764,-0.106986046,0.1440884,816.337,799.41394,798.20514,811.0989,774.83514,-0.12884521484375,0.00836181640625,0.99371337890625,-9.458160400390625,-0.800018310546875,-16.949920654296875,1,1.0,1.0,1.0,1.0,10.00
2024-10-11 20:20:12.788,0.97259194,0.5034126,0.5660098,0.9388776,0.5975671,0.37074047,0.19153741,0.84183675,1.0978632,0.3887579,0.19651963,0.7226373,0.6170195,0.27206624,0.15194212,0.7233271,0.091807164,-0.029670764,-0.106986046,0.1440884,822.7839,799.41394,792.96704,816.337,770.40295,-0.145263671875,0.006103515625,1.0103759765625,-8.545989990234375,-1.891632080078125,-21.33880615234375,1,1.0,1.0,1.0,1.0,10.00
2024-10-11 20:20:12.789,0.97259194,0.5034126,0.5660098,0.9388776,0.5975671,0.37074047,0.19153741,0.84183675,1.0978632,0.3887579,0.19651963,0.7226373,0.6170195,0.27206624,0.15194212,0.7233271,0.091807164,-0.029670764,-0.106986046,0.1440884,820.3663,796.99634,801.8315,816.7399,669.67035,-0.145263671875,0.006103515625,1.0103759765625,-8.545989990234375,-1.891632080078125,-21.33880615234375,1,1.0,1.0,1.0,1.0,10.00
2024-10-11 20:20:12.789,0.97259194,0.5034126,0.5660098,0.9388776,0.5975671,0.37074047,0.19153741,0.84183675,1.0978632,0.3887579,0.19651963,0.7226373,0.6170195,0.27206624,0.15194212,0.7233271,0.091807164,-0.029670764,-0.106986046,0.1440884,809.4872,802.23444,804.2491,810.696,791.75824,-0.145263671875,0.006103515625,1.0103759765625,-8.545989990234375,-1.891632080078125,-21.33880615234375,1,1.0,1.0,1.0,1.0,10.00
2024-10-11 20:20:12.790,0.97259194,0.5034126,0.5660098,0.9388776,0.5975671,0.37074047,0.19153741,0.84183675,1.0978632,0.3887579,0.19651963,0.7226373,0.6170195,0.27206624,0.15194212,0.7233271,0.091807164,-0.029670764,-0.106986046,0.1440884,813.5165,797.3993,807.47253,813.1135,728.49817,-0.145263671875,0.006103515625,1.0103759765625,-8.545989990234375,-1.891632080078125,-21.33880615234375,1,1.0,1.0,1.0,1.0,10.00
2024-10-11 20:20:12.791,0.97259194,0.5034126,0.5660098,0.9388776,0.5975671,0.37074047,0.19153741,0.84183675,1.0978632,0.3887579,0.19651963,0.7226373,0.6170195,0.27206624,0.15194212,0.7233271,0.091807164,-0.029670764,-0.106986046,0.1440884,808.68134,797.8022,812.71063,816.7399,674.10254,-0.145263671875,0.006103515625,1.0103759765625,-8.545989990234375,-1.891632080078125,-21.33880615234375,1,1.0,1.0,1.0,1.0,10.00
2024-10-11 20:20:12.791,0.97259194,0.5034126,0.5660098,0.9388776,0.5975671,0.37074047,0.19153741,0.84183675,1.0978632,0.3887579,0.19651963,0.7226373,0.6170195,0.27206624,0.15194212,0.7233271,0.091807164,-0.029670764,-0.106986046,0.1440884,801.4286,799.011,808.68134,808.2784,823.1868,-0.145263671875,0.006103515625,1.0103759765625,-8.545989990234375,-1.891632080078125,-21.33880615234375,1,1.0,1.0,1.0,1.0,10.00
2024-10-11 20:20:12.792,0.97259194,0.5034126,0.5660098,0.9388776,0.5975671,0.37074047,0.19153741,0.84183675,1.0978632,0.3887579,0.19651963,0.7226373,0.6170195,0.27206624,0.15194212,0.7233271,0.091807164,-0.029670764,-0.106986046,0.1440884,800.6227,788.1319,802.23444,810.696,1002.0879,-0.145263671875,0.006103515625,1.0103759765625,-8.545989990234375,-1.891632080078125,-21.33880615234375,1,1.0,1.0,1.0,1.0,10.00
2024-10-11 20:20:12.793,0.97259194,0.5034126,0.5660098,0.9388776,0.5975671,0.37074047,0.19153741,0.84183675,1.0978632,0.3887579,0.19651963,0.7226373,0.6170195,0.27206624,0.15194212,0.7233271,0.091807164,-0.029670764,-0.106986046,0.1440884,801.4286,787.72894,804.2491,818.3516,1241.8315,-0.145263671875,0.006103515625,1.0103759765625,-8.545989990234375,-1.891632080078125,-21.33880615234375,1,1.0,1.0,1.0,1.0,10.00
2024-10-11 20:20:12.793,0.97259194,0.5034126,0.5660098,0.9388776,0.5975671,0.37074047,0.19153741,0.84183675,1.0978632,0.3887579,0.19651963,0.7226373,0.6170195,0.27206624,0.15194212,0.7233271,0.091807164,-0.029670764,-0.106986046,0.1440884,803.0403,799.81683,806.26373,810.696,965.42126,-0.145263671875,0.006103515625,1.0103759765625,-8.545989990234375,-1.891632080078125,-21.33880615234375,1,1.0,1.0,1.0,1.0,10.00
2024-10-11 20:20:12.794,0.97259194,0.5034126,0.5660098,0.9388776,0.5975671,0.37074047,0.19153741,0.84183675,1.0978632,0.3887579,0.19651963,0.7226373,0.6170195,0.27206624,0.15194212,0.7233271,0.091807164,-0.029670764,-0.106986046,0.1440884,805.4579,801.02563,807.47253,806.6667,684.9817,-0.145263671875,0.006103515625,1.0103759765625,-8.545989990234375,-1.891632080078125,-21.33880615234375,1,1.0,1.0,1.0,1.0,10.00
2024-10-11 20:20:12.795,0.97259194,0.5034126,0.5660098,0.9388776,0.5975671,0.37074047,0.19153741,0.84183675,1.0978632,0.3887579,0.19651963,0.7226373,0.6170195,0.27206624,0.15194212,0.7233271,0.091807164,-0.029670764,-0.106986046,0.1440884,803.8461,796.5934,804.2491,810.293,725.6777,-0.145263671875,0.006103515625,1.0103759765625,-8.545989990234375,-1.891632080078125,-21.33880615234375,1,1.0,1.0,1.0,1.0,10.00
2024-10-11 20:20:12.795,0.97259194,0.5034126,0.5660098,0.9388776,0.5975671,0.37074047,0.19153741,0.84183675,1.0978632,0.3887579,0.19651963,0.7226373,0.6170195,0.27206624,0.15194212,0.7233271,0.091807164,-0.029670764,-0.106986046,0.1440884,799.011,800.2198,804.65204,812.3077,649.5238,-0.145263671875,0.006103515625,1.0103759765625,-8.545989990234375,-1.891632080078125,-21.33880615234375,1,1.0,1.0,1.0,1.0,10.00
2024-10-11 20:20:12.855,0.97259194,0.5034126,0.5660098,0.9388776,0.5975671,0.37074047,0.19153741,0.84183675,1.0978632,0.3887579,0.19651963,0.7226373,0.6170195,0.27206624,0.15194212,0.7233271,0.091807164,-0.029670764,-0.106986046,0.1440884,802.6374,805.8608,811.50183,814.7253,696.6667,-0.1414794921875,-0.00665283203125,1.01300048828125,-11.446990966796875,-1.973876953125,-27.32025146484375,1,1.0,1.0,1.0,1.0,10.00
2024-10-11 20:20:12.856,0.9746513,0.60108596,0.5944329,0.9427023,0.61454254,0.46137092,0.15209161,0.8555882,1.042523,0.3955152,0.19651963,0.7226373,0.6348314,0.29388833,0.1930488,0.751778,0.10867643,-0.018581571,-0.09344934,0.17309804,811.50183,804.2491,810.696,811.0989,834.87177,-0.1414794921875,-0.00665283203125,1.01300048828125,-11.446990966796875,-1.973876953125,-27.32025146484375,1,1.0,1.0,1.0,1.0,10.00
2024-10-11 20:20:12.862,0.9746513,0.60108596,0.5944329,0.9427023,0.61454254,0.46137092,0.15209161,0.8555882,1.042523,0.3955152,0.19651963,0.7226373,0.6348314,0.29388833,0.1930488,0.751778,0.10867643,-0.018581571,-0.09344934,0.17309804,813.91943,794.9817,805.4579,811.50183,820.3663,-0.1414794921875,-0.00665283203125,1.01300048828125,-11.446990966796875,-1.973876953125,-27.32025146484375,1,1.0,1.0,1.0,1.0,10.00
2024-10-11 20:20:12.862,0.9746513,0.60108596,0.5944329,0.9427023,0.61454254,0.46137092,0.15209161,0.8555882,1.042523,0.3955152,0.19651963,0.7226373,0.6348314,0.29388833,0.1930488,0.751778,0.10867643,-0.018581571,-0.09344934,0.17309804,810.293,791.75824,803.44324,808.68134,668.86444,-0.1414794921875,-0.00665283203125,1.01300048828125,-11.446990966796875,-1.973876953125,-27.32025146484375,1,1.0,1.0,1.0,1.0,10.00
2024-10-11 20:20:12.863,0.9746513,0.60108596,0.5944329,0.9427023,0.61454254,0.46137092,0.15209161,0.8555882,1.042523,0.3955152,0.19651963,0.7226373,0.6348314,0.29388833,0.1930488,0.751778,0.10867643,-0.018581571,-0.09344934,0.17309804,799.011,792.5641,800.6227,802.23444,657.1795,-0.1414794921875,-0.00665283203125,1.01300048828125,-11.446990966796875,-1.973876953125,-27.32025146484375,1,1.0,1.0,1.0,1.0,10.00
2024-10-11 20:20:12.864,0.9746513,0.60108596,0.5944329,0.9427023,0.61454254,0.46137092,0.15209161,0.8555882,1.042523,0.3955152,0.19651963,0.7226373,0.6348314,0.29388833,0.1930488,0.751778,0.10867643,-0.018581571,-0.09344934,0.17309804,796.1905,793.7729,801.4286,809.0842,974.68866,-0.1414794921875,-0.00665283203125,1.01300048828125,-11.446990966796875,-1.973876953125,-27.32025146484375,1,1.0,1.0,1.0,1.0,10.00
2024-10-11 20:20:12.864,0.9746513,0.60108596,0.5944329,0.9427023,0.61454254,0.46137092,0.15209161,0.8555882,1.042523,0.3955152,0.19651963,0.7226373,0.6348314,0.29388833,0.1930488,0.751778,0.10867643,-0.018581571,-0.09344934,0.17309804,795.78754,790.54944,801.4286,811.50183,1041.978,-0.1414794921875,-0.00665283203125,1.01300048828125,-11.446990966796875,-1.973876953125,-27.32025146484375,1,1.0,1.0,1.0,1.0,10.00
2024-10-11 20:20:12.865,0.9746513,0.60108596,0.5944329,0.9427023,0.61454254,0.46137092,0.15209161,0.8555882,1.042523,0.3955152,0.19651963,0.7226373,0.6348314,0.29388833,0.1930488,0.751778,0.10867643,-0.018581571,-0.09344934,0.17309804,791.3553,787.72894,802.23444,807.0696,703.5165,-0.1414794921875,-0.00665283203125,1.01300048828125,-11.446990966796875,-1.973876953125,-27.32025146484375,1,1.0,1.0,1.0,1.0,10.00
2024-10-11 20:20:12.866,0.9746513,0.60108596,0.5944329,0.9427023,0.61454254,0.46137092,0.15209161,0.8555882,1.042523,0.3955152,0.19651963,0.7226373,0.6348314,0.29388833,0.1930488,0.751778,0.10867643,-0.018581571,-0.09344934,0.17309804,788.93774,801.02563,797.8022,805.4579,583.44324,-0.1414794921875,-0.00665283203125,1.01300048828125,-11.446990966796875,-1.973876953125,-27.32025146484375,1,1.0,1.0,1.0,1.0,10.00
2024-10-11 20:20:12.866,0.9746513,0.60108596,0.5944329,0.9427023,0.61454254,0.46137092,0.15209161,0.8555882,1.042523,0.3955152,0.19651963,0.7226373,0.6348314,0.29388833,0.1930488,0.751778,0.10867643,-0.018581571,-0.09344934,0.17309804,796.5934,805.4579,800.2198,813.1135,780.87915,-0.1414794921875,-0.00665283203125,1.01300048828125,-11.446990966796875,-1.973876953125,-27.32025146484375,1,1.0,1.0,1.0,1.0,10.00
2024-10-11 20:20:12.867,0.9746513,0.60108596,0.5944329,0.9427023,0.61454254,0.46137092,0.15209161,0.8555882,1.042523,0.3955152,0.19651963,0.7226373,0.6348314,0.29388833,0.1930488,0.751778,0.10867643,-0.018581571,-0.09344934,0.17309804,803.44324,800.6227,810.293,817.9487,1112.4908,-0.1414794921875,-0.00665283203125,1.01300048828125,-11.446990966796875,-1.973876953125,-27.32025146484375,1,1.0,1.0,1.0,1.0,10.00
2024-10-11 20:20:12.868,0.9746513,0.60108596,0.5944329,0.9427023,0.61454254,0.46137092,0.15209161,0.8555882,1.042523,0.3955152,0.19651963,0.7226373,0.6348314,0.29388833,0.1930488,0.751778,0.10867643,-0.018581571,-0.09344934,0.17309804,795.38464,792.5641,807.8755,811.50183,807.0696,-0.1414794921875,-0.00665283203125,1.01300048828125,-11.446990966796875,-1.973876953125,-27.32025146484375,1,1.0,1.0,1.0,1.0,10.00
2024-10-11 20:20:12.894,0.9746513,0.60108596,0.5944329,0.9427023,0.61454254,0.46137092,0.15209161,0.8555882,1.042523,0.3955152,0.19651963,0.7226373,0.6348314,0.29388833,0.1930488,0.751778,0.10867643,-0.018581571,-0.09344934,0.17309804,791.3553,789.34064,808.68134,813.5165,495.20148,-0.12493896484375,-0.022216796875,0.9879150390625,-11.3348388671875,-1.891632080078125,-29.14459228515625,1,1.0,1.0,1.0,1.0,10.00
2024-10-11 20:20:12.895,0.9746513,0.60108596,0.5944329,0.9427023,0.61454254,0.46137092,0.15209161,0.8555882,1.042523,0.3955152,0.19651963,0.7226373,0.6348314,0.29388833,0.1930488,0.751778,0.10867643,-0.018581571,-0.09344934,0.17309804,798.20514,792.1612,810.293,821.5751,643.0769,-0.12493896484375,-0.022216796875,0.9879150390625,-11.3348388671875,-1.891632080078125,-29.14459228515625,1,1.0,1.0,1.0,1.0,10.00
2024-10-11 20:20:12.896,0.9746513,0.60108596,0.5944329,0.9427023,0.61454254,0.46137092,0.15209161,0.8555882,1.042523,0.3955152,0.19651963,0.7226373,0.6348314,0.29388833,0.1930488,0.751778,0.10867643,-0.018581571,-0.09344934,0.17309804,801.02563,793.36993,809.4872,819.9634,682.96704,-0.12493896484375,-0.022216796875,0.9879150390625,-11.3348388671875,-1.891632080078125,-29.14459228515625,1,1.0,1.0,1.0,1.0,10.00
2024-10-11 20:20:12.897,0.9746513,0.60108596,0.5944329,0.9427023,0.61454254,0.46137092,0.15209161,0.8555882,1.042523,0.3955152,0.19651963,0.7226373,0.6348314,0.29388833,0.1930488,0.751778,0.10867643,-0.018581571,-0.09344934,0.17309804,800.6227,793.36993,805.8608,807.8755,639.45056,-0.12493896484375,-0.022216796875,0.9879150390625,-11.3348388671875,-1.891632080078125,-29.14459228515625,1,1.0,1.0,1.0,1.0,10.00
2024-10-11 20:20:12.897,0.9746513,0.60108596,0.5944329,0.9427023,0.61454254,0.46137092,0.15209161,0.8555882,1.042523,0.3955152,0.19651963,0.7226373,0.6348314,0.29388833,0.1930488,0.751778,0.10867643,-0.018581571,-0.09344934,0.17309804,797.3993,792.1612,806.26373,800.2198,708.7546,-0.12493896484375,-0.022216796875,0.9879150390625,-11.3348388671875,-1.891632080078125,-29.14459228515625,1,1.0,1.0,1.0,1.0,10.00
2024-10-11 20:20:12.898,0.9746513,0.60108596,0.5944329,0.9427023,0.61454254,0.46137092,0.15209161,0.8555882,1.042523,0.3955152,0.19651963,0.7226373,0.6348314,0.29388833,0.1930488,0.751778,0.10867643,-0.018581571,-0.09344934,0.17309804,798.20514,790.9524,805.05493,803.44324,939.2308,-0.12493896484375,-0.022216796875,0.9879150390625,-11.3348388671875,-1.891632080078125,-29.14459228515625,1,1.0,1.0,1.0,1.0,10.00
2024-10-11 20:20:12.899,0.9746513,0.60108596,0.5944329,0.9427023,0.61454254,0.46137092,0.15209161,0.8555882,1.042523,0.3955152,0.19651963,0.7226373,0.6348314,0.29388833,0.1930488,0.751778,0.10867643,-0.018581571,-0.09344934,0.17309804,795.38464,792.5641,803.44324,810.293,1014.9817,-0.12493896484375,-0.022216796875,0.9879150390625,-11.3348388671875,-1.891632080078125,-29.14459228515625,1,1.0,1.0,1.0,1.0,10.00
2024-10-11 20:20:12.900,0.9746513,0.60108596,0.5944329,0.9427023,0.61454254,0.46137092,0.15209161,0.8555882,1.042523,0.3955152,0.19651963,0.7226373,0.6348314,0.29388833,0.1930488,0.751778,0.10867643,-0.018581571,-0.09344934,0.17309804,792.1612,798.20514,813.91943,809.89014,879.19415,-0.12493896484375,-0.022216796875,0.9879150390625,-11.3348388671875,-1.891632080078125,-29.14459228515625,1,1.0,1.0,1.0,1.0,10.00
2024-10-11 20:20:12.900,0.9746513,0.60108596,0.5944329,0.9427023,0.61454254,0.46137092,0.15209161,0.8555882,1.042523,0.3955152,0.19651963,0.7226373,0.6348314,0.29388833,0.1930488,0.751778,0.10867643,-0.018581571,-0.09344934,0.17309804,796.99634,792.1612,804.65204,807.8755,668.86444,-0.12493896484375,-0.022216796875,0.9879150390625,-11.3348388671875,-1.891632080078125,-29.14459228515625,1,1.0,1.0,1.0,1.0,10.00
2024-10-11 20:20:12.901,0.9746513,0.60108596,0.5944329,0.9427023,0.61454254,0.46137092,0.15209161,0.8555882,1.042523,0.3955152,0.19651963,0.7226373,0.6348314,0.29388833,0.1930488,0.751778,0.10867643,-0.018581571,-0.09344934,0.17309804,801.8315,792.1612,798.60803,812.3077,742.6007,-0.12493896484375,-0.022216796875,0.9879150390625,-11.3348388671875,-1.891632080078125,-29.14459228515625,1,1.0,1.0,1.0,1.0,10.00
2024-10-11 20:20:12.902,0.9746513,0.60108596,0.5944329,0.9427023,0.61454254,0.46137092,0.15209161,0.8555882,1.042523,0.3955152,0.19651963,0.7226373,0.6348314,0.29388833,0.1930488,0.751778,0.10867643,-0.018581571,-0.09344934,0.17309804,795.78754,796.1905,813.5165,809.89014,811.50183,-0.12493896484375,-0.022216796875,0.9879150390625,-11.3348388671875,-1.891632080078125,-29.14459228515625,1,1.0,1.0,1.0,1.0,10.00
2024-10-11 20:20:12.902,0.9746513,0.60108596,0.5944329,0.9427023,0.61454254,0.46137092,0.15209161,0.8555882,1.042523,0.3955152,0.19651963,0.7226373,0.6348314,0.29388833,0.1930488,0.751778,0.10867643,-0.018581571,-0.09344934,0.17309804,795.78754,785.31134,806.6667,808.2784,630.58606,-0.12493896484375,-0.022216796875,0.9879150390625,-11.3348388671875,-1.891632080078125,-29.14459228515625,1,1.0,1.0,1.0,1.0,10.00
2024-10-11 20:20:12.935,0.9746513,0.60108596,0.5944329,0.9427023,0.61454254,0.46137092,0.15209161,0.8555882,1.042523,0.3955152,0.19651963,0.7226373,0.6348314,0.29388833,0.1930488,0.751778,0.10867643,-0.018581571,-0.09344934,0.17309804,800.2198,786.9231,797.8022,806.6667,627.76556,-0.1082763671875,-0.0372314453125,0.9833984375,-7.873077392578125,-4.373931884765625,-24.680938720703125,1,1.0,1.0,1.0,1.0,10.00
2024-10-11 20:20:12.936,0.9746513,0.60108596,0.5944329,0.9427023,0.61454254,0.46137092,0.15209161,0.8555882,1.042523,0.3955152,0.19651963,0.7226373,0.6348314,0.29388833,0.1930488,0.751778,0.10867643,-0.018581571,-0.09344934,0.17309804,808.2784,792.96704,805.8608,816.7399,946.08057,-0.1082763671875,-0.0372314453125,0.9833984375,-7.873077392578125,-4.373931884765625,-24.680938720703125,1,1.0,1.0,1.0,1.0,10.00
2024-10-11 20:20:12.937,0.9746513,0.60108596,0.5944329,0.9427023,0.61454254,0.46137092,0.15209161,0.8555882,1.042523,0.3955152,0.19651963,0.7226373,0.6348314,0.29388833,0.1930488,0.751778,0.10867643,-0.018581571,-0.09344934,0.17309804,807.47253,789.34064,803.0403,813.91943,925.12823,-0.1082763671875,-0.0372314453125,0.9833984375,-7.873077392578125,-4.373931884765625,-24.680938720703125,1,1.0,1.0,1.0,1.0,10.00
2024-10-11 20:20:12.938,0.9499207,0.6553782,0.60307825,0.91351974,0.62464887,0.50950915,0.1041597,0.85645777,0.99073803,0.3955152,0.1940413,0.7226373,0.6545155,0.30839396,0.23184311,0.7839872,0.1331811,-0.007874827,-0.08232264,0.20419183,802.6374,794.17584,803.8461,804.65204,663.22345,-0.1082763671875,-0.0372314453125,0.9833984375,-7.873077392578125,-4.373931884765625,-24.680938720703125,1,1.0,1.0,1.0,1.0,10.00
2024-10-11 20:20:12.944,0.9499207,0.6553782,0.60307825,0.91351974,0.62464887,0.50950915,0.1041597,0.85645777,0.99073803,0.3955152,0.1940413,0.7226373,0.6545155,0.30839396,0.23184311,0.7839872,0.1331811,-0.007874827,-0.08232264,0.20419183,811.0989,799.81683,807.47253,805.4579,678.1319,-0.1082763671875,-0.0372314453125,0.9833984375,-7.873077392578125,-4.373931884765625,-24.680938720703125,1,1.0,1.0,1.0,1.0,10.00
2024-10-11 20:20:12.944,0.9499207,0.6553782,0.60307825,0.91351974,0.62464887,0.50950915,0.1041597,0.85645777,0.99073803,0.3955152,0.1940413,0.7226373,0.6545155,0.30839396,0.23184311,0.7839872,0.1331811,-0.007874827,-0.08232264,0.20419183,792.1612,788.1319,799.41394,800.2198,748.6447,-0.1082763671875,-0.0372314453125,0.9833984375,-7.873077392578125,-4.373931884765625,-24.680938720703125,1,1.0,1.0,1.0,1.0,10.00
2024-10-11 20:20:12.945,0.9499207,0.6553782,0.60307825,0.91351974,0.62464887,0.50950915,0.1041597,0.85645777,0.99073803,0.3955152,0.1940413,0.7226373,0.6545155,0.30839396,0.23184311,0.7839872,0.1331811,-0.007874827,-0.08232264,0.20419183,781.28204,791.3553,799.81683,795.78754,896.1172,-0.1082763671875,-0.0372314453125,0.9833984375,-7.873077392578125,-4.373931884765625,-24.680938720703125,1,1.0,1.0,1.0,1.0,10.00
2024-10-11 20:20:12.946,0.9499207,0.6553782,0.60307825,0.91351974,0.62464887,0.50950915,0.1041597,0.85645777,0.99073803,0.3955152,0.1940413,0.7226373,0.6545155,0.30839396,0.23184311,0.7839872,0.1331811,-0.007874827,-0.08232264,0.20419183,792.1612,795.38464,805.05493,796.5934,811.0989,-0.1082763671875,-0.0372314453125,0.9833984375,-7.873077392578125,-4.373931884765625,-24.680938720703125,1,1.0,1.0,1.0,1.0,10.00
2024-10-11 20:20:12.946,0.9499207,0.6553782,0.60307825,0.91351974,0.62464887,0.50950915,0.1041597,0.85645777,0.99073803,0.3955152,0.1940413,0.7226373,0.6545155,0.30839396,0.23184311,0.7839872,0.1331811,-0.007874827,-0.08232264,0.20419183,787.326,786.9231,801.4286,805.8608,749.85345,-0.1082763671875,-0.0372314453125,0.9833984375,-7.873077392578125,-4.373931884765625,-24.680938720703125,1,1.0,1.0,1.0,1.0,10.00
2024-10-11 20:20:12.947,0.9499207,0.6553782,0.60307825,0.91351974,0.62464887,0.50950915,0.1041597,0.85645777,0.99073803,0.3955152,0.1940413,0.7226373,0.6545155,0.30839396,0.23184311,0.7839872,0.1331811,-0.007874827,-0.08232264,0.20419183,788.93774,792.96704,796.99634,815.12823,1073.4066,-0.1082763671875,-0.0372314453125,0.9833984375,-7.873077392578125,-4.373931884765625,-24.680938720703125,1,1.0,1.0,1.0,1.0,10.00
2024-10-11 20:20:12.948,0.9499207,0.6553782,0.60307825,0.91351974,0.62464887,0.50950915,0.1041597,0.85645777,0.99073803,0.3955152,0.1940413,0.7226373,0.6545155,0.30839396,0.23184311,0.7839872,0.1331811,-0.007874827,-0.08232264,0.20419183,790.9524,794.17584,803.0403,810.696,945.2747,-0.1082763671875,-0.0372314453125,0.9833984375,-7.873077392578125,-4.373931884765625,-24.680938720703125,1,1.0,1.0,1.0,1.0,10.00
2024-10-11 20:20:12.948,0.9499207,0.6553782,0.60307825,0.91351974,0.62464887,0.50950915,0.1041597,0.85645777,0.99073803,0.3955152,0.1940413,0.7226373,0.6545155,0.30839396,0.23184311,0.7839872,0.1331811,-0.007874827,-0.08232264,0.20419183,792.96704,790.9524,813.91943,806.26373,784.90845,-0.1082763671875,-0.0372314453125,0.9833984375,-7.873077392578125,-4.373931884765625,-24.680938720703125,1,1.0,1.0,1.0,1.0,10.00
2024-10-11 20:20:13.040,0.9499207,0.6553782,0.60307825,0.91351974,0.62464887,0.50950915,0.1041597,0.85645777,0.99073803,0.3955152,0.1940413,0.7226373,0.6545155,0.30839396,0.23184311,0.7839872,0.1331811,-0.007874827,-0.08232264,0.20419183,798.60803,794.57874,815.9341,803.8461,803.8461,-0.1082763671875,-0.0372314453125,0.9833984375,-7.873077392578125,-4.373931884765625,-24.680938720703125,1,1.0,1.0,1.0,1.0,10.00
2024-10-11 20:20:13.041,0.9499207,0.6553782,0.60307825,0.91351974,0.62464887,0.50950915,0.1041597,0.85645777,0.99073803,0.3955152,0.1940413,0.7226373,0.6545155,0.30839396,0.23184311,0.7839872,0.1331811,-0.007874827,-0.08232264,0.20419183,812.71063,793.7729,811.0989,803.44324,686.1905,-0.1082763671875,-0.0372314453125,0.9833984375,-7.873077392578125,-4.373931884765625,-24.680938720703125,1,1.0,1.0,1.0,1.0,10.00
2024-10-11 20:20:13.042,0.9499207,0.6553782,0.60307825,0.91351974,0.62464887,0.50950915,0.1041597,0.85645777,0.99073803,0.3955152,0.1940413,0.7226373,0.6545155,0.30839396,0.23184311,0.7839872,0.1331811,-0.007874827,-0.08232264,0.20419183,811.0989,792.1612,805.4579,799.81683,617.6923,-0.1082763671875,-0.0372314453125,0.9833984375,-7.873077392578125,-4.373931884765625,-24.680938720703125,1,1.0,1.0,1.0,1.0,10.00
2024-10-11 20:20:13.042,0.9499207,0.6553782,0.60307825,0.91351974,0.62464887,0.50950915,0.1041597,0.85645777,0.99073803,0.3955152,0.1940413,0.7226373,0.6545155,0.30839396,0.23184311,0.7839872,0.1331811,-0.007874827,-0.08232264,0.20419183,796.99634,790.14655,801.8315,796.99634,791.75824,-0.1082763671875,-0.0372314453125,0.9833984375,-7.873077392578125,-4.373931884765625,-24.680938720703125,1,1.0,1.0,1.0,1.0,10.00
2024-10-11 20:20:13.043,0.9499207,0.6553782,0.60307825,0.91351974,0.62464887,0.50950915,0.1041597,0.85645777,0.99073803,0.3955152,0.1940413,0.7226373,0.6545155,0.30839396,0.23184311,0.7839872,0.1331811,-0.007874827,-0.08232264,0.20419183,800.6227,782.0879,802.6374,803.44324,894.5055,-0.1082763671875,-0.0372314453125,0.9833984375,-7.873077392578125,-4.373931884765625,-24.680938720703125,1,1.0,1.0,1.0,1.0,10.00
2024-10-11 20:20:13.044,0.9499207,0.6553782,0.60307825,0.91351974,0.62464887,0.50950915,0.1041597,0.85645777,0.99073803,0.3955152,0.1940413,0.7226373,0.6545155,0.30839396,0.23184311,0.7839872,0.1331811,-0.007874827,-0.08232264,0.20419183,801.4286,790.14655,810.696,806.26373,781.685,-0.1082763671875,-0.0372314453125,0.9833984375,-7.873077392578125,-4.373931884765625,-24.680938720703125,1,1.0,1.0,1.0,1.0,10.00
2024-10-11 20:20:13.044,0.9499207,0.6553782,0.60307825,0.91351974,0.62464887,0.50950915,0.1041597,0.85645777,0.99073803,0.3955152,0.1940413,0.7226373,0.6545155,0.30839396,0.23184311,0.7839872,0.1331811,-0.007874827,-0.08232264,0.20419183,797.8022,801.02563,817.1429,799.81683,580.6227,-0.1082763671875,-0.0372314453125,0.9833984375,-7.873077392578125,-4.373931884765625,-24.680938720703125,1,1.0,1.0,1.0,1.0,10.00
2024-10-11 20:20:13.045,0.9499207,0.6553782,0.60307825,0.91351974,0.62464887,0.50950915,0.1041597,0.85645777,0.99073803,0.3955152,0.1940413,0.7226373,0.6545155,0.30839396,0.23184311,0.7839872,0.1331811,-0.007874827,-0.08232264,0.20419183,807.47253,799.81683,815.12823,801.02563,546.3736,-0.1082763671875,-0.0372314453125,0.9833984375,-7.873077392578125,-4.373931884765625,-24.680938720703125,1,1.0,1.0,1.0,1.0,10.00
2024-10-11 20:20:13.046,0.9499207,0.6553782,0.60307825,0.91351974,0.62464887,0.50950915,0.1041597,0.85645777,0.99073803,0.3955152,0.1940413,0.7226373,0.6545155,0.30839396,0.23184311,0.7839872,0.1331811,-0.007874827,-0.08232264,0.20419183,806.26373,788.5348,809.4872,809.0842,838.49817,-0.1082763671875,-0.0372314453125,0.9833984375,-7.873077392578125,-4.373931884765625,-24.680938720703125,1,1.0,1.0,1.0,1.0,10.00
2024-10-11 20:20:13.046,0.9499207,0.6553782,0.60307825,0.91351974,0.62464887,0.50950915,0.1041597,0.85645777,0.99073803,0.3955152,0.1940413,0.7226373,0.6545155,0.30839396,0.23184311,0.7839872,0.1331811,-0.007874827,-0.08232264,0.20419183,798.20514,788.1319,811.50183,808.2784,855.42126,-0.1082763671875,-0.0372314453125,0.9833984375,-7.873077392578125,-4.373931884765625,-24.680938720703125,1,1.0,1.0,1.0,1.0,10.00
2024-10-11 20:20:13.047,0.9499207,0.6553782,0.60307825,0.91351974,0.62464887,0.50950915,0.1041597,0.85645777,0.99073803,0.3955152,0.1940413,0.7226373,0.6545155,0.30839396,0.23184311,0.7839872,0.1331811,-0.007874827,-0.08232264,0.20419183,796.99634,794.9817,813.5165,803.8461,508.9011,-0.1082763671875,-0.0372314453125,0.9833984375,-7.873077392578125,-4.373931884765625,-24.680938720703125,1,1.0,1.0,1.0,1.0,10.00
2024-10-11 20:20:13.048,0.9499207,0.6553782,0.60307825,0.91351974,0.62464887,0.50950915,0.1041597,0.85645777,0.99073803,0.3955152,0.1940413,0.7226373,0.6545155,0.30839396,0.23184311,0.7839872,0.1331811,-0.007874827,-0.08232264,0.20419183,805.05493,798.60803,811.9048,804.2491,520.58606,-0.1082763671875,-0.0372314453125,0.9833984375,-7.873077392578125,-4.373931884765625,-24.680938720703125,1,1.0,1.0,1.0,1.0,10.00
2024-10-11 20:20:13.049,0.9499207,0.6553782,0.60307825,0.91351974,0.62464887,0.50950915,0.1041597,0.85645777,0.99073803,0.3955152,0.1940413,0.7226373,0.6545155,0.30839396,0.23184311,0.7839872,0.1331811,-0.007874827,-0.08232264,0.20419183,805.05493,798.20514,809.89014,800.2198,723.2601,-0.10443115234375,-0.04083251953125,1.0037841796875,-4.239349365234375,-3.87298583984375,-18.206024169921875,1,1.0,1.0,1.0,1.0,10.00
2024-10-11 20:20:13.050,0.9499207,0.6553782,0.60307825,0.91351974,0.62464887,0.50950915,0.1041597,0.85645777,0.99073803,0.3955152,0.1940413,0.7226373,0.6545155,0.30839396,0.23184311,0.7839872,0.1331811,-0.007874827,-0.08232264,0.20419183,794.17584,786.1172,808.2784,793.7729,625.7509,-0.10443115234375,-0.04083251953125,1.0037841796875,-4.239349365234375,-3.87298583984375,-18.206024169921875,1,1.0,1.0,1.0,1.0,10.00
2024-10-11 20:20:13.050,0.9499207,0.6553782,0.60307825,0.91351974,0.62464887,0.50950915,0.1041597,0.85645777,0.99073803,0.3955152,0.1940413,0.7226373,0.6545155,0.30839396,0.23184311,0.7839872,0.1331811,-0.007874827,-0.08232264,0.20419183,792.96704,781.685,804.65204,796.1905,507.28937,-0.10443115234375,-0.04083251953125,1.0037841796875,-4.239349365234375,-3.87298583984375,-18.206024169921875,1,1.0,1.0,1.0,1.0,10.00
2024-10-11 20:20:13.051,0.9499207,0.6553782,0.60307825,0.91351974,0.62464887,0.50950915,0.1041597,0.85645777,0.99073803,0.3955152,0.1940413,0.7226373,0.6545155,0.30839396,0.23184311,0.7839872,0.1331811,-0.007874827,-0.08232264,0.20419183,803.44324,791.3553,803.0403,802.23444,644.2857,-0.10443115234375,-0.04083251953125,1.0037841796875,-4.239349365234375,-3.87298583984375,-18.206024169921875,1,1.0,1.0,1.0,1.0,10.00
2024-10-11 20:20:13.052,0.9499207,0.6553782,0.60307825,0.91351974,0.62464887,0.50950915,0.1041597,0.85645777,0.99073803,0.3955152,0.1940413,0.7226373,0.6545155,0.30839396,0.23184311,0.7839872,0.1331811,-0.007874827,-0.08232264,0.20419183,799.011,795.38464,804.65204,797.8022,743.00366,-0.10443115234375,-0.04083251953125,1.0037841796875,-4.239349365234375,-3.87298583984375,-18.206024169921875,1,1.0,1.0,1.0,1.0,10.00
2024-10-11 20:20:13.052,0.90352035,0.67061067,0.5990118,0.8500235,0.6352539,0.5227477,0.06402693,0.85243976,0.95779604,0.3955152,0.17903322,0.7226373,0.67874205,0.31587905,0.25683954,0.8202847,0.16594605,0.0019618785,-0.07610834,0.23475704,791.75824,789.34064,808.68134,805.4579,673.2967,-0.10443115234375,-0.04083251953125,1.0037841796875,-4.239349365234375,-3.87298583984375,-18.206024169921875,1,1.0,1.0,1.0,1.0,10.00
2024-10-11 20:20:13.058,0.90352035,0.67061067,0.5990118,0.8500235,0.6352539,0.5227477,0.06402693,0.85243976,0.95779604,0.3955152,0.17903322,0.7226373,0.67874205,0.31587905,0.25683954,0.8202847,0.16594605,0.0019618785,-0.07610834,0.23475704,788.93774,786.52014,813.1135,809.4872,604.7985,-0.10443115234375,-0.04083251953125,1.0037841796875,-4.239349365234375,-3.87298583984375,-18.206024169921875,1,1.0,1.0,1.0,1.0,10.00
2024-10-11 20:20:13.059,0.90352035,0.67061067,0.5990118,0.8500235,0.6352539,0.5227477,0.06402693,0.85243976,0.95779604,0.3955152,0.17903322,0.7226373,0.67874205,0.31587905,0.25683954,0.8202847,0.16594605,0.0019618785,-0.07610834,0.23475704,786.9231,793.36993,811.9048,809.4872,745.42126,-0.10443115234375,-0.04083251953125,1.0037841796875,-4.239349365234375,-3.87298583984375,-18.206024169921875,1,1.0,1.0,1.0,1.0,10.00
2024-10-11 20:20:13.060,0.90352035,0.67061067,0.5990118,0.8500235,0.6352539,0.5227477,0.06402693,0.85243976,0.95779604,0.3955152,0.17903322,0.7226373,0.67874205,0.31587905,0.25683954,0.8202847,0.16594605,0.0019618785,-0.07610834,0.23475704,790.9524,796.1905,805.8608,812.3077,874.7619,-0.10443115234375,-0.04083251953125,1.0037841796875,-4.239349365234375,-3.87298583984375,-18.206024169921875,1,1.0,1.0,1.0,1.0,10.00
2024-10-11 20:20:13.061,0.90352035,0.67061067,0.5990118,0.8500235,0.6352539,0.5227477,0.06402693,0.85243976,0.95779604,0.3955152,0.17903322,0.7226373,0.67874205,0.31587905,0.25683954,0.8202847,0.16594605,0.0019618785,-0.07610834,0.23475704,801.02563,795.38464,803.0403,807.0696,779.67035,-0.10443115234375,-0.04083251953125,1.0037841796875,-4.239349365234375,-3.87298583984375,-18.206024169921875,1,1.0,1.0,1.0,1.0,10.00
2024-10-11 20:20:13.062,0.90352035,0.67061067,0.5990118,0.8500235,0.6352539,0.5227477,0.06402693,0.85243976,0.95779604,0.3955152,0.17903322,0.7226373,0.67874205,0.31587905,0.25683954,0.8202847,0.16594605,0.0019618785,-0.07610834,0.23475704,807.8755,801.8315,807.0696,800.6227,621.7216,-0.10443115234375,-0.04083251953125,1.0037841796875,-4.239349365234375,-3.87298583984375,-18.206024169921875,1,1.0,1.0,1.0,1.0,10.00
2024-10-11 20:20:13.063,0.90352035,0.67061067,0.5990118,0.8500235,0.6352539,0.5227477,0.06402693,0.85243976,0.95779604,0.3955152,0.17903322,0.7226373,0.67874205,0.31587905,0.25683954,0.8202847,0.16594605,0.0019618785,-0.07610834,0.23475704,796.5934,799.41394,806.6667,799.81683,702.3077,-0.10443115234375,-0.04083251953125,1.0037841796875,-4.239349365234375,-3.87298583984375,-18.206024169921875,1,1.0,1.0,1.0,1.0,10.00
2024-10-11 20:20:13.094,0.90352035,0.67061067,0.5990118,0.8500235,0.6352539,0.5227477,0.06402693,0.85243976,0.95779604,0.3955152,0.17903322,0.7226373,0.67874205,0.31587905,0.25683954,0.8202847,0.16594605,0.0019618785,-0.07610834,0.23475704,792.96704,798.20514,803.0403,801.02563,917.47253,-0.1181640625,-0.0391845703125,1.00543212890625,-5.38330078125,-1.876678466796875,-16.905059814453125,1,1.0,1.0,1.0,1.0,10.00
2024-10-11 20:20:13.095,0.90352035,0.67061067,0.5990118,0.8500235,0.6352539,0.5227477,0.06402693,0.85243976,0.95779604,0.3955152,0.17903322,0.7226373,0.67874205,0.31587905,0.25683954,0.8202847,0.16594605,0.0019618785,-0.07610834,0.23475704,790.14655,800.2198,809.0842,801.4286,740.18317,-0.1181640625,-0.0391845703125,1.00543212890625,-5.38330078125,-1.876678466796875,-16.905059814453125,1,1.0,1.0,1.0,1.0,10.00
2024-10-11 20:20:13.096,0.90352035,0.67061067,0.5990118,0.8500235,0.6352539,0.5227477,0.06402693,0.85243976,0.95779604,0.3955152,0.17903322,0.7226373,0.67874205,0.31587905,0.25683954,0.8202847,0.16594605,0.0019618785,-0.07610834,0.23475704,780.4762,792.96704,808.68134,800.6227,618.49817,-0.1181640625,-0.0391845703125,1.00543212890625,-5.38330078125,-1.876678466796875,-16.905059814453125,1,1.0,1.0,1.0,1.0,10.00
2024-10-11 20:20:13.097,0.90352035,0.67061067,0.5990118,0.8500235,0.6352539,0.5227477,0.06402693,0.85243976,0.95779604,0.3955152,0.17903322,0.7226373,0.67874205,0.31587905,0.25683954,0.8202847,0.16594605,0.0019618785,-0.07610834,0.23475704,792.1612,796.1905,804.2491,801.4286,683.36993,-0.1181640625,-0.0391845703125,1.00543212890625,-5.38330078125,-1.876678466796875,-16.905059814453125,1,1.0,1.0,1.0,1.0,10.00
2024-10-11 20:20:13.098,0.90352035,0.67061067,0.5990118,0.8500235,0.6352539,0.5227477,0.06402693,0.85243976,0.95779604,0.3955152,0.17903322,0.7226373,0.67874205,0.31587905,0.25683954,0.8202847,0.16594605,0.0019618785,-0.07610834,0.23475704,799.011,799.81683,807.47253,804.2491,809.0842,-0.1181640625,-0.0391845703125,1.00543212890625,-5.38330078125,-1.876678466796875,-16.905059814453125,1,1.0,1.0,1.0,1.0,10.00
2024-10-11 20:20:13.099,0.90352035,0.67061067,0.5990118,0.8500235,0.6352539,0.5227477,0.06402693,0.85243976,0.95779604,0.3955152,0.17903322,0.7226373,0.67874205,0.31587905,0.25683954,0.8202847,0.16594605,0.0019618785,-0.07610834,0.23475704,792.96704,798.20514,802.23444,796.1905,864.2857,-0.1181640625,-0.0391845703125,1.00543212890625,-5.38330078125,-1.876678466796875,-16.905059814453125,1,1.0,1.0,1.0,1.0,10.00
2024-10-11 20:20:13.100,0.90352035,0.67061067,0.5990118,0.8500235,0.6352539,0.5227477,0.06402693,0.85243976,0.95779604,0.3955152,0.17903322,0.7226373,0.67874205,0.31587905,0.25683954,0.8202847,0.16594605,0.0019618785,-0.07610834,0.23475704,790.14655,799.011,796.5934,787.72894,820.7692,-0.1181640625,-0.0391845703125,1.00543212890625,-5.38330078125,-1.876678466796875,-16.905059814453125,1,1.0,1.0,1.0,1.0,10.00
2024-10-11 20:20:13.101,0.90352035,0.67061067,0.5990118,0.8500235,0.6352539,0.5227477,0.06402693,0.85243976,0.95779604,0.3955152,0.17903322,0.7226373,0.67874205,0.31587905,0.25683954,0.8202847,0.16594605,0.0019618785,-0.07610834,0.23475704,796.99634,797.8022,802.6374,794.9817,926.337,-0.1181640625,-0.0391845703125,1.00543212890625,-5.38330078125,-1.876678466796875,-16.905059814453125,1,1.0,1.0,1.0,1.0,10.00
2024-10-11 20:20:13.102,0.90352035,0.67061067,0.5990118,0.8500235,0.6352539,0.5227477,0.06402693,0.85243976,0.95779604,0.3955152,0.17903322,0.7226373,0.67874205,0.31587905,0.25683954,0.8202847,0.16594605,0.0019618785,-0.07610834,0.23475704,805.8608,801.02563,803.8461,798.60803,974.2857,-0.1181640625,-0.0391845703125,1.00543212890625,-5.38330078125,-1.876678466796875,-16.905059814453125,1,1.0,1.0,1.0,1.0,10.00
2024-10-11 20:20:13.103,0.90352035,0.67061067,0.5990118,0.8500235,0.6352539,0.5227477,0.06402693,0.85243976,0.95779604,0.3955152,0.17903322,0.7226373,0.67874205,0.31587905,0.25683954,0.8202847,0.16594605,0.0019618785,-0.07610834,0.23475704,796.99634,797.8022,804.2491,799.011,903.7729,-0.1181640625,-0.0391845703125,1.00543212890625,-5.38330078125,-1.876678466796875,-16.905059814453125,1,1.0,1.0,1.0,1.0,10.00
2024-10-11 20:20:13.104,0.90352035,0.67061067,0.5990118,0.8500235,0.6352539,0.5227477,0.06402693,0.85243976,0.95779604,0.3955152,0.17903322,0.7226373,0.67874205,0.31587905,0.25683954,0.8202847,0.16594605,0.0019618785,-0.07610834,0.23475704,790.54944,786.52014,803.44324,802.23444,705.12823,-0.1181640625,-0.0391845703125,1.00543212890625,-5.38330078125,-1.876678466796875,-16.905059814453125,1,1.0,1.0,1.0,1.0,10.00
2024-10-11 20:20:13.105,0.90352035,0.67061067,0.5990118,0.8500235,0.6352539,0.5227477,0.06402693,0.85243976,0.95779604,0.3955152,0.17903322,0.7226373,0.67874205,0.31587905,0.25683954,0.8202847,0.16594605,0.0019618785,-0.07610834,0.23475704,788.5348,776.8498,806.6667,799.81683,968.6447,-0.1181640625,-0.0391845703125,1.00543212890625,-5.38330078125,-1.876678466796875,-16.905059814453125,1,1.0,1.0,1.0,1.0,10.00
2024-10-11 20:20:13.134,0.90352035,0.67061067,0.5990118,0.8500235,0.6352539,0.5227477,0.06402693,0.85243976,0.95779604,0.3955152,0.17903322,0.7226373,0.67874205,0.31587905,0.25683954,0.8202847,0.16594605,0.0019618785,-0.07610834,0.23475704,803.0403,777.6557,809.0842,813.5165,1391.7216,-0.1199951171875,-0.04913330078125,1.00616455078125,-5.81695556640625,0.471038818359375,-17.413482666015625,1,1.0,1.0,1.0,1.0,10.00
2024-10-11 20:20:13.135,0.90352035,0.67061067,0.5990118,0.8500235,0.6352539,0.5227477,0.06402693,0.85243976,0.95779604,0.3955152,0.17903322,0.7226373,0.67874205,0.31587905,0.25683954,0.8202847,0.16594605,0.0019618785,-0.07610834,0.23475704,814.3223,792.5641,806.26373,813.91943,1229.3407,-0.1199951171875,-0.04913330078125,1.00616455078125,-5.81695556640625,0.471038818359375,-17.413482666015625,1,1.0,1.0,1.0,1.0,10.00
2024-10-11 20:20:13.136,0.90352035,0.67061067,0.5990118,0.8500235,0.6352539,0.5227477,0.06402693,0.85243976,0.95779604,0.3955152,0.17903322,0.7226373,0.67874205,0.31587905,0.25683954,0.8202847,0.16594605,0.0019618785,-0.07610834,0.23475704,808.68134,806.26373,804.2491,796.99634,811.50183,-0.1199951171875,-0.04913330078125,1.00616455078125,-5.81695556640625,0.471038818359375,-17.413482666015625,1,1.0,1.0,1.0,1.0,10.00
2024-10-11 20:20:13.137,0.90352035,0.67061067,0.5990118,0.8500235,0.6352539,0.5227477,0.06402693,0.85243976,0.95779604,0.3955152,0.17903322,0.7226373,0.67874205,0.31587905,0.25683954,0.8202847,0.16594605,0.0019618785,-0.07610834,0.23475704,799.011,806.6667,798.20514,786.52014,684.17584,-0.1199951171875,-0.04913330078125,1.00616455078125,-5.81695556640625,0.471038818359375,-17.413482666015625,1,1.0,1.0,1.0,1.0,10.00
2024-10-11 20:20:13.138,0.90352035,0.67061067,0.5990118,0.8500235,0.6352539,0.5227477,0.06402693,0.85243976,0.95779604,0.3955152,0.17903322,0.7226373,0.67874205,0.31587905,0.25683954,0.8202847,0.16594605,0.0019618785,-0.07610834,0.23475704,790.54944,807.0696,800.6227,782.8938,632.6007,-0.1199951171875,-0.04913330078125,1.00616455078125,-5.81695556640625,0.471038818359375,-17.413482666015625,1,1.0,1.0,1.0,1.0,10.00
2024-10-11 20:20:13.139,0.90352035,0.67061067,0.5990118,0.8500235,0.6352539,0.5227477,0.06402693,0.85243976,0.95779604,0.3955152,0.17903322,0.7226373,0.67874205,0.31587905,0.25683954,0.8202847,0.16594605,0.0019618785,-0.07610834,0.23475704,796.5934,807.0696,805.05493,790.54944,711.5751,-0.1199951171875,-0.04913330078125,1.00616455078125,-5.81695556640625,0.471038818359375,-17.413482666015625,1,1.0,1.0,1.0,1.0,10.00
2024-10-11 20:20:13.140,0.90352035,0.67061067,0.5990118,0.8500235,0.6352539,0.5227477,0.06402693,0.85243976,0.95779604,0.3955152,0.17903322,0.7226373,0.67874205,0.31587905,0.25683954,0.8202847,0.16594605,0.0019618785,-0.07610834,0.23475704,802.6374,798.60803,801.4286,799.011,834.0659,-0.1199951171875,-0.04913330078125,1.00616455078125,-5.81695556640625,0.471038818359375,-17.413482666015625,1,1.0,1.0,1.0,1.0,10.00
2024-10-11 20:20:13.141,0.8526708,0.66528034,0.5923931,0.77151406,0.6586196,0.5179687,0.04147952,0.85463226,0.95779604,0.3955152,0.17397177,0.7226373,0.710905,0.31878302,0.26713598,0.8602676,0.20370698,0.008573148,-0.07670942,0.26374856,802.6374,794.9817,801.4286,807.0696,1010.14655,-0.1199951171875,-0.04913330078125,1.00616455078125,-5.81695556640625,0.471038818359375,-17.413482666015625,1,1.0,1.0,1.0,1.0,10.00
2024-10-11 20:20:13.147,0.8526708,0.66528034,0.5923931,0.77151406,0.6586196,0.5179687,0.04147952,0.85463226,0.95779604,0.3955152,0.17397177,0.7226373,0.710905,0.31878302,0.26713598,0.8602676,0.20370698,0.008573148,-0.07670942,0.26374856,808.68134,802.23444,806.26373,803.0403,748.24176,-0.1199951171875,-0.04913330078125,1.00616455078125,-5.81695556640625,0.471038818359375,-17.413482666015625,1,1.0,1.0,1.0,1.0,10.00
2024-10-11 20:20:13.148,0.8526708,0.66528034,0.5923931,0.77151406,0.6586196,0.5179687,0.04147952,0.85463226,0.95779604,0.3955152,0.17397177,0.7226373,0.710905,0.31878302,0.26713598,0.8602676,0.20370698,0.008573148,-0.07670942,0.26374856,803.0403,803.8461,807.0696,797.3993,563.69965,-0.1199951171875,-0.04913330078125,1.00616455078125,-5.81695556640625,0.471038818359375,-17.413482666015625,1,1.0,1.0,1.0,1.0,10.00
2024-10-11 20:20:13.149,0.8526708,0.66528034,0.5923931,0.77151406,0.6586196,0.5179687,0.04147952,0.85463226,0.95779604,0.3955152,0.17397177,0.7226373,0.710905,0.31878302,0.26713598,0.8602676,0.20370698,0.008573148,-0.07670942,0.26374856,799.011,801.4286,805.8608,809.0842,742.1978,-0.1199951171875,-0.04913330078125,1.00616455078125,-5.81695556640625,0.471038818359375,-17.413482666015625,1,1.0,1.0,1.0,1.0,10.00
2024-10-11 20:20:13.151,0.8526708,0.66528034,0.5923931,0.77151406,0.6586196,0.5179687,0.04147952,0.85463226,0.95779604,0.3955152,0.17397177,0.7226373,0.710905,0.31878302,0.26713598,0.8602676,0.20370698,0.008573148,-0.07670942,0.26374856,796.5934,799.81683,805.4579,809.89014,858.24176,-0.1199951171875,-0.04913330078125,1.00616455078125,-5.81695556640625,0.471038818359375,-17.413482666015625,1,1.0,1.0,1.0,1.0,10.00
2024-10-11 20:20:13.181,0.8526708,0.66528034,0.5923931,0.77151406,0.6586196,0.5179687,0.04147952,0.85463226,0.95779604,0.3955152,0.17397177,0.7226373,0.710905,0.31878302,0.26713598,0.8602676,0.20370698,0.008573148,-0.07670942,0.26374856,790.14655,798.60803,802.23444,806.26373,689.41394,-0.11572265625,-0.05401611328125,1.01123046875,-6.721649169921875,2.280426025390625,-15.791015625,1,1.0,1.0,1.0,1.0,10.00
2024-10-11 20:20:13.183,0.8526708,0.66528034,0.5923931,0.77151406,0.6586196,0.5179687,0.04147952,0.85463226,0.95779604,0.3955152,0.17397177,0.7226373,0.710905,0.31878302,0.26713598,0.8602676,0.20370698,0.008573148,-0.07670942,0.26374856,794.17584,787.326,805.05493,807.8755,532.674,-0.11572265625,-0.05401611328125,1.01123046875,-6.721649169921875,2.280426025390625,-15.791015625,1,1.0,1.0,1.0,1.0,10.00
2024-10-11 20:20:13.184,0.8526708,0.66528034,0.5923931,0.77151406,0.6586196,0.5179687,0.04147952,0.85463226,0.95779604,0.3955152,0.17397177,0.7226373,0.710905,0.31878302,0.26713598,0.8602676,0.20370698,0.008573148,-0.07670942,0.26374856,794.17584,789.34064,807.8755,798.20514,717.619,-0.11572265625,-0.05401611328125,1.01123046875,-6.721649169921875,2.280426025390625,-15.791015625,1,1.0,1.0,1.0,1.0,10.00
2024-10-11 20:20:13.185,0.8526708,0.66528034,0.5923931,0.77151406,0.6586196,0.5179687,0.04147952,0.85463226,0.95779604,0.3955152,0.17397177,0.7226373,0.710905,0.31878302,0.26713598,0.8602676,0.20370698,0.008573148,-0.07670942,0.26374856,795.38464,805.8608,809.0842,800.6227,656.3736,-0.11572265625,-0.05401611328125,1.01123046875,-6.721649169921875,2.280426025390625,-15.791015625,1,1.0,1.0,1.0,1.0,10.00
2024-10-11 20:20:13.186,0.8526708,0.66528034,0.5923931,0.77151406,0.6586196,0.5179687,0.04147952,0.85463226,0.95779604,0.3955152,0.17397177,0.7226373,0.710905,0.31878302,0.26713598,0.8602676,0.20370698,0.008573148,-0.07670942,0.26374856,811.0989,809.4872,804.2491,806.26373,417.43588,-0.11572265625,-0.05401611328125,1.01123046875,-6.721649169921875,2.280426025390625,-15.791015625,1,1.0,1.0,1.0,1.0,10.00
2024-10-11 20:20:13.187,0.8526708,0.66528034,0.5923931,0.77151406,0.6586196,0.5179687,0.04147952,0.85463226,0.95779604,0.3955152,0.17397177,0.7226373,0.710905,0.31878302,0.26713598,0.8602676,0.20370698,0.008573148,-0.07670942,0.26374856,809.89014,801.02563,803.0403,803.8461,588.68134,-0.11572265625,-0.05401611328125,1.01123046875,-6.721649169921875,2.280426025390625,-15.791015625,1,1.0,1.0,1.0,1.0,10.00
2024-10-11 20:20:13.188,0.8526708,0.66528034,0.5923931,0.77151406,0.6586196,0.5179687,0.04147952,0.85463226,0.95779604,0.3955152,0.17397177,0.7226373,0.710905,0.31878302,0.26713598,0.8602676,0.20370698,0.008573148,-0.07670942,0.26374856,805.05493,794.17584,807.8755,810.696,960.18317,-0.11572265625,-0.05401611328125,1.01123046875,-6.721649169921875,2.280426025390625,-15.791015625,1,1.0,1.0,1.0,1.0,10.00
2024-10-11 20:20:13.189,0.8526708,0.66528034,0.5923931,0.77151406,0.6586196,0.5179687,0.04147952,0.85463226,0.95779604,0.3955152,0.17397177,0.7226373,0.710905,0.31878302,0.26713598,0.8602676,0.20370698,0.008573148,-0.07670942,0.26374856,797.3993,798.20514,808.68134,811.0989,749.85345,-0.11572265625,-0.05401611328125,1.01123046875,-6.721649169921875,2.280426025390625,-15.791015625,1,1.0,1.0,1.0,1.0,10.00
2024-10-11 20:20:13.190,0.8526708,0.66528034,0.5923931,0.77151406,0.6586196,0.5179687,0.04147952,0.85463226,0.95779604,0.3955152,0.17397177,0.7226373,0.710905,0.31878302,0.26713598,0.8602676,0.20370698,0.008573148,-0.07670942,0.26374856,787.72894,789.7436,809.4872,806.6667,472.23444,-0.11572265625,-0.05401611328125,1.01123046875,-6.721649169921875,2.280426025390625,-15.791015625,1,1.0,1.0,1.0,1.0,10.00
2024-10-11 20:20:13.191,0.8526708,0.66528034,0.5923931,0.77151406,0.6586196,0.5179687,0.04147952,0.85463226,0.95779604,0.3955152,0.17397177,0.7226373,0.710905,0.31878302,0.26713598,0.8602676,0.20370698,0.008573148,-0.07670942,0.26374856,791.3553,788.5348,811.0989,811.9048,500.8425,-0.11572265625,-0.05401611328125,1.01123046875,-6.721649169921875,2.280426025390625,-15.791015625,1,1.0,1.0,1.0,1.0,10.00
2024-10-11 20:20:13.192,0.8526708,0.66528034,0.5923931,0.77151406,0.6586196,0.5179687,0.04147952,0.85463226,0.95779604,0.3955152,0.17397177,0.7226373,0.710905,0.31878302,0.26713598,0.8602676,0.20370698,0.008573148,-0.07670942,0.26374856,787.72894,795.78754,809.0842,811.9048,807.47253,-0.11572265625,-0.05401611328125,1.01123046875,-6.721649169921875,2.280426025390625,-15.791015625,1,1.0,1.0,1.0,1.0,10.00
2024-10-11 20:20:13.192,0.8526708,0.66528034,0.5923931,0.77151406,0.6586196,0.5179687,0.04147952,0.85463226,0.95779604,0.3955152,0.17397177,0.7226373,0.710905,0.31878302,0.26713598,0.8602676,0.20370698,0.008573148,-0.07670942,0.26374856,788.1319,800.6227,804.2491,815.9341,863.8828,-0.11572265625,-0.05401611328125,1.01123046875,-6.721649169921875,2.280426025390625,-15.791015625,1,1.0,1.0,1.0,1.0,10.00
2024-10-11 20:20:13.222,0.8526708,0.66528034,0.5923931,0.77151406,0.6586196,0.5179687,0.04147952,0.85463226,0.95779604,0.3955152,0.17397177,0.7226373,0.710905,0.31878302,0.26713598,0.8602676,0.20370698,0.008573148,-0.07670942,0.26374856,794.9817,795.38464,808.68134,815.9341,684.9817,-0.12200927734375,-0.07135009765625,1.01483154296875,-8.650665283203125,3.7384033203125,-12.142333984375,1,1.0,1.0,1.0,1.0,10.00
2024-10-11 20:20:13.223,0.8526708,0.66528034,0.5923931,0.77151406,0.6586196,0.5179687,0.04147952,0.85463226,0.95779604,0.3955152,0.17397177,0.7226373,0.710905,0.31878302,0.26713598,0.8602676,0.20370698,0.008573148,-0.07670942,0.26374856,805.4579,791.3553,803.8461,816.7399,668.86444,-0.12200927734375,-0.07135009765625,1.01483154296875,-8.650665283203125,3.7384033203125,-12.142333984375,1,1.0,1.0,1.0,1.0,10.00
2024-10-11 20:20:13.224,0.8526708,0.66528034,0.5923931,0.77151406,0.6586196,0.5179687,0.04147952,0.85463226,0.95779604,0.3955152,0.17397177,0.7226373,0.710905,0.31878302,0.26713598,0.8602676,0.20370698,0.008573148,-0.07670942,0.26374856,811.9048,795.38464,800.2198,827.619,996.4469,-0.12200927734375,-0.07135009765625,1.01483154296875,-8.650665283203125,3.7384033203125,-12.142333984375,1,1.0,1.0,1.0,1.0,10.00
2024-10-11 20:20:13.225,0.8526708,0.66528034,0.5923931,0.77151406,0.6586196,0.5179687,0.04147952,0.85463226,0.95779604,0.3955152,0.17397177,0.7226373,0.710905,0.31878302,0.26713598,0.8602676,0.20370698,0.008573148,-0.07670942,0.26374856,812.3077,801.02563,811.50183,821.978,1012.5641,-0.12200927734375,-0.07135009765625,1.01483154296875,-8.650665283203125,3.7384033203125,-12.142333984375,1,1.0,1.0,1.0,1.0,10.00
2024-10-11 20:20:13.226,0.8526708,0.66528034,0.5923931,0.77151406,0.6586196,0.5179687,0.04147952,0.85463226,0.95779604,0.3955152,0.17397177,0.7226373,0.710905,0.31878302,0.26713598,0.8602676,0.20370698,0.008573148,-0.07670942,0.26374856,815.9341,801.8315,814.7253,810.696,789.7436,-0.12200927734375,-0.07135009765625,1.01483154296875,-8.650665283203125,3.7384033203125,-12.142333984375,1,1.0,1.0,1.0,1.0,10.00
2024-10-11 20:20:13.226,0.8526708,0.66528034,0.5923931,0.77151406,0.6586196,0.5179687,0.04147952,0.85463226,0.95779604,0.3955152,0.17397177,0.7226373,0.710905,0.31878302,0.26713598,0.8602676,0.20370698,0.008573148,-0.07670942,0.26374856,807.47253,796.1905,811.9048,811.9048,790.9524,-0.12200927734375,-0.07135009765625,1.01483154296875,-8.650665283203125,3.7384033203125,-12.142333984375,1,1.0,1.0,1.0,1.0,10.00
2024-10-11 20:20:13.227,0.8526708,0.66528034,0.5923931,0.77151406,0.6586196,0.5179687,0.04147952,0.85463226,0.95779604,0.3955152,0.17397177,0.7226373,0.710905,0.31878302,0.26713598,0.8602676,0.20370698,0.008573148,-0.07670942,0.26374856,803.0403,785.31134,810.293,815.9341,1153.1868,-0.12200927734375,-0.07135009765625,1.01483154296875,-8.650665283203125,3.7384033203125,-12.142333984375,1,1.0,1.0,1.0,1.0,10.00
2024-10-11 20:20:13.228,0.8526708,0.66528034,0.5923931,0.77151406,0.6586196,0.5179687,0.04147952,0.85463226,0.95779604,0.3955152,0.17397177,0.7226373,0.710905,0.31878302,0.26713598,0.8602676,0.20370698,0.008573148,-0.07670942,0.26374856,806.26373,787.72894,808.2784,820.3663,1400.989,-0.12200927734375,-0.07135009765625,1.01483154296875,-8.650665283203125,3.7384033203125,-12.142333984375,1,1.0,1.0,1.0,1.0,10.00
2024-10-11 20:20:13.229,0.8526708,0.66528034,0.5923931,0.77151406,0.6586196,0.5179687,0.04147952,0.85463226,0.95779604,0.3955152,0.17397177,0.7226373,0.710905,0.31878302,0.26713598,0.8602676,0.20370698,0.008573148,-0.07670942,0.26374856,804.65204,799.011,809.4872,810.293,960.18317,-0.12200927734375,-0.07135009765625,1.01483154296875,-8.650665283203125,3.7384033203125,-12.142333984375,1,1.0,1.0,1.0,1.0,10.00
2024-10-11 20:20:13.229,0.83039075,0.65780365,0.58739287,0.73215795,0.6999958,0.5085608,0.028769098,0.8635913,0.95779604,0.3955152,0.17021936,0.7226373,0.7493397,0.31997123,0.2683463,0.89989346,0.23931609,0.009897732,-0.08119678,0.29027626,804.65204,799.011,805.4579,799.81683,659.59705,-0.12200927734375,-0.07135009765625,1.01483154296875,-8.650665283203125,3.7384033203125,-12.142333984375,1,1.0,1.0,1.0,1.0,10.00
2024-10-11 20:20:13.236,0.83039075,0.65780365,0.58739287,0.73215795,0.6999958,0.5085608,0.028769098,0.8635913,0.95779604,0.3955152,0.17021936,0.7226373,0.7493397,0.31997123,0.2683463,0.89989346,0.23931609,0.009897732,-0.08119678,0.29027626,798.20514,796.99634,806.6667,794.57874,655.16486,-0.12200927734375,-0.07135009765625,1.01483154296875,-8.650665283203125,3.7384033203125,-12.142333984375,1,1.0,1.0,1.0,1.0,10.00
2024-10-11 20:20:13.237,0.83039075,0.65780365,0.58739287,0.73215795,0.6999958,0.5085608,0.028769098,0.8635913,0.95779604,0.3955152,0.17021936,0.7226373,0.7493397,0.31997123,0.2683463,0.89989346,0.23931609,0.009897732,-0.08119678,0.29027626,798.20514,794.9817,808.68134,796.1905,693.0403,-0.12200927734375,-0.07135009765625,1.01483154296875,-8.650665283203125,3.7384033203125,-12.142333984375,1,1.0,1.0,1.0,1.0,10.00
2024-10-11 20:20:13.265,0.83039075,0.65780365,0.58739287,0.73215795,0.6999958,0.5085608,0.028769098,0.8635913,0.95779604,0.3955152,0.17021936,0.7226373,0.7493397,0.31997123,0.2683463,0.89989346,0.23931609,0.009897732,-0.08119678,0.29027626,799.81683,794.9817,805.8608,802.6374,680.9524,-0.12200927734375,-0.07135009765625,1.01483154296875,-8.650665283203125,3.7384033203125,-12.142333984375,1,1.0,1.0,1.0,1.0,10.00
2024-10-11 20:20:13.266,0.83039075,0.65780365,0.58739287,0.73215795,0.6999958,0.5085608,0.028769098,0.8635913,0.95779604,0.3955152,0.17021936,0.7226373,0.7493397,0.31997123,0.2683463,0.89989346,0.23931609,0.009897732,-0.08119678,0.29027626,801.02563,795.38464,808.68134,803.0403,702.71063,-0.12200927734375,-0.07135009765625,1.01483154296875,-8.650665283203125,3.7384033203125,-12.142333984375,1,1.0,1.0,1.0,1.0,10.00
2024-10-11 20:20:13.267,0.83039075,0.65780365,0.58739287,0.73215795,0.6999958,0.5085608,0.028769098,0.8635913,0.95779604,0.3955152,0.17021936,0.7226373,0.7493397,0.31997123,0.2683463,0.89989346,0.23931609,0.009897732,-0.08119678,0.29027626,802.6374,797.3993,809.89014,808.2784,718.022,-0.12200927734375,-0.07135009765625,1.01483154296875,-8.650665283203125,3.7384033203125,-12.142333984375,1,1.0,1.0,1.0,1.0,10.00
2024-10-11 20:20:13.268,0.83039075,0.65780365,0.58739287,0.73215795,0.6999958,0.5085608,0.028769098,0.8635913,0.95779604,0.3955152,0.17021936,0.7226373,0.7493397,0.31997123,0.2683463,0.89989346,0.23931609,0.009897732,-0.08119678,0.29027626,793.36993,800.6227,811.0989,809.4872,739.7802,-0.12200927734375,-0.07135009765625,1.01483154296875,-8.650665283203125,3.7384033203125,-12.142333984375,1,1.0,1.0,1.0,1.0,10.00
2024-10-11 20:20:13.269,0.83039075,0.65780365,0.58739287,0.73215795,0.6999958,0.5085608,0.028769098,0.8635913,0.95779604,0.3955152,0.17021936,0.7226373,0.7493397,0.31997123,0.2683463,0.89989346,0.23931609,0.009897732,-0.08119678,0.29027626,791.75824,803.0403,809.89014,808.2784,763.95605,-0.12200927734375,-0.07135009765625,1.01483154296875,-8.650665283203125,3.7384033203125,-12.142333984375,1,1.0,1.0,1.0,1.0,10.00
2024-10-11 20:20:13.269,0.83039075,0.65780365,0.58739287,0.73215795,0.6999958,0.5085608,0.028769098,0.8635913,0.95779604,0.3955152,0.17021936,0.7226373,0.7493397,0.31997123,0.2683463,0.89989346,0.23931609,0.009897732,-0.08119678,0.29027626,795.38464,803.0403,809.89014,815.9341,885.2381,-0.12200927734375,-0.07135009765625,1.01483154296875,-8.650665283203125,3.7384033203125,-12.142333984375,1,1.0,1.0,1.0,1.0,10.00
2024-10-11 20:20:13.270,0.83039075,0.65780365,0.58739287,0.73215795,0.6999958,0.5085608,0.028769098,0.8635913,0.95779604,0.3955152,0.17021936,0.7226373,0.7493397,0.31997123,0.2683463,0.89989346,0.23931609,0.009897732,-0.08119678,0.29027626,796.5934,794.9817,807.47253,807.0696,910.2198,-0.12200927734375,-0.07135009765625,1.01483154296875,-8.650665283203125,3.7384033203125,-12.142333984375,1,1.0,1.0,1.0,1.0,10.00
2024-10-11 20:20:13.271,0.83039075,0.65780365,0.58739287,0.73215795,0.6999958,0.5085608,0.028769098,0.8635913,0.95779604,0.3955152,0.17021936,0.7226373,0.7493397,0.31997123,0.2683463,0.89989346,0.23931609,0.009897732,-0.08119678,0.29027626,799.81683,791.3553,800.2198,799.011,836.8865,-0.12200927734375,-0.07135009765625,1.01483154296875,-8.650665283203125,3.7384033203125,-12.142333984375,1,1.0,1.0,1.0,1.0,10.00
2024-10-11 20:20:13.271,0.83039075,0.65780365,0.58739287,0.73215795,0.6999958,0.5085608,0.028769098,0.8635913,0.95779604,0.3955152,0.17021936,0.7226373,0.7493397,0.31997123,0.2683463,0.89989346,0.23931609,0.009897732,-0.08119678,0.29027626,806.6667,794.9817,803.0403,807.8755,810.293,-0.12200927734375,-0.07135009765625,1.01483154296875,-8.650665283203125,3.7384033203125,-12.142333984375,1,1.0,1.0,1.0,1.0,10.00
2024-10-11 20:20:13.272,0.83039075,0.65780365,0.58739287,0.73215795,0.6999958,0.5085608,0.028769098,0.8635913,0.95779604,0.3955152,0.17021936,0.7226373,0.7493397,0.31997123,0.2683463,0.89989346,0.23931609,0.009897732,-0.08119678,0.29027626,809.0842,798.20514,811.9048,811.50183,1011.75824,-0.12200927734375,-0.07135009765625,1.01483154296875,-8.650665283203125,3.7384033203125,-12.142333984375,1,1.0,1.0,1.0,1.0,10.00
2024-10-11 20:20:13.273,0.83039075,0.65780365,0.58739287,0.73215795,0.6999958,0.5085608,0.028769098,0.8635913,0.95779604,0.3955152,0.17021936,0.7226373,0.7493397,0.31997123,0.2683463,0.89989346,0.23931609,0.009897732,-0.08119678,0.29027626,819.15753,800.6227,805.8608,810.696,923.5165,-0.12200927734375,-0.07135009765625,1.01483154296875,-8.650665283203125,3.7384033203125,-12.142333984375,1,1.0,1.0,1.0,1.0,10.00
2024-10-11 20:20:13.274,0.83039075,0.65780365,0.58739287,0.73215795,0.6999958,0.5085608,0.028769098,0.8635913,0.95779604,0.3955152,0.17021936,0.7226373,0.7493397,0.31997123,0.2683463,0.89989346,0.23931609,0.009897732,-0.08119678,0.29027626,815.5311,795.78754,806.26373,810.293,575.78754,-0.12200927734375,-0.07135009765625,1.01483154296875,-8.650665283203125,3.7384033203125,-12.142333984375,1,1.0,1.0,1.0,1.0,10.00
2024-10-11 20:20:13.308,0.83039075,0.65780365,0.58739287,0.73215795,0.6999958,0.5085608,0.028769098,0.8635913,0.95779604,0.3955152,0.17021936,0.7226373,0.7493397,0.31997123,0.2683463,0.89989346,0.23931609,0.009897732,-0.08119678,0.29027626,805.05493,796.1905,814.3223,813.1135,692.6374,-0.13104248046875,-0.09619140625,0.998046875,-9.996490478515625,4.725341796875,-8.246917724609375,1,1.0,1.0,1.0,1.0,10.00
2024-10-11 20:20:13.309,0.83039075,0.65780365,0.58739287,0.73215795,0.6999958,0.5085608,0.028769098,0.8635913,0.95779604,0.3955152,0.17021936,0.7226373,0.7493397,0.31997123,0.2683463,0.89989346,0.23931609,0.009897732,-0.08119678,0.29027626,806.26373,799.41394,805.8608,804.65204,785.7143,-0.13104248046875,-0.09619140625,0.998046875,-9.996490478515625,4.725341796875,-8.246917724609375,1,1.0,1.0,1.0,1.0,10.00
2024-10-11 20:20:13.310,0.83039075,0.65780365,0.58739287,0.73215795,0.6999958,0.5085608,0.028769098,0.8635913,0.95779604,0.3955152,0.17021936,0.7226373,0.7493397,0.31997123,0.2683463,0.89989346,0.23931609,0.009897732,-0.08119678,0.29027626,808.68134,795.38464,803.8461,803.44324,682.1612,-0.13104248046875,-0.09619140625,0.998046875,-9.996490478515625,4.725341796875,-8.246917724609375,1,1.0,1.0,1.0,1.0,10.00
2024-10-11 20:20:13.311,0.83039075,0.65780365,0.58739287,0.73215795,0.6999958,0.5085608,0.028769098,0.8635913,0.95779604,0.3955152,0.17021936,0.7226373,0.7493397,0.31997123,0.2683463,0.89989346,0.23931609,0.009897732,-0.08119678,0.29027626,805.05493,790.54944,808.2784,807.47253,562.0879,-0.13104248046875,-0.09619140625,0.998046875,-9.996490478515625,4.725341796875,-8.246917724609375,1,1.0,1.0,1.0,1.0,10.00
2024-10-11 20:20:13.311,0.83039075,0.65780365,0.58739287,0.73215795,0.6999958,0.5085608,0.028769098,0.8635913,0.95779604,0.3955152,0.17021936,0.7226373,0.7493397,0.31997123,0.2683463,0.89989346,0.23931609,0.009897732,-0.08119678,0.29027626,803.0403,789.7436,801.02563,803.44324,616.08057,-0.13104248046875,-0.09619140625,0.998046875,-9.996490478515625,4.725341796875,-8.246917724609375,1,1.0,1.0,1.0,1.0,10.00
2024-10-11 20:20:13.312,0.83039075,0.65780365,0.58739287,0.73215795,0.6999958,0.5085608,0.028769098,0.8635913,0.95779604,0.3955152,0.17021936,0.7226373,0.7493397,0.31997123,0.2683463,0.89989346,0.23931609,0.009897732,-0.08119678,0.29027626,805.05493,789.34064,803.8461,806.6667,857.4359,-0.13104248046875,-0.09619140625,0.998046875,-9.996490478515625,4.725341796875,-8.246917724609375,1,1.0,1.0,1.0,1.0,10.00
2024-10-11 20:20:13.313,0.83039075,0.65780365,0.58739287,0.73215795,0.6999958,0.5085608,0.028769098,0.8635913,0.95779604,0.3955152,0.17021936,0.7226373,0.7493397,0.31997123,0.2683463,0.89989346,0.23931609,0.009897732,-0.08119678,0.29027626,806.26373,788.1319,811.0989,811.0989,949.304,-0.13104248046875,-0.09619140625,0.998046875,-9.996490478515625,4.725341796875,-8.246917724609375,1,1.0,1.0,1.0,1.0,10.00
2024-10-11 20:20:13.314,0.83039075,0.65780365,0.58739287,0.73215795,0.6999958,0.5085608,0.028769098,0.8635913,0.95779604,0.3955152,0.17021936,0.7226373,0.7493397,0.31997123,0.2683463,0.89989346,0.23931609,0.009897732,-0.08119678,0.29027626,791.75824,794.57874,810.696,801.4286,827.2161,-0.13104248046875,-0.09619140625,0.998046875,-9.996490478515625,4.725341796875,-8.246917724609375,1,1.0,1.0,1.0,1.0,10.00
2024-10-11 20:20:13.315,0.83039075,0.65780365,0.58739287,0.73215795,0.6999958,0.5085608,0.028769098,0.8635913,0.95779604,0.3955152,0.17021936,0.7226373,0.7493397,0.31997123,0.2683463,0.89989346,0.23931609,0.009897732,-0.08119678,0.29027626,785.7143,796.5934,812.3077,807.8755,825.6044,-0.13104248046875,-0.09619140625,0.998046875,-9.996490478515625,4.725341796875,-8.246917724609375,1,1.0,1.0,1.0,1.0,10.00
2024-10-11 20:20:13.316,0.83039075,0.65780365,0.58739287,0.73215795,0.6999958,0.5085608,0.028769098,0.8635913,0.95779604,0.3955152,0.17021936,0.7226373,0.7493397,0.31997123,0.2683463,0.89989346,0.23931609,0.009897732,-0.08119678,0.29027626,791.3553,790.9524,807.8755,819.15753,1196.3004,-0.13104248046875,-0.09619140625,0.998046875,-9.996490478515625,4.725341796875,-8.246917724609375,1,1.0,1.0,1.0,1.0,10.00
2024-10-11 20:20:13.318,0.83039075,0.65780365,0.58739287,0.73215795,0.6999958,0.5085608,0.028769098,0.8635913,0.95779604,0.3955152,0.17021936,0.7226373,0.7493397,0.31997123,0.2683463,0.89989346,0.23931609,0.009897732,-0.08119678,0.29027626,788.93774,792.1612,807.0696,808.68134,933.9927,-0.13104248046875,-0.09619140625,0.998046875,-9.996490478515625,4.725341796875,-8.246917724609375,1,1.0,1.0,1.0,1.0,10.00
2024-10-11 20:20:13.319,0.8313959,0.65433306,0.5772238,0.74685365,0.74092984,0.4992693,0.0071837334,0.8623954,0.95779604,0.3955152,0.17021936,0.7226373,0.7832355,0.3220749,0.26419216,0.93023974,0.26324874,0.0094402,-0.08440274,0.31288472,788.1319,794.57874,813.91943,805.4579,547.5824,-0.13104248046875,-0.09619140625,0.998046875,-9.996490478515625,4.725341796875,-8.246917724609375,1,1.0,1.0,1.0,1.0,10.00
