TimeStamp,Delta_TP9,Delta_AF7,Delta_AF8,Delta_TP10,Theta_TP9,Theta_AF7,Theta_AF8,Theta_TP10,Alpha_TP9,Alpha_AF7,Alpha_AF8,Alpha_TP10,Beta_TP9,Beta_AF7,Beta_AF8,Beta_TP10,Gamma_TP9,Gamma_AF7,Gamma_AF8,Gamma_TP10,RAW_TP9,RAW_AF7,RAW_AF8,RAW_TP10,AUX_RIGHT,Accelerometer_X,Accelerometer_Y,Accelerometer_Z,Gyro_X,Gyro_Y,Gyro_Z,HeadBandOn,HSI_TP9,HSI_AF7,HSI_AF8,HSI_TP10,Battery,Elements
2024-10-11 20:26:54.467,0.62024903,1.2371776,1.377614,0.72088814,1.0705754,0.7636988,0.85822684,0.7087976,0.99745905,0.80283934,-0.059649136,0.7021598,0.48019487,-0.16866384,-0.036895733,0.5476085,0.003826943,-0.36693555,-0.41059595,-0.021565398,883.22345,784.10254,788.1319,873.1502,711.1722,0.04132080078125,0.03436279296875,1.0093994140625,1.517791748046875,-8.291778564453125,1.09161376953125,1,2.0,1.0,1.0,2.0,10.00
2024-10-11 20:26:54.468,0.62024903,1.2371776,1.377614,0.72088814,1.0705754,0.7636988,0.85822684,0.7087976,0.99745905,0.80283934,-0.059649136,0.7021598,0.48019487,-0.16866384,-0.036895733,0.5476085,0.003826943,-0.36693555,-0.41059595,-0.021565398,866.7033,780.87915,793.36993,871.9414,782.8938,0.04132080078125,0.03436279296875,1.0093994140625,1.517791748046875,-8.291778564453125,1.09161376953125,1,2.0,1.0,1.0,2.0,10.00
2024-10-11 20:26:54.469,0.62024903,1.2371776,1.377614,0.72088814,1.0705754,0.7636988,0.85822684,0.7087976,0.99745905,0.80283934,-0.059649136,0.7021598,0.48019487,-0.16866384,-0.036895733,0.5476085,0.003826943,-0.36693555,-0.41059595,-0.021565398,867.1062,778.0586,792.96704,868.71796,728.0952,0.04132080078125,0.03436279296875,1.0093994140625,1.517791748046875,-8.291778564453125,1.09161376953125,1,2.0,1.0,1.0,2.0,10.00
2024-10-11 20:26:54.470,0.62024903,1.2371776,1.377614,0.72088814,1.0705754,0.7636988,0.85822684,0.7087976,0.99745905,0.80283934,-0.059649136,0.7021598,0.48019487,-0.16866384,-0.036895733,0.5476085,0.003826943,-0.36693555,-0.41059595,-0.021565398,867.50916,784.10254,786.9231,862.27106,659.19415,0.04132080078125,0.03436279296875,1.0093994140625,1.517791748046875,-8.291778564453125,1.09161376953125,1,2.0,1.0,1.0,2.0,10.00
2024-10-11 20:26:54.471,0.62024903,1.2371776,1.377614,0.72088814,1.0705754,0.7636988,0.85822684,0.7087976,0.99745905,0.80283934,-0.059649136,0.7021598,0.48019487,-0.16866384,-0.036895733,0.5476085,0.003826943,-0.36693555,-0.41059595,-0.021565398,877.98535,784.90845,793.36993,868.71796,766.77655,0.04132080078125,0.03436279296875,1.0093994140625,1.517791748046875,-8.291778564453125,1.09161376953125,1,2.0,1.0,1.0,2.0,10.00
2024-10-11 20:26:54.473,0.62024903,1.2371776,1.377614,0.72088814,1.0705754,0.7636988,0.85822684,0.7087976,0.99745905,0.80283934,-0.059649136,0.7021598,0.48019487,-0.16866384,-0.036895733,0.5476085,0.003826943,-0.36693555,-0.41059595,-0.021565398,887.25275,781.685,801.02563,875.16486,874.35895,0.04132080078125,0.03436279296875,1.0093994140625,1.517791748046875,-8.291778564453125,1.09161376953125,1,2.0,1.0,1.0,2.0,10.00
2024-10-11 20:26:54.474,0.62024903,1.2371776,1.377614,0.72088814,1.0705754,0.7636988,0.85822684,0.7087976,0.99745905,0.80283934,-0.059649136,0.7021598,0.48019487,-0.16866384,-0.036895733,0.5476085,0.003826943,-0.36693555,-0.41059595,-0.021565398,876.3736,780.07324,799.41394,865.89746,781.28204,0.04132080078125,0.03436279296875,1.0093994140625,1.517791748046875,-8.291778564453125,1.09161376953125,1,2.0,1.0,1.0,2.0,10.00
2024-10-11 20:26:54.475,0.62024903,1.2371776,1.377614,0.72088814,1.0705754,0.7636988,0.85822684,0.7087976,0.99745905,0.80283934,-0.059649136,0.7021598,0.48019487,-0.16866384,-0.036895733,0.5476085,0.003826943,-0.36693555,-0.41059595,-0.021565398,867.50916,785.31134,799.81683,857.4359,662.4176,0.04132080078125,0.03436279296875,1.0093994140625,1.517791748046875,-8.291778564453125,1.09161376953125,1,2.0,1.0,1.0,2.0,10.00
2024-10-11 20:26:54.476,0.62024903,1.2371776,1.377614,0.72088814,1.0705754,0.7636988,0.85822684,0.7087976,0.99745905,0.80283934,-0.059649136,0.7021598,0.48019487,-0.16866384,-0.036895733,0.5476085,0.003826943,-0.36693555,-0.41059595,-0.021565398,867.9121,786.1172,801.02563,859.85345,691.8315,0.04132080078125,0.03436279296875,1.0093994140625,1.517791748046875,-8.291778564453125,1.09161376953125,1,2.0,1.0,1.0,2.0,10.00
2024-10-11 20:26:54.477,0.62024903,1.2371776,1.377614,0.72088814,1.0705754,0.7636988,0.85822684,0.7087976,0.99745905,0.80283934,-0.059649136,0.7021598,0.48019487,-0.16866384,-0.036895733,0.5476085,0.003826943,-0.36693555,-0.41059595,-0.021565398,864.68866,786.1172,798.60803,865.09155,946.4835,0.04132080078125,0.03436279296875,1.0093994140625,1.517791748046875,-8.291778564453125,1.09161376953125,1,2.0,1.0,1.0,2.0,10.00
2024-10-11 20:26:54.478,0.62024903,1.2371776,1.377614,0.72088814,1.0705754,0.7636988,0.85822684,0.7087976,0.99745905,0.80283934,-0.059649136,0.7021598,0.48019487,-0.16866384,-0.036895733,0.5476085,0.003826943,-0.36693555,-0.41059595,-0.021565398,862.27106,785.7143,794.57874,863.47986,835.6777,0.04132080078125,0.03436279296875,1.0093994140625,1.517791748046875,-8.291778564453125,1.09161376953125,1,2.0,1.0,1.0,2.0,10.00
2024-10-11 20:26:54.479,0.62024903,1.2371776,1.377614,0.72088814,1.0705754,0.7636988,0.85822684,0.7087976,0.99745905,0.80283934,-0.059649136,0.7021598,0.48019487,-0.16866384,-0.036895733,0.5476085,0.003826943,-0.36693555,-0.41059595,-0.021565398,856.2271,783.2967,792.1612,851.39197,597.5458,0.04132080078125,0.03436279296875,1.0093994140625,1.517791748046875,-8.291778564453125,1.09161376953125,1,2.0,1.0,1.0,2.0,10.00
2024-10-11 20:26:54.480,0.62024903,1.2371776,1.377614,0.72088814,1.0705754,0.7636988,0.85822684,0.7087976,0.99745905,0.80283934,-0.059649136,0.7021598,0.48019487,-0.16866384,-0.036895733,0.5476085,0.003826943,-0.36693555,-0.41059595,-0.021565398,848.97437,782.49084,795.38464,849.7802,728.9011,0.0496826171875,0.0361328125,1.0128173828125,0.70281982421875,-8.874969482421875,1.398162841796875,1,2.0,1.0,1.0,2.0,10.00
2024-10-11 20:26:54.481,0.62024903,1.2371776,1.377614,0.72088814,1.0705754,0.7636988,0.85822684,0.7087976,0.99745905,0.80283934,-0.059649136,0.7021598,0.48019487,-0.16866384,-0.036895733,0.5476085,0.003826943,-0.36693555,-0.41059595,-0.021565398,847.3626,780.87915,796.5934,857.03296,1097.9854,0.0496826171875,0.0361328125,1.0128173828125,0.70281982421875,-8.874969482421875,1.398162841796875,1,2.0,1.0,1.0,2.0,10.00
2024-10-11 20:26:54.482,0.62024903,1.2371776,1.377614,0.72088814,1.0705754,0.7636988,0.85822684,0.7087976,0.99745905,0.80283934,-0.059649136,0.7021598,0.48019487,-0.16866384,-0.036895733,0.5476085,0.003826943,-0.36693555,-0.41059595,-0.021565398,847.3626,784.5055,794.9817,851.79486,890.07324,0.0496826171875,0.0361328125,1.0128173828125,0.70281982421875,-8.874969482421875,1.398162841796875,1,2.0,1.0,1.0,2.0,10.00
2024-10-11 20:26:54.483,0.62024903,1.2371776,1.377614,0.72088814,1.0705754,0.7636988,0.85822684,0.7087976,0.99745905,0.80283934,-0.059649136,0.7021598,0.48019487,-0.16866384,-0.036895733,0.5476085,0.003826943,-0.36693555,-0.41059595,-0.021565398,845.34796,789.34064,793.7729,842.52747,633.4066,0.0496826171875,0.0361328125,1.0128173828125,0.70281982421875,-8.874969482421875,1.398162841796875,1,2.0,1.0,1.0,2.0,10.00
2024-10-11 20:26:54.484,0.62024903,1.2371776,1.377614,0.72088814,1.0705754,0.7636988,0.85822684,0.7087976,0.99745905,0.80283934,-0.059649136,0.7021598,0.48019487,-0.16866384,-0.036895733,0.5476085,0.003826943,-0.36693555,-0.41059595,-0.021565398,842.52747,790.14655,795.78754,849.3773,759.12085,0.0496826171875,0.0361328125,1.0128173828125,0.70281982421875,-8.874969482421875,1.398162841796875,1,2.0,1.0,1.0,2.0,10.00
2024-10-11 20:26:54.485,0.62024903,1.2371776,1.377614,0.72088814,1.0705754,0.7636988,0.85822684,0.7087976,0.99745905,0.80283934,-0.059649136,0.7021598,0.48019487,-0.16866384,-0.036895733,0.5476085,0.003826943,-0.36693555,-0.41059595,-0.021565398,840.5128,790.9524,798.20514,855.82416,872.74725,0.0496826171875,0.0361328125,1.0128173828125,0.70281982421875,-8.874969482421875,1.398162841796875,1,2.0,1.0,1.0,2.0,10.00
2024-10-11 20:26:54.485,0.62024903,1.2371776,1.377614,0.72088814,1.0705754,0.7636988,0.85822684,0.7087976,0.99745905,0.80283934,-0.059649136,0.7021598,0.48019487,-0.16866384,-0.036895733,0.5476085,0.003826943,-0.36693555,-0.41059595,-0.021565398,834.0659,788.5348,798.60803,846.9597,942.4542,0.0496826171875,0.0361328125,1.0128173828125,0.70281982421875,-8.874969482421875,1.398162841796875,1,2.0,1.0,1.0,2.0,10.00
2024-10-11 20:26:54.486,0.62024903,1.2371776,1.377614,0.72088814,1.0705754,0.7636988,0.85822684,0.7087976,0.99745905,0.80283934,-0.059649136,0.7021598,0.48019487,-0.16866384,-0.036895733,0.5476085,0.003826943,-0.36693555,-0.41059595,-0.021565398,832.8571,788.93774,796.99634,841.7216,779.67035,0.0496826171875,0.0361328125,1.0128173828125,0.70281982421875,-8.874969482421875,1.398162841796875,1,2.0,1.0,1.0,2.0,10.00
2024-10-11 20:26:54.487,0.62024903,1.2371776,1.377614,0.72088814,1.0705754,0.7636988,0.85822684,0.7087976,0.99745905,0.80283934,-0.059649136,0.7021598,0.48019487,-0.16866384,-0.036895733,0.5476085,0.003826943,-0.36693555,-0.41059595,-0.021565398,830.4396,788.5348,794.57874,837.6923,724.0659,0.0496826171875,0.0361328125,1.0128173828125,0.70281982421875,-8.874969482421875,1.398162841796875,1,2.0,1.0,1.0,2.0,10.00
2024-10-11 20:26:54.488,0.62024903,1.2371776,1.377614,0.72088814,1.0705754,0.7636988,0.85822684,0.7087976,0.99745905,0.80283934,-0.059649136,0.7021598,0.48019487,-0.16866384,-0.036895733,0.5476085,0.003826943,-0.36693555,-0.41059595,-0.021565398,828.8278,786.9231,794.57874,834.4689,953.73627,0.0496826171875,0.0361328125,1.0128173828125,0.70281982421875,-8.874969482421875,1.398162841796875,1,2.0,1.0,1.0,2.0,10.00
2024-10-11 20:26:54.489,0.62024903,1.2371776,1.377614,0.72088814,1.0705754,0.7636988,0.85822684,0.7087976,0.99745905,0.80283934,-0.059649136,0.7021598,0.48019487,-0.16866384,-0.036895733,0.5476085,0.003826943,-0.36693555,-0.41059595,-0.021565398,829.2308,790.14655,795.38464,833.663,773.22345,0.0496826171875,0.0361328125,1.0128173828125,0.70281982421875,-8.874969482421875,1.398162841796875,1,2.0,1.0,1.0,2.0,10.00
2024-10-11 20:26:54.490,0.62024903,1.2371776,1.377614,0.72088814,1.0705754,0.7636988,0.85822684,0.7087976,0.99745905,0.80283934,-0.059649136,0.7021598,0.48019487,-0.16866384,-0.036895733,0.5476085,0.003826943,-0.36693555,-0.41059595,-0.021565398,828.4249,790.14655,799.41394,832.4542,576.99634,0.0496826171875,0.0361328125,1.0128173828125,0.70281982421875,-8.874969482421875,1.398162841796875,1,2.0,1.0,1.0,2.0,10.00
2024-10-11 20:26:54.491,0.62024903,1.2371776,1.377614,0.72088814,1.0705754,0.7636988,0.85822684,0.7087976,0.99745905,0.80283934,-0.059649136,0.7021598,0.48019487,-0.16866384,-0.036895733,0.5476085,0.003826943,-0.36693555,-0.41059595,-0.021565398,832.0513,789.34064,796.1905,831.2454,775.2381,0.08953857421875,0.040283203125,1.0081787109375,0.2392578125,-10.39276123046875,1.854248046875,1,2.0,1.0,1.0,2.0,10.00
2024-10-11 20:26:54.492,0.62024903,1.2274737,1.377614,0.72088814,1.0705754,0.77432835,0.85822684,0.7087976,0.99745905,0.80283934,-0.059649136,0.7021598,0.48019487,-0.15770222,-0.036895733,0.5476085,0.003826943,-0.33001095,-0.41059595,-0.021565398,826.0073,792.96704,793.36993,830.4396,933.1868,0.08953857421875,0.040283203125,1.0081787109375,0.2392578125,-10.39276123046875,1.854248046875,1,2.0,1.0,1.0,2.0,10.00
2024-10-11 20:26:54.496,0.62024903,1.2274737,1.377614,0.72088814,1.0705754,0.77432835,0.85822684,0.7087976,0.99745905,0.80283934,-0.059649136,0.7021598,0.48019487,-0.15770222,-0.036895733,0.5476085,0.003826943,-0.33001095,-0.41059595,-0.021565398,822.7839,794.57874,794.9817,829.2308,720.0366,0.08953857421875,0.040283203125,1.0081787109375,0.2392578125,-10.39276123046875,1.854248046875,1,2.0,1.0,1.0,2.0,10.00
2024-10-11 20:26:54.497,0.62024903,1.2274737,1.377614,0.72088814,1.0705754,0.77432835,0.85822684,0.7087976,0.99745905,0.80283934,-0.059649136,0.7021598,0.48019487,-0.15770222,-0.036895733,0.5476085,0.003826943,-0.33001095,-0.41059595,-0.021565398,829.2308,796.1905,795.78754,829.6337,632.1978,0.08953857421875,0.040283203125,1.0081787109375,0.2392578125,-10.39276123046875,1.854248046875,1,2.0,1.0,1.0,2.0,10.00
2024-10-11 20:26:54.498,0.62024903,1.2274737,1.377614,0.72088814,1.0705754,0.77432835,0.85822684,0.7087976,0.99745905,0.80283934,-0.059649136,0.7021598,0.48019487,-0.15770222,-0.036895733,0.5476085,0.003826943,-0.33001095,-0.41059595,-0.021565398,826.4103,796.1905,796.5934,829.2308,764.35895,0.08953857421875,0.040283203125,1.0081787109375,0.2392578125,-10.39276123046875,1.854248046875,1,2.0,1.0,1.0,2.0,10.00
2024-10-11 20:26:54.499,0.62024903,1.2274737,1.377614,0.72088814,1.0705754,0.77432835,0.85822684,0.7087976,0.99745905,0.80283934,-0.059649136,0.7021598,0.48019487,-0.15770222,-0.036895733,0.5476085,0.003826943,-0.33001095,-0.41059595,-0.021565398,813.91943,791.75824,798.60803,826.8132,817.5458,0.08953857421875,0.040283203125,1.0081787109375,0.2392578125,-10.39276123046875,1.854248046875,1,2.0,1.0,1.0,2.0,10.00
2024-10-11 20:26:54.501,0.62024903,1.2274737,1.377614,0.72088814,1.0705754,0.77432835,0.85822684,0.7087976,0.99745905,0.80283934,-0.059649136,0.7021598,0.48019487,-0.15770222,-0.036895733,0.5476085,0.003826943,-0.33001095,-0.41059595,-0.021565398,809.89014,796.1905,799.41394,823.1868,768.3883,0.08953857421875,0.040283203125,1.0081787109375,0.2392578125,-10.39276123046875,1.854248046875,1,2.0,1.0,1.0,2.0,10.00
2024-10-11 20:26:54.502,0.62024903,1.2274737,1.377614,0.72088814,1.0705754,0.77432835,0.85822684,0.7087976,0.99745905,0.80283934,-0.059649136,0.7021598,0.48019487,-0.15770222,-0.036895733,0.5476085,0.003826943,-0.33001095,-0.41059595,-0.021565398,810.696,798.60803,798.20514,821.1722,658.3883,0.08953857421875,0.040283203125,1.0081787109375,0.2392578125,-10.39276123046875,1.854248046875,1,2.0,1.0,1.0,2.0,10.00
2024-10-11 20:26:54.503,0.62024903,1.2274737,1.377614,0.72088814,1.0705754,0.77432835,0.85822684,0.7087976,0.99745905,0.80283934,-0.059649136,0.7021598,0.48019487,-0.15770222,-0.036895733,0.5476085,0.003826943,-0.33001095,-0.41059595,-0.021565398,813.5165,791.3553,799.011,820.3663,772.01465,0.08953857421875,0.040283203125,1.0081787109375,0.2392578125,-10.39276123046875,1.854248046875,1,2.0,1.0,1.0,2.0,10.00
2024-10-11 20:26:54.504,0.62024903,1.2274737,1.377614,0.72088814,1.0705754,0.77432835,0.85822684,0.7087976,0.99745905,0.80283934,-0.059649136,0.7021598,0.48019487,-0.15770222,-0.036895733,0.5476085,0.003826943,-0.33001095,-0.41059595,-0.021565398,812.3077,792.5641,801.4286,816.337,755.09155,0.08953857421875,0.040283203125,1.0081787109375,0.2392578125,-10.39276123046875,1.854248046875,1,2.0,1.0,1.0,2.0,10.00
2024-10-11 20:26:54.505,0.62024903,1.2274737,1.377614,0.72088814,1.0705754,0.77432835,0.85822684,0.7087976,0.99745905,0.80283934,-0.059649136,0.7021598,0.48019487,-0.15770222,-0.036895733,0.5476085,0.003826943,-0.33001095,-0.41059595,-0.021565398,812.71063,791.75824,798.20514,816.337,687.3993,0.08953857421875,0.040283203125,1.0081787109375,0.2392578125,-10.39276123046875,1.854248046875,1,2.0,1.0,1.0,2.0,10.00
2024-10-11 20:26:54.506,0.62024903,1.2274737,1.377614,0.72088814,1.0705754,0.77432835,0.85822684,0.7087976,0.99745905,0.80283934,-0.059649136,0.7021598,0.48019487,-0.15770222,-0.036895733,0.5476085,0.003826943,-0.33001095,-0.41059595,-0.021565398,807.0696,793.36993,800.2198,817.1429,776.04395,0.08953857421875,0.040283203125,1.0081787109375,0.2392578125,-10.39276123046875,1.854248046875,1,2.0,1.0,1.0,2.0,10.00
2024-10-11 20:26:54.546,0.62024903,1.2274737,1.377614,0.72088814,1.0705754,0.77432835,0.85822684,0.7087976,0.99745905,0.80283934,-0.059649136,0.7021598,0.48019487,-0.15770222,-0.036895733,0.5476085,0.003826943,-0.33001095,-0.41059595,-0.021565398,797.8022,796.5934,804.2491,813.5165,804.65204,0.11932373046875,0.03521728515625,1.0260009765625,-1.60003662109375,-7.633819580078125,2.848663330078125,1,2.0,1.0,1.0,2.0,10.00
2024-10-11 20:26:54.547,0.62024903,1.2274737,1.377614,0.72088814,1.0705754,0.77432835,0.85822684,0.7087976,0.99745905,0.80283934,-0.059649136,0.7021598,0.48019487,-0.15770222,-0.036895733,0.5476085,0.003826943,-0.33001095,-0.41059595,-0.021565398,801.4286,794.57874,801.02563,816.337,672.49084,0.11932373046875,0.03521728515625,1.0260009765625,-1.60003662109375,-7.633819580078125,2.848663330078125,1,2.0,1.0,1.0,2.0,10.00
2024-10-11 20:26:54.548,0.62024903,1.2274737,1.377614,0.72088814,1.0705754,0.77432835,0.85822684,0.7087976,0.99745905,0.80283934,-0.059649136,0.7021598,0.48019487,-0.15770222,-0.036895733,0.5476085,0.003826943,-0.33001095,-0.41059595,-0.021565398,800.2198,796.5934,803.0403,813.1135,666.04395,0.11932373046875,0.03521728515625,1.0260009765625,-1.60003662109375,-7.633819580078125,2.848663330078125,1,2.0,1.0,1.0,2.0,10.00
2024-10-11 20:26:54.548,0.62024903,1.2274737,1.377614,0.72088814,1.0705754,0.77432835,0.85822684,0.7087976,0.99745905,0.80283934,-0.059649136,0.7021598,0.48019487,-0.15770222,-0.036895733,0.5476085,0.003826943,-0.33001095,-0.41059595,-0.021565398,796.99634,796.1905,804.2491,807.8755,828.022,0.11932373046875,0.03521728515625,1.0260009765625,-1.60003662109375,-7.633819580078125,2.848663330078125,1,2.0,1.0,1.0,2.0,10.00
2024-10-11 20:26:54.549,0.62024903,1.2274737,1.377614,0.72088814,1.0705754,0.77432835,0.85822684,0.7087976,0.99745905,0.80283934,-0.059649136,0.7021598,0.48019487,-0.15770222,-0.036895733,0.5476085,0.003826943,-0.33001095,-0.41059595,-0.021565398,801.8315,791.75824,800.6227,813.5165,925.9341,0.11932373046875,0.03521728515625,1.0260009765625,-1.60003662109375,-7.633819580078125,2.848663330078125,1,2.0,1.0,1.0,2.0,10.00
2024-10-11 20:26:54.551,0.62024903,1.2274737,1.377614,0.72088814,1.0705754,0.77432835,0.85822684,0.7087976,0.99745905,0.80283934,-0.059649136,0.7021598,0.48019487,-0.15770222,-0.036895733,0.5476085,0.003826943,-0.33001095,-0.41059595,-0.021565398,812.71063,798.60803,796.1905,817.1429,844.5421,0.11932373046875,0.03521728515625,1.0260009765625,-1.60003662109375,-7.633819580078125,2.848663330078125,1,2.0,1.0,1.0,2.0,10.00
2024-10-11 20:26:54.552,0.62024903,1.2274737,1.377614,0.72088814,1.0705754,0.77432835,0.85822684,0.7087976,0.99745905,0.80283934,-0.059649136,0.7021598,0.48019487,-0.15770222,-0.036895733,0.5476085,0.003826943,-0.33001095,-0.41059595,-0.021565398,813.91943,802.6374,792.1612,809.4872,863.47986,0.11932373046875,0.03521728515625,1.0260009765625,-1.60003662109375,-7.633819580078125,2.848663330078125,1,2.0,1.0,1.0,2.0,10.00
2024-10-11 20:26:54.552,0.62024903,1.2274737,1.377614,0.72088814,1.0705754,0.77432835,0.85822684,0.7087976,0.99745905,0.80283934,-0.059649136,0.7021598,0.48019487,-0.15770222,-0.036895733,0.5476085,0.003826943,-0.33001095,-0.41059595,-0.021565398,813.5165,804.2491,797.3993,810.696,882.4176,0.11932373046875,0.03521728515625,1.0260009765625,-1.60003662109375,-7.633819580078125,2.848663330078125,1,2.0,1.0,1.0,2.0,10.00
2024-10-11 20:26:54.553,0.62024903,1.2274737,1.377614,0.72088814,1.0705754,0.77432835,0.85822684,0.7087976,0.99745905,0.80283934,-0.059649136,0.7021598,0.48019487,-0.15770222,-0.036895733,0.5476085,0.003826943,-0.33001095,-0.41059595,-0.021565398,816.7399,801.8315,797.8022,816.7399,1204.359,0.11932373046875,0.03521728515625,1.0260009765625,-1.60003662109375,-7.633819580078125,2.848663330078125,1,2.0,1.0,1.0,2.0,10.00
2024-10-11 20:26:54.554,0.62024903,1.2274737,1.377614,0.72088814,1.0705754,0.77432835,0.85822684,0.7087976,0.99745905,0.80283934,-0.059649136,0.7021598,0.48019487,-0.15770222,-0.036895733,0.5476085,0.003826943,-0.33001095,-0.41059595,-0.021565398,812.3077,799.011,792.1612,813.91943,1258.7546,0.11932373046875,0.03521728515625,1.0260009765625,-1.60003662109375,-7.633819580078125,2.848663330078125,1,2.0,1.0,1.0,2.0,10.00
2024-10-11 20:26:54.555,0.62024903,1.2274737,1.377614,0.72088814,1.0705754,0.77432835,0.85822684,0.7087976,0.99745905,0.80283934,-0.059649136,0.7021598,0.48019487,-0.15770222,-0.036895733,0.5476085,0.003826943,-0.33001095,-0.41059595,-0.021565398,811.0989,802.23444,791.3553,799.011,800.6227,0.11932373046875,0.03521728515625,1.0260009765625,-1.60003662109375,-7.633819580078125,2.848663330078125,1,2.0,1.0,1.0,2.0,10.00
2024-10-11 20:26:54.555,0.62024903,1.2274737,1.377614,0.72088814,1.0705754,0.77432835,0.85822684,0.7087976,0.99745905,0.80283934,-0.059649136,0.7021598,0.48019487,-0.15770222,-0.036895733,0.5476085,0.003826943,-0.33001095,-0.41059595,-0.021565398,811.9048,805.4579,788.5348,789.7436,712.7839,0.11932373046875,0.03521728515625,1.0260009765625,-1.60003662109375,-7.633819580078125,2.848663330078125,1,2.0,1.0,1.0,2.0,10.00
2024-10-11 20:26:54.556,0.62024903,1.2274737,1.377614,0.72088814,1.0705754,0.77432835,0.85822684,0.7087976,0.99745905,0.80283934,-0.059649136,0.7021598,0.48019487,-0.15770222,-0.036895733,0.5476085,0.003826943,-0.33001095,-0.41059595,-0.021565398,807.8755,803.44324,788.93774,794.17584,734.94507,0.11932373046875,0.03521728515625,1.0260009765625,-1.60003662109375,-7.633819580078125,2.848663330078125,1,2.0,1.0,1.0,2.0,10.00
2024-10-11 20:26:54.557,0.62024903,1.2274737,1.377614,0.72088814,1.0705754,0.77432835,0.85822684,0.7087976,0.99745905,0.80283934,-0.059649136,0.7021598,0.48019487,-0.15770222,-0.036895733,0.5476085,0.003826943,-0.33001095,-0.41059595,-0.021565398,795.78754,793.7729,793.36993,785.7143,574.57874,0.11932373046875,0.03521728515625,1.0260009765625,-1.60003662109375,-7.633819580078125,2.848663330078125,1,2.0,1.0,1.0,2.0,10.00
2024-10-11 20:26:54.558,0.62024903,1.2274737,1.377614,0.72088814,1.0705754,0.77432835,0.85822684,0.7087976,0.99745905,0.80283934,-0.059649136,0.7021598,0.48019487,-0.15770222,-0.036895733,0.5476085,0.003826943,-0.33001095,-0.41059595,-0.021565398,782.49084,794.9817,792.1612,770.80585,646.30035,0.11932373046875,0.03521728515625,1.0260009765625,-1.60003662109375,-7.633819580078125,2.848663330078125,1,2.0,1.0,1.0,2.0,10.00
2024-10-11 20:26:54.558,0.62024903,1.246133,1.377614,0.72088814,1.0705754,0.8259579,0.85822684,0.7087976,0.99745905,0.80283934,-0.059649136,0.7021598,0.48019487,-0.14079016,-0.036895733,0.5476085,0.003826943,-0.29501837,-0.41059595,-0.021565398,787.72894,798.60803,786.1172,774.43225,814.3223,0.11932373046875,0.03521728515625,1.0260009765625,-1.60003662109375,-7.633819580078125,2.848663330078125,1,2.0,1.0,1.0,2.0,10.00
2024-10-11 20:26:54.562,0.62024903,1.246133,1.377614,0.72088814,1.0705754,0.8259579,0.85822684,0.7087976,0.99745905,0.80283934,-0.059649136,0.7021598,0.48019487,-0.14079016,-0.036895733,0.5476085,0.003826943,-0.29501837,-0.41059595,-0.021565398,802.23444,799.011,789.34064,785.31134,734.94507,0.11932373046875,0.03521728515625,1.0260009765625,-1.60003662109375,-7.633819580078125,2.848663330078125,1,2.0,1.0,1.0,2.0,10.00
2024-10-11 20:26:54.563,0.62024903,1.246133,1.377614,0.72088814,1.0705754,0.8259579,0.85822684,0.7087976,0.99745905,0.80283934,-0.059649136,0.7021598,0.48019487,-0.14079016,-0.036895733,0.5476085,0.003826943,-0.29501837,-0.41059595,-0.021565398,803.8461,800.2198,794.57874,789.34064,684.17584,0.11932373046875,0.03521728515625,1.0260009765625,-1.60003662109375,-7.633819580078125,2.848663330078125,1,2.0,1.0,1.0,2.0,10.00
2024-10-11 20:26:54.563,0.62024903,1.246133,1.377614,0.72088814,1.0705754,0.8259579,0.85822684,0.7087976,0.99745905,0.80283934,-0.059649136,0.7021598,0.48019487,-0.14079016,-0.036895733,0.5476085,0.003826943,-0.29501837,-0.41059595,-0.021565398,802.23444,797.8022,792.96704,794.17584,773.6264,0.11932373046875,0.03521728515625,1.0260009765625,-1.60003662109375,-7.633819580078125,2.848663330078125,1,2.0,1.0,1.0,2.0,10.00
2024-10-11 20:26:54.564,0.62024903,1.246133,1.377614,0.72088814,1.0705754,0.8259579,0.85822684,0.7087976,0.99745905,0.80283934,-0.059649136,0.7021598,0.48019487,-0.14079016,-0.036895733,0.5476085,0.003826943,-0.29501837,-0.41059595,-0.021565398,806.26373,796.99634,789.34064,795.38464,1042.7839,0.11932373046875,0.03521728515625,1.0260009765625,-1.60003662109375,-7.633819580078125,2.848663330078125,1,2.0,1.0,1.0,2.0,10.00
2024-10-11 20:26:54.565,0.62024903,1.246133,1.377614,0.72088814,1.0705754,0.8259579,0.85822684,0.7087976,0.99745905,0.80283934,-0.059649136,0.7021598,0.48019487,-0.14079016,-0.036895733,0.5476085,0.003826943,-0.29501837,-0.41059595,-0.021565398,797.3993,801.8315,791.3553,790.14655,963.8095,0.11932373046875,0.03521728515625,1.0260009765625,-1.60003662109375,-7.633819580078125,2.848663330078125,1,2.0,1.0,1.0,2.0,10.00
2024-10-11 20:26:54.565,0.62024903,1.246133,1.377614,0.72088814,1.0705754,0.8259579,0.85822684,0.7087976,0.99745905,0.80283934,-0.059649136,0.7021598,0.48019487,-0.14079016,-0.036895733,0.5476085,0.003826943,-0.29501837,-0.41059595,-0.021565398,791.75824,801.4286,792.5641,786.9231,639.0476,0.11932373046875,0.03521728515625,1.0260009765625,-1.60003662109375,-7.633819580078125,2.848663330078125,1,2.0,1.0,1.0,2.0,10.00
2024-10-11 20:26:54.566,0.62024903,1.246133,1.377614,0.72088814,1.0705754,0.8259579,0.85822684,0.7087976,0.99745905,0.80283934,-0.059649136,0.7021598,0.48019487,-0.14079016,-0.036895733,0.5476085,0.003826943,-0.29501837,-0.41059595,-0.021565398,792.5641,799.81683,789.34064,783.2967,645.4945,0.11932373046875,0.03521728515625,1.0260009765625,-1.60003662109375,-7.633819580078125,2.848663330078125,1,2.0,1.0,1.0,2.0,10.00
2024-10-11 20:26:54.567,0.62024903,1.246133,1.377614,0.72088814,1.0705754,0.8259579,0.85822684,0.7087976,0.99745905,0.80283934,-0.059649136,0.7021598,0.48019487,-0.14079016,-0.036895733,0.5476085,0.003826943,-0.29501837,-0.41059595,-0.021565398,785.31134,799.011,792.1612,792.1612,906.1905,0.11932373046875,0.03521728515625,1.0260009765625,-1.60003662109375,-7.633819580078125,2.848663330078125,1,2.0,1.0,1.0,2.0,10.00
2024-10-11 20:26:54.596,0.62024903,1.246133,1.377614,0.72088814,1.0705754,0.8259579,0.85822684,0.7087976,0.99745905,0.80283934,-0.059649136,0.7021598,0.48019487,-0.14079016,-0.036895733,0.5476085,0.003826943,-0.29501837,-0.41059595,-0.021565398,788.93774,802.6374,795.38464,794.57874,786.52014,0.12811279296875,0.028076171875,0.99267578125,-3.745880126953125,2.28790283203125,4.403839111328125,1,2.0,1.0,1.0,2.0,10.00
2024-10-11 20:26:54.597,0.62024903,1.246133,1.377614,0.72088814,1.0705754,0.8259579,0.85822684,0.7087976,0.99745905,0.80283934,-0.059649136,0.7021598,0.48019487,-0.14079016,-0.036895733,0.5476085,0.003826943,-0.29501837,-0.41059595,-0.021565398,790.54944,803.0403,794.9817,784.90845,554.0293,0.12811279296875,0.028076171875,0.99267578125,-3.745880126953125,2.28790283203125,4.403839111328125,1,2.0,1.0,1.0,2.0,10.00
2024-10-11 20:26:54.598,0.62024903,1.246133,1.377614,0.72088814,1.0705754,0.8259579,0.85822684,0.7087976,0.99745905,0.80283934,-0.059649136,0.7021598,0.48019487,-0.14079016,-0.036895733,0.5476085,0.003826943,-0.29501837,-0.41059595,-0.021565398,785.7143,798.60803,792.96704,785.7143,642.674,0.12811279296875,0.028076171875,0.99267578125,-3.745880126953125,2.28790283203125,4.403839111328125,1,2.0,1.0,1.0,2.0,10.00
2024-10-11 20:26:54.599,0.62024903,1.246133,1.377614,0.72088814,1.0705754,0.8259579,0.85822684,0.7087976,0.99745905,0.80283934,-0.059649136,0.7021598,0.48019487,-0.14079016,-0.036895733,0.5476085,0.003826943,-0.29501837,-0.41059595,-0.021565398,783.69965,798.20514,788.5348,792.5641,839.304,0.12811279296875,0.028076171875,0.99267578125,-3.745880126953125,2.28790283203125,4.403839111328125,1,2.0,1.0,1.0,2.0,10.00
2024-10-11 20:26:54.600,0.62024903,1.246133,1.377614,0.72088814,1.0705754,0.8259579,0.85822684,0.7087976,0.99745905,0.80283934,-0.059649136,0.7021598,0.48019487,-0.14079016,-0.036895733,0.5476085,0.003826943,-0.29501837,-0.41059595,-0.021565398,786.1172,801.02563,786.1172,789.7436,712.381,0.12811279296875,0.028076171875,0.99267578125,-3.745880126953125,2.28790283203125,4.403839111328125,1,2.0,1.0,1.0,2.0,10.00
2024-10-11 20:26:54.601,0.62024903,1.246133,1.377614,0.72088814,1.0705754,0.8259579,0.85822684,0.7087976,0.99745905,0.80283934,-0.059649136,0.7021598,0.48019487,-0.14079016,-0.036895733,0.5476085,0.003826943,-0.29501837,-0.41059595,-0.021565398,789.7436,800.6227,796.5934,786.1172,672.8938,0.12811279296875,0.028076171875,0.99267578125,-3.745880126953125,2.28790283203125,4.403839111328125,1,2.0,1.0,1.0,2.0,10.00
2024-10-11 20:26:54.601,0.62024903,1.246133,1.377614,0.72088814,1.0705754,0.8259579,0.85822684,0.7087976,0.99745905,0.80283934,-0.059649136,0.7021598,0.48019487,-0.14079016,-0.036895733,0.5476085,0.003826943,-0.29501837,-0.41059595,-0.021565398,792.1612,799.81683,802.23444,784.10254,919.89014,0.12811279296875,0.028076171875,0.99267578125,-3.745880126953125,2.28790283203125,4.403839111328125,1,2.0,1.0,1.0,2.0,10.00
2024-10-11 20:26:54.602,0.62024903,1.246133,1.377614,0.72088814,1.0705754,0.8259579,0.85822684,0.7087976,0.99745905,0.80283934,-0.059649136,0.7021598,0.48019487,-0.14079016,-0.036895733,0.5476085,0.003826943,-0.29501837,-0.41059595,-0.021565398,794.17584,799.41394,800.6227,792.5641,974.68866,0.12811279296875,0.028076171875,0.99267578125,-3.745880126953125,2.28790283203125,4.403839111328125,1,2.0,1.0,1.0,2.0,10.00
2024-10-11 20:26:54.602,0.62024903,1.246133,1.377614,0.72088814,1.0705754,0.8259579,0.85822684,0.7087976,0.99745905,0.80283934,-0.059649136,0.7021598,0.48019487,-0.14079016,-0.036895733,0.5476085,0.003826943,-0.29501837,-0.41059595,-0.021565398,795.78754,801.4286,803.8461,801.8315,766.3736,0.12811279296875,0.028076171875,0.99267578125,-3.745880126953125,2.28790283203125,4.403839111328125,1,2.0,1.0,1.0,2.0,10.00
2024-10-11 20:26:54.603,0.62024903,1.246133,1.377614,0.72088814,1.0705754,0.8259579,0.85822684,0.7087976,0.99745905,0.80283934,-0.059649136,0.7021598,0.48019487,-0.14079016,-0.036895733,0.5476085,0.003826943,-0.29501837,-0.41059595,-0.021565398,794.9817,802.23444,802.6374,795.78754,630.989,0.12811279296875,0.028076171875,0.99267578125,-3.745880126953125,2.28790283203125,4.403839111328125,1,2.0,1.0,1.0,2.0,10.00
2024-10-11 20:26:54.603,0.62024903,1.246133,1.377614,0.72088814,1.0705754,0.8259579,0.85822684,0.7087976,0.99745905,0.80283934,-0.059649136,0.7021598,0.48019487,-0.14079016,-0.036895733,0.5476085,0.003826943,-0.29501837,-0.41059595,-0.021565398,798.20514,798.60803,798.60803,792.1612,757.1062,0.12811279296875,0.028076171875,0.99267578125,-3.745880126953125,2.28790283203125,4.403839111328125,1,2.0,1.0,1.0,2.0,10.00
2024-10-11 20:26:54.604,0.62024903,1.246133,1.377614,0.72088814,1.0705754,0.8259579,0.85822684,0.7087976,0.99745905,0.80283934,-0.059649136,0.7021598,0.48019487,-0.14079016,-0.036895733,0.5476085,0.003826943,-0.29501837,-0.41059595,-0.021565398,803.8461,794.57874,799.011,799.81683,1029.0842,0.12811279296875,0.028076171875,0.99267578125,-3.745880126953125,2.28790283203125,4.403839111328125,1,2.0,1.0,1.0,2.0,10.00
2024-10-11 20:26:54.661,0.62024903,1.246133,1.377614,0.72088814,1.0705754,0.8259579,0.85822684,0.7087976,0.99745905,0.80283934,-0.059649136,0.7021598,0.48019487,-0.14079016,-0.036895733,0.5476085,0.003826943,-0.29501837,-0.41059595,-0.021565398,806.6667,801.4286,799.81683,801.02563,802.6374,0.11767578125,0.02960205078125,0.9854736328125,-2.43743896484375,4.493560791015625,8.32916259765625,1,2.0,1.0,1.0,2.0,10.00
2024-10-11 20:26:54.662,0.62024903,1.246133,1.377614,0.72088814,1.0705754,0.8259579,0.85822684,0.7087976,0.99745905,0.80283934,-0.059649136,0.7021598,0.48019487,-0.14079016,-0.036895733,0.5476085,0.003826943,-0.29501837,-0.41059595,-0.021565398,810.696,801.8315,803.0403,805.4579,686.5934,0.11767578125,0.02960205078125,0.9854736328125,-2.43743896484375,4.493560791015625,8.32916259765625,1,2.0,1.0,1.0,2.0,10.00
2024-10-11 20:26:54.662,0.62024903,1.246133,1.377614,0.72088814,1.0705754,0.8259579,0.85822684,0.7087976,0.99745905,0.80283934,-0.059649136,0.7021598,0.48019487,-0.14079016,-0.036895733,0.5476085,0.003826943,-0.29501837,-0.41059595,-0.021565398,806.6667,798.20514,801.02563,809.4872,780.87915,0.11767578125,0.02960205078125,0.9854736328125,-2.43743896484375,4.493560791015625,8.32916259765625,1,2.0,1.0,1.0,2.0,10.00
2024-10-11 20:26:54.663,0.62024903,1.246133,1.377614,0.72088814,1.0705754,0.8259579,0.85822684,0.7087976,0.99745905,0.80283934,-0.059649136,0.7021598,0.48019487,-0.14079016,-0.036895733,0.5476085,0.003826943,-0.29501837,-0.41059595,-0.021565398,805.4579,800.2198,801.8315,806.6667,692.6374,0.11767578125,0.02960205078125,0.9854736328125,-2.43743896484375,4.493560791015625,8.32916259765625,1,2.0,1.0,1.0,2.0,10.00
2024-10-11 20:26:54.663,0.62024903,1.246133,1.377614,0.72088814,1.0705754,0.8259579,0.85822684,0.7087976,0.99745905,0.80283934,-0.059649136,0.7021598,0.48019487,-0.14079016,-0.036895733,0.5476085,0.003826943,-0.29501837,-0.41059595,-0.021565398,805.05493,804.2491,804.65204,809.0842,710.7692,0.11767578125,0.02960205078125,0.9854736328125,-2.43743896484375,4.493560791015625,8.32916259765625,1,2.0,1.0,1.0,2.0,10.00
2024-10-11 20:26:54.664,0.62024903,1.246133,0.9249322,0.72088814,1.0705754,0.8259579,0.9365007,0.7087976,0.99745905,0.80283934,0.1375252,0.7021598,0.48019487,-0.14079016,0.14478604,0.5476085,0.003826943,-0.29501837,-0.34936327,-0.021565398,808.2784,806.26373,803.0403,809.89014,894.5055,0.11767578125,0.02960205078125,0.9854736328125,-2.43743896484375,4.493560791015625,8.32916259765625,1,2.0,1.0,1.0,2.0,10.00
2024-10-11 20:26:54.668,0.62024903,1.246133,0.9249322,0.72088814,1.0705754,0.8259579,0.9365007,0.7087976,0.99745905,0.80283934,0.1375252,0.7021598,0.48019487,-0.14079016,0.14478604,0.5476085,0.003826943,-0.29501837,-0.34936327,-0.021565398,808.68134,803.0403,801.8315,807.8755,1160.4396,0.11767578125,0.02960205078125,0.9854736328125,-2.43743896484375,4.493560791015625,8.32916259765625,1,2.0,1.0,1.0,2.0,10.00
2024-10-11 20:26:54.668,0.62024903,1.246133,0.9249322,0.72088814,1.0705754,0.8259579,0.9365007,0.7087976,0.99745905,0.80283934,0.1375252,0.7021598,0.48019487,-0.14079016,0.14478604,0.5476085,0.003826943,-0.29501837,-0.34936327,-0.021565398,803.44324,804.2491,801.4286,805.8608,1049.6337,0.11767578125,0.02960205078125,0.9854736328125,-2.43743896484375,4.493560791015625,8.32916259765625,1,2.0,1.0,1.0,2.0,10.00
2024-10-11 20:26:54.669,0.62024903,1.246133,0.9249322,0.72088814,1.0705754,0.8259579,0.9365007,0.7087976,0.99745905,0.80283934,0.1375252,0.7021598,0.48019487,-0.14079016,0.14478604,0.5476085,0.003826943,-0.29501837,-0.34936327,-0.021565398,798.60803,809.0842,802.23444,804.65204,718.4249,0.11767578125,0.02960205078125,0.9854736328125,-2.43743896484375,4.493560791015625,8.32916259765625,1,2.0,1.0,1.0,2.0,10.00
2024-10-11 20:26:54.669,0.62024903,1.246133,0.9249322,0.72088814,1.0705754,0.8259579,0.9365007,0.7087976,0.99745905,0.80283934,0.1375252,0.7021598,0.48019487,-0.14079016,0.14478604,0.5476085,0.003826943,-0.29501837,-0.34936327,-0.021565398,801.8315,805.05493,802.23444,803.8461,739.7802,0.11767578125,0.02960205078125,0.9854736328125,-2.43743896484375,4.493560791015625,8.32916259765625,1,2.0,1.0,1.0,2.0,10.00
2024-10-11 20:26:54.670,0.62024903,1.246133,0.9249322,0.72088814,1.0705754,0.8259579,0.9365007,0.7087976,0.99745905,0.80283934,0.1375252,0.7021598,0.48019487,-0.14079016,0.14478604,0.5476085,0.003826943,-0.29501837,-0.34936327,-0.021565398,806.6667,801.4286,795.38464,805.8608,861.4652,0.11767578125,0.02960205078125,0.9854736328125,-2.43743896484375,4.493560791015625,8.32916259765625,1,2.0,1.0,1.0,2.0,10.00
2024-10-11 20:26:54.670,0.62024903,1.246133,0.9249322,0.72088814,1.0705754,0.8259579,0.9365007,0.7087976,0.99745905,0.80283934,0.1375252,0.7021598,0.48019487,-0.14079016,0.14478604,0.5476085,0.003826943,-0.29501837,-0.34936327,-0.021565398,807.8755,803.8461,799.011,803.0403,757.50916,0.11767578125,0.02960205078125,0.9854736328125,-2.43743896484375,4.493560791015625,8.32916259765625,1,2.0,1.0,1.0,2.0,10.00
2024-10-11 20:26:54.693,0.62024903,1.246133,0.9249322,0.72088814,1.0705754,0.8259579,0.9365007,0.7087976,0.99745905,0.80283934,0.1375252,0.7021598,0.48019487,-0.14079016,0.14478604,0.5476085,0.003826943,-0.29501837,-0.34936327,-0.021565398,806.6667,806.26373,808.2784,798.60803,714.3956,0.10369873046875,0.0323486328125,0.99365234375,-0.979461669921875,3.342132568359375,10.041351318359375,1,2.0,1.0,1.0,2.0,10.00
2024-10-11 20:26:54.694,0.62024903,1.246133,0.9249322,0.72088814,1.0705754,0.8259579,0.9365007,0.7087976,0.99745905,0.80283934,0.1375252,0.7021598,0.48019487,-0.14079016,0.14478604,0.5476085,0.003826943,-0.29501837,-0.34936327,-0.021565398,807.47253,810.696,811.50183,799.41394,758.71796,0.10369873046875,0.0323486328125,0.99365234375,-0.979461669921875,3.342132568359375,10.041351318359375,1,2.0,1.0,1.0,2.0,10.00
2024-10-11 20:26:54.694,0.62024903,1.246133,0.9249322,0.72088814,1.0705754,0.8259579,0.9365007,0.7087976,0.99745905,0.80283934,0.1375252,0.7021598,0.48019487,-0.14079016,0.14478604,0.5476085,0.003826943,-0.29501837,-0.34936327,-0.021565398,801.8315,811.50183,807.8755,792.5641,749.0476,0.10369873046875,0.0323486328125,0.99365234375,-0.979461669921875,3.342132568359375,10.041351318359375,1,2.0,1.0,1.0,2.0,10.00
2024-10-11 20:26:54.695,0.62024903,1.246133,0.9249322,0.72088814,1.0705754,0.8259579,0.9365007,0.7087976,0.99745905,0.80283934,0.1375252,0.7021598,0.48019487,-0.14079016,0.14478604,0.5476085,0.003826943,-0.29501837,-0.34936327,-0.021565398,807.0696,811.0989,803.8461,792.5641,699.4872,0.10369873046875,0.0323486328125,0.99365234375,-0.979461669921875,3.342132568359375,10.041351318359375,1,2.0,1.0,1.0,2.0,10.00
2024-10-11 20:26:54.695,0.62024903,1.246133,0.9249322,0.72088814,1.0705754,0.8259579,0.9365007,0.7087976,0.99745905,0.80283934,0.1375252,0.7021598,0.48019487,-0.14079016,0.14478604,0.5476085,0.003826943,-0.29501837,-0.34936327,-0.021565398,816.7399,811.9048,805.4579,797.8022,646.30035,0.10369873046875,0.0323486328125,0.99365234375,-0.979461669921875,3.342132568359375,10.041351318359375,1,2.0,1.0,1.0,2.0,10.00
2024-10-11 20:26:54.696,0.62024903,1.246133,0.9249322,0.72088814,1.0705754,0.8259579,0.9365007,0.7087976,0.99745905,0.80283934,0.1375252,0.7021598,0.48019487,-0.14079016,0.14478604,0.5476085,0.003826943,-0.29501837,-0.34936327,-0.021565398,803.0403,805.05493,799.41394,786.52014,877.1795,0.10369873046875,0.0323486328125,0.99365234375,-0.979461669921875,3.342132568359375,10.041351318359375,1,2.0,1.0,1.0,2.0,10.00
2024-10-11 20:26:54.696,0.62024903,1.246133,0.9249322,0.72088814,1.0705754,0.8259579,0.9365007,0.7087976,0.99745905,0.80283934,0.1375252,0.7021598,0.48019487,-0.14079016,0.14478604,0.5476085,0.003826943,-0.29501837,-0.34936327,-0.021565398,807.47253,803.0403,791.3553,785.7143,996.4469,0.10369873046875,0.0323486328125,0.99365234375,-0.979461669921875,3.342132568359375,10.041351318359375,1,2.0,1.0,1.0,2.0,10.00
2024-10-11 20:26:54.697,0.62024903,1.246133,0.9249322,0.72088814,1.0705754,0.8259579,0.9365007,0.7087976,0.99745905,0.80283934,0.1375252,0.7021598,0.48019487,-0.14079016,0.14478604,0.5476085,0.003826943,-0.29501837,-0.34936327,-0.021565398,846.1539,802.23444,807.8755,828.8278,778.0586,0.10369873046875,0.0323486328125,0.99365234375,-0.979461669921875,3.342132568359375,10.041351318359375,1,2.0,1.0,1.0,2.0,10.00
2024-10-11 20:26:54.697,0.62024903,1.246133,0.9249322,0.72088814,1.0705754,0.8259579,0.9365007,0.7087976,0.99745905,0.80283934,0.1375252,0.7021598,0.48019487,-0.14079016,0.14478604,0.5476085,0.003826943,-0.29501837,-0.34936327,-0.021565398,821.978,802.6374,823.1868,818.3516,655.9707,0.10369873046875,0.0323486328125,0.99365234375,-0.979461669921875,3.342132568359375,10.041351318359375,1,2.0,1.0,1.0,2.0,10.00
2024-10-11 20:26:54.698,0.62024903,1.246133,0.9249322,0.72088814,1.0705754,0.8259579,0.9365007,0.7087976,0.99745905,0.80283934,0.1375252,0.7021598,0.48019487,-0.14079016,0.14478604,0.5476085,0.003826943,-0.29501837,-0.34936327,-0.021565398,765.56775,805.4579,812.3077,765.56775,787.72894,0.10369873046875,0.0323486328125,0.99365234375,-0.979461669921875,3.342132568359375,10.041351318359375,1,2.0,1.0,1.0,2.0,10.00
2024-10-11 20:26:54.698,0.62024903,1.246133,0.9249322,0.72088814,1.0705754,0.8259579,0.9365007,0.7087976,0.99745905,0.80283934,0.1375252,0.7021598,0.48019487,-0.14079016,0.14478604,0.5476085,0.003826943,-0.29501837,-0.34936327,-0.021565398,761.13556,805.4579,803.0403,757.9121,883.22345,0.10369873046875,0.0323486328125,0.99365234375,-0.979461669921875,3.342132568359375,10.041351318359375,1,2.0,1.0,1.0,2.0,10.00
2024-10-11 20:26:54.699,0.62024903,1.246133,0.9249322,0.72088814,1.0705754,0.8259579,0.9365007,0.7087976,0.99745905,0.80283934,0.1375252,0.7021598,0.48019487,-0.14079016,0.14478604,0.5476085,0.003826943,-0.29501837,-0.34936327,-0.021565398,757.1062,810.293,810.696,754.2857,779.2674,0.10369873046875,0.0323486328125,0.99365234375,-0.979461669921875,3.342132568359375,10.041351318359375,1,2.0,1.0,1.0,2.0,10.00
2024-10-11 20:26:54.759,0.62024903,1.246133,0.9249322,0.72088814,1.0705754,0.8259579,0.9365007,0.7087976,0.99745905,0.80283934,0.1375252,0.7021598,0.48019487,-0.14079016,0.14478604,0.5476085,0.003826943,-0.29501837,-0.34936327,-0.021565398,740.18317,806.26373,815.5311,740.58606,626.1539,0.08740234375,0.02984619140625,1.01446533203125,-1.51031494140625,5.78704833984375,10.534820556640625,1,2.0,1.0,1.0,2.0,10.00
2024-10-11 20:26:54.760,0.62024903,1.246133,0.9249322,0.72088814,1.0705754,0.8259579,0.9365007,0.7087976,0.99745905,0.80283934,0.1375252,0.7021598,0.48019487,-0.14079016,0.14478604,0.5476085,0.003826943,-0.29501837,-0.34936327,-0.021565398,723.2601,807.8755,816.7399,733.3333,803.0403,0.08740234375,0.02984619140625,1.01446533203125,-1.51031494140625,5.78704833984375,10.534820556640625,1,2.0,1.0,1.0,2.0,10.00
2024-10-11 20:26:54.760,0.62024903,1.246133,0.9249322,0.72088814,1.0705754,0.8259579,0.9365007,0.7087976,0.99745905,0.80283934,0.1375252,0.7021598,0.48019487,-0.14079016,0.14478604,0.5476085,0.003826943,-0.29501837,-0.34936327,-0.021565398,696.6667,814.7253,821.978,713.9927,977.50916,0.08740234375,0.02984619140625,1.01446533203125,-1.51031494140625,5.78704833984375,10.534820556640625,1,2.0,1.0,1.0,2.0,10.00
2024-10-11 20:26:54.761,0.62024903,1.246133,0.9249322,0.72088814,1.0705754,0.8259579,0.9365007,0.7087976,0.99745905,0.80283934,0.1375252,0.7021598,0.48019487,-0.14079016,0.14478604,0.5476085,0.003826943,-0.29501837,-0.34936327,-0.021565398,685.38464,810.293,822.7839,699.89014,861.4652,0.08740234375,0.02984619140625,1.01446533203125,-1.51031494140625,5.78704833984375,10.534820556640625,1,2.0,1.0,1.0,2.0,10.00
2024-10-11 20:26:54.761,0.62024903,1.246133,0.9249322,0.72088814,1.0705754,0.8259579,0.9365007,0.7087976,0.99745905,0.80283934,0.1375252,0.7021598,0.48019487,-0.14079016,0.14478604,0.5476085,0.003826943,-0.29501837,-0.34936327,-0.021565398,676.1172,806.6667,823.1868,694.65204,709.15753,0.08740234375,0.02984619140625,1.01446533203125,-1.51031494140625,5.78704833984375,10.534820556640625,1,2.0,1.0,1.0,2.0,10.00
2024-10-11 20:26:54.762,0.62024903,1.246133,0.9249322,0.72088814,1.0705754,0.8259579,0.9365007,0.7087976,0.99745905,0.80283934,0.1375252,0.7021598,0.48019487,-0.14079016,0.14478604,0.5476085,0.003826943,-0.29501837,-0.34936327,-0.021565398,659.59705,813.5165,826.4103,677.326,951.31866,0.08740234375,0.02984619140625,1.01446533203125,-1.51031494140625,5.78704833984375,10.534820556640625,1,2.0,1.0,1.0,2.0,10.00
2024-10-11 20:26:54.762,0.62024903,1.246133,0.9249322,0.72088814,1.0705754,0.8259579,0.9365007,0.7087976,0.99745905,0.80283934,0.1375252,0.7021598,0.48019487,-0.14079016,0.14478604,0.5476085,0.003826943,-0.29501837,-0.34936327,-0.021565398,650.32965,813.5165,827.619,674.10254,1464.652,0.08740234375,0.02984619140625,1.01446533203125,-1.51031494140625,5.78704833984375,10.534820556640625,1,2.0,1.0,1.0,2.0,10.00
2024-10-11 20:26:54.762,0.62024903,1.2631868,1.0350587,0.72088814,1.0705754,0.8477155,1.0089986,0.7087976,0.99745905,0.80283934,0.18919906,0.7021598,0.48019487,-0.12916361,0.119648196,0.5476085,0.003826943,-0.276398,-0.3364898,-0.021565398,640.2564,815.9341,832.8571,662.8205,1126.9963,0.08740234375,0.02984619140625,1.01446533203125,-1.51031494140625,5.78704833984375,10.534820556640625,1,2.0,1.0,1.0,2.0,10.00
2024-10-11 20:26:54.766,0.62024903,1.2631868,1.0350587,0.72088814,1.0705754,0.8477155,1.0089986,0.7087976,0.99745905,0.80283934,0.18919906,0.7021598,0.48019487,-0.12916361,0.119648196,0.5476085,0.003826943,-0.276398,-0.3364898,-0.021565398,627.3626,814.7253,834.4689,639.0476,635.42126,0.08740234375,0.02984619140625,1.01446533203125,-1.51031494140625,5.78704833984375,10.534820556640625,1,2.0,1.0,1.0,2.0,10.00
2024-10-11 20:26:54.767,0.62024903,1.2631868,1.0350587,0.72088814,1.0705754,0.8477155,1.0089986,0.7087976,0.99745905,0.80283934,0.18919906,0.7021598,0.48019487,-0.12916361,0.119648196,0.5476085,0.003826943,-0.276398,-0.3364898,-0.021565398,621.31866,813.91943,841.7216,642.27106,616.8865,0.08740234375,0.02984619140625,1.01446533203125,-1.51031494140625,5.78704833984375,10.534820556640625,1,2.0,1.0,1.0,2.0,10.00
2024-10-11 20:26:54.767,0.62024903,1.2631868,1.0350587,0.72088814,1.0705754,0.8477155,1.0089986,0.7087976,0.99745905,0.80283934,0.18919906,0.7021598,0.48019487,-0.12916361,0.119648196,0.5476085,0.003826943,-0.276398,-0.3364898,-0.021565398,608.022,816.7399,846.1539,640.65936,664.0293,0.08740234375,0.02984619140625,1.01446533203125,-1.51031494140625,5.78704833984375,10.534820556640625,1,2.0,1.0,1.0,2.0,10.00
2024-10-11 20:26:54.768,0.62024903,1.2631868,1.0350587,0.72088814,1.0705754,0.8477155,1.0089986,0.7087976,0.99745905,0.80283934,0.18919906,0.7021598,0.48019487,-0.12916361,0.119648196,0.5476085,0.003826943,-0.276398,-0.3364898,-0.021565398,597.9487,810.293,842.9304,629.7802,737.3626,0.08740234375,0.02984619140625,1.01446533203125,-1.51031494140625,5.78704833984375,10.534820556640625,1,2.0,1.0,1.0,2.0,10.00
2024-10-11 20:26:54.864,0.62024903,1.2631868,1.0350587,0.72088814,1.0705754,0.8477155,1.0089986,0.7087976,0.99745905,0.80283934,0.18919906,0.7021598,0.48019487,-0.12916361,0.119648196,0.5476085,0.003826943,-0.276398,-0.3364898,-0.021565398,597.9487,803.8461,850.989,633.00366,653.1502,0.05865478515625,0.014892578125,1.01513671875,-2.76641845703125,9.19647216796875,11.327362060546875,1,2.0,1.0,1.0,2.0,10.00
2024-10-11 20:26:54.865,0.62024903,1.2631868,1.0350587,0.72088814,1.0705754,0.8477155,1.0089986,0.7087976,0.99745905,0.80283934,0.18919906,0.7021598,0.48019487,-0.12916361,0.119648196,0.5476085,0.003826943,-0.276398,-0.3364898,-0.021565398,606.4103,801.4286,855.42126,637.4359,696.6667,0.05865478515625,0.014892578125,1.01513671875,-2.76641845703125,9.19647216796875,11.327362060546875,1,2.0,1.0,1.0,2.0,10.00
2024-10-11 20:26:54.865,0.62024903,1.2631868,1.0350587,0.72088814,1.0705754,0.8477155,1.0089986,0.7087976,0.99745905,0.80283934,0.18919906,0.7021598,0.48019487,-0.12916361,0.119648196,0.5476085,0.003826943,-0.276398,-0.3364898,-0.021565398,622.1245,807.47253,844.94507,637.03296,748.24176,0.05865478515625,0.014892578125,1.01513671875,-2.76641845703125,9.19647216796875,11.327362060546875,1,2.0,1.0,1.0,2.0,10.00
2024-10-11 20:26:54.866,0.62024903,1.2631868,1.0350587,0.72088814,1.0705754,0.8477155,1.0089986,0.7087976,0.99745905,0.80283934,0.18919906,0.7021598,0.48019487,-0.12916361,0.119648196,0.5476085,0.003826943,-0.276398,-0.3364898,-0.021565398,614.4689,815.9341,842.52747,629.7802,682.96704,0.05865478515625,0.014892578125,1.01513671875,-2.76641845703125,9.19647216796875,11.327362060546875,1,2.0,1.0,1.0,2.0,10.00
2024-10-11 20:26:54.867,0.62024903,1.2631868,1.0350587,0.72088814,1.0705754,0.8477155,1.0089986,0.7087976,0.99745905,0.80283934,0.18919906,0.7021598,0.48019487,-0.12916361,0.119648196,0.5476085,0.003826943,-0.276398,-0.3364898,-0.021565398,605.6044,815.9341,845.34796,628.5714,755.09155,0.05865478515625,0.014892578125,1.01513671875,-2.76641845703125,9.19647216796875,11.327362060546875,1,2.0,1.0,1.0,2.0,10.00
2024-10-11 20:26:54.867,0.62024903,1.2631868,1.0350587,0.72088814,1.0705754,0.8477155,1.0089986,0.7087976,0.99745905,0.80283934,0.18919906,0.7021598,0.48019487,-0.12916361,0.119648196,0.5476085,0.003826943,-0.276398,-0.3364898,-0.021565398,611.6484,811.50183,837.28937,633.8095,883.6264,0.05865478515625,0.014892578125,1.01513671875,-2.76641845703125,9.19647216796875,11.327362060546875,1,2.0,1.0,1.0,2.0,10.00
2024-10-11 20:26:54.868,0.62024903,1.2631868,1.0350587,0.72088814,1.0705754,0.8477155,1.0089986,0.7087976,0.99745905,0.80283934,0.18919906,0.7021598,0.48019487,-0.12916361,0.119648196,0.5476085,0.003826943,-0.276398,-0.3364898,-0.021565398,628.5714,809.4872,837.28937,648.315,794.9817,0.05865478515625,0.014892578125,1.01513671875,-2.76641845703125,9.19647216796875,11.327362060546875,1,2.0,1.0,1.0,2.0,10.00
2024-10-11 20:26:54.868,0.62024903,1.2631868,1.0350587,0.72088814,1.0705754,0.8477155,1.0089986,0.7087976,0.99745905,0.80283934,0.18919906,0.7021598,0.48019487,-0.12916361,0.119648196,0.5476085,0.003826943,-0.276398,-0.3364898,-0.021565398,644.68866,813.1135,834.0659,660.80585,680.9524,0.05865478515625,0.014892578125,1.01513671875,-2.76641845703125,9.19647216796875,11.327362060546875,1,2.0,1.0,1.0,2.0,10.00
2024-10-11 20:26:54.869,0.62024903,1.2631868,1.0350587,0.72088814,1.0705754,0.8477155,1.0089986,0.7087976,0.99745905,0.80283934,0.18919906,0.7021598,0.48019487,-0.12916361,0.119648196,0.5476085,0.003826943,-0.276398,-0.3364898,-0.021565398,655.9707,809.4872,829.6337,670.87915,734.1392,0.05865478515625,0.014892578125,1.01513671875,-2.76641845703125,9.19647216796875,11.327362060546875,1,2.0,1.0,1.0,2.0,10.00
2024-10-11 20:26:54.869,0.62024903,1.2631868,1.0350587,0.72088814,1.0705754,0.8477155,1.0089986,0.7087976,0.99745905,0.80283934,0.18919906,0.7021598,0.48019487,-0.12916361,0.119648196,0.5476085,0.003826943,-0.276398,-0.3364898,-0.021565398,662.8205,800.2198,823.1868,682.96704,797.3993,0.05865478515625,0.014892578125,1.01513671875,-2.76641845703125,9.19647216796875,11.327362060546875,1,2.0,1.0,1.0,2.0,10.00
2024-10-11 20:26:54.870,0.62024903,1.2631868,1.0350587,0.72088814,1.0705754,0.8477155,1.0089986,0.7087976,0.99745905,0.80283934,0.18919906,0.7021598,0.48019487,-0.12916361,0.119648196,0.5476085,0.003826943,-0.276398,-0.3364898,-0.021565398,669.67035,799.41394,817.5458,695.4579,684.17584,0.05865478515625,0.014892578125,1.01513671875,-2.76641845703125,9.19647216796875,11.327362060546875,1,2.0,1.0,1.0,2.0,10.00
2024-10-11 20:26:54.871,0.62024903,1.2631868,1.0350587,0.72088814,1.0705754,0.8477155,1.0089986,0.7087976,0.99745905,0.80283934,0.18919906,0.7021598,0.48019487,-0.12916361,0.119648196,0.5476085,0.003826943,-0.276398,-0.3364898,-0.021565398,687.3993,801.4286,815.12823,711.978,635.0183,0.05865478515625,0.014892578125,1.01513671875,-2.76641845703125,9.19647216796875,11.327362060546875,1,2.0,1.0,1.0,2.0,10.00
2024-10-11 20:26:54.871,0.62024903,1.2631868,1.0350587,0.72088814,1.0705754,0.8477155,1.0089986,0.7087976,0.99745905,0.80283934,0.18919906,0.7021598,0.48019487,-0.12916361,0.119648196,0.5476085,0.003826943,-0.276398,-0.3364898,-0.021565398,693.44324,799.81683,813.1135,718.8278,829.6337,0.05865478515625,0.014892578125,1.01513671875,-2.76641845703125,9.19647216796875,11.327362060546875,1,2.0,1.0,1.0,2.0,10.00
2024-10-11 20:26:54.872,0.62024903,1.2631868,1.0350587,0.72088814,1.0705754,0.8477155,1.0089986,0.7087976,0.99745905,0.80283934,0.18919906,0.7021598,0.48019487,-0.12916361,0.119648196,0.5476085,0.003826943,-0.276398,-0.3364898,-0.021565398,685.38464,796.99634,814.3223,709.15753,902.1612,0.05865478515625,0.014892578125,1.01513671875,-2.76641845703125,9.19647216796875,11.327362060546875,1,2.0,1.0,1.0,2.0,10.00
2024-10-11 20:26:54.872,0.62024903,1.2631868,1.0350587,0.72088814,1.0705754,0.8477155,1.0089986,0.7087976,0.99745905,0.80283934,0.18919906,0.7021598,0.48019487,-0.12916361,0.119648196,0.5476085,0.003826943,-0.276398,-0.3364898,-0.021565398,693.8461,795.78754,813.5165,708.3516,632.6007,0.05865478515625,0.014892578125,1.01513671875,-2.76641845703125,9.19647216796875,11.327362060546875,1,2.0,1.0,1.0,2.0,10.00
2024-10-11 20:26:54.873,0.62024903,1.2631868,1.0350587,0.72088814,1.0705754,0.8477155,1.0089986,0.7087976,0.99745905,0.80283934,0.18919906,0.7021598,0.48019487,-0.12916361,0.119648196,0.5476085,0.003826943,-0.276398,-0.3364898,-0.021565398,707.9487,792.96704,811.0989,722.4542,603.9927,0.05865478515625,0.014892578125,1.01513671875,-2.76641845703125,9.19647216796875,11.327362060546875,1,2.0,1.0,1.0,2.0,10.00
2024-10-11 20:26:54.874,0.62024903,1.2631868,1.0350587,0.72088814,1.0705754,0.8477155,1.0089986,0.7087976,0.99745905,0.80283934,0.18919906,0.7021598,0.48019487,-0.12916361,0.119648196,0.5476085,0.003826943,-0.276398,-0.3364898,-0.021565398,714.7985,789.7436,805.4579,735.7509,919.89014,0.05865478515625,0.014892578125,1.01513671875,-2.76641845703125,9.19647216796875,11.327362060546875,1,2.0,1.0,1.0,2.0,10.00
2024-10-11 20:26:54.874,0.62024903,1.2631868,1.0350587,0.72088814,1.0705754,0.8477155,1.0089986,0.7087976,0.99745905,0.80283934,0.18919906,0.7021598,0.48019487,-0.12916361,0.119648196,0.5476085,0.003826943,-0.276398,-0.3364898,-0.021565398,732.9304,792.1612,805.05493,749.0476,950.5128,0.05865478515625,0.014892578125,1.01513671875,-2.76641845703125,9.19647216796875,11.327362060546875,1,2.0,1.0,1.0,2.0,10.00
2024-10-11 20:26:54.875,0.62024903,1.2631868,1.0350587,0.72088814,1.0705754,0.8477155,1.0089986,0.7087976,0.99745905,0.80283934,0.18919906,0.7021598,0.48019487,-0.12916361,0.119648196,0.5476085,0.003826943,-0.276398,-0.3364898,-0.021565398,751.06226,796.1905,803.0403,752.674,708.3516,0.05865478515625,0.014892578125,1.01513671875,-2.76641845703125,9.19647216796875,11.327362060546875,1,2.0,1.0,1.0,2.0,10.00
2024-10-11 20:26:54.875,0.62024903,1.2631868,1.0350587,0.72088814,1.0705754,0.8477155,1.0089986,0.7087976,0.99745905,0.80283934,0.18919906,0.7021598,0.48019487,-0.12916361,0.119648196,0.5476085,0.003826943,-0.276398,-0.3364898,-0.021565398,742.6007,797.8022,800.2198,749.85345,718.4249,0.05865478515625,0.014892578125,1.01513671875,-2.76641845703125,9.19647216796875,11.327362060546875,1,2.0,1.0,1.0,2.0,10.00
2024-10-11 20:26:54.876,0.62024903,1.2631868,1.0350587,0.72088814,1.0705754,0.8477155,1.0089986,0.7087976,0.99745905,0.80283934,0.18919906,0.7021598,0.48019487,-0.12916361,0.119648196,0.5476085,0.003826943,-0.276398,-0.3364898,-0.021565398,736.9597,797.3993,798.20514,753.0769,826.4103,0.05865478515625,0.014892578125,1.01513671875,-2.76641845703125,9.19647216796875,11.327362060546875,1,2.0,1.0,1.0,2.0,10.00
2024-10-11 20:26:54.876,0.62024903,1.3117636,1.0350587,0.72088814,1.0705754,0.895827,1.0089986,0.7087976,0.99745905,0.80283934,0.18919906,0.7021598,0.48019487,-0.11660972,0.119648196,0.5476085,0.003826943,-0.25365946,-0.3364898,-0.021565398,746.63007,793.36993,796.5934,756.7033,752.27106,0.05865478515625,0.014892578125,1.01513671875,-2.76641845703125,9.19647216796875,11.327362060546875,1,2.0,1.0,1.0,2.0,10.00
2024-10-11 20:26:54.881,0.62024903,1.3117636,1.0350587,0.72088814,1.0705754,0.895827,1.0089986,0.7087976,0.99745905,0.80283934,0.18919906,0.7021598,0.48019487,-0.11660972,0.119648196,0.5476085,0.003826943,-0.25365946,-0.3364898,-0.021565398,755.89746,793.36993,796.1905,759.5238,670.87915,0.05865478515625,0.014892578125,1.01513671875,-2.76641845703125,9.19647216796875,11.327362060546875,1,2.0,1.0,1.0,2.0,10.00
2024-10-11 20:26:54.882,0.62024903,1.3117636,1.0350587,0.72088814,1.0705754,0.895827,1.0089986,0.7087976,0.99745905,0.80283934,0.18919906,0.7021598,0.48019487,-0.11660972,0.119648196,0.5476085,0.003826943,-0.25365946,-0.3364898,-0.021565398,764.35895,790.9524,792.1612,770.0,785.7143,0.05865478515625,0.014892578125,1.01513671875,-2.76641845703125,9.19647216796875,11.327362060546875,1,2.0,1.0,1.0,2.0,10.00
2024-10-11 20:26:54.909,0.62024903,1.3117636,1.0350587,0.72088814,1.0705754,0.895827,1.0089986,0.7087976,0.99745905,0.80283934,0.18919906,0.7021598,0.48019487,-0.11660972,0.119648196,0.5476085,0.003826943,-0.25365946,-0.3364898,-0.021565398,764.35895,789.7436,792.96704,772.4176,961.79486,0.023681640625,0.0064697265625,1.00177001953125,-2.594451904296875,10.669403076171875,12.374114990234375,1,2.0,1.0,1.0,2.0,10.00
2024-10-11 20:26:54.910,0.62024903,1.3117636,1.0350587,0.72088814,1.0705754,0.895827,1.0089986,0.7087976,0.99745905,0.80283934,0.18919906,0.7021598,0.48019487,-0.11660972,0.119648196,0.5476085,0.003826943,-0.25365946,-0.3364898,-0.021565398,772.4176,789.34064,791.3553,776.8498,853.8095,0.023681640625,0.0064697265625,1.00177001953125,-2.594451904296875,10.669403076171875,12.374114990234375,1,2.0,1.0,1.0,2.0,10.00
2024-10-11 20:26:54.910,0.62024903,1.3117636,1.0350587,0.72088814,1.0705754,0.895827,1.0089986,0.7087976,0.99745905,0.80283934,0.18919906,0.7021598,0.48019487,-0.11660972,0.119648196,0.5476085,0.003826943,-0.25365946,-0.3364898,-0.021565398,784.5055,788.5348,787.326,784.90845,663.22345,0.023681640625,0.0064697265625,1.00177001953125,-2.594451904296875,10.669403076171875,12.374114990234375,1,2.0,1.0,1.0,2.0,10.00
2024-10-11 20:26:54.911,0.62024903,1.3117636,1.0350587,0.72088814,1.0705754,0.895827,1.0089986,0.7087976,0.99745905,0.80283934,0.18919906,0.7021598,0.48019487,-0.11660972,0.119648196,0.5476085,0.003826943,-0.25365946,-0.3364898,-0.021565398,787.72894,790.14655,786.9231,787.326,701.0989,0.023681640625,0.0064697265625,1.00177001953125,-2.594451904296875,10.669403076171875,12.374114990234375,1,2.0,1.0,1.0,2.0,10.00
2024-10-11 20:26:54.911,0.62024903,1.3117636,1.0350587,0.72088814,1.0705754,0.895827,1.0089986,0.7087976,0.99745905,0.80283934,0.18919906,0.7021598,0.48019487,-0.11660972,0.119648196,0.5476085,0.003826943,-0.25365946,-0.3364898,-0.021565398,778.0586,791.3553,789.34064,785.7143,932.7839,0.023681640625,0.0064697265625,1.00177001953125,-2.594451904296875,10.669403076171875,12.374114990234375,1,2.0,1.0,1.0,2.0,10.00
2024-10-11 20:26:54.912,0.62024903,1.3117636,1.0350587,0.72088814,1.0705754,0.895827,1.0089986,0.7087976,0.99745905,0.80283934,0.18919906,0.7021598,0.48019487,-0.11660972,0.119648196,0.5476085,0.003826943,-0.25365946,-0.3364898,-0.021565398,778.46155,791.3553,793.7729,784.10254,938.8278,0.023681640625,0.0064697265625,1.00177001953125,-2.594451904296875,10.669403076171875,12.374114990234375,1,2.0,1.0,1.0,2.0,10.00
2024-10-11 20:26:54.913,0.62024903,1.3117636,1.0350587,0.72088814,1.0705754,0.895827,1.0089986,0.7087976,0.99745905,0.80283934,0.18919906,0.7021598,0.48019487,-0.11660972,0.119648196,0.5476085,0.003826943,-0.25365946,-0.3364898,-0.021565398,787.72894,790.54944,790.54944,789.7436,882.8205,0.023681640625,0.0064697265625,1.00177001953125,-2.594451904296875,10.669403076171875,12.374114990234375,1,2.0,1.0,1.0,2.0,10.00
2024-10-11 20:26:54.913,0.62024903,1.3117636,1.0350587,0.72088814,1.0705754,0.895827,1.0089986,0.7087976,0.99745905,0.80283934,0.18919906,0.7021598,0.48019487,-0.11660972,0.119648196,0.5476085,0.003826943,-0.25365946,-0.3364898,-0.021565398,790.9524,789.7436,783.69965,789.7436,920.293,0.023681640625,0.0064697265625,1.00177001953125,-2.594451904296875,10.669403076171875,12.374114990234375,1,2.0,1.0,1.0,2.0,10.00
2024-10-11 20:26:54.914,0.62024903,1.3117636,1.0350587,0.72088814,1.0705754,0.895827,1.0089986,0.7087976,0.99745905,0.80283934,0.18919906,0.7021598,0.48019487,-0.11660972,0.119648196,0.5476085,0.003826943,-0.25365946,-0.3364898,-0.021565398,794.57874,789.34064,784.90845,794.9817,917.47253,0.023681640625,0.0064697265625,1.00177001953125,-2.594451904296875,10.669403076171875,12.374114990234375,1,2.0,1.0,1.0,2.0,10.00
2024-10-11 20:26:54.914,0.62024903,1.3117636,1.0350587,0.72088814,1.0705754,0.895827,1.0089986,0.7087976,0.99745905,0.80283934,0.18919906,0.7021598,0.48019487,-0.11660972,0.119648196,0.5476085,0.003826943,-0.25365946,-0.3364898,-0.021565398,799.41394,793.7729,783.69965,803.44324,746.63007,0.023681640625,0.0064697265625,1.00177001953125,-2.594451904296875,10.669403076171875,12.374114990234375,1,2.0,1.0,1.0,2.0,10.00
2024-10-11 20:26:54.915,0.62024903,1.3117636,1.0350587,0.72088814,1.0705754,0.895827,1.0089986,0.7087976,0.99745905,0.80283934,0.18919906,0.7021598,0.48019487,-0.11660972,0.119648196,0.5476085,0.003826943,-0.25365946,-0.3364898,-0.021565398,800.2198,790.14655,786.52014,798.20514,660.40295,0.023681640625,0.0064697265625,1.00177001953125,-2.594451904296875,10.669403076171875,12.374114990234375,1,2.0,1.0,1.0,2.0,10.00
2024-10-11 20:26:54.915,0.62024903,1.3117636,1.0350587,0.72088814,1.0705754,0.895827,1.0089986,0.7087976,0.99745905,0.80283934,0.18919906,0.7021598,0.48019487,-0.11660972,0.119648196,0.5476085,0.003826943,-0.25365946,-0.3364898,-0.021565398,800.2198,783.2967,786.9231,796.99634,753.0769,0.023681640625,0.0064697265625,1.00177001953125,-2.594451904296875,10.669403076171875,12.374114990234375,1,2.0,1.0,1.0,2.0,10.00
2024-10-11 20:26:54.981,0.62024903,1.3117636,1.0350587,0.72088814,1.0705754,0.895827,1.0089986,0.7087976,0.99745905,0.80283934,0.18919906,0.7021598,0.48019487,-0.11660972,0.119648196,0.5476085,0.003826943,-0.25365946,-0.3364898,-0.021565398,801.8315,786.9231,784.10254,798.60803,811.50183,-0.001953125,0.0020751953125,0.99224853515625,-1.6748046875,7.9852294921875,13.75732421875,1,2.0,1.0,1.0,2.0,10.00
2024-10-11 20:26:54.982,0.62024903,1.3117636,1.0350587,0.72088814,1.0705754,0.895827,1.0089986,0.7087976,0.99745905,0.80283934,0.18919906,0.7021598,0.48019487,-0.11660972,0.119648196,0.5476085,0.003826943,-0.25365946,-0.3364898,-0.021565398,803.8461,790.14655,780.87915,801.8315,731.7216,-0.001953125,0.0020751953125,0.99224853515625,-1.6748046875,7.9852294921875,13.75732421875,1,2.0,1.0,1.0,2.0,10.00
2024-10-11 20:26:54.983,0.62024903,1.3117636,1.0350587,0.72088814,1.0705754,0.895827,1.0089986,0.7087976,0.99745905,0.80283934,0.18919906,0.7021598,0.48019487,-0.11660972,0.119648196,0.5476085,0.003826943,-0.25365946,-0.3364898,-0.021565398,804.2491,789.34064,782.49084,803.8461,694.65204,-0.001953125,0.0020751953125,0.99224853515625,-1.6748046875,7.9852294921875,13.75732421875,1,2.0,1.0,1.0,2.0,10.00
2024-10-11 20:26:54.983,0.62024903,1.3117636,1.0350587,0.72088814,1.0705754,0.895827,1.0089986,0.7087976,0.99745905,0.80283934,0.18919906,0.7021598,0.48019487,-0.11660972,0.119648196,0.5476085,0.003826943,-0.25365946,-0.3364898,-0.021565398,803.0403,782.0879,783.2967,804.2491,881.6117,-0.001953125,0.0020751953125,0.99224853515625,-1.6748046875,7.9852294921875,13.75732421875,1,2.0,1.0,1.0,2.0,10.00
2024-10-11 20:26:54.984,0.62024903,1.3117636,1.0350587,0.72088814,1.0705754,0.895827,1.0089986,0.7087976,0.99745905,0.80283934,0.18919906,0.7021598,0.48019487,-0.11660972,0.119648196,0.5476085,0.003826943,-0.25365946,-0.3364898,-0.021565398,808.2784,780.87915,782.8938,818.7546,1245.0549,-0.001953125,0.0020751953125,0.99224853515625,-1.6748046875,7.9852294921875,13.75732421875,1,2.0,1.0,1.0,2.0,10.00
2024-10-11 20:26:54.985,0.62024903,1.3117636,1.0350587,0.72088814,1.0705754,0.895827,1.0089986,0.7087976,0.99745905,0.80283934,0.18919906,0.7021598,0.48019487,-0.11660972,0.119648196,0.5476085,0.003826943,-0.25365946,-0.3364898,-0.021565398,807.8755,787.326,784.5055,823.9927,1273.663,-0.001953125,0.0020751953125,0.99224853515625,-1.6748046875,7.9852294921875,13.75732421875,1,2.0,1.0,1.0,2.0,10.00
2024-10-11 20:26:54.985,0.62024903,1.3117636,1.0350587,0.72088814,1.0705754,0.895827,1.0089986,0.7087976,0.99745905,0.80283934,0.18919906,0.7021598,0.48019487,-0.11660972,0.119648196,0.5476085,0.003826943,-0.25365946,-0.3364898,-0.021565398,808.2784,788.93774,786.9231,817.5458,886.8498,-0.001953125,0.0020751953125,0.99224853515625,-1.6748046875,7.9852294921875,13.75732421875,1,2.0,1.0,1.0,2.0,10.00
2024-10-11 20:26:54.986,0.62024903,1.3117636,1.0350587,0.72088814,1.0705754,0.895827,1.0089986,0.7087976,0.99745905,0.80283934,0.18919906,0.7021598,0.48019487,-0.11660972,0.119648196,0.5476085,0.003826943,-0.25365946,-0.3364898,-0.021565398,811.0989,788.5348,784.5055,817.9487,843.3333,-0.001953125,0.0020751953125,0.99224853515625,-1.6748046875,7.9852294921875,13.75732421875,1,2.0,1.0,1.0,2.0,10.00
2024-10-11 20:26:54.986,0.62024903,1.3117636,1.0350587,0.72088814,1.0705754,0.895827,1.0089986,0.7087976,0.99745905,0.80283934,0.18919906,0.7021598,0.48019487,-0.11660972,0.119648196,0.5476085,0.003826943,-0.25365946,-0.3364898,-0.021565398,803.0403,787.72894,783.2967,818.3516,768.7912,-0.001953125,0.0020751953125,0.99224853515625,-1.6748046875,7.9852294921875,13.75732421875,1,2.0,1.0,1.0,2.0,10.00
2024-10-11 20:26:54.987,0.62024903,1.3117636,1.0350587,0.72088814,1.0705754,0.895827,1.0089986,0.7087976,0.99745905,0.80283934,0.18919906,0.7021598,0.48019487,-0.11660972,0.119648196,0.5476085,0.003826943,-0.25365946,-0.3364898,-0.021565398,804.65204,787.72894,785.7143,813.91943,599.15753,-0.001953125,0.0020751953125,0.99224853515625,-1.6748046875,7.9852294921875,13.75732421875,1,2.0,1.0,1.0,2.0,10.00
2024-10-11 20:26:54.988,0.62024903,1.3117636,1.0350587,0.72088814,1.0705754,0.895827,1.0089986,0.7087976,0.99745905,0.80283934,0.18919906,0.7021598,0.48019487,-0.11660972,0.119648196,0.5476085,0.003826943,-0.25365946,-0.3364898,-0.021565398,813.1135,787.326,784.10254,810.293,745.82416,-0.001953125,0.0020751953125,0.99224853515625,-1.6748046875,7.9852294921875,13.75732421875,1,2.0,1.0,1.0,2.0,10.00
2024-10-11 20:26:54,,,,,,,,,,,,,,,,,,,,,,,,,,,,,,,,,,,,,,/muse/elements/blink
2024-10-11 20:26:54.988,0.62024903,1.3110306,1.0350587,0.72088814,1.0705754,0.88096595,1.0089986,0.7087976,0.99745905,0.80283934,0.18919906,0.7021598,0.48019487,-0.114808165,0.119648196,0.5476085,0.003826943,-0.24720916,-0.3364898,-0.021565398,815.12823,787.326,786.9231,819.15753,990.0,-0.001953125,0.0020751953125,0.99224853515625,-1.6748046875,7.9852294921875,13.75732421875,1,2.0,1.0,1.0,2.0,10.00
2024-10-11 20:26:54.994,0.62024903,1.3110306,1.0350587,0.72088814,1.0705754,0.88096595,1.0089986,0.7087976,0.99745905,0.80283934,0.18919906,0.7021598,0.48019487,-0.114808165,0.119648196,0.5476085,0.003826943,-0.24720916,-0.3364898,-0.021565398,814.3223,791.75824,790.54944,826.4103,892.49084,-0.02362060546875,-0.00347900390625,1.0072021484375,-0.396270751953125,5.39825439453125,15.05828857421875,1,2.0,1.0,1.0,2.0,10.00
2024-10-11 20:26:54.994,0.62024903,1.3110306,1.0350587,0.72088814,1.0705754,0.88096595,1.0089986,0.7087976,0.99745905,0.80283934,0.18919906,0.7021598,0.48019487,-0.114808165,0.119648196,0.5476085,0.003826943,-0.24720916,-0.3364898,-0.021565398,813.1135,791.3553,789.7436,820.3663,697.47253,-0.02362060546875,-0.00347900390625,1.0072021484375,-0.396270751953125,5.39825439453125,15.05828857421875,1,2.0,1.0,1.0,2.0,10.00
2024-10-11 20:26:54.995,0.62024903,1.3110306,1.0350587,0.72088814,1.0705754,0.88096595,1.0089986,0.7087976,0.99745905,0.80283934,0.18919906,0.7021598,0.48019487,-0.114808165,0.119648196,0.5476085,0.003826943,-0.24720916,-0.3364898,-0.021565398,812.3077,790.54944,786.1172,815.12823,734.1392,-0.02362060546875,-0.00347900390625,1.0072021484375,-0.396270751953125,5.39825439453125,15.05828857421875,1,2.0,1.0,1.0,2.0,10.00
2024-10-11 20:26:54.996,0.62024903,1.3110306,1.0350587,0.72088814,1.0705754,0.88096595,1.0089986,0.7087976,0.99745905,0.80283934,0.18919906,0.7021598,0.48019487,-0.114808165,0.119648196,0.5476085,0.003826943,-0.24720916,-0.3364898,-0.021565398,810.293,790.9524,784.5055,816.337,780.87915,-0.02362060546875,-0.00347900390625,1.0072021484375,-0.396270751953125,5.39825439453125,15.05828857421875,1,2.0,1.0,1.0,2.0,10.00
2024-10-11 20:26:54.996,0.62024903,1.3110306,1.0350587,0.72088814,1.0705754,0.88096595,1.0089986,0.7087976,0.99745905,0.80283934,0.18919906,0.7021598,0.48019487,-0.114808165,0.119648196,0.5476085,0.003826943,-0.24720916,-0.3364898,-0.021565398,807.0696,791.3553,787.326,817.1429,726.8865,-0.02362060546875,-0.00347900390625,1.0072021484375,-0.396270751953125,5.39825439453125,15.05828857421875,1,2.0,1.0,1.0,2.0,10.00
2024-10-11 20:26:54.997,0.62024903,1.3110306,1.0350587,0.72088814,1.0705754,0.88096595,1.0089986,0.7087976,0.99745905,0.80283934,0.18919906,0.7021598,0.48019487,-0.114808165,0.119648196,0.5476085,0.003826943,-0.24720916,-0.3364898,-0.021565398,809.0842,792.96704,790.54944,815.5311,732.1245,-0.02362060546875,-0.00347900390625,1.0072021484375,-0.396270751953125,5.39825439453125,15.05828857421875,1,2.0,1.0,1.0,2.0,10.00
2024-10-11 20:26:54.998,0.62024903,1.3110306,1.0350587,0.72088814,1.0705754,0.88096595,1.0089986,0.7087976,0.99745905,0.80283934,0.18919906,0.7021598,0.48019487,-0.114808165,0.119648196,0.5476085,0.003826943,-0.24720916,-0.3364898,-0.021565398,815.12823,791.3553,790.9524,820.7692,873.5531,-0.02362060546875,-0.00347900390625,1.0072021484375,-0.396270751953125,5.39825439453125,15.05828857421875,1,2.0,1.0,1.0,2.0,10.00
2024-10-11 20:26:54.998,0.62024903,1.3110306,1.0350587,0.72088814,1.0705754,0.88096595,1.0089986,0.7087976,0.99745905,0.80283934,0.18919906,0.7021598,0.48019487,-0.114808165,0.119648196,0.5476085,0.003826943,-0.24720916,-0.3364898,-0.021565398,817.1429,794.9817,788.93774,824.3956,895.31134,-0.02362060546875,-0.00347900390625,1.0072021484375,-0.396270751953125,5.39825439453125,15.05828857421875,1,2.0,1.0,1.0,2.0,10.00
2024-10-11 20:26:54.999,0.62024903,1.3110306,1.0350587,0.72088814,1.0705754,0.88096595,1.0089986,0.7087976,0.99745905,0.80283934,0.18919906,0.7021598,0.48019487,-0.114808165,0.119648196,0.5476085,0.003826943,-0.24720916,-0.3364898,-0.021565398,815.9341,796.99634,785.31134,818.3516,619.707,-0.02362060546875,-0.00347900390625,1.0072021484375,-0.396270751953125,5.39825439453125,15.05828857421875,1,2.0,1.0,1.0,2.0,10.00
2024-10-11 20:26:54.999,0.62024903,1.3110306,1.0350587,0.72088814,1.0705754,0.88096595,1.0089986,0.7087976,0.99745905,0.80283934,0.18919906,0.7021598,0.48019487,-0.114808165,0.119648196,0.5476085,0.003826943,-0.24720916,-0.3364898,-0.021565398,820.3663,795.38464,788.1319,817.1429,547.5824,-0.02362060546875,-0.00347900390625,1.0072021484375,-0.396270751953125,5.39825439453125,15.05828857421875,1,2.0,1.0,1.0,2.0,10.00
2024-10-11 20:26:55.000,0.62024903,1.3110306,1.0350587,0.72088814,1.0705754,0.88096595,1.0089986,0.7087976,0.99745905,0.80283934,0.18919906,0.7021598,0.48019487,-0.114808165,0.119648196,0.5476085,0.003826943,-0.24720916,-0.3364898,-0.021565398,824.3956,794.9817,792.5641,825.6044,749.45056,-0.02362060546875,-0.00347900390625,1.0072021484375,-0.396270751953125,5.39825439453125,15.05828857421875,1,2.0,1.0,1.0,2.0,10.00
2024-10-11 20:26:55.000,0.62024903,1.3110306,1.0350587,0.72088814,1.0705754,0.88096595,1.0089986,0.7087976,0.99745905,0.80283934,0.18919906,0.7021598,0.48019487,-0.114808165,0.119648196,0.5476085,0.003826943,-0.24720916,-0.3364898,-0.021565398,819.9634,794.57874,790.14655,830.84247,839.707,-0.02362060546875,-0.00347900390625,1.0072021484375,-0.396270751953125,5.39825439453125,15.05828857421875,1,2.0,1.0,1.0,2.0,10.00
2024-10-11 20:26:55.030,0.62024903,1.3110306,1.0350587,0.72088814,1.0705754,0.88096595,1.0089986,0.7087976,0.99745905,0.80283934,0.18919906,0.7021598,0.48019487,-0.114808165,0.119648196,0.5476085,0.003826943,-0.24720916,-0.3364898,-0.021565398,824.3956,801.4286,794.9817,832.0513,691.8315,-0.034423828125,-0.0035400390625,1.00970458984375,-0.22430419921875,4.2169189453125,15.454559326171875,1,2.0,1.0,1.0,2.0,10.00
2024-10-11 20:26:55.031,0.62024903,1.3110306,1.0350587,0.72088814,1.0705754,0.88096595,1.0089986,0.7087976,0.99745905,0.80283934,0.18919906,0.7021598,0.48019487,-0.114808165,0.119648196,0.5476085,0.003826943,-0.24720916,-0.3364898,-0.021565398,834.4689,805.8608,799.41394,830.4396,640.2564,-0.034423828125,-0.0035400390625,1.00970458984375,-0.22430419921875,4.2169189453125,15.454559326171875,1,2.0,1.0,1.0,2.0,10.00
2024-10-11 20:26:55.032,0.62024903,1.3110306,1.0350587,0.72088814,1.0705754,0.88096595,1.0089986,0.7087976,0.99745905,0.80283934,0.18919906,0.7021598,0.48019487,-0.114808165,0.119648196,0.5476085,0.003826943,-0.24720916,-0.3364898,-0.021565398,827.619,797.8022,792.96704,827.619,735.34796,-0.034423828125,-0.0035400390625,1.00970458984375,-0.22430419921875,4.2169189453125,15.454559326171875,1,2.0,1.0,1.0,2.0,10.00
2024-10-11 20:26:55.032,0.62024903,1.3110306,1.0350587,0.72088814,1.0705754,0.88096595,1.0089986,0.7087976,0.99745905,0.80283934,0.18919906,0.7021598,0.48019487,-0.114808165,0.119648196,0.5476085,0.003826943,-0.24720916,-0.3364898,-0.021565398,824.3956,794.17584,791.75824,828.022,773.22345,-0.034423828125,-0.0035400390625,1.00970458984375,-0.22430419921875,4.2169189453125,15.454559326171875,1,2.0,1.0,1.0,2.0,10.00
2024-10-11 20:26:55.033,0.62024903,1.3110306,1.0350587,0.72088814,1.0705754,0.88096595,1.0089986,0.7087976,0.99745905,0.80283934,0.18919906,0.7021598,0.48019487,-0.114808165,0.119648196,0.5476085,0.003826943,-0.24720916,-0.3364898,-0.021565398,815.12823,794.9817,794.9817,823.9927,680.54944,-0.034423828125,-0.0035400390625,1.00970458984375,-0.22430419921875,4.2169189453125,15.454559326171875,1,2.0,1.0,1.0,2.0,10.00
2024-10-11 20:26:55.033,0.62024903,1.3110306,1.0350587,0.72088814,1.0705754,0.88096595,1.0089986,0.7087976,0.99745905,0.80283934,0.18919906,0.7021598,0.48019487,-0.114808165,0.119648196,0.5476085,0.003826943,-0.24720916,-0.3364898,-0.021565398,815.12823,796.1905,789.34064,817.5458,630.18317,-0.034423828125,-0.0035400390625,1.00970458984375,-0.22430419921875,4.2169189453125,15.454559326171875,1,2.0,1.0,1.0,2.0,10.00
2024-10-11 20:26:55.034,0.62024903,1.3110306,1.0350587,0.72088814,1.0705754,0.88096595,1.0089986,0.7087976,0.99745905,0.80283934,0.18919906,0.7021598,0.48019487,-0.114808165,0.119648196,0.5476085,0.003826943,-0.24720916,-0.3364898,-0.021565398,821.978,796.1905,783.69965,821.5751,865.4945,-0.034423828125,-0.0035400390625,1.00970458984375,-0.22430419921875,4.2169189453125,15.454559326171875,1,2.0,1.0,1.0,2.0,10.00
2024-10-11 20:26:55.035,0.62024903,1.3110306,1.0350587,0.72088814,1.0705754,0.88096595,1.0089986,0.7087976,0.99745905,0.80283934,0.18919906,0.7021598,0.48019487,-0.114808165,0.119648196,0.5476085,0.003826943,-0.24720916,-0.3364898,-0.021565398,821.5751,798.60803,791.3553,825.6044,869.92676,-0.034423828125,-0.0035400390625,1.00970458984375,-0.22430419921875,4.2169189453125,15.454559326171875,1,2.0,1.0,1.0,2.0,10.00
2024-10-11 20:26:55.035,0.62024903,1.3110306,1.0350587,0.72088814,1.0705754,0.88096595,1.0089986,0.7087976,0.99745905,0.80283934,0.18919906,0.7021598,0.48019487,-0.114808165,0.119648196,0.5476085,0.003826943,-0.24720916,-0.3364898,-0.021565398,823.1868,796.99634,794.17584,818.7546,649.12085,-0.034423828125,-0.0035400390625,1.00970458984375,-0.22430419921875,4.2169189453125,15.454559326171875,1,2.0,1.0,1.0,2.0,10.00
2024-10-11 20:26:55.036,0.62024903,1.3110306,1.0350587,0.72088814,1.0705754,0.88096595,1.0089986,0.7087976,0.99745905,0.80283934,0.18919906,0.7021598,0.48019487,-0.114808165,0.119648196,0.5476085,0.003826943,-0.24720916,-0.3364898,-0.021565398,821.5751,794.57874,795.78754,818.3516,556.4469,-0.034423828125,-0.0035400390625,1.00970458984375,-0.22430419921875,4.2169189453125,15.454559326171875,1,2.0,1.0,1.0,2.0,10.00
2024-10-11 20:26:55.036,0.62024903,1.3110306,1.0350587,0.72088814,1.0705754,0.88096595,1.0089986,0.7087976,0.99745905,0.80283934,0.18919906,0.7021598,0.48019487,-0.114808165,0.119648196,0.5476085,0.003826943,-0.24720916,-0.3364898,-0.021565398,825.2015,792.96704,800.6227,830.0366,839.707,-0.034423828125,-0.0035400390625,1.00970458984375,-0.22430419921875,4.2169189453125,15.454559326171875,1,2.0,1.0,1.0,2.0,10.00
2024-10-11 20:26:55.037,0.62024903,1.3110306,1.0350587,0.72088814,1.0705754,0.88096595,1.0089986,0.7087976,0.99745905,0.80283934,0.18919906,0.7021598,0.48019487,-0.114808165,0.119648196,0.5476085,0.003826943,-0.24720916,-0.3364898,-0.021565398,822.7839,789.34064,796.1905,831.6484,1087.1062,-0.034423828125,-0.0035400390625,1.00970458984375,-0.22430419921875,4.2169189453125,15.454559326171875,1,2.0,1.0,1.0,2.0,10.00
2024-10-11 20:26:55.103,0.62024903,1.3110306,1.0350587,0.72088814,1.0705754,0.88096595,1.0089986,0.7087976,0.99745905,0.80283934,0.18919906,0.7021598,0.48019487,-0.114808165,0.119648196,0.5476085,0.003826943,-0.24720916,-0.3364898,-0.021565398,822.381,793.7729,789.34064,822.381,705.9341,-0.034423828125,-0.0035400390625,1.00970458984375,-0.22430419921875,4.2169189453125,15.454559326171875,1,2.0,1.0,1.0,2.0,10.00
2024-10-11 20:26:55.104,0.62024903,1.2674065,1.0350587,0.72088814,1.0705754,0.82470447,1.0089986,0.7087976,0.99745905,0.7423787,0.18919906,0.7021598,0.48019487,-0.114920355,0.119648196,0.5476085,0.003826943,-0.24797513,-0.3364898,-0.021565398,826.4103,797.3993,782.8938,817.5458,526.63007,-0.034423828125,-0.0035400390625,1.00970458984375,-0.22430419921875,4.2169189453125,15.454559326171875,1,2.0,1.0,1.0,2.0,10.00
2024-10-11 20:26:55.108,0.62024903,1.2674065,1.0350587,0.72088814,1.0705754,0.82470447,1.0089986,0.7087976,0.99745905,0.7423787,0.18919906,0.7021598,0.48019487,-0.114920355,0.119648196,0.5476085,0.003826943,-0.24797513,-0.3364898,-0.021565398,816.337,788.93774,785.31134,812.3077,504.46887,-0.034423828125,-0.0035400390625,1.00970458984375,-0.22430419921875,4.2169189453125,15.454559326171875,1,2.0,1.0,1.0,2.0,10.00
2024-10-11 20:26:55.109,0.62024903,1.2674065,1.0350587,0.72088814,1.0705754,0.82470447,1.0089986,0.7087976,0.99745905,0.7423787,0.18919906,0.7021598,0.48019487,-0.114920355,0.119648196,0.5476085,0.003826943,-0.24797513,-0.3364898,-0.021565398,813.5165,787.326,792.96704,815.12823,610.4396,-0.034423828125,-0.0035400390625,1.00970458984375,-0.22430419921875,4.2169189453125,15.454559326171875,1,2.0,1.0,1.0,2.0,10.00
2024-10-11 20:26:55.110,0.62024903,1.2674065,1.0350587,0.72088814,1.0705754,0.82470447,1.0089986,0.7087976,0.99745905,0.7423787,0.18919906,0.7021598,0.48019487,-0.114920355,0.119648196,0.5476085,0.003826943,-0.24797513,-0.3364898,-0.021565398,815.5311,793.36993,794.57874,818.7546,698.2784,-0.034423828125,-0.0035400390625,1.00970458984375,-0.22430419921875,4.2169189453125,15.454559326171875,1,2.0,1.0,1.0,2.0,10.00
2024-10-11 20:26:55.110,0.62024903,1.2674065,1.0350587,0.72088814,1.0705754,0.82470447,1.0089986,0.7087976,0.99745905,0.7423787,0.18919906,0.7021598,0.48019487,-0.114920355,0.119648196,0.5476085,0.003826943,-0.24797513,-0.3364898,-0.021565398,813.1135,792.5641,794.9817,820.3663,730.5128,-0.034423828125,-0.0035400390625,1.00970458984375,-0.22430419921875,4.2169189453125,15.454559326171875,1,2.0,1.0,1.0,2.0,10.00
2024-10-11 20:26:55.111,0.62024903,1.2674065,1.0350587,0.72088814,1.0705754,0.82470447,1.0089986,0.7087976,0.99745905,0.7423787,0.18919906,0.7021598,0.48019487,-0.114920355,0.119648196,0.5476085,0.003826943,-0.24797513,-0.3364898,-0.021565398,813.91943,792.1612,789.7436,826.0073,1141.0989,-0.034423828125,-0.0035400390625,1.00970458984375,-0.22430419921875,4.2169189453125,15.454559326171875,1,2.0,1.0,1.0,2.0,10.00
2024-10-11 20:26:55.111,0.62024903,1.2674065,1.0350587,0.72088814,1.0705754,0.82470447,1.0089986,0.7087976,0.99745905,0.7423787,0.18919906,0.7021598,0.48019487,-0.114920355,0.119648196,0.5476085,0.003826943,-0.24797513,-0.3364898,-0.021565398,811.9048,794.9817,790.9524,826.8132,971.8681,-0.034423828125,-0.0035400390625,1.00970458984375,-0.22430419921875,4.2169189453125,15.454559326171875,1,2.0,1.0,1.0,2.0,10.00
2024-10-11 20:26:55.112,0.62024903,1.2674065,1.0350587,0.72088814,1.0705754,0.82470447,1.0089986,0.7087976,0.99745905,0.7423787,0.18919906,0.7021598,0.48019487,-0.114920355,0.119648196,0.5476085,0.003826943,-0.24797513,-0.3364898,-0.021565398,814.3223,797.3993,794.57874,821.1722,635.0183,-0.034423828125,-0.0035400390625,1.00970458984375,-0.22430419921875,4.2169189453125,15.454559326171875,1,2.0,1.0,1.0,2.0,10.00
2024-10-11 20:26:55.112,0.62024903,1.2674065,1.0350587,0.72088814,1.0705754,0.82470447,1.0089986,0.7087976,0.99745905,0.7423787,0.18919906,0.7021598,0.48019487,-0.114920355,0.119648196,0.5476085,0.003826943,-0.24797513,-0.3364898,-0.021565398,821.978,796.5934,795.38464,821.1722,650.7326,-0.034423828125,-0.0035400390625,1.00970458984375,-0.22430419921875,4.2169189453125,15.454559326171875,1,2.0,1.0,1.0,2.0,10.00
2024-10-11 20:26:55.113,0.62024903,1.2674065,1.0350587,0.72088814,1.0705754,0.82470447,1.0089986,0.7087976,0.99745905,0.7423787,0.18919906,0.7021598,0.48019487,-0.114920355,0.119648196,0.5476085,0.003826943,-0.24797513,-0.3364898,-0.021565398,820.3663,791.75824,794.57874,815.5311,613.2601,-0.034423828125,-0.0035400390625,1.00970458984375,-0.22430419921875,4.2169189453125,15.454559326171875,1,2.0,1.0,1.0,2.0,10.00
2024-10-11 20:26:55.114,0.62024903,1.2674065,1.0350587,0.72088814,1.0705754,0.82470447,1.0089986,0.7087976,0.99745905,0.7423787,0.18919906,0.7021598,0.48019487,-0.114920355,0.119648196,0.5476085,0.003826943,-0.24797513,-0.3364898,-0.021565398,816.7399,791.75824,788.5348,813.1135,550.40295,-0.034423828125,-0.0035400390625,1.00970458984375,-0.22430419921875,4.2169189453125,15.454559326171875,1,2.0,1.0,1.0,2.0,10.00
2024-10-11 20:26:55.114,0.62024903,1.2674065,1.0350587,0.72088814,1.0705754,0.82470447,1.0089986,0.7087976,0.99745905,0.7423787,0.18919906,0.7021598,0.48019487,-0.114920355,0.119648196,0.5476085,0.003826943,-0.24797513,-0.3364898,-0.021565398,817.5458,796.99634,791.3553,818.7546,655.16486,-0.0391845703125,-0.00567626953125,1.00933837890625,0.770111083984375,1.951446533203125,14.22088623046875,1,2.0,1.0,1.0,2.0,10.00
2024-10-11 20:26:55.115,0.62024903,1.2674065,1.0350587,0.72088814,1.0705754,0.82470447,1.0089986,0.7087976,0.99745905,0.7423787,0.18919906,0.7021598,0.48019487,-0.114920355,0.119648196,0.5476085,0.003826943,-0.24797513,-0.3364898,-0.021565398,818.3516,794.57874,795.78754,811.50183,711.978,-0.0391845703125,-0.00567626953125,1.00933837890625,0.770111083984375,1.951446533203125,14.22088623046875,1,2.0,1.0,1.0,2.0,10.00
2024-10-11 20:26:55.116,0.62024903,1.2674065,1.0350587,0.72088814,1.0705754,0.82470447,1.0089986,0.7087976,0.99745905,0.7423787,0.18919906,0.7021598,0.48019487,-0.114920355,0.119648196,0.5476085,0.003826943,-0.24797513,-0.3364898,-0.021565398,815.5311,791.75824,794.57874,801.8315,668.46155,-0.0391845703125,-0.00567626953125,1.00933837890625,0.770111083984375,1.951446533203125,14.22088623046875,1,2.0,1.0,1.0,2.0,10.00
2024-10-11 20:26:55.116,0.62024903,1.2674065,1.0350587,0.72088814,1.0705754,0.82470447,1.0089986,0.7087976,0.99745905,0.7423787,0.18919906,0.7021598,0.48019487,-0.114920355,0.119648196,0.5476085,0.003826943,-0.24797513,-0.3364898,-0.021565398,805.4579,792.1612,793.36993,803.44324,637.8388,-0.0391845703125,-0.00567626953125,1.00933837890625,0.770111083984375,1.951446533203125,14.22088623046875,1,2.0,1.0,1.0,2.0,10.00
2024-10-11 20:26:55.117,0.62024903,1.2674065,1.0350587,0.72088814,1.0705754,0.82470447,1.0089986,0.7087976,0.99745905,0.7423787,0.18919906,0.7021598,0.48019487,-0.114920355,0.119648196,0.5476085,0.003826943,-0.24797513,-0.3364898,-0.021565398,804.2491,790.54944,794.9817,808.68134,654.7619,-0.0391845703125,-0.00567626953125,1.00933837890625,0.770111083984375,1.951446533203125,14.22088623046875,1,2.0,1.0,1.0,2.0,10.00
2024-10-11 20:26:55.117,0.62024903,1.2674065,1.0350587,0.72088814,1.0705754,0.82470447,1.0089986,0.7087976,0.99745905,0.7423787,0.18919906,0.7021598,0.48019487,-0.114920355,0.119648196,0.5476085,0.003826943,-0.24797513,-0.3364898,-0.021565398,812.71063,790.14655,794.9817,814.3223,842.52747,-0.0391845703125,-0.00567626953125,1.00933837890625,0.770111083984375,1.951446533203125,14.22088623046875,1,2.0,1.0,1.0,2.0,10.00
2024-10-11 20:26:55.118,0.62024903,1.2674065,1.0350587,0.72088814,1.0705754,0.82470447,1.0089986,0.7087976,0.99745905,0.7423787,0.18919906,0.7021598,0.48019487,-0.114920355,0.119648196,0.5476085,0.003826943,-0.24797513,-0.3364898,-0.021565398,812.3077,791.3553,792.5641,810.696,843.73627,-0.0391845703125,-0.00567626953125,1.00933837890625,0.770111083984375,1.951446533203125,14.22088623046875,1,2.0,1.0,1.0,2.0,10.00
2024-10-11 20:26:55.119,0.62024903,1.2674065,1.0350587,0.72088814,1.0705754,0.82470447,1.0089986,0.7087976,0.99745905,0.7423787,0.18919906,0.7021598,0.48019487,-0.114920355,0.119648196,0.5476085,0.003826943,-0.24797513,-0.3364898,-0.021565398,804.65204,792.1612,789.7436,809.0842,756.7033,-0.0391845703125,-0.00567626953125,1.00933837890625,0.770111083984375,1.951446533203125,14.22088623046875,1,2.0,1.0,1.0,2.0,10.00
2024-10-11 20:26:55.119,0.62024903,1.2674065,1.0350587,0.72088814,1.0705754,0.82470447,1.0089986,0.7087976,0.99745905,0.7423787,0.18919906,0.7021598,0.48019487,-0.114920355,0.119648196,0.5476085,0.003826943,-0.24797513,-0.3364898,-0.021565398,801.02563,796.5934,789.7436,812.3077,778.86444,-0.0391845703125,-0.00567626953125,1.00933837890625,0.770111083984375,1.951446533203125,14.22088623046875,1,2.0,1.0,1.0,2.0,10.00
2024-10-11 20:26:55.120,0.62024903,1.2674065,1.0350587,0.72088814,1.0705754,0.82470447,1.0089986,0.7087976,0.99745905,0.7423787,0.18919906,0.7021598,0.48019487,-0.114920355,0.119648196,0.5476085,0.003826943,-0.24797513,-0.3364898,-0.021565398,810.696,794.57874,789.34064,813.5165,885.64105,-0.0391845703125,-0.00567626953125,1.00933837890625,0.770111083984375,1.951446533203125,14.22088623046875,1,2.0,1.0,1.0,2.0,10.00
2024-10-11 20:26:55.120,0.62024903,1.2674065,1.0350587,0.72088814,1.0705754,0.82470447,1.0089986,0.7087976,0.99745905,0.7423787,0.18919906,0.7021598,0.48019487,-0.114920355,0.119648196,0.5476085,0.003826943,-0.24797513,-0.3364898,-0.021565398,821.1722,794.9817,793.7729,811.0989,832.0513,-0.0391845703125,-0.00567626953125,1.00933837890625,0.770111083984375,1.951446533203125,14.22088623046875,1,2.0,1.0,1.0,2.0,10.00
2024-10-11 20:26:55.121,0.62024903,1.2674065,1.0350587,0.72088814,1.0705754,0.82470447,1.0089986,0.7087976,0.99745905,0.7423787,0.18919906,0.7021598,0.48019487,-0.114920355,0.119648196,0.5476085,0.003826943,-0.24797513,-0.3364898,-0.021565398,821.5751,798.20514,796.5934,812.3077,605.6044,-0.0391845703125,-0.00567626953125,1.00933837890625,0.770111083984375,1.951446533203125,14.22088623046875,1,2.0,1.0,1.0,2.0,10.00
2024-10-11 20:26:55.186,0.62024903,1.2674065,1.0350587,0.72088814,1.0705754,0.82470447,1.0089986,0.7087976,0.99745905,0.7423787,0.18919906,0.7021598,0.48019487,-0.114920355,0.119648196,0.5476085,0.003826943,-0.24797513,-0.3364898,-0.021565398,821.1722,796.1905,794.17584,819.5604,705.9341,-0.02935791015625,-0.00445556640625,1.0069580078125,1.62994384765625,-0.725250244140625,12.134857177734375,1,2.0,1.0,1.0,2.0,10.00
2024-10-11 20:26:55.187,0.62024903,1.2674065,1.0350587,0.72088814,1.0705754,0.82470447,1.0089986,0.7087976,0.99745905,0.7423787,0.18919906,0.7021598,0.48019487,-0.114920355,0.119648196,0.5476085,0.003826943,-0.24797513,-0.3364898,-0.021565398,816.7399,795.38464,791.75824,818.3516,963.4066,-0.02935791015625,-0.00445556640625,1.0069580078125,1.62994384765625,-0.725250244140625,12.134857177734375,1,2.0,1.0,1.0,2.0,10.00
2024-10-11 20:26:55.188,0.62024903,1.2674065,1.0350587,0.72088814,1.0705754,0.82470447,1.0089986,0.7087976,0.99745905,0.7423787,0.18919906,0.7021598,0.48019487,-0.114920355,0.119648196,0.5476085,0.003826943,-0.24797513,-0.3364898,-0.021565398,816.337,798.60803,794.9817,819.15753,826.8132,-0.02935791015625,-0.00445556640625,1.0069580078125,1.62994384765625,-0.725250244140625,12.134857177734375,1,2.0,1.0,1.0,2.0,10.00
2024-10-11 20:26:55.188,0.62024903,1.2173668,1.0350587,0.72088814,1.0705754,0.7853146,1.0089986,0.7087976,0.99745905,0.5571507,0.18919906,0.7021598,0.48019487,-0.11558289,0.119648196,0.5476085,0.003826943,-0.23394066,-0.3364898,-0.021565398,827.2161,799.81683,796.99634,821.1722,671.685,-0.02935791015625,-0.00445556640625,1.0069580078125,1.62994384765625,-0.725250244140625,12.134857177734375,1,2.0,1.0,1.0,2.0,10.00
2024-10-11 20:26:55.193,0.62024903,1.2173668,1.0350587,0.72088814,1.0705754,0.7853146,1.0089986,0.7087976,0.99745905,0.5571507,0.18919906,0.7021598,0.48019487,-0.11558289,0.119648196,0.5476085,0.003826943,-0.23394066,-0.3364898,-0.021565398,826.8132,801.4286,793.7729,821.1722,778.0586,-0.02935791015625,-0.00445556640625,1.0069580078125,1.62994384765625,-0.725250244140625,12.134857177734375,1,2.0,1.0,1.0,2.0,10.00
2024-10-11 20:26:55.194,0.62024903,1.2173668,1.0350587,0.72088814,1.0705754,0.7853146,1.0089986,0.7087976,0.99745905,0.5571507,0.18919906,0.7021598,0.48019487,-0.11558289,0.119648196,0.5476085,0.003826943,-0.23394066,-0.3364898,-0.021565398,822.381,799.81683,793.7729,825.6044,1208.7913,-0.02935791015625,-0.00445556640625,1.0069580078125,1.62994384765625,-0.725250244140625,12.134857177734375,1,2.0,1.0,1.0,2.0,10.00
2024-10-11 20:26:55.194,0.62024903,1.2173668,1.0350587,0.72088814,1.0705754,0.7853146,1.0089986,0.7087976,0.99745905,0.5571507,0.18919906,0.7021598,0.48019487,-0.11558289,0.119648196,0.5476085,0.003826943,-0.23394066,-0.3364898,-0.021565398,815.5311,799.41394,793.36993,813.1135,1104.0293,-0.02935791015625,-0.00445556640625,1.0069580078125,1.62994384765625,-0.725250244140625,12.134857177734375,1,2.0,1.0,1.0,2.0,10.00
2024-10-11 20:26:55.195,0.62024903,1.2173668,1.0350587,0.72088814,1.0705754,0.7853146,1.0089986,0.7087976,0.99745905,0.5571507,0.18919906,0.7021598,0.48019487,-0.11558289,0.119648196,0.5476085,0.003826943,-0.23394066,-0.3364898,-0.021565398,811.50183,804.2491,794.17584,805.8608,663.22345,-0.02935791015625,-0.00445556640625,1.0069580078125,1.62994384765625,-0.725250244140625,12.134857177734375,1,2.0,1.0,1.0,2.0,10.00
2024-10-11 20:26:55.195,0.62024903,1.2173668,1.0350587,0.72088814,1.0705754,0.7853146,1.0089986,0.7087976,0.99745905,0.5571507,0.18919906,0.7021598,0.48019487,-0.11558289,0.119648196,0.5476085,0.003826943,-0.23394066,-0.3364898,-0.021565398,813.5165,802.23444,797.3993,805.8608,710.7692,-0.02935791015625,-0.00445556640625,1.0069580078125,1.62994384765625,-0.725250244140625,12.134857177734375,1,2.0,1.0,1.0,2.0,10.00
2024-10-11 20:26:55.196,0.62024903,1.2173668,1.0350587,0.72088814,1.0705754,0.7853146,1.0089986,0.7087976,0.99745905,0.5571507,0.18919906,0.7021598,0.48019487,-0.11558289,0.119648196,0.5476085,0.003826943,-0.23394066,-0.3364898,-0.021565398,809.0842,796.1905,795.78754,810.696,1124.9817,-0.02935791015625,-0.00445556640625,1.0069580078125,1.62994384765625,-0.725250244140625,12.134857177734375,1,2.0,1.0,1.0,2.0,10.00
2024-10-11 20:26:55.197,0.62024903,1.2173668,1.0350587,0.72088814,1.0705754,0.7853146,1.0089986,0.7087976,0.99745905,0.5571507,0.18919906,0.7021598,0.48019487,-0.11558289,0.119648196,0.5476085,0.003826943,-0.23394066,-0.3364898,-0.021565398,810.696,799.41394,799.41394,813.91943,962.1978,-0.02935791015625,-0.00445556640625,1.0069580078125,1.62994384765625,-0.725250244140625,12.134857177734375,1,2.0,1.0,1.0,2.0,10.00
2024-10-11 20:26:55.197,0.62024903,1.2173668,1.0350587,0.72088814,1.0705754,0.7853146,1.0089986,0.7087976,0.99745905,0.5571507,0.18919906,0.7021598,0.48019487,-0.11558289,0.119648196,0.5476085,0.003826943,-0.23394066,-0.3364898,-0.021565398,816.337,800.2198,801.4286,813.5165,680.9524,-0.02935791015625,-0.00445556640625,1.0069580078125,1.62994384765625,-0.725250244140625,12.134857177734375,1,2.0,1.0,1.0,2.0,10.00
2024-10-11 20:26:55.270,0.62024903,1.2173668,1.0350587,0.72088814,1.0705754,0.7853146,1.0089986,0.7087976,0.99745905,0.5571507,0.18919906,0.7021598,0.48019487,-0.11558289,0.119648196,0.5476085,0.003826943,-0.23394066,-0.3364898,-0.021565398,811.50183,801.4286,796.99634,817.1429,782.8938,-0.02392578125,0.0052490234375,1.00732421875,2.758941650390625,-0.657958984375,10.21331787109375,1,2.0,1.0,1.0,2.0,10.00
2024-10-11 20:26:55.271,0.62024903,1.2173668,1.0350587,0.72088814,1.0705754,0.7853146,1.0089986,0.7087976,0.99745905,0.5571507,0.18919906,0.7021598,0.48019487,-0.11558289,0.119648196,0.5476085,0.003826943,-0.23394066,-0.3364898,-0.021565398,813.5165,800.6227,801.02563,820.7692,857.8388,-0.02392578125,0.0052490234375,1.00732421875,2.758941650390625,-0.657958984375,10.21331787109375,1,2.0,1.0,1.0,2.0,10.00
2024-10-11 20:26:55.272,0.62024903,1.2173668,1.0350587,0.72088814,1.0705754,0.7853146,1.0089986,0.7087976,0.99745905,0.5571507,0.18919906,0.7021598,0.48019487,-0.11558289,0.119648196,0.5476085,0.003826943,-0.23394066,-0.3364898,-0.021565398,817.5458,799.41394,802.6374,821.5751,684.57874,-0.02392578125,0.0052490234375,1.00732421875,2.758941650390625,-0.657958984375,10.21331787109375,1,2.0,1.0,1.0,2.0,10.00
2024-10-11 20:26:55.272,0.62024903,1.2173668,1.0350587,0.72088814,1.0705754,0.7853146,1.0089986,0.7087976,0.99745905,0.5571507,0.18919906,0.7021598,0.48019487,-0.11558289,0.119648196,0.5476085,0.003826943,-0.23394066,-0.3364898,-0.021565398,819.15753,799.41394,796.1905,812.3077,600.7692,-0.02392578125,0.0052490234375,1.00732421875,2.758941650390625,-0.657958984375,10.21331787109375,1,2.0,1.0,1.0,2.0,10.00
2024-10-11 20:26:55.273,0.62024903,1.2173668,1.0350587,0.72088814,1.0705754,0.7853146,1.0089986,0.7087976,0.99745905,0.5571507,0.18919906,0.7021598,0.48019487,-0.11558289,0.119648196,0.5476085,0.003826943,-0.23394066,-0.3364898,-0.021565398,818.3516,796.1905,794.17584,809.0842,750.2564,-0.02392578125,0.0052490234375,1.00732421875,2.758941650390625,-0.657958984375,10.21331787109375,1,2.0,1.0,1.0,2.0,10.00
2024-10-11 20:26:55.273,0.62024903,1.2173668,1.0350587,0.72088814,1.0705754,0.7853146,1.0089986,0.7087976,0.99745905,0.5571507,0.18919906,0.7021598,0.48019487,-0.11558289,0.119648196,0.5476085,0.003826943,-0.23394066,-0.3364898,-0.021565398,817.1429,798.60803,794.17584,811.9048,886.04395,-0.02392578125,0.0052490234375,1.00732421875,2.758941650390625,-0.657958984375,10.21331787109375,1,2.0,1.0,1.0,2.0,10.00
2024-10-11 20:26:55.274,0.62024903,1.2173668,1.0350587,0.72088814,1.0705754,0.7853146,1.0089986,0.7087976,0.99745905,0.5571507,0.18919906,0.7021598,0.48019487,-0.11558289,0.119648196,0.5476085,0.003826943,-0.23394066,-0.3364898,-0.021565398,808.2784,796.1905,796.1905,811.0989,814.7253,-0.02392578125,0.0052490234375,1.00732421875,2.758941650390625,-0.657958984375,10.21331787109375,1,2.0,1.0,1.0,2.0,10.00
2024-10-11 20:26:55.275,0.62024903,1.2173668,1.0350587,0.72088814,1.0705754,0.7853146,1.0089986,0.7087976,0.99745905,0.5571507,0.18919906,0.7021598,0.48019487,-0.11558289,0.119648196,0.5476085,0.003826943,-0.23394066,-0.3364898,-0.021565398,805.8608,797.8022,796.5934,807.8755,771.6117,-0.02392578125,0.0052490234375,1.00732421875,2.758941650390625,-0.657958984375,10.21331787109375,1,2.0,1.0,1.0,2.0,10.00
2024-10-11 20:26:55.275,0.62024903,1.2173668,1.0350587,0.72088814,1.0705754,0.7853146,1.0089986,0.7087976,0.99745905,0.5571507,0.18919906,0.7021598,0.48019487,-0.11558289,0.119648196,0.5476085,0.003826943,-0.23394066,-0.3364898,-0.021565398,812.3077,795.38464,798.20514,802.6374,939.2308,-0.02392578125,0.0052490234375,1.00732421875,2.758941650390625,-0.657958984375,10.21331787109375,1,2.0,1.0,1.0,2.0,10.00
2024-10-11 20:26:55.276,0.62024903,1.2173668,1.0350587,0.72088814,1.0705754,0.7853146,1.0089986,0.7087976,0.99745905,0.5571507,0.18919906,0.7021598,0.48019487,-0.11558289,0.119648196,0.5476085,0.003826943,-0.23394066,-0.3364898,-0.021565398,813.91943,793.36993,798.60803,803.8461,903.7729,-0.02392578125,0.0052490234375,1.00732421875,2.758941650390625,-0.657958984375,10.21331787109375,1,2.0,1.0,1.0,2.0,10.00
2024-10-11 20:26:55.276,0.62024903,1.2173668,1.0350587,0.72088814,1.0705754,0.7853146,1.0089986,0.7087976,0.99745905,0.5571507,0.18919906,0.7021598,0.48019487,-0.11558289,0.119648196,0.5476085,0.003826943,-0.23394066,-0.3364898,-0.021565398,813.91943,797.3993,797.3993,802.6374,735.34796,-0.02392578125,0.0052490234375,1.00732421875,2.758941650390625,-0.657958984375,10.21331787109375,1,2.0,1.0,1.0,2.0,10.00
2024-10-11 20:26:55.277,0.62024903,1.2173668,1.0350587,0.72088814,1.0705754,0.7853146,1.0089986,0.7087976,0.99745905,0.5571507,0.18919906,0.7021598,0.48019487,-0.11558289,0.119648196,0.5476085,0.003826943,-0.23394066,-0.3364898,-0.021565398,813.1135,794.57874,799.011,807.47253,739.7802,-0.02392578125,0.0052490234375,1.00732421875,2.758941650390625,-0.657958984375,10.21331787109375,1,2.0,1.0,1.0,2.0,10.00
2024-10-11 20:26:55.278,0.62024903,1.2173668,1.0350587,0.72088814,1.0705754,0.7853146,1.0089986,0.7087976,0.99745905,0.5571507,0.18919906,0.7021598,0.48019487,-0.11558289,0.119648196,0.5476085,0.003826943,-0.23394066,-0.3364898,-0.021565398,809.4872,796.5934,797.3993,806.26373,823.1868,-0.027587890625,0.01141357421875,1.01190185546875,2.6617431640625,-1.92901611328125,7.230072021484375,1,2.0,1.0,1.0,2.0,10.00
2024-10-11 20:26:55.278,0.62024903,1.2173668,1.0350587,0.72088814,1.0705754,0.7853146,1.0089986,0.7087976,0.99745905,0.5571507,0.18919906,0.7021598,0.48019487,-0.11558289,0.119648196,0.5476085,0.003826943,-0.23394066,-0.3364898,-0.021565398,804.65204,796.99634,798.20514,801.8315,691.4286,-0.027587890625,0.01141357421875,1.01190185546875,2.6617431640625,-1.92901611328125,7.230072021484375,1,2.0,1.0,1.0,2.0,10.00
2024-10-11 20:26:55.279,0.62024903,1.2173668,1.0350587,0.72088814,1.0705754,0.7853146,1.0089986,0.7087976,0.99745905,0.5571507,0.18919906,0.7021598,0.48019487,-0.11558289,0.119648196,0.5476085,0.003826943,-0.23394066,-0.3364898,-0.021565398,809.4872,798.20514,803.44324,808.68134,606.0073,-0.027587890625,0.01141357421875,1.01190185546875,2.6617431640625,-1.92901611328125,7.230072021484375,1,2.0,1.0,1.0,2.0,10.00
2024-10-11 20:26:55.279,0.62024903,1.2173668,1.0350587,0.72088814,1.0705754,0.7853146,1.0089986,0.7087976,0.99745905,0.5571507,0.18919906,0.7021598,0.48019487,-0.11558289,0.119648196,0.5476085,0.003826943,-0.23394066,-0.3364898,-0.021565398,802.6374,798.20514,801.4286,811.0989,672.0879,-0.027587890625,0.01141357421875,1.01190185546875,2.6617431640625,-1.92901611328125,7.230072021484375,1,2.0,1.0,1.0,2.0,10.00
2024-10-11 20:26:55.280,0.62024903,1.2173668,1.0350587,0.72088814,1.0705754,0.7853146,1.0089986,0.7087976,0.99745905,0.5571507,0.18919906,0.7021598,0.48019487,-0.11558289,0.119648196,0.5476085,0.003826943,-0.23394066,-0.3364898,-0.021565398,800.6227,794.57874,798.60803,809.89014,792.5641,-0.027587890625,0.01141357421875,1.01190185546875,2.6617431640625,-1.92901611328125,7.230072021484375,1,2.0,1.0,1.0,2.0,10.00
2024-10-11 20:26:55.281,0.62024903,1.1762148,1.0350587,0.72088814,1.0705754,0.76466036,1.0089986,0.7087976,0.99745905,0.5111244,0.18919906,0.7021598,0.48019487,-0.11611261,0.119648196,0.5476085,0.003826943,-0.22063652,-0.3364898,-0.021565398,801.8315,795.38464,802.23444,804.65204,797.8022,-0.027587890625,0.01141357421875,1.01190185546875,2.6617431640625,-1.92901611328125,7.230072021484375,1,2.0,1.0,1.0,2.0,10.00
2024-10-11 20:26:55.285,0.62024903,1.1762148,1.0350587,0.72088814,1.0705754,0.76466036,1.0089986,0.7087976,0.99745905,0.5111244,0.18919906,0.7021598,0.48019487,-0.11611261,0.119648196,0.5476085,0.003826943,-0.22063652,-0.3364898,-0.021565398,794.9817,790.54944,801.8315,804.2491,765.9707,-0.027587890625,0.01141357421875,1.01190185546875,2.6617431640625,-1.92901611328125,7.230072021484375,1,2.0,1.0,1.0,2.0,10.00
2024-10-11 20:26:55.286,0.62024903,1.1762148,1.0350587,0.72088814,1.0705754,0.76466036,1.0089986,0.7087976,0.99745905,0.5111244,0.18919906,0.7021598,0.48019487,-0.11611261,0.119648196,0.5476085,0.003826943,-0.22063652,-0.3364898,-0.021565398,798.20514,791.75824,801.02563,805.4579,819.9634,-0.027587890625,0.01141357421875,1.01190185546875,2.6617431640625,-1.92901611328125,7.230072021484375,1,2.0,1.0,1.0,2.0,10.00
2024-10-11 20:26:55.287,0.62024903,1.1762148,1.0350587,0.72088814,1.0705754,0.76466036,1.0089986,0.7087976,0.99745905,0.5111244,0.18919906,0.7021598,0.48019487,-0.11611261,0.119648196,0.5476085,0.003826943,-0.22063652,-0.3364898,-0.021565398,803.0403,796.1905,801.8315,807.0696,880.80585,-0.027587890625,0.01141357421875,1.01190185546875,2.6617431640625,-1.92901611328125,7.230072021484375,1,2.0,1.0,1.0,2.0,10.00
2024-10-11 20:26:55.287,0.62024903,1.1762148,1.0350587,0.72088814,1.0705754,0.76466036,1.0089986,0.7087976,0.99745905,0.5111244,0.18919906,0.7021598,0.48019487,-0.11611261,0.119648196,0.5476085,0.003826943,-0.22063652,-0.3364898,-0.021565398,803.44324,796.1905,804.2491,807.0696,708.7546,-0.027587890625,0.01141357421875,1.01190185546875,2.6617431640625,-1.92901611328125,7.230072021484375,1,2.0,1.0,1.0,2.0,10.00
2024-10-11 20:26:55.288,0.62024903,1.1762148,1.0350587,0.72088814,1.0705754,0.76466036,1.0089986,0.7087976,0.99745905,0.5111244,0.18919906,0.7021598,0.48019487,-0.11611261,0.119648196,0.5476085,0.003826943,-0.22063652,-0.3364898,-0.021565398,796.5934,796.5934,797.8022,805.05493,617.28937,-0.027587890625,0.01141357421875,1.01190185546875,2.6617431640625,-1.92901611328125,7.230072021484375,1,2.0,1.0,1.0,2.0,10.00
2024-10-11 20:26:55.288,0.62024903,1.1762148,1.0350587,0.72088814,1.0705754,0.76466036,1.0089986,0.7087976,0.99745905,0.5111244,0.18919906,0.7021598,0.48019487,-0.11611261,0.119648196,0.5476085,0.003826943,-0.22063652,-0.3364898,-0.021565398,801.4286,793.36993,793.7729,803.8461,722.4542,-0.027587890625,0.01141357421875,1.01190185546875,2.6617431640625,-1.92901611328125,7.230072021484375,1,2.0,1.0,1.0,2.0,10.00
2024-10-11 20:26:55.318,0.62024903,1.1762148,1.0350587,0.72088814,1.0705754,0.76466036,1.0089986,0.7087976,0.99745905,0.5111244,0.18919906,0.7021598,0.48019487,-0.11611261,0.119648196,0.5476085,0.003826943,-0.22063652,-0.3364898,-0.021565398,805.4579,795.38464,796.99634,802.23444,766.3736,-0.027587890625,0.01141357421875,1.01190185546875,2.6617431640625,-1.92901611328125,7.230072021484375,1,2.0,1.0,1.0,2.0,10.00
2024-10-11 20:26:55.319,0.62024903,1.1762148,1.0350587,0.72088814,1.0705754,0.76466036,1.0089986,0.7087976,0.99745905,0.5111244,0.18919906,0.7021598,0.48019487,-0.11611261,0.119648196,0.5476085,0.003826943,-0.22063652,-0.3364898,-0.021565398,801.8315,797.8022,799.81683,792.5641,630.989,-0.027587890625,0.01141357421875,1.01190185546875,2.6617431640625,-1.92901611328125,7.230072021484375,1,2.0,1.0,1.0,2.0,10.00
2024-10-11 20:26:55.320,0.62024903,1.1762148,1.0350587,0.72088814,1.0705754,0.76466036,1.0089986,0.7087976,0.99745905,0.5111244,0.18919906,0.7021598,0.48019487,-0.11611261,0.119648196,0.5476085,0.003826943,-0.22063652,-0.3364898,-0.021565398,811.9048,799.81683,804.2491,794.57874,711.5751,-0.027587890625,0.01141357421875,1.01190185546875,2.6617431640625,-1.92901611328125,7.230072021484375,1,2.0,1.0,1.0,2.0,10.00
2024-10-11 20:26:55.321,0.62024903,1.1762148,1.0350587,0.72088814,1.0705754,0.76466036,1.0089986,0.7087976,0.99745905,0.5111244,0.18919906,0.7021598,0.48019487,-0.11611261,0.119648196,0.5476085,0.003826943,-0.22063652,-0.3364898,-0.021565398,812.71063,799.81683,800.2198,800.6227,1003.69965,-0.027587890625,0.01141357421875,1.01190185546875,2.6617431640625,-1.92901611328125,7.230072021484375,1,2.0,1.0,1.0,2.0,10.00
2024-10-11 20:26:55.321,0.62024903,1.1762148,1.0350587,0.72088814,1.0705754,0.76466036,1.0089986,0.7087976,0.99745905,0.5111244,0.18919906,0.7021598,0.48019487,-0.11611261,0.119648196,0.5476085,0.003826943,-0.22063652,-0.3364898,-0.021565398,805.05493,797.3993,796.1905,801.02563,916.6667,-0.027587890625,0.01141357421875,1.01190185546875,2.6617431640625,-1.92901611328125,7.230072021484375,1,2.0,1.0,1.0,2.0,10.00
2024-10-11 20:26:55.322,0.62024903,1.1762148,1.0350587,0.72088814,1.0705754,0.76466036,1.0089986,0.7087976,0.99745905,0.5111244,0.18919906,0.7021598,0.48019487,-0.11611261,0.119648196,0.5476085,0.003826943,-0.22063652,-0.3364898,-0.021565398,803.44324,792.1612,797.3993,795.38464,815.12823,-0.027587890625,0.01141357421875,1.01190185546875,2.6617431640625,-1.92901611328125,7.230072021484375,1,2.0,1.0,1.0,2.0,10.00
2024-10-11 20:26:55.322,0.62024903,1.1762148,1.0350587,0.72088814,1.0705754,0.76466036,1.0089986,0.7087976,0.99745905,0.5111244,0.18919906,0.7021598,0.48019487,-0.11611261,0.119648196,0.5476085,0.003826943,-0.22063652,-0.3364898,-0.021565398,805.05493,792.5641,798.60803,795.78754,861.06226,-0.027587890625,0.01141357421875,1.01190185546875,2.6617431640625,-1.92901611328125,7.230072021484375,1,2.0,1.0,1.0,2.0,10.00
2024-10-11 20:26:55.323,0.62024903,1.1762148,1.0350587,0.72088814,1.0705754,0.76466036,1.0089986,0.7087976,0.99745905,0.5111244,0.18919906,0.7021598,0.48019487,-0.11611261,0.119648196,0.5476085,0.003826943,-0.22063652,-0.3364898,-0.021565398,805.4579,792.5641,798.60803,804.65204,984.7619,-0.027587890625,0.01141357421875,1.01190185546875,2.6617431640625,-1.92901611328125,7.230072021484375,1,2.0,1.0,1.0,2.0,10.00
2024-10-11 20:26:55.323,0.62024903,1.1762148,1.0350587,0.72088814,1.0705754,0.76466036,1.0089986,0.7087976,0.99745905,0.5111244,0.18919906,0.7021598,0.48019487,-0.11611261,0.119648196,0.5476085,0.003826943,-0.22063652,-0.3364898,-0.021565398,803.44324,790.9524,794.9817,806.26373,973.0769,-0.027587890625,0.01141357421875,1.01190185546875,2.6617431640625,-1.92901611328125,7.230072021484375,1,2.0,1.0,1.0,2.0,10.00
2024-10-11 20:26:55.324,0.62024903,1.1762148,1.0350587,0.72088814,1.0705754,0.76466036,1.0089986,0.7087976,0.99745905,0.5111244,0.18919906,0.7021598,0.48019487,-0.11611261,0.119648196,0.5476085,0.003826943,-0.22063652,-0.3364898,-0.021565398,802.6374,794.57874,796.1905,804.65204,718.8278,-0.027587890625,0.01141357421875,1.01190185546875,2.6617431640625,-1.92901611328125,7.230072021484375,1,2.0,1.0,1.0,2.0,10.00
2024-10-11 20:26:55.325,0.62024903,1.1762148,1.0350587,0.72088814,1.0705754,0.76466036,1.0089986,0.7087976,0.99745905,0.5111244,0.18919906,0.7021598,0.48019487,-0.11611261,0.119648196,0.5476085,0.003826943,-0.22063652,-0.3364898,-0.021565398,803.0403,793.36993,798.60803,799.41394,634.61536,-0.027587890625,0.01141357421875,1.01190185546875,2.6617431640625,-1.92901611328125,7.230072021484375,1,2.0,1.0,1.0,2.0,10.00
2024-10-11 20:26:55.325,0.62024903,1.1762148,1.0350587,0.72088814,1.0705754,0.76466036,1.0089986,0.7087976,0.99745905,0.5111244,0.18919906,0.7021598,0.48019487,-0.11611261,0.119648196,0.5476085,0.003826943,-0.22063652,-0.3364898,-0.021565398,800.6227,789.34064,796.1905,807.47253,1010.14655,-0.027587890625,0.01141357421875,1.01190185546875,2.6617431640625,-1.92901611328125,7.230072021484375,1,2.0,1.0,1.0,2.0,10.00
2024-10-11 20:26:55.326,0.62024903,1.1762148,1.0350587,0.72088814,1.0705754,0.76466036,1.0089986,0.7087976,0.99745905,0.5111244,0.18919906,0.7021598,0.48019487,-0.11611261,0.119648196,0.5476085,0.003826943,-0.22063652,-0.3364898,-0.021565398,804.65204,788.5348,795.38464,818.3516,1212.8206,-0.02044677734375,0.0135498046875,1.02398681640625,0.844879150390625,-1.682281494140625,4.194488525390625,1,2.0,1.0,1.0,2.0,10.00
2024-10-11 20:26:55.327,0.62024903,1.1762148,1.0350587,0.72088814,1.0705754,0.76466036,1.0089986,0.7087976,0.99745905,0.5111244,0.18919906,0.7021598,0.48019487,-0.11611261,0.119648196,0.5476085,0.003826943,-0.22063652,-0.3364898,-0.021565398,803.0403,786.52014,794.57874,803.44324,752.674,-0.02044677734375,0.0135498046875,1.02398681640625,0.844879150390625,-1.682281494140625,4.194488525390625,1,2.0,1.0,1.0,2.0,10.00
2024-10-11 20:26:55.327,0.62024903,1.1762148,1.0350587,0.72088814,1.0705754,0.76466036,1.0089986,0.7087976,0.99745905,0.5111244,0.18919906,0.7021598,0.48019487,-0.11611261,0.119648196,0.5476085,0.003826943,-0.22063652,-0.3364898,-0.021565398,801.8315,791.3553,795.78754,801.02563,583.44324,-0.02044677734375,0.0135498046875,1.02398681640625,0.844879150390625,-1.682281494140625,4.194488525390625,1,2.0,1.0,1.0,2.0,10.00
2024-10-11 20:26:55.328,0.62024903,1.1762148,1.0350587,0.72088814,1.0705754,0.76466036,1.0089986,0.7087976,0.99745905,0.5111244,0.18919906,0.7021598,0.48019487,-0.11611261,0.119648196,0.5476085,0.003826943,-0.22063652,-0.3364898,-0.021565398,805.4579,797.8022,797.8022,810.293,725.2747,-0.02044677734375,0.0135498046875,1.02398681640625,0.844879150390625,-1.682281494140625,4.194488525390625,1,2.0,1.0,1.0,2.0,10.00
2024-10-11 20:26:55.329,0.62024903,1.1762148,1.0350587,0.72088814,1.0705754,0.76466036,1.0089986,0.7087976,0.99745905,0.5111244,0.18919906,0.7021598,0.48019487,-0.11611261,0.119648196,0.5476085,0.003826943,-0.22063652,-0.3364898,-0.021565398,803.8461,793.7729,795.78754,811.9048,726.8865,-0.02044677734375,0.0135498046875,1.02398681640625,0.844879150390625,-1.682281494140625,4.194488525390625,1,2.0,1.0,1.0,2.0,10.00
2024-10-11 20:26:55.330,0.62024903,1.1762148,1.0350587,0.72088814,1.0705754,0.76466036,1.0089986,0.7087976,0.99745905,0.5111244,0.18919906,0.7021598,0.48019487,-0.11611261,0.119648196,0.5476085,0.003826943,-0.22063652,-0.3364898,-0.021565398,802.23444,795.38464,793.36993,811.0989,751.4652,-0.02044677734375,0.0135498046875,1.02398681640625,0.844879150390625,-1.682281494140625,4.194488525390625,1,2.0,1.0,1.0,2.0,10.00
2024-10-11 20:26:55.331,0.62024903,1.1762148,1.0350587,0.72088814,1.0705754,0.76466036,1.0089986,0.7087976,0.99745905,0.5111244,0.18919906,0.7021598,0.48019487,-0.11611261,0.119648196,0.5476085,0.003826943,-0.22063652,-0.3364898,-0.021565398,804.2491,795.38464,793.7729,805.4579,992.4176,-0.02044677734375,0.0135498046875,1.02398681640625,0.844879150390625,-1.682281494140625,4.194488525390625,1,2.0,1.0,1.0,2.0,10.00
2024-10-11 20:26:55.332,0.62024903,1.1529102,1.0350587,0.72088814,1.0705754,0.7457617,1.0089986,0.7087976,0.99745905,0.5111244,0.18919906,0.7021598,0.48019487,-0.120327175,0.119648196,0.5476085,0.003826943,-0.22068381,-0.3364898,-0.021565398,799.81683,790.9524,796.1905,802.6374,1173.3334,-0.02044677734375,0.0135498046875,1.02398681640625,0.844879150390625,-1.682281494140625,4.194488525390625,1,2.0,1.0,1.0,2.0,10.00
2024-10-11 20:26:55.337,0.62024903,1.1529102,1.0350587,0.72088814,1.0705754,0.7457617,1.0089986,0.7087976,0.99745905,0.5111244,0.18919906,0.7021598,0.48019487,-0.120327175,0.119648196,0.5476085,0.003826943,-0.22068381,-0.3364898,-0.021565398,794.57874,793.36993,796.1905,799.011,891.685,-0.02044677734375,0.0135498046875,1.02398681640625,0.844879150390625,-1.682281494140625,4.194488525390625,1,2.0,1.0,1.0,2.0,10.00
2024-10-11 20:26:55.338,0.62024903,1.1529102,1.0350587,0.72088814,1.0705754,0.7457617,1.0089986,0.7087976,0.99745905,0.5111244,0.18919906,0.7021598,0.48019487,-0.120327175,0.119648196,0.5476085,0.003826943,-0.22068381,-0.3364898,-0.021565398,801.02563,793.7729,795.38464,798.20514,634.61536,-0.02044677734375,0.0135498046875,1.02398681640625,0.844879150390625,-1.682281494140625,4.194488525390625,1,2.0,1.0,1.0,2.0,10.00
2024-10-11 20:26:55.339,0.62024903,1.1529102,1.0350587,0.72088814,1.0705754,0.7457617,1.0089986,0.7087976,0.99745905,0.5111244,0.18919906,0.7021598,0.48019487,-0.120327175,0.119648196,0.5476085,0.003826943,-0.22068381,-0.3364898,-0.021565398,796.99634,791.75824,793.7729,801.4286,719.2308,-0.02044677734375,0.0135498046875,1.02398681640625,0.844879150390625,-1.682281494140625,4.194488525390625,1,2.0,1.0,1.0,2.0,10.00
2024-10-11 20:26:55.340,0.62024903,1.1529102,1.0350587,0.72088814,1.0705754,0.7457617,1.0089986,0.7087976,0.99745905,0.5111244,0.18919906,0.7021598,0.48019487,-0.120327175,0.119648196,0.5476085,0.003826943,-0.22068381,-0.3364898,-0.021565398,791.75824,791.75824,792.96704,800.2198,933.9927,-0.02044677734375,0.0135498046875,1.02398681640625,0.844879150390625,-1.682281494140625,4.194488525390625,1,2.0,1.0,1.0,2.0,10.00
2024-10-11 20:26:55.380,0.62024903,1.1529102,1.0350587,0.72088814,1.0705754,0.7457617,1.0089986,0.7087976,0.99745905,0.5111244,0.18919906,0.7021598,0.48019487,-0.120327175,0.119648196,0.5476085,0.003826943,-0.22068381,-0.3364898,-0.021565398,794.57874,790.9524,791.75824,798.20514,676.1172,-0.02105712890625,-0.0030517578125,1.0108642578125,-1.9439697265625,-2.041168212890625,0.097198486328125,1,2.0,1.0,1.0,2.0,10.00
2024-10-11 20:26:55.381,0.62024903,1.1529102,1.0350587,0.72088814,1.0705754,0.7457617,1.0089986,0.7087976,0.99745905,0.5111244,0.18919906,0.7021598,0.48019487,-0.120327175,0.119648196,0.5476085,0.003826943,-0.22068381,-0.3364898,-0.021565398,797.3993,792.96704,794.57874,802.6374,490.3663,-0.02105712890625,-0.0030517578125,1.0108642578125,-1.9439697265625,-2.041168212890625,0.097198486328125,1,2.0,1.0,1.0,2.0,10.00
2024-10-11 20:26:55.382,0.62024903,1.1529102,1.0350587,0.72088814,1.0705754,0.7457617,1.0089986,0.7087976,0.99745905,0.5111244,0.18919906,0.7021598,0.48019487,-0.120327175,0.119648196,0.5476085,0.003826943,-0.22068381,-0.3364898,-0.021565398,799.41394,790.14655,797.3993,806.26373,712.7839,-0.02105712890625,-0.0030517578125,1.0108642578125,-1.9439697265625,-2.041168212890625,0.097198486328125,1,2.0,1.0,1.0,2.0,10.00
2024-10-11 20:26:55.383,0.62024903,1.1529102,1.0350587,0.72088814,1.0705754,0.7457617,1.0089986,0.7087976,0.99745905,0.5111244,0.18919906,0.7021598,0.48019487,-0.120327175,0.119648196,0.5476085,0.003826943,-0.22068381,-0.3364898,-0.021565398,801.4286,789.7436,799.011,805.4579,772.8205,-0.02105712890625,-0.0030517578125,1.0108642578125,-1.9439697265625,-2.041168212890625,0.097198486328125,1,2.0,1.0,1.0,2.0,10.00
2024-10-11 20:26:55.383,0.62024903,1.1529102,1.0350587,0.72088814,1.0705754,0.7457617,1.0089986,0.7087976,0.99745905,0.5111244,0.18919906,0.7021598,0.48019487,-0.120327175,0.119648196,0.5476085,0.003826943,-0.22068381,-0.3364898,-0.021565398,805.8608,792.1612,801.02563,805.05493,610.84247,-0.02105712890625,-0.0030517578125,1.0108642578125,-1.9439697265625,-2.041168212890625,0.097198486328125,1,2.0,1.0,1.0,2.0,10.00
2024-10-11 20:26:55.384,0.62024903,1.1529102,1.0350587,0.72088814,1.0705754,0.7457617,1.0089986,0.7087976,0.99745905,0.5111244,0.18919906,0.7021598,0.48019487,-0.120327175,0.119648196,0.5476085,0.003826943,-0.22068381,-0.3364898,-0.021565398,805.8608,792.5641,799.011,802.23444,736.1539,-0.02105712890625,-0.0030517578125,1.0108642578125,-1.9439697265625,-2.041168212890625,0.097198486328125,1,2.0,1.0,1.0,2.0,10.00
2024-10-11 20:26:55.385,0.62024903,1.1529102,1.0350587,0.72088814,1.0705754,0.7457617,1.0089986,0.7087976,0.99745905,0.5111244,0.18919906,0.7021598,0.48019487,-0.120327175,0.119648196,0.5476085,0.003826943,-0.22068381,-0.3364898,-0.021565398,801.8315,792.1612,799.81683,803.44324,1075.4213,-0.02105712890625,-0.0030517578125,1.0108642578125,-1.9439697265625,-2.041168212890625,0.097198486328125,1,2.0,1.0,1.0,2.0,10.00
2024-10-11 20:26:55.386,0.62024903,1.1529102,1.0350587,0.72088814,1.0705754,0.7457617,1.0089986,0.7087976,0.99745905,0.5111244,0.18919906,0.7021598,0.48019487,-0.120327175,0.119648196,0.5476085,0.003826943,-0.22068381,-0.3364898,-0.021565398,800.2198,794.9817,796.1905,805.4579,1058.0952,-0.02105712890625,-0.0030517578125,1.0108642578125,-1.9439697265625,-2.041168212890625,0.097198486328125,1,2.0,1.0,1.0,2.0,10.00
2024-10-11 20:26:55.387,0.62024903,1.1529102,1.0350587,0.72088814,1.0705754,0.7457617,1.0089986,0.7087976,0.99745905,0.5111244,0.18919906,0.7021598,0.48019487,-0.120327175,0.119648196,0.5476085,0.003826943,-0.22068381,-0.3364898,-0.021565398,798.60803,800.2198,797.3993,805.05493,769.59705,-0.02105712890625,-0.0030517578125,1.0108642578125,-1.9439697265625,-2.041168212890625,0.097198486328125,1,2.0,1.0,1.0,2.0,10.00
2024-10-11 20:26:55.389,0.62024903,1.1529102,1.0350587,0.72088814,1.0705754,0.7457617,1.0089986,0.7087976,0.99745905,0.5111244,0.18919906,0.7021598,0.48019487,-0.120327175,0.119648196,0.5476085,0.003826943,-0.22068381,-0.3364898,-0.021565398,799.81683,801.02563,802.23444,805.05493,744.61536,-0.02105712890625,-0.0030517578125,1.0108642578125,-1.9439697265625,-2.041168212890625,0.097198486328125,1,2.0,1.0,1.0,2.0,10.00
2024-10-11 20:26:55.390,0.62024903,1.1529102,1.0350587,0.72088814,1.0705754,0.7457617,1.0089986,0.7087976,0.99745905,0.5111244,0.18919906,0.7021598,0.48019487,-0.120327175,0.119648196,0.5476085,0.003826943,-0.22068381,-0.3364898,-0.021565398,794.9817,799.81683,799.011,808.68134,958.97437,-0.02105712890625,-0.0030517578125,1.0108642578125,-1.9439697265625,-2.041168212890625,0.097198486328125,1,2.0,1.0,1.0,2.0,10.00
2024-10-11 20:26:55.391,0.62024903,1.1529102,1.0350587,0.72088814,1.0705754,0.7457617,1.0089986,0.7087976,0.99745905,0.5111244,0.18919906,0.7021598,0.48019487,-0.120327175,0.119648196,0.5476085,0.003826943,-0.22068381,-0.3364898,-0.021565398,797.8022,794.17584,802.23444,811.50183,807.47253,-0.02105712890625,-0.0030517578125,1.0108642578125,-1.9439697265625,-2.041168212890625,0.097198486328125,1,2.0,1.0,1.0,2.0,10.00
2024-10-11 20:26:55.456,0.62024903,1.1529102,1.0350587,0.72088814,1.0705754,0.7457617,1.0089986,0.7087976,0.99745905,0.5111244,0.18919906,0.7021598,0.48019487,-0.120327175,0.119648196,0.5476085,0.003826943,-0.22068381,-0.3364898,-0.021565398,805.4579,791.3553,809.4872,821.1722,658.7912,-0.00469970703125,-0.00494384765625,0.99298095703125,-0.351409912109375,-2.026214599609375,-2.55706787109375,1,2.0,1.0,1.0,2.0,10.00
2024-10-11 20:26:55.457,0.62024903,1.1529102,1.0350587,0.72088814,1.0705754,0.7457617,1.0089986,0.7087976,0.99745905,0.5111244,0.18919906,0.7021598,0.48019487,-0.120327175,0.119648196,0.5476085,0.003826943,-0.22068381,-0.3364898,-0.021565398,799.81683,801.02563,806.26373,815.12823,799.011,-0.00469970703125,-0.00494384765625,0.99298095703125,-0.351409912109375,-2.026214599609375,-2.55706787109375,1,2.0,1.0,1.0,2.0,10.00
2024-10-11 20:26:55.458,0.62024903,1.1529102,1.0350587,0.72088814,1.0705754,0.7457617,1.0089986,0.7087976,0.99745905,0.5111244,0.18919906,0.7021598,0.48019487,-0.120327175,0.119648196,0.5476085,0.003826943,-0.22068381,-0.3364898,-0.021565398,786.9231,806.26373,797.8022,797.3993,855.82416,-0.00469970703125,-0.00494384765625,0.99298095703125,-0.351409912109375,-2.026214599609375,-2.55706787109375,1,2.0,1.0,1.0,2.0,10.00
2024-10-11 20:26:55.458,0.62024903,1.1529102,1.0350587,0.72088814,1.0705754,0.7457617,1.0089986,0.7087976,0.99745905,0.5111244,0.18919906,0.7021598,0.48019487,-0.120327175,0.119648196,0.5476085,0.003826943,-0.22068381,-0.3364898,-0.021565398,789.34064,806.6667,793.7729,797.3993,717.619,-0.00469970703125,-0.00494384765625,0.99298095703125,-0.351409912109375,-2.026214599609375,-2.55706787109375,1,2.0,1.0,1.0,2.0,10.00
2024-10-11 20:26:55.459,0.62024903,1.1529102,1.0350587,0.72088814,1.0705754,0.7457617,1.0089986,0.7087976,0.99745905,0.5111244,0.18919906,0.7021598,0.48019487,-0.120327175,0.119648196,0.5476085,0.003826943,-0.22068381,-0.3364898,-0.021565398,797.3993,802.6374,799.41394,799.011,591.50183,-0.00469970703125,-0.00494384765625,0.99298095703125,-0.351409912109375,-2.026214599609375,-2.55706787109375,1,2.0,1.0,1.0,2.0,10.00
2024-10-11 20:26:55.459,0.62024903,1.1529102,1.0350587,0.72088814,1.0705754,0.7457617,1.0089986,0.7087976,0.99745905,0.5111244,0.18919906,0.7021598,0.48019487,-0.120327175,0.119648196,0.5476085,0.003826943,-0.22068381,-0.3364898,-0.021565398,796.5934,800.2198,801.4286,801.8315,840.10986,-0.00469970703125,-0.00494384765625,0.99298095703125,-0.351409912109375,-2.026214599609375,-2.55706787109375,1,2.0,1.0,1.0,2.0,10.00
2024-10-11 20:26:55.460,0.62024903,1.1529102,1.0350587,0.72088814,1.0705754,0.7457617,1.0089986,0.7087976,0.99745905,0.5111244,0.18919906,0.7021598,0.48019487,-0.120327175,0.119648196,0.5476085,0.003826943,-0.22068381,-0.3364898,-0.021565398,787.326,800.6227,797.8022,804.65204,1247.8755,-0.00469970703125,-0.00494384765625,0.99298095703125,-0.351409912109375,-2.026214599609375,-2.55706787109375,1,2.0,1.0,1.0,2.0,10.00
2024-10-11 20:26:55.461,0.62024903,1.1529102,1.0350587,0.72088814,1.0705754,0.7457617,1.0089986,0.7087976,0.99745905,0.5111244,0.18919906,0.7021598,0.48019487,-0.120327175,0.119648196,0.5476085,0.003826943,-0.22068381,-0.3364898,-0.021565398,784.5055,799.41394,796.99634,791.3553,939.6337,-0.00469970703125,-0.00494384765625,0.99298095703125,-0.351409912109375,-2.026214599609375,-2.55706787109375,1,2.0,1.0,1.0,2.0,10.00
2024-10-11 20:26:55.461,0.62024903,1.1529102,1.0350587,0.72088814,1.0705754,0.7457617,1.0089986,0.7087976,0.99745905,0.5111244,0.18919906,0.7021598,0.48019487,-0.120327175,0.119648196,0.5476085,0.003826943,-0.22068381,-0.3364898,-0.021565398,796.5934,805.8608,798.60803,787.72894,688.20514,-0.00469970703125,-0.00494384765625,0.99298095703125,-0.351409912109375,-2.026214599609375,-2.55706787109375,1,2.0,1.0,1.0,2.0,10.00
2024-10-11 20:26:55.462,0.62024903,1.1477011,1.0350587,0.72088814,1.0705754,0.7417761,1.0089986,0.7087976,0.99745905,0.5111244,0.18919906,0.7021598,0.48019487,-0.13569441,0.119648196,0.5476085,0.003826943,-0.227321,-0.3364898,-0.021565398,808.2784,806.6667,803.44324,796.1905,791.75824,-0.00469970703125,-0.00494384765625,0.99298095703125,-0.351409912109375,-2.026214599609375,-2.55706787109375,1,2.0,1.0,1.0,2.0,10.00
2024-10-11 20:26:55.466,0.62024903,1.1477011,1.0350587,0.72088814,1.0705754,0.7417761,1.0089986,0.7087976,0.99745905,0.5111244,0.18919906,0.7021598,0.48019487,-0.13569441,0.119648196,0.5476085,0.003826943,-0.227321,-0.3364898,-0.021565398,807.8755,801.8315,801.8315,799.011,778.86444,-0.00469970703125,-0.00494384765625,0.99298095703125,-0.351409912109375,-2.026214599609375,-2.55706787109375,1,2.0,1.0,1.0,2.0,10.00
