TimeStamp,Delta_TP9,Delta_AF7,Delta_AF8,Delta_TP10,Theta_TP9,Theta_AF7,Theta_AF8,Theta_TP10,Alpha_TP9,Alpha_AF7,Alpha_AF8,Alpha_TP10,Beta_TP9,Beta_AF7,Beta_AF8,Beta_TP10,Gamma_TP9,Gamma_AF7,Gamma_AF8,Gamma_TP10,RAW_TP9,RAW_AF7,RAW_AF8,RAW_TP10,AUX_RIGHT,Accelerometer_X,Accelerometer_Y,Accelerometer_Z,Gyro_X,Gyro_Y,Gyro_Z,HeadBandOn,HSI_TP9,HSI_AF7,HSI_AF8,HSI_TP10,Battery,Elements
2024-10-11 20:28:16.866,0.9793157,0.8492083,0.86340624,1.1264614,0.71108663,0.32147697,0.6933302,0.98324054,0.7541117,0.31179646,0.47654045,0.81780565,0.4049771,-0.12308546,0.011147265,0.45374054,-0.24799895,-0.35992068,-0.1989516,0.023284111,612.0513,828.4249,839.304,645.89746,818.3516,-0.05621337890625,0.073974609375,0.99737548828125,-0.127105712890625,-1.5252685546875,-0.59814453125,1,1.0,1.0,1.0,1.0,10.00
2024-10-11 20:28:16.866,0.9877979,0.8697767,0.85130733,1.1534584,0.71439284,0.33079043,0.6310036,1.0102488,0.7541117,0.30757642,0.42833167,0.8125229,0.40644255,-0.13550873,0.0028189074,0.4300102,-0.2715096,-0.39053112,-0.19016464,-0.023601402,586.26373,828.8278,838.9011,618.0952,714.3956,-0.05621337890625,0.073974609375,0.99737548828125,-0.127105712890625,-1.5252685546875,-0.59814453125,1,1.0,1.0,1.0,1.0,10.00
2024-10-11 20:28:16.871,0.9877979,0.8697767,0.85130733,1.1534584,0.71439284,0.33079043,0.6310036,1.0102488,0.7541117,0.30757642,0.42833167,0.8125229,0.40644255,-0.13550873,0.0028189074,0.4300102,-0.2715096,-0.39053112,-0.19016464,-0.023601402,587.47253,822.381,842.1245,615.2747,560.07324,-0.05621337890625,0.073974609375,0.99737548828125,-0.127105712890625,-1.5252685546875,-0.59814453125,1,1.0,1.0,1.0,1.0,10.00
2024-10-11 20:28:16.871,0.9877979,0.8697767,0.85130733,1.1534584,0.71439284,0.33079043,0.6310036,1.0102488,0.7541117,0.30757642,0.42833167,0.8125229,0.40644255,-0.13550873,0.0028189074,0.4300102,-0.2715096,-0.39053112,-0.19016464,-0.023601402,586.26373,809.89014,845.34796,618.49817,716.4103,-0.05621337890625,0.073974609375,0.99737548828125,-0.127105712890625,-1.5252685546875,-0.59814453125,1,1.0,1.0,1.0,1.0,10.00
2024-10-11 20:28:16.872,0.9877979,0.8697767,0.85130733,1.1534584,0.71439284,0.33079043,0.6310036,1.0102488,0.7541117,0.30757642,0.42833167,0.8125229,0.40644255,-0.13550873,0.0028189074,0.4300102,-0.2715096,-0.39053112,-0.19016464,-0.023601402,571.3553,805.8608,843.73627,607.2161,810.293,-0.05621337890625,0.073974609375,0.99737548828125,-0.127105712890625,-1.5252685546875,-0.59814453125,1,1.0,1.0,1.0,1.0,10.00
2024-10-11 20:28:16.873,0.9877979,0.8697767,0.85130733,1.1534584,0.71439284,0.33079043,0.6310036,1.0102488,0.7541117,0.30757642,0.42833167,0.8125229,0.40644255,-0.13550873,0.0028189074,0.4300102,-0.2715096,-0.39053112,-0.19016464,-0.023601402,571.3553,805.8608,849.3773,606.4103,805.8608,-0.05621337890625,0.073974609375,0.99737548828125,-0.127105712890625,-1.5252685546875,-0.59814453125,1,1.0,1.0,1.0,1.0,10.00
2024-10-11 20:28:16.873,0.9877979,0.8697767,0.85130733,1.1534584,0.71439284,0.33079043,0.6310036,1.0102488,0.7541117,0.30757642,0.42833167,0.8125229,0.40644255,-0.13550873,0.0028189074,0.4300102,-0.2715096,-0.39053112,-0.19016464,-0.023601402,578.20514,809.0842,869.12085,616.08057,806.26373,-0.05621337890625,0.073974609375,0.99737548828125,-0.127105712890625,-1.5252685546875,-0.59814453125,1,1.0,1.0,1.0,1.0,10.00
2024-10-11 20:28:16.874,0.9877979,0.8697767,0.85130733,1.1534584,0.71439284,0.33079043,0.6310036,1.0102488,0.7541117,0.30757642,0.42833167,0.8125229,0.40644255,-0.13550873,0.0028189074,0.4300102,-0.2715096,-0.39053112,-0.19016464,-0.023601402,584.2491,809.89014,871.9414,613.663,778.0586,-0.05621337890625,0.073974609375,0.99737548828125,-0.127105712890625,-1.5252685546875,-0.59814453125,1,1.0,1.0,1.0,1.0,10.00
2024-10-11 20:28:16.874,0.9877979,0.8697767,0.85130733,1.1534584,0.71439284,0.33079043,0.6310036,1.0102488,0.7541117,0.30757642,0.42833167,0.8125229,0.40644255,-0.13550873,0.0028189074,0.4300102,-0.2715096,-0.39053112,-0.19016464,-0.023601402,587.8755,802.6374,862.27106,610.84247,782.8938,-0.05621337890625,0.073974609375,0.99737548828125,-0.127105712890625,-1.5252685546875,-0.59814453125,1,1.0,1.0,1.0,1.0,10.00
2024-10-11 20:28:16.875,0.9877979,0.8697767,0.85130733,1.1534584,0.71439284,0.33079043,0.6310036,1.0102488,0.7541117,0.30757642,0.42833167,0.8125229,0.40644255,-0.13550873,0.0028189074,0.4300102,-0.2715096,-0.39053112,-0.19016464,-0.023601402,593.5165,796.5934,855.42126,618.9011,711.5751,-0.05621337890625,0.073974609375,0.99737548828125,-0.127105712890625,-1.5252685546875,-0.59814453125,1,1.0,1.0,1.0,1.0,10.00
2024-10-11 20:28:16.875,0.9877979,0.8697767,0.85130733,1.1534584,0.71439284,0.33079043,0.6310036,1.0102488,0.7541117,0.30757642,0.42833167,0.8125229,0.40644255,-0.13550873,0.0028189074,0.4300102,-0.2715096,-0.39053112,-0.19016464,-0.023601402,600.7692,798.20514,853.00366,622.9304,637.8388,-0.05621337890625,0.073974609375,0.99737548828125,-0.127105712890625,-1.5252685546875,-0.59814453125,1,1.0,1.0,1.0,1.0,10.00
2024-10-11 20:28:16.876,0.9877979,0.8697767,0.85130733,1.1534584,0.71439284,0.33079043,0.6310036,1.0102488,0.7541117,0.30757642,0.42833167,0.8125229,0.40644255,-0.13550873,0.0028189074,0.4300102,-0.2715096,-0.39053112,-0.19016464,-0.023601402,611.2454,794.57874,854.21246,639.85345,786.9231,-0.05621337890625,0.073974609375,0.99737548828125,-0.127105712890625,-1.5252685546875,-0.59814453125,1,1.0,1.0,1.0,1.0,10.00
2024-10-11 20:28:16.905,0.9877979,0.8697767,0.85130733,1.1534584,0.71439284,0.33079043,0.6310036,1.0102488,0.7541117,0.30757642,0.42833167,0.8125229,0.40644255,-0.13550873,0.0028189074,0.4300102,-0.2715096,-0.39053112,-0.19016464,-0.023601402,620.5128,787.72894,846.1539,648.315,971.8681,-0.052734375,0.06964111328125,1.00250244140625,0.276641845703125,-1.39068603515625,1.323394775390625,1,1.0,1.0,1.0,1.0,10.00
2024-10-11 20:28:16.906,0.9877979,0.8697767,0.85130733,1.1534584,0.71439284,0.33079043,0.6310036,1.0102488,0.7541117,0.30757642,0.42833167,0.8125229,0.40644255,-0.13550873,0.0028189074,0.4300102,-0.2715096,-0.39053112,-0.19016464,-0.023601402,630.989,784.5055,836.08057,651.9414,827.2161,-0.052734375,0.06964111328125,1.00250244140625,0.276641845703125,-1.39068603515625,1.323394775390625,1,1.0,1.0,1.0,1.0,10.00
2024-10-11 20:28:16.907,0.9877979,0.8697767,0.85130733,1.1534584,0.71439284,0.33079043,0.6310036,1.0102488,0.7541117,0.30757642,0.42833167,0.8125229,0.40644255,-0.13550873,0.0028189074,0.4300102,-0.2715096,-0.39053112,-0.19016464,-0.023601402,639.0476,790.54944,845.7509,675.31134,697.0696,-0.052734375,0.06964111328125,1.00250244140625,0.276641845703125,-1.39068603515625,1.323394775390625,1,1.0,1.0,1.0,1.0,10.00
2024-10-11 20:28:16.907,0.9877979,0.8697767,0.85130733,1.1534584,0.71439284,0.33079043,0.6310036,1.0102488,0.7541117,0.30757642,0.42833167,0.8125229,0.40644255,-0.13550873,0.0028189074,0.4300102,-0.2715096,-0.39053112,-0.19016464,-0.023601402,648.71796,786.52014,848.1685,691.02563,836.08057,-0.052734375,0.06964111328125,1.00250244140625,0.276641845703125,-1.39068603515625,1.323394775390625,1,1.0,1.0,1.0,1.0,10.00
2024-10-11 20:28:16.908,0.9877979,0.8697767,0.85130733,1.1534584,0.71439284,0.33079043,0.6310036,1.0102488,0.7541117,0.30757642,0.42833167,0.8125229,0.40644255,-0.13550873,0.0028189074,0.4300102,-0.2715096,-0.39053112,-0.19016464,-0.023601402,660.40295,773.6264,838.0952,697.0696,832.4542,-0.052734375,0.06964111328125,1.00250244140625,0.276641845703125,-1.39068603515625,1.323394775390625,1,1.0,1.0,1.0,1.0,10.00
2024-10-11 20:28:16.908,0.9877979,0.8697767,0.85130733,1.1534584,0.71439284,0.33079043,0.6310036,1.0102488,0.7541117,0.30757642,0.42833167,0.8125229,0.40644255,-0.13550873,0.0028189074,0.4300102,-0.2715096,-0.39053112,-0.19016464,-0.023601402,670.87915,773.6264,833.2601,701.9048,703.91943,-0.052734375,0.06964111328125,1.00250244140625,0.276641845703125,-1.39068603515625,1.323394775390625,1,1.0,1.0,1.0,1.0,10.00
2024-10-11 20:28:16.909,0.9877979,0.8697767,0.85130733,1.1534584,0.71439284,0.33079043,0.6310036,1.0102488,0.7541117,0.30757642,0.42833167,0.8125229,0.40644255,-0.13550873,0.0028189074,0.4300102,-0.2715096,-0.39053112,-0.19016464,-0.023601402,672.49084,773.6264,836.4835,700.293,709.5604,-0.052734375,0.06964111328125,1.00250244140625,0.276641845703125,-1.39068603515625,1.323394775390625,1,1.0,1.0,1.0,1.0,10.00
2024-10-11 20:28:16.910,0.9877979,0.8697767,0.85130733,1.1534584,0.71439284,0.33079043,0.6310036,1.0102488,0.7541117,0.30757642,0.42833167,0.8125229,0.40644255,-0.13550873,0.0028189074,0.4300102,-0.2715096,-0.39053112,-0.19016464,-0.023601402,671.685,768.7912,831.2454,707.1429,996.04395,-0.052734375,0.06964111328125,1.00250244140625,0.276641845703125,-1.39068603515625,1.323394775390625,1,1.0,1.0,1.0,1.0,10.00
2024-10-11 20:28:16.911,0.9877979,0.8697767,0.85130733,1.1534584,0.71439284,0.33079043,0.6310036,1.0102488,0.7541117,0.30757642,0.42833167,0.8125229,0.40644255,-0.13550873,0.0028189074,0.4300102,-0.2715096,-0.39053112,-0.19016464,-0.023601402,679.34064,776.4469,823.9927,718.022,966.63007,-0.052734375,0.06964111328125,1.00250244140625,0.276641845703125,-1.39068603515625,1.323394775390625,1,1.0,1.0,1.0,1.0,10.00
2024-10-11 20:28:16.911,0.9877979,0.8697767,0.85130733,1.1534584,0.71439284,0.33079043,0.6310036,1.0102488,0.7541117,0.30757642,0.42833167,0.8125229,0.40644255,-0.13550873,0.0028189074,0.4300102,-0.2715096,-0.39053112,-0.19016464,-0.023601402,683.36993,778.0586,833.2601,719.2308,709.9634,-0.052734375,0.06964111328125,1.00250244140625,0.276641845703125,-1.39068603515625,1.323394775390625,1,1.0,1.0,1.0,1.0,10.00
2024-10-11 20:28:16.912,0.9877979,0.8697767,0.85130733,1.1534584,0.71439284,0.33079043,0.6310036,1.0102488,0.7541117,0.30757642,0.42833167,0.8125229,0.40644255,-0.13550873,0.0028189074,0.4300102,-0.2715096,-0.39053112,-0.19016464,-0.023601402,691.4286,774.0293,828.8278,721.6484,657.98535,-0.052734375,0.06964111328125,1.00250244140625,0.276641845703125,-1.39068603515625,1.323394775390625,1,1.0,1.0,1.0,1.0,10.00
2024-10-11 20:28:16.913,0.9877979,0.8697767,0.85130733,1.1534584,0.71439284,0.33079043,0.6310036,1.0102488,0.7541117,0.30757642,0.42833167,0.8125229,0.40644255,-0.13550873,0.0028189074,0.4300102,-0.2715096,-0.39053112,-0.19016464,-0.023601402,703.1135,774.83514,818.3516,741.39197,833.2601,-0.052734375,0.06964111328125,1.00250244140625,0.276641845703125,-1.39068603515625,1.323394775390625,1,1.0,1.0,1.0,1.0,10.00
2024-10-11 20:28:16.941,0.9877979,0.8697767,0.85130733,1.1534584,0.71439284,0.33079043,0.6310036,1.0102488,0.7541117,0.30757642,0.42833167,0.8125229,0.40644255,-0.13550873,0.0028189074,0.4300102,-0.2715096,-0.39053112,-0.19016464,-0.023601402,714.7985,778.46155,821.978,757.9121,835.2747,-0.04815673828125,0.07147216796875,1.00201416015625,0.515899658203125,-2.370147705078125,3.87298583984375,1,1.0,1.0,1.0,1.0,10.00
2024-10-11 20:28:16.942,0.9877979,0.8697767,0.85130733,1.1534584,0.71439284,0.33079043,0.6310036,1.0102488,0.7541117,0.30757642,0.42833167,0.8125229,0.40644255,-0.13550873,0.0028189074,0.4300102,-0.2715096,-0.39053112,-0.19016464,-0.023601402,719.2308,780.07324,817.1429,749.0476,612.4542,-0.04815673828125,0.07147216796875,1.00201416015625,0.515899658203125,-2.370147705078125,3.87298583984375,1,1.0,1.0,1.0,1.0,10.00
2024-10-11 20:28:16.944,0.9877979,0.8697767,0.85130733,1.1534584,0.71439284,0.33079043,0.6310036,1.0102488,0.7541117,0.30757642,0.42833167,0.8125229,0.40644255,-0.13550873,0.0028189074,0.4300102,-0.2715096,-0.39053112,-0.19016464,-0.023601402,716.4103,774.83514,813.5165,747.03296,739.3773,-0.04815673828125,0.07147216796875,1.00201416015625,0.515899658203125,-2.370147705078125,3.87298583984375,1,1.0,1.0,1.0,1.0,10.00
2024-10-11 20:28:16.945,0.9987489,0.8903831,0.81085044,1.180469,0.72081226,0.34376943,0.5491546,1.0350395,0.7541117,0.30000132,0.31985095,0.7893285,0.4079766,-0.14254136,-0.0030424863,0.3946746,-0.2792297,-0.4230934,-0.18931372,-0.08565463,722.8571,776.8498,805.4579,756.7033,1032.7106,-0.04815673828125,0.07147216796875,1.00201416015625,0.515899658203125,-2.370147705078125,3.87298583984375,1,1.0,1.0,1.0,1.0,10.00
2024-10-11 20:28:16.950,0.9987489,0.8903831,0.81085044,1.180469,0.72081226,0.34376943,0.5491546,1.0350395,0.7541117,0.30000132,0.31985095,0.7893285,0.4079766,-0.14254136,-0.0030424863,0.3946746,-0.2792297,-0.4230934,-0.18931372,-0.08565463,736.55676,777.6557,806.26373,763.95605,963.00366,-0.04815673828125,0.07147216796875,1.00201416015625,0.515899658203125,-2.370147705078125,3.87298583984375,1,1.0,1.0,1.0,1.0,10.00
2024-10-11 20:28:16.951,0.9987489,0.8903831,0.81085044,1.180469,0.72081226,0.34376943,0.5491546,1.0350395,0.7541117,0.30000132,0.31985095,0.7893285,0.4079766,-0.14254136,-0.0030424863,0.3946746,-0.2792297,-0.4230934,-0.18931372,-0.08565463,745.82416,772.4176,814.3223,770.0,893.2967,-0.04815673828125,0.07147216796875,1.00201416015625,0.515899658203125,-2.370147705078125,3.87298583984375,1,1.0,1.0,1.0,1.0,10.00
2024-10-11 20:28:16.951,0.9987489,0.8903831,0.81085044,1.180469,0.72081226,0.34376943,0.5491546,1.0350395,0.7541117,0.30000132,0.31985095,0.7893285,0.4079766,-0.14254136,-0.0030424863,0.3946746,-0.2792297,-0.4230934,-0.18931372,-0.08565463,752.27106,779.2674,815.9341,776.4469,1012.96704,-0.04815673828125,0.07147216796875,1.00201416015625,0.515899658203125,-2.370147705078125,3.87298583984375,1,1.0,1.0,1.0,1.0,10.00
2024-10-11 20:28:16.952,0.9987489,0.8903831,0.81085044,1.180469,0.72081226,0.34376943,0.5491546,1.0350395,0.7541117,0.30000132,0.31985095,0.7893285,0.4079766,-0.14254136,-0.0030424863,0.3946746,-0.2792297,-0.4230934,-0.18931372,-0.08565463,755.4945,784.5055,814.3223,775.2381,984.35895,-0.04815673828125,0.07147216796875,1.00201416015625,0.515899658203125,-2.370147705078125,3.87298583984375,1,1.0,1.0,1.0,1.0,10.00
2024-10-11 20:28:16.952,0.9987489,0.8903831,0.81085044,1.180469,0.72081226,0.34376943,0.5491546,1.0350395,0.7541117,0.30000132,0.31985095,0.7893285,0.4079766,-0.14254136,-0.0030424863,0.3946746,-0.2792297,-0.4230934,-0.18931372,-0.08565463,761.13556,785.31134,816.7399,777.6557,807.8755,-0.04815673828125,0.07147216796875,1.00201416015625,0.515899658203125,-2.370147705078125,3.87298583984375,1,1.0,1.0,1.0,1.0,10.00
2024-10-11 20:28:16.953,0.9987489,0.8903831,0.81085044,1.180469,0.72081226,0.34376943,0.5491546,1.0350395,0.7541117,0.30000132,0.31985095,0.7893285,0.4079766,-0.14254136,-0.0030424863,0.3946746,-0.2792297,-0.4230934,-0.18931372,-0.08565463,760.7326,785.7143,812.3077,786.52014,732.52747,-0.04815673828125,0.07147216796875,1.00201416015625,0.515899658203125,-2.370147705078125,3.87298583984375,1,1.0,1.0,1.0,1.0,10.00
2024-10-11 20:28:16.953,0.9987489,0.8903831,0.81085044,1.180469,0.72081226,0.34376943,0.5491546,1.0350395,0.7541117,0.30000132,0.31985095,0.7893285,0.4079766,-0.14254136,-0.0030424863,0.3946746,-0.2792297,-0.4230934,-0.18931372,-0.08565463,761.13556,784.5055,807.47253,790.9524,804.65204,-0.04815673828125,0.07147216796875,1.00201416015625,0.515899658203125,-2.370147705078125,3.87298583984375,1,1.0,1.0,1.0,1.0,10.00
2024-10-11 20:28:16.954,0.9987489,0.8903831,0.81085044,1.180469,0.72081226,0.34376943,0.5491546,1.0350395,0.7541117,0.30000132,0.31985095,0.7893285,0.4079766,-0.14254136,-0.0030424863,0.3946746,-0.2792297,-0.4230934,-0.18931372,-0.08565463,767.1795,783.2967,813.1135,795.78754,878.7912,-0.04815673828125,0.07147216796875,1.00201416015625,0.515899658203125,-2.370147705078125,3.87298583984375,1,1.0,1.0,1.0,1.0,10.00
2024-10-11 20:28:16.955,0.9987489,0.8903831,0.81085044,1.180469,0.72081226,0.34376943,0.5491546,1.0350395,0.7541117,0.30000132,0.31985095,0.7893285,0.4079766,-0.14254136,-0.0030424863,0.3946746,-0.2792297,-0.4230934,-0.18931372,-0.08565463,767.1795,785.31134,808.2784,796.99634,688.20514,-0.03753662109375,0.0743408203125,1.0047607421875,0.16448974609375,-2.444915771484375,5.87677001953125,1,1.0,1.0,1.0,1.0,10.00
2024-10-11 20:28:16.955,0.9987489,0.8903831,0.81085044,1.180469,0.72081226,0.34376943,0.5491546,1.0350395,0.7541117,0.30000132,0.31985095,0.7893285,0.4079766,-0.14254136,-0.0030424863,0.3946746,-0.2792297,-0.4230934,-0.18931372,-0.08565463,774.83514,791.3553,807.8755,808.2784,599.5604,-0.03753662109375,0.0743408203125,1.0047607421875,0.16448974609375,-2.444915771484375,5.87677001953125,1,1.0,1.0,1.0,1.0,10.00
2024-10-11 20:28:16.956,0.9987489,0.8903831,0.81085044,1.180469,0.72081226,0.34376943,0.5491546,1.0350395,0.7541117,0.30000132,0.31985095,0.7893285,0.4079766,-0.14254136,-0.0030424863,0.3946746,-0.2792297,-0.4230934,-0.18931372,-0.08565463,784.10254,786.1172,805.4579,814.7253,729.707,-0.03753662109375,0.0743408203125,1.0047607421875,0.16448974609375,-2.444915771484375,5.87677001953125,1,1.0,1.0,1.0,1.0,10.00
2024-10-11 20:28:16.956,0.9987489,0.8903831,0.81085044,1.180469,0.72081226,0.34376943,0.5491546,1.0350395,0.7541117,0.30000132,0.31985095,0.7893285,0.4079766,-0.14254136,-0.0030424863,0.3946746,-0.2792297,-0.4230934,-0.18931372,-0.08565463,784.5055,784.90845,801.4286,813.5165,855.82416,-0.03753662109375,0.0743408203125,1.0047607421875,0.16448974609375,-2.444915771484375,5.87677001953125,1,1.0,1.0,1.0,1.0,10.00
2024-10-11 20:28:16.956,0.9987489,0.8903831,0.81085044,1.180469,0.72081226,0.34376943,0.5491546,1.0350395,0.7541117,0.30000132,0.31985095,0.7893285,0.4079766,-0.14254136,-0.0030424863,0.3946746,-0.2792297,-0.4230934,-0.18931372,-0.08565463,781.685,788.93774,801.02563,809.89014,743.8095,-0.03753662109375,0.0743408203125,1.0047607421875,0.16448974609375,-2.444915771484375,5.87677001953125,1,1.0,1.0,1.0,1.0,10.00
2024-10-11 20:28:16.957,0.9987489,0.8903831,0.81085044,1.180469,0.72081226,0.34376943,0.5491546,1.0350395,0.7541117,0.30000132,0.31985095,0.7893285,0.4079766,-0.14254136,-0.0030424863,0.3946746,-0.2792297,-0.4230934,-0.18931372,-0.08565463,784.10254,788.5348,796.99634,811.0989,807.47253,-0.03753662109375,0.0743408203125,1.0047607421875,0.16448974609375,-2.444915771484375,5.87677001953125,1,1.0,1.0,1.0,1.0,10.00
2024-10-11 20:28:16.958,0.9987489,0.8903831,0.81085044,1.180469,0.72081226,0.34376943,0.5491546,1.0350395,0.7541117,0.30000132,0.31985095,0.7893285,0.4079766,-0.14254136,-0.0030424863,0.3946746,-0.2792297,-0.4230934,-0.18931372,-0.08565463,786.1172,782.8938,792.1612,812.3077,1004.5055,-0.03753662109375,0.0743408203125,1.0047607421875,0.16448974609375,-2.444915771484375,5.87677001953125,1,1.0,1.0,1.0,1.0,10.00
2024-10-11 20:28:16.958,0.9987489,0.8903831,0.81085044,1.180469,0.72081226,0.34376943,0.5491546,1.0350395,0.7541117,0.30000132,0.31985095,0.7893285,0.4079766,-0.14254136,-0.0030424863,0.3946746,-0.2792297,-0.4230934,-0.18931372,-0.08565463,790.14655,781.685,797.8022,805.8608,882.4176,-0.03753662109375,0.0743408203125,1.0047607421875,0.16448974609375,-2.444915771484375,5.87677001953125,1,1.0,1.0,1.0,1.0,10.00
2024-10-11 20:28:16.958,0.9987489,0.8903831,0.81085044,1.180469,0.72081226,0.34376943,0.5491546,1.0350395,0.7541117,0.30000132,0.31985095,0.7893285,0.4079766,-0.14254136,-0.0030424863,0.3946746,-0.2792297,-0.4230934,-0.18931372,-0.08565463,795.38464,788.1319,809.0842,810.696,635.42126,-0.03753662109375,0.0743408203125,1.0047607421875,0.16448974609375,-2.444915771484375,5.87677001953125,1,1.0,1.0,1.0,1.0,10.00
2024-10-11 20:28:16.959,0.9987489,0.8903831,0.81085044,1.180469,0.72081226,0.34376943,0.5491546,1.0350395,0.7541117,0.30000132,0.31985095,0.7893285,0.4079766,-0.14254136,-0.0030424863,0.3946746,-0.2792297,-0.4230934,-0.18931372,-0.08565463,792.1612,794.9817,813.1135,815.12823,702.71063,-0.03753662109375,0.0743408203125,1.0047607421875,0.16448974609375,-2.444915771484375,5.87677001953125,1,1.0,1.0,1.0,1.0,10.00
2024-10-11 20:28:16.959,0.9987489,0.8903831,0.81085044,1.180469,0.72081226,0.34376943,0.5491546,1.0350395,0.7541117,0.30000132,0.31985095,0.7893285,0.4079766,-0.14254136,-0.0030424863,0.3946746,-0.2792297,-0.4230934,-0.18931372,-0.08565463,796.5934,792.1612,804.65204,815.5311,887.6557,-0.03753662109375,0.0743408203125,1.0047607421875,0.16448974609375,-2.444915771484375,5.87677001953125,1,1.0,1.0,1.0,1.0,10.00
2024-10-11 20:28:16.960,0.9987489,0.8903831,0.81085044,1.180469,0.72081226,0.34376943,0.5491546,1.0350395,0.7541117,0.30000132,0.31985095,0.7893285,0.4079766,-0.14254136,-0.0030424863,0.3946746,-0.2792297,-0.4230934,-0.18931372,-0.08565463,794.57874,784.5055,796.99634,811.50183,853.00366,-0.03753662109375,0.0743408203125,1.0047607421875,0.16448974609375,-2.444915771484375,5.87677001953125,1,1.0,1.0,1.0,1.0,10.00
2024-10-11 20:28:16.961,0.9987489,0.8903831,0.81085044,1.180469,0.72081226,0.34376943,0.5491546,1.0350395,0.7541117,0.30000132,0.31985095,0.7893285,0.4079766,-0.14254136,-0.0030424863,0.3946746,-0.2792297,-0.4230934,-0.18931372,-0.08565463,797.3993,786.1172,799.81683,805.8608,701.0989,-0.03106689453125,0.0711669921875,1.0069580078125,0.082244873046875,-2.4822998046875,6.400146484375,1,1.0,1.0,1.0,1.0,10.00
2024-10-11 20:28:16.961,0.9987489,0.8903831,0.81085044,1.180469,0.72081226,0.34376943,0.5491546,1.0350395,0.7541117,0.30000132,0.31985095,0.7893285,0.4079766,-0.14254136,-0.0030424863,0.3946746,-0.2792297,-0.4230934,-0.18931372,-0.08565463,808.68134,783.69965,796.99634,810.293,767.1795,-0.03106689453125,0.0711669921875,1.0069580078125,0.082244873046875,-2.4822998046875,6.400146484375,1,1.0,1.0,1.0,1.0,10.00
2024-10-11 20:28:16.962,0.9987489,0.8903831,0.81085044,1.180469,0.72081226,0.34376943,0.5491546,1.0350395,0.7541117,0.30000132,0.31985095,0.7893285,0.4079766,-0.14254136,-0.0030424863,0.3946746,-0.2792297,-0.4230934,-0.18931372,-0.08565463,809.89014,782.0879,795.78754,812.3077,920.696,-0.03106689453125,0.0711669921875,1.0069580078125,0.082244873046875,-2.4822998046875,6.400146484375,1,1.0,1.0,1.0,1.0,10.00
2024-10-11 20:28:16.963,0.9987489,0.8903831,0.81085044,1.180469,0.72081226,0.34376943,0.5491546,1.0350395,0.7541117,0.30000132,0.31985095,0.7893285,0.4079766,-0.14254136,-0.0030424863,0.3946746,-0.2792297,-0.4230934,-0.18931372,-0.08565463,808.2784,786.9231,794.17584,812.3077,818.3516,-0.03106689453125,0.0711669921875,1.0069580078125,0.082244873046875,-2.4822998046875,6.400146484375,1,1.0,1.0,1.0,1.0,10.00
2024-10-11 20:28:16.964,0.9987489,0.8903831,0.81085044,1.180469,0.72081226,0.34376943,0.5491546,1.0350395,0.7541117,0.30000132,0.31985095,0.7893285,0.4079766,-0.14254136,-0.0030424863,0.3946746,-0.2792297,-0.4230934,-0.18931372,-0.08565463,817.1429,790.9524,794.17584,816.7399,641.4652,-0.03106689453125,0.0711669921875,1.0069580078125,0.082244873046875,-2.4822998046875,6.400146484375,1,1.0,1.0,1.0,1.0,10.00
2024-10-11 20:28:16,,,,,,,,,,,,,,,,,,,,,,,,,,,,,,,,,,,,,,/muse/elements/blink
2024-10-11 20:28:16.964,1.0096523,0.9049365,0.728472,1.2017968,0.72977155,0.36004862,0.4341056,1.0500642,0.7541117,0.2995899,0.16043778,0.74218696,0.41108346,-0.14093357,-0.009583428,0.35822657,-0.27740768,-0.44750115,-0.2027922,-0.14765894,818.3516,788.93774,805.8608,823.5897,826.8132,-0.03106689453125,0.0711669921875,1.0069580078125,0.082244873046875,-2.4822998046875,6.400146484375,1,1.0,1.0,1.0,1.0,10.00
2024-10-11 20:28:16.969,1.0096523,0.9049365,0.728472,1.2017968,0.72977155,0.36004862,0.4341056,1.0500642,0.7541117,0.2995899,0.16043778,0.74218696,0.41108346,-0.14093357,-0.009583428,0.35822657,-0.27740768,-0.44750115,-0.2027922,-0.14765894,804.65204,786.52014,808.2784,829.6337,1191.4652,-0.03106689453125,0.0711669921875,1.0069580078125,0.082244873046875,-2.4822998046875,6.400146484375,1,1.0,1.0,1.0,1.0,10.00
2024-10-11 20:28:16.970,1.0096523,0.9049365,0.728472,1.2017968,0.72977155,0.36004862,0.4341056,1.0500642,0.7541117,0.2995899,0.16043778,0.74218696,0.41108346,-0.14093357,-0.009583428,0.35822657,-0.27740768,-0.44750115,-0.2027922,-0.14765894,803.8461,785.7143,803.44324,829.2308,967.03296,-0.03106689453125,0.0711669921875,1.0069580078125,0.082244873046875,-2.4822998046875,6.400146484375,1,1.0,1.0,1.0,1.0,10.00
2024-10-11 20:28:16.970,1.0096523,0.9049365,0.728472,1.2017968,0.72977155,0.36004862,0.4341056,1.0500642,0.7541117,0.2995899,0.16043778,0.74218696,0.41108346,-0.14093357,-0.009583428,0.35822657,-0.27740768,-0.44750115,-0.2027922,-0.14765894,805.4579,783.69965,803.0403,824.3956,642.27106,-0.03106689453125,0.0711669921875,1.0069580078125,0.082244873046875,-2.4822998046875,6.400146484375,1,1.0,1.0,1.0,1.0,10.00
2024-10-11 20:28:16.971,1.0096523,0.9049365,0.728472,1.2017968,0.72977155,0.36004862,0.4341056,1.0500642,0.7541117,0.2995899,0.16043778,0.74218696,0.41108346,-0.14093357,-0.009583428,0.35822657,-0.27740768,-0.44750115,-0.2027922,-0.14765894,809.4872,787.72894,806.6667,828.8278,753.47986,-0.03106689453125,0.0711669921875,1.0069580078125,0.082244873046875,-2.4822998046875,6.400146484375,1,1.0,1.0,1.0,1.0,10.00
2024-10-11 20:28:16.971,1.0096523,0.9049365,0.728472,1.2017968,0.72977155,0.36004862,0.4341056,1.0500642,0.7541117,0.2995899,0.16043778,0.74218696,0.41108346,-0.14093357,-0.009583428,0.35822657,-0.27740768,-0.44750115,-0.2027922,-0.14765894,815.5311,789.7436,803.0403,832.8571,936.0073,-0.03106689453125,0.0711669921875,1.0069580078125,0.082244873046875,-2.4822998046875,6.400146484375,1,1.0,1.0,1.0,1.0,10.00
2024-10-11 20:28:16.972,1.0096523,0.9049365,0.728472,1.2017968,0.72977155,0.36004862,0.4341056,1.0500642,0.7541117,0.2995899,0.16043778,0.74218696,0.41108346,-0.14093357,-0.009583428,0.35822657,-0.27740768,-0.44750115,-0.2027922,-0.14765894,813.91943,787.72894,798.60803,830.0366,836.4835,-0.03106689453125,0.0711669921875,1.0069580078125,0.082244873046875,-2.4822998046875,6.400146484375,1,1.0,1.0,1.0,1.0,10.00
2024-10-11 20:28:16.972,1.0096523,0.9049365,0.728472,1.2017968,0.72977155,0.36004862,0.4341056,1.0500642,0.7541117,0.2995899,0.16043778,0.74218696,0.41108346,-0.14093357,-0.009583428,0.35822657,-0.27740768,-0.44750115,-0.2027922,-0.14765894,811.0989,785.31134,796.5934,824.7985,745.0183,-0.0264892578125,0.07379150390625,0.99737548828125,0.755157470703125,0.605621337890625,6.34033203125,1,1.0,1.0,1.0,1.0,10.00
2024-10-11 20:28:16.973,1.0096523,0.9049365,0.728472,1.2017968,0.72977155,0.36004862,0.4341056,1.0500642,0.7541117,0.2995899,0.16043778,0.74218696,0.41108346,-0.14093357,-0.009583428,0.35822657,-0.27740768,-0.44750115,-0.2027922,-0.14765894,812.71063,788.93774,797.3993,823.5897,822.7839,-0.0264892578125,0.07379150390625,0.99737548828125,0.755157470703125,0.605621337890625,6.34033203125,1,1.0,1.0,1.0,1.0,10.00
2024-10-11 20:28:16.973,1.0096523,0.9049365,0.728472,1.2017968,0.72977155,0.36004862,0.4341056,1.0500642,0.7541117,0.2995899,0.16043778,0.74218696,0.41108346,-0.14093357,-0.009583428,0.35822657,-0.27740768,-0.44750115,-0.2027922,-0.14765894,814.3223,787.72894,806.26373,829.6337,959.3773,-0.0264892578125,0.07379150390625,0.99737548828125,0.755157470703125,0.605621337890625,6.34033203125,1,1.0,1.0,1.0,1.0,10.00
2024-10-11 20:28:16.974,1.0096523,0.9049365,0.728472,1.2017968,0.72977155,0.36004862,0.4341056,1.0500642,0.7541117,0.2995899,0.16043778,0.74218696,0.41108346,-0.14093357,-0.009583428,0.35822657,-0.27740768,-0.44750115,-0.2027922,-0.14765894,820.3663,791.75824,813.91943,835.6777,844.5421,-0.0264892578125,0.07379150390625,0.99737548828125,0.755157470703125,0.605621337890625,6.34033203125,1,1.0,1.0,1.0,1.0,10.00
2024-10-11 20:28:16.975,1.0096523,0.9049365,0.728472,1.2017968,0.72977155,0.36004862,0.4341056,1.0500642,0.7541117,0.2995899,0.16043778,0.74218696,0.41108346,-0.14093357,-0.009583428,0.35822657,-0.27740768,-0.44750115,-0.2027922,-0.14765894,822.381,794.57874,809.4872,829.6337,716.8132,-0.0264892578125,0.07379150390625,0.99737548828125,0.755157470703125,0.605621337890625,6.34033203125,1,1.0,1.0,1.0,1.0,10.00
2024-10-11 20:28:16.975,1.0096523,0.9049365,0.728472,1.2017968,0.72977155,0.36004862,0.4341056,1.0500642,0.7541117,0.2995899,0.16043778,0.74218696,0.41108346,-0.14093357,-0.009583428,0.35822657,-0.27740768,-0.44750115,-0.2027922,-0.14765894,823.5897,788.5348,804.65204,826.4103,868.71796,-0.0264892578125,0.07379150390625,0.99737548828125,0.755157470703125,0.605621337890625,6.34033203125,1,1.0,1.0,1.0,1.0,10.00
2024-10-11 20:28:16.976,1.0096523,0.9049365,0.728472,1.2017968,0.72977155,0.36004862,0.4341056,1.0500642,0.7541117,0.2995899,0.16043778,0.74218696,0.41108346,-0.14093357,-0.009583428,0.35822657,-0.27740768,-0.44750115,-0.2027922,-0.14765894,820.7692,786.1172,799.81683,828.4249,1095.9707,-0.0264892578125,0.07379150390625,0.99737548828125,0.755157470703125,0.605621337890625,6.34033203125,1,1.0,1.0,1.0,1.0,10.00
2024-10-11 20:28:16.976,1.0096523,0.9049365,0.728472,1.2017968,0.72977155,0.36004862,0.4341056,1.0500642,0.7541117,0.2995899,0.16043778,0.74218696,0.41108346,-0.14093357,-0.009583428,0.35822657,-0.27740768,-0.44750115,-0.2027922,-0.14765894,820.3663,791.75824,793.36993,820.3663,831.2454,-0.0264892578125,0.07379150390625,0.99737548828125,0.755157470703125,0.605621337890625,6.34033203125,1,1.0,1.0,1.0,1.0,10.00
2024-10-11 20:28:16.976,1.0096523,0.9049365,0.728472,1.2017968,0.72977155,0.36004862,0.4341056,1.0500642,0.7541117,0.2995899,0.16043778,0.74218696,0.41108346,-0.14093357,-0.009583428,0.35822657,-0.27740768,-0.44750115,-0.2027922,-0.14765894,823.9927,794.9817,792.96704,817.9487,691.8315,-0.0264892578125,0.07379150390625,0.99737548828125,0.755157470703125,0.605621337890625,6.34033203125,1,1.0,1.0,1.0,1.0,10.00
2024-10-11 20:28:16.977,1.0096523,0.9049365,0.728472,1.2017968,0.72977155,0.36004862,0.4341056,1.0500642,0.7541117,0.2995899,0.16043778,0.74218696,0.41108346,-0.14093357,-0.009583428,0.35822657,-0.27740768,-0.44750115,-0.2027922,-0.14765894,822.7839,797.8022,793.7729,815.9341,925.12823,-0.0264892578125,0.07379150390625,0.99737548828125,0.755157470703125,0.605621337890625,6.34033203125,1,1.0,1.0,1.0,1.0,10.00
2024-10-11 20:28:16.978,1.0096523,0.9049365,0.728472,1.2017968,0.72977155,0.36004862,0.4341056,1.0500642,0.7541117,0.2995899,0.16043778,0.74218696,0.41108346,-0.14093357,-0.009583428,0.35822657,-0.27740768,-0.44750115,-0.2027922,-0.14765894,821.1722,793.36993,788.5348,817.5458,930.7692,-0.0264892578125,0.07379150390625,0.99737548828125,0.755157470703125,0.605621337890625,6.34033203125,1,1.0,1.0,1.0,1.0,10.00
2024-10-11 20:28:16.979,1.0096523,0.9049365,0.728472,1.2017968,0.72977155,0.36004862,0.4341056,1.0500642,0.7541117,0.2995899,0.16043778,0.74218696,0.41108346,-0.14093357,-0.009583428,0.35822657,-0.27740768,-0.44750115,-0.2027922,-0.14765894,824.3956,791.3553,795.78754,817.5458,778.0586,-0.0264892578125,0.07379150390625,0.99737548828125,0.755157470703125,0.605621337890625,6.34033203125,1,1.0,1.0,1.0,1.0,10.00
2024-10-11 20:28:17.016,1.0096523,0.9049365,0.728472,1.2017968,0.72977155,0.36004862,0.4341056,1.0500642,0.7541117,0.2995899,0.16043778,0.74218696,0.41108346,-0.14093357,-0.009583428,0.35822657,-0.27740768,-0.44750115,-0.2027922,-0.14765894,820.7692,791.75824,805.8608,815.9341,781.685,-0.0264892578125,0.07379150390625,0.99737548828125,0.755157470703125,0.605621337890625,6.34033203125,1,1.0,1.0,1.0,1.0,10.00
2024-10-11 20:28:17.017,1.0096523,0.9049365,0.728472,1.2017968,0.72977155,0.36004862,0.4341056,1.0500642,0.7541117,0.2995899,0.16043778,0.74218696,0.41108346,-0.14093357,-0.009583428,0.35822657,-0.27740768,-0.44750115,-0.2027922,-0.14765894,818.3516,782.49084,803.8461,823.1868,1075.4213,-0.0264892578125,0.07379150390625,0.99737548828125,0.755157470703125,0.605621337890625,6.34033203125,1,1.0,1.0,1.0,1.0,10.00
2024-10-11 20:28:17.017,1.0096523,0.9049365,0.728472,1.2017968,0.72977155,0.36004862,0.4341056,1.0500642,0.7541117,0.2995899,0.16043778,0.74218696,0.41108346,-0.14093357,-0.009583428,0.35822657,-0.27740768,-0.44750115,-0.2027922,-0.14765894,830.0366,790.14655,802.6374,838.0952,1325.641,-0.0264892578125,0.07379150390625,0.99737548828125,0.755157470703125,0.605621337890625,6.34033203125,1,1.0,1.0,1.0,1.0,10.00
2024-10-11 20:28:17.018,1.0096523,0.9049365,0.728472,1.2017968,0.72977155,0.36004862,0.4341056,1.0500642,0.7541117,0.2995899,0.16043778,0.74218696,0.41108346,-0.14093357,-0.009583428,0.35822657,-0.27740768,-0.44750115,-0.2027922,-0.14765894,822.381,793.7729,797.3993,836.08057,1306.3004,-0.0264892578125,0.07379150390625,0.99737548828125,0.755157470703125,0.605621337890625,6.34033203125,1,1.0,1.0,1.0,1.0,10.00
2024-10-11 20:28:17.018,1.0096523,0.9049365,0.728472,1.2017968,0.72977155,0.36004862,0.4341056,1.0500642,0.7541117,0.2995899,0.16043778,0.74218696,0.41108346,-0.14093357,-0.009583428,0.35822657,-0.27740768,-0.44750115,-0.2027922,-0.14765894,812.3077,791.3553,788.1319,826.0073,1149.9634,-0.0264892578125,0.07379150390625,0.99737548828125,0.755157470703125,0.605621337890625,6.34033203125,1,1.0,1.0,1.0,1.0,10.00
2024-10-11 20:28:17.019,1.0096523,0.9049365,0.728472,1.2017968,0.72977155,0.36004862,0.4341056,1.0500642,0.7541117,0.2995899,0.16043778,0.74218696,0.41108346,-0.14093357,-0.009583428,0.35822657,-0.27740768,-0.44750115,-0.2027922,-0.14765894,815.12823,790.9524,790.54944,820.7692,1043.5897,-0.0264892578125,0.07379150390625,0.99737548828125,0.755157470703125,0.605621337890625,6.34033203125,1,1.0,1.0,1.0,1.0,10.00
2024-10-11 20:28:17.019,1.0096523,0.9049365,0.728472,1.2017968,0.72977155,0.36004862,0.4341056,1.0500642,0.7541117,0.2995899,0.16043778,0.74218696,0.41108346,-0.14093357,-0.009583428,0.35822657,-0.27740768,-0.44750115,-0.2027922,-0.14765894,816.337,789.7436,787.326,812.71063,841.31866,-0.0264892578125,0.07379150390625,0.99737548828125,0.755157470703125,0.605621337890625,6.34033203125,1,1.0,1.0,1.0,1.0,10.00
2024-10-11 20:28:17.020,1.01489,0.9024298,0.46258208,1.2053287,0.73200065,0.37738296,0.14129299,1.0423492,0.7541117,0.2995899,-0.32506272,0.70997185,0.4137892,-0.1327274,-0.014225284,0.32999566,-0.27410534,-0.4591806,-0.24637778,-0.19115134,820.3663,790.14655,788.93774,807.0696,681.75824,-0.0264892578125,0.07379150390625,0.99737548828125,0.755157470703125,0.605621337890625,6.34033203125,1,1.0,1.0,1.0,1.0,10.00
2024-10-11 20:28:17.024,1.01489,0.9024298,0.46258208,1.2053287,0.73200065,0.37738296,0.14129299,1.0423492,0.7541117,0.2995899,-0.32506272,0.70997185,0.4137892,-0.1327274,-0.014225284,0.32999566,-0.27410534,-0.4591806,-0.24637778,-0.19115134,817.5458,794.9817,799.41394,813.91943,688.60803,-0.0264892578125,0.07379150390625,0.99737548828125,0.755157470703125,0.605621337890625,6.34033203125,1,1.0,1.0,1.0,1.0,10.00
2024-10-11 20:28:17.024,1.01489,0.9024298,0.46258208,1.2053287,0.73200065,0.37738296,0.14129299,1.0423492,0.7541117,0.2995899,-0.32506272,0.70997185,0.4137892,-0.1327274,-0.014225284,0.32999566,-0.27410534,-0.4591806,-0.24637778,-0.19115134,813.1135,790.9524,799.41394,819.15753,1036.7399,-0.0264892578125,0.07379150390625,0.99737548828125,0.755157470703125,0.605621337890625,6.34033203125,1,1.0,1.0,1.0,1.0,10.00
2024-10-11 20:28:17.025,1.01489,0.9024298,0.46258208,1.2053287,0.73200065,0.37738296,0.14129299,1.0423492,0.7541117,0.2995899,-0.32506272,0.70997185,0.4137892,-0.1327274,-0.014225284,0.32999566,-0.27410534,-0.4591806,-0.24637778,-0.19115134,806.6667,789.34064,796.99634,805.8608,1010.14655,-0.0264892578125,0.07379150390625,0.99737548828125,0.755157470703125,0.605621337890625,6.34033203125,1,1.0,1.0,1.0,1.0,10.00
2024-10-11 20:28:17.025,1.01489,0.9024298,0.46258208,1.2053287,0.73200065,0.37738296,0.14129299,1.0423492,0.7541117,0.2995899,-0.32506272,0.70997185,0.4137892,-0.1327274,-0.014225284,0.32999566,-0.27410534,-0.4591806,-0.24637778,-0.19115134,809.4872,796.99634,794.17584,802.6374,775.2381,-0.0264892578125,0.07379150390625,0.99737548828125,0.755157470703125,0.605621337890625,6.34033203125,1,1.0,1.0,1.0,1.0,10.00
2024-10-11 20:28:17.083,1.01489,0.9024298,0.46258208,1.2053287,0.73200065,0.37738296,0.14129299,1.0423492,0.7541117,0.2995899,-0.32506272,0.70997185,0.4137892,-0.1327274,-0.014225284,0.32999566,-0.27410534,-0.4591806,-0.24637778,-0.19115134,813.1135,795.78754,794.17584,812.71063,798.60803,-0.0439453125,0.072509765625,0.996826171875,1.069183349609375,0.94207763671875,6.317901611328125,1,1.0,1.0,1.0,1.0,10.00
2024-10-11 20:28:17.084,1.01489,0.9024298,0.46258208,1.2053287,0.73200065,0.37738296,0.14129299,1.0423492,0.7541117,0.2995899,-0.32506272,0.70997185,0.4137892,-0.1327274,-0.014225284,0.32999566,-0.27410534,-0.4591806,-0.24637778,-0.19115134,807.47253,794.9817,795.78754,808.2784,763.5531,-0.0439453125,0.072509765625,0.996826171875,1.069183349609375,0.94207763671875,6.317901611328125,1,1.0,1.0,1.0,1.0,10.00
2024-10-11 20:28:17.085,1.01489,0.9024298,0.46258208,1.2053287,0.73200065,0.37738296,0.14129299,1.0423492,0.7541117,0.2995899,-0.32506272,0.70997185,0.4137892,-0.1327274,-0.014225284,0.32999566,-0.27410534,-0.4591806,-0.24637778,-0.19115134,809.0842,798.20514,799.011,802.23444,599.15753,-0.0439453125,0.072509765625,0.996826171875,1.069183349609375,0.94207763671875,6.317901611328125,1,1.0,1.0,1.0,1.0,10.00
2024-10-11 20:28:17.085,1.01489,0.9024298,0.46258208,1.2053287,0.73200065,0.37738296,0.14129299,1.0423492,0.7541117,0.2995899,-0.32506272,0.70997185,0.4137892,-0.1327274,-0.014225284,0.32999566,-0.27410534,-0.4591806,-0.24637778,-0.19115134,811.9048,803.44324,799.81683,806.26373,579.011,-0.0439453125,0.072509765625,0.996826171875,1.069183349609375,0.94207763671875,6.317901611328125,1,1.0,1.0,1.0,1.0,10.00
2024-10-11 20:28:17.086,1.01489,0.9024298,0.46258208,1.2053287,0.73200065,0.37738296,0.14129299,1.0423492,0.7541117,0.2995899,-0.32506272,0.70997185,0.4137892,-0.1327274,-0.014225284,0.32999566,-0.27410534,-0.4591806,-0.24637778,-0.19115134,816.337,809.0842,799.81683,814.3223,716.8132,-0.0439453125,0.072509765625,0.996826171875,1.069183349609375,0.94207763671875,6.317901611328125,1,1.0,1.0,1.0,1.0,10.00
2024-10-11 20:28:17.086,1.01489,0.9024298,0.46258208,1.2053287,0.73200065,0.37738296,0.14129299,1.0423492,0.7541117,0.2995899,-0.32506272,0.70997185,0.4137892,-0.1327274,-0.014225284,0.32999566,-0.27410534,-0.4591806,-0.24637778,-0.19115134,822.381,811.50183,800.2198,812.71063,913.0403,-0.0439453125,0.072509765625,0.996826171875,1.069183349609375,0.94207763671875,6.317901611328125,1,1.0,1.0,1.0,1.0,10.00
2024-10-11 20:28:17.087,1.01489,0.9024298,0.46258208,1.2053287,0.73200065,0.37738296,0.14129299,1.0423492,0.7541117,0.2995899,-0.32506272,0.70997185,0.4137892,-0.1327274,-0.014225284,0.32999566,-0.27410534,-0.4591806,-0.24637778,-0.19115134,813.91943,786.1172,796.5934,803.0403,846.9597,-0.0439453125,0.072509765625,0.996826171875,1.069183349609375,0.94207763671875,6.317901611328125,1,1.0,1.0,1.0,1.0,10.00
2024-10-11 20:28:17.088,1.01489,0.9024298,0.46258208,1.2053287,0.73200065,0.37738296,0.14129299,1.0423492,0.7541117,0.2995899,-0.32506272,0.70997185,0.4137892,-0.1327274,-0.014225284,0.32999566,-0.27410534,-0.4591806,-0.24637778,-0.19115134,802.23444,774.43225,792.5641,798.60803,688.20514,-0.0439453125,0.072509765625,0.996826171875,1.069183349609375,0.94207763671875,6.317901611328125,1,1.0,1.0,1.0,1.0,10.00
2024-10-11 20:28:17.088,1.01489,0.9024298,0.46258208,1.2053287,0.73200065,0.37738296,0.14129299,1.0423492,0.7541117,0.2995899,-0.32506272,0.70997185,0.4137892,-0.1327274,-0.014225284,0.32999566,-0.27410534,-0.4591806,-0.24637778,-0.19115134,805.8608,795.38464,792.96704,806.26373,883.6264,-0.0439453125,0.072509765625,0.996826171875,1.069183349609375,0.94207763671875,6.317901611328125,1,1.0,1.0,1.0,1.0,10.00
2024-10-11 20:28:17.089,1.01489,0.9024298,0.46258208,1.2053287,0.73200065,0.37738296,0.14129299,1.0423492,0.7541117,0.2995899,-0.32506272,0.70997185,0.4137892,-0.1327274,-0.014225284,0.32999566,-0.27410534,-0.4591806,-0.24637778,-0.19115134,809.0842,788.93774,796.1905,806.6667,843.73627,-0.0439453125,0.072509765625,0.996826171875,1.069183349609375,0.94207763671875,6.317901611328125,1,1.0,1.0,1.0,1.0,10.00
2024-10-11 20:28:17.089,1.01489,0.9024298,0.46258208,1.2053287,0.73200065,0.37738296,0.14129299,1.0423492,0.7541117,0.2995899,-0.32506272,0.70997185,0.4137892,-0.1327274,-0.014225284,0.32999566,-0.27410534,-0.4591806,-0.24637778,-0.19115134,807.8755,776.04395,798.60803,799.41394,667.25275,-0.0439453125,0.072509765625,0.996826171875,1.069183349609375,0.94207763671875,6.317901611328125,1,1.0,1.0,1.0,1.0,10.00
2024-10-11 20:28:17.090,1.01489,0.9024298,0.46258208,1.2053287,0.73200065,0.37738296,0.14129299,1.0423492,0.7541117,0.2995899,-0.32506272,0.70997185,0.4137892,-0.1327274,-0.014225284,0.32999566,-0.27410534,-0.4591806,-0.24637778,-0.19115134,806.6667,786.1172,795.78754,800.6227,647.1062,-0.0439453125,0.072509765625,0.996826171875,1.069183349609375,0.94207763671875,6.317901611328125,1,1.0,1.0,1.0,1.0,10.00
2024-10-11 20:28:17.123,1.01489,0.9024298,0.46258208,1.2053287,0.73200065,0.37738296,0.14129299,1.0423492,0.7541117,0.2995899,-0.32506272,0.70997185,0.4137892,-0.1327274,-0.014225284,0.32999566,-0.27410534,-0.4591806,-0.24637778,-0.19115134,813.5165,796.99634,795.78754,813.1135,920.696,-0.0601806640625,0.079345703125,1.0079345703125,1.577606201171875,0.755157470703125,5.921630859375,1,1.0,1.0,1.0,1.0,10.00
2024-10-11 20:28:17.124,1.01489,0.9024298,0.46258208,1.2053287,0.73200065,0.37738296,0.14129299,1.0423492,0.7541117,0.2995899,-0.32506272,0.70997185,0.4137892,-0.1327274,-0.014225284,0.32999566,-0.27410534,-0.4591806,-0.24637778,-0.19115134,813.91943,793.36993,794.17584,812.71063,1110.0732,-0.0601806640625,0.079345703125,1.0079345703125,1.577606201171875,0.755157470703125,5.921630859375,1,1.0,1.0,1.0,1.0,10.00
2024-10-11 20:28:17.125,1.01489,0.9024298,0.46258208,1.2053287,0.73200065,0.37738296,0.14129299,1.0423492,0.7541117,0.2995899,-0.32506272,0.70997185,0.4137892,-0.1327274,-0.014225284,0.32999566,-0.27410534,-0.4591806,-0.24637778,-0.19115134,809.4872,794.57874,796.1905,803.8461,816.337,-0.0601806640625,0.079345703125,1.0079345703125,1.577606201171875,0.755157470703125,5.921630859375,1,1.0,1.0,1.0,1.0,10.00
2024-10-11 20:28:17.125,1.01489,0.9024298,0.46258208,1.2053287,0.73200065,0.37738296,0.14129299,1.0423492,0.7541117,0.2995899,-0.32506272,0.70997185,0.4137892,-0.1327274,-0.014225284,0.32999566,-0.27410534,-0.4591806,-0.24637778,-0.19115134,811.0989,802.23444,797.8022,805.05493,676.52014,-0.0601806640625,0.079345703125,1.0079345703125,1.577606201171875,0.755157470703125,5.921630859375,1,1.0,1.0,1.0,1.0,10.00
2024-10-11 20:28:17.126,1.01489,0.9024298,0.46258208,1.2053287,0.73200065,0.37738296,0.14129299,1.0423492,0.7541117,0.2995899,-0.32506272,0.70997185,0.4137892,-0.1327274,-0.014225284,0.32999566,-0.27410534,-0.4591806,-0.24637778,-0.19115134,811.0989,800.2198,788.93774,806.26373,737.3626,-0.0601806640625,0.079345703125,1.0079345703125,1.577606201171875,0.755157470703125,5.921630859375,1,1.0,1.0,1.0,1.0,10.00
2024-10-11 20:28:17.127,1.01489,0.9024298,0.46258208,1.2053287,0.73200065,0.37738296,0.14129299,1.0423492,0.7541117,0.2995899,-0.32506272,0.70997185,0.4137892,-0.1327274,-0.014225284,0.32999566,-0.27410534,-0.4591806,-0.24637778,-0.19115134,803.8461,799.011,786.52014,802.6374,803.0403,-0.0601806640625,0.079345703125,1.0079345703125,1.577606201171875,0.755157470703125,5.921630859375,1,1.0,1.0,1.0,1.0,10.00
2024-10-11 20:28:17.128,1.01489,0.9024298,0.46258208,1.2053287,0.73200065,0.37738296,0.14129299,1.0423492,0.7541117,0.2995899,-0.32506272,0.70997185,0.4137892,-0.1327274,-0.014225284,0.32999566,-0.27410534,-0.4591806,-0.24637778,-0.19115134,812.3077,812.3077,799.81683,808.2784,757.1062,-0.0601806640625,0.079345703125,1.0079345703125,1.577606201171875,0.755157470703125,5.921630859375,1,1.0,1.0,1.0,1.0,10.00
2024-10-11 20:28:17.128,1.01489,0.9024298,0.46258208,1.2053287,0.73200065,0.37738296,0.14129299,1.0423492,0.7541117,0.2995899,-0.32506272,0.70997185,0.4137892,-0.1327274,-0.014225284,0.32999566,-0.27410534,-0.4591806,-0.24637778,-0.19115134,817.9487,822.381,812.3077,816.7399,685.78754,-0.0601806640625,0.079345703125,1.0079345703125,1.577606201171875,0.755157470703125,5.921630859375,1,1.0,1.0,1.0,1.0,10.00
2024-10-11 20:28:17.129,1.01489,0.9024298,0.46258208,1.2053287,0.73200065,0.37738296,0.14129299,1.0423492,0.7541117,0.2995899,-0.32506272,0.70997185,0.4137892,-0.1327274,-0.014225284,0.32999566,-0.27410534,-0.4591806,-0.24637778,-0.19115134,790.54944,796.1905,804.2491,794.17584,731.31866,-0.0601806640625,0.079345703125,1.0079345703125,1.577606201171875,0.755157470703125,5.921630859375,1,1.0,1.0,1.0,1.0,10.00
2024-10-11 20:28:17.130,1.0164156,0.87732774,0.46258208,1.185933,0.71574306,0.3952188,0.14129299,1.0021044,0.7541117,0.2995899,-0.32506272,0.6862983,0.4125881,-0.122343436,-0.014225284,0.31008056,-0.27274224,-0.46296397,-0.24637778,-0.20950475,783.2967,775.2381,798.20514,789.7436,699.89014,-0.0601806640625,0.079345703125,1.0079345703125,1.577606201171875,0.755157470703125,5.921630859375,1,1.0,1.0,1.0,1.0,10.00
2024-10-11 20:28:17.136,1.0164156,0.87732774,0.46258208,1.185933,0.71574306,0.3952188,0.14129299,1.0021044,0.7541117,0.2995899,-0.32506272,0.6862983,0.4125881,-0.122343436,-0.014225284,0.31008056,-0.27274224,-0.46296397,-0.24637778,-0.20950475,799.81683,780.4762,798.60803,804.65204,664.83514,-0.0601806640625,0.079345703125,1.0079345703125,1.577606201171875,0.755157470703125,5.921630859375,1,1.0,1.0,1.0,1.0,10.00
2024-10-11 20:28:17.137,1.0164156,0.87732774,0.46258208,1.185933,0.71574306,0.3952188,0.14129299,1.0021044,0.7541117,0.2995899,-0.32506272,0.6862983,0.4125881,-0.122343436,-0.014225284,0.31008056,-0.27274224,-0.46296397,-0.24637778,-0.20950475,806.6667,790.14655,797.3993,802.6374,689.41394,-0.0601806640625,0.079345703125,1.0079345703125,1.577606201171875,0.755157470703125,5.921630859375,1,1.0,1.0,1.0,1.0,10.00
2024-10-11 20:28:17.167,1.0164156,0.87732774,0.46258208,1.185933,0.71574306,0.3952188,0.14129299,1.0021044,0.7541117,0.2995899,-0.32506272,0.6862983,0.4125881,-0.122343436,-0.014225284,0.31008056,-0.27274224,-0.46296397,-0.24637778,-0.20950475,803.8461,796.5934,796.5934,801.02563,748.6447,-0.071044921875,0.08258056640625,1.00128173828125,1.472930908203125,-3.22998046875,4.717864990234375,1,1.0,1.0,1.0,1.0,10.00
2024-10-11 20:28:17.168,1.0164156,0.87732774,0.46258208,1.185933,0.71574306,0.3952188,0.14129299,1.0021044,0.7541117,0.2995899,-0.32506272,0.6862983,0.4125881,-0.122343436,-0.014225284,0.31008056,-0.27274224,-0.46296397,-0.24637778,-0.20950475,802.23444,796.99634,794.57874,808.2784,663.22345,-0.071044921875,0.08258056640625,1.00128173828125,1.472930908203125,-3.22998046875,4.717864990234375,1,1.0,1.0,1.0,1.0,10.00
2024-10-11 20:28:17.169,1.0164156,0.87732774,0.46258208,1.185933,0.71574306,0.3952188,0.14129299,1.0021044,0.7541117,0.2995899,-0.32506272,0.6862983,0.4125881,-0.122343436,-0.014225284,0.31008056,-0.27274224,-0.46296397,-0.24637778,-0.20950475,792.96704,791.3553,784.90845,804.2491,568.1319,-0.071044921875,0.08258056640625,1.00128173828125,1.472930908203125,-3.22998046875,4.717864990234375,1,1.0,1.0,1.0,1.0,10.00
2024-10-11 20:28:17.170,1.0164156,0.87732774,0.46258208,1.185933,0.71574306,0.3952188,0.14129299,1.0021044,0.7541117,0.2995899,-0.32506272,0.6862983,0.4125881,-0.122343436,-0.014225284,0.31008056,-0.27274224,-0.46296397,-0.24637778,-0.20950475,797.8022,792.5641,792.1612,807.8755,767.5824,-0.071044921875,0.08258056640625,1.00128173828125,1.472930908203125,-3.22998046875,4.717864990234375,1,1.0,1.0,1.0,1.0,10.00
2024-10-11 20:28:17.170,1.0164156,0.87732774,0.46258208,1.185933,0.71574306,0.3952188,0.14129299,1.0021044,0.7541117,0.2995899,-0.32506272,0.6862983,0.4125881,-0.122343436,-0.014225284,0.31008056,-0.27274224,-0.46296397,-0.24637778,-0.20950475,806.26373,798.60803,802.23444,817.5458,1064.9451,-0.071044921875,0.08258056640625,1.00128173828125,1.472930908203125,-3.22998046875,4.717864990234375,1,1.0,1.0,1.0,1.0,10.00
2024-10-11 20:28:17.171,1.0164156,0.87732774,0.46258208,1.185933,0.71574306,0.3952188,0.14129299,1.0021044,0.7541117,0.2995899,-0.32506272,0.6862983,0.4125881,-0.122343436,-0.014225284,0.31008056,-0.27274224,-0.46296397,-0.24637778,-0.20950475,803.8461,801.02563,797.8022,812.71063,921.0989,-0.071044921875,0.08258056640625,1.00128173828125,1.472930908203125,-3.22998046875,4.717864990234375,1,1.0,1.0,1.0,1.0,10.00
2024-10-11 20:28:17.172,1.0164156,0.87732774,0.46258208,1.185933,0.71574306,0.3952188,0.14129299,1.0021044,0.7541117,0.2995899,-0.32506272,0.6862983,0.4125881,-0.122343436,-0.014225284,0.31008056,-0.27274224,-0.46296397,-0.24637778,-0.20950475,796.1905,800.6227,796.1905,807.0696,864.2857,-0.071044921875,0.08258056640625,1.00128173828125,1.472930908203125,-3.22998046875,4.717864990234375,1,1.0,1.0,1.0,1.0,10.00
2024-10-11 20:28:17.173,1.0164156,0.87732774,0.46258208,1.185933,0.71574306,0.3952188,0.14129299,1.0021044,0.7541117,0.2995899,-0.32506272,0.6862983,0.4125881,-0.122343436,-0.014225284,0.31008056,-0.27274224,-0.46296397,-0.24637778,-0.20950475,800.6227,801.02563,803.8461,808.68134,1031.5018,-0.071044921875,0.08258056640625,1.00128173828125,1.472930908203125,-3.22998046875,4.717864990234375,1,1.0,1.0,1.0,1.0,10.00
2024-10-11 20:28:17.173,1.0164156,0.87732774,0.46258208,1.185933,0.71574306,0.3952188,0.14129299,1.0021044,0.7541117,0.2995899,-0.32506272,0.6862983,0.4125881,-0.122343436,-0.014225284,0.31008056,-0.27274224,-0.46296397,-0.24637778,-0.20950475,804.2491,806.6667,806.6667,810.696,888.46155,-0.071044921875,0.08258056640625,1.00128173828125,1.472930908203125,-3.22998046875,4.717864990234375,1,1.0,1.0,1.0,1.0,10.00
2024-10-11 20:28:17.174,1.0164156,0.87732774,0.46258208,1.185933,0.71574306,0.3952188,0.14129299,1.0021044,0.7541117,0.2995899,-0.32506272,0.6862983,0.4125881,-0.122343436,-0.014225284,0.31008056,-0.27274224,-0.46296397,-0.24637778,-0.20950475,802.23444,804.2491,802.6374,808.68134,593.1135,-0.071044921875,0.08258056640625,1.00128173828125,1.472930908203125,-3.22998046875,4.717864990234375,1,1.0,1.0,1.0,1.0,10.00
2024-10-11 20:28:17.175,1.0164156,0.87732774,0.46258208,1.185933,0.71574306,0.3952188,0.14129299,1.0021044,0.7541117,0.2995899,-0.32506272,0.6862983,0.4125881,-0.122343436,-0.014225284,0.31008056,-0.27274224,-0.46296397,-0.24637778,-0.20950475,810.293,798.20514,796.5934,809.89014,623.3333,-0.071044921875,0.08258056640625,1.00128173828125,1.472930908203125,-3.22998046875,4.717864990234375,1,1.0,1.0,1.0,1.0,10.00
2024-10-11 20:28:17.175,1.0164156,0.87732774,0.46258208,1.185933,0.71574306,0.3952188,0.14129299,1.0021044,0.7541117,0.2995899,-0.32506272,0.6862983,0.4125881,-0.122343436,-0.014225284,0.31008056,-0.27274224,-0.46296397,-0.24637778,-0.20950475,810.293,799.011,801.4286,813.1135,997.6557,-0.071044921875,0.08258056640625,1.00128173828125,1.472930908203125,-3.22998046875,4.717864990234375,1,1.0,1.0,1.0,1.0,10.00
2024-10-11 20:28:17.242,1.0164156,0.87732774,0.46258208,1.185933,0.71574306,0.3952188,0.14129299,1.0021044,0.7541117,0.2995899,-0.32506272,0.6862983,0.4125881,-0.122343436,-0.014225284,0.31008056,-0.27274224,-0.46296397,-0.24637778,-0.20950475,801.8315,803.0403,803.8461,808.68134,996.8498,-0.06817626953125,0.09185791015625,1.002197265625,0.64300537109375,-5.884246826171875,2.0037841796875,1,1.0,1.0,1.0,1.0,10.00
2024-10-11 20:28:17.244,1.0164156,0.87732774,0.46258208,1.185933,0.71574306,0.3952188,0.14129299,1.0021044,0.7541117,0.2995899,-0.32506272,0.6862983,0.4125881,-0.122343436,-0.014225284,0.31008056,-0.27274224,-0.46296397,-0.24637778,-0.20950475,799.81683,807.0696,799.41394,805.05493,776.04395,-0.06817626953125,0.09185791015625,1.002197265625,0.64300537109375,-5.884246826171875,2.0037841796875,1,1.0,1.0,1.0,1.0,10.00
2024-10-11 20:28:17.244,1.0164156,0.87732774,0.46258208,1.185933,0.71574306,0.3952188,0.14129299,1.0021044,0.7541117,0.2995899,-0.32506272,0.6862983,0.4125881,-0.122343436,-0.014225284,0.31008056,-0.27274224,-0.46296397,-0.24637778,-0.20950475,796.99634,809.0842,798.20514,810.696,775.2381,-0.06817626953125,0.09185791015625,1.002197265625,0.64300537109375,-5.884246826171875,2.0037841796875,1,1.0,1.0,1.0,1.0,10.00
2024-10-11 20:28:17.245,1.0164156,0.87732774,0.46258208,1.185933,0.71574306,0.3952188,0.14129299,1.0021044,0.7541117,0.2995899,-0.32506272,0.6862983,0.4125881,-0.122343436,-0.014225284,0.31008056,-0.27274224,-0.46296397,-0.24637778,-0.20950475,798.60803,805.4579,802.6374,813.5165,908.60803,-0.06817626953125,0.09185791015625,1.002197265625,0.64300537109375,-5.884246826171875,2.0037841796875,1,1.0,1.0,1.0,1.0,10.00
2024-10-11 20:28:17.246,1.0164156,0.87732774,0.46258208,1.185933,0.71574306,0.3952188,0.14129299,1.0021044,0.7541117,0.2995899,-0.32506272,0.6862983,0.4125881,-0.122343436,-0.014225284,0.31008056,-0.27274224,-0.46296397,-0.24637778,-0.20950475,802.23444,803.44324,803.44324,808.2784,811.9048,-0.06817626953125,0.09185791015625,1.002197265625,0.64300537109375,-5.884246826171875,2.0037841796875,1,1.0,1.0,1.0,1.0,10.00
2024-10-11 20:28:17.246,1.0164156,0.87732774,0.46258208,1.185933,0.71574306,0.3952188,0.14129299,1.0021044,0.7541117,0.2995899,-0.32506272,0.6862983,0.4125881,-0.122343436,-0.014225284,0.31008056,-0.27274224,-0.46296397,-0.24637778,-0.20950475,802.23444,808.2784,804.2491,804.65204,709.9634,-0.06817626953125,0.09185791015625,1.002197265625,0.64300537109375,-5.884246826171875,2.0037841796875,1,1.0,1.0,1.0,1.0,10.00
2024-10-11 20:28:17.247,1.0164156,0.87732774,0.46258208,1.185933,0.71574306,0.3952188,0.14129299,1.0021044,0.7541117,0.2995899,-0.32506272,0.6862983,0.4125881,-0.122343436,-0.014225284,0.31008056,-0.27274224,-0.46296397,-0.24637778,-0.20950475,805.4579,811.50183,806.26373,811.0989,877.5824,-0.06817626953125,0.09185791015625,1.002197265625,0.64300537109375,-5.884246826171875,2.0037841796875,1,1.0,1.0,1.0,1.0,10.00
2024-10-11 20:28:17.248,1.0164156,0.87732774,0.46258208,1.185933,0.71574306,0.3952188,0.14129299,1.0021044,0.7541117,0.2995899,-0.32506272,0.6862983,0.4125881,-0.122343436,-0.014225284,0.31008056,-0.27274224,-0.46296397,-0.24637778,-0.20950475,803.8461,809.4872,802.23444,812.3077,942.8571,-0.06817626953125,0.09185791015625,1.002197265625,0.64300537109375,-5.884246826171875,2.0037841796875,1,1.0,1.0,1.0,1.0,10.00
2024-10-11 20:28:17.249,1.0164156,0.87732774,0.46258208,1.185933,0.71574306,0.3952188,0.14129299,1.0021044,0.7541117,0.2995899,-0.32506272,0.6862983,0.4125881,-0.122343436,-0.014225284,0.31008056,-0.27274224,-0.46296397,-0.24637778,-0.20950475,804.2491,811.9048,794.57874,803.8461,729.707,-0.06817626953125,0.09185791015625,1.002197265625,0.64300537109375,-5.884246826171875,2.0037841796875,1,1.0,1.0,1.0,1.0,10.00
2024-10-11 20:28:17.250,1.0164156,0.87732774,0.46258208,1.185933,0.71574306,0.3952188,0.14129299,1.0021044,0.7541117,0.2995899,-0.32506272,0.6862983,0.4125881,-0.122343436,-0.014225284,0.31008056,-0.27274224,-0.46296397,-0.24637778,-0.20950475,800.2198,811.0989,785.7143,799.81683,531.4652,-0.06817626953125,0.09185791015625,1.002197265625,0.64300537109375,-5.884246826171875,2.0037841796875,1,1.0,1.0,1.0,1.0,10.00
2024-10-11 20:28:17.251,1.0164156,0.87732774,0.46258208,1.185933,0.71574306,0.3952188,0.14129299,1.0021044,0.7541117,0.2995899,-0.32506272,0.6862983,0.4125881,-0.122343436,-0.014225284,0.31008056,-0.27274224,-0.46296397,-0.24637778,-0.20950475,795.78754,809.4872,793.36993,801.02563,620.9158,-0.06817626953125,0.09185791015625,1.002197265625,0.64300537109375,-5.884246826171875,2.0037841796875,1,1.0,1.0,1.0,1.0,10.00
2024-10-11 20:28:17.252,1.0174984,0.83821654,0.46258208,1.1471047,0.67773473,0.4134642,0.14129299,0.9279554,0.7541117,0.2995899,-0.32506272,0.65042,0.40495157,-0.1131661,-0.014225284,0.2907844,-0.27100214,-0.4627298,-0.24637778,-0.21031246,798.60803,807.47253,802.6374,804.2491,824.7985,-0.06817626953125,0.09185791015625,1.002197265625,0.64300537109375,-5.884246826171875,2.0037841796875,1,1.0,1.0,1.0,1.0,10.00
2024-10-11 20:28:17.258,1.0174984,0.83821654,0.46258208,1.1471047,0.67773473,0.4134642,0.14129299,0.9279554,0.7541117,0.2995899,-0.32506272,0.65042,0.40495157,-0.1131661,-0.014225284,0.2907844,-0.27100214,-0.4627298,-0.24637778,-0.21031246,798.20514,803.8461,801.02563,802.6374,712.381,-0.06817626953125,0.09185791015625,1.002197265625,0.64300537109375,-5.884246826171875,2.0037841796875,1,1.0,1.0,1.0,1.0,10.00
2024-10-11 20:28:17.259,1.0174984,0.83821654,0.46258208,1.1471047,0.67773473,0.4134642,0.14129299,0.9279554,0.7541117,0.2995899,-0.32506272,0.65042,0.40495157,-0.1131661,-0.014225284,0.2907844,-0.27100214,-0.4627298,-0.24637778,-0.21031246,799.011,807.47253,802.6374,799.81683,588.68134,-0.06817626953125,0.09185791015625,1.002197265625,0.64300537109375,-5.884246826171875,2.0037841796875,1,1.0,1.0,1.0,1.0,10.00
2024-10-11 20:28:17.259,1.0174984,0.83821654,0.46258208,1.1471047,0.67773473,0.4134642,0.14129299,0.9279554,0.7541117,0.2995899,-0.32506272,0.65042,0.40495157,-0.1131661,-0.014225284,0.2907844,-0.27100214,-0.4627298,-0.24637778,-0.21031246,801.4286,804.2491,799.41394,801.8315,716.8132,-0.06817626953125,0.09185791015625,1.002197265625,0.64300537109375,-5.884246826171875,2.0037841796875,1,1.0,1.0,1.0,1.0,10.00
2024-10-11 20:28:17.260,1.0174984,0.83821654,0.46258208,1.1471047,0.67773473,0.4134642,0.14129299,0.9279554,0.7541117,0.2995899,-0.32506272,0.65042,0.40495157,-0.1131661,-0.014225284,0.2907844,-0.27100214,-0.4627298,-0.24637778,-0.21031246,799.41394,800.6227,794.9817,804.2491,908.60803,-0.06817626953125,0.09185791015625,1.002197265625,0.64300537109375,-5.884246826171875,2.0037841796875,1,1.0,1.0,1.0,1.0,10.00
2024-10-11 20:28:17.261,1.0174984,0.83821654,0.46258208,1.1471047,0.67773473,0.4134642,0.14129299,0.9279554,0.7541117,0.2995899,-0.32506272,0.65042,0.40495157,-0.1131661,-0.014225284,0.2907844,-0.27100214,-0.4627298,-0.24637778,-0.21031246,806.6667,808.2784,797.8022,806.26373,751.06226,-0.06817626953125,0.09185791015625,1.002197265625,0.64300537109375,-5.884246826171875,2.0037841796875,1,1.0,1.0,1.0,1.0,10.00
2024-10-11 20:28:17.262,1.0174984,0.83821654,0.46258208,1.1471047,0.67773473,0.4134642,0.14129299,0.9279554,0.7541117,0.2995899,-0.32506272,0.65042,0.40495157,-0.1131661,-0.014225284,0.2907844,-0.27100214,-0.4627298,-0.24637778,-0.21031246,808.2784,813.1135,800.6227,803.8461,554.0293,-0.06817626953125,0.09185791015625,1.002197265625,0.64300537109375,-5.884246826171875,2.0037841796875,1,1.0,1.0,1.0,1.0,10.00
2024-10-11 20:28:17.262,1.0174984,0.83821654,0.46258208,1.1471047,0.67773473,0.4134642,0.14129299,0.9279554,0.7541117,0.2995899,-0.32506272,0.65042,0.40495157,-0.1131661,-0.014225284,0.2907844,-0.27100214,-0.4627298,-0.24637778,-0.21031246,803.8461,806.6667,797.3993,804.65204,763.1502,-0.06817626953125,0.09185791015625,1.002197265625,0.64300537109375,-5.884246826171875,2.0037841796875,1,1.0,1.0,1.0,1.0,10.00
2024-10-11 20:28:17.263,1.0174984,0.83821654,0.46258208,1.1471047,0.67773473,0.4134642,0.14129299,0.9279554,0.7541117,0.2995899,-0.32506272,0.65042,0.40495157,-0.1131661,-0.014225284,0.2907844,-0.27100214,-0.4627298,-0.24637778,-0.21031246,805.05493,803.0403,799.011,807.47253,858.24176,-0.06817626953125,0.09185791015625,1.002197265625,0.64300537109375,-5.884246826171875,2.0037841796875,1,1.0,1.0,1.0,1.0,10.00
2024-10-11 20:28:17.264,1.0174984,0.83821654,0.46258208,1.1471047,0.67773473,0.4134642,0.14129299,0.9279554,0.7541117,0.2995899,-0.32506272,0.65042,0.40495157,-0.1131661,-0.014225284,0.2907844,-0.27100214,-0.4627298,-0.24637778,-0.21031246,801.02563,803.44324,796.99634,802.6374,618.9011,-0.06817626953125,0.09185791015625,1.002197265625,0.64300537109375,-5.884246826171875,2.0037841796875,1,1.0,1.0,1.0,1.0,10.00
2024-10-11 20:28:17.265,1.0174984,0.83821654,0.46258208,1.1471047,0.67773473,0.4134642,0.14129299,0.9279554,0.7541117,0.2995899,-0.32506272,0.65042,0.40495157,-0.1131661,-0.014225284,0.2907844,-0.27100214,-0.4627298,-0.24637778,-0.21031246,805.4579,803.44324,795.38464,803.0403,604.3956,-0.06817626953125,0.09185791015625,1.002197265625,0.64300537109375,-5.884246826171875,2.0037841796875,1,1.0,1.0,1.0,1.0,10.00
2024-10-11 20:28:17.266,1.0174984,0.83821654,0.46258208,1.1471047,0.67773473,0.4134642,0.14129299,0.9279554,0.7541117,0.2995899,-0.32506272,0.65042,0.40495157,-0.1131661,-0.014225284,0.2907844,-0.27100214,-0.4627298,-0.24637778,-0.21031246,802.23444,803.0403,805.8608,808.68134,816.7399,-0.06817626953125,0.09185791015625,1.002197265625,0.64300537109375,-5.884246826171875,2.0037841796875,1,1.0,1.0,1.0,1.0,10.00
2024-10-11 20:28:17.266,1.0174984,0.83821654,0.46258208,1.1471047,0.67773473,0.4134642,0.14129299,0.9279554,0.7541117,0.2995899,-0.32506272,0.65042,0.40495157,-0.1131661,-0.014225284,0.2907844,-0.27100214,-0.4627298,-0.24637778,-0.21031246,796.99634,803.8461,811.50183,812.3077,801.8315,-0.06817626953125,0.09185791015625,1.002197265625,0.64300537109375,-5.884246826171875,2.0037841796875,1,1.0,1.0,1.0,1.0,10.00
2024-10-11 20:28:17.297,1.0174984,0.83821654,0.46258208,1.1471047,0.67773473,0.4134642,0.14129299,0.9279554,0.7541117,0.2995899,-0.32506272,0.65042,0.40495157,-0.1131661,-0.014225284,0.2907844,-0.27100214,-0.4627298,-0.24637778,-0.21031246,792.5641,803.8461,809.4872,807.8755,552.01465,-0.05224609375,0.09332275390625,1.00115966796875,-1.12152099609375,-6.2506103515625,0.01495361328125,1,1.0,1.0,1.0,1.0,10.00
2024-10-11 20:28:17.299,1.0174984,0.83821654,0.46258208,1.1471047,0.67773473,0.4134642,0.14129299,0.9279554,0.7541117,0.2995899,-0.32506272,0.65042,0.40495157,-0.1131661,-0.014225284,0.2907844,-0.27100214,-0.4627298,-0.24637778,-0.21031246,793.36993,806.26373,801.8315,804.2491,572.5641,-0.05224609375,0.09332275390625,1.00115966796875,-1.12152099609375,-6.2506103515625,0.01495361328125,1,1.0,1.0,1.0,1.0,10.00
2024-10-11 20:28:17.300,1.0174984,0.83821654,0.46258208,1.1471047,0.67773473,0.4134642,0.14129299,0.9279554,0.7541117,0.2995899,-0.32506272,0.65042,0.40495157,-0.1131661,-0.014225284,0.2907844,-0.27100214,-0.4627298,-0.24637778,-0.21031246,800.2198,807.47253,797.8022,802.6374,757.1062,-0.05224609375,0.09332275390625,1.00115966796875,-1.12152099609375,-6.2506103515625,0.01495361328125,1,1.0,1.0,1.0,1.0,10.00
2024-10-11 20:28:17.300,1.0174984,0.83821654,0.46258208,1.1471047,0.67773473,0.4134642,0.14129299,0.9279554,0.7541117,0.2995899,-0.32506272,0.65042,0.40495157,-0.1131661,-0.014225284,0.2907844,-0.27100214,-0.4627298,-0.24637778,-0.21031246,799.41394,801.8315,797.8022,796.1905,734.1392,-0.05224609375,0.09332275390625,1.00115966796875,-1.12152099609375,-6.2506103515625,0.01495361328125,1,1.0,1.0,1.0,1.0,10.00
2024-10-11 20:28:17.301,1.0174984,0.83821654,0.46258208,1.1471047,0.67773473,0.4134642,0.14129299,0.9279554,0.7541117,0.2995899,-0.32506272,0.65042,0.40495157,-0.1131661,-0.014225284,0.2907844,-0.27100214,-0.4627298,-0.24637778,-0.21031246,804.2491,801.8315,800.6227,799.81683,700.696,-0.05224609375,0.09332275390625,1.00115966796875,-1.12152099609375,-6.2506103515625,0.01495361328125,1,1.0,1.0,1.0,1.0,10.00
2024-10-11 20:28:17.302,1.0174984,0.83821654,0.46258208,1.1471047,0.67773473,0.4134642,0.14129299,0.9279554,0.7541117,0.2995899,-0.32506272,0.65042,0.40495157,-0.1131661,-0.014225284,0.2907844,-0.27100214,-0.4627298,-0.24637778,-0.21031246,808.68134,805.05493,797.8022,803.0403,802.23444,-0.05224609375,0.09332275390625,1.00115966796875,-1.12152099609375,-6.2506103515625,0.01495361328125,1,1.0,1.0,1.0,1.0,10.00
2024-10-11 20:28:17.303,1.0174984,0.83821654,0.46258208,1.1471047,0.67773473,0.4134642,0.14129299,0.9279554,0.7541117,0.2995899,-0.32506272,0.65042,0.40495157,-0.1131661,-0.014225284,0.2907844,-0.27100214,-0.4627298,-0.24637778,-0.21031246,808.2784,803.8461,801.02563,801.02563,886.8498,-0.05224609375,0.09332275390625,1.00115966796875,-1.12152099609375,-6.2506103515625,0.01495361328125,1,1.0,1.0,1.0,1.0,10.00
2024-10-11 20:28:17.304,1.0174984,0.83821654,0.46258208,1.1471047,0.67773473,0.4134642,0.14129299,0.9279554,0.7541117,0.2995899,-0.32506272,0.65042,0.40495157,-0.1131661,-0.014225284,0.2907844,-0.27100214,-0.4627298,-0.24637778,-0.21031246,805.8608,806.26373,810.293,803.8461,834.4689,-0.05224609375,0.09332275390625,1.00115966796875,-1.12152099609375,-6.2506103515625,0.01495361328125,1,1.0,1.0,1.0,1.0,10.00
2024-10-11 20:28:17.305,1.0174984,0.83821654,0.46258208,1.1471047,0.67773473,0.4134642,0.14129299,0.9279554,0.7541117,0.2995899,-0.32506272,0.65042,0.40495157,-0.1131661,-0.014225284,0.2907844,-0.27100214,-0.4627298,-0.24637778,-0.21031246,803.44324,806.6667,807.8755,805.4579,707.9487,-0.05224609375,0.09332275390625,1.00115966796875,-1.12152099609375,-6.2506103515625,0.01495361328125,1,1.0,1.0,1.0,1.0,10.00
2024-10-11 20:28:17.305,1.0174984,0.83821654,0.46258208,1.1471047,0.67773473,0.4134642,0.14129299,0.9279554,0.7541117,0.2995899,-0.32506272,0.65042,0.40495157,-0.1131661,-0.014225284,0.2907844,-0.27100214,-0.4627298,-0.24637778,-0.21031246,801.8315,805.4579,805.05493,805.4579,706.7399,-0.05224609375,0.09332275390625,1.00115966796875,-1.12152099609375,-6.2506103515625,0.01495361328125,1,1.0,1.0,1.0,1.0,10.00
2024-10-11 20:28:17.306,1.0174984,0.83821654,0.46258208,1.1471047,0.67773473,0.4134642,0.14129299,0.9279554,0.7541117,0.2995899,-0.32506272,0.65042,0.40495157,-0.1131661,-0.014225284,0.2907844,-0.27100214,-0.4627298,-0.24637778,-0.21031246,796.99634,803.44324,798.20514,807.8755,1158.4249,-0.05224609375,0.09332275390625,1.00115966796875,-1.12152099609375,-6.2506103515625,0.01495361328125,1,1.0,1.0,1.0,1.0,10.00
2024-10-11 20:28:17.307,1.0174984,0.83821654,0.46258208,1.1471047,0.67773473,0.4134642,0.14129299,0.9279554,0.7541117,0.2995899,-0.32506272,0.65042,0.40495157,-0.1131661,-0.014225284,0.2907844,-0.27100214,-0.4627298,-0.24637778,-0.21031246,794.9817,803.44324,791.3553,811.0989,1230.5494,-0.05224609375,0.09332275390625,1.00115966796875,-1.12152099609375,-6.2506103515625,0.01495361328125,1,1.0,1.0,1.0,1.0,10.00
2024-10-11 20:28:17.346,1.0174984,0.83821654,0.46258208,1.1471047,0.67773473,0.4134642,0.14129299,0.9279554,0.7541117,0.2995899,-0.32506272,0.65042,0.40495157,-0.1131661,-0.014225284,0.2907844,-0.27100214,-0.4627298,-0.24637778,-0.21031246,807.47253,809.0842,797.3993,808.68134,761.13556,-0.054931640625,0.0787353515625,1.01544189453125,-3.46923828125,-7.394561767578125,-2.534637451171875,1,1.0,1.0,1.0,1.0,10.00
2024-10-11 20:28:17.347,1.0130551,0.80550563,0.46258208,1.0945383,0.6189338,0.4289011,0.14129299,0.82611203,0.7541117,0.2995899,-0.32506272,0.6027627,0.39060104,-0.104618944,-0.014225284,0.26654974,-0.26172176,-0.45882985,-0.24637778,-0.19850118,810.293,809.4872,799.81683,805.4579,599.9634,-0.054931640625,0.0787353515625,1.01544189453125,-3.46923828125,-7.394561767578125,-2.534637451171875,1,1.0,1.0,1.0,1.0,10.00
2024-10-11 20:28:17.354,1.0130551,0.80550563,0.46258208,1.0945383,0.6189338,0.4289011,0.14129299,0.82611203,0.7541117,0.2995899,-0.32506272,0.6027627,0.39060104,-0.104618944,-0.014225284,0.26654974,-0.26172176,-0.45882985,-0.24637778,-0.19850118,805.4579,808.2784,794.57874,807.8755,616.8865,-0.054931640625,0.0787353515625,1.01544189453125,-3.46923828125,-7.394561767578125,-2.534637451171875,1,1.0,1.0,1.0,1.0,10.00
2024-10-11 20:28:17.355,1.0130551,0.80550563,0.46258208,1.0945383,0.6189338,0.4289011,0.14129299,0.82611203,0.7541117,0.2995899,-0.32506272,0.6027627,0.39060104,-0.104618944,-0.014225284,0.26654974,-0.26172176,-0.45882985,-0.24637778,-0.19850118,802.23444,804.2491,797.3993,806.26373,549.19415,-0.054931640625,0.0787353515625,1.01544189453125,-3.46923828125,-7.394561767578125,-2.534637451171875,1,1.0,1.0,1.0,1.0,10.00
2024-10-11 20:28:17.356,1.0130551,0.80550563,0.46258208,1.0945383,0.6189338,0.4289011,0.14129299,0.82611203,0.7541117,0.2995899,-0.32506272,0.6027627,0.39060104,-0.104618944,-0.014225284,0.26654974,-0.26172176,-0.45882985,-0.24637778,-0.19850118,797.8022,796.99634,801.02563,803.0403,662.4176,-0.054931640625,0.0787353515625,1.01544189453125,-3.46923828125,-7.394561767578125,-2.534637451171875,1,1.0,1.0,1.0,1.0,10.00
2024-10-11 20:28:17.357,1.0130551,0.80550563,0.46258208,1.0945383,0.6189338,0.4289011,0.14129299,0.82611203,0.7541117,0.2995899,-0.32506272,0.6027627,0.39060104,-0.104618944,-0.014225284,0.26654974,-0.26172176,-0.45882985,-0.24637778,-0.19850118,802.23444,797.8022,800.6227,803.8461,925.9341,-0.054931640625,0.0787353515625,1.01544189453125,-3.46923828125,-7.394561767578125,-2.534637451171875,1,1.0,1.0,1.0,1.0,10.00
2024-10-11 20:28:17.358,1.0130551,0.80550563,0.46258208,1.0945383,0.6189338,0.4289011,0.14129299,0.82611203,0.7541117,0.2995899,-0.32506272,0.6027627,0.39060104,-0.104618944,-0.014225284,0.26654974,-0.26172176,-0.45882985,-0.24637778,-0.19850118,807.0696,806.26373,801.8315,804.65204,935.2015,-0.054931640625,0.0787353515625,1.01544189453125,-3.46923828125,-7.394561767578125,-2.534637451171875,1,1.0,1.0,1.0,1.0,10.00
2024-10-11 20:28:17.358,1.0130551,0.80550563,0.46258208,1.0945383,0.6189338,0.4289011,0.14129299,0.82611203,0.7541117,0.2995899,-0.32506272,0.6027627,0.39060104,-0.104618944,-0.014225284,0.26654974,-0.26172176,-0.45882985,-0.24637778,-0.19850118,801.8315,807.47253,798.60803,800.6227,718.4249,-0.054931640625,0.0787353515625,1.01544189453125,-3.46923828125,-7.394561767578125,-2.534637451171875,1,1.0,1.0,1.0,1.0,10.00
2024-10-11 20:28:17.359,1.0130551,0.80550563,0.46258208,1.0945383,0.6189338,0.4289011,0.14129299,0.82611203,0.7541117,0.2995899,-0.32506272,0.6027627,0.39060104,-0.104618944,-0.014225284,0.26654974,-0.26172176,-0.45882985,-0.24637778,-0.19850118,799.81683,798.60803,798.20514,799.41394,638.6447,-0.054931640625,0.0787353515625,1.01544189453125,-3.46923828125,-7.394561767578125,-2.534637451171875,1,1.0,1.0,1.0,1.0,10.00
2024-10-11 20:28:17.360,1.0130551,0.80550563,0.46258208,1.0945383,0.6189338,0.4289011,0.14129299,0.82611203,0.7541117,0.2995899,-0.32506272,0.6027627,0.39060104,-0.104618944,-0.014225284,0.26654974,-0.26172176,-0.45882985,-0.24637778,-0.19850118,802.23444,796.99634,799.011,799.41394,992.8205,-0.054931640625,0.0787353515625,1.01544189453125,-3.46923828125,-7.394561767578125,-2.534637451171875,1,1.0,1.0,1.0,1.0,10.00
2024-10-11 20:28:17.360,1.0130551,0.80550563,0.46258208,1.0945383,0.6189338,0.4289011,0.14129299,0.82611203,0.7541117,0.2995899,-0.32506272,0.6027627,0.39060104,-0.104618944,-0.014225284,0.26654974,-0.26172176,-0.45882985,-0.24637778,-0.19850118,795.78754,799.011,796.1905,796.5934,1017.3993,-0.054931640625,0.0787353515625,1.01544189453125,-3.46923828125,-7.394561767578125,-2.534637451171875,1,1.0,1.0,1.0,1.0,10.00
2024-10-11 20:28:17.361,1.0130551,0.80550563,0.46258208,1.0945383,0.6189338,0.4289011,0.14129299,0.82611203,0.7541117,0.2995899,-0.32506272,0.6027627,0.39060104,-0.104618944,-0.014225284,0.26654974,-0.26172176,-0.45882985,-0.24637778,-0.19850118,792.1612,791.75824,788.93774,793.36993,692.23444,-0.054931640625,0.0787353515625,1.01544189453125,-3.46923828125,-7.394561767578125,-2.534637451171875,1,1.0,1.0,1.0,1.0,10.00
2024-10-11 20:28:17.430,1.0130551,0.80550563,0.46258208,1.0945383,0.6189338,0.4289011,0.14129299,0.82611203,0.7541117,0.2995899,-0.32506272,0.6027627,0.39060104,-0.104618944,-0.014225284,0.26654974,-0.26172176,-0.45882985,-0.24637778,-0.19850118,790.14655,787.326,793.7729,790.54944,631.39197,-0.0556640625,0.06597900390625,1.01239013671875,-3.12530517578125,-4.119720458984375,-6.631927490234375,1,1.0,1.0,1.0,1.0,10.00
2024-10-11 20:28:17.431,1.0130551,0.80550563,0.46258208,1.0945383,0.6189338,0.4289011,0.14129299,0.82611203,0.7541117,0.2995899,-0.32506272,0.6027627,0.39060104,-0.104618944,-0.014225284,0.26654974,-0.26172176,-0.45882985,-0.24637778,-0.19850118,792.1612,790.9524,803.44324,800.6227,922.3077,-0.0556640625,0.06597900390625,1.01239013671875,-3.12530517578125,-4.119720458984375,-6.631927490234375,1,1.0,1.0,1.0,1.0,10.00
2024-10-11 20:28:17.431,1.0130551,0.80550563,0.46258208,1.0945383,0.6189338,0.4289011,0.14129299,0.82611203,0.7541117,0.2995899,-0.32506272,0.6027627,0.39060104,-0.104618944,-0.014225284,0.26654974,-0.26172176,-0.45882985,-0.24637778,-0.19850118,798.20514,800.6227,809.0842,809.0842,956.55676,-0.0556640625,0.06597900390625,1.01239013671875,-3.12530517578125,-4.119720458984375,-6.631927490234375,1,1.0,1.0,1.0,1.0,10.00
2024-10-11 20:28:17.432,1.0130551,0.80550563,0.46258208,1.0945383,0.6189338,0.4289011,0.14129299,0.82611203,0.7541117,0.2995899,-0.32506272,0.6027627,0.39060104,-0.104618944,-0.014225284,0.26654974,-0.26172176,-0.45882985,-0.24637778,-0.19850118,794.57874,803.0403,807.8755,801.02563,595.9341,-0.0556640625,0.06597900390625,1.01239013671875,-3.12530517578125,-4.119720458984375,-6.631927490234375,1,1.0,1.0,1.0,1.0,10.00
2024-10-11 20:28:17.433,1.0130551,0.80550563,0.46258208,1.0945383,0.6189338,0.4289011,0.14129299,0.82611203,0.7541117,0.2995899,-0.32506272,0.6027627,0.39060104,-0.104618944,-0.014225284,0.26654974,-0.26172176,-0.45882985,-0.24637778,-0.19850118,796.99634,802.6374,802.6374,801.02563,633.00366,-0.0556640625,0.06597900390625,1.01239013671875,-3.12530517578125,-4.119720458984375,-6.631927490234375,1,1.0,1.0,1.0,1.0,10.00
2024-10-11 20:28:17.434,1.0130551,0.80550563,0.46258208,1.0945383,0.6189338,0.4289011,0.14129299,0.82611203,0.7541117,0.2995899,-0.32506272,0.6027627,0.39060104,-0.104618944,-0.014225284,0.26654974,-0.26172176,-0.45882985,-0.24637778,-0.19850118,797.3993,800.2198,799.81683,806.6667,942.4542,-0.0556640625,0.06597900390625,1.01239013671875,-3.12530517578125,-4.119720458984375,-6.631927490234375,1,1.0,1.0,1.0,1.0,10.00
2024-10-11 20:28:17.435,1.0130551,0.80550563,0.46258208,1.0945383,0.6189338,0.4289011,0.14129299,0.82611203,0.7541117,0.2995899,-0.32506272,0.6027627,0.39060104,-0.104618944,-0.014225284,0.26654974,-0.26172176,-0.45882985,-0.24637778,-0.19850118,797.3993,799.41394,795.78754,804.2491,966.2271,-0.0556640625,0.06597900390625,1.01239013671875,-3.12530517578125,-4.119720458984375,-6.631927490234375,1,1.0,1.0,1.0,1.0,10.00
2024-10-11 20:28:17.436,1.0130551,0.80550563,0.46258208,1.0945383,0.6189338,0.4289011,0.14129299,0.82611203,0.7541117,0.2995899,-0.32506272,0.6027627,0.39060104,-0.104618944,-0.014225284,0.26654974,-0.26172176,-0.45882985,-0.24637778,-0.19850118,800.6227,802.6374,796.1905,801.4286,761.9414,-0.0556640625,0.06597900390625,1.01239013671875,-3.12530517578125,-4.119720458984375,-6.631927490234375,1,1.0,1.0,1.0,1.0,10.00
2024-10-11 20:28:17.439,1.0130551,0.80550563,0.46258208,1.0945383,0.6189338,0.4289011,0.14129299,0.82611203,0.7541117,0.2995899,-0.32506272,0.6027627,0.39060104,-0.104618944,-0.014225284,0.26654974,-0.26172176,-0.45882985,-0.24637778,-0.19850118,801.02563,799.41394,788.93774,803.44324,767.5824,-0.0556640625,0.06597900390625,1.01239013671875,-3.12530517578125,-4.119720458984375,-6.631927490234375,1,1.0,1.0,1.0,1.0,10.00
2024-10-11 20:28:17.440,1.0130551,0.80550563,0.46258208,1.0945383,0.6189338,0.4289011,0.14129299,0.82611203,0.7541117,0.2995899,-0.32506272,0.6027627,0.39060104,-0.104618944,-0.014225284,0.26654974,-0.26172176,-0.45882985,-0.24637778,-0.19850118,798.20514,798.20514,786.9231,804.65204,1074.6154,-0.0556640625,0.06597900390625,1.01239013671875,-3.12530517578125,-4.119720458984375,-6.631927490234375,1,1.0,1.0,1.0,1.0,10.00
2024-10-11 20:28:17.441,1.0130551,0.80550563,0.46258208,1.0945383,0.6189338,0.4289011,0.14129299,0.82611203,0.7541117,0.2995899,-0.32506272,0.6027627,0.39060104,-0.104618944,-0.014225284,0.26654974,-0.26172176,-0.45882985,-0.24637778,-0.19850118,801.8315,804.65204,800.2198,805.4579,912.23444,-0.0556640625,0.06597900390625,1.01239013671875,-3.12530517578125,-4.119720458984375,-6.631927490234375,1,1.0,1.0,1.0,1.0,10.00
2024-10-11 20:28:17.441,1.0130551,0.80550563,0.46258208,1.0945383,0.6189338,0.4289011,0.14129299,0.82611203,0.7541117,0.2995899,-0.32506272,0.6027627,0.39060104,-0.104618944,-0.014225284,0.26654974,-0.26172176,-0.45882985,-0.24637778,-0.19850118,799.41394,800.2198,803.44324,799.81683,625.7509,-0.0556640625,0.06597900390625,1.01239013671875,-3.12530517578125,-4.119720458984375,-6.631927490234375,1,1.0,1.0,1.0,1.0,10.00
2024-10-11 20:28:17.443,1.0130551,0.80550563,0.46258208,1.0945383,0.6189338,0.4289011,0.14129299,0.82611203,0.7541117,0.2995899,-0.32506272,0.6027627,0.39060104,-0.104618944,-0.014225284,0.26654974,-0.26172176,-0.45882985,-0.24637778,-0.19850118,797.3993,791.3553,801.4286,801.4286,779.2674,-0.0511474609375,0.06634521484375,0.99920654296875,-1.3458251953125,-4.598236083984375,-8.8226318359375,1,1.0,1.0,1.0,1.0,10.00
2024-10-11 20:28:17.444,1.0130551,0.80550563,0.46258208,1.0945383,0.6189338,0.4289011,0.14129299,0.82611203,0.7541117,0.2995899,-0.32506272,0.6027627,0.39060104,-0.104618944,-0.014225284,0.26654974,-0.26172176,-0.45882985,-0.24637778,-0.19850118,799.41394,794.17584,803.8461,810.293,887.25275,-0.0511474609375,0.06634521484375,0.99920654296875,-1.3458251953125,-4.598236083984375,-8.8226318359375,1,1.0,1.0,1.0,1.0,10.00
2024-10-11 20:28:17.444,1.0130551,0.80550563,0.46258208,1.0945383,0.6189338,0.4289011,0.14129299,0.82611203,0.7541117,0.2995899,-0.32506272,0.6027627,0.39060104,-0.104618944,-0.014225284,0.26654974,-0.26172176,-0.45882985,-0.24637778,-0.19850118,799.81683,798.20514,798.20514,801.4286,743.4066,-0.0511474609375,0.06634521484375,0.99920654296875,-1.3458251953125,-4.598236083984375,-8.8226318359375,1,1.0,1.0,1.0,1.0,10.00
2024-10-11 20:28:17.445,0.9944586,0.8003554,0.46258208,1.0304903,0.54183066,0.44085607,0.14129299,0.70636773,0.7275042,0.2995899,-0.32506272,0.535767,0.37164062,-0.09721187,-0.014225284,0.23750319,-0.24122289,-0.45375237,-0.24637778,-0.1717633,803.8461,795.78754,794.57874,796.1905,652.3443,-0.0511474609375,0.06634521484375,0.99920654296875,-1.3458251953125,-4.598236083984375,-8.8226318359375,1,1.0,1.0,1.0,1.0,10.00
2024-10-11 20:28:17.452,0.9944586,0.8003554,0.46258208,1.0304903,0.54183066,0.44085607,0.14129299,0.70636773,0.7275042,0.2995899,-0.32506272,0.535767,0.37164062,-0.09721187,-0.014225284,0.23750319,-0.24122289,-0.45375237,-0.24637778,-0.1717633,800.6227,796.5934,796.5934,792.1612,671.28204,-0.0511474609375,0.06634521484375,0.99920654296875,-1.3458251953125,-4.598236083984375,-8.8226318359375,1,1.0,1.0,1.0,1.0,10.00
2024-10-11 20:28:17.453,0.9944586,0.8003554,0.46258208,1.0304903,0.54183066,0.44085607,0.14129299,0.70636773,0.7275042,0.2995899,-0.32506272,0.535767,0.37164062,-0.09721187,-0.014225284,0.23750319,-0.24122289,-0.45375237,-0.24637778,-0.1717633,795.78754,795.78754,795.38464,786.52014,780.4762,-0.0511474609375,0.06634521484375,0.99920654296875,-1.3458251953125,-4.598236083984375,-8.8226318359375,1,1.0,1.0,1.0,1.0,10.00
2024-10-11 20:28:17.454,0.9944586,0.8003554,0.46258208,1.0304903,0.54183066,0.44085607,0.14129299,0.70636773,0.7275042,0.2995899,-0.32506272,0.535767,0.37164062,-0.09721187,-0.014225284,0.23750319,-0.24122289,-0.45375237,-0.24637778,-0.1717633,794.57874,794.9817,796.99634,790.14655,811.0989,-0.0511474609375,0.06634521484375,0.99920654296875,-1.3458251953125,-4.598236083984375,-8.8226318359375,1,1.0,1.0,1.0,1.0,10.00
2024-10-11 20:28:17.455,0.9944586,0.8003554,0.46258208,1.0304903,0.54183066,0.44085607,0.14129299,0.70636773,0.7275042,0.2995899,-0.32506272,0.535767,0.37164062,-0.09721187,-0.014225284,0.23750319,-0.24122289,-0.45375237,-0.24637778,-0.1717633,794.9817,796.1905,788.93774,795.78754,773.22345,-0.0511474609375,0.06634521484375,0.99920654296875,-1.3458251953125,-4.598236083984375,-8.8226318359375,1,1.0,1.0,1.0,1.0,10.00
2024-10-11 20:28:17.456,0.9944586,0.8003554,0.46258208,1.0304903,0.54183066,0.44085607,0.14129299,0.70636773,0.7275042,0.2995899,-0.32506272,0.535767,0.37164062,-0.09721187,-0.014225284,0.23750319,-0.24122289,-0.45375237,-0.24637778,-0.1717633,802.23444,795.78754,789.7436,799.81683,848.97437,-0.0511474609375,0.06634521484375,0.99920654296875,-1.3458251953125,-4.598236083984375,-8.8226318359375,1,1.0,1.0,1.0,1.0,10.00
2024-10-11 20:28:17.457,0.9944586,0.8003554,0.46258208,1.0304903,0.54183066,0.44085607,0.14129299,0.70636773,0.7275042,0.2995899,-0.32506272,0.535767,0.37164062,-0.09721187,-0.014225284,0.23750319,-0.24122289,-0.45375237,-0.24637778,-0.1717633,798.60803,797.3993,805.4579,800.6227,775.64105,-0.0511474609375,0.06634521484375,0.99920654296875,-1.3458251953125,-4.598236083984375,-8.8226318359375,1,1.0,1.0,1.0,1.0,10.00
2024-10-11 20:28:17.458,0.9944586,0.8003554,0.46258208,1.0304903,0.54183066,0.44085607,0.14129299,0.70636773,0.7275042,0.2995899,-0.32506272,0.535767,0.37164062,-0.09721187,-0.014225284,0.23750319,-0.24122289,-0.45375237,-0.24637778,-0.1717633,794.57874,800.2198,809.4872,802.6374,624.1392,-0.0511474609375,0.06634521484375,0.99920654296875,-1.3458251953125,-4.598236083984375,-8.8226318359375,1,1.0,1.0,1.0,1.0,10.00
2024-10-11 20:28:17.458,0.9944586,0.8003554,0.46258208,1.0304903,0.54183066,0.44085607,0.14129299,0.70636773,0.7275042,0.2995899,-0.32506272,0.535767,0.37164062,-0.09721187,-0.014225284,0.23750319,-0.24122289,-0.45375237,-0.24637778,-0.1717633,798.60803,800.2198,812.71063,807.47253,763.95605,-0.0511474609375,0.06634521484375,0.99920654296875,-1.3458251953125,-4.598236083984375,-8.8226318359375,1,1.0,1.0,1.0,1.0,10.00
2024-10-11 20:28:17.493,0.9944586,0.8003554,0.46258208,1.0304903,0.54183066,0.44085607,0.14129299,0.70636773,0.7275042,0.2995899,-0.32506272,0.535767,0.37164062,-0.09721187,-0.014225284,0.23750319,-0.24122289,-0.45375237,-0.24637778,-0.1717633,794.9817,801.8315,806.26373,803.44324,875.16486,-0.0511474609375,0.06634521484375,0.99920654296875,-1.3458251953125,-4.598236083984375,-8.8226318359375,1,1.0,1.0,1.0,1.0,10.00
2024-10-11 20:28:17.494,0.9944586,0.8003554,0.46258208,1.0304903,0.54183066,0.44085607,0.14129299,0.70636773,0.7275042,0.2995899,-0.32506272,0.535767,0.37164062,-0.09721187,-0.014225284,0.23750319,-0.24122289,-0.45375237,-0.24637778,-0.1717633,789.34064,800.2198,799.011,801.02563,823.1868,-0.0511474609375,0.06634521484375,0.99920654296875,-1.3458251953125,-4.598236083984375,-8.8226318359375,1,1.0,1.0,1.0,1.0,10.00
2024-10-11 20:28:17.495,0.9944586,0.8003554,0.46258208,1.0304903,0.54183066,0.44085607,0.14129299,0.70636773,0.7275042,0.2995899,-0.32506272,0.535767,0.37164062,-0.09721187,-0.014225284,0.23750319,-0.24122289,-0.45375237,-0.24637778,-0.1717633,786.1172,792.96704,801.8315,805.8608,747.03296,-0.0511474609375,0.06634521484375,0.99920654296875,-1.3458251953125,-4.598236083984375,-8.8226318359375,1,1.0,1.0,1.0,1.0,10.00
2024-10-11 20:28:17.495,0.9944586,0.8003554,0.46258208,1.0304903,0.54183066,0.44085607,0.14129299,0.70636773,0.7275042,0.2995899,-0.32506272,0.535767,0.37164062,-0.09721187,-0.014225284,0.23750319,-0.24122289,-0.45375237,-0.24637778,-0.1717633,792.96704,793.36993,804.65204,808.68134,813.91943,-0.0511474609375,0.06634521484375,0.99920654296875,-1.3458251953125,-4.598236083984375,-8.8226318359375,1,1.0,1.0,1.0,1.0,10.00
2024-10-11 20:28:17.496,0.9944586,0.8003554,0.46258208,1.0304903,0.54183066,0.44085607,0.14129299,0.70636773,0.7275042,0.2995899,-0.32506272,0.535767,0.37164062,-0.09721187,-0.014225284,0.23750319,-0.24122289,-0.45375237,-0.24637778,-0.1717633,808.68134,794.57874,796.1905,809.4872,1065.348,-0.0511474609375,0.06634521484375,0.99920654296875,-1.3458251953125,-4.598236083984375,-8.8226318359375,1,1.0,1.0,1.0,1.0,10.00
2024-10-11 20:28:17.497,0.9944586,0.8003554,0.46258208,1.0304903,0.54183066,0.44085607,0.14129299,0.70636773,0.7275042,0.2995899,-0.32506272,0.535767,0.37164062,-0.09721187,-0.014225284,0.23750319,-0.24122289,-0.45375237,-0.24637778,-0.1717633,813.1135,799.81683,790.9524,801.02563,981.53845,-0.0511474609375,0.06634521484375,0.99920654296875,-1.3458251953125,-4.598236083984375,-8.8226318359375,1,1.0,1.0,1.0,1.0,10.00
2024-10-11 20:28:17.498,0.9944586,0.8003554,0.46258208,1.0304903,0.54183066,0.44085607,0.14129299,0.70636773,0.7275042,0.2995899,-0.32506272,0.535767,0.37164062,-0.09721187,-0.014225284,0.23750319,-0.24122289,-0.45375237,-0.24637778,-0.1717633,807.0696,800.6227,801.4286,800.2198,730.5128,-0.0511474609375,0.06634521484375,0.99920654296875,-1.3458251953125,-4.598236083984375,-8.8226318359375,1,1.0,1.0,1.0,1.0,10.00
2024-10-11 20:28:17.499,0.9944586,0.8003554,0.46258208,1.0304903,0.54183066,0.44085607,0.14129299,0.70636773,0.7275042,0.2995899,-0.32506272,0.535767,0.37164062,-0.09721187,-0.014225284,0.23750319,-0.24122289,-0.45375237,-0.24637778,-0.1717633,802.23444,795.38464,809.0842,802.6374,721.6484,-0.0511474609375,0.06634521484375,0.99920654296875,-1.3458251953125,-4.598236083984375,-8.8226318359375,1,1.0,1.0,1.0,1.0,10.00
2024-10-11 20:28:17.500,0.9944586,0.8003554,0.46258208,1.0304903,0.54183066,0.44085607,0.14129299,0.70636773,0.7275042,0.2995899,-0.32506272,0.535767,0.37164062,-0.09721187,-0.014225284,0.23750319,-0.24122289,-0.45375237,-0.24637778,-0.1717633,794.17584,790.14655,805.4579,806.26373,1086.3004,-0.0511474609375,0.06634521484375,0.99920654296875,-1.3458251953125,-4.598236083984375,-8.8226318359375,1,1.0,1.0,1.0,1.0,10.00
2024-10-11 20:28:17.501,0.9944586,0.8003554,0.46258208,1.0304903,0.54183066,0.44085607,0.14129299,0.70636773,0.7275042,0.2995899,-0.32506272,0.535767,0.37164062,-0.09721187,-0.014225284,0.23750319,-0.24122289,-0.45375237,-0.24637778,-0.1717633,792.1612,792.1612,802.6374,808.2784,1218.8645,-0.0511474609375,0.06634521484375,0.99920654296875,-1.3458251953125,-4.598236083984375,-8.8226318359375,1,1.0,1.0,1.0,1.0,10.00
2024-10-11 20:28:17.502,0.9944586,0.8003554,0.46258208,1.0304903,0.54183066,0.44085607,0.14129299,0.70636773,0.7275042,0.2995899,-0.32506272,0.535767,0.37164062,-0.09721187,-0.014225284,0.23750319,-0.24122289,-0.45375237,-0.24637778,-0.1717633,799.81683,802.23444,805.05493,801.4286,778.86444,-0.0511474609375,0.06634521484375,0.99920654296875,-1.3458251953125,-4.598236083984375,-8.8226318359375,1,1.0,1.0,1.0,1.0,10.00
2024-10-11 20:28:17.504,0.9944586,0.8003554,0.46258208,1.0304903,0.54183066,0.44085607,0.14129299,0.70636773,0.7275042,0.2995899,-0.32506272,0.535767,0.37164062,-0.09721187,-0.014225284,0.23750319,-0.24122289,-0.45375237,-0.24637778,-0.1717633,797.8022,802.6374,794.17584,793.7729,646.7033,-0.0511474609375,0.06634521484375,0.99920654296875,-1.3458251953125,-4.598236083984375,-8.8226318359375,1,1.0,1.0,1.0,1.0,10.00
2024-10-11 20:28:17.539,0.9944586,0.8003554,0.46258208,1.0304903,0.54183066,0.44085607,0.14129299,0.70636773,0.7275042,0.2995899,-0.32506272,0.535767,0.37164062,-0.09721187,-0.014225284,0.23750319,-0.24122289,-0.45375237,-0.24637778,-0.1717633,789.34064,794.9817,788.93774,791.75824,716.4103,-0.04864501953125,0.07415771484375,1.00640869140625,-1.31591796875,-4.658050537109375,-6.856231689453125,1,1.0,1.0,1.0,1.0,10.00
2024-10-11 20:28:17.540,0.9944586,0.8003554,0.46258208,1.0304903,0.54183066,0.44085607,0.14129299,0.70636773,0.7275042,0.2995899,-0.32506272,0.535767,0.37164062,-0.09721187,-0.014225284,0.23750319,-0.24122289,-0.45375237,-0.24637778,-0.1717633,788.1319,795.38464,790.9524,790.54944,718.8278,-0.04864501953125,0.07415771484375,1.00640869140625,-1.31591796875,-4.658050537109375,-6.856231689453125,1,1.0,1.0,1.0,1.0,10.00
2024-10-11 20:28:17.541,0.9944586,0.8003554,0.46258208,1.0304903,0.54183066,0.44085607,0.14129299,0.70636773,0.7275042,0.2995899,-0.32506272,0.535767,0.37164062,-0.09721187,-0.014225284,0.23750319,-0.24122289,-0.45375237,-0.24637778,-0.1717633,789.7436,801.8315,800.2198,792.5641,697.47253,-0.04864501953125,0.07415771484375,1.00640869140625,-1.31591796875,-4.658050537109375,-6.856231689453125,1,1.0,1.0,1.0,1.0,10.00
2024-10-11 20:28:17.541,0.9944586,0.8003554,0.46258208,1.0304903,0.54183066,0.44085607,0.14129299,0.70636773,0.7275042,0.2995899,-0.32506272,0.535767,0.37164062,-0.09721187,-0.014225284,0.23750319,-0.24122289,-0.45375237,-0.24637778,-0.1717633,792.5641,794.57874,804.65204,790.9524,706.7399,-0.04864501953125,0.07415771484375,1.00640869140625,-1.31591796875,-4.658050537109375,-6.856231689453125,1,1.0,1.0,1.0,1.0,10.00
2024-10-11 20:28:17.542,0.9944586,0.8003554,0.46258208,1.0304903,0.54183066,0.44085607,0.14129299,0.70636773,0.7275042,0.2995899,-0.32506272,0.535767,0.37164062,-0.09721187,-0.014225284,0.23750319,-0.24122289,-0.45375237,-0.24637778,-0.1717633,797.3993,789.7436,803.8461,785.7143,676.52014,-0.04864501953125,0.07415771484375,1.00640869140625,-1.31591796875,-4.658050537109375,-6.856231689453125,1,1.0,1.0,1.0,1.0,10.00
2024-10-11 20:28:17.543,0.9602267,0.82720023,0.41874564,0.9551199,0.4543727,0.4549095,0.060053095,0.5738792,0.65326273,0.28671944,-0.33350396,0.44602334,0.35169053,-0.09554682,-0.009363559,0.20505925,-0.21264161,-0.45431238,-0.25543633,-0.13326748,805.05493,795.38464,807.47253,790.14655,704.7253,-0.04864501953125,0.07415771484375,1.00640869140625,-1.31591796875,-4.658050537109375,-6.856231689453125,1,1.0,1.0,1.0,1.0,10.00
2024-10-11 20:28:17.549,0.9602267,0.82720023,0.41874564,0.9551199,0.4543727,0.4549095,0.060053095,0.5738792,0.65326273,0.28671944,-0.33350396,0.44602334,0.35169053,-0.09554682,-0.009363559,0.20505925,-0.21264161,-0.45431238,-0.25543633,-0.13326748,799.81683,795.38464,803.44324,787.326,754.2857,-0.04864501953125,0.07415771484375,1.00640869140625,-1.31591796875,-4.658050537109375,-6.856231689453125,1,1.0,1.0,1.0,1.0,10.00
2024-10-11 20:28:17.550,0.9602267,0.82720023,0.41874564,0.9551199,0.4543727,0.4549095,0.060053095,0.5738792,0.65326273,0.28671944,-0.33350396,0.44602334,0.35169053,-0.09554682,-0.009363559,0.20505925,-0.21264161,-0.45431238,-0.25543633,-0.13326748,793.7729,794.17584,797.8022,786.1172,1005.7143,-0.04864501953125,0.07415771484375,1.00640869140625,-1.31591796875,-4.658050537109375,-6.856231689453125,1,1.0,1.0,1.0,1.0,10.00
2024-10-11 20:28:17.551,0.9602267,0.82720023,0.41874564,0.9551199,0.4543727,0.4549095,0.060053095,0.5738792,0.65326273,0.28671944,-0.33350396,0.44602334,0.35169053,-0.09554682,-0.009363559,0.20505925,-0.21264161,-0.45431238,-0.25543633,-0.13326748,794.17584,790.9524,794.57874,793.36993,1055.6776,-0.04864501953125,0.07415771484375,1.00640869140625,-1.31591796875,-4.658050537109375,-6.856231689453125,1,1.0,1.0,1.0,1.0,10.00
2024-10-11 20:28:17.552,0.9602267,0.82720023,0.41874564,0.9551199,0.4543727,0.4549095,0.060053095,0.5738792,0.65326273,0.28671944,-0.33350396,0.44602334,0.35169053,-0.09554682,-0.009363559,0.20505925,-0.21264161,-0.45431238,-0.25543633,-0.13326748,795.38464,791.3553,796.5934,790.54944,735.7509,-0.04864501953125,0.07415771484375,1.00640869140625,-1.31591796875,-4.658050537109375,-6.856231689453125,1,1.0,1.0,1.0,1.0,10.00
2024-10-11 20:28:17.553,0.9602267,0.82720023,0.41874564,0.9551199,0.4543727,0.4549095,0.060053095,0.5738792,0.65326273,0.28671944,-0.33350396,0.44602334,0.35169053,-0.09554682,-0.009363559,0.20505925,-0.21264161,-0.45431238,-0.25543633,-0.13326748,790.14655,793.36993,796.5934,784.5055,678.93774,-0.04864501953125,0.07415771484375,1.00640869140625,-1.31591796875,-4.658050537109375,-6.856231689453125,1,1.0,1.0,1.0,1.0,10.00
2024-10-11 20:28:17.554,0.9602267,0.82720023,0.41874564,0.9551199,0.4543727,0.4549095,0.060053095,0.5738792,0.65326273,0.28671944,-0.33350396,0.44602334,0.35169053,-0.09554682,-0.009363559,0.20505925,-0.21264161,-0.45431238,-0.25543633,-0.13326748,792.1612,792.1612,792.96704,794.57874,828.022,-0.04864501953125,0.07415771484375,1.00640869140625,-1.31591796875,-4.658050537109375,-6.856231689453125,1,1.0,1.0,1.0,1.0,10.00
2024-10-11 20:28:17.630,0.9602267,0.82720023,0.41874564,0.9551199,0.4543727,0.4549095,0.060053095,0.5738792,0.65326273,0.28671944,-0.33350396,0.44602334,0.35169053,-0.09554682,-0.009363559,0.20505925,-0.21264161,-0.45431238,-0.25543633,-0.13326748,790.9524,790.9524,797.8022,796.99634,851.39197,-0.04791259765625,0.0654296875,1.010009765625,-3.1402587890625,-6.2506103515625,-4.807586669921875,1,1.0,1.0,1.0,1.0,10.00
2024-10-11 20:28:17.631,0.9602267,0.82720023,0.41874564,0.9551199,0.4543727,0.4549095,0.060053095,0.5738792,0.65326273,0.28671944,-0.33350396,0.44602334,0.35169053,-0.09554682,-0.009363559,0.20505925,-0.21264161,-0.45431238,-0.25543633,-0.13326748,782.49084,794.9817,802.6374,790.54944,643.8828,-0.04791259765625,0.0654296875,1.010009765625,-3.1402587890625,-6.2506103515625,-4.807586669921875,1,1.0,1.0,1.0,1.0,10.00
2024-10-11 20:28:17.632,0.9602267,0.82720023,0.41874564,0.9551199,0.4543727,0.4549095,0.060053095,0.5738792,0.65326273,0.28671944,-0.33350396,0.44602334,0.35169053,-0.09554682,-0.009363559,0.20505925,-0.21264161,-0.45431238,-0.25543633,-0.13326748,785.7143,794.9817,802.6374,789.34064,652.3443,-0.04791259765625,0.0654296875,1.010009765625,-3.1402587890625,-6.2506103515625,-4.807586669921875,1,1.0,1.0,1.0,1.0,10.00
2024-10-11 20:28:17.633,0.9602267,0.82720023,0.41874564,0.9551199,0.4543727,0.4549095,0.060053095,0.5738792,0.65326273,0.28671944,-0.33350396,0.44602334,0.35169053,-0.09554682,-0.009363559,0.20505925,-0.21264161,-0.45431238,-0.25543633,-0.13326748,790.14655,791.3553,803.44324,788.5348,743.4066,-0.04791259765625,0.0654296875,1.010009765625,-3.1402587890625,-6.2506103515625,-4.807586669921875,1,1.0,1.0,1.0,1.0,10.00
2024-10-11 20:28:17.633,0.9602267,0.82720023,0.41874564,0.9551199,0.4543727,0.4549095,0.060053095,0.5738792,0.65326273,0.28671944,-0.33350396,0.44602334,0.35169053,-0.09554682,-0.009363559,0.20505925,-0.21264161,-0.45431238,-0.25543633,-0.13326748,791.75824,791.75824,801.4286,793.36993,728.49817,-0.04791259765625,0.0654296875,1.010009765625,-3.1402587890625,-6.2506103515625,-4.807586669921875,1,1.0,1.0,1.0,1.0,10.00
2024-10-11 20:28:17.634,0.9602267,0.82720023,0.41874564,0.9551199,0.4543727,0.4549095,0.060053095,0.5738792,0.65326273,0.28671944,-0.33350396,0.44602334,0.35169053,-0.09554682,-0.009363559,0.20505925,-0.21264161,-0.45431238,-0.25543633,-0.13326748,792.96704,794.9817,799.011,791.3553,700.293,-0.04791259765625,0.0654296875,1.010009765625,-3.1402587890625,-6.2506103515625,-4.807586669921875,1,1.0,1.0,1.0,1.0,10.00
2024-10-11 20:28:17.635,0.9602267,0.82720023,0.41874564,0.9551199,0.4543727,0.4549095,0.060053095,0.5738792,0.65326273,0.28671944,-0.33350396,0.44602334,0.35169053,-0.09554682,-0.009363559,0.20505925,-0.21264161,-0.45431238,-0.25543633,-0.13326748,791.75824,791.75824,805.05493,790.9524,786.52014,-0.04791259765625,0.0654296875,1.010009765625,-3.1402587890625,-6.2506103515625,-4.807586669921875,1,1.0,1.0,1.0,1.0,10.00
2024-10-11 20:28:17.636,0.9602267,0.82720023,0.41874564,0.9551199,0.4543727,0.4549095,0.060053095,0.5738792,0.65326273,0.28671944,-0.33350396,0.44602334,0.35169053,-0.09554682,-0.009363559,0.20505925,-0.21264161,-0.45431238,-0.25543633,-0.13326748,789.7436,790.54944,802.23444,791.75824,1013.36993,-0.04791259765625,0.0654296875,1.010009765625,-3.1402587890625,-6.2506103515625,-4.807586669921875,1,1.0,1.0,1.0,1.0,10.00
2024-10-11 20:28:17.636,0.9602267,0.82720023,0.41874564,0.9551199,0.4543727,0.4549095,0.060053095,0.5738792,0.65326273,0.28671944,-0.33350396,0.44602334,0.35169053,-0.09554682,-0.009363559,0.20505925,-0.21264161,-0.45431238,-0.25543633,-0.13326748,792.5641,794.57874,800.2198,788.1319,871.9414,-0.04791259765625,0.0654296875,1.010009765625,-3.1402587890625,-6.2506103515625,-4.807586669921875,1,1.0,1.0,1.0,1.0,10.00
2024-10-11 20:28:17.637,0.9602267,0.82720023,0.41874564,0.9551199,0.4543727,0.4549095,0.060053095,0.5738792,0.65326273,0.28671944,-0.33350396,0.44602334,0.35169053,-0.09554682,-0.009363559,0.20505925,-0.21264161,-0.45431238,-0.25543633,-0.13326748,796.1905,792.1612,801.8315,788.1319,691.8315,-0.04791259765625,0.0654296875,1.010009765625,-3.1402587890625,-6.2506103515625,-4.807586669921875,1,1.0,1.0,1.0,1.0,10.00
2024-10-11 20:28:17.638,0.9602267,0.82720023,0.41874564,0.9551199,0.4543727,0.4549095,0.060053095,0.5738792,0.65326273,0.28671944,-0.33350396,0.44602334,0.35169053,-0.09554682,-0.009363559,0.20505925,-0.21264161,-0.45431238,-0.25543633,-0.13326748,796.99634,796.1905,800.6227,794.9817,757.50916,-0.04791259765625,0.0654296875,1.010009765625,-3.1402587890625,-6.2506103515625,-4.807586669921875,1,1.0,1.0,1.0,1.0,10.00
2024-10-11 20:28:17.639,0.9602267,0.82720023,0.41874564,0.9551199,0.4543727,0.4549095,0.060053095,0.5738792,0.65326273,0.28671944,-0.33350396,0.44602334,0.35169053,-0.09554682,-0.009363559,0.20505925,-0.21264161,-0.45431238,-0.25543633,-0.13326748,801.02563,806.26373,809.0842,802.6374,798.20514,-0.04791259765625,0.0654296875,1.010009765625,-3.1402587890625,-6.2506103515625,-4.807586669921875,1,1.0,1.0,1.0,1.0,10.00
2024-10-11 20:28:17.640,0.9602267,0.82720023,0.41874564,0.9551199,0.4543727,0.4549095,0.060053095,0.5738792,0.65326273,0.28671944,-0.33350396,0.44602334,0.35169053,-0.09554682,-0.009363559,0.20505925,-0.21264161,-0.45431238,-0.25543633,-0.13326748,806.26373,806.6667,813.91943,801.8315,685.38464,-0.0390625,0.06451416015625,1.0142822265625,-3.342132568359375,-5.959014892578125,-4.358978271484375,1,1.0,1.0,1.0,1.0,10.00
2024-10-11 20:28:17.641,0.9602267,0.82720023,0.41874564,0.9551199,0.4543727,0.4549095,0.060053095,0.5738792,0.65326273,0.28671944,-0.33350396,0.44602334,0.35169053,-0.09554682,-0.009363559,0.20505925,-0.21264161,-0.45431238,-0.25543633,-0.13326748,805.4579,799.81683,807.8755,798.20514,660.80585,-0.0390625,0.06451416015625,1.0142822265625,-3.342132568359375,-5.959014892578125,-4.358978271484375,1,1.0,1.0,1.0,1.0,10.00
2024-10-11 20:28:17.642,0.9602267,0.82720023,0.41874564,0.9551199,0.4543727,0.4549095,0.060053095,0.5738792,0.65326273,0.28671944,-0.33350396,0.44602334,0.35169053,-0.09554682,-0.009363559,0.20505925,-0.21264161,-0.45431238,-0.25543633,-0.13326748,798.20514,794.9817,803.0403,799.011,699.89014,-0.0390625,0.06451416015625,1.0142822265625,-3.342132568359375,-5.959014892578125,-4.358978271484375,1,1.0,1.0,1.0,1.0,10.00
2024-10-11 20:28:17.642,0.9602267,0.82720023,0.41874564,0.9551199,0.4543727,0.4549095,0.060053095,0.5738792,0.65326273,0.28671944,-0.33350396,0.44602334,0.35169053,-0.09554682,-0.009363559,0.20505925,-0.21264161,-0.45431238,-0.25543633,-0.13326748,793.7729,795.78754,798.60803,796.5934,708.3516,-0.0390625,0.06451416015625,1.0142822265625,-3.342132568359375,-5.959014892578125,-4.358978271484375,1,1.0,1.0,1.0,1.0,10.00
2024-10-11 20:28:17.643,0.9602267,0.82720023,0.41874564,0.9551199,0.4543727,0.4549095,0.060053095,0.5738792,0.65326273,0.28671944,-0.33350396,0.44602334,0.35169053,-0.09554682,-0.009363559,0.20505925,-0.21264161,-0.45431238,-0.25543633,-0.13326748,789.34064,794.57874,795.78754,797.8022,701.50183,-0.0390625,0.06451416015625,1.0142822265625,-3.342132568359375,-5.959014892578125,-4.358978271484375,1,1.0,1.0,1.0,1.0,10.00
2024-10-11 20:28:17.644,0.9602267,0.82720023,0.41874564,0.9551199,0.4543727,0.4549095,0.060053095,0.5738792,0.65326273,0.28671944,-0.33350396,0.44602334,0.35169053,-0.09554682,-0.009363559,0.20505925,-0.21264161,-0.45431238,-0.25543633,-0.13326748,795.78754,798.20514,803.44324,804.2491,743.00366,-0.0390625,0.06451416015625,1.0142822265625,-3.342132568359375,-5.959014892578125,-4.358978271484375,1,1.0,1.0,1.0,1.0,10.00
2024-10-11 20:28:17.644,0.9602267,0.82720023,0.41874564,0.9551199,0.4543727,0.4549095,0.060053095,0.5738792,0.65326273,0.28671944,-0.33350396,0.44602334,0.35169053,-0.09554682,-0.009363559,0.20505925,-0.21264161,-0.45431238,-0.25543633,-0.13326748,796.1905,798.60803,805.05493,807.47253,978.71796,-0.0390625,0.06451416015625,1.0142822265625,-3.342132568359375,-5.959014892578125,-4.358978271484375,1,1.0,1.0,1.0,1.0,10.00
2024-10-11 20:28:17.645,0.9220361,0.8818479,0.41874564,0.8838996,0.37978247,0.48481008,0.060053095,0.4343269,0.6076699,0.23876533,-0.33350396,0.33434245,0.33693984,-0.10329426,-0.009363559,0.17240474,-0.18204665,-0.463923,-0.25543633,-0.09207841,791.3553,794.57874,792.1612,803.0403,1006.9231,-0.0390625,0.06451416015625,1.0142822265625,-3.342132568359375,-5.959014892578125,-4.358978271484375,1,1.0,1.0,1.0,1.0,10.00
2024-10-11 20:28:17.651,0.9220361,0.8818479,0.41874564,0.8838996,0.37978247,0.48481008,0.060053095,0.4343269,0.6076699,0.23876533,-0.33350396,0.33434245,0.33693984,-0.10329426,-0.009363559,0.17240474,-0.18204665,-0.463923,-0.25543633,-0.09207841,801.4286,795.78754,795.78754,799.81683,711.5751,-0.0390625,0.06451416015625,1.0142822265625,-3.342132568359375,-5.959014892578125,-4.358978271484375,1,1.0,1.0,1.0,1.0,10.00
2024-10-11 20:28:17.652,0.9220361,0.8818479,0.41874564,0.8838996,0.37978247,0.48481008,0.060053095,0.4343269,0.6076699,0.23876533,-0.33350396,0.33434245,0.33693984,-0.10329426,-0.009363559,0.17240474,-0.18204665,-0.463923,-0.25543633,-0.09207841,803.8461,801.8315,805.05493,801.02563,658.7912,-0.0390625,0.06451416015625,1.0142822265625,-3.342132568359375,-5.959014892578125,-4.358978271484375,1,1.0,1.0,1.0,1.0,10.00
2024-10-11 20:28:17.652,0.9220361,0.8818479,0.41874564,0.8838996,0.37978247,0.48481008,0.060053095,0.4343269,0.6076699,0.23876533,-0.33350396,0.33434245,0.33693984,-0.10329426,-0.009363559,0.17240474,-0.18204665,-0.463923,-0.25543633,-0.09207841,799.41394,797.3993,803.44324,797.3993,864.2857,-0.0390625,0.06451416015625,1.0142822265625,-3.342132568359375,-5.959014892578125,-4.358978271484375,1,1.0,1.0,1.0,1.0,10.00
2024-10-11 20:28:17.653,0.9220361,0.8818479,0.41874564,0.8838996,0.37978247,0.48481008,0.060053095,0.4343269,0.6076699,0.23876533,-0.33350396,0.33434245,0.33693984,-0.10329426,-0.009363559,0.17240474,-0.18204665,-0.463923,-0.25543633,-0.09207841,794.9817,790.54944,797.3993,796.99634,913.44324,-0.0390625,0.06451416015625,1.0142822265625,-3.342132568359375,-5.959014892578125,-4.358978271484375,1,1.0,1.0,1.0,1.0,10.00
2024-10-11 20:28:17.685,0.9220361,0.8818479,0.41874564,0.8838996,0.37978247,0.48481008,0.060053095,0.4343269,0.6076699,0.23876533,-0.33350396,0.33434245,0.33693984,-0.10329426,-0.009363559,0.17240474,-0.18204665,-0.463923,-0.25543633,-0.09207841,791.3553,798.20514,794.57874,800.6227,749.85345,-0.02911376953125,0.05322265625,1.0164794921875,-3.887939453125,-5.704803466796875,-2.968292236328125,1,1.0,1.0,1.0,1.0,10.00
2024-10-11 20:28:17.686,0.9220361,0.8818479,0.41874564,0.8838996,0.37978247,0.48481008,0.060053095,0.4343269,0.6076699,0.23876533,-0.33350396,0.33434245,0.33693984,-0.10329426,-0.009363559,0.17240474,-0.18204665,-0.463923,-0.25543633,-0.09207841,796.1905,797.3993,799.41394,802.23444,725.6777,-0.02911376953125,0.05322265625,1.0164794921875,-3.887939453125,-5.704803466796875,-2.968292236328125,1,1.0,1.0,1.0,1.0,10.00
2024-10-11 20:28:17.687,0.9220361,0.8818479,0.41874564,0.8838996,0.37978247,0.48481008,0.060053095,0.4343269,0.6076699,0.23876533,-0.33350396,0.33434245,0.33693984,-0.10329426,-0.009363559,0.17240474,-0.18204665,-0.463923,-0.25543633,-0.09207841,807.8755,790.9524,804.2491,807.8755,899.7436,-0.02911376953125,0.05322265625,1.0164794921875,-3.887939453125,-5.704803466796875,-2.968292236328125,1,1.0,1.0,1.0,1.0,10.00
2024-10-11 20:28:17.688,0.9220361,0.8818479,0.41874564,0.8838996,0.37978247,0.48481008,0.060053095,0.4343269,0.6076699,0.23876533,-0.33350396,0.33434245,0.33693984,-0.10329426,-0.009363559,0.17240474,-0.18204665,-0.463923,-0.25543633,-0.09207841,799.011,793.36993,802.6374,802.23444,784.10254,-0.02911376953125,0.05322265625,1.0164794921875,-3.887939453125,-5.704803466796875,-2.968292236328125,1,1.0,1.0,1.0,1.0,10.00
2024-10-11 20:28:17.689,0.9220361,0.8818479,0.41874564,0.8838996,0.37978247,0.48481008,0.060053095,0.4343269,0.6076699,0.23876533,-0.33350396,0.33434245,0.33693984,-0.10329426,-0.009363559,0.17240474,-0.18204665,-0.463923,-0.25543633,-0.09207841,792.5641,795.38464,801.8315,796.5934,608.022,-0.02911376953125,0.05322265625,1.0164794921875,-3.887939453125,-5.704803466796875,-2.968292236328125,1,1.0,1.0,1.0,1.0,10.00
2024-10-11 20:28:17.690,0.9220361,0.8818479,0.41874564,0.8838996,0.37978247,0.48481008,0.060053095,0.4343269,0.6076699,0.23876533,-0.33350396,0.33434245,0.33693984,-0.10329426,-0.009363559,0.17240474,-0.18204665,-0.463923,-0.25543633,-0.09207841,795.78754,791.75824,795.78754,794.9817,805.8608,-0.02911376953125,0.05322265625,1.0164794921875,-3.887939453125,-5.704803466796875,-2.968292236328125,1,1.0,1.0,1.0,1.0,10.00
2024-10-11 20:28:17.691,0.9220361,0.8818479,0.41874564,0.8838996,0.37978247,0.48481008,0.060053095,0.4343269,0.6076699,0.23876533,-0.33350396,0.33434245,0.33693984,-0.10329426,-0.009363559,0.17240474,-0.18204665,-0.463923,-0.25543633,-0.09207841,792.5641,789.7436,798.60803,797.8022,1288.9744,-0.02911376953125,0.05322265625,1.0164794921875,-3.887939453125,-5.704803466796875,-2.968292236328125,1,1.0,1.0,1.0,1.0,10.00
2024-10-11 20:28:17.691,0.9220361,0.8818479,0.41874564,0.8838996,0.37978247,0.48481008,0.060053095,0.4343269,0.6076699,0.23876533,-0.33350396,0.33434245,0.33693984,-0.10329426,-0.009363559,0.17240474,-0.18204665,-0.463923,-0.25543633,-0.09207841,798.20514,795.78754,808.68134,808.68134,1462.2344,-0.02911376953125,0.05322265625,1.0164794921875,-3.887939453125,-5.704803466796875,-2.968292236328125,1,1.0,1.0,1.0,1.0,10.00
2024-10-11 20:28:17.692,0.9220361,0.8818479,0.41874564,0.8838996,0.37978247,0.48481008,0.060053095,0.4343269,0.6076699,0.23876533,-0.33350396,0.33434245,0.33693984,-0.10329426,-0.009363559,0.17240474,-0.18204665,-0.463923,-0.25543633,-0.09207841,801.4286,797.8022,808.68134,800.6227,894.90845,-0.02911376953125,0.05322265625,1.0164794921875,-3.887939453125,-5.704803466796875,-2.968292236328125,1,1.0,1.0,1.0,1.0,10.00
2024-10-11 20:28:17.693,0.9220361,0.8818479,0.41874564,0.8838996,0.37978247,0.48481008,0.060053095,0.4343269,0.6076699,0.23876533,-0.33350396,0.33434245,0.33693984,-0.10329426,-0.009363559,0.17240474,-0.18204665,-0.463923,-0.25543633,-0.09207841,802.6374,794.9817,796.5934,790.9524,621.7216,-0.02911376953125,0.05322265625,1.0164794921875,-3.887939453125,-5.704803466796875,-2.968292236328125,1,1.0,1.0,1.0,1.0,10.00
2024-10-11 20:28:17.693,0.9220361,0.8818479,0.41874564,0.8838996,0.37978247,0.48481008,0.060053095,0.4343269,0.6076699,0.23876533,-0.33350396,0.33434245,0.33693984,-0.10329426,-0.009363559,0.17240474,-0.18204665,-0.463923,-0.25543633,-0.09207841,801.8315,795.38464,796.99634,788.5348,751.06226,-0.02911376953125,0.05322265625,1.0164794921875,-3.887939453125,-5.704803466796875,-2.968292236328125,1,1.0,1.0,1.0,1.0,10.00
2024-10-11 20:28:17.694,0.9220361,0.8818479,0.41874564,0.8838996,0.37978247,0.48481008,0.060053095,0.4343269,0.6076699,0.23876533,-0.33350396,0.33434245,0.33693984,-0.10329426,-0.009363559,0.17240474,-0.18204665,-0.463923,-0.25543633,-0.09207841,799.81683,795.38464,803.8461,786.9231,699.0842,-0.02911376953125,0.05322265625,1.0164794921875,-3.887939453125,-5.704803466796875,-2.968292236328125,1,1.0,1.0,1.0,1.0,10.00
2024-10-11 20:28:17.728,0.9220361,0.8818479,0.41874564,0.8838996,0.37978247,0.48481008,0.060053095,0.4343269,0.6076699,0.23876533,-0.33350396,0.33434245,0.33693984,-0.10329426,-0.009363559,0.17240474,-0.18204665,-0.463923,-0.25543633,-0.09207841,796.5934,794.9817,800.2198,786.52014,620.9158,-0.0247802734375,0.04547119140625,0.995849609375,-3.24493408203125,-3.805694580078125,-1.428070068359375,1,1.0,1.0,1.0,1.0,10.00
2024-10-11 20:28:17.729,0.9220361,0.8818479,0.41874564,0.8838996,0.37978247,0.48481008,0.060053095,0.4343269,0.6076699,0.23876533,-0.33350396,0.33434245,0.33693984,-0.10329426,-0.009363559,0.17240474,-0.18204665,-0.463923,-0.25543633,-0.09207841,786.52014,787.72894,798.60803,786.1172,688.60803,-0.0247802734375,0.04547119140625,0.995849609375,-3.24493408203125,-3.805694580078125,-1.428070068359375,1,1.0,1.0,1.0,1.0,10.00
2024-10-11 20:28:17.730,0.9220361,0.8818479,0.41874564,0.8838996,0.37978247,0.48481008,0.060053095,0.4343269,0.6076699,0.23876533,-0.33350396,0.33434245,0.33693984,-0.10329426,-0.009363559,0.17240474,-0.18204665,-0.463923,-0.25543633,-0.09207841,784.90845,785.31134,800.2198,793.7729,822.381,-0.0247802734375,0.04547119140625,0.995849609375,-3.24493408203125,-3.805694580078125,-1.428070068359375,1,1.0,1.0,1.0,1.0,10.00
2024-10-11 20:28:17.731,0.9220361,0.8818479,0.41874564,0.8838996,0.37978247,0.48481008,0.060053095,0.4343269,0.6076699,0.23876533,-0.33350396,0.33434245,0.33693984,-0.10329426,-0.009363559,0.17240474,-0.18204665,-0.463923,-0.25543633,-0.09207841,793.36993,790.14655,792.96704,800.6227,731.7216,-0.0247802734375,0.04547119140625,0.995849609375,-3.24493408203125,-3.805694580078125,-1.428070068359375,1,1.0,1.0,1.0,1.0,10.00
2024-10-11 20:28:17.732,0.9220361,0.8818479,0.41874564,0.8838996,0.37978247,0.48481008,0.060053095,0.4343269,0.6076699,0.23876533,-0.33350396,0.33434245,0.33693984,-0.10329426,-0.009363559,0.17240474,-0.18204665,-0.463923,-0.25543633,-0.09207841,802.6374,798.60803,790.54944,800.2198,638.6447,-0.0247802734375,0.04547119140625,0.995849609375,-3.24493408203125,-3.805694580078125,-1.428070068359375,1,1.0,1.0,1.0,1.0,10.00
2024-10-11 20:28:17.732,0.9220361,0.8818479,0.41874564,0.8838996,0.37978247,0.48481008,0.060053095,0.4343269,0.6076699,0.23876533,-0.33350396,0.33434245,0.33693984,-0.10329426,-0.009363559,0.17240474,-0.18204665,-0.463923,-0.25543633,-0.09207841,803.8461,798.20514,796.99634,803.0403,886.04395,-0.0247802734375,0.04547119140625,0.995849609375,-3.24493408203125,-3.805694580078125,-1.428070068359375,1,1.0,1.0,1.0,1.0,10.00
2024-10-11 20:28:17.733,0.9220361,0.8818479,0.41874564,0.8838996,0.37978247,0.48481008,0.060053095,0.4343269,0.6076699,0.23876533,-0.33350396,0.33434245,0.33693984,-0.10329426,-0.009363559,0.17240474,-0.18204665,-0.463923,-0.25543633,-0.09207841,800.2198,793.36993,799.011,805.8608,1047.619,-0.0247802734375,0.04547119140625,0.995849609375,-3.24493408203125,-3.805694580078125,-1.428070068359375,1,1.0,1.0,1.0,1.0,10.00
2024-10-11 20:28:17.734,0.9220361,0.8818479,0.41874564,0.8838996,0.37978247,0.48481008,0.060053095,0.4343269,0.6076699,0.23876533,-0.33350396,0.33434245,0.33693984,-0.10329426,-0.009363559,0.17240474,-0.18204665,-0.463923,-0.25543633,-0.09207841,792.1612,791.3553,795.38464,797.8022,813.1135,-0.0247802734375,0.04547119140625,0.995849609375,-3.24493408203125,-3.805694580078125,-1.428070068359375,1,1.0,1.0,1.0,1.0,10.00
2024-10-11 20:28:17.734,0.9220361,0.8818479,0.41874564,0.8838996,0.37978247,0.48481008,0.060053095,0.4343269,0.6076699,0.23876533,-0.33350396,0.33434245,0.33693984,-0.10329426,-0.009363559,0.17240474,-0.18204665,-0.463923,-0.25543633,-0.09207841,799.81683,794.57874,800.2198,799.011,643.8828,-0.0247802734375,0.04547119140625,0.995849609375,-3.24493408203125,-3.805694580078125,-1.428070068359375,1,1.0,1.0,1.0,1.0,10.00
2024-10-11 20:28:17.735,0.91074514,0.9654218,0.41874564,0.8615806,0.3623703,0.5447918,0.060053095,0.32731187,0.59066075,0.18354473,-0.33350396,0.23469697,0.33422855,-0.117942445,-0.009363559,0.15353085,-0.1525146,-0.4763297,-0.25543633,-0.056181267,807.47253,800.2198,803.44324,808.68134,873.95605,-0.0247802734375,0.04547119140625,0.995849609375,-3.24493408203125,-3.805694580078125,-1.428070068359375,1,1.0,1.0,1.0,1.0,10.00
2024-10-11 20:28:17.741,0.91074514,0.9654218,0.41874564,0.8615806,0.3623703,0.5447918,0.060053095,0.32731187,0.59066075,0.18354473,-0.33350396,0.23469697,0.33422855,-0.117942445,-0.009363559,0.15353085,-0.1525146,-0.4763297,-0.25543633,-0.056181267,796.1905,802.6374,796.1905,811.50183,1083.4799,-0.0247802734375,0.04547119140625,0.995849609375,-3.24493408203125,-3.805694580078125,-1.428070068359375,1,1.0,1.0,1.0,1.0,10.00
2024-10-11 20:28:17.742,0.91074514,0.9654218,0.41874564,0.8615806,0.3623703,0.5447918,0.060053095,0.32731187,0.59066075,0.18354473,-0.33350396,0.23469697,0.33422855,-0.117942445,-0.009363559,0.15353085,-0.1525146,-0.4763297,-0.25543633,-0.056181267,798.60803,804.65204,802.23444,808.68134,770.0,-0.0247802734375,0.04547119140625,0.995849609375,-3.24493408203125,-3.805694580078125,-1.428070068359375,1,1.0,1.0,1.0,1.0,10.00
2024-10-11 20:28:17.771,0.91074514,0.9654218,0.41874564,0.8615806,0.3623703,0.5447918,0.060053095,0.32731187,0.59066075,0.18354473,-0.33350396,0.23469697,0.33422855,-0.117942445,-0.009363559,0.15353085,-0.1525146,-0.4763297,-0.25543633,-0.056181267,797.8022,806.26373,799.41394,804.2491,688.60803,-0.0247802734375,0.04547119140625,0.995849609375,-3.24493408203125,-3.805694580078125,-1.428070068359375,1,1.0,1.0,1.0,1.0,10.00
2024-10-11 20:28:17.772,0.91074514,0.9654218,0.41874564,0.8615806,0.3623703,0.5447918,0.060053095,0.32731187,0.59066075,0.18354473,-0.33350396,0.23469697,0.33422855,-0.117942445,-0.009363559,0.15353085,-0.1525146,-0.4763297,-0.25543633,-0.056181267,793.36993,793.36993,793.7729,800.2198,770.40295,-0.0247802734375,0.04547119140625,0.995849609375,-3.24493408203125,-3.805694580078125,-1.428070068359375,1,1.0,1.0,1.0,1.0,10.00
2024-10-11 20:28:17.773,0.91074514,0.9654218,0.41874564,0.8615806,0.3623703,0.5447918,0.060053095,0.32731187,0.59066075,0.18354473,-0.33350396,0.23469697,0.33422855,-0.117942445,-0.009363559,0.15353085,-0.1525146,-0.4763297,-0.25543633,-0.056181267,799.011,790.14655,803.0403,805.4579,707.5458,-0.0247802734375,0.04547119140625,0.995849609375,-3.24493408203125,-3.805694580078125,-1.428070068359375,1,1.0,1.0,1.0,1.0,10.00
2024-10-11 20:28:17.774,0.91074514,0.9654218,0.41874564,0.8615806,0.3623703,0.5447918,0.060053095,0.32731187,0.59066075,0.18354473,-0.33350396,0.23469697,0.33422855,-0.117942445,-0.009363559,0.15353085,-0.1525146,-0.4763297,-0.25543633,-0.056181267,801.02563,801.8315,809.4872,807.0696,692.23444,-0.0247802734375,0.04547119140625,0.995849609375,-3.24493408203125,-3.805694580078125,-1.428070068359375,1,1.0,1.0,1.0,1.0,10.00
2024-10-11 20:28:17.775,0.91074514,0.9654218,0.41874564,0.8615806,0.3623703,0.5447918,0.060053095,0.32731187,0.59066075,0.18354473,-0.33350396,0.23469697,0.33422855,-0.117942445,-0.009363559,0.15353085,-0.1525146,-0.4763297,-0.25543633,-0.056181267,798.60803,803.44324,809.0842,802.23444,743.4066,-0.0247802734375,0.04547119140625,0.995849609375,-3.24493408203125,-3.805694580078125,-1.428070068359375,1,1.0,1.0,1.0,1.0,10.00
2024-10-11 20:28:17.775,0.91074514,0.9654218,0.41874564,0.8615806,0.3623703,0.5447918,0.060053095,0.32731187,0.59066075,0.18354473,-0.33350396,0.23469697,0.33422855,-0.117942445,-0.009363559,0.15353085,-0.1525146,-0.4763297,-0.25543633,-0.056181267,791.75824,795.78754,801.4286,798.60803,838.0952,-0.0247802734375,0.04547119140625,0.995849609375,-3.24493408203125,-3.805694580078125,-1.428070068359375,1,1.0,1.0,1.0,1.0,10.00
2024-10-11 20:28:17.776,0.91074514,0.9654218,0.41874564,0.8615806,0.3623703,0.5447918,0.060053095,0.32731187,0.59066075,0.18354473,-0.33350396,0.23469697,0.33422855,-0.117942445,-0.009363559,0.15353085,-0.1525146,-0.4763297,-0.25543633,-0.056181267,788.93774,798.20514,802.23444,801.02563,827.619,-0.0247802734375,0.04547119140625,0.995849609375,-3.24493408203125,-3.805694580078125,-1.428070068359375,1,1.0,1.0,1.0,1.0,10.00
2024-10-11 20:28:17.777,0.91074514,0.9654218,0.41874564,0.8615806,0.3623703,0.5447918,0.060053095,0.32731187,0.59066075,0.18354473,-0.33350396,0.23469697,0.33422855,-0.117942445,-0.009363559,0.15353085,-0.1525146,-0.4763297,-0.25543633,-0.056181267,795.78754,803.0403,799.81683,804.2491,813.1135,-0.0247802734375,0.04547119140625,0.995849609375,-3.24493408203125,-3.805694580078125,-1.428070068359375,1,1.0,1.0,1.0,1.0,10.00
2024-10-11 20:28:17.777,0.91074514,0.9654218,0.41874564,0.8615806,0.3623703,0.5447918,0.060053095,0.32731187,0.59066075,0.18354473,-0.33350396,0.23469697,0.33422855,-0.117942445,-0.009363559,0.15353085,-0.1525146,-0.4763297,-0.25543633,-0.056181267,800.6227,801.02563,794.9817,803.0403,800.2198,-0.0247802734375,0.04547119140625,0.995849609375,-3.24493408203125,-3.805694580078125,-1.428070068359375,1,1.0,1.0,1.0,1.0,10.00
2024-10-11 20:28:17.778,0.91074514,0.9654218,0.41874564,0.8615806,0.3623703,0.5447918,0.060053095,0.32731187,0.59066075,0.18354473,-0.33350396,0.23469697,0.33422855,-0.117942445,-0.009363559,0.15353085,-0.1525146,-0.4763297,-0.25543633,-0.056181267,803.0403,797.3993,791.3553,810.293,1082.674,-0.0247802734375,0.04547119140625,0.995849609375,-3.24493408203125,-3.805694580078125,-1.428070068359375,1,1.0,1.0,1.0,1.0,10.00
2024-10-11 20:28:17.779,0.91074514,0.9654218,0.41874564,0.8615806,0.3623703,0.5447918,0.060053095,0.32731187,0.59066075,0.18354473,-0.33350396,0.23469697,0.33422855,-0.117942445,-0.009363559,0.15353085,-0.1525146,-0.4763297,-0.25543633,-0.056181267,803.8461,796.1905,788.5348,809.4872,933.1868,-0.0247802734375,0.04547119140625,0.995849609375,-3.24493408203125,-3.805694580078125,-1.428070068359375,1,1.0,1.0,1.0,1.0,10.00
2024-10-11 20:28:17.779,0.91074514,0.9654218,0.41874564,0.8615806,0.3623703,0.5447918,0.060053095,0.32731187,0.59066075,0.18354473,-0.33350396,0.23469697,0.33422855,-0.117942445,-0.009363559,0.15353085,-0.1525146,-0.4763297,-0.25543633,-0.056181267,798.60803,797.3993,801.02563,801.8315,624.1392,-0.0247802734375,0.04547119140625,0.995849609375,-3.24493408203125,-3.805694580078125,-1.428070068359375,1,1.0,1.0,1.0,1.0,10.00
2024-10-11 20:28:17.846,0.91074514,0.9654218,0.41874564,0.8615806,0.3623703,0.5447918,0.060053095,0.32731187,0.59066075,0.18354473,-0.33350396,0.23469697,0.33422855,-0.117942445,-0.009363559,0.15353085,-0.1525146,-0.4763297,-0.25543633,-0.056181267,796.99634,798.20514,808.68134,801.4286,655.9707,-0.018310546875,0.041015625,0.99945068359375,-1.039276123046875,-3.99261474609375,-0.605621337890625,1,1.0,1.0,1.0,1.0,10.00
2024-10-11 20:28:17.847,0.91074514,0.9654218,0.41874564,0.8615806,0.3623703,0.5447918,0.060053095,0.32731187,0.59066075,0.18354473,-0.33350396,0.23469697,0.33422855,-0.117942445,-0.009363559,0.15353085,-0.1525146,-0.4763297,-0.25543633,-0.056181267,796.99634,805.05493,805.4579,802.23444,651.53845,-0.018310546875,0.041015625,0.99945068359375,-1.039276123046875,-3.99261474609375,-0.605621337890625,1,1.0,1.0,1.0,1.0,10.00
2024-10-11 20:28:17.848,0.91074514,0.9654218,0.41874564,0.8615806,0.3623703,0.5447918,0.060053095,0.32731187,0.59066075,0.18354473,-0.33350396,0.23469697,0.33422855,-0.117942445,-0.009363559,0.15353085,-0.1525146,-0.4763297,-0.25543633,-0.056181267,800.2198,806.6667,803.0403,803.0403,605.6044,-0.018310546875,0.041015625,0.99945068359375,-1.039276123046875,-3.99261474609375,-0.605621337890625,1,1.0,1.0,1.0,1.0,10.00
2024-10-11 20:28:17.848,0.91074514,0.9654218,0.41874564,0.8615806,0.3623703,0.5447918,0.060053095,0.32731187,0.59066075,0.18354473,-0.33350396,0.23469697,0.33422855,-0.117942445,-0.009363559,0.15353085,-0.1525146,-0.4763297,-0.25543633,-0.056181267,794.9817,799.011,799.011,798.20514,612.4542,-0.018310546875,0.041015625,0.99945068359375,-1.039276123046875,-3.99261474609375,-0.605621337890625,1,1.0,1.0,1.0,1.0,10.00
2024-10-11 20:28:17.849,0.91074514,0.9654218,0.41874564,0.8615806,0.3623703,0.5447918,0.060053095,0.32731187,0.59066075,0.18354473,-0.33350396,0.23469697,0.33422855,-0.117942445,-0.009363559,0.15353085,-0.1525146,-0.4763297,-0.25543633,-0.056181267,784.10254,796.1905,792.96704,794.17584,699.0842,-0.018310546875,0.041015625,0.99945068359375,-1.039276123046875,-3.99261474609375,-0.605621337890625,1,1.0,1.0,1.0,1.0,10.00
2024-10-11 20:28:17.850,0.91074514,0.9654218,0.41874564,0.8615806,0.3623703,0.5447918,0.060053095,0.32731187,0.59066075,0.18354473,-0.33350396,0.23469697,0.33422855,-0.117942445,-0.009363559,0.15353085,-0.1525146,-0.4763297,-0.25543633,-0.056181267,789.7436,795.38464,799.011,797.3993,781.28204,-0.018310546875,0.041015625,0.99945068359375,-1.039276123046875,-3.99261474609375,-0.605621337890625,1,1.0,1.0,1.0,1.0,10.00
2024-10-11 20:28:17.850,0.91074514,0.9654218,0.41874564,0.8615806,0.3623703,0.5447918,0.060053095,0.32731187,0.59066075,0.18354473,-0.33350396,0.23469697,0.33422855,-0.117942445,-0.009363559,0.15353085,-0.1525146,-0.4763297,-0.25543633,-0.056181267,796.99634,794.57874,805.8608,798.60803,824.3956,-0.018310546875,0.041015625,0.99945068359375,-1.039276123046875,-3.99261474609375,-0.605621337890625,1,1.0,1.0,1.0,1.0,10.00
2024-10-11 20:28:17.851,0.91074514,0.9654218,0.41874564,0.8615806,0.3623703,0.5447918,0.060053095,0.32731187,0.59066075,0.18354473,-0.33350396,0.23469697,0.33422855,-0.117942445,-0.009363559,0.15353085,-0.1525146,-0.4763297,-0.25543633,-0.056181267,794.9817,791.3553,801.4286,797.3993,809.89014,-0.018310546875,0.041015625,0.99945068359375,-1.039276123046875,-3.99261474609375,-0.605621337890625,1,1.0,1.0,1.0,1.0,10.00
2024-10-11 20:28:17.852,0.91074514,0.9654218,0.41874564,0.8615806,0.3623703,0.5447918,0.060053095,0.32731187,0.59066075,0.18354473,-0.33350396,0.23469697,0.33422855,-0.117942445,-0.009363559,0.15353085,-0.1525146,-0.4763297,-0.25543633,-0.056181267,801.02563,794.57874,800.2198,809.0842,952.52747,-0.018310546875,0.041015625,0.99945068359375,-1.039276123046875,-3.99261474609375,-0.605621337890625,1,1.0,1.0,1.0,1.0,10.00
2024-10-11 20:28:17.853,0.91074514,0.9654218,0.41874564,0.8615806,0.3623703,0.5447918,0.060053095,0.32731187,0.59066075,0.18354473,-0.33350396,0.23469697,0.33422855,-0.117942445,-0.009363559,0.15353085,-0.1525146,-0.4763297,-0.25543633,-0.056181267,812.3077,799.011,811.0989,819.15753,975.4945,-0.018310546875,0.041015625,0.99945068359375,-1.039276123046875,-3.99261474609375,-0.605621337890625,1,1.0,1.0,1.0,1.0,10.00
