TimeStamp,Delta_TP9,Delta_AF7,Delta_AF8,Delta_TP10,Theta_TP9,Theta_AF7,Theta_AF8,Theta_TP10,Alpha_TP9,Alpha_AF7,Alpha_AF8,Alpha_TP10,Beta_TP9,Beta_AF7,Beta_AF8,Beta_TP10,Gamma_TP9,Gamma_AF7,Gamma_AF8,Gamma_TP10,RAW_TP9,RAW_AF7,RAW_AF8,RAW_TP10,AUX_RIGHT,Accelerometer_X,Accelerometer_Y,Accelerometer_Z,Gyro_X,Gyro_Y,Gyro_Z,HeadBandOn,HSI_TP9,HSI_AF7,HSI_AF8,HSI_TP10,Battery,Elements
2024-10-11 20:19:28.240,1.3249515,0.40211478,0.830571,1.0281823,1.1156445,0.14922571,0.50677645,0.6302717,1.0850157,0.42200372,0.4750222,0.59576255,0.87189144,0.31224945,0.12832636,0.5752339,0.23418592,-0.05468459,-0.089393295,0.005105623,797.3993,800.2198,791.75824,797.8022,805.05493,-0.1392822265625,0.06903076171875,0.99053955078125,5.809478759765625,-5.600128173828125,3.820648193359375,1,1.0,1.0,1.0,1.0,10.00
2024-10-11 20:19:28.242,1.3249515,0.40211478,0.830571,1.0281823,1.1156445,0.14922571,0.50677645,0.6302717,1.0850157,0.42200372,0.4750222,0.59576255,0.87189144,0.31224945,0.12832636,0.5752339,0.23418592,-0.05468459,-0.089393295,0.005105623,800.2198,798.20514,801.02563,797.3993,603.9927,-0.1392822265625,0.06903076171875,0.99053955078125,5.809478759765625,-5.600128173828125,3.820648193359375,1,1.0,1.0,1.0,1.0,10.00
2024-10-11 20:19:28.243,1.3249515,0.40211478,0.830571,1.0281823,1.1156445,0.14922571,0.50677645,0.6302717,1.0850157,0.42200372,0.4750222,0.59576255,0.87189144,0.31224945,0.12832636,0.5752339,0.23418592,-0.05468459,-0.089393295,0.005105623,789.34064,790.14655,799.011,805.05493,695.8608,-0.1392822265625,0.06903076171875,0.99053955078125,5.809478759765625,-5.600128173828125,3.820648193359375,1,1.0,1.0,1.0,1.0,10.00
2024-10-11 20:19:28.244,1.3249515,0.40211478,0.830571,1.0281823,1.1156445,0.14922571,0.50677645,0.6302717,1.0850157,0.42200372,0.4750222,0.59576255,0.87189144,0.31224945,0.12832636,0.5752339,0.23418592,-0.05468459,-0.089393295,0.005105623,794.9817,789.34064,792.1612,805.4579,931.5751,-0.1392822265625,0.06903076171875,0.99053955078125,5.809478759765625,-5.600128173828125,3.820648193359375,1,1.0,1.0,1.0,1.0,10.00
2024-10-11 20:19:28.245,1.3249515,0.40211478,0.830571,1.0281823,1.1156445,0.14922571,0.50677645,0.6302717,1.0850157,0.42200372,0.4750222,0.59576255,0.87189144,0.31224945,0.12832636,0.5752339,0.23418592,-0.05468459,-0.089393295,0.005105623,799.81683,796.5934,792.96704,799.011,811.9048,-0.1392822265625,0.06903076171875,0.99053955078125,5.809478759765625,-5.600128173828125,3.820648193359375,1,1.0,1.0,1.0,1.0,10.00
2024-10-11 20:19:28.246,1.3249515,0.40211478,0.830571,1.0281823,1.1156445,0.14922571,0.50677645,0.6302717,1.0850157,0.42200372,0.4750222,0.59576255,0.87189144,0.31224945,0.12832636,0.5752339,0.23418592,-0.05468459,-0.089393295,0.005105623,794.17584,798.60803,793.7729,796.5934,731.7216,-0.1392822265625,0.06903076171875,0.99053955078125,5.809478759765625,-5.600128173828125,3.820648193359375,1,1.0,1.0,1.0,1.0,10.00
2024-10-11 20:19:28.247,1.3249515,0.40211478,0.830571,1.0281823,1.1156445,0.14922571,0.50677645,0.6302717,1.0850157,0.42200372,0.4750222,0.59576255,0.87189144,0.31224945,0.12832636,0.5752339,0.23418592,-0.05468459,-0.089393295,0.005105623,796.1905,793.36993,795.38464,791.75824,937.619,-0.1392822265625,0.06903076171875,0.99053955078125,5.809478759765625,-5.600128173828125,3.820648193359375,1,1.0,1.0,1.0,1.0,10.00
2024-10-11 20:19:28.248,1.3249515,0.40211478,0.830571,1.0281823,1.1156445,0.14922571,0.50677645,0.6302717,1.0850157,0.42200372,0.4750222,0.59576255,0.87189144,0.31224945,0.12832636,0.5752339,0.23418592,-0.05468459,-0.089393295,0.005105623,796.1905,796.5934,803.0403,799.81683,890.4762,-0.1392822265625,0.06903076171875,0.99053955078125,5.809478759765625,-5.600128173828125,3.820648193359375,1,1.0,1.0,1.0,1.0,10.00
2024-10-11 20:19:28.249,1.3249515,0.40211478,0.830571,1.0281823,1.1156445,0.14922571,0.50677645,0.6302717,1.0850157,0.42200372,0.4750222,0.59576255,0.87189144,0.31224945,0.12832636,0.5752339,0.23418592,-0.05468459,-0.089393295,0.005105623,797.3993,802.6374,806.26373,807.8755,682.5641,-0.1392822265625,0.06903076171875,0.99053955078125,5.809478759765625,-5.600128173828125,3.820648193359375,1,1.0,1.0,1.0,1.0,10.00
2024-10-11 20:19:28.252,1.3249515,0.40211478,0.830571,1.0281823,1.1156445,0.14922571,0.50677645,0.6302717,1.0850157,0.42200372,0.4750222,0.59576255,0.87189144,0.31224945,0.12832636,0.5752339,0.23418592,-0.05468459,-0.089393295,0.005105623,792.5641,796.5934,798.20514,799.011,646.7033,-0.1392822265625,0.06903076171875,0.99053955078125,5.809478759765625,-5.600128173828125,3.820648193359375,1,1.0,1.0,1.0,1.0,10.00
2024-10-11 20:19:28.253,1.3249515,0.40211478,0.830571,1.0281823,1.1156445,0.14922571,0.50677645,0.6302717,1.0850157,0.42200372,0.4750222,0.59576255,0.87189144,0.31224945,0.12832636,0.5752339,0.23418592,-0.05468459,-0.089393295,0.005105623,791.3553,784.10254,800.6227,799.011,737.76556,-0.1392822265625,0.06903076171875,0.99053955078125,5.809478759765625,-5.600128173828125,3.820648193359375,1,1.0,1.0,1.0,1.0,10.00
2024-10-11 20:19:28.254,1.3249515,0.40211478,0.830571,1.0281823,1.1156445,0.14922571,0.50677645,0.6302717,1.0850157,0.42200372,0.4750222,0.59576255,0.87189144,0.31224945,0.12832636,0.5752339,0.23418592,-0.05468459,-0.089393295,0.005105623,809.89014,792.96704,807.47253,799.41394,759.5238,-0.1392822265625,0.06903076171875,0.99053955078125,5.809478759765625,-5.600128173828125,3.820648193359375,1,1.0,1.0,1.0,1.0,10.00
2024-10-11 20:19:28.255,1.3249515,0.40211478,0.830571,1.0281823,1.1156445,0.14922571,0.50677645,0.6302717,1.0850157,0.42200372,0.4750222,0.59576255,0.87189144,0.31224945,0.12832636,0.5752339,0.23418592,-0.05468459,-0.089393295,0.005105623,801.4286,801.4286,804.2491,794.57874,724.4689,-0.12725830078125,0.0780029296875,1.005615234375,4.508514404296875,-0.321502685546875,4.97955322265625,1,1.0,1.0,1.0,1.0,10.00
2024-10-11 20:19:28.256,1.3249515,0.40211478,0.830571,1.0281823,1.1156445,0.14922571,0.50677645,0.6302717,1.0850157,0.42200372,0.4750222,0.59576255,0.87189144,0.31224945,0.12832636,0.5752339,0.23418592,-0.05468459,-0.089393295,0.005105623,792.1612,797.3993,802.6374,797.8022,746.2271,-0.12725830078125,0.0780029296875,1.005615234375,4.508514404296875,-0.321502685546875,4.97955322265625,1,1.0,1.0,1.0,1.0,10.00
2024-10-11 20:19:28.257,1.3249515,0.40211478,0.830571,1.0281823,1.1156445,0.14922571,0.50677645,0.6302717,1.0850157,0.42200372,0.4750222,0.59576255,0.87189144,0.31224945,0.12832636,0.5752339,0.23418592,-0.05468459,-0.089393295,0.005105623,800.6227,795.38464,805.8608,795.38464,837.28937,-0.12725830078125,0.0780029296875,1.005615234375,4.508514404296875,-0.321502685546875,4.97955322265625,1,1.0,1.0,1.0,1.0,10.00
2024-10-11 20:19:28.258,1.3249515,0.40211478,0.830571,1.0281823,1.1156445,0.14922571,0.50677645,0.6302717,1.0850157,0.42200372,0.4750222,0.59576255,0.87189144,0.31224945,0.12832636,0.5752339,0.23418592,-0.05468459,-0.089393295,0.005105623,797.8022,788.5348,807.8755,792.1612,803.44324,-0.12725830078125,0.0780029296875,1.005615234375,4.508514404296875,-0.321502685546875,4.97955322265625,1,1.0,1.0,1.0,1.0,10.00
2024-10-11 20:19:28.259,1.3249515,0.40211478,0.830571,1.0281823,1.1156445,0.14922571,0.50677645,0.6302717,1.0850157,0.42200372,0.4750222,0.59576255,0.87189144,0.31224945,0.12832636,0.5752339,0.23418592,-0.05468459,-0.089393295,0.005105623,793.36993,792.96704,806.6667,791.75824,674.90845,-0.12725830078125,0.0780029296875,1.005615234375,4.508514404296875,-0.321502685546875,4.97955322265625,1,1.0,1.0,1.0,1.0,10.00
2024-10-11 20:19:28.260,1.3249515,0.40211478,0.830571,1.0281823,1.1156445,0.14922571,0.50677645,0.6302717,1.0850157,0.42200372,0.4750222,0.59576255,0.87189144,0.31224945,0.12832636,0.5752339,0.23418592,-0.05468459,-0.089393295,0.005105623,790.54944,801.4286,805.05493,799.41394,843.3333,-0.12725830078125,0.0780029296875,1.005615234375,4.508514404296875,-0.321502685546875,4.97955322265625,1,1.0,1.0,1.0,1.0,10.00
2024-10-11 20:19:28.261,1.3249515,0.40211478,0.830571,1.0281823,1.1156445,0.14922571,0.50677645,0.6302717,1.0850157,0.42200372,0.4750222,0.59576255,0.87189144,0.31224945,0.12832636,0.5752339,0.23418592,-0.05468459,-0.089393295,0.005105623,789.34064,799.41394,805.05493,801.8315,1045.2014,-0.12725830078125,0.0780029296875,1.005615234375,4.508514404296875,-0.321502685546875,4.97955322265625,1,1.0,1.0,1.0,1.0,10.00
2024-10-11 20:19:28.262,1.3249515,0.40211478,0.830571,1.0281823,1.1156445,0.14922571,0.50677645,0.6302717,1.0850157,0.42200372,0.4750222,0.59576255,0.87189144,0.31224945,0.12832636,0.5752339,0.23418592,-0.05468459,-0.089393295,0.005105623,787.326,795.78754,809.4872,792.5641,971.06226,-0.12725830078125,0.0780029296875,1.005615234375,4.508514404296875,-0.321502685546875,4.97955322265625,1,1.0,1.0,1.0,1.0,10.00
2024-10-11 20:19:28.263,1.3249515,0.40211478,0.830571,1.0281823,1.1156445,0.14922571,0.50677645,0.6302717,1.0850157,0.42200372,0.4750222,0.59576255,0.87189144,0.31224945,0.12832636,0.5752339,0.23418592,-0.05468459,-0.089393295,0.005105623,786.9231,796.5934,809.4872,791.3553,767.98535,-0.12725830078125,0.0780029296875,1.005615234375,4.508514404296875,-0.321502685546875,4.97955322265625,1,1.0,1.0,1.0,1.0,10.00
2024-10-11 20:19:28.264,0.8379699,0.37362707,0.80818367,1.0281823,0.67531615,0.1282358,0.4807153,0.6302717,0.60437834,0.42396465,0.4750222,0.59576255,0.7127943,0.32072937,0.13138719,0.5752339,-0.029348321,-0.060233846,-0.10054019,0.005105623,787.72894,798.60803,801.8315,800.6227,862.27106,-0.12725830078125,0.0780029296875,1.005615234375,4.508514404296875,-0.321502685546875,4.97955322265625,1,1.0,1.0,1.0,1.0,10.00
2024-10-11 20:19:28.269,0.8379699,0.37362707,0.80818367,1.0281823,0.67531615,0.1282358,0.4807153,0.6302717,0.60437834,0.42396465,0.4750222,0.59576255,0.7127943,0.32072937,0.13138719,0.5752339,-0.029348321,-0.060233846,-0.10054019,0.005105623,789.7436,795.78754,801.8315,800.6227,891.28204,-0.12725830078125,0.0780029296875,1.005615234375,4.508514404296875,-0.321502685546875,4.97955322265625,1,1.0,1.0,1.0,1.0,10.00
2024-10-11 20:19:28.270,0.8379699,0.37362707,0.80818367,1.0281823,0.67531615,0.1282358,0.4807153,0.6302717,0.60437834,0.42396465,0.4750222,0.59576255,0.7127943,0.32072937,0.13138719,0.5752339,-0.029348321,-0.060233846,-0.10054019,0.005105623,795.38464,794.17584,805.4579,803.44324,661.2088,-0.12725830078125,0.0780029296875,1.005615234375,4.508514404296875,-0.321502685546875,4.97955322265625,1,1.0,1.0,1.0,1.0,10.00
2024-10-11 20:19:28.272,0.8379699,0.37362707,0.80818367,1.0281823,0.67531615,0.1282358,0.4807153,0.6302717,0.60437834,0.42396465,0.4750222,0.59576255,0.7127943,0.32072937,0.13138719,0.5752339,-0.029348321,-0.060233846,-0.10054019,0.005105623,793.7729,798.20514,803.8461,801.4286,607.619,-0.12890625,0.0821533203125,0.98345947265625,3.57391357421875,0.28411865234375,9.697418212890625,1,1.0,1.0,1.0,1.0,10.00
2024-10-11 20:19:28.273,0.8379699,0.37362707,0.80818367,1.0281823,0.67531615,0.1282358,0.4807153,0.6302717,0.60437834,0.42396465,0.4750222,0.59576255,0.7127943,0.32072937,0.13138719,0.5752339,-0.029348321,-0.060233846,-0.10054019,0.005105623,791.75824,797.8022,807.8755,806.26373,836.8865,-0.12890625,0.0821533203125,0.98345947265625,3.57391357421875,0.28411865234375,9.697418212890625,1,1.0,1.0,1.0,1.0,10.00
2024-10-11 20:19:28.275,0.8379699,0.37362707,0.80818367,1.0281823,0.67531615,0.1282358,0.4807153,0.6302717,0.60437834,0.42396465,0.4750222,0.59576255,0.7127943,0.32072937,0.13138719,0.5752339,-0.029348321,-0.060233846,-0.10054019,0.005105623,804.2491,797.3993,804.65204,824.3956,960.58606,-0.12890625,0.0821533203125,0.98345947265625,3.57391357421875,0.28411865234375,9.697418212890625,1,1.0,1.0,1.0,1.0,10.00
2024-10-11 20:19:28.276,0.8379699,0.37362707,0.80818367,1.0281823,0.67531615,0.1282358,0.4807153,0.6302717,0.60437834,0.42396465,0.4750222,0.59576255,0.7127943,0.32072937,0.13138719,0.5752339,-0.029348321,-0.060233846,-0.10054019,0.005105623,805.8608,803.44324,802.6374,820.7692,723.663,-0.12890625,0.0821533203125,0.98345947265625,3.57391357421875,0.28411865234375,9.697418212890625,1,1.0,1.0,1.0,1.0,10.00
2024-10-11 20:19:28.277,0.8379699,0.37362707,0.80818367,1.0281823,0.67531615,0.1282358,0.4807153,0.6302717,0.60437834,0.42396465,0.4750222,0.59576255,0.7127943,0.32072937,0.13138719,0.5752339,-0.029348321,-0.060233846,-0.10054019,0.005105623,797.3993,802.6374,807.47253,814.3223,664.0293,-0.12890625,0.0821533203125,0.98345947265625,3.57391357421875,0.28411865234375,9.697418212890625,1,1.0,1.0,1.0,1.0,10.00
2024-10-11 20:19:28.278,0.8379699,0.37362707,0.80818367,1.0281823,0.67531615,0.1282358,0.4807153,0.6302717,0.60437834,0.42396465,0.4750222,0.59576255,0.7127943,0.32072937,0.13138719,0.5752339,-0.029348321,-0.060233846,-0.10054019,0.005105623,801.4286,799.011,805.4579,818.3516,967.4359,-0.12890625,0.0821533203125,0.98345947265625,3.57391357421875,0.28411865234375,9.697418212890625,1,1.0,1.0,1.0,1.0,10.00
2024-10-11 20:19:28.279,0.8379699,0.37362707,0.80818367,1.0281823,0.67531615,0.1282358,0.4807153,0.6302717,0.60437834,0.42396465,0.4750222,0.59576255,0.7127943,0.32072937,0.13138719,0.5752339,-0.029348321,-0.060233846,-0.10054019,0.005105623,802.6374,805.05493,805.4579,813.91943,1118.5348,-0.12890625,0.0821533203125,0.98345947265625,3.57391357421875,0.28411865234375,9.697418212890625,1,1.0,1.0,1.0,1.0,10.00
2024-10-11 20:19:28.280,0.8379699,0.37362707,0.80818367,1.0281823,0.67531615,0.1282358,0.4807153,0.6302717,0.60437834,0.42396465,0.4750222,0.59576255,0.7127943,0.32072937,0.13138719,0.5752339,-0.029348321,-0.060233846,-0.10054019,0.005105623,796.5934,805.4579,800.2198,799.81683,813.91943,-0.12890625,0.0821533203125,0.98345947265625,3.57391357421875,0.28411865234375,9.697418212890625,1,1.0,1.0,1.0,1.0,10.00
2024-10-11 20:19:28.281,0.8379699,0.37362707,0.80818367,1.0281823,0.67531615,0.1282358,0.4807153,0.6302717,0.60437834,0.42396465,0.4750222,0.59576255,0.7127943,0.32072937,0.13138719,0.5752339,-0.029348321,-0.060233846,-0.10054019,0.005105623,794.57874,801.8315,793.7729,795.78754,547.5824,-0.12890625,0.0821533203125,0.98345947265625,3.57391357421875,0.28411865234375,9.697418212890625,1,1.0,1.0,1.0,1.0,10.00
2024-10-11 20:19:28.282,0.8379699,0.37362707,0.80818367,1.0281823,0.67531615,0.1282358,0.4807153,0.6302717,0.60437834,0.42396465,0.4750222,0.59576255,0.7127943,0.32072937,0.13138719,0.5752339,-0.029348321,-0.060233846,-0.10054019,0.005105623,809.0842,805.05493,796.5934,803.0403,796.99634,-0.12890625,0.0821533203125,0.98345947265625,3.57391357421875,0.28411865234375,9.697418212890625,1,1.0,1.0,1.0,1.0,10.00
2024-10-11 20:19:28.283,0.8379699,0.37362707,0.80818367,1.0281823,0.67531615,0.1282358,0.4807153,0.6302717,0.60437834,0.42396465,0.4750222,0.59576255,0.7127943,0.32072937,0.13138719,0.5752339,-0.029348321,-0.060233846,-0.10054019,0.005105623,813.5165,803.8461,804.2491,806.6667,875.9707,-0.12890625,0.0821533203125,0.98345947265625,3.57391357421875,0.28411865234375,9.697418212890625,1,1.0,1.0,1.0,1.0,10.00
2024-10-11 20:19:28.284,0.8379699,0.37362707,0.80818367,1.0281823,0.67531615,0.1282358,0.4807153,0.6302717,0.60437834,0.42396465,0.4750222,0.59576255,0.7127943,0.32072937,0.13138719,0.5752339,-0.029348321,-0.060233846,-0.10054019,0.005105623,804.65204,802.23444,801.02563,797.3993,606.0073,-0.12890625,0.0821533203125,0.98345947265625,3.57391357421875,0.28411865234375,9.697418212890625,1,1.0,1.0,1.0,1.0,10.00
2024-10-11 20:19:28.361,0.8379699,0.37362707,0.80818367,1.0281823,0.67531615,0.1282358,0.4807153,0.6302717,0.60437834,0.42396465,0.4750222,0.59576255,0.7127943,0.32072937,0.13138719,0.5752339,-0.029348321,-0.060233846,-0.10054019,0.005105623,807.0696,798.60803,794.9817,801.8315,580.2198,-0.1522216796875,0.09124755859375,0.9808349609375,7.783355712890625,-0.777587890625,12.1722412109375,1,1.0,1.0,1.0,1.0,10.00
2024-10-11 20:19:28.362,0.8379699,0.37362707,0.80818367,1.0281823,0.67531615,0.1282358,0.4807153,0.6302717,0.60437834,0.42396465,0.4750222,0.59576255,0.7127943,0.32072937,0.13138719,0.5752339,-0.029348321,-0.060233846,-0.10054019,0.005105623,810.293,794.57874,803.44324,812.71063,681.75824,-0.1522216796875,0.09124755859375,0.9808349609375,7.783355712890625,-0.777587890625,12.1722412109375,1,1.0,1.0,1.0,1.0,10.00
2024-10-11 20:19:28.362,0.8379699,0.37362707,0.80818367,1.0281823,0.67531615,0.1282358,0.4807153,0.6302717,0.60437834,0.42396465,0.4750222,0.59576255,0.7127943,0.32072937,0.13138719,0.5752339,-0.029348321,-0.060233846,-0.10054019,0.005105623,804.2491,792.96704,803.0403,809.0842,775.2381,-0.1522216796875,0.09124755859375,0.9808349609375,7.783355712890625,-0.777587890625,12.1722412109375,1,1.0,1.0,1.0,1.0,10.00
2024-10-11 20:19:28.363,0.8379699,0.37362707,0.80818367,1.0281823,0.67531615,0.1282358,0.4807153,0.6302717,0.60437834,0.42396465,0.4750222,0.59576255,0.7127943,0.32072937,0.13138719,0.5752339,-0.029348321,-0.060233846,-0.10054019,0.005105623,797.8022,795.38464,793.7729,804.2491,620.10986,-0.1522216796875,0.09124755859375,0.9808349609375,7.783355712890625,-0.777587890625,12.1722412109375,1,1.0,1.0,1.0,1.0,10.00
2024-10-11 20:19:28.365,0.8379699,0.37362707,0.80818367,1.0281823,0.67531615,0.1282358,0.4807153,0.6302717,0.60437834,0.42396465,0.4750222,0.59576255,0.7127943,0.32072937,0.13138719,0.5752339,-0.029348321,-0.060233846,-0.10054019,0.005105623,794.57874,794.9817,798.60803,802.23444,630.18317,-0.1522216796875,0.09124755859375,0.9808349609375,7.783355712890625,-0.777587890625,12.1722412109375,1,1.0,1.0,1.0,1.0,10.00
2024-10-11 20:19:28.366,0.8379699,0.37362707,0.80818367,1.0281823,0.67531615,0.1282358,0.4807153,0.6302717,0.60437834,0.42396465,0.4750222,0.59576255,0.7127943,0.32072937,0.13138719,0.5752339,-0.029348321,-0.060233846,-0.10054019,0.005105623,796.99634,795.78754,800.6227,806.26373,920.293,-0.1522216796875,0.09124755859375,0.9808349609375,7.783355712890625,-0.777587890625,12.1722412109375,1,1.0,1.0,1.0,1.0,10.00
2024-10-11 20:19:28.367,0.8379699,0.37362707,0.80818367,1.0281823,0.67531615,0.1282358,0.4807153,0.6302717,0.60437834,0.42396465,0.4750222,0.59576255,0.7127943,0.32072937,0.13138719,0.5752339,-0.029348321,-0.060233846,-0.10054019,0.005105623,796.99634,792.1612,793.36993,804.65204,878.3883,-0.1522216796875,0.09124755859375,0.9808349609375,7.783355712890625,-0.777587890625,12.1722412109375,1,1.0,1.0,1.0,1.0,10.00
2024-10-11 20:19:28.368,0.8379699,0.37362707,0.80818367,1.0281823,0.67531615,0.1282358,0.4807153,0.6302717,0.60437834,0.42396465,0.4750222,0.59576255,0.7127943,0.32072937,0.13138719,0.5752339,-0.029348321,-0.060233846,-0.10054019,0.005105623,792.96704,793.36993,797.8022,805.8608,640.65936,-0.1522216796875,0.09124755859375,0.9808349609375,7.783355712890625,-0.777587890625,12.1722412109375,1,1.0,1.0,1.0,1.0,10.00
2024-10-11 20:19:28.369,0.8379699,0.37362707,0.80818367,1.0281823,0.67531615,0.1282358,0.4807153,0.6302717,0.60437834,0.42396465,0.4750222,0.59576255,0.7127943,0.32072937,0.13138719,0.5752339,-0.029348321,-0.060233846,-0.10054019,0.005105623,794.17584,800.6227,800.2198,813.91943,758.71796,-0.1522216796875,0.09124755859375,0.9808349609375,7.783355712890625,-0.777587890625,12.1722412109375,1,1.0,1.0,1.0,1.0,10.00
2024-10-11 20:19:28.370,0.8379699,0.37362707,0.80818367,1.0281823,0.67531615,0.1282358,0.4807153,0.6302717,0.60437834,0.42396465,0.4750222,0.59576255,0.7127943,0.32072937,0.13138719,0.5752339,-0.029348321,-0.060233846,-0.10054019,0.005105623,791.3553,798.60803,796.5934,813.1135,879.59705,-0.1522216796875,0.09124755859375,0.9808349609375,7.783355712890625,-0.777587890625,12.1722412109375,1,1.0,1.0,1.0,1.0,10.00
2024-10-11 20:19:28.370,0.8379699,0.37362707,0.80818367,1.0281823,0.67531615,0.1282358,0.4807153,0.6302717,0.60437834,0.42396465,0.4750222,0.59576255,0.7127943,0.32072937,0.13138719,0.5752339,-0.029348321,-0.060233846,-0.10054019,0.005105623,788.1319,797.8022,804.65204,815.5311,830.0366,-0.1522216796875,0.09124755859375,0.9808349609375,7.783355712890625,-0.777587890625,12.1722412109375,1,1.0,1.0,1.0,1.0,10.00
2024-10-11 20:19:28.371,0.8305325,0.35005328,0.7830064,0.98726726,0.6272918,0.10926051,0.4588509,0.6097085,0.60437834,0.42533255,0.4750222,0.56315225,0.700351,0.32071254,0.13063931,0.497942,-0.0076401643,-0.0650489,-0.113055736,0.020110078,789.7436,792.96704,801.8315,813.1135,768.3883,-0.1522216796875,0.09124755859375,0.9808349609375,7.783355712890625,-0.777587890625,12.1722412109375,1,1.0,1.0,1.0,1.0,10.00
2024-10-11 20:19:28.376,0.8305325,0.35005328,0.7830064,0.98726726,0.6272918,0.10926051,0.4588509,0.6097085,0.60437834,0.42533255,0.4750222,0.56315225,0.700351,0.32071254,0.13063931,0.497942,-0.0076401643,-0.0650489,-0.113055736,0.020110078,784.90845,793.7729,801.02563,808.2784,882.8205,-0.15582275390625,0.12066650390625,0.979248046875,12.538604736328125,-1.5252685546875,10.51239013671875,1,1.0,1.0,1.0,1.0,10.00
2024-10-11 20:19:28.377,0.8305325,0.35005328,0.7830064,0.98726726,0.6272918,0.10926051,0.4588509,0.6097085,0.60437834,0.42533255,0.4750222,0.56315225,0.700351,0.32071254,0.13063931,0.497942,-0.0076401643,-0.0650489,-0.113055736,0.020110078,784.90845,799.81683,804.2491,803.0403,923.5165,-0.15582275390625,0.12066650390625,0.979248046875,12.538604736328125,-1.5252685546875,10.51239013671875,1,1.0,1.0,1.0,1.0,10.00
2024-10-11 20:19:28.378,0.8305325,0.35005328,0.7830064,0.98726726,0.6272918,0.10926051,0.4588509,0.6097085,0.60437834,0.42533255,0.4750222,0.56315225,0.700351,0.32071254,0.13063931,0.497942,-0.0076401643,-0.0650489,-0.113055736,0.020110078,797.8022,797.8022,800.6227,796.99634,755.4945,-0.15582275390625,0.12066650390625,0.979248046875,12.538604736328125,-1.5252685546875,10.51239013671875,1,1.0,1.0,1.0,1.0,10.00
2024-10-11 20:19:28.379,0.8305325,0.35005328,0.7830064,0.98726726,0.6272918,0.10926051,0.4588509,0.6097085,0.60437834,0.42533255,0.4750222,0.56315225,0.700351,0.32071254,0.13063931,0.497942,-0.0076401643,-0.0650489,-0.113055736,0.020110078,794.17584,794.9817,798.20514,797.3993,659.59705,-0.15582275390625,0.12066650390625,0.979248046875,12.538604736328125,-1.5252685546875,10.51239013671875,1,1.0,1.0,1.0,1.0,10.00
2024-10-11 20:19:28.380,0.8305325,0.35005328,0.7830064,0.98726726,0.6272918,0.10926051,0.4588509,0.6097085,0.60437834,0.42533255,0.4750222,0.56315225,0.700351,0.32071254,0.13063931,0.497942,-0.0076401643,-0.0650489,-0.113055736,0.020110078,793.7729,788.5348,790.54944,798.20514,778.46155,-0.15582275390625,0.12066650390625,0.979248046875,12.538604736328125,-1.5252685546875,10.51239013671875,1,1.0,1.0,1.0,1.0,10.00
2024-10-11 20:19:28.381,0.8305325,0.35005328,0.7830064,0.98726726,0.6272918,0.10926051,0.4588509,0.6097085,0.60437834,0.42533255,0.4750222,0.56315225,0.700351,0.32071254,0.13063931,0.497942,-0.0076401643,-0.0650489,-0.113055736,0.020110078,795.78754,795.38464,792.1612,798.60803,941.2454,-0.15582275390625,0.12066650390625,0.979248046875,12.538604736328125,-1.5252685546875,10.51239013671875,1,1.0,1.0,1.0,1.0,10.00
2024-10-11 20:19:28.382,0.8305325,0.35005328,0.7830064,0.98726726,0.6272918,0.10926051,0.4588509,0.6097085,0.60437834,0.42533255,0.4750222,0.56315225,0.700351,0.32071254,0.13063931,0.497942,-0.0076401643,-0.0650489,-0.113055736,0.020110078,795.78754,805.4579,790.54944,796.99634,856.63007,-0.15582275390625,0.12066650390625,0.979248046875,12.538604736328125,-1.5252685546875,10.51239013671875,1,1.0,1.0,1.0,1.0,10.00
2024-10-11 20:19:28.382,0.8305325,0.35005328,0.7830064,0.98726726,0.6272918,0.10926051,0.4588509,0.6097085,0.60437834,0.42533255,0.4750222,0.56315225,0.700351,0.32071254,0.13063931,0.497942,-0.0076401643,-0.0650489,-0.113055736,0.020110078,801.02563,801.8315,799.011,805.4579,761.9414,-0.15582275390625,0.12066650390625,0.979248046875,12.538604736328125,-1.5252685546875,10.51239013671875,1,1.0,1.0,1.0,1.0,10.00
2024-10-11 20:19:28.383,0.8305325,0.35005328,0.7830064,0.98726726,0.6272918,0.10926051,0.4588509,0.6097085,0.60437834,0.42533255,0.4750222,0.56315225,0.700351,0.32071254,0.13063931,0.497942,-0.0076401643,-0.0650489,-0.113055736,0.020110078,802.6374,802.6374,804.2491,810.293,846.55676,-0.15582275390625,0.12066650390625,0.979248046875,12.538604736328125,-1.5252685546875,10.51239013671875,1,1.0,1.0,1.0,1.0,10.00
2024-10-11 20:19:28.384,0.8305325,0.35005328,0.7830064,0.98726726,0.6272918,0.10926051,0.4588509,0.6097085,0.60437834,0.42533255,0.4750222,0.56315225,0.700351,0.32071254,0.13063931,0.497942,-0.0076401643,-0.0650489,-0.113055736,0.020110078,802.6374,808.2784,800.2198,811.9048,1153.9927,-0.15582275390625,0.12066650390625,0.979248046875,12.538604736328125,-1.5252685546875,10.51239013671875,1,1.0,1.0,1.0,1.0,10.00
2024-10-11 20:19:28.385,0.8305325,0.35005328,0.7830064,0.98726726,0.6272918,0.10926051,0.4588509,0.6097085,0.60437834,0.42533255,0.4750222,0.56315225,0.700351,0.32071254,0.13063931,0.497942,-0.0076401643,-0.0650489,-0.113055736,0.020110078,794.9817,803.8461,793.7729,811.0989,1241.4286,-0.15582275390625,0.12066650390625,0.979248046875,12.538604736328125,-1.5252685546875,10.51239013671875,1,1.0,1.0,1.0,1.0,10.00
2024-10-11 20:19:28.386,0.8305325,0.35005328,0.7830064,0.98726726,0.6272918,0.10926051,0.4588509,0.6097085,0.60437834,0.42533255,0.4750222,0.56315225,0.700351,0.32071254,0.13063931,0.497942,-0.0076401643,-0.0650489,-0.113055736,0.020110078,798.60803,801.02563,792.5641,806.6667,1059.7069,-0.15582275390625,0.12066650390625,0.979248046875,12.538604736328125,-1.5252685546875,10.51239013671875,1,1.0,1.0,1.0,1.0,10.00
2024-10-11 20:19:28.387,0.8305325,0.35005328,0.7830064,0.98726726,0.6272918,0.10926051,0.4588509,0.6097085,0.60437834,0.42533255,0.4750222,0.56315225,0.700351,0.32071254,0.13063931,0.497942,-0.0076401643,-0.0650489,-0.113055736,0.020110078,793.7729,803.44324,796.99634,796.99634,940.0366,-0.15582275390625,0.12066650390625,0.979248046875,12.538604736328125,-1.5252685546875,10.51239013671875,1,1.0,1.0,1.0,1.0,10.00
2024-10-11 20:19:28.388,0.8305325,0.35005328,0.7830064,0.98726726,0.6272918,0.10926051,0.4588509,0.6097085,0.60437834,0.42533255,0.4750222,0.56315225,0.700351,0.32071254,0.13063931,0.497942,-0.0076401643,-0.0650489,-0.113055736,0.020110078,794.9817,796.5934,795.78754,799.011,1150.3663,-0.15582275390625,0.12066650390625,0.979248046875,12.538604736328125,-1.5252685546875,10.51239013671875,1,1.0,1.0,1.0,1.0,10.00
2024-10-11 20:19:28.389,0.8305325,0.35005328,0.7830064,0.98726726,0.6272918,0.10926051,0.4588509,0.6097085,0.60437834,0.42533255,0.4750222,0.56315225,0.700351,0.32071254,0.13063931,0.497942,-0.0076401643,-0.0650489,-0.113055736,0.020110078,803.44324,799.41394,796.1905,796.99634,934.3956,-0.15582275390625,0.12066650390625,0.979248046875,12.538604736328125,-1.5252685546875,10.51239013671875,1,1.0,1.0,1.0,1.0,10.00
2024-10-11 20:19:28.390,0.8305325,0.35005328,0.7830064,0.98726726,0.6272918,0.10926051,0.4588509,0.6097085,0.60437834,0.42533255,0.4750222,0.56315225,0.700351,0.32071254,0.13063931,0.497942,-0.0076401643,-0.0650489,-0.113055736,0.020110078,798.60803,801.8315,797.3993,796.99634,642.27106,-0.15582275390625,0.12066650390625,0.979248046875,12.538604736328125,-1.5252685546875,10.51239013671875,1,1.0,1.0,1.0,1.0,10.00
2024-10-11 20:19:28.392,0.8305325,0.35005328,0.7830064,0.98726726,0.6272918,0.10926051,0.4588509,0.6097085,0.60437834,0.42533255,0.4750222,0.56315225,0.700351,0.32071254,0.13063931,0.497942,-0.0076401643,-0.0650489,-0.113055736,0.020110078,802.6374,800.6227,798.60803,809.4872,708.7546,-0.15582275390625,0.12066650390625,0.979248046875,12.538604736328125,-1.5252685546875,10.51239013671875,1,1.0,1.0,1.0,1.0,10.00
2024-10-11 20:19:28.393,0.8305325,0.35005328,0.7830064,0.98726726,0.6272918,0.10926051,0.4588509,0.6097085,0.60437834,0.42533255,0.4750222,0.56315225,0.700351,0.32071254,0.13063931,0.497942,-0.0076401643,-0.0650489,-0.113055736,0.020110078,793.7729,794.17584,798.60803,805.8608,680.54944,-0.15582275390625,0.12066650390625,0.979248046875,12.538604736328125,-1.5252685546875,10.51239013671875,1,1.0,1.0,1.0,1.0,10.00
2024-10-11 20:19:28.394,0.8305325,0.35005328,0.7830064,0.98726726,0.6272918,0.10926051,0.4588509,0.6097085,0.60437834,0.42533255,0.4750222,0.56315225,0.700351,0.32071254,0.13063931,0.497942,-0.0076401643,-0.0650489,-0.113055736,0.020110078,793.7729,789.34064,797.8022,799.81683,571.3553,-0.15582275390625,0.12066650390625,0.979248046875,12.538604736328125,-1.5252685546875,10.51239013671875,1,1.0,1.0,1.0,1.0,10.00
2024-10-11 20:19:28.396,0.8305325,0.35005328,0.7830064,0.98726726,0.6272918,0.10926051,0.4588509,0.6097085,0.60437834,0.42533255,0.4750222,0.56315225,0.700351,0.32071254,0.13063931,0.497942,-0.0076401643,-0.0650489,-0.113055736,0.020110078,801.8315,799.41394,799.011,805.8608,638.24176,-0.15582275390625,0.12066650390625,0.979248046875,12.538604736328125,-1.5252685546875,10.51239013671875,1,1.0,1.0,1.0,1.0,10.00
2024-10-11 20:19:28.397,0.8305325,0.35005328,0.7830064,0.98726726,0.6272918,0.10926051,0.4588509,0.6097085,0.60437834,0.42533255,0.4750222,0.56315225,0.700351,0.32071254,0.13063931,0.497942,-0.0076401643,-0.0650489,-0.113055736,0.020110078,806.26373,805.05493,800.6227,808.68134,812.3077,-0.15582275390625,0.12066650390625,0.979248046875,12.538604736328125,-1.5252685546875,10.51239013671875,1,1.0,1.0,1.0,1.0,10.00
2024-10-11 20:19:28.398,0.8305325,0.35005328,0.7830064,0.98726726,0.6272918,0.10926051,0.4588509,0.6097085,0.60437834,0.42533255,0.4750222,0.56315225,0.700351,0.32071254,0.13063931,0.497942,-0.0076401643,-0.0650489,-0.113055736,0.020110078,821.1722,802.23444,799.81683,808.68134,657.5824,-0.15582275390625,0.12066650390625,0.979248046875,12.538604736328125,-1.5252685546875,10.51239013671875,1,1.0,1.0,1.0,1.0,10.00
2024-10-11 20:19:28.400,0.8305325,0.35005328,0.7830064,0.98726726,0.6272918,0.10926051,0.4588509,0.6097085,0.60437834,0.42533255,0.4750222,0.56315225,0.700351,0.32071254,0.13063931,0.497942,-0.0076401643,-0.0650489,-0.113055736,0.020110078,813.1135,803.8461,801.02563,803.0403,494.79852,-0.15582275390625,0.12066650390625,0.979248046875,12.538604736328125,-1.5252685546875,10.51239013671875,1,1.0,1.0,1.0,1.0,10.00
2024-10-11 20:19:28.401,0.8305325,0.35005328,0.7830064,0.98726726,0.6272918,0.10926051,0.4588509,0.6097085,0.60437834,0.42533255,0.4750222,0.56315225,0.700351,0.32071254,0.13063931,0.497942,-0.0076401643,-0.0650489,-0.113055736,0.020110078,807.47253,807.0696,801.8315,804.2491,654.35895,-0.15582275390625,0.12066650390625,0.979248046875,12.538604736328125,-1.5252685546875,10.51239013671875,1,1.0,1.0,1.0,1.0,10.00
2024-10-11 20:19:28.432,0.8305325,0.35005328,0.7830064,0.98726726,0.6272918,0.10926051,0.4588509,0.6097085,0.60437834,0.42533255,0.4750222,0.56315225,0.700351,0.32071254,0.13063931,0.497942,-0.0076401643,-0.0650489,-0.113055736,0.020110078,810.293,799.011,795.38464,807.8755,931.978,-0.1458740234375,0.15130615234375,0.9818115234375,15.005950927734375,-3.745880126953125,8.98712158203125,1,1.0,1.0,1.0,1.0,10.00
2024-10-11 20:19:28.433,0.8111618,0.23337354,0.7591116,0.49422672,0.60305476,0.08222132,0.44471738,0.49539518,0.60437834,0.34521914,0.4750222,0.58888894,0.68817306,0.32514858,0.124269076,0.47137174,-3.3905153E-4,-0.065473326,-0.12628949,0.039626054,811.0989,797.3993,798.60803,809.89014,796.99634,-0.1458740234375,0.15130615234375,0.9818115234375,15.005950927734375,-3.745880126953125,8.98712158203125,1,1.0,1.0,1.0,1.0,10.00
2024-10-11 20:19:28.438,0.8111618,0.23337354,0.7591116,0.49422672,0.60305476,0.08222132,0.44471738,0.49539518,0.60437834,0.34521914,0.4750222,0.58888894,0.68817306,0.32514858,0.124269076,0.47137174,-3.3905153E-4,-0.065473326,-0.12628949,0.039626054,811.0989,801.8315,803.8461,807.47253,615.2747,-0.1458740234375,0.15130615234375,0.9818115234375,15.005950927734375,-3.745880126953125,8.98712158203125,1,1.0,1.0,1.0,1.0,10.00
2024-10-11 20:19:28.438,0.8111618,0.23337354,0.7591116,0.49422672,0.60305476,0.08222132,0.44471738,0.49539518,0.60437834,0.34521914,0.4750222,0.58888894,0.68817306,0.32514858,0.124269076,0.47137174,-3.3905153E-4,-0.065473326,-0.12628949,0.039626054,810.696,804.2491,797.8022,805.8608,684.57874,-0.1458740234375,0.15130615234375,0.9818115234375,15.005950927734375,-3.745880126953125,8.98712158203125,1,1.0,1.0,1.0,1.0,10.00
2024-10-11 20:19:28.439,0.8111618,0.23337354,0.7591116,0.49422672,0.60305476,0.08222132,0.44471738,0.49539518,0.60437834,0.34521914,0.4750222,0.58888894,0.68817306,0.32514858,0.124269076,0.47137174,-3.3905153E-4,-0.065473326,-0.12628949,0.039626054,812.3077,801.02563,799.41394,810.696,798.60803,-0.1458740234375,0.15130615234375,0.9818115234375,15.005950927734375,-3.745880126953125,8.98712158203125,1,1.0,1.0,1.0,1.0,10.00
2024-10-11 20:19:28.439,0.8111618,0.23337354,0.7591116,0.49422672,0.60305476,0.08222132,0.44471738,0.49539518,0.60437834,0.34521914,0.4750222,0.58888894,0.68817306,0.32514858,0.124269076,0.47137174,-3.3905153E-4,-0.065473326,-0.12628949,0.039626054,803.8461,790.14655,799.81683,803.8461,793.7729,-0.1458740234375,0.15130615234375,0.9818115234375,15.005950927734375,-3.745880126953125,8.98712158203125,1,1.0,1.0,1.0,1.0,10.00
2024-10-11 20:19:28.440,0.8111618,0.23337354,0.7591116,0.49422672,0.60305476,0.08222132,0.44471738,0.49539518,0.60437834,0.34521914,0.4750222,0.58888894,0.68817306,0.32514858,0.124269076,0.47137174,-3.3905153E-4,-0.065473326,-0.12628949,0.039626054,805.8608,792.5641,798.60803,795.38464,732.1245,-0.1458740234375,0.15130615234375,0.9818115234375,15.005950927734375,-3.745880126953125,8.98712158203125,1,1.0,1.0,1.0,1.0,10.00
2024-10-11 20:19:28.440,0.8111618,0.23337354,0.7591116,0.49422672,0.60305476,0.08222132,0.44471738,0.49539518,0.60437834,0.34521914,0.4750222,0.58888894,0.68817306,0.32514858,0.124269076,0.47137174,-3.3905153E-4,-0.065473326,-0.12628949,0.039626054,804.2491,793.7729,799.41394,800.6227,879.19415,-0.1458740234375,0.15130615234375,0.9818115234375,15.005950927734375,-3.745880126953125,8.98712158203125,1,1.0,1.0,1.0,1.0,10.00
2024-10-11 20:19:28.441,0.8111618,0.23337354,0.7591116,0.49422672,0.60305476,0.08222132,0.44471738,0.49539518,0.60437834,0.34521914,0.4750222,0.58888894,0.68817306,0.32514858,0.124269076,0.47137174,-3.3905153E-4,-0.065473326,-0.12628949,0.039626054,807.0696,796.1905,790.9524,813.1135,1096.7766,-0.1458740234375,0.15130615234375,0.9818115234375,15.005950927734375,-3.745880126953125,8.98712158203125,1,1.0,1.0,1.0,1.0,10.00
2024-10-11 20:19:28.441,0.8111618,0.23337354,0.7591116,0.49422672,0.60305476,0.08222132,0.44471738,0.49539518,0.60437834,0.34521914,0.4750222,0.58888894,0.68817306,0.32514858,0.124269076,0.47137174,-3.3905153E-4,-0.065473326,-0.12628949,0.039626054,811.0989,806.6667,790.14655,803.0403,799.81683,-0.1458740234375,0.15130615234375,0.9818115234375,15.005950927734375,-3.745880126953125,8.98712158203125,1,1.0,1.0,1.0,1.0,10.00
2024-10-11 20:19:28.442,0.8111618,0.23337354,0.7591116,0.49422672,0.60305476,0.08222132,0.44471738,0.49539518,0.60437834,0.34521914,0.4750222,0.58888894,0.68817306,0.32514858,0.124269076,0.47137174,-3.3905153E-4,-0.065473326,-0.12628949,0.039626054,803.0403,802.6374,803.44324,799.41394,574.57874,-0.1458740234375,0.15130615234375,0.9818115234375,15.005950927734375,-3.745880126953125,8.98712158203125,1,1.0,1.0,1.0,1.0,10.00
2024-10-11 20:19:28.442,0.8111618,0.23337354,0.7591116,0.49422672,0.60305476,0.08222132,0.44471738,0.49539518,0.60437834,0.34521914,0.4750222,0.58888894,0.68817306,0.32514858,0.124269076,0.47137174,-3.3905153E-4,-0.065473326,-0.12628949,0.039626054,798.20514,799.81683,802.6374,804.2491,591.9048,-0.1458740234375,0.15130615234375,0.9818115234375,15.005950927734375,-3.745880126953125,8.98712158203125,1,1.0,1.0,1.0,1.0,10.00
2024-10-11 20:19:28.443,0.8111618,0.23337354,0.7591116,0.49422672,0.60305476,0.08222132,0.44471738,0.49539518,0.60437834,0.34521914,0.4750222,0.58888894,0.68817306,0.32514858,0.124269076,0.47137174,-3.3905153E-4,-0.065473326,-0.12628949,0.039626054,799.011,801.4286,798.60803,802.6374,558.0586,-0.1512451171875,0.18511962890625,0.996826171875,12.9498291015625,-5.899200439453125,5.48797607421875,1,1.0,1.0,1.0,1.0,10.00
2024-10-11 20:19:28.443,0.8111618,0.23337354,0.7591116,0.49422672,0.60305476,0.08222132,0.44471738,0.49539518,0.60437834,0.34521914,0.4750222,0.58888894,0.68817306,0.32514858,0.124269076,0.47137174,-3.3905153E-4,-0.065473326,-0.12628949,0.039626054,801.8315,800.2198,799.011,797.3993,625.7509,-0.1512451171875,0.18511962890625,0.996826171875,12.9498291015625,-5.899200439453125,5.48797607421875,1,1.0,1.0,1.0,1.0,10.00
2024-10-11 20:19:28.444,0.8111618,0.23337354,0.7591116,0.49422672,0.60305476,0.08222132,0.44471738,0.49539518,0.60437834,0.34521914,0.4750222,0.58888894,0.68817306,0.32514858,0.124269076,0.47137174,-3.3905153E-4,-0.065473326,-0.12628949,0.039626054,797.8022,794.9817,799.81683,795.78754,682.1612,-0.1512451171875,0.18511962890625,0.996826171875,12.9498291015625,-5.899200439453125,5.48797607421875,1,1.0,1.0,1.0,1.0,10.00
2024-10-11 20:19:28.444,0.8111618,0.23337354,0.7591116,0.49422672,0.60305476,0.08222132,0.44471738,0.49539518,0.60437834,0.34521914,0.4750222,0.58888894,0.68817306,0.32514858,0.124269076,0.47137174,-3.3905153E-4,-0.065473326,-0.12628949,0.039626054,800.6227,793.36993,797.3993,809.89014,664.43225,-0.1512451171875,0.18511962890625,0.996826171875,12.9498291015625,-5.899200439453125,5.48797607421875,1,1.0,1.0,1.0,1.0,10.00
2024-10-11 20:19:28.445,0.8111618,0.23337354,0.7591116,0.49422672,0.60305476,0.08222132,0.44471738,0.49539518,0.60437834,0.34521914,0.4750222,0.58888894,0.68817306,0.32514858,0.124269076,0.47137174,-3.3905153E-4,-0.065473326,-0.12628949,0.039626054,807.47253,793.36993,794.9817,810.696,660.40295,-0.1512451171875,0.18511962890625,0.996826171875,12.9498291015625,-5.899200439453125,5.48797607421875,1,1.0,1.0,1.0,1.0,10.00
2024-10-11 20:19:28.445,0.8111618,0.23337354,0.7591116,0.49422672,0.60305476,0.08222132,0.44471738,0.49539518,0.60437834,0.34521914,0.4750222,0.58888894,0.68817306,0.32514858,0.124269076,0.47137174,-3.3905153E-4,-0.065473326,-0.12628949,0.039626054,798.60803,794.9817,802.23444,803.44324,767.1795,-0.1512451171875,0.18511962890625,0.996826171875,12.9498291015625,-5.899200439453125,5.48797607421875,1,1.0,1.0,1.0,1.0,10.00
2024-10-11 20:19:28.446,0.8111618,0.23337354,0.7591116,0.49422672,0.60305476,0.08222132,0.44471738,0.49539518,0.60437834,0.34521914,0.4750222,0.58888894,0.68817306,0.32514858,0.124269076,0.47137174,-3.3905153E-4,-0.065473326,-0.12628949,0.039626054,790.14655,788.1319,807.47253,798.60803,1027.0696,-0.1512451171875,0.18511962890625,0.996826171875,12.9498291015625,-5.899200439453125,5.48797607421875,1,1.0,1.0,1.0,1.0,10.00
2024-10-11 20:19:28.446,0.8111618,0.23337354,0.7591116,0.49422672,0.60305476,0.08222132,0.44471738,0.49539518,0.60437834,0.34521914,0.4750222,0.58888894,0.68817306,0.32514858,0.124269076,0.47137174,-3.3905153E-4,-0.065473326,-0.12628949,0.039626054,796.1905,782.8938,799.81683,805.8608,1032.3077,-0.1512451171875,0.18511962890625,0.996826171875,12.9498291015625,-5.899200439453125,5.48797607421875,1,1.0,1.0,1.0,1.0,10.00
2024-10-11 20:19:28.446,0.8111618,0.23337354,0.7591116,0.49422672,0.60305476,0.08222132,0.44471738,0.49539518,0.60437834,0.34521914,0.4750222,0.58888894,0.68817306,0.32514858,0.124269076,0.47137174,-3.3905153E-4,-0.065473326,-0.12628949,0.039626054,798.20514,798.20514,794.9817,802.23444,763.1502,-0.1512451171875,0.18511962890625,0.996826171875,12.9498291015625,-5.899200439453125,5.48797607421875,1,1.0,1.0,1.0,1.0,10.00
2024-10-11 20:19:28.447,0.8111618,0.23337354,0.7591116,0.49422672,0.60305476,0.08222132,0.44471738,0.49539518,0.60437834,0.34521914,0.4750222,0.58888894,0.68817306,0.32514858,0.124269076,0.47137174,-3.3905153E-4,-0.065473326,-0.12628949,0.039626054,793.7729,809.4872,801.02563,794.57874,766.77655,-0.1512451171875,0.18511962890625,0.996826171875,12.9498291015625,-5.899200439453125,5.48797607421875,1,1.0,1.0,1.0,1.0,10.00
2024-10-11 20:19:28.447,0.8111618,0.23337354,0.7591116,0.49422672,0.60305476,0.08222132,0.44471738,0.49539518,0.60437834,0.34521914,0.4750222,0.58888894,0.68817306,0.32514858,0.124269076,0.47137174,-3.3905153E-4,-0.065473326,-0.12628949,0.039626054,795.78754,804.65204,801.4286,794.57874,884.83514,-0.1512451171875,0.18511962890625,0.996826171875,12.9498291015625,-5.899200439453125,5.48797607421875,1,1.0,1.0,1.0,1.0,10.00
2024-10-11 20:19:28.448,0.8111618,0.23337354,0.7591116,0.49422672,0.60305476,0.08222132,0.44471738,0.49539518,0.60437834,0.34521914,0.4750222,0.58888894,0.68817306,0.32514858,0.124269076,0.47137174,-3.3905153E-4,-0.065473326,-0.12628949,0.039626054,795.78754,798.60803,799.81683,796.5934,1115.3114,-0.1512451171875,0.18511962890625,0.996826171875,12.9498291015625,-5.899200439453125,5.48797607421875,1,1.0,1.0,1.0,1.0,10.00
2024-10-11 20:19:28.474,0.8111618,0.23337354,0.7591116,0.49422672,0.60305476,0.08222132,0.44471738,0.49539518,0.60437834,0.34521914,0.4750222,0.58888894,0.68817306,0.32514858,0.124269076,0.47137174,-3.3905153E-4,-0.065473326,-0.12628949,0.039626054,794.17584,794.9817,793.7729,793.7729,936.8132,-0.1376953125,0.1900634765625,0.98944091796875,10.310516357421875,-6.34033203125,-0.186920166015625,1,1.0,1.0,1.0,1.0,10.00
2024-10-11 20:19:28.475,0.8111618,0.23337354,0.7591116,0.49422672,0.60305476,0.08222132,0.44471738,0.49539518,0.60437834,0.34521914,0.4750222,0.58888894,0.68817306,0.32514858,0.124269076,0.47137174,-3.3905153E-4,-0.065473326,-0.12628949,0.039626054,800.6227,792.96704,795.38464,792.5641,719.6337,-0.1376953125,0.1900634765625,0.98944091796875,10.310516357421875,-6.34033203125,-0.186920166015625,1,1.0,1.0,1.0,1.0,10.00
2024-10-11 20:19:28.476,0.8111618,0.23337354,0.7591116,0.49422672,0.60305476,0.08222132,0.44471738,0.49539518,0.60437834,0.34521914,0.4750222,0.58888894,0.68817306,0.32514858,0.124269076,0.47137174,-3.3905153E-4,-0.065473326,-0.12628949,0.039626054,794.57874,798.60803,804.65204,789.7436,878.7912,-0.1376953125,0.1900634765625,0.98944091796875,10.310516357421875,-6.34033203125,-0.186920166015625,1,1.0,1.0,1.0,1.0,10.00
2024-10-11 20:19:28.476,0.77960867,0.09401613,0.73616236,0.43203604,0.5940196,0.06135874,0.4370468,0.52992254,0.60437834,0.2866262,0.4750222,0.59744793,0.67379034,0.32136765,0.112923354,0.44582582,-0.008631495,-0.069087684,-0.13928019,0.015545098,795.38464,801.8315,807.47253,794.17584,812.71063,-0.1376953125,0.1900634765625,0.98944091796875,10.310516357421875,-6.34033203125,-0.186920166015625,1,1.0,1.0,1.0,1.0,10.00
2024-10-11 20:19:28.480,0.77960867,0.09401613,0.73616236,0.43203604,0.5940196,0.06135874,0.4370468,0.52992254,0.60437834,0.2866262,0.4750222,0.59744793,0.67379034,0.32136765,0.112923354,0.44582582,-0.008631495,-0.069087684,-0.13928019,0.015545098,801.8315,804.2491,807.47253,797.8022,699.4872,-0.1376953125,0.1900634765625,0.98944091796875,10.310516357421875,-6.34033203125,-0.186920166015625,1,1.0,1.0,1.0,1.0,10.00
2024-10-11 20:19:28.481,0.77960867,0.09401613,0.73616236,0.43203604,0.5940196,0.06135874,0.4370468,0.52992254,0.60437834,0.2866262,0.4750222,0.59744793,0.67379034,0.32136765,0.112923354,0.44582582,-0.008631495,-0.069087684,-0.13928019,0.015545098,801.8315,793.7729,805.05493,790.9524,840.10986,-0.1376953125,0.1900634765625,0.98944091796875,10.310516357421875,-6.34033203125,-0.186920166015625,1,1.0,1.0,1.0,1.0,10.00
2024-10-11 20:19:28.481,0.77960867,0.09401613,0.73616236,0.43203604,0.5940196,0.06135874,0.4370468,0.52992254,0.60437834,0.2866262,0.4750222,0.59744793,0.67379034,0.32136765,0.112923354,0.44582582,-0.008631495,-0.069087684,-0.13928019,0.015545098,798.60803,778.86444,800.2198,803.0403,1118.9377,-0.1376953125,0.1900634765625,0.98944091796875,10.310516357421875,-6.34033203125,-0.186920166015625,1,1.0,1.0,1.0,1.0,10.00
2024-10-11 20:19:28.482,0.77960867,0.09401613,0.73616236,0.43203604,0.5940196,0.06135874,0.4370468,0.52992254,0.60437834,0.2866262,0.4750222,0.59744793,0.67379034,0.32136765,0.112923354,0.44582582,-0.008631495,-0.069087684,-0.13928019,0.015545098,790.9524,790.54944,793.7729,809.89014,1042.7839,-0.1376953125,0.1900634765625,0.98944091796875,10.310516357421875,-6.34033203125,-0.186920166015625,1,1.0,1.0,1.0,1.0,10.00
2024-10-11 20:19:28.482,0.77960867,0.09401613,0.73616236,0.43203604,0.5940196,0.06135874,0.4370468,0.52992254,0.60437834,0.2866262,0.4750222,0.59744793,0.67379034,0.32136765,0.112923354,0.44582582,-0.008631495,-0.069087684,-0.13928019,0.015545098,793.36993,799.81683,796.1905,796.5934,624.5421,-0.1376953125,0.1900634765625,0.98944091796875,10.310516357421875,-6.34033203125,-0.186920166015625,1,1.0,1.0,1.0,1.0,10.00
2024-10-11 20:19:28.483,0.77960867,0.09401613,0.73616236,0.43203604,0.5940196,0.06135874,0.4370468,0.52992254,0.60437834,0.2866262,0.4750222,0.59744793,0.67379034,0.32136765,0.112923354,0.44582582,-0.008631495,-0.069087684,-0.13928019,0.015545098,800.6227,794.9817,793.7729,791.75824,646.7033,-0.1376953125,0.1900634765625,0.98944091796875,10.310516357421875,-6.34033203125,-0.186920166015625,1,1.0,1.0,1.0,1.0,10.00
2024-10-11 20:19:28.483,0.77960867,0.09401613,0.73616236,0.43203604,0.5940196,0.06135874,0.4370468,0.52992254,0.60437834,0.2866262,0.4750222,0.59744793,0.67379034,0.32136765,0.112923354,0.44582582,-0.008631495,-0.069087684,-0.13928019,0.015545098,797.3993,793.7729,796.1905,799.011,830.4396,-0.1376953125,0.1900634765625,0.98944091796875,10.310516357421875,-6.34033203125,-0.186920166015625,1,1.0,1.0,1.0,1.0,10.00
2024-10-11 20:19:28.484,0.77960867,0.09401613,0.73616236,0.43203604,0.5940196,0.06135874,0.4370468,0.52992254,0.60437834,0.2866262,0.4750222,0.59744793,0.67379034,0.32136765,0.112923354,0.44582582,-0.008631495,-0.069087684,-0.13928019,0.015545098,800.6227,792.1612,805.05493,803.0403,759.12085,-0.1376953125,0.1900634765625,0.98944091796875,10.310516357421875,-6.34033203125,-0.186920166015625,1,1.0,1.0,1.0,1.0,10.00
2024-10-11 20:19:28.485,0.77960867,0.09401613,0.73616236,0.43203604,0.5940196,0.06135874,0.4370468,0.52992254,0.60437834,0.2866262,0.4750222,0.59744793,0.67379034,0.32136765,0.112923354,0.44582582,-0.008631495,-0.069087684,-0.13928019,0.015545098,801.8315,793.36993,801.02563,804.2491,573.36993,-0.1163330078125,0.19976806640625,0.9837646484375,10.938568115234375,-5.570220947265625,-3.2000732421875,1,1.0,1.0,1.0,1.0,10.00
2024-10-11 20:19:28.486,0.77960867,0.09401613,0.73616236,0.43203604,0.5940196,0.06135874,0.4370468,0.52992254,0.60437834,0.2866262,0.4750222,0.59744793,0.67379034,0.32136765,0.112923354,0.44582582,-0.008631495,-0.069087684,-0.13928019,0.015545098,786.9231,799.41394,801.8315,808.68134,558.86444,-0.1163330078125,0.19976806640625,0.9837646484375,10.938568115234375,-5.570220947265625,-3.2000732421875,1,1.0,1.0,1.0,1.0,10.00
2024-10-11 20:19:28.487,0.77960867,0.09401613,0.73616236,0.43203604,0.5940196,0.06135874,0.4370468,0.52992254,0.60437834,0.2866262,0.4750222,0.59744793,0.67379034,0.32136765,0.112923354,0.44582582,-0.008631495,-0.069087684,-0.13928019,0.015545098,784.5055,799.41394,803.8461,805.8608,740.18317,-0.1163330078125,0.19976806640625,0.9837646484375,10.938568115234375,-5.570220947265625,-3.2000732421875,1,1.0,1.0,1.0,1.0,10.00
2024-10-11 20:19:28.488,0.77960867,0.09401613,0.73616236,0.43203604,0.5940196,0.06135874,0.4370468,0.52992254,0.60437834,0.2866262,0.4750222,0.59744793,0.67379034,0.32136765,0.112923354,0.44582582,-0.008631495,-0.069087684,-0.13928019,0.015545098,789.34064,798.20514,799.81683,796.1905,701.9048,-0.1163330078125,0.19976806640625,0.9837646484375,10.938568115234375,-5.570220947265625,-3.2000732421875,1,1.0,1.0,1.0,1.0,10.00
2024-10-11 20:19:28.488,0.77960867,0.09401613,0.73616236,0.43203604,0.5940196,0.06135874,0.4370468,0.52992254,0.60437834,0.2866262,0.4750222,0.59744793,0.67379034,0.32136765,0.112923354,0.44582582,-0.008631495,-0.069087684,-0.13928019,0.015545098,779.67035,796.5934,798.60803,792.1612,515.7509,-0.1163330078125,0.19976806640625,0.9837646484375,10.938568115234375,-5.570220947265625,-3.2000732421875,1,1.0,1.0,1.0,1.0,10.00
2024-10-11 20:19:28.489,0.77960867,0.09401613,0.73616236,0.43203604,0.5940196,0.06135874,0.4370468,0.52992254,0.60437834,0.2866262,0.4750222,0.59744793,0.67379034,0.32136765,0.112923354,0.44582582,-0.008631495,-0.069087684,-0.13928019,0.015545098,782.49084,794.9817,796.5934,797.8022,680.9524,-0.1163330078125,0.19976806640625,0.9837646484375,10.938568115234375,-5.570220947265625,-3.2000732421875,1,1.0,1.0,1.0,1.0,10.00
2024-10-11 20:19:28.490,0.77960867,0.09401613,0.73616236,0.43203604,0.5940196,0.06135874,0.4370468,0.52992254,0.60437834,0.2866262,0.4750222,0.59744793,0.67379034,0.32136765,0.112923354,0.44582582,-0.008631495,-0.069087684,-0.13928019,0.015545098,784.5055,794.17584,794.17584,804.65204,949.707,-0.1163330078125,0.19976806640625,0.9837646484375,10.938568115234375,-5.570220947265625,-3.2000732421875,1,1.0,1.0,1.0,1.0,10.00
2024-10-11 20:19:28.491,0.77960867,0.09401613,0.73616236,0.43203604,0.5940196,0.06135874,0.4370468,0.52992254,0.60437834,0.2866262,0.4750222,0.59744793,0.67379034,0.32136765,0.112923354,0.44582582,-0.008631495,-0.069087684,-0.13928019,0.015545098,795.78754,793.36993,799.81683,806.6667,786.52014,-0.1163330078125,0.19976806640625,0.9837646484375,10.938568115234375,-5.570220947265625,-3.2000732421875,1,1.0,1.0,1.0,1.0,10.00
2024-10-11 20:19:28.491,0.77960867,0.09401613,0.73616236,0.43203604,0.5940196,0.06135874,0.4370468,0.52992254,0.60437834,0.2866262,0.4750222,0.59744793,0.67379034,0.32136765,0.112923354,0.44582582,-0.008631495,-0.069087684,-0.13928019,0.015545098,806.26373,790.9524,800.6227,797.3993,565.31134,-0.1163330078125,0.19976806640625,0.9837646484375,10.938568115234375,-5.570220947265625,-3.2000732421875,1,1.0,1.0,1.0,1.0,10.00
2024-10-11 20:19:28.491,0.77960867,0.09401613,0.73616236,0.43203604,0.5940196,0.06135874,0.4370468,0.52992254,0.60437834,0.2866262,0.4750222,0.59744793,0.67379034,0.32136765,0.112923354,0.44582582,-0.008631495,-0.069087684,-0.13928019,0.015545098,800.6227,786.9231,794.9817,795.78754,621.31866,-0.1163330078125,0.19976806640625,0.9837646484375,10.938568115234375,-5.570220947265625,-3.2000732421875,1,1.0,1.0,1.0,1.0,10.00
2024-10-11 20:19:28.492,0.77960867,0.09401613,0.73616236,0.43203604,0.5940196,0.06135874,0.4370468,0.52992254,0.60437834,0.2866262,0.4750222,0.59744793,0.67379034,0.32136765,0.112923354,0.44582582,-0.008631495,-0.069087684,-0.13928019,0.015545098,803.44324,796.99634,799.011,805.4579,836.08057,-0.1163330078125,0.19976806640625,0.9837646484375,10.938568115234375,-5.570220947265625,-3.2000732421875,1,1.0,1.0,1.0,1.0,10.00
2024-10-11 20:19:28.492,0.77960867,0.09401613,0.73616236,0.43203604,0.5940196,0.06135874,0.4370468,0.52992254,0.60437834,0.2866262,0.4750222,0.59744793,0.67379034,0.32136765,0.112923354,0.44582582,-0.008631495,-0.069087684,-0.13928019,0.015545098,805.4579,805.05493,795.78754,805.05493,839.304,-0.1163330078125,0.19976806640625,0.9837646484375,10.938568115234375,-5.570220947265625,-3.2000732421875,1,1.0,1.0,1.0,1.0,10.00
2024-10-11 20:19:28.568,0.77960867,0.09401613,0.73616236,0.43203604,0.5940196,0.06135874,0.4370468,0.52992254,0.60437834,0.2866262,0.4750222,0.59744793,0.67379034,0.32136765,0.112923354,0.44582582,-0.008631495,-0.069087684,-0.13928019,0.015545098,799.41394,797.8022,799.81683,807.0696,685.78754,-0.10455322265625,0.220703125,0.9866943359375,11.08062744140625,-2.34771728515625,-1.861724853515625,1,1.0,1.0,1.0,1.0,10.00
2024-10-11 20:19:28.569,0.77960867,0.09401613,0.73616236,0.43203604,0.5940196,0.06135874,0.4370468,0.52992254,0.60437834,0.2866262,0.4750222,0.59744793,0.67379034,0.32136765,0.112923354,0.44582582,-0.008631495,-0.069087684,-0.13928019,0.015545098,797.8022,798.20514,806.26373,800.6227,707.1429,-0.10455322265625,0.220703125,0.9866943359375,11.08062744140625,-2.34771728515625,-1.861724853515625,1,1.0,1.0,1.0,1.0,10.00
2024-10-11 20:19:28.570,0.77960867,0.09401613,0.73616236,0.43203604,0.5940196,0.06135874,0.4370468,0.52992254,0.60437834,0.2866262,0.4750222,0.59744793,0.67379034,0.32136765,0.112923354,0.44582582,-0.008631495,-0.069087684,-0.13928019,0.015545098,798.60803,801.02563,797.3993,797.3993,671.28204,-0.10455322265625,0.220703125,0.9866943359375,11.08062744140625,-2.34771728515625,-1.861724853515625,1,1.0,1.0,1.0,1.0,10.00
2024-10-11 20:19:28.570,0.77960867,0.09401613,0.73616236,0.43203604,0.5940196,0.06135874,0.4370468,0.52992254,0.60437834,0.2866262,0.4750222,0.59744793,0.67379034,0.32136765,0.112923354,0.44582582,-0.008631495,-0.069087684,-0.13928019,0.015545098,799.81683,802.23444,792.1612,802.23444,596.7399,-0.10455322265625,0.220703125,0.9866943359375,11.08062744140625,-2.34771728515625,-1.861724853515625,1,1.0,1.0,1.0,1.0,10.00
2024-10-11 20:19:28.571,0.77960867,0.09401613,0.73616236,0.43203604,0.5940196,0.06135874,0.4370468,0.52992254,0.60437834,0.2866262,0.4750222,0.59744793,0.67379034,0.32136765,0.112923354,0.44582582,-0.008631495,-0.069087684,-0.13928019,0.015545098,794.17584,801.4286,799.41394,801.02563,616.08057,-0.10455322265625,0.220703125,0.9866943359375,11.08062744140625,-2.34771728515625,-1.861724853515625,1,1.0,1.0,1.0,1.0,10.00
2024-10-11 20:19:28.571,0.7432671,-0.012548918,0.7107223,0.38125303,0.58900666,0.038273595,0.43259904,0.535988,0.6128827,0.2502659,0.4713125,0.6013518,0.65475965,0.30970174,0.09937473,0.44696403,-0.024215182,-0.07556105,-0.15499096,-0.017660882,785.31134,783.2967,799.81683,799.011,977.50916,-0.10455322265625,0.220703125,0.9866943359375,11.08062744140625,-2.34771728515625,-1.861724853515625,1,1.0,1.0,1.0,1.0,10.00
2024-10-11 20:19:28.576,0.7432671,-0.012548918,0.7107223,0.38125303,0.58900666,0.038273595,0.43259904,0.535988,0.6128827,0.2502659,0.4713125,0.6013518,0.65475965,0.30970174,0.09937473,0.44696403,-0.024215182,-0.07556105,-0.15499096,-0.017660882,784.5055,784.10254,796.99634,789.7436,1308.7179,-0.10455322265625,0.220703125,0.9866943359375,11.08062744140625,-2.34771728515625,-1.861724853515625,1,1.0,1.0,1.0,1.0,10.00
2024-10-11 20:19:28.576,0.7432671,-0.012548918,0.7107223,0.38125303,0.58900666,0.038273595,0.43259904,0.535988,0.6128827,0.2502659,0.4713125,0.6013518,0.65475965,0.30970174,0.09937473,0.44696403,-0.024215182,-0.07556105,-0.15499096,-0.017660882,791.3553,809.4872,799.81683,778.86444,963.00366,-0.10455322265625,0.220703125,0.9866943359375,11.08062744140625,-2.34771728515625,-1.861724853515625,1,1.0,1.0,1.0,1.0,10.00
2024-10-11 20:19:28.577,0.7432671,-0.012548918,0.7107223,0.38125303,0.58900666,0.038273595,0.43259904,0.535988,0.6128827,0.2502659,0.4713125,0.6013518,0.65475965,0.30970174,0.09937473,0.44696403,-0.024215182,-0.07556105,-0.15499096,-0.017660882,800.6227,811.9048,807.0696,777.6557,739.3773,-0.10455322265625,0.220703125,0.9866943359375,11.08062744140625,-2.34771728515625,-1.861724853515625,1,1.0,1.0,1.0,1.0,10.00
2024-10-11 20:19:28.577,0.7432671,-0.012548918,0.7107223,0.38125303,0.58900666,0.038273595,0.43259904,0.535988,0.6128827,0.2502659,0.4713125,0.6013518,0.65475965,0.30970174,0.09937473,0.44696403,-0.024215182,-0.07556105,-0.15499096,-0.017660882,801.4286,805.05493,808.68134,782.49084,764.35895,-0.10455322265625,0.220703125,0.9866943359375,11.08062744140625,-2.34771728515625,-1.861724853515625,1,1.0,1.0,1.0,1.0,10.00
2024-10-11 20:19:28.578,0.7432671,-0.012548918,0.7107223,0.38125303,0.58900666,0.038273595,0.43259904,0.535988,0.6128827,0.2502659,0.4713125,0.6013518,0.65475965,0.30970174,0.09937473,0.44696403,-0.024215182,-0.07556105,-0.15499096,-0.017660882,797.8022,797.8022,804.65204,787.326,731.31866,-0.10455322265625,0.220703125,0.9866943359375,11.08062744140625,-2.34771728515625,-1.861724853515625,1,1.0,1.0,1.0,1.0,10.00
2024-10-11 20:19:28.578,0.7432671,-0.012548918,0.7107223,0.38125303,0.58900666,0.038273595,0.43259904,0.535988,0.6128827,0.2502659,0.4713125,0.6013518,0.65475965,0.30970174,0.09937473,0.44696403,-0.024215182,-0.07556105,-0.15499096,-0.017660882,792.96704,800.6227,795.38464,786.1172,706.7399,-0.10455322265625,0.220703125,0.9866943359375,11.08062744140625,-2.34771728515625,-1.861724853515625,1,1.0,1.0,1.0,1.0,10.00
2024-10-11 20:19:28.602,0.7432671,-0.012548918,0.7107223,0.38125303,0.58900666,0.038273595,0.43259904,0.535988,0.6128827,0.2502659,0.4713125,0.6013518,0.65475965,0.30970174,0.09937473,0.44696403,-0.024215182,-0.07556105,-0.15499096,-0.017660882,789.7436,800.2198,794.57874,785.7143,769.19415,-0.10455322265625,0.220703125,0.9866943359375,11.08062744140625,-2.34771728515625,-1.861724853515625,1,1.0,1.0,1.0,1.0,10.00
2024-10-11 20:19:28.603,0.7432671,-0.012548918,0.7107223,0.38125303,0.58900666,0.038273595,0.43259904,0.535988,0.6128827,0.2502659,0.4713125,0.6013518,0.65475965,0.30970174,0.09937473,0.44696403,-0.024215182,-0.07556105,-0.15499096,-0.017660882,792.5641,796.1905,798.60803,783.69965,837.6923,-0.10455322265625,0.220703125,0.9866943359375,11.08062744140625,-2.34771728515625,-1.861724853515625,1,1.0,1.0,1.0,1.0,10.00
2024-10-11 20:19:28.603,0.7432671,-0.012548918,0.7107223,0.38125303,0.58900666,0.038273595,0.43259904,0.535988,0.6128827,0.2502659,0.4713125,0.6013518,0.65475965,0.30970174,0.09937473,0.44696403,-0.024215182,-0.07556105,-0.15499096,-0.017660882,794.57874,802.23444,795.38464,779.2674,793.7729,-0.10455322265625,0.220703125,0.9866943359375,11.08062744140625,-2.34771728515625,-1.861724853515625,1,1.0,1.0,1.0,1.0,10.00
2024-10-11 20:19:28.604,0.7432671,-0.012548918,0.7107223,0.38125303,0.58900666,0.038273595,0.43259904,0.535988,0.6128827,0.2502659,0.4713125,0.6013518,0.65475965,0.30970174,0.09937473,0.44696403,-0.024215182,-0.07556105,-0.15499096,-0.017660882,796.99634,800.6227,800.6227,786.1172,674.90845,-0.10455322265625,0.220703125,0.9866943359375,11.08062744140625,-2.34771728515625,-1.861724853515625,1,1.0,1.0,1.0,1.0,10.00
2024-10-11 20:19:28.605,0.7432671,-0.012548918,0.7107223,0.38125303,0.58900666,0.038273595,0.43259904,0.535988,0.6128827,0.2502659,0.4713125,0.6013518,0.65475965,0.30970174,0.09937473,0.44696403,-0.024215182,-0.07556105,-0.15499096,-0.017660882,796.99634,796.99634,810.696,801.02563,841.7216,-0.10455322265625,0.220703125,0.9866943359375,11.08062744140625,-2.34771728515625,-1.861724853515625,1,1.0,1.0,1.0,1.0,10.00
2024-10-11 20:19:28.605,0.7432671,-0.012548918,0.7107223,0.38125303,0.58900666,0.038273595,0.43259904,0.535988,0.6128827,0.2502659,0.4713125,0.6013518,0.65475965,0.30970174,0.09937473,0.44696403,-0.024215182,-0.07556105,-0.15499096,-0.017660882,792.96704,792.96704,808.68134,803.44324,1033.5165,-0.10455322265625,0.220703125,0.9866943359375,11.08062744140625,-2.34771728515625,-1.861724853515625,1,1.0,1.0,1.0,1.0,10.00
2024-10-11 20:19:28.606,0.7432671,-0.012548918,0.7107223,0.38125303,0.58900666,0.038273595,0.43259904,0.535988,0.6128827,0.2502659,0.4713125,0.6013518,0.65475965,0.30970174,0.09937473,0.44696403,-0.024215182,-0.07556105,-0.15499096,-0.017660882,794.57874,788.93774,806.6667,801.8315,972.27106,-0.10455322265625,0.220703125,0.9866943359375,11.08062744140625,-2.34771728515625,-1.861724853515625,1,1.0,1.0,1.0,1.0,10.00
2024-10-11 20:19:28.606,0.7432671,-0.012548918,0.7107223,0.38125303,0.58900666,0.038273595,0.43259904,0.535988,0.6128827,0.2502659,0.4713125,0.6013518,0.65475965,0.30970174,0.09937473,0.44696403,-0.024215182,-0.07556105,-0.15499096,-0.017660882,800.2198,795.78754,801.02563,800.6227,844.5421,-0.10455322265625,0.220703125,0.9866943359375,11.08062744140625,-2.34771728515625,-1.861724853515625,1,1.0,1.0,1.0,1.0,10.00
2024-10-11 20:19:28.607,0.7432671,-0.012548918,0.7107223,0.38125303,0.58900666,0.038273595,0.43259904,0.535988,0.6128827,0.2502659,0.4713125,0.6013518,0.65475965,0.30970174,0.09937473,0.44696403,-0.024215182,-0.07556105,-0.15499096,-0.017660882,806.26373,801.8315,800.6227,797.3993,782.49084,-0.10455322265625,0.220703125,0.9866943359375,11.08062744140625,-2.34771728515625,-1.861724853515625,1,1.0,1.0,1.0,1.0,10.00
2024-10-11 20:19:28.607,0.7432671,-0.012548918,0.7107223,0.38125303,0.58900666,0.038273595,0.43259904,0.535988,0.6128827,0.2502659,0.4713125,0.6013518,0.65475965,0.30970174,0.09937473,0.44696403,-0.024215182,-0.07556105,-0.15499096,-0.017660882,799.011,799.41394,803.8461,805.05493,1120.1465,-0.10455322265625,0.220703125,0.9866943359375,11.08062744140625,-2.34771728515625,-1.861724853515625,1,1.0,1.0,1.0,1.0,10.00
2024-10-11 20:19:28.608,0.7432671,-0.012548918,0.7107223,0.38125303,0.58900666,0.038273595,0.43259904,0.535988,0.6128827,0.2502659,0.4713125,0.6013518,0.65475965,0.30970174,0.09937473,0.44696403,-0.024215182,-0.07556105,-0.15499096,-0.017660882,788.5348,799.81683,802.6374,803.0403,1042.381,-0.10455322265625,0.220703125,0.9866943359375,11.08062744140625,-2.34771728515625,-1.861724853515625,1,1.0,1.0,1.0,1.0,10.00
2024-10-11 20:19:28.608,0.7432671,-0.012548918,0.7107223,0.38125303,0.58900666,0.038273595,0.43259904,0.535988,0.6128827,0.2502659,0.4713125,0.6013518,0.65475965,0.30970174,0.09937473,0.44696403,-0.024215182,-0.07556105,-0.15499096,-0.017660882,796.99634,800.2198,800.2198,801.4286,594.7253,-0.10455322265625,0.220703125,0.9866943359375,11.08062744140625,-2.34771728515625,-1.861724853515625,1,1.0,1.0,1.0,1.0,10.00
2024-10-11 20:19:28.636,0.7432671,-0.012548918,0.7107223,0.38125303,0.58900666,0.038273595,0.43259904,0.535988,0.6128827,0.2502659,0.4713125,0.6013518,0.65475965,0.30970174,0.09937473,0.44696403,-0.024215182,-0.07556105,-0.15499096,-0.017660882,801.4286,795.78754,802.23444,806.6667,807.8755,-0.106689453125,0.24798583984375,0.98681640625,8.994598388671875,0.31402587890625,3.386993408203125,1,1.0,1.0,1.0,1.0,10.00
2024-10-11 20:19:28.636,0.7432671,-0.012548918,0.7107223,0.38125303,0.58900666,0.038273595,0.43259904,0.535988,0.6128827,0.2502659,0.4713125,0.6013518,0.65475965,0.30970174,0.09937473,0.44696403,-0.024215182,-0.07556105,-0.15499096,-0.017660882,792.5641,799.81683,801.02563,799.81683,929.5604,-0.106689453125,0.24798583984375,0.98681640625,8.994598388671875,0.31402587890625,3.386993408203125,1,1.0,1.0,1.0,1.0,10.00
2024-10-11 20:19:28.637,0.7432671,-0.012548918,0.7107223,0.38125303,0.58900666,0.038273595,0.43259904,0.535988,0.6128827,0.2502659,0.4713125,0.6013518,0.65475965,0.30970174,0.09937473,0.44696403,-0.024215182,-0.07556105,-0.15499096,-0.017660882,798.60803,803.8461,803.44324,799.41394,668.46155,-0.106689453125,0.24798583984375,0.98681640625,8.994598388671875,0.31402587890625,3.386993408203125,1,1.0,1.0,1.0,1.0,10.00
2024-10-11 20:19:28.638,0.7432671,-0.012548918,0.7107223,0.38125303,0.58900666,0.038273595,0.43259904,0.535988,0.6128827,0.2502659,0.4713125,0.6013518,0.65475965,0.30970174,0.09937473,0.44696403,-0.024215182,-0.07556105,-0.15499096,-0.017660882,805.05493,797.8022,798.60803,808.2784,559.67035,-0.106689453125,0.24798583984375,0.98681640625,8.994598388671875,0.31402587890625,3.386993408203125,1,1.0,1.0,1.0,1.0,10.00
2024-10-11 20:19:28.638,0.7432671,-0.012548918,0.7107223,0.38125303,0.58900666,0.038273595,0.43259904,0.535988,0.6128827,0.2502659,0.4713125,0.6013518,0.65475965,0.30970174,0.09937473,0.44696403,-0.024215182,-0.07556105,-0.15499096,-0.017660882,803.8461,794.17584,795.38464,817.5458,763.95605,-0.106689453125,0.24798583984375,0.98681640625,8.994598388671875,0.31402587890625,3.386993408203125,1,1.0,1.0,1.0,1.0,10.00
2024-10-11 20:19:28.639,0.7432671,-0.012548918,0.7107223,0.38125303,0.58900666,0.038273595,0.43259904,0.535988,0.6128827,0.2502659,0.4713125,0.6013518,0.65475965,0.30970174,0.09937473,0.44696403,-0.024215182,-0.07556105,-0.15499096,-0.017660882,802.6374,793.7729,801.8315,809.0842,939.6337,-0.106689453125,0.24798583984375,0.98681640625,8.994598388671875,0.31402587890625,3.386993408203125,1,1.0,1.0,1.0,1.0,10.00
2024-10-11 20:19:28.639,0.7432671,-0.012548918,0.7107223,0.38125303,0.58900666,0.038273595,0.43259904,0.535988,0.6128827,0.2502659,0.4713125,0.6013518,0.65475965,0.30970174,0.09937473,0.44696403,-0.024215182,-0.07556105,-0.15499096,-0.017660882,795.78754,792.96704,806.26373,794.9817,786.52014,-0.106689453125,0.24798583984375,0.98681640625,8.994598388671875,0.31402587890625,3.386993408203125,1,1.0,1.0,1.0,1.0,10.00
2024-10-11 20:19:28.640,0.7083462,-0.072622776,0.69408727,0.3470737,0.5831687,-3.7636372E-4,0.41697943,0.52094334,0.6317869,0.21329994,0.46667445,0.6014012,0.631074,0.29517844,0.08841948,0.46198937,-0.03470257,-0.083910644,-0.18077457,-0.050442226,800.6227,795.38464,804.65204,799.41394,603.1868,-0.106689453125,0.24798583984375,0.98681640625,8.994598388671875,0.31402587890625,3.386993408203125,1,1.0,1.0,1.0,1.0,10.00
2024-10-11 20:19:28.644,0.7083462,-0.072622776,0.69408727,0.3470737,0.5831687,-3.7636372E-4,0.41697943,0.52094334,0.6317869,0.21329994,0.46667445,0.6014012,0.631074,0.29517844,0.08841948,0.46198937,-0.03470257,-0.083910644,-0.18077457,-0.050442226,810.696,805.05493,797.3993,803.0403,747.4359,-0.106689453125,0.24798583984375,0.98681640625,8.994598388671875,0.31402587890625,3.386993408203125,1,1.0,1.0,1.0,1.0,10.00
2024-10-11 20:19:28.645,0.7083462,-0.072622776,0.69408727,0.3470737,0.5831687,-3.7636372E-4,0.41697943,0.52094334,0.6317869,0.21329994,0.46667445,0.6014012,0.631074,0.29517844,0.08841948,0.46198937,-0.03470257,-0.083910644,-0.18077457,-0.050442226,811.0989,807.47253,799.011,807.8755,805.8608,-0.106689453125,0.24798583984375,0.98681640625,8.994598388671875,0.31402587890625,3.386993408203125,1,1.0,1.0,1.0,1.0,10.00
2024-10-11 20:19:28.645,0.7083462,-0.072622776,0.69408727,0.3470737,0.5831687,-3.7636372E-4,0.41697943,0.52094334,0.6317869,0.21329994,0.46667445,0.6014012,0.631074,0.29517844,0.08841948,0.46198937,-0.03470257,-0.083910644,-0.18077457,-0.050442226,812.71063,806.6667,804.2491,818.7546,678.1319,-0.106689453125,0.24798583984375,0.98681640625,8.994598388671875,0.31402587890625,3.386993408203125,1,1.0,1.0,1.0,1.0,10.00
2024-10-11 20:19:28.646,0.7083462,-0.072622776,0.69408727,0.3470737,0.5831687,-3.7636372E-4,0.41697943,0.52094334,0.6317869,0.21329994,0.46667445,0.6014012,0.631074,0.29517844,0.08841948,0.46198937,-0.03470257,-0.083910644,-0.18077457,-0.050442226,803.0403,801.02563,802.6374,815.9341,606.0073,-0.106689453125,0.24798583984375,0.98681640625,8.994598388671875,0.31402587890625,3.386993408203125,1,1.0,1.0,1.0,1.0,10.00
2024-10-11 20:19:28.710,0.7083462,-0.072622776,0.69408727,0.3470737,0.5831687,-3.7636372E-4,0.41697943,0.52094334,0.6317869,0.21329994,0.46667445,0.6014012,0.631074,0.29517844,0.08841948,0.46198937,-0.03470257,-0.083910644,-0.18077457,-0.050442226,794.9817,794.9817,795.38464,809.4872,850.18317,-0.136962890625,0.24139404296875,0.99609375,2.788848876953125,-2.16827392578125,3.745880126953125,1,1.0,1.0,1.0,1.0,10.00
2024-10-11 20:19:28.711,0.7083462,-0.072622776,0.69408727,0.3470737,0.5831687,-3.7636372E-4,0.41697943,0.52094334,0.6317869,0.21329994,0.46667445,0.6014012,0.631074,0.29517844,0.08841948,0.46198937,-0.03470257,-0.083910644,-0.18077457,-0.050442226,792.96704,791.75824,797.8022,811.9048,1115.3114,-0.136962890625,0.24139404296875,0.99609375,2.788848876953125,-2.16827392578125,3.745880126953125,1,1.0,1.0,1.0,1.0,10.00
2024-10-11 20:19:28.712,0.7083462,-0.072622776,0.69408727,0.3470737,0.5831687,-3.7636372E-4,0.41697943,0.52094334,0.6317869,0.21329994,0.46667445,0.6014012,0.631074,0.29517844,0.08841948,0.46198937,-0.03470257,-0.083910644,-0.18077457,-0.050442226,794.9817,792.96704,801.02563,811.9048,757.50916,-0.136962890625,0.24139404296875,0.99609375,2.788848876953125,-2.16827392578125,3.745880126953125,1,1.0,1.0,1.0,1.0,10.00
2024-10-11 20:19:28.712,0.7083462,-0.072622776,0.69408727,0.3470737,0.5831687,-3.7636372E-4,0.41697943,0.52094334,0.6317869,0.21329994,0.46667445,0.6014012,0.631074,0.29517844,0.08841948,0.46198937,-0.03470257,-0.083910644,-0.18077457,-0.050442226,796.99634,790.14655,796.1905,809.4872,555.2381,-0.136962890625,0.24139404296875,0.99609375,2.788848876953125,-2.16827392578125,3.745880126953125,1,1.0,1.0,1.0,1.0,10.00
2024-10-11 20:19:28.713,0.7083462,-0.072622776,0.69408727,0.3470737,0.5831687,-3.7636372E-4,0.41697943,0.52094334,0.6317869,0.21329994,0.46667445,0.6014012,0.631074,0.29517844,0.08841948,0.46198937,-0.03470257,-0.083910644,-0.18077457,-0.050442226,803.0403,786.1172,794.9817,808.68134,575.78754,-0.136962890625,0.24139404296875,0.99609375,2.788848876953125,-2.16827392578125,3.745880126953125,1,1.0,1.0,1.0,1.0,10.00
2024-10-11 20:19:28.713,0.7083462,-0.072622776,0.69408727,0.3470737,0.5831687,-3.7636372E-4,0.41697943,0.52094334,0.6317869,0.21329994,0.46667445,0.6014012,0.631074,0.29517844,0.08841948,0.46198937,-0.03470257,-0.083910644,-0.18077457,-0.050442226,808.68134,792.5641,794.9817,810.696,693.8461,-0.136962890625,0.24139404296875,0.99609375,2.788848876953125,-2.16827392578125,3.745880126953125,1,1.0,1.0,1.0,1.0,10.00
2024-10-11 20:19:28.714,0.7083462,-0.072622776,0.69408727,0.3470737,0.5831687,-3.7636372E-4,0.41697943,0.52094334,0.6317869,0.21329994,0.46667445,0.6014012,0.631074,0.29517844,0.08841948,0.46198937,-0.03470257,-0.083910644,-0.18077457,-0.050442226,804.2491,795.38464,800.6227,811.50183,769.59705,-0.136962890625,0.24139404296875,0.99609375,2.788848876953125,-2.16827392578125,3.745880126953125,1,1.0,1.0,1.0,1.0,10.00
2024-10-11 20:19:28.714,0.7083462,-0.072622776,0.69408727,0.3470737,0.5831687,-3.7636372E-4,0.41697943,0.52094334,0.6317869,0.21329994,0.46667445,0.6014012,0.631074,0.29517844,0.08841948,0.46198937,-0.03470257,-0.083910644,-0.18077457,-0.050442226,803.8461,796.5934,805.05493,807.0696,657.5824,-0.136962890625,0.24139404296875,0.99609375,2.788848876953125,-2.16827392578125,3.745880126953125,1,1.0,1.0,1.0,1.0,10.00
2024-10-11 20:19:28.715,0.7083462,-0.072622776,0.69408727,0.3470737,0.5831687,-3.7636372E-4,0.41697943,0.52094334,0.6317869,0.21329994,0.46667445,0.6014012,0.631074,0.29517844,0.08841948,0.46198937,-0.03470257,-0.083910644,-0.18077457,-0.050442226,802.23444,799.41394,794.9817,812.71063,802.6374,-0.136962890625,0.24139404296875,0.99609375,2.788848876953125,-2.16827392578125,3.745880126953125,1,1.0,1.0,1.0,1.0,10.00
2024-10-11 20:19:28.715,0.7083462,-0.072622776,0.69408727,0.3470737,0.5831687,-3.7636372E-4,0.41697943,0.52094334,0.6317869,0.21329994,0.46667445,0.6014012,0.631074,0.29517844,0.08841948,0.46198937,-0.03470257,-0.083910644,-0.18077457,-0.050442226,797.3993,802.23444,798.20514,815.5311,772.01465,-0.136962890625,0.24139404296875,0.99609375,2.788848876953125,-2.16827392578125,3.745880126953125,1,1.0,1.0,1.0,1.0,10.00
2024-10-11 20:19:28.715,0.7083462,-0.072622776,0.69408727,0.3470737,0.5831687,-3.7636372E-4,0.41697943,0.52094334,0.6317869,0.21329994,0.46667445,0.6014012,0.631074,0.29517844,0.08841948,0.46198937,-0.03470257,-0.083910644,-0.18077457,-0.050442226,786.9231,802.23444,807.0696,808.68134,649.5238,-0.136962890625,0.24139404296875,0.99609375,2.788848876953125,-2.16827392578125,3.745880126953125,1,1.0,1.0,1.0,1.0,10.00
2024-10-11 20:19:28.716,0.7083462,-0.072622776,0.69408727,0.3470737,0.5831687,-3.7636372E-4,0.41697943,0.52094334,0.6317869,0.21329994,0.46667445,0.6014012,0.631074,0.29517844,0.08841948,0.46198937,-0.03470257,-0.083910644,-0.18077457,-0.050442226,798.20514,799.41394,807.0696,811.50183,841.7216,-0.136962890625,0.24139404296875,0.99609375,2.788848876953125,-2.16827392578125,3.745880126953125,1,1.0,1.0,1.0,1.0,10.00
2024-10-11 20:19:28.737,0.7083462,-0.072622776,0.69408727,0.3470737,0.5831687,-3.7636372E-4,0.41697943,0.52094334,0.6317869,0.21329994,0.46667445,0.6014012,0.631074,0.29517844,0.08841948,0.46198937,-0.03470257,-0.083910644,-0.18077457,-0.050442226,805.4579,799.81683,799.011,807.0696,851.79486,-0.13629150390625,0.22955322265625,0.98236083984375,-0.538330078125,-2.94586181640625,-4.66552734375,1,1.0,1.0,1.0,1.0,10.00
2024-10-11 20:19:28.738,0.7083462,-0.072622776,0.69408727,0.3470737,0.5831687,-3.7636372E-4,0.41697943,0.52094334,0.6317869,0.21329994,0.46667445,0.6014012,0.631074,0.29517844,0.08841948,0.46198937,-0.03470257,-0.083910644,-0.18077457,-0.050442226,799.41394,801.02563,792.1612,795.38464,609.2308,-0.13629150390625,0.22955322265625,0.98236083984375,-0.538330078125,-2.94586181640625,-4.66552734375,1,1.0,1.0,1.0,1.0,10.00
2024-10-11 20:19:28.739,0.7083462,-0.072622776,0.69408727,0.3470737,0.5831687,-3.7636372E-4,0.41697943,0.52094334,0.6317869,0.21329994,0.46667445,0.6014012,0.631074,0.29517844,0.08841948,0.46198937,-0.03470257,-0.083910644,-0.18077457,-0.050442226,800.6227,802.23444,798.60803,801.02563,588.2784,-0.13629150390625,0.22955322265625,0.98236083984375,-0.538330078125,-2.94586181640625,-4.66552734375,1,1.0,1.0,1.0,1.0,10.00
2024-10-11 20:19:28.740,0.7083462,-0.072622776,0.69408727,0.3470737,0.5831687,-3.7636372E-4,0.41697943,0.52094334,0.6317869,0.21329994,0.46667445,0.6014012,0.631074,0.29517844,0.08841948,0.46198937,-0.03470257,-0.083910644,-0.18077457,-0.050442226,792.5641,796.99634,803.8461,807.8755,765.56775,-0.13629150390625,0.22955322265625,0.98236083984375,-0.538330078125,-2.94586181640625,-4.66552734375,1,1.0,1.0,1.0,1.0,10.00
2024-10-11 20:19:28.740,0.7083462,-0.072622776,0.69408727,0.3470737,0.5831687,-3.7636372E-4,0.41697943,0.52094334,0.6317869,0.21329994,0.46667445,0.6014012,0.631074,0.29517844,0.08841948,0.46198937,-0.03470257,-0.083910644,-0.18077457,-0.050442226,792.5641,790.54944,804.65204,799.81683,679.34064,-0.13629150390625,0.22955322265625,0.98236083984375,-0.538330078125,-2.94586181640625,-4.66552734375,1,1.0,1.0,1.0,1.0,10.00
2024-10-11 20:19:28.741,0.7083462,-0.072622776,0.69408727,0.3470737,0.5831687,-3.7636372E-4,0.41697943,0.52094334,0.6317869,0.21329994,0.46667445,0.6014012,0.631074,0.29517844,0.08841948,0.46198937,-0.03470257,-0.083910644,-0.18077457,-0.050442226,796.1905,787.72894,796.1905,788.1319,576.99634,-0.13629150390625,0.22955322265625,0.98236083984375,-0.538330078125,-2.94586181640625,-4.66552734375,1,1.0,1.0,1.0,1.0,10.00
2024-10-11 20:19:28.742,0.7083462,-0.072622776,0.69408727,0.3470737,0.5831687,-3.7636372E-4,0.41697943,0.52094334,0.6317869,0.21329994,0.46667445,0.6014012,0.631074,0.29517844,0.08841948,0.46198937,-0.03470257,-0.083910644,-0.18077457,-0.050442226,794.9817,791.3553,793.7729,791.75824,806.26373,-0.13629150390625,0.22955322265625,0.98236083984375,-0.538330078125,-2.94586181640625,-4.66552734375,1,1.0,1.0,1.0,1.0,10.00
2024-10-11 20:19:28.742,0.7083462,-0.072622776,0.69408727,0.3470737,0.5831687,-3.7636372E-4,0.41697943,0.52094334,0.6317869,0.21329994,0.46667445,0.6014012,0.631074,0.29517844,0.08841948,0.46198937,-0.03470257,-0.083910644,-0.18077457,-0.050442226,789.7436,791.75824,798.60803,799.81683,960.18317,-0.13629150390625,0.22955322265625,0.98236083984375,-0.538330078125,-2.94586181640625,-4.66552734375,1,1.0,1.0,1.0,1.0,10.00
2024-10-11 20:19:28.743,0.7083462,-0.072622776,0.69408727,0.3470737,0.5831687,-3.7636372E-4,0.41697943,0.52094334,0.6317869,0.21329994,0.46667445,0.6014012,0.631074,0.29517844,0.08841948,0.46198937,-0.03470257,-0.083910644,-0.18077457,-0.050442226,789.7436,798.20514,800.2198,794.9817,806.26373,-0.13629150390625,0.22955322265625,0.98236083984375,-0.538330078125,-2.94586181640625,-4.66552734375,1,1.0,1.0,1.0,1.0,10.00
2024-10-11 20:19:28.743,0.67941445,-0.12515941,0.6610685,0.3309882,0.57516026,-0.055284277,0.37876096,0.49711913,0.65115696,0.16143891,0.46020576,0.6014012,0.60670286,0.285,0.08100038,0.4737407,-0.034524977,-0.09063201,-0.2076021,-0.07309157,783.69965,800.6227,800.2198,790.14655,617.6923,-0.13629150390625,0.22955322265625,0.98236083984375,-0.538330078125,-2.94586181640625,-4.66552734375,1,1.0,1.0,1.0,1.0,10.00
2024-10-11 20:19:28.747,0.67941445,-0.12515941,0.6610685,0.3309882,0.57516026,-0.055284277,0.37876096,0.49711913,0.65115696,0.16143891,0.46020576,0.6014012,0.60670286,0.285,0.08100038,0.4737407,-0.034524977,-0.09063201,-0.2076021,-0.07309157,784.10254,794.9817,799.011,795.78754,610.4396,-0.13629150390625,0.22955322265625,0.98236083984375,-0.538330078125,-2.94586181640625,-4.66552734375,1,1.0,1.0,1.0,1.0,10.00
2024-10-11 20:19:28.748,0.67941445,-0.12515941,0.6610685,0.3309882,0.57516026,-0.055284277,0.37876096,0.49711913,0.65115696,0.16143891,0.46020576,0.6014012,0.60670286,0.285,0.08100038,0.4737407,-0.034524977,-0.09063201,-0.2076021,-0.07309157,794.17584,796.1905,795.78754,795.78754,720.0366,-0.13629150390625,0.22955322265625,0.98236083984375,-0.538330078125,-2.94586181640625,-4.66552734375,1,1.0,1.0,1.0,1.0,10.00
2024-10-11 20:19:28.770,0.67941445,-0.12515941,0.6610685,0.3309882,0.57516026,-0.055284277,0.37876096,0.49711913,0.65115696,0.16143891,0.46020576,0.6014012,0.60670286,0.285,0.08100038,0.4737407,-0.034524977,-0.09063201,-0.2076021,-0.07309157,786.52014,791.3553,788.93774,789.34064,792.5641,-0.11334228515625,0.23797607421875,0.99237060546875,-2.340240478515625,-1.487884521484375,-7.05810546875,1,1.0,1.0,1.0,1.0,10.00
2024-10-11 20:19:28.771,0.67941445,-0.12515941,0.6610685,0.3309882,0.57516026,-0.055284277,0.37876096,0.49711913,0.65115696,0.16143891,0.46020576,0.6014012,0.60670286,0.285,0.08100038,0.4737407,-0.034524977,-0.09063201,-0.2076021,-0.07309157,779.67035,786.52014,793.7729,787.326,740.989,-0.11334228515625,0.23797607421875,0.99237060546875,-2.340240478515625,-1.487884521484375,-7.05810546875,1,1.0,1.0,1.0,1.0,10.00
2024-10-11 20:19:28.772,0.67941445,-0.12515941,0.6610685,0.3309882,0.57516026,-0.055284277,0.37876096,0.49711913,0.65115696,0.16143891,0.46020576,0.6014012,0.60670286,0.285,0.08100038,0.4737407,-0.034524977,-0.09063201,-0.2076021,-0.07309157,783.2967,789.34064,795.78754,790.9524,739.7802,-0.11334228515625,0.23797607421875,0.99237060546875,-2.340240478515625,-1.487884521484375,-7.05810546875,1,1.0,1.0,1.0,1.0,10.00
2024-10-11 20:19:28.772,0.67941445,-0.12515941,0.6610685,0.3309882,0.57516026,-0.055284277,0.37876096,0.49711913,0.65115696,0.16143891,0.46020576,0.6014012,0.60670286,0.285,0.08100038,0.4737407,-0.034524977,-0.09063201,-0.2076021,-0.07309157,788.5348,791.75824,789.34064,799.81683,900.54944,-0.11334228515625,0.23797607421875,0.99237060546875,-2.340240478515625,-1.487884521484375,-7.05810546875,1,1.0,1.0,1.0,1.0,10.00
2024-10-11 20:19:28.773,0.67941445,-0.12515941,0.6610685,0.3309882,0.57516026,-0.055284277,0.37876096,0.49711913,0.65115696,0.16143891,0.46020576,0.6014012,0.60670286,0.285,0.08100038,0.4737407,-0.034524977,-0.09063201,-0.2076021,-0.07309157,784.10254,789.34064,799.011,797.8022,912.23444,-0.11334228515625,0.23797607421875,0.99237060546875,-2.340240478515625,-1.487884521484375,-7.05810546875,1,1.0,1.0,1.0,1.0,10.00
2024-10-11 20:19:28.773,0.67941445,-0.12515941,0.6610685,0.3309882,0.57516026,-0.055284277,0.37876096,0.49711913,0.65115696,0.16143891,0.46020576,0.6014012,0.60670286,0.285,0.08100038,0.4737407,-0.034524977,-0.09063201,-0.2076021,-0.07309157,778.86444,786.1172,801.8315,795.38464,811.50183,-0.11334228515625,0.23797607421875,0.99237060546875,-2.340240478515625,-1.487884521484375,-7.05810546875,1,1.0,1.0,1.0,1.0,10.00
2024-10-11 20:19:28.774,0.67941445,-0.12515941,0.6610685,0.3309882,0.57516026,-0.055284277,0.37876096,0.49711913,0.65115696,0.16143891,0.46020576,0.6014012,0.60670286,0.285,0.08100038,0.4737407,-0.034524977,-0.09063201,-0.2076021,-0.07309157,773.22345,788.5348,799.81683,790.14655,883.6264,-0.11334228515625,0.23797607421875,0.99237060546875,-2.340240478515625,-1.487884521484375,-7.05810546875,1,1.0,1.0,1.0,1.0,10.00
2024-10-11 20:19:28.774,0.67941445,-0.12515941,0.6610685,0.3309882,0.57516026,-0.055284277,0.37876096,0.49711913,0.65115696,0.16143891,0.46020576,0.6014012,0.60670286,0.285,0.08100038,0.4737407,-0.034524977,-0.09063201,-0.2076021,-0.07309157,778.0586,780.87915,798.60803,794.57874,1091.9414,-0.11334228515625,0.23797607421875,0.99237060546875,-2.340240478515625,-1.487884521484375,-7.05810546875,1,1.0,1.0,1.0,1.0,10.00
2024-10-11 20:19:28.775,0.67941445,-0.12515941,0.6610685,0.3309882,0.57516026,-0.055284277,0.37876096,0.49711913,0.65115696,0.16143891,0.46020576,0.6014012,0.60670286,0.285,0.08100038,0.4737407,-0.034524977,-0.09063201,-0.2076021,-0.07309157,773.22345,783.2967,796.5934,796.1905,966.63007,-0.11334228515625,0.23797607421875,0.99237060546875,-2.340240478515625,-1.487884521484375,-7.05810546875,1,1.0,1.0,1.0,1.0,10.00
2024-10-11 20:19:28.775,0.67941445,-0.12515941,0.6610685,0.3309882,0.57516026,-0.055284277,0.37876096,0.49711913,0.65115696,0.16143891,0.46020576,0.6014012,0.60670286,0.285,0.08100038,0.4737407,-0.034524977,-0.09063201,-0.2076021,-0.07309157,777.25275,800.6227,800.6227,793.36993,703.5165,-0.11334228515625,0.23797607421875,0.99237060546875,-2.340240478515625,-1.487884521484375,-7.05810546875,1,1.0,1.0,1.0,1.0,10.00
2024-10-11 20:19:28.776,0.67941445,-0.12515941,0.6610685,0.3309882,0.57516026,-0.055284277,0.37876096,0.49711913,0.65115696,0.16143891,0.46020576,0.6014012,0.60670286,0.285,0.08100038,0.4737407,-0.034524977,-0.09063201,-0.2076021,-0.07309157,778.0586,803.0403,795.78754,794.17584,765.16486,-0.11334228515625,0.23797607421875,0.99237060546875,-2.340240478515625,-1.487884521484375,-7.05810546875,1,1.0,1.0,1.0,1.0,10.00
2024-10-11 20:19:28.776,0.67941445,-0.12515941,0.6610685,0.3309882,0.57516026,-0.055284277,0.37876096,0.49711913,0.65115696,0.16143891,0.46020576,0.6014012,0.60670286,0.285,0.08100038,0.4737407,-0.034524977,-0.09063201,-0.2076021,-0.07309157,774.43225,791.75824,786.1172,790.9524,1114.5055,-0.11334228515625,0.23797607421875,0.99237060546875,-2.340240478515625,-1.487884521484375,-7.05810546875,1,1.0,1.0,1.0,1.0,10.00
2024-10-11 20:19:28.844,0.67941445,-0.12515941,0.6610685,0.3309882,0.57516026,-0.055284277,0.37876096,0.49711913,0.65115696,0.16143891,0.46020576,0.6014012,0.60670286,0.285,0.08100038,0.4737407,-0.034524977,-0.09063201,-0.2076021,-0.07309157,781.28204,788.5348,792.1612,792.5641,984.35895,-0.11334228515625,0.23797607421875,0.99237060546875,-2.340240478515625,-1.487884521484375,-7.05810546875,1,1.0,1.0,1.0,1.0,10.00
2024-10-11 20:19:28.845,0.67941445,-0.12515941,0.6610685,0.3309882,0.57516026,-0.055284277,0.37876096,0.49711913,0.65115696,0.16143891,0.46020576,0.6014012,0.60670286,0.285,0.08100038,0.4737407,-0.034524977,-0.09063201,-0.2076021,-0.07309157,785.31134,797.8022,803.8461,793.7729,673.2967,-0.11334228515625,0.23797607421875,0.99237060546875,-2.340240478515625,-1.487884521484375,-7.05810546875,1,1.0,1.0,1.0,1.0,10.00
2024-10-11 20:19:28.846,0.67941445,-0.12515941,0.6610685,0.3309882,0.57516026,-0.055284277,0.37876096,0.49711913,0.65115696,0.16143891,0.46020576,0.6014012,0.60670286,0.285,0.08100038,0.4737407,-0.034524977,-0.09063201,-0.2076021,-0.07309157,788.1319,802.23444,803.44324,803.44324,792.96704,-0.11334228515625,0.23797607421875,0.99237060546875,-2.340240478515625,-1.487884521484375,-7.05810546875,1,1.0,1.0,1.0,1.0,10.00
2024-10-11 20:19:28.847,0.67941445,-0.12515941,0.6610685,0.3309882,0.57516026,-0.055284277,0.37876096,0.49711913,0.65115696,0.16143891,0.46020576,0.6014012,0.60670286,0.285,0.08100038,0.4737407,-0.034524977,-0.09063201,-0.2076021,-0.07309157,788.93774,799.41394,797.3993,813.5165,1019.011,-0.11334228515625,0.23797607421875,0.99237060546875,-2.340240478515625,-1.487884521484375,-7.05810546875,1,1.0,1.0,1.0,1.0,10.00
2024-10-11 20:19:28.848,0.67941445,-0.12515941,0.6610685,0.3309882,0.57516026,-0.055284277,0.37876096,0.49711913,0.65115696,0.16143891,0.46020576,0.6014012,0.60670286,0.285,0.08100038,0.4737407,-0.034524977,-0.09063201,-0.2076021,-0.07309157,797.3993,793.36993,797.3993,811.0989,903.7729,-0.11334228515625,0.23797607421875,0.99237060546875,-2.340240478515625,-1.487884521484375,-7.05810546875,1,1.0,1.0,1.0,1.0,10.00
2024-10-11 20:19:28.848,0.67941445,-0.12515941,0.6610685,0.3309882,0.57516026,-0.055284277,0.37876096,0.49711913,0.65115696,0.16143891,0.46020576,0.6014012,0.60670286,0.285,0.08100038,0.4737407,-0.034524977,-0.09063201,-0.2076021,-0.07309157,788.93774,791.3553,797.8022,811.50183,770.40295,-0.11334228515625,0.23797607421875,0.99237060546875,-2.340240478515625,-1.487884521484375,-7.05810546875,1,1.0,1.0,1.0,1.0,10.00
2024-10-11 20:19:28.849,0.67941445,-0.12515941,0.6610685,0.3309882,0.57516026,-0.055284277,0.37876096,0.49711913,0.65115696,0.16143891,0.46020576,0.6014012,0.60670286,0.285,0.08100038,0.4737407,-0.034524977,-0.09063201,-0.2076021,-0.07309157,784.10254,794.57874,794.9817,814.7253,909.41394,-0.11334228515625,0.23797607421875,0.99237060546875,-2.340240478515625,-1.487884521484375,-7.05810546875,1,1.0,1.0,1.0,1.0,10.00
2024-10-11 20:19:28.850,0.67941445,-0.12515941,0.6610685,0.3309882,0.57516026,-0.055284277,0.37876096,0.49711913,0.65115696,0.16143891,0.46020576,0.6014012,0.60670286,0.285,0.08100038,0.4737407,-0.034524977,-0.09063201,-0.2076021,-0.07309157,797.3993,798.20514,801.4286,817.9487,1093.956,-0.11334228515625,0.23797607421875,0.99237060546875,-2.340240478515625,-1.487884521484375,-7.05810546875,1,1.0,1.0,1.0,1.0,10.00
2024-10-11 20:19:28.850,0.67941445,-0.12515941,0.6610685,0.3309882,0.57516026,-0.055284277,0.37876096,0.49711913,0.65115696,0.16143891,0.46020576,0.6014012,0.60670286,0.285,0.08100038,0.4737407,-0.034524977,-0.09063201,-0.2076021,-0.07309157,792.1612,798.60803,806.6667,813.5165,883.22345,-0.11334228515625,0.23797607421875,0.99237060546875,-2.340240478515625,-1.487884521484375,-7.05810546875,1,1.0,1.0,1.0,1.0,10.00
2024-10-11 20:19:28.851,0.67941445,-0.12515941,0.6610685,0.3309882,0.57516026,-0.055284277,0.37876096,0.49711913,0.65115696,0.16143891,0.46020576,0.6014012,0.60670286,0.285,0.08100038,0.4737407,-0.034524977,-0.09063201,-0.2076021,-0.07309157,786.1172,797.8022,800.6227,810.293,710.7692,-0.11334228515625,0.23797607421875,0.99237060546875,-2.340240478515625,-1.487884521484375,-7.05810546875,1,1.0,1.0,1.0,1.0,10.00
2024-10-11 20:19:28.852,0.67941445,-0.12515941,0.6610685,0.3309882,0.57516026,-0.055284277,0.37876096,0.49711913,0.65115696,0.16143891,0.46020576,0.6014012,0.60670286,0.285,0.08100038,0.4737407,-0.034524977,-0.09063201,-0.2076021,-0.07309157,787.326,806.6667,795.78754,806.6667,752.674,-0.11334228515625,0.23797607421875,0.99237060546875,-2.340240478515625,-1.487884521484375,-7.05810546875,1,1.0,1.0,1.0,1.0,10.00
2024-10-11 20:19:28.852,0.6606801,-0.18317893,0.5977977,0.32899293,0.5632379,-0.11382295,0.3174415,0.48188236,0.6520494,0.15878972,0.39739543,0.6014012,0.5865689,0.28288046,0.07483303,0.47456798,-0.025085194,-0.0882735,-0.22684246,-0.079822026,788.93774,808.68134,796.99634,803.8461,723.2601,-0.11334228515625,0.23797607421875,0.99237060546875,-2.340240478515625,-1.487884521484375,-7.05810546875,1,1.0,1.0,1.0,1.0,10.00
2024-10-11 20:19:28.884,0.6606801,-0.18317893,0.5977977,0.32899293,0.5632379,-0.11382295,0.3174415,0.48188236,0.6520494,0.15878972,0.39739543,0.6014012,0.5865689,0.28288046,0.07483303,0.47456798,-0.025085194,-0.0882735,-0.22684246,-0.079822026,784.5055,801.02563,799.41394,808.68134,678.1319,-0.12811279296875,0.21917724609375,0.9912109375,-8.17962646484375,-1.622467041015625,-6.766510009765625,1,1.0,1.0,1.0,1.0,10.00
2024-10-11 20:19:28.885,0.6606801,-0.18317893,0.5977977,0.32899293,0.5632379,-0.11382295,0.3174415,0.48188236,0.6520494,0.15878972,0.39739543,0.6014012,0.5865689,0.28288046,0.07483303,0.47456798,-0.025085194,-0.0882735,-0.22684246,-0.079822026,785.31134,799.41394,801.4286,811.0989,710.7692,-0.12811279296875,0.21917724609375,0.9912109375,-8.17962646484375,-1.622467041015625,-6.766510009765625,1,1.0,1.0,1.0,1.0,10.00
2024-10-11 20:19:28.886,0.6606801,-0.18317893,0.5977977,0.32899293,0.5632379,-0.11382295,0.3174415,0.48188236,0.6520494,0.15878972,0.39739543,0.6014012,0.5865689,0.28288046,0.07483303,0.47456798,-0.025085194,-0.0882735,-0.22684246,-0.079822026,788.5348,798.20514,801.8315,804.65204,744.61536,-0.12811279296875,0.21917724609375,0.9912109375,-8.17962646484375,-1.622467041015625,-6.766510009765625,1,1.0,1.0,1.0,1.0,10.00
2024-10-11 20:19:28.887,0.6606801,-0.18317893,0.5977977,0.32899293,0.5632379,-0.11382295,0.3174415,0.48188236,0.6520494,0.15878972,0.39739543,0.6014012,0.5865689,0.28288046,0.07483303,0.47456798,-0.025085194,-0.0882735,-0.22684246,-0.079822026,783.2967,798.60803,803.8461,810.696,704.3223,-0.12811279296875,0.21917724609375,0.9912109375,-8.17962646484375,-1.622467041015625,-6.766510009765625,1,1.0,1.0,1.0,1.0,10.00
2024-10-11 20:19:28.888,0.6606801,-0.18317893,0.5977977,0.32899293,0.5632379,-0.11382295,0.3174415,0.48188236,0.6520494,0.15878972,0.39739543,0.6014012,0.5865689,0.28288046,0.07483303,0.47456798,-0.025085194,-0.0882735,-0.22684246,-0.079822026,780.4762,796.99634,805.8608,814.3223,727.6923,-0.12811279296875,0.21917724609375,0.9912109375,-8.17962646484375,-1.622467041015625,-6.766510009765625,1,1.0,1.0,1.0,1.0,10.00
2024-10-11 20:19:28.888,0.6606801,-0.18317893,0.5977977,0.32899293,0.5632379,-0.11382295,0.3174415,0.48188236,0.6520494,0.15878972,0.39739543,0.6014012,0.5865689,0.28288046,0.07483303,0.47456798,-0.025085194,-0.0882735,-0.22684246,-0.079822026,785.7143,791.3553,801.02563,806.26373,902.96704,-0.12811279296875,0.21917724609375,0.9912109375,-8.17962646484375,-1.622467041015625,-6.766510009765625,1,1.0,1.0,1.0,1.0,10.00
2024-10-11 20:19:28.889,0.6606801,-0.18317893,0.5977977,0.32899293,0.5632379,-0.11382295,0.3174415,0.48188236,0.6520494,0.15878972,0.39739543,0.6014012,0.5865689,0.28288046,0.07483303,0.47456798,-0.025085194,-0.0882735,-0.22684246,-0.079822026,791.3553,798.20514,803.44324,814.7253,990.40295,-0.12811279296875,0.21917724609375,0.9912109375,-8.17962646484375,-1.622467041015625,-6.766510009765625,1,1.0,1.0,1.0,1.0,10.00
2024-10-11 20:19:28.890,0.6606801,-0.18317893,0.5977977,0.32899293,0.5632379,-0.11382295,0.3174415,0.48188236,0.6520494,0.15878972,0.39739543,0.6014012,0.5865689,0.28288046,0.07483303,0.47456798,-0.025085194,-0.0882735,-0.22684246,-0.079822026,789.34064,799.81683,807.47253,812.3077,809.89014,-0.12811279296875,0.21917724609375,0.9912109375,-8.17962646484375,-1.622467041015625,-6.766510009765625,1,1.0,1.0,1.0,1.0,10.00
2024-10-11 20:19:28.890,0.6606801,-0.18317893,0.5977977,0.32899293,0.5632379,-0.11382295,0.3174415,0.48188236,0.6520494,0.15878972,0.39739543,0.6014012,0.5865689,0.28288046,0.07483303,0.47456798,-0.025085194,-0.0882735,-0.22684246,-0.079822026,778.46155,794.17584,805.8608,797.3993,663.22345,-0.12811279296875,0.21917724609375,0.9912109375,-8.17962646484375,-1.622467041015625,-6.766510009765625,1,1.0,1.0,1.0,1.0,10.00
2024-10-11 20:19:28.891,0.6606801,-0.18317893,0.5977977,0.32899293,0.5632379,-0.11382295,0.3174415,0.48188236,0.6520494,0.15878972,0.39739543,0.6014012,0.5865689,0.28288046,0.07483303,0.47456798,-0.025085194,-0.0882735,-0.22684246,-0.079822026,779.67035,796.1905,803.8461,798.20514,796.5934,-0.12811279296875,0.21917724609375,0.9912109375,-8.17962646484375,-1.622467041015625,-6.766510009765625,1,1.0,1.0,1.0,1.0,10.00
2024-10-11 20:19:28.892,0.6606801,-0.18317893,0.5977977,0.32899293,0.5632379,-0.11382295,0.3174415,0.48188236,0.6520494,0.15878972,0.39739543,0.6014012,0.5865689,0.28288046,0.07483303,0.47456798,-0.025085194,-0.0882735,-0.22684246,-0.079822026,787.72894,796.1905,805.4579,802.23444,1147.1428,-0.12811279296875,0.21917724609375,0.9912109375,-8.17962646484375,-1.622467041015625,-6.766510009765625,1,1.0,1.0,1.0,1.0,10.00
2024-10-11 20:19:28.892,0.6606801,-0.18317893,0.5977977,0.32899293,0.5632379,-0.11382295,0.3174415,0.48188236,0.6520494,0.15878972,0.39739543,0.6014012,0.5865689,0.28288046,0.07483303,0.47456798,-0.025085194,-0.0882735,-0.22684246,-0.079822026,775.64105,790.54944,807.8755,793.7729,1036.7399,-0.12811279296875,0.21917724609375,0.9912109375,-8.17962646484375,-1.622467041015625,-6.766510009765625,1,1.0,1.0,1.0,1.0,10.00
2024-10-11 20:19:28.918,0.6606801,-0.18317893,0.5977977,0.32899293,0.5632379,-0.11382295,0.3174415,0.48188236,0.6520494,0.15878972,0.39739543,0.6014012,0.5865689,0.28288046,0.07483303,0.47456798,-0.025085194,-0.0882735,-0.22684246,-0.079822026,766.77655,790.54944,807.47253,795.38464,673.2967,-0.12371826171875,0.20361328125,0.994384765625,-10.938568115234375,-3.013153076171875,-11.43951416015625,1,1.0,1.0,1.0,1.0,10.00
2024-10-11 20:19:28.919,0.6606801,-0.18317893,0.5977977,0.32899293,0.5632379,-0.11382295,0.3174415,0.48188236,0.6520494,0.15878972,0.39739543,0.6014012,0.5865689,0.28288046,0.07483303,0.47456798,-0.025085194,-0.0882735,-0.22684246,-0.079822026,773.22345,791.75824,799.41394,800.6227,830.84247,-0.12371826171875,0.20361328125,0.994384765625,-10.938568115234375,-3.013153076171875,-11.43951416015625,1,1.0,1.0,1.0,1.0,10.00
2024-10-11 20:19:28.920,0.6606801,-0.18317893,0.5977977,0.32899293,0.5632379,-0.11382295,0.3174415,0.48188236,0.6520494,0.15878972,0.39739543,0.6014012,0.5865689,0.28288046,0.07483303,0.47456798,-0.025085194,-0.0882735,-0.22684246,-0.079822026,775.2381,792.1612,796.1905,800.6227,952.1245,-0.12371826171875,0.20361328125,0.994384765625,-10.938568115234375,-3.013153076171875,-11.43951416015625,1,1.0,1.0,1.0,1.0,10.00
2024-10-11 20:19:28.921,0.6606801,-0.18317893,0.5977977,0.32899293,0.5632379,-0.11382295,0.3174415,0.48188236,0.6520494,0.15878972,0.39739543,0.6014012,0.5865689,0.28288046,0.07483303,0.47456798,-0.025085194,-0.0882735,-0.22684246,-0.079822026,775.64105,797.3993,796.99634,805.05493,661.6117,-0.12371826171875,0.20361328125,0.994384765625,-10.938568115234375,-3.013153076171875,-11.43951416015625,1,1.0,1.0,1.0,1.0,10.00
2024-10-11 20:19:28.922,0.6606801,-0.18317893,0.5977977,0.32899293,0.5632379,-0.11382295,0.3174415,0.48188236,0.6520494,0.15878972,0.39739543,0.6014012,0.5865689,0.28288046,0.07483303,0.47456798,-0.025085194,-0.0882735,-0.22684246,-0.079822026,776.4469,792.96704,798.20514,805.8608,601.5751,-0.12371826171875,0.20361328125,0.994384765625,-10.938568115234375,-3.013153076171875,-11.43951416015625,1,1.0,1.0,1.0,1.0,10.00
2024-10-11 20:19:28.922,0.6606801,-0.18317893,0.5977977,0.32899293,0.5632379,-0.11382295,0.3174415,0.48188236,0.6520494,0.15878972,0.39739543,0.6014012,0.5865689,0.28288046,0.07483303,0.47456798,-0.025085194,-0.0882735,-0.22684246,-0.079822026,779.67035,793.36993,801.8315,806.6667,905.78754,-0.12371826171875,0.20361328125,0.994384765625,-10.938568115234375,-3.013153076171875,-11.43951416015625,1,1.0,1.0,1.0,1.0,10.00
2024-10-11 20:19:28.923,0.6606801,-0.18317893,0.5977977,0.32899293,0.5632379,-0.11382295,0.3174415,0.48188236,0.6520494,0.15878972,0.39739543,0.6014012,0.5865689,0.28288046,0.07483303,0.47456798,-0.025085194,-0.0882735,-0.22684246,-0.079822026,782.49084,800.2198,803.8461,813.1135,1014.57874,-0.12371826171875,0.20361328125,0.994384765625,-10.938568115234375,-3.013153076171875,-11.43951416015625,1,1.0,1.0,1.0,1.0,10.00
2024-10-11 20:19:28.924,0.6606801,-0.18317893,0.5977977,0.32899293,0.5632379,-0.11382295,0.3174415,0.48188236,0.6520494,0.15878972,0.39739543,0.6014012,0.5865689,0.28288046,0.07483303,0.47456798,-0.025085194,-0.0882735,-0.22684246,-0.079822026,786.52014,801.02563,800.2198,803.0403,810.696,-0.12371826171875,0.20361328125,0.994384765625,-10.938568115234375,-3.013153076171875,-11.43951416015625,1,1.0,1.0,1.0,1.0,10.00
2024-10-11 20:19:28.924,0.6606801,-0.18317893,0.5977977,0.32899293,0.5632379,-0.11382295,0.3174415,0.48188236,0.6520494,0.15878972,0.39739543,0.6014012,0.5865689,0.28288046,0.07483303,0.47456798,-0.025085194,-0.0882735,-0.22684246,-0.079822026,788.1319,800.2198,801.4286,792.96704,628.1685,-0.12371826171875,0.20361328125,0.994384765625,-10.938568115234375,-3.013153076171875,-11.43951416015625,1,1.0,1.0,1.0,1.0,10.00
2024-10-11 20:19:28.925,0.6606801,-0.18317893,0.5977977,0.32899293,0.5632379,-0.11382295,0.3174415,0.48188236,0.6520494,0.15878972,0.39739543,0.6014012,0.5865689,0.28288046,0.07483303,0.47456798,-0.025085194,-0.0882735,-0.22684246,-0.079822026,785.7143,793.36993,805.8608,801.8315,918.2784,-0.12371826171875,0.20361328125,0.994384765625,-10.938568115234375,-3.013153076171875,-11.43951416015625,1,1.0,1.0,1.0,1.0,10.00
2024-10-11 20:19:28.926,0.6606801,-0.18317893,0.5977977,0.32899293,0.5632379,-0.11382295,0.3174415,0.48188236,0.6520494,0.15878972,0.39739543,0.6014012,0.5865689,0.28288046,0.07483303,0.47456798,-0.025085194,-0.0882735,-0.22684246,-0.079822026,783.69965,789.7436,802.6374,805.4579,1030.6959,-0.12371826171875,0.20361328125,0.994384765625,-10.938568115234375,-3.013153076171875,-11.43951416015625,1,1.0,1.0,1.0,1.0,10.00
2024-10-11 20:19:28.926,0.6606801,-0.18317893,0.5977977,0.32899293,0.5632379,-0.11382295,0.3174415,0.48188236,0.6520494,0.15878972,0.39739543,0.6014012,0.5865689,0.28288046,0.07483303,0.47456798,-0.025085194,-0.0882735,-0.22684246,-0.079822026,782.0879,794.9817,804.2491,799.41394,719.6337,-0.12371826171875,0.20361328125,0.994384765625,-10.938568115234375,-3.013153076171875,-11.43951416015625,1,1.0,1.0,1.0,1.0,10.00
2024-10-11 20:19:28.983,0.6606801,-0.18317893,0.5977977,0.32899293,0.5632379,-0.11382295,0.3174415,0.48188236,0.6520494,0.15878972,0.39739543,0.6014012,0.5865689,0.28288046,0.07483303,0.47456798,-0.025085194,-0.0882735,-0.22684246,-0.079822026,788.1319,803.0403,803.0403,805.4579,573.7729,-0.11175537109375,0.16326904296875,0.98016357421875,-14.78912353515625,1.6448974609375,-14.07135009765625,1,1.0,1.0,1.0,1.0,10.00
2024-10-11 20:19:28.984,0.65227604,-0.2522304,0.5118689,0.3389312,0.54677,-0.15893249,0.24796408,0.48980066,0.6520494,0.15576711,0.3532441,0.6014012,0.5718684,0.2865747,0.06594742,0.46595803,-0.009501912,-0.071893826,-0.23792726,-0.072202876,788.1319,804.2491,795.78754,808.2784,808.68134,-0.11175537109375,0.16326904296875,0.98016357421875,-14.78912353515625,1.6448974609375,-14.07135009765625,1,1.0,1.0,1.0,1.0,10.00
2024-10-11 20:19:28.990,0.65227604,-0.2522304,0.5118689,0.3389312,0.54677,-0.15893249,0.24796408,0.48980066,0.6520494,0.15576711,0.3532441,0.6014012,0.5718684,0.2865747,0.06594742,0.46595803,-0.009501912,-0.071893826,-0.23792726,-0.072202876,785.31134,799.41394,796.5934,804.2491,1023.8461,-0.11175537109375,0.16326904296875,0.98016357421875,-14.78912353515625,1.6448974609375,-14.07135009765625,1,1.0,1.0,1.0,1.0,10.00
2024-10-11 20:19:28.991,0.65227604,-0.2522304,0.5118689,0.3389312,0.54677,-0.15893249,0.24796408,0.48980066,0.6520494,0.15576711,0.3532441,0.6014012,0.5718684,0.2865747,0.06594742,0.46595803,-0.009501912,-0.071893826,-0.23792726,-0.072202876,784.90845,800.2198,801.4286,801.02563,741.79486,-0.11175537109375,0.16326904296875,0.98016357421875,-14.78912353515625,1.6448974609375,-14.07135009765625,1,1.0,1.0,1.0,1.0,10.00
2024-10-11 20:19:28.992,0.65227604,-0.2522304,0.5118689,0.3389312,0.54677,-0.15893249,0.24796408,0.48980066,0.6520494,0.15576711,0.3532441,0.6014012,0.5718684,0.2865747,0.06594742,0.46595803,-0.009501912,-0.071893826,-0.23792726,-0.072202876,789.7436,802.23444,806.6667,801.8315,644.68866,-0.11175537109375,0.16326904296875,0.98016357421875,-14.78912353515625,1.6448974609375,-14.07135009765625,1,1.0,1.0,1.0,1.0,10.00
2024-10-11 20:19:28.992,0.65227604,-0.2522304,0.5118689,0.3389312,0.54677,-0.15893249,0.24796408,0.48980066,0.6520494,0.15576711,0.3532441,0.6014012,0.5718684,0.2865747,0.06594742,0.46595803,-0.009501912,-0.071893826,-0.23792726,-0.072202876,788.93774,797.8022,805.8608,803.44324,817.1429,-0.11175537109375,0.16326904296875,0.98016357421875,-14.78912353515625,1.6448974609375,-14.07135009765625,1,1.0,1.0,1.0,1.0,10.00
2024-10-11 20:19:28.993,0.65227604,-0.2522304,0.5118689,0.3389312,0.54677,-0.15893249,0.24796408,0.48980066,0.6520494,0.15576711,0.3532441,0.6014012,0.5718684,0.2865747,0.06594742,0.46595803,-0.009501912,-0.071893826,-0.23792726,-0.072202876,784.5055,795.78754,805.8608,802.6374,890.07324,-0.11175537109375,0.16326904296875,0.98016357421875,-14.78912353515625,1.6448974609375,-14.07135009765625,1,1.0,1.0,1.0,1.0,10.00
2024-10-11 20:19:28.994,0.65227604,-0.2522304,0.5118689,0.3389312,0.54677,-0.15893249,0.24796408,0.48980066,0.6520494,0.15576711,0.3532441,0.6014012,0.5718684,0.2865747,0.06594742,0.46595803,-0.009501912,-0.071893826,-0.23792726,-0.072202876,786.52014,797.3993,802.23444,805.4579,671.685,-0.11175537109375,0.16326904296875,0.98016357421875,-14.78912353515625,1.6448974609375,-14.07135009765625,1,1.0,1.0,1.0,1.0,10.00
2024-10-11 20:19:28.994,0.65227604,-0.2522304,0.5118689,0.3389312,0.54677,-0.15893249,0.24796408,0.48980066,0.6520494,0.15576711,0.3532441,0.6014012,0.5718684,0.2865747,0.06594742,0.46595803,-0.009501912,-0.071893826,-0.23792726,-0.072202876,788.93774,799.011,797.3993,805.8608,686.5934,-0.11175537109375,0.16326904296875,0.98016357421875,-14.78912353515625,1.6448974609375,-14.07135009765625,1,1.0,1.0,1.0,1.0,10.00
2024-10-11 20:19:28.995,0.65227604,-0.2522304,0.5118689,0.3389312,0.54677,-0.15893249,0.24796408,0.48980066,0.6520494,0.15576711,0.3532441,0.6014012,0.5718684,0.2865747,0.06594742,0.46595803,-0.009501912,-0.071893826,-0.23792726,-0.072202876,786.52014,791.3553,795.38464,813.1135,881.2088,-0.11175537109375,0.16326904296875,0.98016357421875,-14.78912353515625,1.6448974609375,-14.07135009765625,1,1.0,1.0,1.0,1.0,10.00
2024-10-11 20:19:28.996,0.65227604,-0.2522304,0.5118689,0.3389312,0.54677,-0.15893249,0.24796408,0.48980066,0.6520494,0.15576711,0.3532441,0.6014012,0.5718684,0.2865747,0.06594742,0.46595803,-0.009501912,-0.071893826,-0.23792726,-0.072202876,783.2967,785.31134,793.36993,815.12823,829.6337,-0.11175537109375,0.16326904296875,0.98016357421875,-14.78912353515625,1.6448974609375,-14.07135009765625,1,1.0,1.0,1.0,1.0,10.00
2024-10-11 20:19:28.998,0.65227604,-0.2522304,0.5118689,0.3389312,0.54677,-0.15893249,0.24796408,0.48980066,0.6520494,0.15576711,0.3532441,0.6014012,0.5718684,0.2865747,0.06594742,0.46595803,-0.009501912,-0.071893826,-0.23792726,-0.072202876,785.31134,793.7729,795.38464,808.68134,760.7326,-0.11175537109375,0.16326904296875,0.98016357421875,-14.78912353515625,1.6448974609375,-14.07135009765625,1,1.0,1.0,1.0,1.0,10.00
2024-10-11 20:19:29.028,0.65227604,-0.2522304,0.5118689,0.3389312,0.54677,-0.15893249,0.24796408,0.48980066,0.6520494,0.15576711,0.3532441,0.6014012,0.5718684,0.2865747,0.06594742,0.46595803,-0.009501912,-0.071893826,-0.23792726,-0.072202876,789.34064,794.57874,802.6374,813.1135,895.7143,-0.10400390625,0.12847900390625,0.97857666015625,-11.6339111328125,0.680389404296875,-11.05072021484375,1,1.0,1.0,1.0,1.0,10.00
2024-10-11 20:19:29.029,0.65227604,-0.2522304,0.5118689,0.3389312,0.54677,-0.15893249,0.24796408,0.48980066,0.6520494,0.15576711,0.3532441,0.6014012,0.5718684,0.2865747,0.06594742,0.46595803,-0.009501912,-0.071893826,-0.23792726,-0.072202876,795.38464,793.7729,806.26373,811.0989,851.39197,-0.10400390625,0.12847900390625,0.97857666015625,-11.6339111328125,0.680389404296875,-11.05072021484375,1,1.0,1.0,1.0,1.0,10.00
2024-10-11 20:19:29.030,0.65227604,-0.2522304,0.5118689,0.3389312,0.54677,-0.15893249,0.24796408,0.48980066,0.6520494,0.15576711,0.3532441,0.6014012,0.5718684,0.2865747,0.06594742,0.46595803,-0.009501912,-0.071893826,-0.23792726,-0.072202876,791.75824,798.60803,800.2198,804.2491,637.4359,-0.10400390625,0.12847900390625,0.97857666015625,-11.6339111328125,0.680389404296875,-11.05072021484375,1,1.0,1.0,1.0,1.0,10.00
2024-10-11 20:19:29.030,0.65227604,-0.2522304,0.5118689,0.3389312,0.54677,-0.15893249,0.24796408,0.48980066,0.6520494,0.15576711,0.3532441,0.6014012,0.5718684,0.2865747,0.06594742,0.46595803,-0.009501912,-0.071893826,-0.23792726,-0.072202876,785.7143,799.011,801.8315,807.0696,652.74725,-0.10400390625,0.12847900390625,0.97857666015625,-11.6339111328125,0.680389404296875,-11.05072021484375,1,1.0,1.0,1.0,1.0,10.00
2024-10-11 20:19:29.031,0.65227604,-0.2522304,0.5118689,0.3389312,0.54677,-0.15893249,0.24796408,0.48980066,0.6520494,0.15576711,0.3532441,0.6014012,0.5718684,0.2865747,0.06594742,0.46595803,-0.009501912,-0.071893826,-0.23792726,-0.072202876,793.36993,796.99634,805.05493,812.71063,749.85345,-0.10400390625,0.12847900390625,0.97857666015625,-11.6339111328125,0.680389404296875,-11.05072021484375,1,1.0,1.0,1.0,1.0,10.00
2024-10-11 20:19:29.032,0.65227604,-0.2522304,0.5118689,0.3389312,0.54677,-0.15893249,0.24796408,0.48980066,0.6520494,0.15576711,0.3532441,0.6014012,0.5718684,0.2865747,0.06594742,0.46595803,-0.009501912,-0.071893826,-0.23792726,-0.072202876,797.8022,798.60803,807.0696,811.50183,818.3516,-0.10400390625,0.12847900390625,0.97857666015625,-11.6339111328125,0.680389404296875,-11.05072021484375,1,1.0,1.0,1.0,1.0,10.00
2024-10-11 20:19:29.033,0.65227604,-0.2522304,0.5118689,0.3389312,0.54677,-0.15893249,0.24796408,0.48980066,0.6520494,0.15576711,0.3532441,0.6014012,0.5718684,0.2865747,0.06594742,0.46595803,-0.009501912,-0.071893826,-0.23792726,-0.072202876,799.41394,791.3553,813.91943,806.26373,844.1392,-0.10400390625,0.12847900390625,0.97857666015625,-11.6339111328125,0.680389404296875,-11.05072021484375,1,1.0,1.0,1.0,1.0,10.00
2024-10-11 20:19:29.034,0.65227604,-0.2522304,0.5118689,0.3389312,0.54677,-0.15893249,0.24796408,0.48980066,0.6520494,0.15576711,0.3532441,0.6014012,0.5718684,0.2865747,0.06594742,0.46595803,-0.009501912,-0.071893826,-0.23792726,-0.072202876,803.44324,795.38464,805.8608,808.2784,834.4689,-0.10400390625,0.12847900390625,0.97857666015625,-11.6339111328125,0.680389404296875,-11.05072021484375,1,1.0,1.0,1.0,1.0,10.00
2024-10-11 20:19:29.034,0.65227604,-0.2522304,0.5118689,0.3389312,0.54677,-0.15893249,0.24796408,0.48980066,0.6520494,0.15576711,0.3532441,0.6014012,0.5718684,0.2865747,0.06594742,0.46595803,-0.009501912,-0.071893826,-0.23792726,-0.072202876,797.3993,804.2491,803.0403,815.9341,915.8608,-0.10400390625,0.12847900390625,0.97857666015625,-11.6339111328125,0.680389404296875,-11.05072021484375,1,1.0,1.0,1.0,1.0,10.00
2024-10-11 20:19:29.035,0.65227604,-0.2522304,0.5118689,0.3389312,0.54677,-0.15893249,0.24796408,0.48980066,0.6520494,0.15576711,0.3532441,0.6014012,0.5718684,0.2865747,0.06594742,0.46595803,-0.009501912,-0.071893826,-0.23792726,-0.072202876,788.93774,797.3993,806.6667,813.1135,916.6667,-0.10400390625,0.12847900390625,0.97857666015625,-11.6339111328125,0.680389404296875,-11.05072021484375,1,1.0,1.0,1.0,1.0,10.00
2024-10-11 20:19:29.036,0.65227604,-0.2522304,0.5118689,0.3389312,0.54677,-0.15893249,0.24796408,0.48980066,0.6520494,0.15576711,0.3532441,0.6014012,0.5718684,0.2865747,0.06594742,0.46595803,-0.009501912,-0.071893826,-0.23792726,-0.072202876,794.9817,797.3993,808.68134,811.0989,656.77655,-0.10400390625,0.12847900390625,0.97857666015625,-11.6339111328125,0.680389404296875,-11.05072021484375,1,1.0,1.0,1.0,1.0,10.00
2024-10-11 20:19:29.037,0.65227604,-0.2522304,0.5118689,0.3389312,0.54677,-0.15893249,0.24796408,0.48980066,0.6520494,0.15576711,0.3532441,0.6014012,0.5718684,0.2865747,0.06594742,0.46595803,-0.009501912,-0.071893826,-0.23792726,-0.072202876,813.5165,797.8022,812.71063,815.5311,641.4652,-0.10400390625,0.12847900390625,0.97857666015625,-11.6339111328125,0.680389404296875,-11.05072021484375,1,1.0,1.0,1.0,1.0,10.00
2024-10-11 20:19:29.065,0.65227604,-0.2522304,0.5118689,0.3389312,0.54677,-0.15893249,0.24796408,0.48980066,0.6520494,0.15576711,0.3532441,0.6014012,0.5718684,0.2865747,0.06594742,0.46595803,-0.009501912,-0.071893826,-0.23792726,-0.072202876,808.2784,798.20514,812.3077,819.5604,999.67035,-0.10400390625,0.12847900390625,0.97857666015625,-11.6339111328125,0.680389404296875,-11.05072021484375,1,1.0,1.0,1.0,1.0,10.00
2024-10-11 20:19:29.066,0.65227604,-0.2522304,0.5118689,0.3389312,0.54677,-0.15893249,0.24796408,0.48980066,0.6520494,0.15576711,0.3532441,0.6014012,0.5718684,0.2865747,0.06594742,0.46595803,-0.009501912,-0.071893826,-0.23792726,-0.072202876,805.05493,798.20514,810.293,821.1722,1097.5824,-0.10400390625,0.12847900390625,0.97857666015625,-11.6339111328125,0.680389404296875,-11.05072021484375,1,1.0,1.0,1.0,1.0,10.00
2024-10-11 20:19:29.067,0.65227604,-0.2522304,0.5118689,0.3389312,0.54677,-0.15893249,0.24796408,0.48980066,0.6520494,0.15576711,0.3532441,0.6014012,0.5718684,0.2865747,0.06594742,0.46595803,-0.009501912,-0.071893826,-0.23792726,-0.072202876,813.1135,796.1905,807.47253,815.12823,663.22345,-0.10400390625,0.12847900390625,0.97857666015625,-11.6339111328125,0.680389404296875,-11.05072021484375,1,1.0,1.0,1.0,1.0,10.00
2024-10-11 20:19:29.068,0.65741956,-0.31206945,0.41242048,0.35517287,0.52976006,-0.18362975,0.1895204,0.52069044,0.6520494,0.15555978,0.33096823,0.6014012,0.55960476,0.29046506,0.052349456,0.4538653,0.0067039183,-0.046845388,-0.24569754,-0.059343167,809.0842,797.8022,809.4872,817.9487,732.9304,-0.10400390625,0.12847900390625,0.97857666015625,-11.6339111328125,0.680389404296875,-11.05072021484375,1,1.0,1.0,1.0,1.0,10.00
2024-10-11 20:19:29.074,0.65741956,-0.31206945,0.41242048,0.35517287,0.52976006,-0.18362975,0.1895204,0.52069044,0.6520494,0.15555978,0.33096823,0.6014012,0.55960476,0.29046506,0.052349456,0.4538653,0.0067039183,-0.046845388,-0.24569754,-0.059343167,799.011,807.8755,803.0403,817.5458,907.8022,-0.10400390625,0.12847900390625,0.97857666015625,-11.6339111328125,0.680389404296875,-11.05072021484375,1,1.0,1.0,1.0,1.0,10.00
2024-10-11 20:19:29.075,0.65741956,-0.31206945,0.41242048,0.35517287,0.52976006,-0.18362975,0.1895204,0.52069044,0.6520494,0.15555978,0.33096823,0.6014012,0.55960476,0.29046506,0.052349456,0.4538653,0.0067039183,-0.046845388,-0.24569754,-0.059343167,799.011,809.89014,798.60803,809.4872,816.337,-0.10400390625,0.12847900390625,0.97857666015625,-11.6339111328125,0.680389404296875,-11.05072021484375,1,1.0,1.0,1.0,1.0,10.00
2024-10-11 20:19:29.076,0.65741956,-0.31206945,0.41242048,0.35517287,0.52976006,-0.18362975,0.1895204,0.52069044,0.6520494,0.15555978,0.33096823,0.6014012,0.55960476,0.29046506,0.052349456,0.4538653,0.0067039183,-0.046845388,-0.24569754,-0.059343167,800.6227,802.23444,801.02563,805.4579,633.4066,-0.10400390625,0.12847900390625,0.97857666015625,-11.6339111328125,0.680389404296875,-11.05072021484375,1,1.0,1.0,1.0,1.0,10.00
2024-10-11 20:19:29.076,0.65741956,-0.31206945,0.41242048,0.35517287,0.52976006,-0.18362975,0.1895204,0.52069044,0.6520494,0.15555978,0.33096823,0.6014012,0.55960476,0.29046506,0.052349456,0.4538653,0.0067039183,-0.046845388,-0.24569754,-0.059343167,794.57874,800.2198,794.17584,803.44324,593.91943,-0.10400390625,0.12847900390625,0.97857666015625,-11.6339111328125,0.680389404296875,-11.05072021484375,1,1.0,1.0,1.0,1.0,10.00
2024-10-11 20:19:29.077,0.65741956,-0.31206945,0.41242048,0.35517287,0.52976006,-0.18362975,0.1895204,0.52069044,0.6520494,0.15555978,0.33096823,0.6014012,0.55960476,0.29046506,0.052349456,0.4538653,0.0067039183,-0.046845388,-0.24569754,-0.059343167,796.99634,799.41394,795.78754,812.3077,1000.87915,-0.10400390625,0.12847900390625,0.97857666015625,-11.6339111328125,0.680389404296875,-11.05072021484375,1,1.0,1.0,1.0,1.0,10.00
2024-10-11 20:19:29.078,0.65741956,-0.31206945,0.41242048,0.35517287,0.52976006,-0.18362975,0.1895204,0.52069044,0.6520494,0.15555978,0.33096823,0.6014012,0.55960476,0.29046506,0.052349456,0.4538653,0.0067039183,-0.046845388,-0.24569754,-0.059343167,804.65204,798.20514,808.68134,813.5165,888.0586,-0.10400390625,0.12847900390625,0.97857666015625,-11.6339111328125,0.680389404296875,-11.05072021484375,1,1.0,1.0,1.0,1.0,10.00
2024-10-11 20:19:29.079,0.65741956,-0.31206945,0.41242048,0.35517287,0.52976006,-0.18362975,0.1895204,0.52069044,0.6520494,0.15555978,0.33096823,0.6014012,0.55960476,0.29046506,0.052349456,0.4538653,0.0067039183,-0.046845388,-0.24569754,-0.059343167,804.65204,802.23444,809.4872,805.8608,529.45056,-0.10400390625,0.12847900390625,0.97857666015625,-11.6339111328125,0.680389404296875,-11.05072021484375,1,1.0,1.0,1.0,1.0,10.00
2024-10-11 20:19:29.079,0.65741956,-0.31206945,0.41242048,0.35517287,0.52976006,-0.18362975,0.1895204,0.52069044,0.6520494,0.15555978,0.33096823,0.6014012,0.55960476,0.29046506,0.052349456,0.4538653,0.0067039183,-0.046845388,-0.24569754,-0.059343167,805.8608,794.17584,805.4579,815.12823,633.00366,-0.10400390625,0.12847900390625,0.97857666015625,-11.6339111328125,0.680389404296875,-11.05072021484375,1,1.0,1.0,1.0,1.0,10.00
2024-10-11 20:19:29.105,0.65741956,-0.31206945,0.41242048,0.35517287,0.52976006,-0.18362975,0.1895204,0.52069044,0.6520494,0.15555978,0.33096823,0.6014012,0.55960476,0.29046506,0.052349456,0.4538653,0.0067039183,-0.046845388,-0.24569754,-0.059343167,803.44324,791.75824,804.65204,815.9341,756.30035,-0.1153564453125,0.0992431640625,0.97149658203125,-5.465545654296875,0.85235595703125,-6.093597412109375,1,1.0,1.0,1.0,1.0,10.00
2024-10-11 20:19:29.106,0.65741956,-0.31206945,0.41242048,0.35517287,0.52976006,-0.18362975,0.1895204,0.52069044,0.6520494,0.15555978,0.33096823,0.6014012,0.55960476,0.29046506,0.052349456,0.4538653,0.0067039183,-0.046845388,-0.24569754,-0.059343167,807.0696,790.14655,807.0696,817.9487,725.6777,-0.1153564453125,0.0992431640625,0.97149658203125,-5.465545654296875,0.85235595703125,-6.093597412109375,1,1.0,1.0,1.0,1.0,10.00
2024-10-11 20:19:29.107,0.65741956,-0.31206945,0.41242048,0.35517287,0.52976006,-0.18362975,0.1895204,0.52069044,0.6520494,0.15555978,0.33096823,0.6014012,0.55960476,0.29046506,0.052349456,0.4538653,0.0067039183,-0.046845388,-0.24569754,-0.059343167,811.50183,786.52014,809.0842,823.5897,641.4652,-0.1153564453125,0.0992431640625,0.97149658203125,-5.465545654296875,0.85235595703125,-6.093597412109375,1,1.0,1.0,1.0,1.0,10.00
2024-10-11 20:19:29.108,0.65741956,-0.31206945,0.41242048,0.35517287,0.52976006,-0.18362975,0.1895204,0.52069044,0.6520494,0.15555978,0.33096823,0.6014012,0.55960476,0.29046506,0.052349456,0.4538653,0.0067039183,-0.046845388,-0.24569754,-0.059343167,810.293,796.5934,812.71063,821.5751,587.8755,-0.1153564453125,0.0992431640625,0.97149658203125,-5.465545654296875,0.85235595703125,-6.093597412109375,1,1.0,1.0,1.0,1.0,10.00
2024-10-11 20:19:29.108,0.65741956,-0.31206945,0.41242048,0.35517287,0.52976006,-0.18362975,0.1895204,0.52069044,0.6520494,0.15555978,0.33096823,0.6014012,0.55960476,0.29046506,0.052349456,0.4538653,0.0067039183,-0.046845388,-0.24569754,-0.059343167,812.71063,799.41394,810.696,823.9927,660.0,-0.1153564453125,0.0992431640625,0.97149658203125,-5.465545654296875,0.85235595703125,-6.093597412109375,1,1.0,1.0,1.0,1.0,10.00
2024-10-11 20:19:29.109,0.65741956,-0.31206945,0.41242048,0.35517287,0.52976006,-0.18362975,0.1895204,0.52069044,0.6520494,0.15555978,0.33096823,0.6014012,0.55960476,0.29046506,0.052349456,0.4538653,0.0067039183,-0.046845388,-0.24569754,-0.059343167,803.8461,800.2198,810.293,817.9487,849.7802,-0.1153564453125,0.0992431640625,0.97149658203125,-5.465545654296875,0.85235595703125,-6.093597412109375,1,1.0,1.0,1.0,1.0,10.00
2024-10-11 20:19:29.110,0.65741956,-0.31206945,0.41242048,0.35517287,0.52976006,-0.18362975,0.1895204,0.52069044,0.6520494,0.15555978,0.33096823,0.6014012,0.55960476,0.29046506,0.052349456,0.4538653,0.0067039183,-0.046845388,-0.24569754,-0.059343167,792.5641,795.78754,804.65204,807.8755,821.978,-0.1153564453125,0.0992431640625,0.97149658203125,-5.465545654296875,0.85235595703125,-6.093597412109375,1,1.0,1.0,1.0,1.0,10.00
2024-10-11 20:19:29.110,0.65741956,-0.31206945,0.41242048,0.35517287,0.52976006,-0.18362975,0.1895204,0.52069044,0.6520494,0.15555978,0.33096823,0.6014012,0.55960476,0.29046506,0.052349456,0.4538653,0.0067039183,-0.046845388,-0.24569754,-0.059343167,805.4579,790.9524,802.23444,803.8461,1079.4506,-0.1153564453125,0.0992431640625,0.97149658203125,-5.465545654296875,0.85235595703125,-6.093597412109375,1,1.0,1.0,1.0,1.0,10.00
2024-10-11 20:19:29.111,0.65741956,-0.31206945,0.41242048,0.35517287,0.52976006,-0.18362975,0.1895204,0.52069044,0.6520494,0.15555978,0.33096823,0.6014012,0.55960476,0.29046506,0.052349456,0.4538653,0.0067039183,-0.046845388,-0.24569754,-0.059343167,812.3077,796.1905,801.4286,802.6374,1105.238,-0.1153564453125,0.0992431640625,0.97149658203125,-5.465545654296875,0.85235595703125,-6.093597412109375,1,1.0,1.0,1.0,1.0,10.00
2024-10-11 20:19:29.112,0.65741956,-0.31206945,0.41242048,0.35517287,0.52976006,-0.18362975,0.1895204,0.52069044,0.6520494,0.15555978,0.33096823,0.6014012,0.55960476,0.29046506,0.052349456,0.4538653,0.0067039183,-0.046845388,-0.24569754,-0.059343167,813.5165,796.99634,801.8315,803.0403,721.2454,-0.1153564453125,0.0992431640625,0.97149658203125,-5.465545654296875,0.85235595703125,-6.093597412109375,1,1.0,1.0,1.0,1.0,10.00
2024-10-11 20:19:29.112,0.65741956,-0.31206945,0.41242048,0.35517287,0.52976006,-0.18362975,0.1895204,0.52069044,0.6520494,0.15555978,0.33096823,0.6014012,0.55960476,0.29046506,0.052349456,0.4538653,0.0067039183,-0.046845388,-0.24569754,-0.059343167,812.3077,789.7436,806.6667,808.2784,664.83514,-0.1153564453125,0.0992431640625,0.97149658203125,-5.465545654296875,0.85235595703125,-6.093597412109375,1,1.0,1.0,1.0,1.0,10.00
2024-10-11 20:19:29.113,0.65741956,-0.31206945,0.41242048,0.35517287,0.52976006,-0.18362975,0.1895204,0.52069044,0.6520494,0.15555978,0.33096823,0.6014012,0.55960476,0.29046506,0.052349456,0.4538653,0.0067039183,-0.046845388,-0.24569754,-0.059343167,809.89014,787.72894,805.8608,815.9341,935.2015,-0.1153564453125,0.0992431640625,0.97149658203125,-5.465545654296875,0.85235595703125,-6.093597412109375,1,1.0,1.0,1.0,1.0,10.00
2024-10-11 20:19:29.214,0.65741956,-0.31206945,0.41242048,0.35517287,0.52976006,-0.18362975,0.1895204,0.52069044,0.6520494,0.15555978,0.33096823,0.6014012,0.55960476,0.29046506,0.052349456,0.4538653,0.0067039183,-0.046845388,-0.24569754,-0.059343167,807.8755,794.17584,803.8461,819.5604,1062.9304,-0.11041259765625,0.10662841796875,0.9844970703125,1.435546875,1.547698974609375,0.10467529296875,1,1.0,1.0,1.0,1.0,10.00
2024-10-11 20:19:29.215,0.65741956,-0.31206945,0.41242048,0.35517287,0.52976006,-0.18362975,0.1895204,0.52069044,0.6520494,0.15555978,0.33096823,0.6014012,0.55960476,0.29046506,0.052349456,0.4538653,0.0067039183,-0.046845388,-0.24569754,-0.059343167,805.8608,801.8315,810.293,814.7253,695.8608,-0.11041259765625,0.10662841796875,0.9844970703125,1.435546875,1.547698974609375,0.10467529296875,1,1.0,1.0,1.0,1.0,10.00
2024-10-11 20:19:29.216,0.65741956,-0.31206945,0.41242048,0.35517287,0.52976006,-0.18362975,0.1895204,0.52069044,0.6520494,0.15555978,0.33096823,0.6014012,0.55960476,0.29046506,0.052349456,0.4538653,0.0067039183,-0.046845388,-0.24569754,-0.059343167,811.0989,799.41394,806.6667,813.1135,690.2198,-0.11041259765625,0.10662841796875,0.9844970703125,1.435546875,1.547698974609375,0.10467529296875,1,1.0,1.0,1.0,1.0,10.00
2024-10-11 20:19:29.216,0.65741956,-0.31206945,0.41242048,0.35517287,0.52976006,-0.18362975,0.1895204,0.52069044,0.6520494,0.15555978,0.33096823,0.6014012,0.55960476,0.29046506,0.052349456,0.4538653,0.0067039183,-0.046845388,-0.24569754,-0.059343167,811.0989,796.5934,800.6227,813.5165,750.2564,-0.11041259765625,0.10662841796875,0.9844970703125,1.435546875,1.547698974609375,0.10467529296875,1,1.0,1.0,1.0,1.0,10.00
2024-10-11 20:19:29.217,0.65741956,-0.31206945,0.41242048,0.35517287,0.52976006,-0.18362975,0.1895204,0.52069044,0.6520494,0.15555978,0.33096823,0.6014012,0.55960476,0.29046506,0.052349456,0.4538653,0.0067039183,-0.046845388,-0.24569754,-0.059343167,809.89014,801.4286,805.8608,812.71063,675.7143,-0.11041259765625,0.10662841796875,0.9844970703125,1.435546875,1.547698974609375,0.10467529296875,1,1.0,1.0,1.0,1.0,10.00
2024-10-11 20:19:29.218,0.6782555,-0.33895066,0.32249847,0.3705705,0.5177119,-0.19401222,0.14554532,0.55992293,0.6520494,0.14958675,0.33069035,0.6014012,0.54654974,0.28880706,0.035512783,0.44304824,0.016877979,-0.023639502,-0.25408933,-0.052619472,806.26373,806.6667,807.0696,815.12823,718.022,-0.11041259765625,0.10662841796875,0.9844970703125,1.435546875,1.547698974609375,0.10467529296875,1,1.0,1.0,1.0,1.0,10.00
2024-10-11 20:19:29.224,0.6782555,-0.33895066,0.32249847,0.3705705,0.5177119,-0.19401222,0.14554532,0.55992293,0.6520494,0.14958675,0.33069035,0.6014012,0.54654974,0.28880706,0.035512783,0.44304824,0.016877979,-0.023639502,-0.25408933,-0.052619472,802.6374,804.2491,803.44324,811.9048,865.09155,-0.11041259765625,0.10662841796875,0.9844970703125,1.435546875,1.547698974609375,0.10467529296875,1,1.0,1.0,1.0,1.0,10.00
2024-10-11 20:19:29.225,0.6782555,-0.33895066,0.32249847,0.3705705,0.5177119,-0.19401222,0.14554532,0.55992293,0.6520494,0.14958675,0.33069035,0.6014012,0.54654974,0.28880706,0.035512783,0.44304824,0.016877979,-0.023639502,-0.25408933,-0.052619472,801.4286,797.8022,800.6227,806.6667,885.2381,-0.11041259765625,0.10662841796875,0.9844970703125,1.435546875,1.547698974609375,0.10467529296875,1,1.0,1.0,1.0,1.0,10.00
2024-10-11 20:19:29.225,0.6782555,-0.33895066,0.32249847,0.3705705,0.5177119,-0.19401222,0.14554532,0.55992293,0.6520494,0.14958675,0.33069035,0.6014012,0.54654974,0.28880706,0.035512783,0.44304824,0.016877979,-0.023639502,-0.25408933,-0.052619472,804.2491,796.5934,804.65204,805.05493,741.79486,-0.11041259765625,0.10662841796875,0.9844970703125,1.435546875,1.547698974609375,0.10467529296875,1,1.0,1.0,1.0,1.0,10.00
2024-10-11 20:19:29.226,0.6782555,-0.33895066,0.32249847,0.3705705,0.5177119,-0.19401222,0.14554532,0.55992293,0.6520494,0.14958675,0.33069035,0.6014012,0.54654974,0.28880706,0.035512783,0.44304824,0.016877979,-0.023639502,-0.25408933,-0.052619472,809.4872,803.8461,801.8315,806.6667,689.41394,-0.11041259765625,0.10662841796875,0.9844970703125,1.435546875,1.547698974609375,0.10467529296875,1,1.0,1.0,1.0,1.0,10.00
