TimeStamp,Delta_TP9,Delta_AF7,Delta_AF8,Delta_TP10,Theta_TP9,Theta_AF7,Theta_AF8,Theta_TP10,Alpha_TP9,Alpha_AF7,Alpha_AF8,Alpha_TP10,Beta_TP9,Beta_AF7,Beta_AF8,Beta_TP10,Gamma_TP9,Gamma_AF7,Gamma_AF8,Gamma_TP10,RAW_TP9,RAW_AF7,RAW_AF8,RAW_TP10,AUX_RIGHT,Accelerometer_X,Accelerometer_Y,Accelerometer_Z,Gyro_X,Gyro_Y,Gyro_Z,HeadBandOn,HSI_TP9,HSI_AF7,HSI_AF8,HSI_TP10,Battery,Elements
2024-10-11 20:39:41.033,0.99291676,0.4118157,0.5187891,0.9824673,0.5501508,0.30075797,-0.044199817,0.7470714,0.6540408,0.3737463,0.169458,0.79909897,0.60688865,-0.05532726,0.08010514,0.55764043,0.12393097,-0.38710615,-0.07121323,0.1388288,793.36993,794.9817,804.65204,809.89014,674.90845,0.02423095703125,0.14361572265625,0.99407958984375,-0.127105712890625,1.734619140625,-2.145843505859375,1,1.0,1.0,1.0,1.0,10.00
2024-10-11 20:39:41.034,0.99291676,0.4118157,0.5187891,0.9824673,0.5501508,0.30075797,-0.044199817,0.7470714,0.6540408,0.3737463,0.169458,0.79909897,0.60688865,-0.05532726,0.08010514,0.55764043,0.12393097,-0.38710615,-0.07121323,0.1388288,805.8608,793.36993,806.26373,807.47253,727.28937,0.02423095703125,0.14361572265625,0.99407958984375,-0.127105712890625,1.734619140625,-2.145843505859375,1,1.0,1.0,1.0,1.0,10.00
2024-10-11 20:39:41.034,0.99291676,0.4118157,0.5187891,0.9824673,0.5501508,0.30075797,-0.044199817,0.7470714,0.6540408,0.3737463,0.169458,0.79909897,0.60688865,-0.05532726,0.08010514,0.55764043,0.12393097,-0.38710615,-0.07121323,0.1388288,813.1135,792.5641,805.05493,807.8755,890.07324,0.02423095703125,0.14361572265625,0.99407958984375,-0.127105712890625,1.734619140625,-2.145843505859375,1,1.0,1.0,1.0,1.0,10.00
2024-10-11 20:39:41.035,0.99291676,0.4118157,0.5187891,0.9824673,0.5501508,0.30075797,-0.044199817,0.7470714,0.6540408,0.3737463,0.169458,0.79909897,0.60688865,-0.05532726,0.08010514,0.55764043,0.12393097,-0.38710615,-0.07121323,0.1388288,799.011,793.7729,796.1905,809.89014,746.2271,0.02423095703125,0.14361572265625,0.99407958984375,-0.127105712890625,1.734619140625,-2.145843505859375,1,1.0,1.0,1.0,1.0,10.00
2024-10-11 20:39:41.036,0.99291676,0.4118157,0.5187891,0.9824673,0.5501508,0.30075797,-0.044199817,0.7470714,0.6540408,0.3737463,0.169458,0.79909897,0.60688865,-0.05532726,0.08010514,0.55764043,0.12393097,-0.38710615,-0.07121323,0.1388288,799.011,796.1905,792.96704,810.696,611.6484,0.02423095703125,0.14361572265625,0.99407958984375,-0.127105712890625,1.734619140625,-2.145843505859375,1,1.0,1.0,1.0,1.0,10.00
2024-10-11 20:39:41.036,0.99291676,0.4118157,0.5187891,0.9824673,0.5501508,0.30075797,-0.044199817,0.7470714,0.6540408,0.3737463,0.169458,0.79909897,0.60688865,-0.05532726,0.08010514,0.55764043,0.12393097,-0.38710615,-0.07121323,0.1388288,813.1135,801.4286,798.20514,813.1135,834.4689,0.02423095703125,0.14361572265625,0.99407958984375,-0.127105712890625,1.734619140625,-2.145843505859375,1,1.0,1.0,1.0,1.0,10.00
2024-10-11 20:39:41.037,0.99291676,0.4118157,0.5187891,0.9824673,0.5501508,0.30075797,-0.044199817,0.7470714,0.6540408,0.3737463,0.169458,0.79909897,0.60688865,-0.05532726,0.08010514,0.55764043,0.12393097,-0.38710615,-0.07121323,0.1388288,817.9487,802.6374,801.4286,813.5165,1074.2124,0.02423095703125,0.14361572265625,0.99407958984375,-0.127105712890625,1.734619140625,-2.145843505859375,1,1.0,1.0,1.0,1.0,10.00
2024-10-11 20:39:41.038,0.99291676,0.4118157,0.5187891,0.9824673,0.5501508,0.30075797,-0.044199817,0.7470714,0.6540408,0.3737463,0.169458,0.79909897,0.60688865,-0.05532726,0.08010514,0.55764043,0.12393097,-0.38710615,-0.07121323,0.1388288,814.3223,798.60803,807.47253,809.89014,823.9927,0.02423095703125,0.14361572265625,0.99407958984375,-0.127105712890625,1.734619140625,-2.145843505859375,1,1.0,1.0,1.0,1.0,10.00
2024-10-11 20:39:41.038,0.99291676,0.4118157,0.5187891,0.9824673,0.5501508,0.30075797,-0.044199817,0.7470714,0.6540408,0.3737463,0.169458,0.79909897,0.60688865,-0.05532726,0.08010514,0.55764043,0.12393097,-0.38710615,-0.07121323,0.1388288,813.5165,793.7729,806.26373,807.8755,604.3956,0.02423095703125,0.14361572265625,0.99407958984375,-0.127105712890625,1.734619140625,-2.145843505859375,1,1.0,1.0,1.0,1.0,10.00
2024-10-11 20:39:41.039,0.99291676,0.4118157,0.5187891,0.9824673,0.5501508,0.30075797,-0.044199817,0.7470714,0.6540408,0.3737463,0.169458,0.79909897,0.60688865,-0.05532726,0.08010514,0.55764043,0.12393097,-0.38710615,-0.07121323,0.1388288,813.91943,793.36993,803.8461,807.47253,748.6447,0.02423095703125,0.14361572265625,0.99407958984375,-0.127105712890625,1.734619140625,-2.145843505859375,1,1.0,1.0,1.0,1.0,10.00
2024-10-11 20:39:41.040,0.99291676,0.4118157,0.5187891,0.9824673,0.5501508,0.30075797,-0.044199817,0.7470714,0.6540408,0.3737463,0.169458,0.79909897,0.60688865,-0.05532726,0.08010514,0.55764043,0.12393097,-0.38710615,-0.07121323,0.1388288,808.2784,794.57874,808.2784,814.7253,921.50183,0.02423095703125,0.14361572265625,0.99407958984375,-0.127105712890625,1.734619140625,-2.145843505859375,1,1.0,1.0,1.0,1.0,10.00
2024-10-11 20:39:41.040,0.99291676,0.4118157,0.5187891,0.9824673,0.5501508,0.30075797,-0.044199817,0.7470714,0.6540408,0.3737463,0.169458,0.79909897,0.60688865,-0.05532726,0.08010514,0.55764043,0.12393097,-0.38710615,-0.07121323,0.1388288,801.8315,793.7729,803.8461,807.47253,709.15753,0.02423095703125,0.14361572265625,0.99407958984375,-0.127105712890625,1.734619140625,-2.145843505859375,1,1.0,1.0,1.0,1.0,10.00
2024-10-11 20:39:41.041,0.99291676,0.4118157,0.5187891,0.9824673,0.5501508,0.30075797,-0.044199817,0.7470714,0.6540408,0.3737463,0.169458,0.79909897,0.60688865,-0.05532726,0.08010514,0.55764043,0.12393097,-0.38710615,-0.07121323,0.1388288,807.0696,794.17584,800.2198,802.6374,591.50183,0.0230712890625,0.14300537109375,0.99383544921875,-0.04486083984375,2.0635986328125,-1.1962890625,1,1.0,1.0,1.0,1.0,10.00
2024-10-11 20:39:41.042,0.99291676,0.4118157,0.5187891,0.9824673,0.5501508,0.30075797,-0.044199817,0.7470714,0.6540408,0.3737463,0.169458,0.79909897,0.60688865,-0.05532726,0.08010514,0.55764043,0.12393097,-0.38710615,-0.07121323,0.1388288,809.0842,798.20514,800.6227,807.8755,719.6337,0.0230712890625,0.14300537109375,0.99383544921875,-0.04486083984375,2.0635986328125,-1.1962890625,1,1.0,1.0,1.0,1.0,10.00
2024-10-11 20:39:41.042,0.99291676,0.4118157,0.5187891,0.9824673,0.5501508,0.30075797,-0.044199817,0.7470714,0.6540408,0.3737463,0.169458,0.79909897,0.60688865,-0.05532726,0.08010514,0.55764043,0.12393097,-0.38710615,-0.07121323,0.1388288,803.8461,801.4286,801.4286,807.47253,921.9048,0.0230712890625,0.14300537109375,0.99383544921875,-0.04486083984375,2.0635986328125,-1.1962890625,1,1.0,1.0,1.0,1.0,10.00
2024-10-11 20:39:41.043,0.99291676,0.4118157,0.5187891,0.9824673,0.5501508,0.30075797,-0.044199817,0.7470714,0.6540408,0.3737463,0.169458,0.79909897,0.60688865,-0.05532726,0.08010514,0.55764043,0.12393097,-0.38710615,-0.07121323,0.1388288,805.8608,805.05493,799.011,801.4286,795.78754,0.0230712890625,0.14300537109375,0.99383544921875,-0.04486083984375,2.0635986328125,-1.1962890625,1,1.0,1.0,1.0,1.0,10.00
2024-10-11 20:39:41.043,0.99291676,0.4118157,0.5187891,0.9824673,0.5501508,0.30075797,-0.044199817,0.7470714,0.6540408,0.3737463,0.169458,0.79909897,0.60688865,-0.05532726,0.08010514,0.55764043,0.12393097,-0.38710615,-0.07121323,0.1388288,807.47253,801.8315,795.38464,792.96704,663.6264,0.0230712890625,0.14300537109375,0.99383544921875,-0.04486083984375,2.0635986328125,-1.1962890625,1,1.0,1.0,1.0,1.0,10.00
2024-10-11 20:39:41.044,0.99291676,0.4118157,0.5187891,0.9824673,0.5501508,0.30075797,-0.044199817,0.7470714,0.6540408,0.3737463,0.169458,0.79909897,0.60688865,-0.05532726,0.08010514,0.55764043,0.12393097,-0.38710615,-0.07121323,0.1388288,811.0989,795.78754,803.8461,798.20514,915.4579,0.0230712890625,0.14300537109375,0.99383544921875,-0.04486083984375,2.0635986328125,-1.1962890625,1,1.0,1.0,1.0,1.0,10.00
2024-10-11 20:39:41.044,0.99291676,0.4118157,0.5187891,0.9824673,0.5501508,0.30075797,-0.044199817,0.7470714,0.6540408,0.3737463,0.169458,0.79909897,0.60688865,-0.05532726,0.08010514,0.55764043,0.12393097,-0.38710615,-0.07121323,0.1388288,815.9341,799.41394,805.4579,813.1135,944.0659,0.0230712890625,0.14300537109375,0.99383544921875,-0.04486083984375,2.0635986328125,-1.1962890625,1,1.0,1.0,1.0,1.0,10.00
2024-10-11 20:39:41.045,0.99291676,0.4118157,0.5187891,0.9824673,0.5501508,0.30075797,-0.044199817,0.7470714,0.6540408,0.3737463,0.169458,0.79909897,0.60688865,-0.05532726,0.08010514,0.55764043,0.12393097,-0.38710615,-0.07121323,0.1388288,809.89014,802.23444,793.7729,814.7253,628.1685,0.0230712890625,0.14300537109375,0.99383544921875,-0.04486083984375,2.0635986328125,-1.1962890625,1,1.0,1.0,1.0,1.0,10.00
2024-10-11 20:39:41.045,0.99291676,0.4118157,0.5187891,0.9824673,0.5501508,0.30075797,-0.044199817,0.7470714,0.6540408,0.3737463,0.169458,0.79909897,0.60688865,-0.05532726,0.08010514,0.55764043,0.12393097,-0.38710615,-0.07121323,0.1388288,807.0696,797.8022,796.99634,811.9048,560.4762,0.0230712890625,0.14300537109375,0.99383544921875,-0.04486083984375,2.0635986328125,-1.1962890625,1,1.0,1.0,1.0,1.0,10.00
2024-10-11 20:39:41.046,0.99291676,0.5817448,0.6415233,0.9824673,0.5501508,0.37989897,0.10477268,0.7470714,0.6540408,0.4270863,0.196408,0.79909897,0.60688865,-0.042630654,0.07611134,0.55764043,0.12393097,-0.38985077,-0.039333988,0.1388288,808.2784,794.17584,804.65204,817.5458,732.52747,0.0230712890625,0.14300537109375,0.99383544921875,-0.04486083984375,2.0635986328125,-1.1962890625,1,1.0,1.0,1.0,1.0,10.00
2024-10-11 20:39:41.050,0.99291676,0.5817448,0.6415233,0.9824673,0.5501508,0.37989897,0.10477268,0.7470714,0.6540408,0.4270863,0.196408,0.79909897,0.60688865,-0.042630654,0.07611134,0.55764043,0.12393097,-0.38985077,-0.039333988,0.1388288,801.8315,797.8022,807.0696,817.9487,735.7509,0.0230712890625,0.14300537109375,0.99383544921875,-0.04486083984375,2.0635986328125,-1.1962890625,1,1.0,1.0,1.0,1.0,10.00
2024-10-11 20:39:41.050,0.99291676,0.5817448,0.6415233,0.9824673,0.5501508,0.37989897,0.10477268,0.7470714,0.6540408,0.4270863,0.196408,0.79909897,0.60688865,-0.042630654,0.07611134,0.55764043,0.12393097,-0.38985077,-0.039333988,0.1388288,799.011,798.20514,807.47253,815.12823,659.59705,0.0230712890625,0.14300537109375,0.99383544921875,-0.04486083984375,2.0635986328125,-1.1962890625,1,1.0,1.0,1.0,1.0,10.00
2024-10-11 20:39:41.108,0.99291676,0.5817448,0.6415233,0.9824673,0.5501508,0.37989897,0.10477268,0.7470714,0.6540408,0.4270863,0.196408,0.79909897,0.60688865,-0.042630654,0.07611134,0.55764043,0.12393097,-0.38985077,-0.039333988,0.1388288,796.99634,795.78754,807.0696,812.3077,680.9524,0.01751708984375,0.1427001953125,0.9931640625,0.336456298828125,1.323394775390625,-0.456085205078125,1,1.0,1.0,1.0,1.0,10.00
2024-10-11 20:39:41.109,0.99291676,0.5817448,0.6415233,0.9824673,0.5501508,0.37989897,0.10477268,0.7470714,0.6540408,0.4270863,0.196408,0.79909897,0.60688865,-0.042630654,0.07611134,0.55764043,0.12393097,-0.38985077,-0.039333988,0.1388288,792.1612,796.99634,802.6374,807.8755,775.2381,0.01751708984375,0.1427001953125,0.9931640625,0.336456298828125,1.323394775390625,-0.456085205078125,1,1.0,1.0,1.0,1.0,10.00
2024-10-11 20:39:41.110,0.99291676,0.5817448,0.6415233,0.9824673,0.5501508,0.37989897,0.10477268,0.7470714,0.6540408,0.4270863,0.196408,0.79909897,0.60688865,-0.042630654,0.07611134,0.55764043,0.12393097,-0.38985077,-0.039333988,0.1388288,794.17584,794.17584,802.6374,809.89014,816.337,0.01751708984375,0.1427001953125,0.9931640625,0.336456298828125,1.323394775390625,-0.456085205078125,1,1.0,1.0,1.0,1.0,10.00
2024-10-11 20:39:41.110,0.99291676,0.5817448,0.6415233,0.9824673,0.5501508,0.37989897,0.10477268,0.7470714,0.6540408,0.4270863,0.196408,0.79909897,0.60688865,-0.042630654,0.07611134,0.55764043,0.12393097,-0.38985077,-0.039333988,0.1388288,795.38464,794.57874,802.6374,807.0696,725.6777,0.01751708984375,0.1427001953125,0.9931640625,0.336456298828125,1.323394775390625,-0.456085205078125,1,1.0,1.0,1.0,1.0,10.00
2024-10-11 20:39:41.111,0.99291676,0.5817448,0.6415233,0.9824673,0.5501508,0.37989897,0.10477268,0.7470714,0.6540408,0.4270863,0.196408,0.79909897,0.60688865,-0.042630654,0.07611134,0.55764043,0.12393097,-0.38985077,-0.039333988,0.1388288,795.38464,796.5934,801.02563,805.05493,753.8828,0.01751708984375,0.1427001953125,0.9931640625,0.336456298828125,1.323394775390625,-0.456085205078125,1,1.0,1.0,1.0,1.0,10.00
2024-10-11 20:39:41.111,0.99291676,0.5817448,0.6415233,0.9824673,0.5501508,0.37989897,0.10477268,0.7470714,0.6540408,0.4270863,0.196408,0.79909897,0.60688865,-0.042630654,0.07611134,0.55764043,0.12393097,-0.38985077,-0.039333988,0.1388288,801.8315,793.7729,803.8461,805.4579,1070.1831,0.01751708984375,0.1427001953125,0.9931640625,0.336456298828125,1.323394775390625,-0.456085205078125,1,1.0,1.0,1.0,1.0,10.00
2024-10-11 20:39:41.112,0.99291676,0.5817448,0.6415233,0.9824673,0.5501508,0.37989897,0.10477268,0.7470714,0.6540408,0.4270863,0.196408,0.79909897,0.60688865,-0.042630654,0.07611134,0.55764043,0.12393097,-0.38985077,-0.039333988,0.1388288,801.02563,790.9524,808.2784,801.02563,1071.392,0.01751708984375,0.1427001953125,0.9931640625,0.336456298828125,1.323394775390625,-0.456085205078125,1,1.0,1.0,1.0,1.0,10.00
2024-10-11 20:39:41.112,0.99291676,0.5817448,0.6415233,0.9824673,0.5501508,0.37989897,0.10477268,0.7470714,0.6540408,0.4270863,0.196408,0.79909897,0.60688865,-0.042630654,0.07611134,0.55764043,0.12393097,-0.38985077,-0.039333988,0.1388288,807.47253,794.9817,810.696,799.81683,806.6667,0.01751708984375,0.1427001953125,0.9931640625,0.336456298828125,1.323394775390625,-0.456085205078125,1,1.0,1.0,1.0,1.0,10.00
2024-10-11 20:39:41.113,0.99291676,0.5817448,0.6415233,0.9824673,0.5501508,0.37989897,0.10477268,0.7470714,0.6540408,0.4270863,0.196408,0.79909897,0.60688865,-0.042630654,0.07611134,0.55764043,0.12393097,-0.38985077,-0.039333988,0.1388288,825.6044,803.8461,809.0842,807.8755,798.60803,0.01751708984375,0.1427001953125,0.9931640625,0.336456298828125,1.323394775390625,-0.456085205078125,1,1.0,1.0,1.0,1.0,10.00
2024-10-11 20:39:41.113,0.99291676,0.5817448,0.6415233,0.9824673,0.5501508,0.37989897,0.10477268,0.7470714,0.6540408,0.4270863,0.196408,0.79909897,0.60688865,-0.042630654,0.07611134,0.55764043,0.12393097,-0.38985077,-0.039333988,0.1388288,813.1135,799.81683,808.68134,807.0696,893.69965,0.01751708984375,0.1427001953125,0.9931640625,0.336456298828125,1.323394775390625,-0.456085205078125,1,1.0,1.0,1.0,1.0,10.00
2024-10-11 20:39:41.114,0.99291676,0.5817448,0.6415233,0.9824673,0.5501508,0.37989897,0.10477268,0.7470714,0.6540408,0.4270863,0.196408,0.79909897,0.60688865,-0.042630654,0.07611134,0.55764043,0.12393097,-0.38985077,-0.039333988,0.1388288,795.78754,793.7729,802.23444,799.41394,776.8498,0.01751708984375,0.1427001953125,0.9931640625,0.336456298828125,1.323394775390625,-0.456085205078125,1,1.0,1.0,1.0,1.0,10.00
2024-10-11 20:39:41.114,0.99291676,0.5817448,0.6415233,0.9824673,0.5501508,0.37989897,0.10477268,0.7470714,0.6540408,0.4270863,0.196408,0.79909897,0.60688865,-0.042630654,0.07611134,0.55764043,0.12393097,-0.38985077,-0.039333988,0.1388288,801.8315,793.36993,798.60803,804.65204,761.13556,0.01751708984375,0.1427001953125,0.9931640625,0.336456298828125,1.323394775390625,-0.456085205078125,1,1.0,1.0,1.0,1.0,10.00
2024-10-11 20:39:41.115,0.99291676,0.5817448,0.6415233,0.9824673,0.5501508,0.37989897,0.10477268,0.7470714,0.6540408,0.4270863,0.196408,0.79909897,0.60688865,-0.042630654,0.07611134,0.55764043,0.12393097,-0.38985077,-0.039333988,0.1388288,809.89014,797.8022,802.23444,806.26373,802.6374,0.01751708984375,0.1427001953125,0.9931640625,0.336456298828125,1.323394775390625,-0.456085205078125,1,1.0,1.0,1.0,1.0,10.00
2024-10-11 20:39:41.115,0.99291676,0.5817448,0.6415233,0.9824673,0.5501508,0.37989897,0.10477268,0.7470714,0.6540408,0.4270863,0.196408,0.79909897,0.60688865,-0.042630654,0.07611134,0.55764043,0.12393097,-0.38985077,-0.039333988,0.1388288,805.8608,799.81683,805.8608,803.0403,862.27106,0.01751708984375,0.1427001953125,0.9931640625,0.336456298828125,1.323394775390625,-0.456085205078125,1,1.0,1.0,1.0,1.0,10.00
2024-10-11 20:39:41.116,0.99291676,0.5817448,0.6415233,0.9824673,0.5501508,0.37989897,0.10477268,0.7470714,0.6540408,0.4270863,0.196408,0.79909897,0.60688865,-0.042630654,0.07611134,0.55764043,0.12393097,-0.38985077,-0.039333988,0.1388288,799.81683,795.78754,804.65204,811.0989,869.5238,0.01751708984375,0.1427001953125,0.9931640625,0.336456298828125,1.323394775390625,-0.456085205078125,1,1.0,1.0,1.0,1.0,10.00
2024-10-11 20:39:41.116,0.99291676,0.5817448,0.6415233,0.9824673,0.5501508,0.37989897,0.10477268,0.7470714,0.6540408,0.4270863,0.196408,0.79909897,0.60688865,-0.042630654,0.07611134,0.55764043,0.12393097,-0.38985077,-0.039333988,0.1388288,808.68134,798.20514,805.4579,813.1135,814.3223,0.01751708984375,0.1427001953125,0.9931640625,0.336456298828125,1.323394775390625,-0.456085205078125,1,1.0,1.0,1.0,1.0,10.00
2024-10-11 20:39:41.117,0.99291676,0.5817448,0.6415233,0.9824673,0.5501508,0.37989897,0.10477268,0.7470714,0.6540408,0.4270863,0.196408,0.79909897,0.60688865,-0.042630654,0.07611134,0.55764043,0.12393097,-0.38985077,-0.039333988,0.1388288,811.0989,801.8315,809.0842,809.0842,830.0366,0.01751708984375,0.1427001953125,0.9931640625,0.336456298828125,1.323394775390625,-0.456085205078125,1,1.0,1.0,1.0,1.0,10.00
2024-10-11 20:39:41.117,0.99291676,0.5817448,0.6415233,0.9824673,0.5501508,0.37989897,0.10477268,0.7470714,0.6540408,0.4270863,0.196408,0.79909897,0.60688865,-0.042630654,0.07611134,0.55764043,0.12393097,-0.38985077,-0.039333988,0.1388288,800.6227,798.60803,808.2784,806.26373,937.2161,0.01751708984375,0.1427001953125,0.9931640625,0.336456298828125,1.323394775390625,-0.456085205078125,1,1.0,1.0,1.0,1.0,10.00
2024-10-11 20:39:41.118,0.99291676,0.5817448,0.6415233,0.9824673,0.5501508,0.37989897,0.10477268,0.7470714,0.6540408,0.4270863,0.196408,0.79909897,0.60688865,-0.042630654,0.07611134,0.55764043,0.12393097,-0.38985077,-0.039333988,0.1388288,803.0403,795.78754,807.0696,801.02563,874.35895,0.01751708984375,0.1427001953125,0.9931640625,0.336456298828125,1.323394775390625,-0.456085205078125,1,1.0,1.0,1.0,1.0,10.00
2024-10-11 20:39:41.118,0.99291676,0.5817448,0.6415233,0.9824673,0.5501508,0.37989897,0.10477268,0.7470714,0.6540408,0.4270863,0.196408,0.79909897,0.60688865,-0.042630654,0.07611134,0.55764043,0.12393097,-0.38985077,-0.039333988,0.1388288,798.20514,800.2198,808.2784,802.6374,699.89014,0.01751708984375,0.1427001953125,0.9931640625,0.336456298828125,1.323394775390625,-0.456085205078125,1,1.0,1.0,1.0,1.0,10.00
2024-10-11 20:39:41.119,0.99291676,0.5817448,0.6415233,0.9824673,0.5501508,0.37989897,0.10477268,0.7470714,0.6540408,0.4270863,0.196408,0.79909897,0.60688865,-0.042630654,0.07611134,0.55764043,0.12393097,-0.38985077,-0.039333988,0.1388288,798.20514,801.8315,803.0403,806.26373,759.5238,0.01751708984375,0.1427001953125,0.9931640625,0.336456298828125,1.323394775390625,-0.456085205078125,1,1.0,1.0,1.0,1.0,10.00
2024-10-11 20:39:41.119,0.99291676,0.5817448,0.6415233,0.9824673,0.5501508,0.37989897,0.10477268,0.7470714,0.6540408,0.4270863,0.196408,0.79909897,0.60688865,-0.042630654,0.07611134,0.55764043,0.12393097,-0.38985077,-0.039333988,0.1388288,813.5165,799.81683,799.41394,804.65204,813.1135,0.01751708984375,0.1427001953125,0.9931640625,0.336456298828125,1.323394775390625,-0.456085205078125,1,1.0,1.0,1.0,1.0,10.00
2024-10-11 20:39:41.119,0.99291676,0.5817448,0.6415233,0.9824673,0.5501508,0.37989897,0.10477268,0.7470714,0.6540408,0.4270863,0.196408,0.79909897,0.60688865,-0.042630654,0.07611134,0.55764043,0.12393097,-0.38985077,-0.039333988,0.1388288,817.1429,799.011,803.0403,799.81683,629.3773,0.01751708984375,0.1427001953125,0.9931640625,0.336456298828125,1.323394775390625,-0.456085205078125,1,1.0,1.0,1.0,1.0,10.00
2024-10-11 20:39:41.120,0.99291676,0.6852057,0.77025425,0.9824673,0.5501508,0.4198065,0.23102954,0.7470714,0.6540408,0.43342704,0.18865868,0.79909897,0.60688865,-0.03643628,0.063447736,0.55764043,0.12393097,-0.3973192,-0.013238727,0.1388288,809.4872,794.9817,804.2491,797.8022,618.0952,0.01751708984375,0.1427001953125,0.9931640625,0.336456298828125,1.323394775390625,-0.456085205078125,1,1.0,1.0,1.0,1.0,10.00
2024-10-11 20:39:41.125,0.99291676,0.6852057,0.77025425,0.9824673,0.5501508,0.4198065,0.23102954,0.7470714,0.6540408,0.43342704,0.18865868,0.79909897,0.60688865,-0.03643628,0.063447736,0.55764043,0.12393097,-0.3973192,-0.013238727,0.1388288,805.05493,794.9817,799.81683,800.6227,844.94507,0.01678466796875,0.14361572265625,0.99468994140625,0.9869384765625,0.276641845703125,-0.396270751953125,1,1.0,1.0,1.0,1.0,10.00
2024-10-11 20:39:41.126,0.99291676,0.6852057,0.77025425,0.9824673,0.5501508,0.4198065,0.23102954,0.7470714,0.6540408,0.43342704,0.18865868,0.79909897,0.60688865,-0.03643628,0.063447736,0.55764043,0.12393097,-0.3973192,-0.013238727,0.1388288,804.2491,798.20514,795.38464,800.6227,835.2747,0.01678466796875,0.14361572265625,0.99468994140625,0.9869384765625,0.276641845703125,-0.396270751953125,1,1.0,1.0,1.0,1.0,10.00
2024-10-11 20:39:41.126,0.99291676,0.6852057,0.77025425,0.9824673,0.5501508,0.4198065,0.23102954,0.7470714,0.6540408,0.43342704,0.18865868,0.79909897,0.60688865,-0.03643628,0.063447736,0.55764043,0.12393097,-0.3973192,-0.013238727,0.1388288,802.6374,796.5934,797.3993,797.3993,654.35895,0.01678466796875,0.14361572265625,0.99468994140625,0.9869384765625,0.276641845703125,-0.396270751953125,1,1.0,1.0,1.0,1.0,10.00
2024-10-11 20:39:41.127,0.99291676,0.6852057,0.77025425,0.9824673,0.5501508,0.4198065,0.23102954,0.7470714,0.6540408,0.43342704,0.18865868,0.79909897,0.60688865,-0.03643628,0.063447736,0.55764043,0.12393097,-0.3973192,-0.013238727,0.1388288,792.5641,794.17584,803.0403,797.8022,699.89014,0.01678466796875,0.14361572265625,0.99468994140625,0.9869384765625,0.276641845703125,-0.396270751953125,1,1.0,1.0,1.0,1.0,10.00
2024-10-11 20:39:41.127,0.99291676,0.6852057,0.77025425,0.9824673,0.5501508,0.4198065,0.23102954,0.7470714,0.6540408,0.43342704,0.18865868,0.79909897,0.60688865,-0.03643628,0.063447736,0.55764043,0.12393097,-0.3973192,-0.013238727,0.1388288,792.96704,795.38464,802.6374,800.2198,923.5165,0.01678466796875,0.14361572265625,0.99468994140625,0.9869384765625,0.276641845703125,-0.396270751953125,1,1.0,1.0,1.0,1.0,10.00
2024-10-11 20:39:41.128,0.99291676,0.6852057,0.77025425,0.9824673,0.5501508,0.4198065,0.23102954,0.7470714,0.6540408,0.43342704,0.18865868,0.79909897,0.60688865,-0.03643628,0.063447736,0.55764043,0.12393097,-0.3973192,-0.013238727,0.1388288,794.9817,796.99634,798.60803,799.011,856.63007,0.01678466796875,0.14361572265625,0.99468994140625,0.9869384765625,0.276641845703125,-0.396270751953125,1,1.0,1.0,1.0,1.0,10.00
2024-10-11 20:39:41.128,0.99291676,0.6852057,0.77025425,0.9824673,0.5501508,0.4198065,0.23102954,0.7470714,0.6540408,0.43342704,0.18865868,0.79909897,0.60688865,-0.03643628,0.063447736,0.55764043,0.12393097,-0.3973192,-0.013238727,0.1388288,794.57874,794.9817,803.44324,796.5934,828.8278,0.01678466796875,0.14361572265625,0.99468994140625,0.9869384765625,0.276641845703125,-0.396270751953125,1,1.0,1.0,1.0,1.0,10.00
2024-10-11 20:39:41.129,0.99291676,0.6852057,0.77025425,0.9824673,0.5501508,0.4198065,0.23102954,0.7470714,0.6540408,0.43342704,0.18865868,0.79909897,0.60688865,-0.03643628,0.063447736,0.55764043,0.12393097,-0.3973192,-0.013238727,0.1388288,799.81683,798.60803,808.2784,799.011,895.31134,0.01678466796875,0.14361572265625,0.99468994140625,0.9869384765625,0.276641845703125,-0.396270751953125,1,1.0,1.0,1.0,1.0,10.00
2024-10-11 20:39:41.129,0.99291676,0.6852057,0.77025425,0.9824673,0.5501508,0.4198065,0.23102954,0.7470714,0.6540408,0.43342704,0.18865868,0.79909897,0.60688865,-0.03643628,0.063447736,0.55764043,0.12393097,-0.3973192,-0.013238727,0.1388288,799.41394,795.78754,801.4286,804.65204,1052.4542,0.01678466796875,0.14361572265625,0.99468994140625,0.9869384765625,0.276641845703125,-0.396270751953125,1,1.0,1.0,1.0,1.0,10.00
2024-10-11 20:39:41.130,0.99291676,0.6852057,0.77025425,0.9824673,0.5501508,0.4198065,0.23102954,0.7470714,0.6540408,0.43342704,0.18865868,0.79909897,0.60688865,-0.03643628,0.063447736,0.55764043,0.12393097,-0.3973192,-0.013238727,0.1388288,799.41394,791.75824,798.20514,812.71063,1297.4359,0.01678466796875,0.14361572265625,0.99468994140625,0.9869384765625,0.276641845703125,-0.396270751953125,1,1.0,1.0,1.0,1.0,10.00
2024-10-11 20:39:41.130,0.99291676,0.6852057,0.77025425,0.9824673,0.5501508,0.4198065,0.23102954,0.7470714,0.6540408,0.43342704,0.18865868,0.79909897,0.60688865,-0.03643628,0.063447736,0.55764043,0.12393097,-0.3973192,-0.013238727,0.1388288,803.0403,796.99634,799.41394,807.8755,1111.2821,0.01678466796875,0.14361572265625,0.99468994140625,0.9869384765625,0.276641845703125,-0.396270751953125,1,1.0,1.0,1.0,1.0,10.00
2024-10-11 20:39:41.131,0.99291676,0.6852057,0.77025425,0.9824673,0.5501508,0.4198065,0.23102954,0.7470714,0.6540408,0.43342704,0.18865868,0.79909897,0.60688865,-0.03643628,0.063447736,0.55764043,0.12393097,-0.3973192,-0.013238727,0.1388288,794.9817,800.6227,792.1612,795.78754,736.1539,0.01678466796875,0.14361572265625,0.99468994140625,0.9869384765625,0.276641845703125,-0.396270751953125,1,1.0,1.0,1.0,1.0,10.00
2024-10-11 20:39:41.131,0.99291676,0.6852057,0.77025425,0.9824673,0.5501508,0.4198065,0.23102954,0.7470714,0.6540408,0.43342704,0.18865868,0.79909897,0.60688865,-0.03643628,0.063447736,0.55764043,0.12393097,-0.3973192,-0.013238727,0.1388288,796.1905,790.54944,789.7436,796.99634,912.6374,0.01776123046875,0.1529541015625,0.99395751953125,1.62994384765625,0.35888671875,-0.55328369140625,1,1.0,1.0,1.0,1.0,10.00
2024-10-11 20:39:41.132,0.99291676,0.6852057,0.77025425,0.9824673,0.5501508,0.4198065,0.23102954,0.7470714,0.6540408,0.43342704,0.18865868,0.79909897,0.60688865,-0.03643628,0.063447736,0.55764043,0.12393097,-0.3973192,-0.013238727,0.1388288,802.6374,792.5641,791.3553,805.4579,801.4286,0.01776123046875,0.1529541015625,0.99395751953125,1.62994384765625,0.35888671875,-0.55328369140625,1,1.0,1.0,1.0,1.0,10.00
2024-10-11 20:39:41.132,0.99291676,0.6852057,0.77025425,0.9824673,0.5501508,0.4198065,0.23102954,0.7470714,0.6540408,0.43342704,0.18865868,0.79909897,0.60688865,-0.03643628,0.063447736,0.55764043,0.12393097,-0.3973192,-0.013238727,0.1388288,806.6667,798.20514,793.7729,805.4579,560.07324,0.01776123046875,0.1529541015625,0.99395751953125,1.62994384765625,0.35888671875,-0.55328369140625,1,1.0,1.0,1.0,1.0,10.00
2024-10-11 20:39:41.133,0.99291676,0.6852057,0.77025425,0.9824673,0.5501508,0.4198065,0.23102954,0.7470714,0.6540408,0.43342704,0.18865868,0.79909897,0.60688865,-0.03643628,0.063447736,0.55764043,0.12393097,-0.3973192,-0.013238727,0.1388288,804.2491,792.5641,799.011,801.8315,643.0769,0.01776123046875,0.1529541015625,0.99395751953125,1.62994384765625,0.35888671875,-0.55328369140625,1,1.0,1.0,1.0,1.0,10.00
2024-10-11 20:39:41.133,0.99291676,0.6852057,0.77025425,0.9824673,0.5501508,0.4198065,0.23102954,0.7470714,0.6540408,0.43342704,0.18865868,0.79909897,0.60688865,-0.03643628,0.063447736,0.55764043,0.12393097,-0.3973192,-0.013238727,0.1388288,797.8022,797.3993,794.9817,809.0842,1071.392,0.01776123046875,0.1529541015625,0.99395751953125,1.62994384765625,0.35888671875,-0.55328369140625,1,1.0,1.0,1.0,1.0,10.00
2024-10-11 20:39:41.134,0.99291676,0.6852057,0.77025425,0.9824673,0.5501508,0.4198065,0.23102954,0.7470714,0.6540408,0.43342704,0.18865868,0.79909897,0.60688865,-0.03643628,0.063447736,0.55764043,0.12393097,-0.3973192,-0.013238727,0.1388288,796.1905,799.011,794.17584,809.0842,1492.0513,0.01776123046875,0.1529541015625,0.99395751953125,1.62994384765625,0.35888671875,-0.55328369140625,1,1.0,1.0,1.0,1.0,10.00
2024-10-11 20:39:41.134,0.99291676,0.6852057,0.77025425,0.9824673,0.5501508,0.4198065,0.23102954,0.7470714,0.6540408,0.43342704,0.18865868,0.79909897,0.60688865,-0.03643628,0.063447736,0.55764043,0.12393097,-0.3973192,-0.013238727,0.1388288,798.20514,796.99634,796.99634,802.23444,1390.1099,0.01776123046875,0.1529541015625,0.99395751953125,1.62994384765625,0.35888671875,-0.55328369140625,1,1.0,1.0,1.0,1.0,10.00
2024-10-11 20:39:41.135,0.99291676,0.6852057,0.77025425,0.9824673,0.5501508,0.4198065,0.23102954,0.7470714,0.6540408,0.43342704,0.18865868,0.79909897,0.60688865,-0.03643628,0.063447736,0.55764043,0.12393097,-0.3973192,-0.013238727,0.1388288,803.44324,801.4286,804.65204,801.02563,894.90845,0.01776123046875,0.1529541015625,0.99395751953125,1.62994384765625,0.35888671875,-0.55328369140625,1,1.0,1.0,1.0,1.0,10.00
2024-10-11 20:39:41.135,0.99291676,0.6852057,0.77025425,0.9824673,0.5501508,0.4198065,0.23102954,0.7470714,0.6540408,0.43342704,0.18865868,0.79909897,0.60688865,-0.03643628,0.063447736,0.55764043,0.12393097,-0.3973192,-0.013238727,0.1388288,802.6374,801.02563,805.05493,797.8022,736.9597,0.01776123046875,0.1529541015625,0.99395751953125,1.62994384765625,0.35888671875,-0.55328369140625,1,1.0,1.0,1.0,1.0,10.00
2024-10-11 20:39:41.136,0.99291676,0.6852057,0.77025425,0.9824673,0.5501508,0.4198065,0.23102954,0.7470714,0.6540408,0.43342704,0.18865868,0.79909897,0.60688865,-0.03643628,0.063447736,0.55764043,0.12393097,-0.3973192,-0.013238727,0.1388288,813.5165,801.8315,801.4286,799.81683,632.1978,0.01776123046875,0.1529541015625,0.99395751953125,1.62994384765625,0.35888671875,-0.55328369140625,1,1.0,1.0,1.0,1.0,10.00
2024-10-11 20:39:41.136,0.99291676,0.6852057,0.77025425,0.9824673,0.5501508,0.4198065,0.23102954,0.7470714,0.6540408,0.43342704,0.18865868,0.79909897,0.60688865,-0.03643628,0.063447736,0.55764043,0.12393097,-0.3973192,-0.013238727,0.1388288,815.5311,801.02563,799.41394,796.1905,511.3187,0.01776123046875,0.1529541015625,0.99395751953125,1.62994384765625,0.35888671875,-0.55328369140625,1,1.0,1.0,1.0,1.0,10.00
2024-10-11 20:39:41.136,0.99291676,0.6852057,0.77025425,0.9824673,0.5501508,0.4198065,0.23102954,0.7470714,0.6540408,0.43342704,0.18865868,0.79909897,0.60688865,-0.03643628,0.063447736,0.55764043,0.12393097,-0.3973192,-0.013238727,0.1388288,806.6667,791.3553,799.41394,797.3993,726.8865,0.01776123046875,0.1529541015625,0.99395751953125,1.62994384765625,0.35888671875,-0.55328369140625,1,1.0,1.0,1.0,1.0,10.00
2024-10-11 20:39:41.159,0.99291676,0.6852057,0.77025425,0.9824673,0.5501508,0.4198065,0.23102954,0.7470714,0.6540408,0.43342704,0.18865868,0.79909897,0.60688865,-0.03643628,0.063447736,0.55764043,0.12393097,-0.3973192,-0.013238727,0.1388288,807.0696,791.75824,800.6227,809.4872,1055.2748,0.01336669921875,0.15557861328125,0.9962158203125,0.97198486328125,0.49346923828125,-0.530853271484375,1,1.0,1.0,1.0,1.0,10.00
2024-10-11 20:39:41.160,0.99291676,0.7503138,0.8611343,0.9824673,0.5501508,0.44091552,0.30627966,0.7470714,0.6540408,0.43342704,0.14797808,0.79909897,0.60688865,-0.028753895,0.04766057,0.55764043,0.12393097,-0.39748183,0.004987816,0.1388288,798.60803,793.36993,788.1319,806.6667,1163.2601,0.01336669921875,0.15557861328125,0.9962158203125,0.97198486328125,0.49346923828125,-0.530853271484375,1,1.0,1.0,1.0,1.0,10.00
2024-10-11 20:39:41.164,0.99291676,0.7503138,0.8611343,0.9824673,0.5501508,0.44091552,0.30627966,0.7470714,0.6540408,0.43342704,0.14797808,0.79909897,0.60688865,-0.028753895,0.04766057,0.55764043,0.12393097,-0.39748183,0.004987816,0.1388288,801.4286,793.36993,794.17584,801.4286,1007.72894,0.01336669921875,0.15557861328125,0.9962158203125,0.97198486328125,0.49346923828125,-0.530853271484375,1,1.0,1.0,1.0,1.0,10.00
2024-10-11 20:39:41.165,0.99291676,0.7503138,0.8611343,0.9824673,0.5501508,0.44091552,0.30627966,0.7470714,0.6540408,0.43342704,0.14797808,0.79909897,0.60688865,-0.028753895,0.04766057,0.55764043,0.12393097,-0.39748183,0.004987816,0.1388288,802.6374,798.60803,810.293,800.6227,623.73627,0.01336669921875,0.15557861328125,0.9962158203125,0.97198486328125,0.49346923828125,-0.530853271484375,1,1.0,1.0,1.0,1.0,10.00
2024-10-11 20:39:41.165,0.99291676,0.7503138,0.8611343,0.9824673,0.5501508,0.44091552,0.30627966,0.7470714,0.6540408,0.43342704,0.14797808,0.79909897,0.60688865,-0.028753895,0.04766057,0.55764043,0.12393097,-0.39748183,0.004987816,0.1388288,797.3993,801.02563,800.6227,797.8022,506.0806,0.01336669921875,0.15557861328125,0.9962158203125,0.97198486328125,0.49346923828125,-0.530853271484375,1,1.0,1.0,1.0,1.0,10.00
2024-10-11 20:39:41.166,0.99291676,0.7503138,0.8611343,0.9824673,0.5501508,0.44091552,0.30627966,0.7470714,0.6540408,0.43342704,0.14797808,0.79909897,0.60688865,-0.028753895,0.04766057,0.55764043,0.12393097,-0.39748183,0.004987816,0.1388288,796.5934,800.6227,792.5641,796.1905,611.6484,0.01336669921875,0.15557861328125,0.9962158203125,0.97198486328125,0.49346923828125,-0.530853271484375,1,1.0,1.0,1.0,1.0,10.00
2024-10-11 20:39:41.166,0.99291676,0.7503138,0.8611343,0.9824673,0.5501508,0.44091552,0.30627966,0.7470714,0.6540408,0.43342704,0.14797808,0.79909897,0.60688865,-0.028753895,0.04766057,0.55764043,0.12393097,-0.39748183,0.004987816,0.1388288,802.23444,794.9817,799.81683,802.6374,668.0586,0.01336669921875,0.15557861328125,0.9962158203125,0.97198486328125,0.49346923828125,-0.530853271484375,1,1.0,1.0,1.0,1.0,10.00
2024-10-11 20:39:41.167,0.99291676,0.7503138,0.8611343,0.9824673,0.5501508,0.44091552,0.30627966,0.7470714,0.6540408,0.43342704,0.14797808,0.79909897,0.60688865,-0.028753895,0.04766057,0.55764043,0.12393097,-0.39748183,0.004987816,0.1388288,803.0403,789.34064,803.8461,802.23444,840.9158,0.01336669921875,0.15557861328125,0.9962158203125,0.97198486328125,0.49346923828125,-0.530853271484375,1,1.0,1.0,1.0,1.0,10.00
2024-10-11 20:39:41.168,0.99291676,0.7503138,0.8611343,0.9824673,0.5501508,0.44091552,0.30627966,0.7470714,0.6540408,0.43342704,0.14797808,0.79909897,0.60688865,-0.028753895,0.04766057,0.55764043,0.12393097,-0.39748183,0.004987816,0.1388288,793.36993,792.96704,799.011,800.6227,724.87177,0.01336669921875,0.15557861328125,0.9962158203125,0.97198486328125,0.49346923828125,-0.530853271484375,1,1.0,1.0,1.0,1.0,10.00
2024-10-11 20:39:41.168,0.99291676,0.7503138,0.8611343,0.9824673,0.5501508,0.44091552,0.30627966,0.7470714,0.6540408,0.43342704,0.14797808,0.79909897,0.60688865,-0.028753895,0.04766057,0.55764043,0.12393097,-0.39748183,0.004987816,0.1388288,793.36993,792.96704,795.38464,802.6374,540.7326,0.01336669921875,0.15557861328125,0.9962158203125,0.97198486328125,0.49346923828125,-0.530853271484375,1,1.0,1.0,1.0,1.0,10.00
2024-10-11 20:39:41.169,0.99291676,0.7503138,0.8611343,0.9824673,0.5501508,0.44091552,0.30627966,0.7470714,0.6540408,0.43342704,0.14797808,0.79909897,0.60688865,-0.028753895,0.04766057,0.55764043,0.12393097,-0.39748183,0.004987816,0.1388288,793.7729,793.7729,797.8022,799.81683,684.57874,0.01336669921875,0.15557861328125,0.9962158203125,0.97198486328125,0.49346923828125,-0.530853271484375,1,1.0,1.0,1.0,1.0,10.00
2024-10-11 20:39:41.169,0.99291676,0.7503138,0.8611343,0.9824673,0.5501508,0.44091552,0.30627966,0.7470714,0.6540408,0.43342704,0.14797808,0.79909897,0.60688865,-0.028753895,0.04766057,0.55764043,0.12393097,-0.39748183,0.004987816,0.1388288,794.57874,798.20514,796.5934,796.5934,717.619,0.01336669921875,0.15557861328125,0.9962158203125,0.97198486328125,0.49346923828125,-0.530853271484375,1,1.0,1.0,1.0,1.0,10.00
2024-10-11 20:39:41.170,0.99291676,0.7503138,0.8611343,0.9824673,0.5501508,0.44091552,0.30627966,0.7470714,0.6540408,0.43342704,0.14797808,0.79909897,0.60688865,-0.028753895,0.04766057,0.55764043,0.12393097,-0.39748183,0.004987816,0.1388288,804.65204,804.2491,799.81683,797.8022,514.94507,0.01025390625,0.14837646484375,0.9996337890625,0.46356201171875,1.353302001953125,-0.889739990234375,1,1.0,1.0,1.0,1.0,10.00
2024-10-11 20:39:41.171,0.99291676,0.7503138,0.8611343,0.9824673,0.5501508,0.44091552,0.30627966,0.7470714,0.6540408,0.43342704,0.14797808,0.79909897,0.60688865,-0.028753895,0.04766057,0.55764043,0.12393097,-0.39748183,0.004987816,0.1388288,800.2198,805.8608,802.23444,803.8461,522.1978,0.01025390625,0.14837646484375,0.9996337890625,0.46356201171875,1.353302001953125,-0.889739990234375,1,1.0,1.0,1.0,1.0,10.00
2024-10-11 20:39:41.172,0.99291676,0.7503138,0.8611343,0.9824673,0.5501508,0.44091552,0.30627966,0.7470714,0.6540408,0.43342704,0.14797808,0.79909897,0.60688865,-0.028753895,0.04766057,0.55764043,0.12393097,-0.39748183,0.004987816,0.1388288,793.7729,792.1612,796.5934,804.65204,644.2857,0.01025390625,0.14837646484375,0.9996337890625,0.46356201171875,1.353302001953125,-0.889739990234375,1,1.0,1.0,1.0,1.0,10.00
2024-10-11 20:39:41.172,0.99291676,0.7503138,0.8611343,0.9824673,0.5501508,0.44091552,0.30627966,0.7470714,0.6540408,0.43342704,0.14797808,0.79909897,0.60688865,-0.028753895,0.04766057,0.55764043,0.12393097,-0.39748183,0.004987816,0.1388288,799.011,788.1319,794.17584,801.8315,710.3663,0.01025390625,0.14837646484375,0.9996337890625,0.46356201171875,1.353302001953125,-0.889739990234375,1,1.0,1.0,1.0,1.0,10.00
2024-10-11 20:39:41.173,0.99291676,0.7503138,0.8611343,0.9824673,0.5501508,0.44091552,0.30627966,0.7470714,0.6540408,0.43342704,0.14797808,0.79909897,0.60688865,-0.028753895,0.04766057,0.55764043,0.12393097,-0.39748183,0.004987816,0.1388288,801.4286,793.7729,800.2198,803.0403,688.60803,0.01025390625,0.14837646484375,0.9996337890625,0.46356201171875,1.353302001953125,-0.889739990234375,1,1.0,1.0,1.0,1.0,10.00
2024-10-11 20:39:41.174,0.99291676,0.7503138,0.8611343,0.9824673,0.5501508,0.44091552,0.30627966,0.7470714,0.6540408,0.43342704,0.14797808,0.79909897,0.60688865,-0.028753895,0.04766057,0.55764043,0.12393097,-0.39748183,0.004987816,0.1388288,802.6374,790.9524,801.8315,808.68134,732.52747,0.01025390625,0.14837646484375,0.9996337890625,0.46356201171875,1.353302001953125,-0.889739990234375,1,1.0,1.0,1.0,1.0,10.00
2024-10-11 20:39:41.174,0.99291676,0.7503138,0.8611343,0.9824673,0.5501508,0.44091552,0.30627966,0.7470714,0.6540408,0.43342704,0.14797808,0.79909897,0.60688865,-0.028753895,0.04766057,0.55764043,0.12393097,-0.39748183,0.004987816,0.1388288,794.9817,790.54944,799.81683,802.23444,967.4359,0.01025390625,0.14837646484375,0.9996337890625,0.46356201171875,1.353302001953125,-0.889739990234375,1,1.0,1.0,1.0,1.0,10.00
2024-10-11 20:39:41.175,0.99291676,0.7503138,0.8611343,0.9824673,0.5501508,0.44091552,0.30627966,0.7470714,0.6540408,0.43342704,0.14797808,0.79909897,0.60688865,-0.028753895,0.04766057,0.55764043,0.12393097,-0.39748183,0.004987816,0.1388288,790.14655,791.3553,795.78754,794.9817,966.63007,0.01025390625,0.14837646484375,0.9996337890625,0.46356201171875,1.353302001953125,-0.889739990234375,1,1.0,1.0,1.0,1.0,10.00
2024-10-11 20:39:41.175,0.99291676,0.7503138,0.8611343,0.9824673,0.5501508,0.44091552,0.30627966,0.7470714,0.6540408,0.43342704,0.14797808,0.79909897,0.60688865,-0.028753895,0.04766057,0.55764043,0.12393097,-0.39748183,0.004987816,0.1388288,791.3553,794.9817,800.6227,791.3553,640.2564,0.01025390625,0.14837646484375,0.9996337890625,0.46356201171875,1.353302001953125,-0.889739990234375,1,1.0,1.0,1.0,1.0,10.00
2024-10-11 20:39:41.176,0.99291676,0.7503138,0.8611343,0.9824673,0.5501508,0.44091552,0.30627966,0.7470714,0.6540408,0.43342704,0.14797808,0.79909897,0.60688865,-0.028753895,0.04766057,0.55764043,0.12393097,-0.39748183,0.004987816,0.1388288,792.96704,798.20514,807.47253,793.36993,485.1282,0.01025390625,0.14837646484375,0.9996337890625,0.46356201171875,1.353302001953125,-0.889739990234375,1,1.0,1.0,1.0,1.0,10.00
2024-10-11 20:39:41.176,0.99291676,0.7503138,0.8611343,0.9824673,0.5501508,0.44091552,0.30627966,0.7470714,0.6540408,0.43342704,0.14797808,0.79909897,0.60688865,-0.028753895,0.04766057,0.55764043,0.12393097,-0.39748183,0.004987816,0.1388288,797.8022,795.38464,799.41394,803.8461,789.7436,0.01025390625,0.14837646484375,0.9996337890625,0.46356201171875,1.353302001953125,-0.889739990234375,1,1.0,1.0,1.0,1.0,10.00
2024-10-11 20:39:41.177,0.99291676,0.7503138,0.8611343,0.9824673,0.5501508,0.44091552,0.30627966,0.7470714,0.6540408,0.43342704,0.14797808,0.79909897,0.60688865,-0.028753895,0.04766057,0.55764043,0.12393097,-0.39748183,0.004987816,0.1388288,793.36993,796.1905,796.99634,805.8608,1059.7069,0.01025390625,0.14837646484375,0.9996337890625,0.46356201171875,1.353302001953125,-0.889739990234375,1,1.0,1.0,1.0,1.0,10.00
2024-10-11 20:39:41.226,0.99291676,0.7503138,0.8611343,0.9824673,0.5501508,0.44091552,0.30627966,0.7470714,0.6540408,0.43342704,0.14797808,0.79909897,0.60688865,-0.028753895,0.04766057,0.55764043,0.12393097,-0.39748183,0.004987816,0.1388288,796.5934,798.60803,801.8315,802.6374,656.3736,0.0040283203125,0.15191650390625,0.9949951171875,-0.022430419921875,2.1533203125,-1.099090576171875,1,1.0,1.0,1.0,1.0,10.00
2024-10-11 20:39:41.227,0.99291676,0.7503138,0.8611343,0.9824673,0.5501508,0.44091552,0.30627966,0.7470714,0.6540408,0.43342704,0.14797808,0.79909897,0.60688865,-0.028753895,0.04766057,0.55764043,0.12393097,-0.39748183,0.004987816,0.1388288,801.4286,796.5934,800.6227,804.2491,619.707,0.0040283203125,0.15191650390625,0.9949951171875,-0.022430419921875,2.1533203125,-1.099090576171875,1,1.0,1.0,1.0,1.0,10.00
2024-10-11 20:39:41.228,0.99291676,0.7503138,0.8611343,0.9824673,0.5501508,0.44091552,0.30627966,0.7470714,0.6540408,0.43342704,0.14797808,0.79909897,0.60688865,-0.028753895,0.04766057,0.55764043,0.12393097,-0.39748183,0.004987816,0.1388288,804.2491,793.7729,801.8315,809.4872,896.52014,0.0040283203125,0.15191650390625,0.9949951171875,-0.022430419921875,2.1533203125,-1.099090576171875,1,1.0,1.0,1.0,1.0,10.00
2024-10-11 20:39:41.228,0.86807406,0.77927303,0.9104034,0.8601055,0.52311933,0.43582776,0.33594283,0.7188361,0.5875934,0.43342704,0.11977354,0.73613995,0.5442813,-0.021467261,0.036426615,0.4821922,0.08719761,-0.39820224,0.016388465,0.1357124,809.0842,792.1612,800.2198,807.8755,772.4176,0.0040283203125,0.15191650390625,0.9949951171875,-0.022430419921875,2.1533203125,-1.099090576171875,1,1.0,1.0,1.0,1.0,10.00
2024-10-11 20:39:41.234,0.86807406,0.77927303,0.9104034,0.8601055,0.52311933,0.43582776,0.33594283,0.7188361,0.5875934,0.43342704,0.11977354,0.73613995,0.5442813,-0.021467261,0.036426615,0.4821922,0.08719761,-0.39820224,0.016388465,0.1357124,810.293,791.75824,800.2198,803.44324,658.3883,0.0040283203125,0.15191650390625,0.9949951171875,-0.022430419921875,2.1533203125,-1.099090576171875,1,1.0,1.0,1.0,1.0,10.00
2024-10-11 20:39:41.234,0.86807406,0.77927303,0.9104034,0.8601055,0.52311933,0.43582776,0.33594283,0.7188361,0.5875934,0.43342704,0.11977354,0.73613995,0.5442813,-0.021467261,0.036426615,0.4821922,0.08719761,-0.39820224,0.016388465,0.1357124,807.47253,789.7436,796.5934,803.8461,799.81683,0.0040283203125,0.15191650390625,0.9949951171875,-0.022430419921875,2.1533203125,-1.099090576171875,1,1.0,1.0,1.0,1.0,10.00
2024-10-11 20:39:41.235,0.86807406,0.77927303,0.9104034,0.8601055,0.52311933,0.43582776,0.33594283,0.7188361,0.5875934,0.43342704,0.11977354,0.73613995,0.5442813,-0.021467261,0.036426615,0.4821922,0.08719761,-0.39820224,0.016388465,0.1357124,811.50183,794.17584,798.60803,814.7253,890.4762,0.0040283203125,0.15191650390625,0.9949951171875,-0.022430419921875,2.1533203125,-1.099090576171875,1,1.0,1.0,1.0,1.0,10.00
2024-10-11 20:39:41.236,0.86807406,0.77927303,0.9104034,0.8601055,0.52311933,0.43582776,0.33594283,0.7188361,0.5875934,0.43342704,0.11977354,0.73613995,0.5442813,-0.021467261,0.036426615,0.4821922,0.08719761,-0.39820224,0.016388465,0.1357124,807.0696,795.78754,798.20514,810.696,733.3333,0.0040283203125,0.15191650390625,0.9949951171875,-0.022430419921875,2.1533203125,-1.099090576171875,1,1.0,1.0,1.0,1.0,10.00
2024-10-11 20:39:41.236,0.86807406,0.77927303,0.9104034,0.8601055,0.52311933,0.43582776,0.33594283,0.7188361,0.5875934,0.43342704,0.11977354,0.73613995,0.5442813,-0.021467261,0.036426615,0.4821922,0.08719761,-0.39820224,0.016388465,0.1357124,802.23444,798.60803,799.011,802.23444,600.3663,0.0040283203125,0.15191650390625,0.9949951171875,-0.022430419921875,2.1533203125,-1.099090576171875,1,1.0,1.0,1.0,1.0,10.00
2024-10-11 20:39:41.237,0.86807406,0.77927303,0.9104034,0.8601055,0.52311933,0.43582776,0.33594283,0.7188361,0.5875934,0.43342704,0.11977354,0.73613995,0.5442813,-0.021467261,0.036426615,0.4821922,0.08719761,-0.39820224,0.016388465,0.1357124,793.7729,799.41394,801.8315,801.4286,697.47253,0.0040283203125,0.15191650390625,0.9949951171875,-0.022430419921875,2.1533203125,-1.099090576171875,1,1.0,1.0,1.0,1.0,10.00
2024-10-11 20:39:41.238,0.86807406,0.77927303,0.9104034,0.8601055,0.52311933,0.43582776,0.33594283,0.7188361,0.5875934,0.43342704,0.11977354,0.73613995,0.5442813,-0.021467261,0.036426615,0.4821922,0.08719761,-0.39820224,0.016388465,0.1357124,786.9231,794.57874,798.20514,803.44324,904.9817,0.0040283203125,0.15191650390625,0.9949951171875,-0.022430419921875,2.1533203125,-1.099090576171875,1,1.0,1.0,1.0,1.0,10.00
2024-10-11 20:39:41.238,0.86807406,0.77927303,0.9104034,0.8601055,0.52311933,0.43582776,0.33594283,0.7188361,0.5875934,0.43342704,0.11977354,0.73613995,0.5442813,-0.021467261,0.036426615,0.4821922,0.08719761,-0.39820224,0.016388465,0.1357124,790.14655,794.17584,796.99634,801.8315,725.6777,0.0040283203125,0.15191650390625,0.9949951171875,-0.022430419921875,2.1533203125,-1.099090576171875,1,1.0,1.0,1.0,1.0,10.00
2024-10-11 20:39:41.264,0.86807406,0.77927303,0.9104034,0.8601055,0.52311933,0.43582776,0.33594283,0.7188361,0.5875934,0.43342704,0.11977354,0.73613995,0.5442813,-0.021467261,0.036426615,0.4821922,0.08719761,-0.39820224,0.016388465,0.1357124,794.9817,790.9524,791.3553,793.7729,574.17584,0.0040283203125,0.15191650390625,0.9949951171875,-0.022430419921875,2.1533203125,-1.099090576171875,1,1.0,1.0,1.0,1.0,10.00
2024-10-11 20:39:41.265,0.86807406,0.77927303,0.9104034,0.8601055,0.52311933,0.43582776,0.33594283,0.7188361,0.5875934,0.43342704,0.11977354,0.73613995,0.5442813,-0.021467261,0.036426615,0.4821922,0.08719761,-0.39820224,0.016388465,0.1357124,797.8022,791.3553,793.7729,800.2198,715.6044,0.0040283203125,0.15191650390625,0.9949951171875,-0.022430419921875,2.1533203125,-1.099090576171875,1,1.0,1.0,1.0,1.0,10.00
2024-10-11 20:39:41.265,0.86807406,0.77927303,0.9104034,0.8601055,0.52311933,0.43582776,0.33594283,0.7188361,0.5875934,0.43342704,0.11977354,0.73613995,0.5442813,-0.021467261,0.036426615,0.4821922,0.08719761,-0.39820224,0.016388465,0.1357124,806.6667,797.3993,797.8022,809.89014,818.7546,0.0040283203125,0.15191650390625,0.9949951171875,-0.022430419921875,2.1533203125,-1.099090576171875,1,1.0,1.0,1.0,1.0,10.00
2024-10-11 20:39:41.266,0.86807406,0.77927303,0.9104034,0.8601055,0.52311933,0.43582776,0.33594283,0.7188361,0.5875934,0.43342704,0.11977354,0.73613995,0.5442813,-0.021467261,0.036426615,0.4821922,0.08719761,-0.39820224,0.016388465,0.1357124,802.23444,797.3993,795.78754,799.011,709.15753,0.0040283203125,0.15191650390625,0.9949951171875,-0.022430419921875,2.1533203125,-1.099090576171875,1,1.0,1.0,1.0,1.0,10.00
2024-10-11 20:39:41.267,0.86807406,0.77927303,0.9104034,0.8601055,0.52311933,0.43582776,0.33594283,0.7188361,0.5875934,0.43342704,0.11977354,0.73613995,0.5442813,-0.021467261,0.036426615,0.4821922,0.08719761,-0.39820224,0.016388465,0.1357124,796.5934,794.9817,802.23444,791.3553,760.32965,0.0040283203125,0.15191650390625,0.9949951171875,-0.022430419921875,2.1533203125,-1.099090576171875,1,1.0,1.0,1.0,1.0,10.00
2024-10-11 20:39:41.267,0.86807406,0.77927303,0.9104034,0.8601055,0.52311933,0.43582776,0.33594283,0.7188361,0.5875934,0.43342704,0.11977354,0.73613995,0.5442813,-0.021467261,0.036426615,0.4821922,0.08719761,-0.39820224,0.016388465,0.1357124,802.6374,797.3993,810.293,794.17584,952.52747,0.0040283203125,0.15191650390625,0.9949951171875,-0.022430419921875,2.1533203125,-1.099090576171875,1,1.0,1.0,1.0,1.0,10.00
2024-10-11 20:39:41.268,0.86807406,0.77927303,0.9104034,0.8601055,0.52311933,0.43582776,0.33594283,0.7188361,0.5875934,0.43342704,0.11977354,0.73613995,0.5442813,-0.021467261,0.036426615,0.4821922,0.08719761,-0.39820224,0.016388465,0.1357124,804.65204,801.02563,809.4872,802.23444,1042.381,0.0040283203125,0.15191650390625,0.9949951171875,-0.022430419921875,2.1533203125,-1.099090576171875,1,1.0,1.0,1.0,1.0,10.00
2024-10-11 20:39:41.268,0.86807406,0.77927303,0.9104034,0.8601055,0.52311933,0.43582776,0.33594283,0.7188361,0.5875934,0.43342704,0.11977354,0.73613995,0.5442813,-0.021467261,0.036426615,0.4821922,0.08719761,-0.39820224,0.016388465,0.1357124,806.26373,800.2198,802.6374,803.0403,823.5897,0.0040283203125,0.15191650390625,0.9949951171875,-0.022430419921875,2.1533203125,-1.099090576171875,1,1.0,1.0,1.0,1.0,10.00
2024-10-11 20:39:41.269,0.86807406,0.77927303,0.9104034,0.8601055,0.52311933,0.43582776,0.33594283,0.7188361,0.5875934,0.43342704,0.11977354,0.73613995,0.5442813,-0.021467261,0.036426615,0.4821922,0.08719761,-0.39820224,0.016388465,0.1357124,802.6374,797.8022,799.011,801.4286,699.4872,0.0040283203125,0.15191650390625,0.9949951171875,-0.022430419921875,2.1533203125,-1.099090576171875,1,1.0,1.0,1.0,1.0,10.00
2024-10-11 20:39:41.270,0.86807406,0.77927303,0.9104034,0.8601055,0.52311933,0.43582776,0.33594283,0.7188361,0.5875934,0.43342704,0.11977354,0.73613995,0.5442813,-0.021467261,0.036426615,0.4821922,0.08719761,-0.39820224,0.016388465,0.1357124,807.47253,799.011,797.3993,806.26373,827.2161,0.0040283203125,0.15191650390625,0.9949951171875,-0.022430419921875,2.1533203125,-1.099090576171875,1,1.0,1.0,1.0,1.0,10.00
2024-10-11 20:39:41.270,0.86807406,0.77927303,0.9104034,0.8601055,0.52311933,0.43582776,0.33594283,0.7188361,0.5875934,0.43342704,0.11977354,0.73613995,0.5442813,-0.021467261,0.036426615,0.4821922,0.08719761,-0.39820224,0.016388465,0.1357124,816.337,805.05493,797.8022,807.47253,852.6007,0.0040283203125,0.15191650390625,0.9949951171875,-0.022430419921875,2.1533203125,-1.099090576171875,1,1.0,1.0,1.0,1.0,10.00
2024-10-11 20:39:41.271,0.86807406,0.77927303,0.9104034,0.8601055,0.52311933,0.43582776,0.33594283,0.7188361,0.5875934,0.43342704,0.11977354,0.73613995,0.5442813,-0.021467261,0.036426615,0.4821922,0.08719761,-0.39820224,0.016388465,0.1357124,803.0403,805.8608,807.47253,803.0403,719.6337,0.0040283203125,0.15191650390625,0.9949951171875,-0.022430419921875,2.1533203125,-1.099090576171875,1,1.0,1.0,1.0,1.0,10.00
2024-10-11 20:39:41.296,0.86807406,0.77927303,0.9104034,0.8601055,0.52311933,0.43582776,0.33594283,0.7188361,0.5875934,0.43342704,0.11977354,0.73613995,0.5442813,-0.021467261,0.036426615,0.4821922,0.08719761,-0.39820224,0.016388465,0.1357124,805.05493,794.9817,809.89014,797.3993,653.5531,0.00482177734375,0.15081787109375,1.00250244140625,0.052337646484375,2.9010009765625,-1.233673095703125,1,1.0,1.0,1.0,1.0,10.00
2024-10-11 20:39:41.296,0.86807406,0.77927303,0.9104034,0.8601055,0.52311933,0.43582776,0.33594283,0.7188361,0.5875934,0.43342704,0.11977354,0.73613995,0.5442813,-0.021467261,0.036426615,0.4821922,0.08719761,-0.39820224,0.016388465,0.1357124,805.05493,789.34064,807.0696,804.65204,895.7143,0.00482177734375,0.15081787109375,1.00250244140625,0.052337646484375,2.9010009765625,-1.233673095703125,1,1.0,1.0,1.0,1.0,10.00
2024-10-11 20:39:41.297,0.86807406,0.77927303,0.9104034,0.8601055,0.52311933,0.43582776,0.33594283,0.7188361,0.5875934,0.43342704,0.11977354,0.73613995,0.5442813,-0.021467261,0.036426615,0.4821922,0.08719761,-0.39820224,0.016388465,0.1357124,789.34064,790.14655,797.3993,805.05493,895.31134,0.00482177734375,0.15081787109375,1.00250244140625,0.052337646484375,2.9010009765625,-1.233673095703125,1,1.0,1.0,1.0,1.0,10.00
2024-10-11 20:39:41.298,0.86807406,0.77927303,0.9104034,0.8601055,0.52311933,0.43582776,0.33594283,0.7188361,0.5875934,0.43342704,0.11977354,0.73613995,0.5442813,-0.021467261,0.036426615,0.4821922,0.08719761,-0.39820224,0.016388465,0.1357124,794.17584,789.34064,795.78754,801.4286,622.52747,0.00482177734375,0.15081787109375,1.00250244140625,0.052337646484375,2.9010009765625,-1.233673095703125,1,1.0,1.0,1.0,1.0,10.00
2024-10-11 20:39:41.299,0.86807406,0.77927303,0.9104034,0.8601055,0.52311933,0.43582776,0.33594283,0.7188361,0.5875934,0.43342704,0.11977354,0.73613995,0.5442813,-0.021467261,0.036426615,0.4821922,0.08719761,-0.39820224,0.016388465,0.1357124,801.4286,790.14655,793.7729,805.4579,680.14655,0.00482177734375,0.15081787109375,1.00250244140625,0.052337646484375,2.9010009765625,-1.233673095703125,1,1.0,1.0,1.0,1.0,10.00
2024-10-11 20:39:41.299,0.6982761,0.7865966,0.9321688,0.7069364,0.48945028,0.4206515,0.3418479,0.68534386,0.5021257,0.43342704,0.11646967,0.69422495,0.4755557,-0.013503414,0.03253058,0.3932698,0.06580831,-0.39789408,0.023186268,0.119213566,807.47253,792.5641,788.5348,815.12823,1176.5568,0.00482177734375,0.15081787109375,1.00250244140625,0.052337646484375,2.9010009765625,-1.233673095703125,1,1.0,1.0,1.0,1.0,10.00
2024-10-11 20:39:41.305,0.6982761,0.7865966,0.9321688,0.7069364,0.48945028,0.4206515,0.3418479,0.68534386,0.5021257,0.43342704,0.11646967,0.69422495,0.4755557,-0.013503414,0.03253058,0.3932698,0.06580831,-0.39789408,0.023186268,0.119213566,811.0989,794.57874,792.5641,818.7546,1326.8499,0.00482177734375,0.15081787109375,1.00250244140625,0.052337646484375,2.9010009765625,-1.233673095703125,1,1.0,1.0,1.0,1.0,10.00
2024-10-11 20:39:41.306,0.6982761,0.7865966,0.9321688,0.7069364,0.48945028,0.4206515,0.3418479,0.68534386,0.5021257,0.43342704,0.11646967,0.69422495,0.4755557,-0.013503414,0.03253058,0.3932698,0.06580831,-0.39789408,0.023186268,0.119213566,805.8608,799.81683,795.38464,809.0842,858.24176,0.00482177734375,0.15081787109375,1.00250244140625,0.052337646484375,2.9010009765625,-1.233673095703125,1,1.0,1.0,1.0,1.0,10.00
2024-10-11 20:39:41.307,0.6982761,0.7865966,0.9321688,0.7069364,0.48945028,0.4206515,0.3418479,0.68534386,0.5021257,0.43342704,0.11646967,0.69422495,0.4755557,-0.013503414,0.03253058,0.3932698,0.06580831,-0.39789408,0.023186268,0.119213566,809.89014,799.41394,800.6227,806.6667,738.97437,0.00482177734375,0.15081787109375,1.00250244140625,0.052337646484375,2.9010009765625,-1.233673095703125,1,1.0,1.0,1.0,1.0,10.00
2024-10-11 20:39:41.308,0.6982761,0.7865966,0.9321688,0.7069364,0.48945028,0.4206515,0.3418479,0.68534386,0.5021257,0.43342704,0.11646967,0.69422495,0.4755557,-0.013503414,0.03253058,0.3932698,0.06580831,-0.39789408,0.023186268,0.119213566,809.0842,791.3553,803.8461,809.4872,954.1392,0.00482177734375,0.15081787109375,1.00250244140625,0.052337646484375,2.9010009765625,-1.233673095703125,1,1.0,1.0,1.0,1.0,10.00
2024-10-11 20:39:41.309,0.6982761,0.7865966,0.9321688,0.7069364,0.48945028,0.4206515,0.3418479,0.68534386,0.5021257,0.43342704,0.11646967,0.69422495,0.4755557,-0.013503414,0.03253058,0.3932698,0.06580831,-0.39789408,0.023186268,0.119213566,804.65204,794.17584,805.4579,807.8755,817.1429,0.00482177734375,0.15081787109375,1.00250244140625,0.052337646484375,2.9010009765625,-1.233673095703125,1,1.0,1.0,1.0,1.0,10.00
2024-10-11 20:39:41.310,0.6982761,0.7865966,0.9321688,0.7069364,0.48945028,0.4206515,0.3418479,0.68534386,0.5021257,0.43342704,0.11646967,0.69422495,0.4755557,-0.013503414,0.03253058,0.3932698,0.06580831,-0.39789408,0.023186268,0.119213566,799.81683,799.41394,807.0696,801.02563,620.10986,0.00482177734375,0.15081787109375,1.00250244140625,0.052337646484375,2.9010009765625,-1.233673095703125,1,1.0,1.0,1.0,1.0,10.00
2024-10-11 20:39:41.363,0.6982761,0.7865966,0.9321688,0.7069364,0.48945028,0.4206515,0.3418479,0.68534386,0.5021257,0.43342704,0.11646967,0.69422495,0.4755557,-0.013503414,0.03253058,0.3932698,0.06580831,-0.39789408,0.023186268,0.119213566,798.60803,797.8022,805.05493,801.4286,684.9817,-0.00140380859375,0.14813232421875,0.99591064453125,-0.231781005859375,3.521575927734375,-1.547698974609375,1,1.0,1.0,1.0,1.0,10.00
2024-10-11 20:39:41.364,0.6982761,0.7865966,0.9321688,0.7069364,0.48945028,0.4206515,0.3418479,0.68534386,0.5021257,0.43342704,0.11646967,0.69422495,0.4755557,-0.013503414,0.03253058,0.3932698,0.06580831,-0.39789408,0.023186268,0.119213566,803.44324,800.6227,803.44324,804.2491,782.0879,-0.00140380859375,0.14813232421875,0.99591064453125,-0.231781005859375,3.521575927734375,-1.547698974609375,1,1.0,1.0,1.0,1.0,10.00
2024-10-11 20:39:41.365,0.6982761,0.7865966,0.9321688,0.7069364,0.48945028,0.4206515,0.3418479,0.68534386,0.5021257,0.43342704,0.11646967,0.69422495,0.4755557,-0.013503414,0.03253058,0.3932698,0.06580831,-0.39789408,0.023186268,0.119213566,796.1905,805.4579,799.011,799.011,719.6337,-0.00140380859375,0.14813232421875,0.99591064453125,-0.231781005859375,3.521575927734375,-1.547698974609375,1,1.0,1.0,1.0,1.0,10.00
2024-10-11 20:39:41.365,0.6982761,0.7865966,0.9321688,0.7069364,0.48945028,0.4206515,0.3418479,0.68534386,0.5021257,0.43342704,0.11646967,0.69422495,0.4755557,-0.013503414,0.03253058,0.3932698,0.06580831,-0.39789408,0.023186268,0.119213566,797.3993,803.0403,793.36993,797.8022,642.27106,-0.00140380859375,0.14813232421875,0.99591064453125,-0.231781005859375,3.521575927734375,-1.547698974609375,1,1.0,1.0,1.0,1.0,10.00
2024-10-11 20:39:41.366,0.6982761,0.7865966,0.9321688,0.7069364,0.48945028,0.4206515,0.3418479,0.68534386,0.5021257,0.43342704,0.11646967,0.69422495,0.4755557,-0.013503414,0.03253058,0.3932698,0.06580831,-0.39789408,0.023186268,0.119213566,808.2784,800.6227,796.1905,801.02563,711.5751,-0.00140380859375,0.14813232421875,0.99591064453125,-0.231781005859375,3.521575927734375,-1.547698974609375,1,1.0,1.0,1.0,1.0,10.00
2024-10-11 20:39:41.367,0.6982761,0.7865966,0.9321688,0.7069364,0.48945028,0.4206515,0.3418479,0.68534386,0.5021257,0.43342704,0.11646967,0.69422495,0.4755557,-0.013503414,0.03253058,0.3932698,0.06580831,-0.39789408,0.023186268,0.119213566,813.91943,798.20514,799.41394,805.05493,902.1612,-0.00140380859375,0.14813232421875,0.99591064453125,-0.231781005859375,3.521575927734375,-1.547698974609375,1,1.0,1.0,1.0,1.0,10.00
2024-10-11 20:39:41.367,0.6982761,0.7865966,0.9321688,0.7069364,0.48945028,0.4206515,0.3418479,0.68534386,0.5021257,0.43342704,0.11646967,0.69422495,0.4755557,-0.013503414,0.03253058,0.3932698,0.06580831,-0.39789408,0.023186268,0.119213566,811.0989,799.011,801.02563,804.65204,850.18317,-0.00140380859375,0.14813232421875,0.99591064453125,-0.231781005859375,3.521575927734375,-1.547698974609375,1,1.0,1.0,1.0,1.0,10.00
2024-10-11 20:39:41.368,0.6982761,0.7865966,0.9321688,0.7069364,0.48945028,0.4206515,0.3418479,0.68534386,0.5021257,0.43342704,0.11646967,0.69422495,0.4755557,-0.013503414,0.03253058,0.3932698,0.06580831,-0.39789408,0.023186268,0.119213566,807.47253,801.4286,800.2198,795.38464,597.5458,-0.00140380859375,0.14813232421875,0.99591064453125,-0.231781005859375,3.521575927734375,-1.547698974609375,1,1.0,1.0,1.0,1.0,10.00
2024-10-11 20:39:41.369,0.6982761,0.7865966,0.9321688,0.7069364,0.48945028,0.4206515,0.3418479,0.68534386,0.5021257,0.43342704,0.11646967,0.69422495,0.4755557,-0.013503414,0.03253058,0.3932698,0.06580831,-0.39789408,0.023186268,0.119213566,807.0696,797.3993,796.5934,797.8022,689.011,-0.00140380859375,0.14813232421875,0.99591064453125,-0.231781005859375,3.521575927734375,-1.547698974609375,1,1.0,1.0,1.0,1.0,10.00
2024-10-11 20:39:41.369,0.6982761,0.7865966,0.9321688,0.7069364,0.48945028,0.4206515,0.3418479,0.68534386,0.5021257,0.43342704,0.11646967,0.69422495,0.4755557,-0.013503414,0.03253058,0.3932698,0.06580831,-0.39789408,0.023186268,0.119213566,803.44324,798.20514,790.9524,805.4579,1016.1905,-0.00140380859375,0.14813232421875,0.99591064453125,-0.231781005859375,3.521575927734375,-1.547698974609375,1,1.0,1.0,1.0,1.0,10.00
2024-10-11 20:39:41.370,0.6982761,0.7865966,0.9321688,0.7069364,0.48945028,0.4206515,0.3418479,0.68534386,0.5021257,0.43342704,0.11646967,0.69422495,0.4755557,-0.013503414,0.03253058,0.3932698,0.06580831,-0.39789408,0.023186268,0.119213566,803.8461,798.60803,796.5934,803.44324,859.0476,-0.00140380859375,0.14813232421875,0.99591064453125,-0.231781005859375,3.521575927734375,-1.547698974609375,1,1.0,1.0,1.0,1.0,10.00
2024-10-11 20:39:41.370,0.6982761,0.7865966,0.9321688,0.7069364,0.48945028,0.4206515,0.3418479,0.68534386,0.5021257,0.43342704,0.11646967,0.69422495,0.4755557,-0.013503414,0.03253058,0.3932698,0.06580831,-0.39789408,0.023186268,0.119213566,805.05493,798.60803,800.6227,801.02563,670.87915,-0.00140380859375,0.14813232421875,0.99591064453125,-0.231781005859375,3.521575927734375,-1.547698974609375,1,1.0,1.0,1.0,1.0,10.00
2024-10-11 20:39:41.463,0.6982761,0.7865966,0.9321688,0.7069364,0.48945028,0.4206515,0.3418479,0.68534386,0.5021257,0.43342704,0.11646967,0.69422495,0.4755557,-0.013503414,0.03253058,0.3932698,0.06580831,-0.39789408,0.023186268,0.119213566,799.81683,797.8022,797.8022,797.3993,792.5641,-0.005859375,0.14739990234375,1.0064697265625,-1.45050048828125,5.151519775390625,-3.48419189453125,1,1.0,1.0,1.0,1.0,10.00
2024-10-11 20:39:41.464,0.6982761,0.7865966,0.9321688,0.7069364,0.48945028,0.4206515,0.3418479,0.68534386,0.5021257,0.43342704,0.11646967,0.69422495,0.4755557,-0.013503414,0.03253058,0.3932698,0.06580831,-0.39789408,0.023186268,0.119213566,799.011,793.7729,801.8315,792.5641,761.13556,-0.005859375,0.14739990234375,1.0064697265625,-1.45050048828125,5.151519775390625,-3.48419189453125,1,1.0,1.0,1.0,1.0,10.00
2024-10-11 20:39:41.464,0.6982761,0.7865966,0.9321688,0.7069364,0.48945028,0.4206515,0.3418479,0.68534386,0.5021257,0.43342704,0.11646967,0.69422495,0.4755557,-0.013503414,0.03253058,0.3932698,0.06580831,-0.39789408,0.023186268,0.119213566,797.8022,794.17584,794.9817,792.5641,695.8608,-0.005859375,0.14739990234375,1.0064697265625,-1.45050048828125,5.151519775390625,-3.48419189453125,1,1.0,1.0,1.0,1.0,10.00
2024-10-11 20:39:41.465,0.6982761,0.7865966,0.9321688,0.7069364,0.48945028,0.4206515,0.3418479,0.68534386,0.5021257,0.43342704,0.11646967,0.69422495,0.4755557,-0.013503414,0.03253058,0.3932698,0.06580831,-0.39789408,0.023186268,0.119213566,794.9817,797.8022,792.96704,794.57874,688.60803,-0.005859375,0.14739990234375,1.0064697265625,-1.45050048828125,5.151519775390625,-3.48419189453125,1,1.0,1.0,1.0,1.0,10.00
2024-10-11 20:39:41.465,0.6982761,0.7865966,0.9321688,0.7069364,0.48945028,0.4206515,0.3418479,0.68534386,0.5021257,0.43342704,0.11646967,0.69422495,0.4755557,-0.013503414,0.03253058,0.3932698,0.06580831,-0.39789408,0.023186268,0.119213566,802.23444,799.011,801.4286,801.02563,796.5934,-0.005859375,0.14739990234375,1.0064697265625,-1.45050048828125,5.151519775390625,-3.48419189453125,1,1.0,1.0,1.0,1.0,10.00
2024-10-11 20:39:41.466,0.6982761,0.7865966,0.9321688,0.7069364,0.48945028,0.4206515,0.3418479,0.68534386,0.5021257,0.43342704,0.11646967,0.69422495,0.4755557,-0.013503414,0.03253058,0.3932698,0.06580831,-0.39789408,0.023186268,0.119213566,808.2784,799.41394,801.4286,812.3077,880.80585,-0.005859375,0.14739990234375,1.0064697265625,-1.45050048828125,5.151519775390625,-3.48419189453125,1,1.0,1.0,1.0,1.0,10.00
2024-10-11 20:39:41.467,0.6982761,0.7865966,0.9321688,0.7069364,0.48945028,0.4206515,0.3418479,0.68534386,0.5021257,0.43342704,0.11646967,0.69422495,0.4755557,-0.013503414,0.03253058,0.3932698,0.06580831,-0.39789408,0.023186268,0.119213566,808.2784,800.6227,802.6374,815.5311,802.6374,-0.005859375,0.14739990234375,1.0064697265625,-1.45050048828125,5.151519775390625,-3.48419189453125,1,1.0,1.0,1.0,1.0,10.00
2024-10-11 20:39:41.467,0.47369123,0.7856715,0.9409797,0.51211774,0.43991727,0.40559897,0.34250152,0.6567961,0.39196664,0.43342704,0.11799088,0.63663614,0.4280711,-0.004666599,0.033713512,0.3209058,0.08052897,-0.39395383,0.026959334,0.07951313,808.68134,800.2198,805.05493,801.4286,756.7033,-0.005859375,0.14739990234375,1.0064697265625,-1.45050048828125,5.151519775390625,-3.48419189453125,1,1.0,1.0,1.0,1.0,10.00
2024-10-11 20:39:41.472,0.47369123,0.7856715,0.9409797,0.51211774,0.43991727,0.40559897,0.34250152,0.6567961,0.39196664,0.43342704,0.11799088,0.63663614,0.4280711,-0.004666599,0.033713512,0.3209058,0.08052897,-0.39395383,0.026959334,0.07951313,812.71063,800.2198,811.50183,802.23444,920.696,-0.005859375,0.14739990234375,1.0064697265625,-1.45050048828125,5.151519775390625,-3.48419189453125,1,1.0,1.0,1.0,1.0,10.00
2024-10-11 20:39:41.473,0.47369123,0.7856715,0.9409797,0.51211774,0.43991727,0.40559897,0.34250152,0.6567961,0.39196664,0.43342704,0.11799088,0.63663614,0.4280711,-0.004666599,0.033713512,0.3209058,0.08052897,-0.39395383,0.026959334,0.07951313,814.3223,803.44324,806.6667,805.8608,785.31134,-0.005859375,0.14739990234375,1.0064697265625,-1.45050048828125,5.151519775390625,-3.48419189453125,1,1.0,1.0,1.0,1.0,10.00
2024-10-11 20:39:41.474,0.47369123,0.7856715,0.9409797,0.51211774,0.43991727,0.40559897,0.34250152,0.6567961,0.39196664,0.43342704,0.11799088,0.63663614,0.4280711,-0.004666599,0.033713512,0.3209058,0.08052897,-0.39395383,0.026959334,0.07951313,804.2491,803.44324,800.6227,803.44324,610.84247,-0.005859375,0.14739990234375,1.0064697265625,-1.45050048828125,5.151519775390625,-3.48419189453125,1,1.0,1.0,1.0,1.0,10.00
2024-10-11 20:39:41.474,0.47369123,0.7856715,0.9409797,0.51211774,0.43991727,0.40559897,0.34250152,0.6567961,0.39196664,0.43342704,0.11799088,0.63663614,0.4280711,-0.004666599,0.033713512,0.3209058,0.08052897,-0.39395383,0.026959334,0.07951313,799.41394,798.60803,807.47253,804.2491,787.72894,-0.005859375,0.14739990234375,1.0064697265625,-1.45050048828125,5.151519775390625,-3.48419189453125,1,1.0,1.0,1.0,1.0,10.00
2024-10-11 20:39:41.475,0.47369123,0.7856715,0.9409797,0.51211774,0.43991727,0.40559897,0.34250152,0.6567961,0.39196664,0.43342704,0.11799088,0.63663614,0.4280711,-0.004666599,0.033713512,0.3209058,0.08052897,-0.39395383,0.026959334,0.07951313,807.0696,800.2198,802.6374,805.4579,973.8828,0.00189208984375,0.1527099609375,1.007080078125,-4.50103759765625,7.663726806640625,-5.18890380859375,1,1.0,1.0,1.0,1.0,10.00
2024-10-11 20:39:41.476,0.47369123,0.7856715,0.9409797,0.51211774,0.43991727,0.40559897,0.34250152,0.6567961,0.39196664,0.43342704,0.11799088,0.63663614,0.4280711,-0.004666599,0.033713512,0.3209058,0.08052897,-0.39395383,0.026959334,0.07951313,808.68134,801.4286,796.5934,797.8022,804.2491,0.00189208984375,0.1527099609375,1.007080078125,-4.50103759765625,7.663726806640625,-5.18890380859375,1,1.0,1.0,1.0,1.0,10.00
2024-10-11 20:39:41.476,0.47369123,0.7856715,0.9409797,0.51211774,0.43991727,0.40559897,0.34250152,0.6567961,0.39196664,0.43342704,0.11799088,0.63663614,0.4280711,-0.004666599,0.033713512,0.3209058,0.08052897,-0.39395383,0.026959334,0.07951313,795.38464,796.5934,801.8315,790.14655,656.77655,0.00189208984375,0.1527099609375,1.007080078125,-4.50103759765625,7.663726806640625,-5.18890380859375,1,1.0,1.0,1.0,1.0,10.00
2024-10-11 20:39:41.477,0.47369123,0.7856715,0.9409797,0.51211774,0.43991727,0.40559897,0.34250152,0.6567961,0.39196664,0.43342704,0.11799088,0.63663614,0.4280711,-0.004666599,0.033713512,0.3209058,0.08052897,-0.39395383,0.026959334,0.07951313,792.5641,794.17584,806.26373,798.20514,759.5238,0.00189208984375,0.1527099609375,1.007080078125,-4.50103759765625,7.663726806640625,-5.18890380859375,1,1.0,1.0,1.0,1.0,10.00
2024-10-11 20:39:41.478,0.47369123,0.7856715,0.9409797,0.51211774,0.43991727,0.40559897,0.34250152,0.6567961,0.39196664,0.43342704,0.11799088,0.63663614,0.4280711,-0.004666599,0.033713512,0.3209058,0.08052897,-0.39395383,0.026959334,0.07951313,785.7143,798.20514,804.65204,803.0403,873.5531,0.00189208984375,0.1527099609375,1.007080078125,-4.50103759765625,7.663726806640625,-5.18890380859375,1,1.0,1.0,1.0,1.0,10.00
2024-10-11 20:39:41.478,0.47369123,0.7856715,0.9409797,0.51211774,0.43991727,0.40559897,0.34250152,0.6567961,0.39196664,0.43342704,0.11799088,0.63663614,0.4280711,-0.004666599,0.033713512,0.3209058,0.08052897,-0.39395383,0.026959334,0.07951313,782.8938,802.6374,800.6227,801.8315,758.315,0.00189208984375,0.1527099609375,1.007080078125,-4.50103759765625,7.663726806640625,-5.18890380859375,1,1.0,1.0,1.0,1.0,10.00
2024-10-11 20:39:41.479,0.47369123,0.7856715,0.9409797,0.51211774,0.43991727,0.40559897,0.34250152,0.6567961,0.39196664,0.43342704,0.11799088,0.63663614,0.4280711,-0.004666599,0.033713512,0.3209058,0.08052897,-0.39395383,0.026959334,0.07951313,791.75824,798.60803,805.8608,805.4579,731.7216,0.00189208984375,0.1527099609375,1.007080078125,-4.50103759765625,7.663726806640625,-5.18890380859375,1,1.0,1.0,1.0,1.0,10.00
2024-10-11 20:39:41.479,0.47369123,0.7856715,0.9409797,0.51211774,0.43991727,0.40559897,0.34250152,0.6567961,0.39196664,0.43342704,0.11799088,0.63663614,0.4280711,-0.004666599,0.033713512,0.3209058,0.08052897,-0.39395383,0.026959334,0.07951313,785.7143,795.38464,803.44324,805.4579,850.989,0.00189208984375,0.1527099609375,1.007080078125,-4.50103759765625,7.663726806640625,-5.18890380859375,1,1.0,1.0,1.0,1.0,10.00
2024-10-11 20:39:41.480,0.47369123,0.7856715,0.9409797,0.51211774,0.43991727,0.40559897,0.34250152,0.6567961,0.39196664,0.43342704,0.11799088,0.63663614,0.4280711,-0.004666599,0.033713512,0.3209058,0.08052897,-0.39395383,0.026959334,0.07951313,787.326,797.3993,797.3993,809.4872,900.9524,0.00189208984375,0.1527099609375,1.007080078125,-4.50103759765625,7.663726806640625,-5.18890380859375,1,1.0,1.0,1.0,1.0,10.00
2024-10-11 20:39:41.481,0.47369123,0.7856715,0.9409797,0.51211774,0.43991727,0.40559897,0.34250152,0.6567961,0.39196664,0.43342704,0.11799088,0.63663614,0.4280711,-0.004666599,0.033713512,0.3209058,0.08052897,-0.39395383,0.026959334,0.07951313,793.36993,801.02563,794.17584,805.05493,761.53845,0.00189208984375,0.1527099609375,1.007080078125,-4.50103759765625,7.663726806640625,-5.18890380859375,1,1.0,1.0,1.0,1.0,10.00
2024-10-11 20:39:41.481,0.47369123,0.7856715,0.9409797,0.51211774,0.43991727,0.40559897,0.34250152,0.6567961,0.39196664,0.43342704,0.11799088,0.63663614,0.4280711,-0.004666599,0.033713512,0.3209058,0.08052897,-0.39395383,0.026959334,0.07951313,796.99634,803.0403,796.1905,803.8461,724.4689,0.00189208984375,0.1527099609375,1.007080078125,-4.50103759765625,7.663726806640625,-5.18890380859375,1,1.0,1.0,1.0,1.0,10.00
2024-10-11 20:39:41.482,0.47369123,0.7856715,0.9409797,0.51211774,0.43991727,0.40559897,0.34250152,0.6567961,0.39196664,0.43342704,0.11799088,0.63663614,0.4280711,-0.004666599,0.033713512,0.3209058,0.08052897,-0.39395383,0.026959334,0.07951313,802.23444,803.0403,796.5934,806.6667,892.49084,0.00189208984375,0.1527099609375,1.007080078125,-4.50103759765625,7.663726806640625,-5.18890380859375,1,1.0,1.0,1.0,1.0,10.00
2024-10-11 20:39:41.509,0.47369123,0.7856715,0.9409797,0.51211774,0.43991727,0.40559897,0.34250152,0.6567961,0.39196664,0.43342704,0.11799088,0.63663614,0.4280711,-0.004666599,0.033713512,0.3209058,0.08052897,-0.39395383,0.026959334,0.07951313,805.4579,800.6227,791.3553,801.4286,913.44324,0.00189208984375,0.1527099609375,1.007080078125,-4.50103759765625,7.663726806640625,-5.18890380859375,1,1.0,1.0,1.0,1.0,10.00
2024-10-11 20:39:41.510,0.47369123,0.7856715,0.9409797,0.51211774,0.43991727,0.40559897,0.34250152,0.6567961,0.39196664,0.43342704,0.11799088,0.63663614,0.4280711,-0.004666599,0.033713512,0.3209058,0.08052897,-0.39395383,0.026959334,0.07951313,802.6374,799.81683,802.23444,801.8315,694.2491,0.00189208984375,0.1527099609375,1.007080078125,-4.50103759765625,7.663726806640625,-5.18890380859375,1,1.0,1.0,1.0,1.0,10.00
2024-10-11 20:39:41.511,0.47369123,0.7856715,0.9409797,0.51211774,0.43991727,0.40559897,0.34250152,0.6567961,0.39196664,0.43342704,0.11799088,0.63663614,0.4280711,-0.004666599,0.033713512,0.3209058,0.08052897,-0.39395383,0.026959334,0.07951313,802.23444,801.02563,800.6227,803.8461,672.49084,0.00189208984375,0.1527099609375,1.007080078125,-4.50103759765625,7.663726806640625,-5.18890380859375,1,1.0,1.0,1.0,1.0,10.00
2024-10-11 20:39:41.512,0.47369123,0.7856715,0.9409797,0.51211774,0.43991727,0.40559897,0.34250152,0.6567961,0.39196664,0.43342704,0.11799088,0.63663614,0.4280711,-0.004666599,0.033713512,0.3209058,0.08052897,-0.39395383,0.026959334,0.07951313,809.4872,796.5934,796.1905,804.2491,903.36993,0.00189208984375,0.1527099609375,1.007080078125,-4.50103759765625,7.663726806640625,-5.18890380859375,1,1.0,1.0,1.0,1.0,10.00
2024-10-11 20:39:41.512,0.47369123,0.7856715,0.9409797,0.51211774,0.43991727,0.40559897,0.34250152,0.6567961,0.39196664,0.43342704,0.11799088,0.63663614,0.4280711,-0.004666599,0.033713512,0.3209058,0.08052897,-0.39395383,0.026959334,0.07951313,812.71063,794.17584,792.96704,806.6667,834.4689,0.00189208984375,0.1527099609375,1.007080078125,-4.50103759765625,7.663726806640625,-5.18890380859375,1,1.0,1.0,1.0,1.0,10.00
2024-10-11 20:39:41.513,0.47369123,0.7856715,0.9409797,0.51211774,0.43991727,0.40559897,0.34250152,0.6567961,0.39196664,0.43342704,0.11799088,0.63663614,0.4280711,-0.004666599,0.033713512,0.3209058,0.08052897,-0.39395383,0.026959334,0.07951313,808.68134,797.3993,794.9817,809.89014,734.5421,0.00189208984375,0.1527099609375,1.007080078125,-4.50103759765625,7.663726806640625,-5.18890380859375,1,1.0,1.0,1.0,1.0,10.00
2024-10-11 20:39:41.514,0.47369123,0.7856715,0.9409797,0.51211774,0.43991727,0.40559897,0.34250152,0.6567961,0.39196664,0.43342704,0.11799088,0.63663614,0.4280711,-0.004666599,0.033713512,0.3209058,0.08052897,-0.39395383,0.026959334,0.07951313,807.47253,795.38464,797.3993,809.0842,937.2161,0.00189208984375,0.1527099609375,1.007080078125,-4.50103759765625,7.663726806640625,-5.18890380859375,1,1.0,1.0,1.0,1.0,10.00
2024-10-11 20:39:41.514,0.47369123,0.7856715,0.9409797,0.51211774,0.43991727,0.40559897,0.34250152,0.6567961,0.39196664,0.43342704,0.11799088,0.63663614,0.4280711,-0.004666599,0.033713512,0.3209058,0.08052897,-0.39395383,0.026959334,0.07951313,813.5165,800.2198,790.9524,803.8461,1012.96704,0.00189208984375,0.1527099609375,1.007080078125,-4.50103759765625,7.663726806640625,-5.18890380859375,1,1.0,1.0,1.0,1.0,10.00
2024-10-11 20:39:41.515,0.47369123,0.7856715,0.9409797,0.51211774,0.43991727,0.40559897,0.34250152,0.6567961,0.39196664,0.43342704,0.11799088,0.63663614,0.4280711,-0.004666599,0.033713512,0.3209058,0.08052897,-0.39395383,0.026959334,0.07951313,811.50183,804.65204,789.7436,799.011,780.07324,0.00189208984375,0.1527099609375,1.007080078125,-4.50103759765625,7.663726806640625,-5.18890380859375,1,1.0,1.0,1.0,1.0,10.00
2024-10-11 20:39:41.515,0.47369123,0.7824562,0.9415227,0.51211774,0.43991727,0.39359555,0.34389007,0.6567961,0.39196664,0.43342704,0.12536423,0.63663614,0.4280711,0.0052363263,0.03581143,0.3209058,0.08052897,-0.38690805,0.029892933,0.07951313,807.47253,798.20514,796.99634,802.6374,678.5348,0.00189208984375,0.1527099609375,1.007080078125,-4.50103759765625,7.663726806640625,-5.18890380859375,1,1.0,1.0,1.0,1.0,10.00
2024-10-11 20:39:41.520,0.47369123,0.7824562,0.9415227,0.51211774,0.43991727,0.39359555,0.34389007,0.6567961,0.39196664,0.43342704,0.12536423,0.63663614,0.4280711,0.0052363263,0.03581143,0.3209058,0.08052897,-0.38690805,0.029892933,0.07951313,811.0989,796.5934,803.44324,803.8461,702.71063,0.00189208984375,0.1527099609375,1.007080078125,-4.50103759765625,7.663726806640625,-5.18890380859375,1,1.0,1.0,1.0,1.0,10.00
2024-10-11 20:39:41.521,0.47369123,0.7824562,0.9415227,0.51211774,0.43991727,0.39359555,0.34389007,0.6567961,0.39196664,0.43342704,0.12536423,0.63663614,0.4280711,0.0052363263,0.03581143,0.3209058,0.08052897,-0.38690805,0.029892933,0.07951313,813.5165,795.78754,802.23444,810.293,1039.1575,0.00189208984375,0.1527099609375,1.007080078125,-4.50103759765625,7.663726806640625,-5.18890380859375,1,1.0,1.0,1.0,1.0,10.00
2024-10-11 20:39:41.548,0.47369123,0.7824562,0.9415227,0.51211774,0.43991727,0.39359555,0.34389007,0.6567961,0.39196664,0.43342704,0.12536423,0.63663614,0.4280711,0.0052363263,0.03581143,0.3209058,0.08052897,-0.38690805,0.029892933,0.07951313,807.47253,796.1905,801.8315,808.2784,1053.2601,-0.005615234375,0.1318359375,1.0001220703125,-5.9515380859375,9.293670654296875,-4.366455078125,1,1.0,1.0,1.0,1.0,10.00
2024-10-11 20:39:41.549,0.47369123,0.7824562,0.9415227,0.51211774,0.43991727,0.39359555,0.34389007,0.6567961,0.39196664,0.43342704,0.12536423,0.63663614,0.4280711,0.0052363263,0.03581143,0.3209058,0.08052897,-0.38690805,0.029892933,0.07951313,804.65204,797.8022,802.6374,800.6227,720.0366,-0.005615234375,0.1318359375,1.0001220703125,-5.9515380859375,9.293670654296875,-4.366455078125,1,1.0,1.0,1.0,1.0,10.00
2024-10-11 20:39:41.549,0.47369123,0.7824562,0.9415227,0.51211774,0.43991727,0.39359555,0.34389007,0.6567961,0.39196664,0.43342704,0.12536423,0.63663614,0.4280711,0.0052363263,0.03581143,0.3209058,0.08052897,-0.38690805,0.029892933,0.07951313,806.26373,794.17584,805.8608,804.65204,677.72894,-0.005615234375,0.1318359375,1.0001220703125,-5.9515380859375,9.293670654296875,-4.366455078125,1,1.0,1.0,1.0,1.0,10.00
2024-10-11 20:39:41.550,0.47369123,0.7824562,0.9415227,0.51211774,0.43991727,0.39359555,0.34389007,0.6567961,0.39196664,0.43342704,0.12536423,0.63663614,0.4280711,0.0052363263,0.03581143,0.3209058,0.08052897,-0.38690805,0.029892933,0.07951313,801.02563,798.60803,805.8608,810.293,602.381,-0.005615234375,0.1318359375,1.0001220703125,-5.9515380859375,9.293670654296875,-4.366455078125,1,1.0,1.0,1.0,1.0,10.00
2024-10-11 20:39:41.551,0.47369123,0.7824562,0.9415227,0.51211774,0.43991727,0.39359555,0.34389007,0.6567961,0.39196664,0.43342704,0.12536423,0.63663614,0.4280711,0.0052363263,0.03581143,0.3209058,0.08052897,-0.38690805,0.029892933,0.07951313,802.6374,801.8315,797.3993,814.3223,585.05493,-0.005615234375,0.1318359375,1.0001220703125,-5.9515380859375,9.293670654296875,-4.366455078125,1,1.0,1.0,1.0,1.0,10.00
2024-10-11 20:39:41.551,0.47369123,0.7824562,0.9415227,0.51211774,0.43991727,0.39359555,0.34389007,0.6567961,0.39196664,0.43342704,0.12536423,0.63663614,0.4280711,0.0052363263,0.03581143,0.3209058,0.08052897,-0.38690805,0.029892933,0.07951313,803.0403,799.81683,792.5641,809.89014,747.4359,-0.005615234375,0.1318359375,1.0001220703125,-5.9515380859375,9.293670654296875,-4.366455078125,1,1.0,1.0,1.0,1.0,10.00
2024-10-11 20:39:41.552,0.47369123,0.7824562,0.9415227,0.51211774,0.43991727,0.39359555,0.34389007,0.6567961,0.39196664,0.43342704,0.12536423,0.63663614,0.4280711,0.0052363263,0.03581143,0.3209058,0.08052897,-0.38690805,0.029892933,0.07951313,793.36993,793.7729,793.36993,803.8461,983.1502,-0.005615234375,0.1318359375,1.0001220703125,-5.9515380859375,9.293670654296875,-4.366455078125,1,1.0,1.0,1.0,1.0,10.00
2024-10-11 20:39:41.552,0.47369123,0.7824562,0.9415227,0.51211774,0.43991727,0.39359555,0.34389007,0.6567961,0.39196664,0.43342704,0.12536423,0.63663614,0.4280711,0.0052363263,0.03581143,0.3209058,0.08052897,-0.38690805,0.029892933,0.07951313,787.326,789.7436,799.41394,805.05493,1010.14655,-0.005615234375,0.1318359375,1.0001220703125,-5.9515380859375,9.293670654296875,-4.366455078125,1,1.0,1.0,1.0,1.0,10.00
2024-10-11 20:39:41.553,0.47369123,0.7824562,0.9415227,0.51211774,0.43991727,0.39359555,0.34389007,0.6567961,0.39196664,0.43342704,0.12536423,0.63663614,0.4280711,0.0052363263,0.03581143,0.3209058,0.08052897,-0.38690805,0.029892933,0.07951313,802.23444,796.5934,808.68134,809.4872,643.0769,-0.005615234375,0.1318359375,1.0001220703125,-5.9515380859375,9.293670654296875,-4.366455078125,1,1.0,1.0,1.0,1.0,10.00
2024-10-11 20:39:41.553,0.47369123,0.7824562,0.9415227,0.51211774,0.43991727,0.39359555,0.34389007,0.6567961,0.39196664,0.43342704,0.12536423,0.63663614,0.4280711,0.0052363263,0.03581143,0.3209058,0.08052897,-0.38690805,0.029892933,0.07951313,807.47253,795.38464,811.50183,809.4872,538.71796,-0.005615234375,0.1318359375,1.0001220703125,-5.9515380859375,9.293670654296875,-4.366455078125,1,1.0,1.0,1.0,1.0,10.00
2024-10-11 20:39:41.554,0.47369123,0.7824562,0.9415227,0.51211774,0.43991727,0.39359555,0.34389007,0.6567961,0.39196664,0.43342704,0.12536423,0.63663614,0.4280711,0.0052363263,0.03581143,0.3209058,0.08052897,-0.38690805,0.029892933,0.07951313,802.23444,794.9817,805.05493,808.2784,699.89014,-0.005615234375,0.1318359375,1.0001220703125,-5.9515380859375,9.293670654296875,-4.366455078125,1,1.0,1.0,1.0,1.0,10.00
2024-10-11 20:39:41.555,0.47369123,0.7824562,0.9415227,0.51211774,0.43991727,0.39359555,0.34389007,0.6567961,0.39196664,0.43342704,0.12536423,0.63663614,0.4280711,0.0052363263,0.03581143,0.3209058,0.08052897,-0.38690805,0.029892933,0.07951313,811.50183,800.2198,805.05493,807.0696,698.68134,-0.005615234375,0.1318359375,1.0001220703125,-5.9515380859375,9.293670654296875,-4.366455078125,1,1.0,1.0,1.0,1.0,10.00
2024-10-11 20:39:41.616,0.47369123,0.7824562,0.9415227,0.51211774,0.43991727,0.39359555,0.34389007,0.6567961,0.39196664,0.43342704,0.12536423,0.63663614,0.4280711,0.0052363263,0.03581143,0.3209058,0.08052897,-0.38690805,0.029892933,0.07951313,815.9341,801.4286,807.0696,804.65204,641.8681,-0.01776123046875,0.12615966796875,0.99462890625,-3.865509033203125,12.703094482421875,-3.805694580078125,1,1.0,1.0,1.0,1.0,10.00
2024-10-11 20:39:41.617,0.47369123,0.7824562,0.9415227,0.51211774,0.43991727,0.39359555,0.34389007,0.6567961,0.39196664,0.43342704,0.12536423,0.63663614,0.4280711,0.0052363263,0.03581143,0.3209058,0.08052897,-0.38690805,0.029892933,0.07951313,812.71063,803.0403,805.4579,811.0989,695.8608,-0.01776123046875,0.12615966796875,0.99462890625,-3.865509033203125,12.703094482421875,-3.805694580078125,1,1.0,1.0,1.0,1.0,10.00
2024-10-11 20:39:41.618,0.47369123,0.7824562,0.9415227,0.51211774,0.43991727,0.39359555,0.34389007,0.6567961,0.39196664,0.43342704,0.12536423,0.63663614,0.4280711,0.0052363263,0.03581143,0.3209058,0.08052897,-0.38690805,0.029892933,0.07951313,822.381,803.44324,805.8608,818.3516,802.6374,-0.01776123046875,0.12615966796875,0.99462890625,-3.865509033203125,12.703094482421875,-3.805694580078125,1,1.0,1.0,1.0,1.0,10.00
2024-10-11 20:39:41.618,0.47369123,0.7824562,0.9415227,0.51211774,0.43991727,0.39359555,0.34389007,0.6567961,0.39196664,0.43342704,0.12536423,0.63663614,0.4280711,0.0052363263,0.03581143,0.3209058,0.08052897,-0.38690805,0.029892933,0.07951313,819.15753,800.2198,801.02563,820.3663,695.4579,-0.01776123046875,0.12615966796875,0.99462890625,-3.865509033203125,12.703094482421875,-3.805694580078125,1,1.0,1.0,1.0,1.0,10.00
2024-10-11 20:39:41.619,0.47369123,0.7824562,0.9415227,0.51211774,0.43991727,0.39359555,0.34389007,0.6567961,0.39196664,0.43342704,0.12536423,0.63663614,0.4280711,0.0052363263,0.03581143,0.3209058,0.08052897,-0.38690805,0.029892933,0.07951313,803.0403,798.20514,793.36993,816.7399,629.7802,-0.01776123046875,0.12615966796875,0.99462890625,-3.865509033203125,12.703094482421875,-3.805694580078125,1,1.0,1.0,1.0,1.0,10.00
2024-10-11 20:39:41.620,0.47369123,0.7824562,0.9415227,0.51211774,0.43991727,0.39359555,0.34389007,0.6567961,0.39196664,0.43342704,0.12536423,0.63663614,0.4280711,0.0052363263,0.03581143,0.3209058,0.08052897,-0.38690805,0.029892933,0.07951313,804.65204,799.81683,796.99634,808.2784,783.69965,-0.01776123046875,0.12615966796875,0.99462890625,-3.865509033203125,12.703094482421875,-3.805694580078125,1,1.0,1.0,1.0,1.0,10.00
2024-10-11 20:39:41.620,0.47369123,0.7824562,0.9415227,0.51211774,0.43991727,0.39359555,0.34389007,0.6567961,0.39196664,0.43342704,0.12536423,0.63663614,0.4280711,0.0052363263,0.03581143,0.3209058,0.08052897,-0.38690805,0.029892933,0.07951313,808.2784,797.3993,807.0696,803.8461,1171.7216,-0.01776123046875,0.12615966796875,0.99462890625,-3.865509033203125,12.703094482421875,-3.805694580078125,1,1.0,1.0,1.0,1.0,10.00
2024-10-11 20:39:41.621,0.47369123,0.7824562,0.9415227,0.51211774,0.43991727,0.39359555,0.34389007,0.6567961,0.39196664,0.43342704,0.12536423,0.63663614,0.4280711,0.0052363263,0.03581143,0.3209058,0.08052897,-0.38690805,0.029892933,0.07951313,805.05493,792.1612,805.4579,808.68134,1373.5897,-0.01776123046875,0.12615966796875,0.99462890625,-3.865509033203125,12.703094482421875,-3.805694580078125,1,1.0,1.0,1.0,1.0,10.00
2024-10-11 20:39:41.621,0.47369123,0.7824562,0.9415227,0.51211774,0.43991727,0.39359555,0.34389007,0.6567961,0.39196664,0.43342704,0.12536423,0.63663614,0.4280711,0.0052363263,0.03581143,0.3209058,0.08052897,-0.38690805,0.029892933,0.07951313,799.011,795.78754,804.2491,807.0696,981.9414,-0.01776123046875,0.12615966796875,0.99462890625,-3.865509033203125,12.703094482421875,-3.805694580078125,1,1.0,1.0,1.0,1.0,10.00
2024-10-11 20:39:41.622,0.47369123,0.7824562,0.9415227,0.51211774,0.43991727,0.39359555,0.34389007,0.6567961,0.39196664,0.43342704,0.12536423,0.63663614,0.4280711,0.0052363263,0.03581143,0.3209058,0.08052897,-0.38690805,0.029892933,0.07951313,799.81683,798.60803,809.4872,803.0403,730.5128,-0.01776123046875,0.12615966796875,0.99462890625,-3.865509033203125,12.703094482421875,-3.805694580078125,1,1.0,1.0,1.0,1.0,10.00
2024-10-11 20:39:41.623,0.47369123,0.7824562,0.9415227,0.51211774,0.43991727,0.39359555,0.34389007,0.6567961,0.39196664,0.43342704,0.12536423,0.63663614,0.4280711,0.0052363263,0.03581143,0.3209058,0.08052897,-0.38690805,0.029892933,0.07951313,803.0403,799.81683,804.2491,805.8608,788.93774,-0.01776123046875,0.12615966796875,0.99462890625,-3.865509033203125,12.703094482421875,-3.805694580078125,1,1.0,1.0,1.0,1.0,10.00
2024-10-11 20:39:41.623,0.47369123,0.7795726,0.9405869,0.51211774,0.43991727,0.3830686,0.3445142,0.6567961,0.39196664,0.43296218,0.12536423,0.63663614,0.4280711,0.01634031,0.03921165,0.3209058,0.08052897,-0.37857807,0.033558134,0.07951313,805.4579,800.2198,800.6227,807.0696,613.2601,-0.01776123046875,0.12615966796875,0.99462890625,-3.865509033203125,12.703094482421875,-3.805694580078125,1,1.0,1.0,1.0,1.0,10.00
2024-10-11 20:39:41.653,0.47369123,0.7795726,0.9405869,0.51211774,0.43991727,0.3830686,0.3445142,0.6567961,0.39196664,0.43296218,0.12536423,0.63663614,0.4280711,0.01634031,0.03921165,0.3209058,0.08052897,-0.37857807,0.033558134,0.07951313,803.8461,797.8022,801.8315,803.8461,492.78387,-0.05194091796875,0.11688232421875,0.99267578125,-2.564544677734375,16.650848388671875,-3.289794921875,1,1.0,1.0,1.0,1.0,10.00
2024-10-11 20:39:41.654,0.47369123,0.7795726,0.9405869,0.51211774,0.43991727,0.3830686,0.3445142,0.6567961,0.39196664,0.43296218,0.12536423,0.63663614,0.4280711,0.01634031,0.03921165,0.3209058,0.08052897,-0.37857807,0.033558134,0.07951313,801.8315,794.17584,797.3993,801.4286,583.8461,-0.05194091796875,0.11688232421875,0.99267578125,-2.564544677734375,16.650848388671875,-3.289794921875,1,1.0,1.0,1.0,1.0,10.00
2024-10-11 20:39:41.654,0.47369123,0.7795726,0.9405869,0.51211774,0.43991727,0.3830686,0.3445142,0.6567961,0.39196664,0.43296218,0.12536423,0.63663614,0.4280711,0.01634031,0.03921165,0.3209058,0.08052897,-0.37857807,0.033558134,0.07951313,811.0989,795.78754,799.41394,807.0696,677.72894,-0.05194091796875,0.11688232421875,0.99267578125,-2.564544677734375,16.650848388671875,-3.289794921875,1,1.0,1.0,1.0,1.0,10.00
2024-10-11 20:39:41.655,0.47369123,0.7795726,0.9405869,0.51211774,0.43991727,0.3830686,0.3445142,0.6567961,0.39196664,0.43296218,0.12536423,0.63663614,0.4280711,0.01634031,0.03921165,0.3209058,0.08052897,-0.37857807,0.033558134,0.07951313,809.89014,798.60803,799.011,801.02563,672.49084,-0.05194091796875,0.11688232421875,0.99267578125,-2.564544677734375,16.650848388671875,-3.289794921875,1,1.0,1.0,1.0,1.0,10.00
2024-10-11 20:39:41.655,0.47369123,0.7795726,0.9405869,0.51211774,0.43991727,0.3830686,0.3445142,0.6567961,0.39196664,0.43296218,0.12536423,0.63663614,0.4280711,0.01634031,0.03921165,0.3209058,0.08052897,-0.37857807,0.033558134,0.07951313,796.5934,792.96704,797.8022,793.36993,663.22345,-0.05194091796875,0.11688232421875,0.99267578125,-2.564544677734375,16.650848388671875,-3.289794921875,1,1.0,1.0,1.0,1.0,10.00
2024-10-11 20:39:41.656,0.47369123,0.7795726,0.9405869,0.51211774,0.43991727,0.3830686,0.3445142,0.6567961,0.39196664,0.43296218,0.12536423,0.63663614,0.4280711,0.01634031,0.03921165,0.3209058,0.08052897,-0.37857807,0.033558134,0.07951313,796.5934,789.34064,795.78754,801.02563,890.07324,-0.05194091796875,0.11688232421875,0.99267578125,-2.564544677734375,16.650848388671875,-3.289794921875,1,1.0,1.0,1.0,1.0,10.00
2024-10-11 20:39:41.657,0.47369123,0.7795726,0.9405869,0.51211774,0.43991727,0.3830686,0.3445142,0.6567961,0.39196664,0.43296218,0.12536423,0.63663614,0.4280711,0.01634031,0.03921165,0.3209058,0.08052897,-0.37857807,0.033558134,0.07951313,801.4286,790.14655,794.17584,809.0842,1032.3077,-0.05194091796875,0.11688232421875,0.99267578125,-2.564544677734375,16.650848388671875,-3.289794921875,1,1.0,1.0,1.0,1.0,10.00
2024-10-11 20:39:41.657,0.47369123,0.7795726,0.9405869,0.51211774,0.43991727,0.3830686,0.3445142,0.6567961,0.39196664,0.43296218,0.12536423,0.63663614,0.4280711,0.01634031,0.03921165,0.3209058,0.08052897,-0.37857807,0.033558134,0.07951313,800.6227,788.5348,796.1905,804.2491,768.7912,-0.05194091796875,0.11688232421875,0.99267578125,-2.564544677734375,16.650848388671875,-3.289794921875,1,1.0,1.0,1.0,1.0,10.00
2024-10-11 20:39:41.658,0.47369123,0.7795726,0.9405869,0.51211774,0.43991727,0.3830686,0.3445142,0.6567961,0.39196664,0.43296218,0.12536423,0.63663614,0.4280711,0.01634031,0.03921165,0.3209058,0.08052897,-0.37857807,0.033558134,0.07951313,814.7253,796.1905,797.3993,801.8315,593.91943,-0.05194091796875,0.11688232421875,0.99267578125,-2.564544677734375,16.650848388671875,-3.289794921875,1,1.0,1.0,1.0,1.0,10.00
2024-10-11 20:39:41.659,0.47369123,0.7795726,0.9405869,0.51211774,0.43991727,0.3830686,0.3445142,0.6567961,0.39196664,0.43296218,0.12536423,0.63663614,0.4280711,0.01634031,0.03921165,0.3209058,0.08052897,-0.37857807,0.033558134,0.07951313,820.3663,798.20514,796.1905,803.0403,668.46155,-0.05194091796875,0.11688232421875,0.99267578125,-2.564544677734375,16.650848388671875,-3.289794921875,1,1.0,1.0,1.0,1.0,10.00
2024-10-11 20:39:41.660,0.47369123,0.7795726,0.9405869,0.51211774,0.43991727,0.3830686,0.3445142,0.6567961,0.39196664,0.43296218,0.12536423,0.63663614,0.4280711,0.01634031,0.03921165,0.3209058,0.08052897,-0.37857807,0.033558134,0.07951313,806.6667,799.81683,792.1612,800.2198,762.74725,-0.05194091796875,0.11688232421875,0.99267578125,-2.564544677734375,16.650848388671875,-3.289794921875,1,1.0,1.0,1.0,1.0,10.00
2024-10-11 20:39:41.661,0.47369123,0.7795726,0.9405869,0.51211774,0.43991727,0.3830686,0.3445142,0.6567961,0.39196664,0.43296218,0.12536423,0.63663614,0.4280711,0.01634031,0.03921165,0.3209058,0.08052897,-0.37857807,0.033558134,0.07951313,792.5641,801.8315,790.54944,803.44324,730.5128,-0.05194091796875,0.11688232421875,0.99267578125,-2.564544677734375,16.650848388671875,-3.289794921875,1,1.0,1.0,1.0,1.0,10.00
2024-10-11 20:39:41.687,0.47369123,0.7795726,0.9405869,0.51211774,0.43991727,0.3830686,0.3445142,0.6567961,0.39196664,0.43296218,0.12536423,0.63663614,0.4280711,0.01634031,0.03921165,0.3209058,0.08052897,-0.37857807,0.033558134,0.07951313,808.2784,797.8022,795.78754,807.8755,653.5531,-0.07757568359375,0.11181640625,0.9912109375,-1.24114990234375,17.30133056640625,-1.816864013671875,1,1.0,1.0,1.0,1.0,10.00
2024-10-11 20:39:41.688,0.47369123,0.7795726,0.9405869,0.51211774,0.43991727,0.3830686,0.3445142,0.6567961,0.39196664,0.43296218,0.12536423,0.63663614,0.4280711,0.01634031,0.03921165,0.3209058,0.08052897,-0.37857807,0.033558134,0.07951313,820.3663,792.1612,796.1905,806.6667,821.978,-0.07757568359375,0.11181640625,0.9912109375,-1.24114990234375,17.30133056640625,-1.816864013671875,1,1.0,1.0,1.0,1.0,10.00
2024-10-11 20:39:41.689,0.47369123,0.7795726,0.9405869,0.51211774,0.43991727,0.3830686,0.3445142,0.6567961,0.39196664,0.43296218,0.12536423,0.63663614,0.4280711,0.01634031,0.03921165,0.3209058,0.08052897,-0.37857807,0.033558134,0.07951313,808.2784,794.17584,792.1612,803.0403,874.35895,-0.07757568359375,0.11181640625,0.9912109375,-1.24114990234375,17.30133056640625,-1.816864013671875,1,1.0,1.0,1.0,1.0,10.00
2024-10-11 20:39:41.689,0.47369123,0.7795726,0.9405869,0.51211774,0.43991727,0.3830686,0.3445142,0.6567961,0.39196664,0.43296218,0.12536423,0.63663614,0.4280711,0.01634031,0.03921165,0.3209058,0.08052897,-0.37857807,0.033558134,0.07951313,803.44324,796.99634,798.20514,803.44324,709.15753,-0.07757568359375,0.11181640625,0.9912109375,-1.24114990234375,17.30133056640625,-1.816864013671875,1,1.0,1.0,1.0,1.0,10.00
2024-10-11 20:39:41.690,0.47369123,0.7795726,0.9405869,0.51211774,0.43991727,0.3830686,0.3445142,0.6567961,0.39196664,0.43296218,0.12536423,0.63663614,0.4280711,0.01634031,0.03921165,0.3209058,0.08052897,-0.37857807,0.033558134,0.07951313,807.0696,798.60803,803.8461,807.8755,643.0769,-0.07757568359375,0.11181640625,0.9912109375,-1.24114990234375,17.30133056640625,-1.816864013671875,1,1.0,1.0,1.0,1.0,10.00
2024-10-11 20:39:41.690,0.47369123,0.7795726,0.9405869,0.51211774,0.43991727,0.3830686,0.3445142,0.6567961,0.39196664,0.43296218,0.12536423,0.63663614,0.4280711,0.01634031,0.03921165,0.3209058,0.08052897,-0.37857807,0.033558134,0.07951313,799.011,794.57874,797.8022,817.1429,953.73627,-0.07757568359375,0.11181640625,0.9912109375,-1.24114990234375,17.30133056640625,-1.816864013671875,1,1.0,1.0,1.0,1.0,10.00
2024-10-11 20:39:41.691,0.47369123,0.7795726,0.9405869,0.51211774,0.43991727,0.3830686,0.3445142,0.6567961,0.39196664,0.43296218,0.12536423,0.63663614,0.4280711,0.01634031,0.03921165,0.3209058,0.08052897,-0.37857807,0.033558134,0.07951313,803.0403,790.14655,800.2198,835.2747,1282.1245,-0.07757568359375,0.11181640625,0.9912109375,-1.24114990234375,17.30133056640625,-1.816864013671875,1,1.0,1.0,1.0,1.0,10.00
2024-10-11 20:39:41.692,0.47369123,0.7795726,0.9405869,0.51211774,0.43991727,0.3830686,0.3445142,0.6567961,0.39196664,0.43296218,0.12536423,0.63663614,0.4280711,0.01634031,0.03921165,0.3209058,0.08052897,-0.37857807,0.033558134,0.07951313,806.6667,801.02563,799.011,817.5458,872.3443,-0.07757568359375,0.11181640625,0.9912109375,-1.24114990234375,17.30133056640625,-1.816864013671875,1,1.0,1.0,1.0,1.0,10.00
2024-10-11 20:39:41.693,0.47369123,0.7795726,0.9405869,0.51211774,0.43991727,0.3830686,0.3445142,0.6567961,0.39196664,0.43296218,0.12536423,0.63663614,0.4280711,0.01634031,0.03921165,0.3209058,0.08052897,-0.37857807,0.033558134,0.07951313,803.44324,801.4286,794.17584,798.20514,678.93774,-0.07757568359375,0.11181640625,0.9912109375,-1.24114990234375,17.30133056640625,-1.816864013671875,1,1.0,1.0,1.0,1.0,10.00
2024-10-11 20:39:41.693,0.47369123,0.7795726,0.9405869,0.51211774,0.43991727,0.3830686,0.3445142,0.6567961,0.39196664,0.43296218,0.12536423,0.63663614,0.4280711,0.01634031,0.03921165,0.3209058,0.08052897,-0.37857807,0.033558134,0.07951313,815.9341,796.1905,798.60803,807.0696,767.98535,-0.07757568359375,0.11181640625,0.9912109375,-1.24114990234375,17.30133056640625,-1.816864013671875,1,1.0,1.0,1.0,1.0,10.00
2024-10-11 20:39:41.694,0.47369123,0.7795726,0.9405869,0.51211774,0.43991727,0.3830686,0.3445142,0.6567961,0.39196664,0.43296218,0.12536423,0.63663614,0.4280711,0.01634031,0.03921165,0.3209058,0.08052897,-0.37857807,0.033558134,0.07951313,810.293,798.20514,801.02563,806.26373,649.5238,-0.07757568359375,0.11181640625,0.9912109375,-1.24114990234375,17.30133056640625,-1.816864013671875,1,1.0,1.0,1.0,1.0,10.00
2024-10-11 20:39:41.695,0.47369123,0.7795726,0.9405869,0.51211774,0.43991727,0.3830686,0.3445142,0.6567961,0.39196664,0.43296218,0.12536423,0.63663614,0.4280711,0.01634031,0.03921165,0.3209058,0.08052897,-0.37857807,0.033558134,0.07951313,797.3993,798.20514,794.57874,799.41394,635.0183,-0.07757568359375,0.11181640625,0.9912109375,-1.24114990234375,17.30133056640625,-1.816864013671875,1,1.0,1.0,1.0,1.0,10.00
2024-10-11 20:39:41.749,0.47369123,0.7795726,0.9405869,0.51211774,0.43991727,0.3830686,0.3445142,0.6567961,0.39196664,0.43296218,0.12536423,0.63663614,0.4280711,0.01634031,0.03921165,0.3209058,0.08052897,-0.37857807,0.033558134,0.07951313,799.41394,796.1905,794.57874,806.6667,696.6667,-0.07757568359375,0.11181640625,0.9912109375,-1.24114990234375,17.30133056640625,-1.816864013671875,1,1.0,1.0,1.0,1.0,10.00
2024-10-11 20:39:41.750,0.47369123,0.77771705,0.9395076,0.51211774,0.43991727,0.37123755,0.34532115,0.6567961,0.39196664,0.42604712,0.1287945,0.63663614,0.4280711,0.02564501,0.04724943,0.3209058,0.08052897,-0.3703275,0.037063286,0.07951313,809.0842,805.4579,795.38464,812.71063,656.3736,-0.07757568359375,0.11181640625,0.9912109375,-1.24114990234375,17.30133056640625,-1.816864013671875,1,1.0,1.0,1.0,1.0,10.00
2024-10-11 20:39:41.755,0.47369123,0.77771705,0.9395076,0.51211774,0.43991727,0.37123755,0.34532115,0.6567961,0.39196664,0.42604712,0.1287945,0.63663614,0.4280711,0.02564501,0.04724943,0.3209058,0.08052897,-0.3703275,0.037063286,0.07951313,810.293,809.4872,788.5348,805.05493,696.26373,-0.07757568359375,0.11181640625,0.9912109375,-1.24114990234375,17.30133056640625,-1.816864013671875,1,1.0,1.0,1.0,1.0,10.00
2024-10-11 20:39:41.755,0.47369123,0.77771705,0.9395076,0.51211774,0.43991727,0.37123755,0.34532115,0.6567961,0.39196664,0.42604712,0.1287945,0.63663614,0.4280711,0.02564501,0.04724943,0.3209058,0.08052897,-0.3703275,0.037063286,0.07951313,814.7253,799.81683,794.17584,808.68134,736.9597,-0.07757568359375,0.11181640625,0.9912109375,-1.24114990234375,17.30133056640625,-1.816864013671875,1,1.0,1.0,1.0,1.0,10.00
2024-10-11 20:39:41.756,0.47369123,0.77771705,0.9395076,0.51211774,0.43991727,0.37123755,0.34532115,0.6567961,0.39196664,0.42604712,0.1287945,0.63663614,0.4280711,0.02564501,0.04724943,0.3209058,0.08052897,-0.3703275,0.037063286,0.07951313,813.91943,796.99634,805.4579,808.2784,700.696,-0.07757568359375,0.11181640625,0.9912109375,-1.24114990234375,17.30133056640625,-1.816864013671875,1,1.0,1.0,1.0,1.0,10.00
2024-10-11 20:39:41.757,0.47369123,0.77771705,0.9395076,0.51211774,0.43991727,0.37123755,0.34532115,0.6567961,0.39196664,0.42604712,0.1287945,0.63663614,0.4280711,0.02564501,0.04724943,0.3209058,0.08052897,-0.3703275,0.037063286,0.07951313,799.81683,794.17584,803.0403,801.4286,832.8571,-0.07757568359375,0.11181640625,0.9912109375,-1.24114990234375,17.30133056640625,-1.816864013671875,1,1.0,1.0,1.0,1.0,10.00
2024-10-11 20:39:41.757,0.47369123,0.77771705,0.9395076,0.51211774,0.43991727,0.37123755,0.34532115,0.6567961,0.39196664,0.42604712,0.1287945,0.63663614,0.4280711,0.02564501,0.04724943,0.3209058,0.08052897,-0.3703275,0.037063286,0.07951313,809.0842,794.9817,802.23444,800.2198,845.34796,-0.07757568359375,0.11181640625,0.9912109375,-1.24114990234375,17.30133056640625,-1.816864013671875,1,1.0,1.0,1.0,1.0,10.00
2024-10-11 20:39:41.758,0.47369123,0.77771705,0.9395076,0.51211774,0.43991727,0.37123755,0.34532115,0.6567961,0.39196664,0.42604712,0.1287945,0.63663614,0.4280711,0.02564501,0.04724943,0.3209058,0.08052897,-0.3703275,0.037063286,0.07951313,802.23444,799.81683,801.8315,802.23444,679.34064,-0.07757568359375,0.11181640625,0.9912109375,-1.24114990234375,17.30133056640625,-1.816864013671875,1,1.0,1.0,1.0,1.0,10.00
2024-10-11 20:39:41.759,0.47369123,0.77771705,0.9395076,0.51211774,0.43991727,0.37123755,0.34532115,0.6567961,0.39196664,0.42604712,0.1287945,0.63663614,0.4280711,0.02564501,0.04724943,0.3209058,0.08052897,-0.3703275,0.037063286,0.07951313,794.17584,797.3993,804.2491,809.4872,823.5897,-0.07757568359375,0.11181640625,0.9912109375,-1.24114990234375,17.30133056640625,-1.816864013671875,1,1.0,1.0,1.0,1.0,10.00
2024-10-11 20:39:41.760,0.47369123,0.77771705,0.9395076,0.51211774,0.43991727,0.37123755,0.34532115,0.6567961,0.39196664,0.42604712,0.1287945,0.63663614,0.4280711,0.02564501,0.04724943,0.3209058,0.08052897,-0.3703275,0.037063286,0.07951313,804.65204,794.9817,804.65204,819.9634,996.4469,-0.07757568359375,0.11181640625,0.9912109375,-1.24114990234375,17.30133056640625,-1.816864013671875,1,1.0,1.0,1.0,1.0,10.00
2024-10-11 20:39:41.761,0.47369123,0.77771705,0.9395076,0.51211774,0.43991727,0.37123755,0.34532115,0.6567961,0.39196664,0.42604712,0.1287945,0.63663614,0.4280711,0.02564501,0.04724943,0.3209058,0.08052897,-0.3703275,0.037063286,0.07951313,808.2784,797.8022,803.0403,815.12823,639.45056,-0.07757568359375,0.11181640625,0.9912109375,-1.24114990234375,17.30133056640625,-1.816864013671875,1,1.0,1.0,1.0,1.0,10.00
2024-10-11 20:39:41.761,0.47369123,0.77771705,0.9395076,0.51211774,0.43991727,0.37123755,0.34532115,0.6567961,0.39196664,0.42604712,0.1287945,0.63663614,0.4280711,0.02564501,0.04724943,0.3209058,0.08052897,-0.3703275,0.037063286,0.07951313,808.68134,798.60803,805.05493,813.91943,638.6447,-0.07757568359375,0.11181640625,0.9912109375,-1.24114990234375,17.30133056640625,-1.816864013671875,1,1.0,1.0,1.0,1.0,10.00
2024-10-11 20:39:41.787,0.47369123,0.77771705,0.9395076,0.51211774,0.43991727,0.37123755,0.34532115,0.6567961,0.39196664,0.42604712,0.1287945,0.63663614,0.4280711,0.02564501,0.04724943,0.3209058,0.08052897,-0.3703275,0.037063286,0.07951313,817.1429,786.9231,802.6374,814.7253,755.4945,-0.09552001953125,0.11767578125,0.98919677734375,-0.43365478515625,13.59283447265625,0.5682373046875,1,1.0,1.0,1.0,1.0,10.00
2024-10-11 20:39:41.788,0.47369123,0.77771705,0.9395076,0.51211774,0.43991727,0.37123755,0.34532115,0.6567961,0.39196664,0.42604712,0.1287945,0.63663614,0.4280711,0.02564501,0.04724943,0.3209058,0.08052897,-0.3703275,0.037063286,0.07951313,822.7839,788.93774,794.17584,807.47253,710.7692,-0.09552001953125,0.11767578125,0.98919677734375,-0.43365478515625,13.59283447265625,0.5682373046875,1,1.0,1.0,1.0,1.0,10.00
2024-10-11 20:39:41.788,0.47369123,0.77771705,0.9395076,0.51211774,0.43991727,0.37123755,0.34532115,0.6567961,0.39196664,0.42604712,0.1287945,0.63663614,0.4280711,0.02564501,0.04724943,0.3209058,0.08052897,-0.3703275,0.037063286,0.07951313,811.9048,793.7729,799.41394,801.8315,669.2674,-0.09552001953125,0.11767578125,0.98919677734375,-0.43365478515625,13.59283447265625,0.5682373046875,1,1.0,1.0,1.0,1.0,10.00
2024-10-11 20:39:41.789,0.47369123,0.77771705,0.9395076,0.51211774,0.43991727,0.37123755,0.34532115,0.6567961,0.39196664,0.42604712,0.1287945,0.63663614,0.4280711,0.02564501,0.04724943,0.3209058,0.08052897,-0.3703275,0.037063286,0.07951313,812.71063,792.96704,805.4579,807.0696,733.3333,-0.09552001953125,0.11767578125,0.98919677734375,-0.43365478515625,13.59283447265625,0.5682373046875,1,1.0,1.0,1.0,1.0,10.00
2024-10-11 20:39:41.789,0.47369123,0.77771705,0.9395076,0.51211774,0.43991727,0.37123755,0.34532115,0.6567961,0.39196664,0.42604712,0.1287945,0.63663614,0.4280711,0.02564501,0.04724943,0.3209058,0.08052897,-0.3703275,0.037063286,0.07951313,813.91943,799.41394,805.05493,814.3223,850.58606,-0.09552001953125,0.11767578125,0.98919677734375,-0.43365478515625,13.59283447265625,0.5682373046875,1,1.0,1.0,1.0,1.0,10.00
2024-10-11 20:39:41.790,0.47369123,0.77771705,0.9395076,0.51211774,0.43991727,0.37123755,0.34532115,0.6567961,0.39196664,0.42604712,0.1287945,0.63663614,0.4280711,0.02564501,0.04724943,0.3209058,0.08052897,-0.3703275,0.037063286,0.07951313,803.0403,795.38464,804.2491,808.68134,901.75824,-0.09552001953125,0.11767578125,0.98919677734375,-0.43365478515625,13.59283447265625,0.5682373046875,1,1.0,1.0,1.0,1.0,10.00
2024-10-11 20:39:41.790,0.47369123,0.77771705,0.9395076,0.51211774,0.43991727,0.37123755,0.34532115,0.6567961,0.39196664,0.42604712,0.1287945,0.63663614,0.4280711,0.02564501,0.04724943,0.3209058,0.08052897,-0.3703275,0.037063286,0.07951313,807.47253,795.78754,802.23444,813.5165,853.00366,-0.09552001953125,0.11767578125,0.98919677734375,-0.43365478515625,13.59283447265625,0.5682373046875,1,1.0,1.0,1.0,1.0,10.00
2024-10-11 20:39:41.791,0.47369123,0.77771705,0.9395076,0.51211774,0.43991727,0.37123755,0.34532115,0.6567961,0.39196664,0.42604712,0.1287945,0.63663614,0.4280711,0.02564501,0.04724943,0.3209058,0.08052897,-0.3703275,0.037063286,0.07951313,808.2784,803.44324,796.99634,810.696,922.3077,-0.09552001953125,0.11767578125,0.98919677734375,-0.43365478515625,13.59283447265625,0.5682373046875,1,1.0,1.0,1.0,1.0,10.00
2024-10-11 20:39:41.792,0.47369123,0.77771705,0.9395076,0.51211774,0.43991727,0.37123755,0.34532115,0.6567961,0.39196664,0.42604712,0.1287945,0.63663614,0.4280711,0.02564501,0.04724943,0.3209058,0.08052897,-0.3703275,0.037063286,0.07951313,807.0696,797.8022,800.6227,812.71063,1116.5201,-0.09552001953125,0.11767578125,0.98919677734375,-0.43365478515625,13.59283447265625,0.5682373046875,1,1.0,1.0,1.0,1.0,10.00
2024-10-11 20:39:41.792,0.47369123,0.77771705,0.9395076,0.51211774,0.43991727,0.37123755,0.34532115,0.6567961,0.39196664,0.42604712,0.1287945,0.63663614,0.4280711,0.02564501,0.04724943,0.3209058,0.08052897,-0.3703275,0.037063286,0.07951313,811.0989,795.38464,797.3993,812.3077,876.77655,-0.09552001953125,0.11767578125,0.98919677734375,-0.43365478515625,13.59283447265625,0.5682373046875,1,1.0,1.0,1.0,1.0,10.00
2024-10-11 20:39:41.793,0.47369123,0.77771705,0.9395076,0.51211774,0.43991727,0.37123755,0.34532115,0.6567961,0.39196664,0.42604712,0.1287945,0.63663614,0.4280711,0.02564501,0.04724943,0.3209058,0.08052897,-0.3703275,0.037063286,0.07951313,811.50183,795.78754,794.57874,807.0696,666.4469,-0.09552001953125,0.11767578125,0.98919677734375,-0.43365478515625,13.59283447265625,0.5682373046875,1,1.0,1.0,1.0,1.0,10.00
2024-10-11 20:39:41.793,0.47369123,0.77771705,0.9395076,0.51211774,0.43991727,0.37123755,0.34532115,0.6567961,0.39196664,0.42604712,0.1287945,0.63663614,0.4280711,0.02564501,0.04724943,0.3209058,0.08052897,-0.3703275,0.037063286,0.07951313,813.1135,794.17584,803.0403,807.8755,746.2271,-0.09552001953125,0.11767578125,0.98919677734375,-0.43365478515625,13.59283447265625,0.5682373046875,1,1.0,1.0,1.0,1.0,10.00
2024-10-11 20:39:41.850,0.47369123,0.77771705,0.9395076,0.51211774,0.43991727,0.37123755,0.34532115,0.6567961,0.39196664,0.42604712,0.1287945,0.63663614,0.4280711,0.02564501,0.04724943,0.3209058,0.08052897,-0.3703275,0.037063286,0.07951313,814.7253,794.9817,803.8461,806.6667,809.0842,-0.1231689453125,0.116455078125,0.99945068359375,-0.814971923828125,12.142333984375,3.177642822265625,1,1.0,1.0,1.0,1.0,10.00
2024-10-11 20:39:41.851,0.47369123,0.77771705,0.9395076,0.51211774,0.43991727,0.37123755,0.34532115,0.6567961,0.39196664,0.42604712,0.1287945,0.63663614,0.4280711,0.02564501,0.04724943,0.3209058,0.08052897,-0.3703275,0.037063286,0.07951313,810.696,795.78754,800.2198,801.8315,696.6667,-0.1231689453125,0.116455078125,0.99945068359375,-0.814971923828125,12.142333984375,3.177642822265625,1,1.0,1.0,1.0,1.0,10.00
2024-10-11 20:39:41.852,0.47369123,0.77771705,0.9395076,0.51211774,0.43991727,0.37123755,0.34532115,0.6567961,0.39196664,0.42604712,0.1287945,0.63663614,0.4280711,0.02564501,0.04724943,0.3209058,0.08052897,-0.3703275,0.037063286,0.07951313,812.71063,796.5934,799.81683,799.41394,639.45056,-0.1231689453125,0.116455078125,0.99945068359375,-0.814971923828125,12.142333984375,3.177642822265625,1,1.0,1.0,1.0,1.0,10.00
2024-10-11 20:39:41.852,0.47369123,0.77689177,0.9379313,0.51211774,0.43991727,0.35773,0.34863585,0.6567961,0.39196664,0.42343804,0.13061342,0.63663614,0.4280711,0.02874087,0.061019074,0.3209058,0.08052897,-0.36297452,0.03669358,0.07951313,805.4579,797.8022,794.57874,801.8315,778.46155,-0.1231689453125,0.116455078125,0.99945068359375,-0.814971923828125,12.142333984375,3.177642822265625,1,1.0,1.0,1.0,1.0,10.00
2024-10-11 20:39:41.857,0.47369123,0.77689177,0.9379313,0.51211774,0.43991727,0.35773,0.34863585,0.6567961,0.39196664,0.42343804,0.13061342,0.63663614,0.4280711,0.02874087,0.061019074,0.3209058,0.08052897,-0.36297452,0.03669358,0.07951313,807.0696,799.81683,796.1905,807.47253,934.3956,-0.1231689453125,0.116455078125,0.99945068359375,-0.814971923828125,12.142333984375,3.177642822265625,1,1.0,1.0,1.0,1.0,10.00
2024-10-11 20:39:41.858,0.47369123,0.77689177,0.9379313,0.51211774,0.43991727,0.35773,0.34863585,0.6567961,0.39196664,0.42343804,0.13061342,0.63663614,0.4280711,0.02874087,0.061019074,0.3209058,0.08052897,-0.36297452,0.03669358,0.07951313,815.12823,801.02563,801.8315,810.696,1021.02563,-0.1231689453125,0.116455078125,0.99945068359375,-0.814971923828125,12.142333984375,3.177642822265625,1,1.0,1.0,1.0,1.0,10.00
2024-10-11 20:39:41.858,0.47369123,0.77689177,0.9379313,0.51211774,0.43991727,0.35773,0.34863585,0.6567961,0.39196664,0.42343804,0.13061342,0.63663614,0.4280711,0.02874087,0.061019074,0.3209058,0.08052897,-0.36297452,0.03669358,0.07951313,810.696,797.8022,800.6227,808.2784,913.8461,-0.1231689453125,0.116455078125,0.99945068359375,-0.814971923828125,12.142333984375,3.177642822265625,1,1.0,1.0,1.0,1.0,10.00
2024-10-11 20:39:41.859,0.47369123,0.77689177,0.9379313,0.51211774,0.43991727,0.35773,0.34863585,0.6567961,0.39196664,0.42343804,0.13061342,0.63663614,0.4280711,0.02874087,0.061019074,0.3209058,0.08052897,-0.36297452,0.03669358,0.07951313,802.23444,793.36993,799.41394,801.4286,801.4286,-0.1231689453125,0.116455078125,0.99945068359375,-0.814971923828125,12.142333984375,3.177642822265625,1,1.0,1.0,1.0,1.0,10.00
2024-10-11 20:39:41.859,0.47369123,0.77689177,0.9379313,0.51211774,0.43991727,0.35773,0.34863585,0.6567961,0.39196664,0.42343804,0.13061342,0.63663614,0.4280711,0.02874087,0.061019074,0.3209058,0.08052897,-0.36297452,0.03669358,0.07951313,812.71063,793.7729,795.38464,813.5165,1271.2454,-0.1231689453125,0.116455078125,0.99945068359375,-0.814971923828125,12.142333984375,3.177642822265625,1,1.0,1.0,1.0,1.0,10.00
2024-10-11 20:39:41.860,0.47369123,0.77689177,0.9379313,0.51211774,0.43991727,0.35773,0.34863585,0.6567961,0.39196664,0.42343804,0.13061342,0.63663614,0.4280711,0.02874087,0.061019074,0.3209058,0.08052897,-0.36297452,0.03669358,0.07951313,819.15753,796.99634,796.1905,830.0366,1381.2454,-0.1231689453125,0.116455078125,0.99945068359375,-0.814971923828125,12.142333984375,3.177642822265625,1,1.0,1.0,1.0,1.0,10.00
2024-10-11 20:39:41.860,0.47369123,0.77689177,0.9379313,0.51211774,0.43991727,0.35773,0.34863585,0.6567961,0.39196664,0.42343804,0.13061342,0.63663614,0.4280711,0.02874087,0.061019074,0.3209058,0.08052897,-0.36297452,0.03669358,0.07951313,808.68134,794.17584,797.3993,813.91943,934.3956,-0.1231689453125,0.116455078125,0.99945068359375,-0.814971923828125,12.142333984375,3.177642822265625,1,1.0,1.0,1.0,1.0,10.00
2024-10-11 20:39:41.861,0.47369123,0.77689177,0.9379313,0.51211774,0.43991727,0.35773,0.34863585,0.6567961,0.39196664,0.42343804,0.13061342,0.63663614,0.4280711,0.02874087,0.061019074,0.3209058,0.08052897,-0.36297452,0.03669358,0.07951313,804.2491,791.75824,796.1905,801.02563,743.00366,-0.1231689453125,0.116455078125,0.99945068359375,-0.814971923828125,12.142333984375,3.177642822265625,1,1.0,1.0,1.0,1.0,10.00
2024-10-11 20:39:41.862,0.47369123,0.77689177,0.9379313,0.51211774,0.43991727,0.35773,0.34863585,0.6567961,0.39196664,0.42343804,0.13061342,0.63663614,0.4280711,0.02874087,0.061019074,0.3209058,0.08052897,-0.36297452,0.03669358,0.07951313,811.9048,790.54944,798.60803,804.2491,695.8608,-0.14837646484375,0.1165771484375,0.989501953125,-0.7177734375,10.250701904296875,3.90289306640625,1,1.0,1.0,1.0,1.0,10.00
2024-10-11 20:39:41.862,0.47369123,0.77689177,0.9379313,0.51211774,0.43991727,0.35773,0.34863585,0.6567961,0.39196664,0.42343804,0.13061342,0.63663614,0.4280711,0.02874087,0.061019074,0.3209058,0.08052897,-0.36297452,0.03669358,0.07951313,803.8461,791.3553,794.57874,799.81683,624.5421,-0.14837646484375,0.1165771484375,0.989501953125,-0.7177734375,10.250701904296875,3.90289306640625,1,1.0,1.0,1.0,1.0,10.00
2024-10-11 20:39:41.863,0.47369123,0.77689177,0.9379313,0.51211774,0.43991727,0.35773,0.34863585,0.6567961,0.39196664,0.42343804,0.13061342,0.63663614,0.4280711,0.02874087,0.061019074,0.3209058,0.08052897,-0.36297452,0.03669358,0.07951313,790.9524,796.1905,796.1905,795.38464,656.77655,-0.14837646484375,0.1165771484375,0.989501953125,-0.7177734375,10.250701904296875,3.90289306640625,1,1.0,1.0,1.0,1.0,10.00
2024-10-11 20:39:41.864,0.47369123,0.77689177,0.9379313,0.51211774,0.43991727,0.35773,0.34863585,0.6567961,0.39196664,0.42343804,0.13061342,0.63663614,0.4280711,0.02874087,0.061019074,0.3209058,0.08052897,-0.36297452,0.03669358,0.07951313,797.3993,794.9817,801.02563,799.81683,675.31134,-0.14837646484375,0.1165771484375,0.989501953125,-0.7177734375,10.250701904296875,3.90289306640625,1,1.0,1.0,1.0,1.0,10.00
2024-10-11 20:39:41.864,0.47369123,0.77689177,0.9379313,0.51211774,0.43991727,0.35773,0.34863585,0.6567961,0.39196664,0.42343804,0.13061342,0.63663614,0.4280711,0.02874087,0.061019074,0.3209058,0.08052897,-0.36297452,0.03669358,0.07951313,804.2491,792.5641,798.60803,797.8022,606.4103,-0.14837646484375,0.1165771484375,0.989501953125,-0.7177734375,10.250701904296875,3.90289306640625,1,1.0,1.0,1.0,1.0,10.00
2024-10-11 20:39:41.865,0.47369123,0.77689177,0.9379313,0.51211774,0.43991727,0.35773,0.34863585,0.6567961,0.39196664,0.42343804,0.13061342,0.63663614,0.4280711,0.02874087,0.061019074,0.3209058,0.08052897,-0.36297452,0.03669358,0.07951313,801.02563,790.14655,798.60803,796.99634,654.35895,-0.14837646484375,0.1165771484375,0.989501953125,-0.7177734375,10.250701904296875,3.90289306640625,1,1.0,1.0,1.0,1.0,10.00
2024-10-11 20:39:41.865,0.47369123,0.77689177,0.9379313,0.51211774,0.43991727,0.35773,0.34863585,0.6567961,0.39196664,0.42343804,0.13061342,0.63663614,0.4280711,0.02874087,0.061019074,0.3209058,0.08052897,-0.36297452,0.03669358,0.07951313,801.8315,789.34064,803.0403,805.8608,933.9927,-0.14837646484375,0.1165771484375,0.989501953125,-0.7177734375,10.250701904296875,3.90289306640625,1,1.0,1.0,1.0,1.0,10.00
2024-10-11 20:39:41.866,0.47369123,0.77689177,0.9379313,0.51211774,0.43991727,0.35773,0.34863585,0.6567961,0.39196664,0.42343804,0.13061342,0.63663614,0.4280711,0.02874087,0.061019074,0.3209058,0.08052897,-0.36297452,0.03669358,0.07951313,812.71063,788.1319,806.26373,813.91943,1059.3041,-0.14837646484375,0.1165771484375,0.989501953125,-0.7177734375,10.250701904296875,3.90289306640625,1,1.0,1.0,1.0,1.0,10.00
2024-10-11 20:39:41.866,0.47369123,0.77689177,0.9379313,0.51211774,0.43991727,0.35773,0.34863585,0.6567961,0.39196664,0.42343804,0.13061342,0.63663614,0.4280711,0.02874087,0.061019074,0.3209058,0.08052897,-0.36297452,0.03669358,0.07951313,805.05493,785.7143,799.81683,813.1135,770.0,-0.14837646484375,0.1165771484375,0.989501953125,-0.7177734375,10.250701904296875,3.90289306640625,1,1.0,1.0,1.0,1.0,10.00
2024-10-11 20:39:41.867,0.47369123,0.77689177,0.9379313,0.51211774,0.43991727,0.35773,0.34863585,0.6567961,0.39196664,0.42343804,0.13061342,0.63663614,0.4280711,0.02874087,0.061019074,0.3209058,0.08052897,-0.36297452,0.03669358,0.07951313,802.23444,792.1612,801.4286,816.7399,678.93774,-0.14837646484375,0.1165771484375,0.989501953125,-0.7177734375,10.250701904296875,3.90289306640625,1,1.0,1.0,1.0,1.0,10.00
2024-10-11 20:39:41.868,0.47369123,0.77689177,0.9379313,0.51211774,0.43991727,0.35773,0.34863585,0.6567961,0.39196664,0.42343804,0.13061342,0.63663614,0.4280711,0.02874087,0.061019074,0.3209058,0.08052897,-0.36297452,0.03669358,0.07951313,811.0989,794.57874,807.47253,812.71063,773.6264,-0.14837646484375,0.1165771484375,0.989501953125,-0.7177734375,10.250701904296875,3.90289306640625,1,1.0,1.0,1.0,1.0,10.00
2024-10-11 20:39:41.868,0.47369123,0.77689177,0.9379313,0.51211774,0.43991727,0.35773,0.34863585,0.6567961,0.39196664,0.42343804,0.13061342,0.63663614,0.4280711,0.02874087,0.061019074,0.3209058,0.08052897,-0.36297452,0.03669358,0.07951313,811.50183,792.1612,804.65204,807.8755,857.03296,-0.14837646484375,0.1165771484375,0.989501953125,-0.7177734375,10.250701904296875,3.90289306640625,1,1.0,1.0,1.0,1.0,10.00
2024-10-11 20:39:41.966,0.47369123,0.77689177,0.9379313,0.51211774,0.43991727,0.35773,0.34863585,0.6567961,0.39196664,0.42343804,0.13061342,0.63663614,0.4280711,0.02874087,0.061019074,0.3209058,0.08052897,-0.36297452,0.03669358,0.07951313,813.5165,793.36993,800.6227,807.47253,708.7546,-0.166259765625,0.1131591796875,0.97998046875,-0.46356201171875,8.217010498046875,3.46923828125,1,1.0,1.0,1.0,1.0,10.00
2024-10-11 20:39:41.967,0.47369123,0.77689177,0.9379313,0.51211774,0.43991727,0.35773,0.34863585,0.6567961,0.39196664,0.42343804,0.13061342,0.63663614,0.4280711,0.02874087,0.061019074,0.3209058,0.08052897,-0.36297452,0.03669358,0.07951313,807.0696,794.57874,806.6667,800.6227,674.10254,-0.166259765625,0.1131591796875,0.97998046875,-0.46356201171875,8.217010498046875,3.46923828125,1,1.0,1.0,1.0,1.0,10.00
2024-10-11 20:39:41.968,0.47369123,0.77689177,0.9379313,0.51211774,0.43991727,0.35773,0.34863585,0.6567961,0.39196664,0.42343804,0.13061342,0.63663614,0.4280711,0.02874087,0.061019074,0.3209058,0.08052897,-0.36297452,0.03669358,0.07951313,796.1905,793.7729,807.47253,793.7729,811.9048,-0.166259765625,0.1131591796875,0.97998046875,-0.46356201171875,8.217010498046875,3.46923828125,1,1.0,1.0,1.0,1.0,10.00
2024-10-11 20:39:41.969,0.47369123,0.77689177,0.9379313,0.51211774,0.43991727,0.35773,0.34863585,0.6567961,0.39196664,0.42343804,0.13061342,0.63663614,0.4280711,0.02874087,0.061019074,0.3209058,0.08052897,-0.36297452,0.03669358,0.07951313,800.6227,796.1905,801.02563,799.011,969.0476,-0.166259765625,0.1131591796875,0.97998046875,-0.46356201171875,8.217010498046875,3.46923828125,1,1.0,1.0,1.0,1.0,10.00
2024-10-11 20:39:41.969,0.47369123,0.77689177,0.9379313,0.51211774,0.43991727,0.35773,0.34863585,0.6567961,0.39196664,0.42343804,0.13061342,0.63663614,0.4280711,0.02874087,0.061019074,0.3209058,0.08052897,-0.36297452,0.03669358,0.07951313,805.05493,799.41394,799.011,797.8022,916.26373,-0.166259765625,0.1131591796875,0.97998046875,-0.46356201171875,8.217010498046875,3.46923828125,1,1.0,1.0,1.0,1.0,10.00
2024-10-11 20:39:41.970,0.47369123,0.77680725,0.9360516,0.51211774,0.43991727,0.3439883,0.35585803,0.6567961,0.39196664,0.41335142,0.13061342,0.63663614,0.4280711,0.023791015,0.07650783,0.3209058,0.08052897,-0.35835314,0.029148947,0.07951313,801.02563,793.36993,802.23444,791.75824,867.50916,-0.166259765625,0.1131591796875,0.97998046875,-0.46356201171875,8.217010498046875,3.46923828125,1,1.0,1.0,1.0,1.0,10.00
2024-10-11 20:39:41.974,0.47369123,0.77680725,0.9360516,0.51211774,0.43991727,0.3439883,0.35585803,0.6567961,0.39196664,0.41335142,0.13061342,0.63663614,0.4280711,0.023791015,0.07650783,0.3209058,0.08052897,-0.35835314,0.029148947,0.07951313,801.8315,792.5641,800.2198,798.20514,1073.8096,-0.166259765625,0.1131591796875,0.97998046875,-0.46356201171875,8.217010498046875,3.46923828125,1,1.0,1.0,1.0,1.0,10.00
2024-10-11 20:39:41.975,0.47369123,0.77680725,0.9360516,0.51211774,0.43991727,0.3439883,0.35585803,0.6567961,0.39196664,0.41335142,0.13061342,0.63663614,0.4280711,0.023791015,0.07650783,0.3209058,0.08052897,-0.35835314,0.029148947,0.07951313,804.65204,791.75824,802.23444,809.4872,1436.8499,-0.166259765625,0.1131591796875,0.97998046875,-0.46356201171875,8.217010498046875,3.46923828125,1,1.0,1.0,1.0,1.0,10.00
2024-10-11 20:39:41.976,0.47369123,0.77680725,0.9360516,0.51211774,0.43991727,0.3439883,0.35585803,0.6567961,0.39196664,0.41335142,0.13061342,0.63663614,0.4280711,0.023791015,0.07650783,0.3209058,0.08052897,-0.35835314,0.029148947,0.07951313,801.8315,795.78754,805.4579,807.8755,1139.0842,-0.166259765625,0.1131591796875,0.97998046875,-0.46356201171875,8.217010498046875,3.46923828125,1,1.0,1.0,1.0,1.0,10.00
2024-10-11 20:39:41.976,0.47369123,0.77680725,0.9360516,0.51211774,0.43991727,0.3439883,0.35585803,0.6567961,0.39196664,0.41335142,0.13061342,0.63663614,0.4280711,0.023791015,0.07650783,0.3209058,0.08052897,-0.35835314,0.029148947,0.07951313,801.4286,803.44324,802.6374,807.47253,746.63007,-0.166259765625,0.1131591796875,0.97998046875,-0.46356201171875,8.217010498046875,3.46923828125,1,1.0,1.0,1.0,1.0,10.00
2024-10-11 20:39:41.977,0.47369123,0.77680725,0.9360516,0.51211774,0.43991727,0.3439883,0.35585803,0.6567961,0.39196664,0.41335142,0.13061342,0.63663614,0.4280711,0.023791015,0.07650783,0.3209058,0.08052897,-0.35835314,0.029148947,0.07951313,813.5165,801.4286,800.6227,813.1135,733.3333,-0.166259765625,0.1131591796875,0.97998046875,-0.46356201171875,8.217010498046875,3.46923828125,1,1.0,1.0,1.0,1.0,10.00
2024-10-11 20:39:41.977,0.47369123,0.77680725,0.9360516,0.51211774,0.43991727,0.3439883,0.35585803,0.6567961,0.39196664,0.41335142,0.13061342,0.63663614,0.4280711,0.023791015,0.07650783,0.3209058,0.08052897,-0.35835314,0.029148947,0.07951313,816.7399,799.81683,794.9817,808.68134,638.6447,-0.166259765625,0.1131591796875,0.97998046875,-0.46356201171875,8.217010498046875,3.46923828125,1,1.0,1.0,1.0,1.0,10.00
2024-10-11 20:39:42.001,0.47369123,0.77680725,0.9360516,0.51211774,0.43991727,0.3439883,0.35585803,0.6567961,0.39196664,0.41335142,0.13061342,0.63663614,0.4280711,0.023791015,0.07650783,0.3209058,0.08052897,-0.35835314,0.029148947,0.07951313,813.1135,801.02563,800.2198,800.6227,587.8755,-0.177490234375,0.11614990234375,0.9901123046875,-0.10467529296875,4.329071044921875,2.624359130859375,1,1.0,1.0,1.0,1.0,10.00
