TimeStamp,Delta_TP9,Delta_AF7,Delta_AF8,Delta_TP10,Theta_TP9,Theta_AF7,Theta_AF8,Theta_TP10,Alpha_TP9,Alpha_AF7,Alpha_AF8,Alpha_TP10,Beta_TP9,Beta_AF7,Beta_AF8,Beta_TP10,Gamma_TP9,Gamma_AF7,Gamma_AF8,Gamma_TP10,RAW_TP9,RAW_AF7,RAW_AF8,RAW_TP10,AUX_RIGHT,Accelerometer_X,Accelerometer_Y,Accelerometer_Z,Gyro_X,Gyro_Y,Gyro_Z,HeadBandOn,HSI_TP9,HSI_AF7,HSI_AF8,HSI_TP10,Battery,Elements
2024-10-11 20:42:12.512,0.5204946,0.1840185,0.10026916,0.59325415,0.6919498,0.08872874,-0.1845716,0.44734934,0.93448347,0.20857762,0.17478481,0.7331604,0.67089677,-0.12420321,0.18169944,0.4701625,0.01809368,-0.33012372,-0.038904432,-0.14222348,795.38464,794.17584,807.8755,794.9817,673.69965,0.21307373046875,0.19464111328125,0.9630126953125,0.261688232421875,1.203765869140625,3.416900634765625,1,1.0,1.0,1.0,1.0,10.00
2024-10-11 20:42:12.513,0.5204946,0.1840185,0.10026916,0.59325415,0.6919498,0.08872874,-0.1845716,0.44734934,0.93448347,0.20857762,0.17478481,0.7331604,0.67089677,-0.12420321,0.18169944,0.4701625,0.01809368,-0.33012372,-0.038904432,-0.14222348,788.5348,784.90845,812.71063,790.14655,743.00366,0.21307373046875,0.19464111328125,0.9630126953125,0.261688232421875,1.203765869140625,3.416900634765625,1,1.0,1.0,1.0,1.0,10.00
2024-10-11 20:42:12.514,0.5204946,0.1840185,0.10026916,0.59325415,0.6919498,0.08872874,-0.1845716,0.44734934,0.93448347,0.20857762,0.17478481,0.7331604,0.67089677,-0.12420321,0.18169944,0.4701625,0.01809368,-0.33012372,-0.038904432,-0.14222348,773.6264,782.8938,811.50183,790.54944,882.01465,0.21307373046875,0.19464111328125,0.9630126953125,0.261688232421875,1.203765869140625,3.416900634765625,1,1.0,1.0,1.0,1.0,10.00
2024-10-11 20:42:12.514,0.5204946,0.1840185,0.10026916,0.59325415,0.6919498,0.08872874,-0.1845716,0.44734934,0.93448347,0.20857762,0.17478481,0.7331604,0.67089677,-0.12420321,0.18169944,0.4701625,0.01809368,-0.33012372,-0.038904432,-0.14222348,765.16486,790.14655,815.12823,784.10254,736.55676,0.21307373046875,0.19464111328125,0.9630126953125,0.261688232421875,1.203765869140625,3.416900634765625,1,1.0,1.0,1.0,1.0,10.00
2024-10-11 20:42:12.515,0.5204946,0.1840185,0.10026916,0.59325415,0.6919498,0.08872874,-0.1845716,0.44734934,0.93448347,0.20857762,0.17478481,0.7331604,0.67089677,-0.12420321,0.18169944,0.4701625,0.01809368,-0.33012372,-0.038904432,-0.14222348,761.53845,787.326,818.7546,770.80585,653.5531,0.21307373046875,0.19464111328125,0.9630126953125,0.261688232421875,1.203765869140625,3.416900634765625,1,1.0,1.0,1.0,1.0,10.00
2024-10-11 20:42:12.515,0.5208088,0.17139985,0.07414518,0.5882997,0.6718196,0.0656654,-0.17299785,0.42621115,0.93448347,0.20857762,0.18643963,0.7535176,0.6659694,-0.08425672,0.19531916,0.47088003,0.005052022,-0.33133057,0.007792964,-0.11001985,759.92676,778.46155,822.381,773.22345,905.78754,0.21307373046875,0.19464111328125,0.9630126953125,0.261688232421875,1.203765869140625,3.416900634765625,1,1.0,1.0,1.0,1.0,10.00
2024-10-11 20:42:12.519,0.5208088,0.17139985,0.07414518,0.5882997,0.6718196,0.0656654,-0.17299785,0.42621115,0.93448347,0.20857762,0.18643963,0.7535176,0.6659694,-0.08425672,0.19531916,0.47088003,0.005052022,-0.33133057,0.007792964,-0.11001985,751.8681,773.22345,823.9927,773.6264,1412.674,0.21307373046875,0.19464111328125,0.9630126953125,0.261688232421875,1.203765869140625,3.416900634765625,1,1.0,1.0,1.0,1.0,10.00
2024-10-11 20:42:12.520,0.5208088,0.17139985,0.07414518,0.5882997,0.6718196,0.0656654,-0.17299785,0.42621115,0.93448347,0.20857762,0.18643963,0.7535176,0.6659694,-0.08425672,0.19531916,0.47088003,0.005052022,-0.33133057,0.007792964,-0.11001985,748.6447,777.6557,828.4249,767.98535,1195.8975,0.21307373046875,0.19464111328125,0.9630126953125,0.261688232421875,1.203765869140625,3.416900634765625,1,1.0,1.0,1.0,1.0,10.00
2024-10-11 20:42:12.521,0.5208088,0.17139985,0.07414518,0.5882997,0.6718196,0.0656654,-0.17299785,0.42621115,0.93448347,0.20857762,0.18643963,0.7535176,0.6659694,-0.08425672,0.19531916,0.47088003,0.005052022,-0.33133057,0.007792964,-0.11001985,745.0183,776.8498,826.4103,767.5824,657.98535,0.21307373046875,0.19464111328125,0.9630126953125,0.261688232421875,1.203765869140625,3.416900634765625,1,1.0,1.0,1.0,1.0,10.00
2024-10-11 20:42:12.521,0.5208088,0.17139985,0.07414518,0.5882997,0.6718196,0.0656654,-0.17299785,0.42621115,0.93448347,0.20857762,0.18643963,0.7535176,0.6659694,-0.08425672,0.19531916,0.47088003,0.005052022,-0.33133057,0.007792964,-0.11001985,740.18317,776.04395,829.2308,767.5824,714.7985,0.21307373046875,0.19464111328125,0.9630126953125,0.261688232421875,1.203765869140625,3.416900634765625,1,1.0,1.0,1.0,1.0,10.00
2024-10-11 20:42:12.522,0.5208088,0.17139985,0.07414518,0.5882997,0.6718196,0.0656654,-0.17299785,0.42621115,0.93448347,0.20857762,0.18643963,0.7535176,0.6659694,-0.08425672,0.19531916,0.47088003,0.005052022,-0.33133057,0.007792964,-0.11001985,744.61536,783.2967,835.6777,773.6264,765.16486,0.21307373046875,0.19464111328125,0.9630126953125,0.261688232421875,1.203765869140625,3.416900634765625,1,1.0,1.0,1.0,1.0,10.00
2024-10-11 20:42:12.523,0.5208088,0.17139985,0.07414518,0.5882997,0.6718196,0.0656654,-0.17299785,0.42621115,0.93448347,0.20857762,0.18643963,0.7535176,0.6659694,-0.08425672,0.19531916,0.47088003,0.005052022,-0.33133057,0.007792964,-0.11001985,741.39197,776.8498,833.663,774.83514,579.011,0.21307373046875,0.19464111328125,0.9630126953125,0.261688232421875,1.203765869140625,3.416900634765625,1,1.0,1.0,1.0,1.0,10.00
2024-10-11 20:42:12.551,0.5208088,0.17139985,0.07414518,0.5882997,0.6718196,0.0656654,-0.17299785,0.42621115,0.93448347,0.20857762,0.18643963,0.7535176,0.6659694,-0.08425672,0.19531916,0.47088003,0.005052022,-0.33133057,0.007792964,-0.11001985,738.1685,772.4176,833.2601,776.8498,573.36993,0.21185302734375,0.1937255859375,0.970458984375,-0.31402587890625,2.773895263671875,6.183319091796875,1,1.0,1.0,1.0,1.0,10.00
2024-10-11 20:42:12.552,0.5208088,0.17139985,0.07414518,0.5882997,0.6718196,0.0656654,-0.17299785,0.42621115,0.93448347,0.20857762,0.18643963,0.7535176,0.6659694,-0.08425672,0.19531916,0.47088003,0.005052022,-0.33133057,0.007792964,-0.11001985,745.82416,775.2381,846.55676,777.25275,691.4286,0.21185302734375,0.1937255859375,0.970458984375,-0.31402587890625,2.773895263671875,6.183319091796875,1,1.0,1.0,1.0,1.0,10.00
2024-10-11 20:42:12.552,0.5208088,0.17139985,0.07414518,0.5882997,0.6718196,0.0656654,-0.17299785,0.42621115,0.93448347,0.20857762,0.18643963,0.7535176,0.6659694,-0.08425672,0.19531916,0.47088003,0.005052022,-0.33133057,0.007792964,-0.11001985,759.92676,780.07324,859.0476,778.86444,680.9524,0.21185302734375,0.1937255859375,0.970458984375,-0.31402587890625,2.773895263671875,6.183319091796875,1,1.0,1.0,1.0,1.0,10.00
2024-10-11 20:42:12.553,0.5208088,0.17139985,0.07414518,0.5882997,0.6718196,0.0656654,-0.17299785,0.42621115,0.93448347,0.20857762,0.18643963,0.7535176,0.6659694,-0.08425672,0.19531916,0.47088003,0.005052022,-0.33133057,0.007792964,-0.11001985,760.7326,784.10254,855.82416,786.52014,622.9304,0.21185302734375,0.1937255859375,0.970458984375,-0.31402587890625,2.773895263671875,6.183319091796875,1,1.0,1.0,1.0,1.0,10.00
2024-10-11 20:42:12.554,0.5208088,0.17139985,0.07414518,0.5882997,0.6718196,0.0656654,-0.17299785,0.42621115,0.93448347,0.20857762,0.18643963,0.7535176,0.6659694,-0.08425672,0.19531916,0.47088003,0.005052022,-0.33133057,0.007792964,-0.11001985,753.47986,778.86444,850.989,785.31134,745.42126,0.21185302734375,0.1937255859375,0.970458984375,-0.31402587890625,2.773895263671875,6.183319091796875,1,1.0,1.0,1.0,1.0,10.00
2024-10-11 20:42:12.555,0.5208088,0.17139985,0.07414518,0.5882997,0.6718196,0.0656654,-0.17299785,0.42621115,0.93448347,0.20857762,0.18643963,0.7535176,0.6659694,-0.08425672,0.19531916,0.47088003,0.005052022,-0.33133057,0.007792964,-0.11001985,755.4945,770.0,851.79486,792.1612,931.978,0.21185302734375,0.1937255859375,0.970458984375,-0.31402587890625,2.773895263671875,6.183319091796875,1,1.0,1.0,1.0,1.0,10.00
2024-10-11 20:42:12.556,0.5208088,0.17139985,0.07414518,0.5882997,0.6718196,0.0656654,-0.17299785,0.42621115,0.93448347,0.20857762,0.18643963,0.7535176,0.6659694,-0.08425672,0.19531916,0.47088003,0.005052022,-0.33133057,0.007792964,-0.11001985,749.85345,772.8205,853.8095,792.5641,814.3223,0.21185302734375,0.1937255859375,0.970458984375,-0.31402587890625,2.773895263671875,6.183319091796875,1,1.0,1.0,1.0,1.0,10.00
2024-10-11 20:42:12.556,0.5208088,0.17139985,0.07414518,0.5882997,0.6718196,0.0656654,-0.17299785,0.42621115,0.93448347,0.20857762,0.18643963,0.7535176,0.6659694,-0.08425672,0.19531916,0.47088003,0.005052022,-0.33133057,0.007792964,-0.11001985,748.6447,772.8205,856.2271,788.5348,649.92676,0.21185302734375,0.1937255859375,0.970458984375,-0.31402587890625,2.773895263671875,6.183319091796875,1,1.0,1.0,1.0,1.0,10.00
2024-10-11 20:42:12.557,0.5208088,0.17139985,0.07414518,0.5882997,0.6718196,0.0656654,-0.17299785,0.42621115,0.93448347,0.20857762,0.18643963,0.7535176,0.6659694,-0.08425672,0.19531916,0.47088003,0.005052022,-0.33133057,0.007792964,-0.11001985,759.92676,771.6117,861.4652,798.20514,701.50183,0.21185302734375,0.1937255859375,0.970458984375,-0.31402587890625,2.773895263671875,6.183319091796875,1,1.0,1.0,1.0,1.0,10.00
2024-10-11 20:42:12.558,0.5208088,0.17139985,0.07414518,0.5882997,0.6718196,0.0656654,-0.17299785,0.42621115,0.93448347,0.20857762,0.18643963,0.7535176,0.6659694,-0.08425672,0.19531916,0.47088003,0.005052022,-0.33133057,0.007792964,-0.11001985,754.2857,776.04395,854.61536,798.60803,1001.28204,0.21185302734375,0.1937255859375,0.970458984375,-0.31402587890625,2.773895263671875,6.183319091796875,1,1.0,1.0,1.0,1.0,10.00
2024-10-11 20:42:12.558,0.5208088,0.17139985,0.07414518,0.5882997,0.6718196,0.0656654,-0.17299785,0.42621115,0.93448347,0.20857762,0.18643963,0.7535176,0.6659694,-0.08425672,0.19531916,0.47088003,0.005052022,-0.33133057,0.007792964,-0.11001985,754.2857,772.8205,849.7802,798.20514,892.8938,0.21185302734375,0.1937255859375,0.970458984375,-0.31402587890625,2.773895263671875,6.183319091796875,1,1.0,1.0,1.0,1.0,10.00
2024-10-11 20:42:12.559,0.5208088,0.17139985,0.07414518,0.5882997,0.6718196,0.0656654,-0.17299785,0.42621115,0.93448347,0.20857762,0.18643963,0.7535176,0.6659694,-0.08425672,0.19531916,0.47088003,0.005052022,-0.33133057,0.007792964,-0.11001985,768.3883,771.6117,844.5421,799.81683,684.17584,0.21185302734375,0.1937255859375,0.970458984375,-0.31402587890625,2.773895263671875,6.183319091796875,1,1.0,1.0,1.0,1.0,10.00
2024-10-11 20:42:12.592,0.5208088,0.17139985,0.07414518,0.5882997,0.6718196,0.0656654,-0.17299785,0.42621115,0.93448347,0.20857762,0.18643963,0.7535176,0.6659694,-0.08425672,0.19531916,0.47088003,0.005052022,-0.33133057,0.007792964,-0.11001985,765.16486,772.8205,838.0952,799.011,853.00366,0.21527099609375,0.19775390625,0.96295166015625,-0.6878662109375,2.8411865234375,9.218902587890625,1,1.0,1.0,1.0,1.0,10.00
2024-10-11 20:42:12.593,0.5208088,0.17139985,0.07414518,0.5882997,0.6718196,0.0656654,-0.17299785,0.42621115,0.93448347,0.20857762,0.18643963,0.7535176,0.6659694,-0.08425672,0.19531916,0.47088003,0.005052022,-0.33133057,0.007792964,-0.11001985,758.71796,768.3883,847.76556,794.57874,936.4103,0.21527099609375,0.19775390625,0.96295166015625,-0.6878662109375,2.8411865234375,9.218902587890625,1,1.0,1.0,1.0,1.0,10.00
2024-10-11 20:42:12.594,0.5208088,0.17139985,0.07414518,0.5882997,0.6718196,0.0656654,-0.17299785,0.42621115,0.93448347,0.20857762,0.18643963,0.7535176,0.6659694,-0.08425672,0.19531916,0.47088003,0.005052022,-0.33133057,0.007792964,-0.11001985,774.43225,767.1795,848.5714,797.8022,699.4872,0.21527099609375,0.19775390625,0.96295166015625,-0.6878662109375,2.8411865234375,9.218902587890625,1,1.0,1.0,1.0,1.0,10.00
2024-10-11 20:42:12.596,0.5208088,0.17139985,0.07414518,0.5882997,0.6718196,0.0656654,-0.17299785,0.42621115,0.93448347,0.20857762,0.18643963,0.7535176,0.6659694,-0.08425672,0.19531916,0.47088003,0.005052022,-0.33133057,0.007792964,-0.11001985,779.67035,769.19415,852.1978,815.12823,616.8865,0.21527099609375,0.19775390625,0.96295166015625,-0.6878662109375,2.8411865234375,9.218902587890625,1,1.0,1.0,1.0,1.0,10.00
2024-10-11 20:42:12.597,0.5208088,0.17139985,0.07414518,0.5882997,0.6718196,0.0656654,-0.17299785,0.42621115,0.93448347,0.20857762,0.18643963,0.7535176,0.6659694,-0.08425672,0.19531916,0.47088003,0.005052022,-0.33133057,0.007792964,-0.11001985,766.77655,769.59705,846.1539,817.9487,884.0293,0.21527099609375,0.19775390625,0.96295166015625,-0.6878662109375,2.8411865234375,9.218902587890625,1,1.0,1.0,1.0,1.0,10.00
2024-10-11 20:42:12.598,0.5208088,0.17139985,0.07414518,0.5882997,0.6718196,0.0656654,-0.17299785,0.42621115,0.93448347,0.20857762,0.18643963,0.7535176,0.6659694,-0.08425672,0.19531916,0.47088003,0.005052022,-0.33133057,0.007792964,-0.11001985,768.7912,769.19415,838.49817,814.3223,1024.652,0.21527099609375,0.19775390625,0.96295166015625,-0.6878662109375,2.8411865234375,9.218902587890625,1,1.0,1.0,1.0,1.0,10.00
2024-10-11 20:42:12.599,0.5208088,0.17139985,0.07414518,0.5882997,0.6718196,0.0656654,-0.17299785,0.42621115,0.93448347,0.20857762,0.18643963,0.7535176,0.6659694,-0.08425672,0.19531916,0.47088003,0.005052022,-0.33133057,0.007792964,-0.11001985,773.22345,774.43225,836.4835,814.7253,843.3333,0.21527099609375,0.19775390625,0.96295166015625,-0.6878662109375,2.8411865234375,9.218902587890625,1,1.0,1.0,1.0,1.0,10.00
2024-10-11 20:42:12.600,0.5208088,0.1806648,0.09339128,0.57768106,0.6718196,0.047360506,-0.1466747,0.41099805,0.93448347,0.20857762,0.20656021,0.7764568,0.6659694,-0.05257716,0.21274087,0.4706061,0.005052022,-0.3361623,0.04569083,-0.090257615,780.07324,776.8498,838.9011,810.696,668.86444,0.21527099609375,0.19775390625,0.96295166015625,-0.6878662109375,2.8411865234375,9.218902587890625,1,1.0,1.0,1.0,1.0,10.00
2024-10-11 20:42:12.605,0.5208088,0.1806648,0.09339128,0.57768106,0.6718196,0.047360506,-0.1466747,0.41099805,0.93448347,0.20857762,0.20656021,0.7764568,0.6659694,-0.05257716,0.21274087,0.4706061,0.005052022,-0.3361623,0.04569083,-0.090257615,779.2674,773.22345,844.1392,814.3223,749.45056,0.21527099609375,0.19775390625,0.96295166015625,-0.6878662109375,2.8411865234375,9.218902587890625,1,1.0,1.0,1.0,1.0,10.00
2024-10-11 20:42:12.606,0.5208088,0.1806648,0.09339128,0.57768106,0.6718196,0.047360506,-0.1466747,0.41099805,0.93448347,0.20857762,0.20656021,0.7764568,0.6659694,-0.05257716,0.21274087,0.4706061,0.005052022,-0.3361623,0.04569083,-0.090257615,780.4762,779.2674,839.707,817.5458,816.7399,0.21527099609375,0.19775390625,0.96295166015625,-0.6878662109375,2.8411865234375,9.218902587890625,1,1.0,1.0,1.0,1.0,10.00
2024-10-11 20:42:12.607,0.5208088,0.1806648,0.09339128,0.57768106,0.6718196,0.047360506,-0.1466747,0.41099805,0.93448347,0.20857762,0.20656021,0.7764568,0.6659694,-0.05257716,0.21274087,0.4706061,0.005052022,-0.3361623,0.04569083,-0.090257615,795.78754,784.10254,834.0659,808.2784,676.9231,0.21527099609375,0.19775390625,0.96295166015625,-0.6878662109375,2.8411865234375,9.218902587890625,1,1.0,1.0,1.0,1.0,10.00
2024-10-11 20:42:12.608,0.5208088,0.1806648,0.09339128,0.57768106,0.6718196,0.047360506,-0.1466747,0.41099805,0.93448347,0.20857762,0.20656021,0.7764568,0.6659694,-0.05257716,0.21274087,0.4706061,0.005052022,-0.3361623,0.04569083,-0.090257615,794.9817,781.28204,834.87177,803.44324,608.022,0.21527099609375,0.19775390625,0.96295166015625,-0.6878662109375,2.8411865234375,9.218902587890625,1,1.0,1.0,1.0,1.0,10.00
2024-10-11 20:42:12.655,0.5208088,0.1806648,0.09339128,0.57768106,0.6718196,0.047360506,-0.1466747,0.41099805,0.93448347,0.20857762,0.20656021,0.7764568,0.6659694,-0.05257716,0.21274087,0.4706061,0.005052022,-0.3361623,0.04569083,-0.090257615,794.17584,780.87915,843.73627,815.9341,993.22345,0.2132568359375,0.19610595703125,0.96673583984375,-0.91217041015625,3.93280029296875,11.237640380859375,1,1.0,1.0,1.0,1.0,10.00
2024-10-11 20:42:12.656,0.5208088,0.1806648,0.09339128,0.57768106,0.6718196,0.047360506,-0.1466747,0.41099805,0.93448347,0.20857762,0.20656021,0.7764568,0.6659694,-0.05257716,0.21274087,0.4706061,0.005052022,-0.3361623,0.04569083,-0.090257615,802.6374,780.87915,838.0952,819.9634,1224.5055,0.2132568359375,0.19610595703125,0.96673583984375,-0.91217041015625,3.93280029296875,11.237640380859375,1,1.0,1.0,1.0,1.0,10.00
2024-10-11 20:42:12.657,0.5208088,0.1806648,0.09339128,0.57768106,0.6718196,0.047360506,-0.1466747,0.41099805,0.93448347,0.20857762,0.20656021,0.7764568,0.6659694,-0.05257716,0.21274087,0.4706061,0.005052022,-0.3361623,0.04569083,-0.090257615,798.60803,780.07324,828.4249,805.4579,731.31866,0.2132568359375,0.19610595703125,0.96673583984375,-0.91217041015625,3.93280029296875,11.237640380859375,1,1.0,1.0,1.0,1.0,10.00
2024-10-11 20:42:12.658,0.5208088,0.1806648,0.09339128,0.57768106,0.6718196,0.047360506,-0.1466747,0.41099805,0.93448347,0.20857762,0.20656021,0.7764568,0.6659694,-0.05257716,0.21274087,0.4706061,0.005052022,-0.3361623,0.04569083,-0.090257615,796.99634,782.49084,828.4249,807.0696,568.1319,0.2132568359375,0.19610595703125,0.96673583984375,-0.91217041015625,3.93280029296875,11.237640380859375,1,1.0,1.0,1.0,1.0,10.00
2024-10-11 20:42:12.659,0.5208088,0.1806648,0.09339128,0.57768106,0.6718196,0.047360506,-0.1466747,0.41099805,0.93448347,0.20857762,0.20656021,0.7764568,0.6659694,-0.05257716,0.21274087,0.4706061,0.005052022,-0.3361623,0.04569083,-0.090257615,802.6374,791.3553,826.4103,814.7253,674.10254,0.2132568359375,0.19610595703125,0.96673583984375,-0.91217041015625,3.93280029296875,11.237640380859375,1,1.0,1.0,1.0,1.0,10.00
2024-10-11 20:42:12.659,0.5208088,0.1806648,0.09339128,0.57768106,0.6718196,0.047360506,-0.1466747,0.41099805,0.93448347,0.20857762,0.20656021,0.7764568,0.6659694,-0.05257716,0.21274087,0.4706061,0.005052022,-0.3361623,0.04569083,-0.090257615,796.99634,787.72894,825.2015,813.5165,737.3626,0.2132568359375,0.19610595703125,0.96673583984375,-0.91217041015625,3.93280029296875,11.237640380859375,1,1.0,1.0,1.0,1.0,10.00
2024-10-11 20:42:12.660,0.5208088,0.1806648,0.09339128,0.57768106,0.6718196,0.047360506,-0.1466747,0.41099805,0.93448347,0.20857762,0.20656021,0.7764568,0.6659694,-0.05257716,0.21274087,0.4706061,0.005052022,-0.3361623,0.04569083,-0.090257615,792.96704,782.49084,828.4249,810.696,848.5714,0.2132568359375,0.19610595703125,0.96673583984375,-0.91217041015625,3.93280029296875,11.237640380859375,1,1.0,1.0,1.0,1.0,10.00
2024-10-11 20:42:12.660,0.5208088,0.1806648,0.09339128,0.57768106,0.6718196,0.047360506,-0.1466747,0.41099805,0.93448347,0.20857762,0.20656021,0.7764568,0.6659694,-0.05257716,0.21274087,0.4706061,0.005052022,-0.3361623,0.04569083,-0.090257615,796.99634,789.7436,819.5604,810.696,886.8498,0.2132568359375,0.19610595703125,0.96673583984375,-0.91217041015625,3.93280029296875,11.237640380859375,1,1.0,1.0,1.0,1.0,10.00
2024-10-11 20:42:12.661,0.5208088,0.1806648,0.09339128,0.57768106,0.6718196,0.047360506,-0.1466747,0.41099805,0.93448347,0.20857762,0.20656021,0.7764568,0.6659694,-0.05257716,0.21274087,0.4706061,0.005052022,-0.3361623,0.04569083,-0.090257615,801.02563,790.14655,813.1135,812.71063,834.0659,0.2132568359375,0.19610595703125,0.96673583984375,-0.91217041015625,3.93280029296875,11.237640380859375,1,1.0,1.0,1.0,1.0,10.00
2024-10-11 20:42:12.661,0.5208088,0.1806648,0.09339128,0.57768106,0.6718196,0.047360506,-0.1466747,0.41099805,0.93448347,0.20857762,0.20656021,0.7764568,0.6659694,-0.05257716,0.21274087,0.4706061,0.005052022,-0.3361623,0.04569083,-0.090257615,802.23444,786.52014,818.3516,814.3223,766.77655,0.2132568359375,0.19610595703125,0.96673583984375,-0.91217041015625,3.93280029296875,11.237640380859375,1,1.0,1.0,1.0,1.0,10.00
2024-10-11 20:42:12.662,0.5208088,0.1806648,0.09339128,0.57768106,0.6718196,0.047360506,-0.1466747,0.41099805,0.93448347,0.20857762,0.20656021,0.7764568,0.6659694,-0.05257716,0.21274087,0.4706061,0.005052022,-0.3361623,0.04569083,-0.090257615,804.2491,788.1319,814.7253,809.4872,709.5604,0.2132568359375,0.19610595703125,0.96673583984375,-0.91217041015625,3.93280029296875,11.237640380859375,1,1.0,1.0,1.0,1.0,10.00
2024-10-11 20:42:12.662,0.5208088,0.1806648,0.09339128,0.57768106,0.6718196,0.047360506,-0.1466747,0.41099805,0.93448347,0.20857762,0.20656021,0.7764568,0.6659694,-0.05257716,0.21274087,0.4706061,0.005052022,-0.3361623,0.04569083,-0.090257615,797.3993,784.90845,809.89014,805.8608,715.2015,0.2132568359375,0.19610595703125,0.96673583984375,-0.91217041015625,3.93280029296875,11.237640380859375,1,1.0,1.0,1.0,1.0,10.00
2024-10-11 20:42:12.689,0.5208088,0.1806648,0.09339128,0.57768106,0.6718196,0.047360506,-0.1466747,0.41099805,0.93448347,0.20857762,0.20656021,0.7764568,0.6659694,-0.05257716,0.21274087,0.4706061,0.005052022,-0.3361623,0.04569083,-0.090257615,796.1905,782.0879,803.8461,807.47253,803.0403,0.2132568359375,0.19610595703125,0.96673583984375,-0.91217041015625,3.93280029296875,11.237640380859375,1,1.0,1.0,1.0,1.0,10.00
2024-10-11 20:42:12.690,0.5208088,0.1806648,0.09339128,0.57768106,0.6718196,0.047360506,-0.1466747,0.41099805,0.93448347,0.20857762,0.20656021,0.7764568,0.6659694,-0.05257716,0.21274087,0.4706061,0.005052022,-0.3361623,0.04569083,-0.090257615,799.011,788.1319,805.8608,807.8755,740.989,0.2132568359375,0.19610595703125,0.96673583984375,-0.91217041015625,3.93280029296875,11.237640380859375,1,1.0,1.0,1.0,1.0,10.00
2024-10-11 20:42:12.691,0.5208088,0.1806648,0.09339128,0.57768106,0.6718196,0.047360506,-0.1466747,0.41099805,0.93448347,0.20857762,0.20656021,0.7764568,0.6659694,-0.05257716,0.21274087,0.4706061,0.005052022,-0.3361623,0.04569083,-0.090257615,795.78754,788.93774,816.337,803.44324,636.63007,0.2132568359375,0.19610595703125,0.96673583984375,-0.91217041015625,3.93280029296875,11.237640380859375,1,1.0,1.0,1.0,1.0,10.00
2024-10-11 20:42:12.691,0.5208088,0.1806648,0.09339128,0.57768106,0.6718196,0.047360506,-0.1466747,0.41099805,0.93448347,0.20857762,0.20656021,0.7764568,0.6659694,-0.05257716,0.21274087,0.4706061,0.005052022,-0.3361623,0.04569083,-0.090257615,792.1612,785.31134,812.3077,800.2198,876.77655,0.2132568359375,0.19610595703125,0.96673583984375,-0.91217041015625,3.93280029296875,11.237640380859375,1,1.0,1.0,1.0,1.0,10.00
2024-10-11 20:42:12.692,0.5208088,0.1806648,0.09339128,0.57768106,0.6718196,0.047360506,-0.1466747,0.41099805,0.93448347,0.20857762,0.20656021,0.7764568,0.6659694,-0.05257716,0.21274087,0.4706061,0.005052022,-0.3361623,0.04569083,-0.090257615,786.1172,786.52014,806.26373,805.4579,1028.2784,0.2132568359375,0.19610595703125,0.96673583984375,-0.91217041015625,3.93280029296875,11.237640380859375,1,1.0,1.0,1.0,1.0,10.00
2024-10-11 20:42:12.693,0.5208088,0.1806648,0.09339128,0.57768106,0.6718196,0.047360506,-0.1466747,0.41099805,0.93448347,0.20857762,0.20656021,0.7764568,0.6659694,-0.05257716,0.21274087,0.4706061,0.005052022,-0.3361623,0.04569083,-0.090257615,789.7436,787.72894,805.8608,810.293,789.34064,0.2132568359375,0.19610595703125,0.96673583984375,-0.91217041015625,3.93280029296875,11.237640380859375,1,1.0,1.0,1.0,1.0,10.00
2024-10-11 20:42:12.693,0.5208088,0.1806648,0.09339128,0.57768106,0.6718196,0.047360506,-0.1466747,0.41099805,0.93448347,0.20857762,0.20656021,0.7764568,0.6659694,-0.05257716,0.21274087,0.4706061,0.005052022,-0.3361623,0.04569083,-0.090257615,792.96704,789.7436,810.293,807.47253,747.4359,0.2132568359375,0.19610595703125,0.96673583984375,-0.91217041015625,3.93280029296875,11.237640380859375,1,1.0,1.0,1.0,1.0,10.00
2024-10-11 20:42:12.694,0.5208088,0.1806648,0.09339128,0.57768106,0.6718196,0.047360506,-0.1466747,0.41099805,0.93448347,0.20857762,0.20656021,0.7764568,0.6659694,-0.05257716,0.21274087,0.4706061,0.005052022,-0.3361623,0.04569083,-0.090257615,790.54944,788.1319,813.1135,812.71063,927.1429,0.2132568359375,0.19610595703125,0.96673583984375,-0.91217041015625,3.93280029296875,11.237640380859375,1,1.0,1.0,1.0,1.0,10.00
2024-10-11 20:42:12.694,0.5208088,0.1806648,0.09339128,0.57768106,0.6718196,0.047360506,-0.1466747,0.41099805,0.93448347,0.20857762,0.20656021,0.7764568,0.6659694,-0.05257716,0.21274087,0.4706061,0.005052022,-0.3361623,0.04569083,-0.090257615,794.17584,788.93774,813.91943,813.5165,781.28204,0.2132568359375,0.19610595703125,0.96673583984375,-0.91217041015625,3.93280029296875,11.237640380859375,1,1.0,1.0,1.0,1.0,10.00
2024-10-11 20:42:12.695,0.5208088,0.16527382,0.09339128,0.5653198,0.6718196,-0.04268152,-0.1466747,0.40478453,0.93448347,0.2104192,0.20656021,0.8060617,0.6659694,-0.029006256,0.21274087,0.46513084,0.005052022,-0.34508052,0.04569083,-0.07842796,799.41394,793.7729,816.337,806.26373,533.0769,0.2132568359375,0.19610595703125,0.96673583984375,-0.91217041015625,3.93280029296875,11.237640380859375,1,1.0,1.0,1.0,1.0,10.00
2024-10-11 20:42:12.699,0.5208088,0.16527382,0.09339128,0.5653198,0.6718196,-0.04268152,-0.1466747,0.40478453,0.93448347,0.2104192,0.20656021,0.8060617,0.6659694,-0.029006256,0.21274087,0.46513084,0.005052022,-0.34508052,0.04569083,-0.07842796,803.8461,796.5934,813.5165,809.89014,620.10986,0.2132568359375,0.19610595703125,0.96673583984375,-0.91217041015625,3.93280029296875,11.237640380859375,1,1.0,1.0,1.0,1.0,10.00
2024-10-11 20:42:12.699,0.5208088,0.16527382,0.09339128,0.5653198,0.6718196,-0.04268152,-0.1466747,0.40478453,0.93448347,0.2104192,0.20656021,0.8060617,0.6659694,-0.029006256,0.21274087,0.46513084,0.005052022,-0.34508052,0.04569083,-0.07842796,804.2491,788.93774,813.5165,813.91943,853.8095,0.2132568359375,0.19610595703125,0.96673583984375,-0.91217041015625,3.93280029296875,11.237640380859375,1,1.0,1.0,1.0,1.0,10.00
2024-10-11 20:42:12.723,0.5208088,0.16527382,0.09339128,0.5653198,0.6718196,-0.04268152,-0.1466747,0.40478453,0.93448347,0.2104192,0.20656021,0.8060617,0.6659694,-0.029006256,0.21274087,0.46513084,0.005052022,-0.34508052,0.04569083,-0.07842796,792.96704,789.34064,804.2491,802.6374,980.32965,0.20233154296875,0.1915283203125,0.96881103515625,-1.248626708984375,5.3533935546875,12.329254150390625,1,1.0,1.0,1.0,1.0,10.00
2024-10-11 20:42:12.724,0.5208088,0.16527382,0.09339128,0.5653198,0.6718196,-0.04268152,-0.1466747,0.40478453,0.93448347,0.2104192,0.20656021,0.8060617,0.6659694,-0.029006256,0.21274087,0.46513084,0.005052022,-0.34508052,0.04569083,-0.07842796,786.52014,798.60803,788.5348,797.3993,810.293,0.20233154296875,0.1915283203125,0.96881103515625,-1.248626708984375,5.3533935546875,12.329254150390625,1,1.0,1.0,1.0,1.0,10.00
2024-10-11 20:42:12.724,0.5208088,0.16527382,0.09339128,0.5653198,0.6718196,-0.04268152,-0.1466747,0.40478453,0.93448347,0.2104192,0.20656021,0.8060617,0.6659694,-0.029006256,0.21274087,0.46513084,0.005052022,-0.34508052,0.04569083,-0.07842796,790.54944,799.011,802.23444,803.8461,832.8571,0.20233154296875,0.1915283203125,0.96881103515625,-1.248626708984375,5.3533935546875,12.329254150390625,1,1.0,1.0,1.0,1.0,10.00
2024-10-11 20:42:12.725,0.5208088,0.16527382,0.09339128,0.5653198,0.6718196,-0.04268152,-0.1466747,0.40478453,0.93448347,0.2104192,0.20656021,0.8060617,0.6659694,-0.029006256,0.21274087,0.46513084,0.005052022,-0.34508052,0.04569083,-0.07842796,794.17584,801.02563,807.47253,800.2198,881.2088,0.20233154296875,0.1915283203125,0.96881103515625,-1.248626708984375,5.3533935546875,12.329254150390625,1,1.0,1.0,1.0,1.0,10.00
2024-10-11 20:42:12.726,0.5208088,0.16527382,0.09339128,0.5653198,0.6718196,-0.04268152,-0.1466747,0.40478453,0.93448347,0.2104192,0.20656021,0.8060617,0.6659694,-0.029006256,0.21274087,0.46513084,0.005052022,-0.34508052,0.04569083,-0.07842796,795.78754,797.8022,811.0989,805.4579,834.0659,0.20233154296875,0.1915283203125,0.96881103515625,-1.248626708984375,5.3533935546875,12.329254150390625,1,1.0,1.0,1.0,1.0,10.00
2024-10-11 20:42:12.726,0.5208088,0.16527382,0.09339128,0.5653198,0.6718196,-0.04268152,-0.1466747,0.40478453,0.93448347,0.2104192,0.20656021,0.8060617,0.6659694,-0.029006256,0.21274087,0.46513084,0.005052022,-0.34508052,0.04569083,-0.07842796,803.44324,799.81683,817.1429,809.4872,794.57874,0.20233154296875,0.1915283203125,0.96881103515625,-1.248626708984375,5.3533935546875,12.329254150390625,1,1.0,1.0,1.0,1.0,10.00
2024-10-11 20:42:12.727,0.5208088,0.16527382,0.09339128,0.5653198,0.6718196,-0.04268152,-0.1466747,0.40478453,0.93448347,0.2104192,0.20656021,0.8060617,0.6659694,-0.029006256,0.21274087,0.46513084,0.005052022,-0.34508052,0.04569083,-0.07842796,809.4872,804.2491,810.293,803.0403,872.3443,0.20233154296875,0.1915283203125,0.96881103515625,-1.248626708984375,5.3533935546875,12.329254150390625,1,1.0,1.0,1.0,1.0,10.00
2024-10-11 20:42:12.728,0.5208088,0.16527382,0.09339128,0.5653198,0.6718196,-0.04268152,-0.1466747,0.40478453,0.93448347,0.2104192,0.20656021,0.8060617,0.6659694,-0.029006256,0.21274087,0.46513084,0.005052022,-0.34508052,0.04569083,-0.07842796,801.4286,802.6374,803.8461,794.17584,994.43225,0.20233154296875,0.1915283203125,0.96881103515625,-1.248626708984375,5.3533935546875,12.329254150390625,1,1.0,1.0,1.0,1.0,10.00
2024-10-11 20:42:12.728,0.5208088,0.16527382,0.09339128,0.5653198,0.6718196,-0.04268152,-0.1466747,0.40478453,0.93448347,0.2104192,0.20656021,0.8060617,0.6659694,-0.029006256,0.21274087,0.46513084,0.005052022,-0.34508052,0.04569083,-0.07842796,801.02563,799.41394,798.60803,791.3553,854.61536,0.20233154296875,0.1915283203125,0.96881103515625,-1.248626708984375,5.3533935546875,12.329254150390625,1,1.0,1.0,1.0,1.0,10.00
2024-10-11 20:42:12.729,0.5208088,0.16527382,0.09339128,0.5653198,0.6718196,-0.04268152,-0.1466747,0.40478453,0.93448347,0.2104192,0.20656021,0.8060617,0.6659694,-0.029006256,0.21274087,0.46513084,0.005052022,-0.34508052,0.04569083,-0.07842796,803.44324,796.1905,799.81683,790.54944,649.12085,0.20233154296875,0.1915283203125,0.96881103515625,-1.248626708984375,5.3533935546875,12.329254150390625,1,1.0,1.0,1.0,1.0,10.00
2024-10-11 20:42:12.729,0.5208088,0.16527382,0.09339128,0.5653198,0.6718196,-0.04268152,-0.1466747,0.40478453,0.93448347,0.2104192,0.20656021,0.8060617,0.6659694,-0.029006256,0.21274087,0.46513084,0.005052022,-0.34508052,0.04569083,-0.07842796,792.5641,794.17584,796.5934,791.3553,773.6264,0.20233154296875,0.1915283203125,0.96881103515625,-1.248626708984375,5.3533935546875,12.329254150390625,1,1.0,1.0,1.0,1.0,10.00
2024-10-11 20:42:12.730,0.5208088,0.16527382,0.09339128,0.5653198,0.6718196,-0.04268152,-0.1466747,0.40478453,0.93448347,0.2104192,0.20656021,0.8060617,0.6659694,-0.029006256,0.21274087,0.46513084,0.005052022,-0.34508052,0.04569083,-0.07842796,786.1172,790.54944,787.326,794.17584,918.68134,0.20233154296875,0.1915283203125,0.96881103515625,-1.248626708984375,5.3533935546875,12.329254150390625,1,1.0,1.0,1.0,1.0,10.00
2024-10-11 20:42:12.791,0.5208088,0.16527382,0.09339128,0.5653198,0.6718196,-0.04268152,-0.1466747,0.40478453,0.93448347,0.2104192,0.20656021,0.8060617,0.6659694,-0.029006256,0.21274087,0.46513084,0.005052022,-0.34508052,0.04569083,-0.07842796,796.1905,795.38464,778.86444,792.5641,798.20514,0.19830322265625,0.1810302734375,0.96795654296875,-1.89910888671875,6.4599609375,13.166656494140625,1,1.0,1.0,1.0,1.0,10.00
2024-10-11 20:42:12.793,0.5208088,0.16527382,0.09339128,0.5653198,0.6718196,-0.04268152,-0.1466747,0.40478453,0.93448347,0.2104192,0.20656021,0.8060617,0.6659694,-0.029006256,0.21274087,0.46513084,0.005052022,-0.34508052,0.04569083,-0.07842796,802.23444,796.1905,792.5641,794.57874,592.71063,0.19830322265625,0.1810302734375,0.96795654296875,-1.89910888671875,6.4599609375,13.166656494140625,1,1.0,1.0,1.0,1.0,10.00
2024-10-11 20:42:12.793,0.5208088,0.16527382,0.09339128,0.5653198,0.6718196,-0.04268152,-0.1466747,0.40478453,0.93448347,0.2104192,0.20656021,0.8060617,0.6659694,-0.029006256,0.21274087,0.46513084,0.005052022,-0.34508052,0.04569083,-0.07842796,799.81683,790.9524,801.02563,801.02563,689.011,0.19830322265625,0.1810302734375,0.96795654296875,-1.89910888671875,6.4599609375,13.166656494140625,1,1.0,1.0,1.0,1.0,10.00
2024-10-11 20:42:12.794,0.5208088,0.16527382,0.09339128,0.5653198,0.6718196,-0.04268152,-0.1466747,0.40478453,0.93448347,0.2104192,0.20656021,0.8060617,0.6659694,-0.029006256,0.21274087,0.46513084,0.005052022,-0.34508052,0.04569083,-0.07842796,800.6227,797.8022,794.9817,803.44324,1075.8242,0.19830322265625,0.1810302734375,0.96795654296875,-1.89910888671875,6.4599609375,13.166656494140625,1,1.0,1.0,1.0,1.0,10.00
2024-10-11 20:42:12.795,0.5208088,0.16527382,0.09339128,0.5653198,0.6718196,-0.04268152,-0.1466747,0.40478453,0.93448347,0.2104192,0.20656021,0.8060617,0.6659694,-0.029006256,0.21274087,0.46513084,0.005052022,-0.34508052,0.04569083,-0.07842796,796.1905,801.8315,803.0403,795.38464,936.8132,0.19830322265625,0.1810302734375,0.96795654296875,-1.89910888671875,6.4599609375,13.166656494140625,1,1.0,1.0,1.0,1.0,10.00
2024-10-11 20:42:12.796,0.5208088,0.16527382,0.09339128,0.5653198,0.6718196,-0.04268152,-0.1466747,0.40478453,0.93448347,0.2104192,0.20656021,0.8060617,0.6659694,-0.029006256,0.21274087,0.46513084,0.005052022,-0.34508052,0.04569083,-0.07842796,798.60803,793.7729,804.65204,780.87915,728.0952,0.19830322265625,0.1810302734375,0.96795654296875,-1.89910888671875,6.4599609375,13.166656494140625,1,1.0,1.0,1.0,1.0,10.00
2024-10-11 20:42:12.796,0.5208088,0.16527382,0.09339128,0.5653198,0.6718196,-0.04268152,-0.1466747,0.40478453,0.93448347,0.2104192,0.20656021,0.8060617,0.6659694,-0.029006256,0.21274087,0.46513084,0.005052022,-0.34508052,0.04569083,-0.07842796,803.44324,789.7436,790.54944,779.67035,857.4359,0.19830322265625,0.1810302734375,0.96795654296875,-1.89910888671875,6.4599609375,13.166656494140625,1,1.0,1.0,1.0,1.0,10.00
2024-10-11 20:42:12.797,0.5208088,0.16527382,0.09339128,0.5653198,0.6718196,-0.04268152,-0.1466747,0.40478453,0.93448347,0.2104192,0.20656021,0.8060617,0.6659694,-0.029006256,0.21274087,0.46513084,0.005052022,-0.34508052,0.04569083,-0.07842796,796.99634,789.34064,787.72894,792.1612,808.68134,0.19830322265625,0.1810302734375,0.96795654296875,-1.89910888671875,6.4599609375,13.166656494140625,1,1.0,1.0,1.0,1.0,10.00
2024-10-11 20:42:12.798,0.5208088,0.16527382,0.09339128,0.5653198,0.6718196,-0.04268152,-0.1466747,0.40478453,0.93448347,0.2104192,0.20656021,0.8060617,0.6659694,-0.029006256,0.21274087,0.46513084,0.005052022,-0.34508052,0.04569083,-0.07842796,801.8315,793.36993,796.1905,799.011,638.6447,0.19830322265625,0.1810302734375,0.96795654296875,-1.89910888671875,6.4599609375,13.166656494140625,1,1.0,1.0,1.0,1.0,10.00
2024-10-11 20:42:12.798,0.5208088,0.16527382,0.09339128,0.5653198,0.6718196,-0.04268152,-0.1466747,0.40478453,0.93448347,0.2104192,0.20656021,0.8060617,0.6659694,-0.029006256,0.21274087,0.46513084,0.005052022,-0.34508052,0.04569083,-0.07842796,805.05493,796.5934,798.20514,801.8315,676.9231,0.19830322265625,0.1810302734375,0.96795654296875,-1.89910888671875,6.4599609375,13.166656494140625,1,1.0,1.0,1.0,1.0,10.00
2024-10-11 20:42:12.799,0.5208088,0.16527382,0.09339128,0.5653198,0.6718196,-0.04268152,-0.1466747,0.40478453,0.93448347,0.2104192,0.20656021,0.8060617,0.6659694,-0.029006256,0.21274087,0.46513084,0.005052022,-0.34508052,0.04569083,-0.07842796,803.44324,789.34064,796.99634,814.7253,648.71796,0.19830322265625,0.1810302734375,0.96795654296875,-1.89910888671875,6.4599609375,13.166656494140625,1,1.0,1.0,1.0,1.0,10.00
2024-10-11 20:42:12.799,0.5208088,0.21871056,0.09339128,0.5760073,0.6718196,-0.098983906,-0.1466747,0.41985688,0.93448347,0.21255809,0.20656021,0.8490565,0.6659694,-0.019665223,0.21274087,0.4569026,0.005052022,-0.36181483,0.04569083,-0.067228,808.68134,795.38464,794.57874,817.9487,610.0366,0.19830322265625,0.1810302734375,0.96795654296875,-1.89910888671875,6.4599609375,13.166656494140625,1,1.0,1.0,1.0,1.0,10.00
2024-10-11 20:42:12.826,0.5208088,0.21871056,0.09339128,0.5760073,0.6718196,-0.098983906,-0.1466747,0.41985688,0.93448347,0.21255809,0.20656021,0.8490565,0.6659694,-0.019665223,0.21274087,0.4569026,0.005052022,-0.36181483,0.04569083,-0.067228,808.68134,807.8755,791.3553,804.2491,538.71796,0.18670654296875,0.17626953125,0.9749755859375,-2.093505859375,8.17962646484375,13.675079345703125,1,1.0,1.0,1.0,1.0,10.00
2024-10-11 20:42:12.827,0.5208088,0.21871056,0.09339128,0.5760073,0.6718196,-0.098983906,-0.1466747,0.41985688,0.93448347,0.21255809,0.20656021,0.8490565,0.6659694,-0.019665223,0.21274087,0.4569026,0.005052022,-0.36181483,0.04569083,-0.067228,806.6667,806.6667,797.3993,796.1905,559.2674,0.18670654296875,0.17626953125,0.9749755859375,-2.093505859375,8.17962646484375,13.675079345703125,1,1.0,1.0,1.0,1.0,10.00
2024-10-11 20:42:12.828,0.5208088,0.21871056,0.09339128,0.5760073,0.6718196,-0.098983906,-0.1466747,0.41985688,0.93448347,0.21255809,0.20656021,0.8490565,0.6659694,-0.019665223,0.21274087,0.4569026,0.005052022,-0.36181483,0.04569083,-0.067228,805.4579,799.011,800.6227,797.3993,664.0293,0.18670654296875,0.17626953125,0.9749755859375,-2.093505859375,8.17962646484375,13.675079345703125,1,1.0,1.0,1.0,1.0,10.00
2024-10-11 20:42:12.829,0.5208088,0.21871056,0.09339128,0.5760073,0.6718196,-0.098983906,-0.1466747,0.41985688,0.93448347,0.21255809,0.20656021,0.8490565,0.6659694,-0.019665223,0.21274087,0.4569026,0.005052022,-0.36181483,0.04569083,-0.067228,801.8315,801.4286,802.23444,797.3993,678.1319,0.18670654296875,0.17626953125,0.9749755859375,-2.093505859375,8.17962646484375,13.675079345703125,1,1.0,1.0,1.0,1.0,10.00
2024-10-11 20:42:12.830,0.5208088,0.21871056,0.09339128,0.5760073,0.6718196,-0.098983906,-0.1466747,0.41985688,0.93448347,0.21255809,0.20656021,0.8490565,0.6659694,-0.019665223,0.21274087,0.4569026,0.005052022,-0.36181483,0.04569083,-0.067228,796.99634,801.8315,809.89014,794.9817,624.1392,0.18670654296875,0.17626953125,0.9749755859375,-2.093505859375,8.17962646484375,13.675079345703125,1,1.0,1.0,1.0,1.0,10.00
2024-10-11 20:42:12.830,0.5208088,0.21871056,0.09339128,0.5760073,0.6718196,-0.098983906,-0.1466747,0.41985688,0.93448347,0.21255809,0.20656021,0.8490565,0.6659694,-0.019665223,0.21274087,0.4569026,0.005052022,-0.36181483,0.04569083,-0.067228,803.0403,798.60803,805.05493,794.57874,744.21246,0.18670654296875,0.17626953125,0.9749755859375,-2.093505859375,8.17962646484375,13.675079345703125,1,1.0,1.0,1.0,1.0,10.00
2024-10-11 20:42:12.831,0.5208088,0.21871056,0.09339128,0.5760073,0.6718196,-0.098983906,-0.1466747,0.41985688,0.93448347,0.21255809,0.20656021,0.8490565,0.6659694,-0.019665223,0.21274087,0.4569026,0.005052022,-0.36181483,0.04569083,-0.067228,807.47253,799.41394,794.17584,790.9524,875.16486,0.18670654296875,0.17626953125,0.9749755859375,-2.093505859375,8.17962646484375,13.675079345703125,1,1.0,1.0,1.0,1.0,10.00
2024-10-11 20:42:12.832,0.5208088,0.21871056,0.09339128,0.5760073,0.6718196,-0.098983906,-0.1466747,0.41985688,0.93448347,0.21255809,0.20656021,0.8490565,0.6659694,-0.019665223,0.21274087,0.4569026,0.005052022,-0.36181483,0.04569083,-0.067228,809.0842,796.5934,793.7729,784.5055,704.3223,0.18670654296875,0.17626953125,0.9749755859375,-2.093505859375,8.17962646484375,13.675079345703125,1,1.0,1.0,1.0,1.0,10.00
2024-10-11 20:42:12.833,0.5208088,0.21871056,0.09339128,0.5760073,0.6718196,-0.098983906,-0.1466747,0.41985688,0.93448347,0.21255809,0.20656021,0.8490565,0.6659694,-0.019665223,0.21274087,0.4569026,0.005052022,-0.36181483,0.04569083,-0.067228,803.8461,794.57874,798.20514,784.5055,498.82785,0.18670654296875,0.17626953125,0.9749755859375,-2.093505859375,8.17962646484375,13.675079345703125,1,1.0,1.0,1.0,1.0,10.00
2024-10-11 20:42:12.833,0.5208088,0.21871056,0.09339128,0.5760073,0.6718196,-0.098983906,-0.1466747,0.41985688,0.93448347,0.21255809,0.20656021,0.8490565,0.6659694,-0.019665223,0.21274087,0.4569026,0.005052022,-0.36181483,0.04569083,-0.067228,802.23444,789.7436,800.6227,792.1612,577.3993,0.18670654296875,0.17626953125,0.9749755859375,-2.093505859375,8.17962646484375,13.675079345703125,1,1.0,1.0,1.0,1.0,10.00
2024-10-11 20:42:12.834,0.5208088,0.21871056,0.09339128,0.5760073,0.6718196,-0.098983906,-0.1466747,0.41985688,0.93448347,0.21255809,0.20656021,0.8490565,0.6659694,-0.019665223,0.21274087,0.4569026,0.005052022,-0.36181483,0.04569083,-0.067228,810.696,786.9231,795.78754,800.6227,892.0879,0.18670654296875,0.17626953125,0.9749755859375,-2.093505859375,8.17962646484375,13.675079345703125,1,1.0,1.0,1.0,1.0,10.00
2024-10-11 20:42:12.835,0.5208088,0.21871056,0.09339128,0.5760073,0.6718196,-0.098983906,-0.1466747,0.41985688,0.93448347,0.21255809,0.20656021,0.8490565,0.6659694,-0.019665223,0.21274087,0.4569026,0.005052022,-0.36181483,0.04569083,-0.067228,809.0842,796.1905,792.1612,801.02563,896.1172,0.18670654296875,0.17626953125,0.9749755859375,-2.093505859375,8.17962646484375,13.675079345703125,1,1.0,1.0,1.0,1.0,10.00
2024-10-11 20:42:12.836,0.5208088,0.21871056,0.09339128,0.5760073,0.6718196,-0.098983906,-0.1466747,0.41985688,0.93448347,0.21255809,0.20656021,0.8490565,0.6659694,-0.019665223,0.21274087,0.4569026,0.005052022,-0.36181483,0.04569083,-0.067228,806.26373,800.2198,787.326,803.44324,672.8938,0.1781005859375,0.16741943359375,0.98394775390625,-2.803802490234375,9.70489501953125,13.839569091796875,1,1.0,1.0,1.0,1.0,10.00
2024-10-11 20:42:12.836,0.5208088,0.21871056,0.09339128,0.5760073,0.6718196,-0.098983906,-0.1466747,0.41985688,0.93448347,0.21255809,0.20656021,0.8490565,0.6659694,-0.019665223,0.21274087,0.4569026,0.005052022,-0.36181483,0.04569083,-0.067228,807.0696,799.011,788.93774,811.50183,777.6557,0.1781005859375,0.16741943359375,0.98394775390625,-2.803802490234375,9.70489501953125,13.839569091796875,1,1.0,1.0,1.0,1.0,10.00
2024-10-11 20:42:12.837,0.5208088,0.21871056,0.09339128,0.5760073,0.6718196,-0.098983906,-0.1466747,0.41985688,0.93448347,0.21255809,0.20656021,0.8490565,0.6659694,-0.019665223,0.21274087,0.4569026,0.005052022,-0.36181483,0.04569083,-0.067228,808.2784,803.0403,800.2198,812.3077,900.14655,0.1781005859375,0.16741943359375,0.98394775390625,-2.803802490234375,9.70489501953125,13.839569091796875,1,1.0,1.0,1.0,1.0,10.00
2024-10-11 20:42:12.838,0.5208088,0.21871056,0.09339128,0.5760073,0.6718196,-0.098983906,-0.1466747,0.41985688,0.93448347,0.21255809,0.20656021,0.8490565,0.6659694,-0.019665223,0.21274087,0.4569026,0.005052022,-0.36181483,0.04569083,-0.067228,802.6374,802.6374,805.05493,805.4579,706.7399,0.1781005859375,0.16741943359375,0.98394775390625,-2.803802490234375,9.70489501953125,13.839569091796875,1,1.0,1.0,1.0,1.0,10.00
2024-10-11 20:42:12.839,0.5208088,0.21871056,0.09339128,0.5760073,0.6718196,-0.098983906,-0.1466747,0.41985688,0.93448347,0.21255809,0.20656021,0.8490565,0.6659694,-0.019665223,0.21274087,0.4569026,0.005052022,-0.36181483,0.04569083,-0.067228,803.44324,796.99634,802.6374,805.8608,590.293,0.1781005859375,0.16741943359375,0.98394775390625,-2.803802490234375,9.70489501953125,13.839569091796875,1,1.0,1.0,1.0,1.0,10.00
2024-10-11 20:42:12.840,0.5208088,0.21871056,0.09339128,0.5760073,0.6718196,-0.098983906,-0.1466747,0.41985688,0.93448347,0.21255809,0.20656021,0.8490565,0.6659694,-0.019665223,0.21274087,0.4569026,0.005052022,-0.36181483,0.04569083,-0.067228,810.696,795.38464,797.3993,810.293,901.3553,0.1781005859375,0.16741943359375,0.98394775390625,-2.803802490234375,9.70489501953125,13.839569091796875,1,1.0,1.0,1.0,1.0,10.00
2024-10-11 20:42:12.841,0.5208088,0.21871056,0.09339128,0.5760073,0.6718196,-0.098983906,-0.1466747,0.41985688,0.93448347,0.21255809,0.20656021,0.8490565,0.6659694,-0.019665223,0.21274087,0.4569026,0.005052022,-0.36181483,0.04569083,-0.067228,809.89014,790.9524,797.8022,807.0696,1137.0696,0.1781005859375,0.16741943359375,0.98394775390625,-2.803802490234375,9.70489501953125,13.839569091796875,1,1.0,1.0,1.0,1.0,10.00
2024-10-11 20:42:12.842,0.5208088,0.21871056,0.09339128,0.5760073,0.6718196,-0.098983906,-0.1466747,0.41985688,0.93448347,0.21255809,0.20656021,0.8490565,0.6659694,-0.019665223,0.21274087,0.4569026,0.005052022,-0.36181483,0.04569083,-0.067228,811.0989,790.9524,799.81683,811.0989,772.4176,0.1781005859375,0.16741943359375,0.98394775390625,-2.803802490234375,9.70489501953125,13.839569091796875,1,1.0,1.0,1.0,1.0,10.00
2024-10-11 20:42:12.843,0.5208088,0.21871056,0.09339128,0.5760073,0.6718196,-0.098983906,-0.1466747,0.41985688,0.93448347,0.21255809,0.20656021,0.8490565,0.6659694,-0.019665223,0.21274087,0.4569026,0.005052022,-0.36181483,0.04569083,-0.067228,815.9341,793.36993,798.60803,813.1135,666.8498,0.1781005859375,0.16741943359375,0.98394775390625,-2.803802490234375,9.70489501953125,13.839569091796875,1,1.0,1.0,1.0,1.0,10.00
2024-10-11 20:42:12.845,0.5208088,0.21871056,0.09339128,0.5760073,0.6718196,-0.098983906,-0.1466747,0.41985688,0.93448347,0.21255809,0.20656021,0.8490565,0.6659694,-0.019665223,0.21274087,0.4569026,0.005052022,-0.36181483,0.04569083,-0.067228,811.50183,793.36993,786.1172,805.05493,848.97437,0.1781005859375,0.16741943359375,0.98394775390625,-2.803802490234375,9.70489501953125,13.839569091796875,1,1.0,1.0,1.0,1.0,10.00
2024-10-11 20:42:12.846,0.5208088,0.21871056,0.09339128,0.5760073,0.6718196,-0.098983906,-0.1466747,0.41985688,0.93448347,0.21255809,0.20656021,0.8490565,0.6659694,-0.019665223,0.21274087,0.4569026,0.005052022,-0.36181483,0.04569083,-0.067228,809.0842,796.5934,789.34064,806.6667,804.2491,0.1781005859375,0.16741943359375,0.98394775390625,-2.803802490234375,9.70489501953125,13.839569091796875,1,1.0,1.0,1.0,1.0,10.00
2024-10-11 20:42:12.847,0.5208088,0.21871056,0.09339128,0.5760073,0.6718196,-0.098983906,-0.1466747,0.41985688,0.93448347,0.21255809,0.20656021,0.8490565,0.6659694,-0.019665223,0.21274087,0.4569026,0.005052022,-0.36181483,0.04569083,-0.067228,805.4579,793.36993,784.10254,812.71063,663.22345,0.1781005859375,0.16741943359375,0.98394775390625,-2.803802490234375,9.70489501953125,13.839569091796875,1,1.0,1.0,1.0,1.0,10.00
2024-10-11 20:42:12.917,0.5208088,0.21871056,0.09339128,0.5760073,0.6718196,-0.098983906,-0.1466747,0.41985688,0.93448347,0.21255809,0.20656021,0.8490565,0.6659694,-0.019665223,0.21274087,0.4569026,0.005052022,-0.36181483,0.04569083,-0.067228,796.1905,792.5641,778.0586,803.8461,614.0659,0.17193603515625,0.1612548828125,0.98101806640625,-2.76641845703125,12.51617431640625,13.585357666015625,1,1.0,1.0,1.0,1.0,10.00
2024-10-11 20:42:12.918,0.5208088,0.36936563,-0.067240596,0.62005633,0.6718196,-0.105828926,-0.22110833,0.46173364,0.93448347,0.21255809,0.027652811,0.89606225,0.6659694,-0.019052241,0.21286617,0.4505941,0.005052022,-0.38001254,0.07015381,-0.05452138,800.6227,796.5934,802.23444,792.5641,724.4689,0.17193603515625,0.1612548828125,0.98101806640625,-2.76641845703125,12.51617431640625,13.585357666015625,1,1.0,1.0,1.0,1.0,10.00
2024-10-11 20:42:12.925,0.5208088,0.36936563,-0.067240596,0.62005633,0.6718196,-0.105828926,-0.22110833,0.46173364,0.93448347,0.21255809,0.027652811,0.89606225,0.6659694,-0.019052241,0.21286617,0.4505941,0.005052022,-0.38001254,0.07015381,-0.05452138,806.26373,793.36993,800.6227,793.36993,855.0183,0.17193603515625,0.1612548828125,0.98101806640625,-2.76641845703125,12.51617431640625,13.585357666015625,1,1.0,1.0,1.0,1.0,10.00
2024-10-11 20:42:12.926,0.5208088,0.36936563,-0.067240596,0.62005633,0.6718196,-0.105828926,-0.22110833,0.46173364,0.93448347,0.21255809,0.027652811,0.89606225,0.6659694,-0.019052241,0.21286617,0.4505941,0.005052022,-0.38001254,0.07015381,-0.05452138,802.6374,788.1319,790.54944,788.93774,693.44324,0.17193603515625,0.1612548828125,0.98101806640625,-2.76641845703125,12.51617431640625,13.585357666015625,1,1.0,1.0,1.0,1.0,10.00
2024-10-11 20:42:12.927,0.5208088,0.36936563,-0.067240596,0.62005633,0.6718196,-0.105828926,-0.22110833,0.46173364,0.93448347,0.21255809,0.027652811,0.89606225,0.6659694,-0.019052241,0.21286617,0.4505941,0.005052022,-0.38001254,0.07015381,-0.05452138,792.96704,787.326,796.5934,785.7143,542.3443,0.17193603515625,0.1612548828125,0.98101806640625,-2.76641845703125,12.51617431640625,13.585357666015625,1,1.0,1.0,1.0,1.0,10.00
2024-10-11 20:42:12.928,0.5208088,0.36936563,-0.067240596,0.62005633,0.6718196,-0.105828926,-0.22110833,0.46173364,0.93448347,0.21255809,0.027652811,0.89606225,0.6659694,-0.019052241,0.21286617,0.4505941,0.005052022,-0.38001254,0.07015381,-0.05452138,792.5641,789.34064,794.57874,799.41394,925.12823,0.17193603515625,0.1612548828125,0.98101806640625,-2.76641845703125,12.51617431640625,13.585357666015625,1,1.0,1.0,1.0,1.0,10.00
2024-10-11 20:42:12.929,0.5208088,0.36936563,-0.067240596,0.62005633,0.6718196,-0.105828926,-0.22110833,0.46173364,0.93448347,0.21255809,0.027652811,0.89606225,0.6659694,-0.019052241,0.21286617,0.4505941,0.005052022,-0.38001254,0.07015381,-0.05452138,808.2784,792.96704,794.57874,823.9927,1430.8059,0.17193603515625,0.1612548828125,0.98101806640625,-2.76641845703125,12.51617431640625,13.585357666015625,1,1.0,1.0,1.0,1.0,10.00
2024-10-11 20:42:12.929,0.5208088,0.36936563,-0.067240596,0.62005633,0.6718196,-0.105828926,-0.22110833,0.46173364,0.93448347,0.21255809,0.027652811,0.89606225,0.6659694,-0.019052241,0.21286617,0.4505941,0.005052022,-0.38001254,0.07015381,-0.05452138,806.6667,796.1905,801.4286,832.8571,1145.1282,0.17193603515625,0.1612548828125,0.98101806640625,-2.76641845703125,12.51617431640625,13.585357666015625,1,1.0,1.0,1.0,1.0,10.00
2024-10-11 20:42:12.930,0.5208088,0.36936563,-0.067240596,0.62005633,0.6718196,-0.105828926,-0.22110833,0.46173364,0.93448347,0.21255809,0.027652811,0.89606225,0.6659694,-0.019052241,0.21286617,0.4505941,0.005052022,-0.38001254,0.07015381,-0.05452138,806.26373,798.60803,796.99634,825.2015,716.8132,0.17193603515625,0.1612548828125,0.98101806640625,-2.76641845703125,12.51617431640625,13.585357666015625,1,1.0,1.0,1.0,1.0,10.00
2024-10-11 20:42:12.931,0.5208088,0.36936563,-0.067240596,0.62005633,0.6718196,-0.105828926,-0.22110833,0.46173364,0.93448347,0.21255809,0.027652811,0.89606225,0.6659694,-0.019052241,0.21286617,0.4505941,0.005052022,-0.38001254,0.07015381,-0.05452138,819.5604,796.5934,790.14655,813.91943,661.2088,0.17193603515625,0.1612548828125,0.98101806640625,-2.76641845703125,12.51617431640625,13.585357666015625,1,1.0,1.0,1.0,1.0,10.00
2024-10-11 20:42:12.932,0.5208088,0.36936563,-0.067240596,0.62005633,0.6718196,-0.105828926,-0.22110833,0.46173364,0.93448347,0.21255809,0.027652811,0.89606225,0.6659694,-0.019052241,0.21286617,0.4505941,0.005052022,-0.38001254,0.07015381,-0.05452138,819.5604,797.8022,792.96704,808.2784,578.20514,0.17193603515625,0.1612548828125,0.98101806640625,-2.76641845703125,12.51617431640625,13.585357666015625,1,1.0,1.0,1.0,1.0,10.00
2024-10-11 20:42:12.933,0.5208088,0.36936563,-0.067240596,0.62005633,0.6718196,-0.105828926,-0.22110833,0.46173364,0.93448347,0.21255809,0.027652811,0.89606225,0.6659694,-0.019052241,0.21286617,0.4505941,0.005052022,-0.38001254,0.07015381,-0.05452138,807.47253,803.8461,803.8461,798.20514,581.02563,0.17193603515625,0.1612548828125,0.98101806640625,-2.76641845703125,12.51617431640625,13.585357666015625,1,1.0,1.0,1.0,1.0,10.00
2024-10-11 20:42:12.961,0.5208088,0.36936563,-0.067240596,0.62005633,0.6718196,-0.105828926,-0.22110833,0.46173364,0.93448347,0.21255809,0.027652811,0.89606225,0.6659694,-0.019052241,0.21286617,0.4505941,0.005052022,-0.38001254,0.07015381,-0.05452138,807.8755,801.8315,803.0403,794.17584,585.05493,0.17193603515625,0.1612548828125,0.98101806640625,-2.76641845703125,12.51617431640625,13.585357666015625,1,1.0,1.0,1.0,1.0,10.00
2024-10-11 20:42:12.962,0.5208088,0.36936563,-0.067240596,0.62005633,0.6718196,-0.105828926,-0.22110833,0.46173364,0.93448347,0.21255809,0.027652811,0.89606225,0.6659694,-0.019052241,0.21286617,0.4505941,0.005052022,-0.38001254,0.07015381,-0.05452138,811.50183,796.5934,799.41394,803.44324,654.35895,0.17193603515625,0.1612548828125,0.98101806640625,-2.76641845703125,12.51617431640625,13.585357666015625,1,1.0,1.0,1.0,1.0,10.00
2024-10-11 20:42:12.963,0.5208088,0.36936563,-0.067240596,0.62005633,0.6718196,-0.105828926,-0.22110833,0.46173364,0.93448347,0.21255809,0.027652811,0.89606225,0.6659694,-0.019052241,0.21286617,0.4505941,0.005052022,-0.38001254,0.07015381,-0.05452138,795.78754,789.34064,801.8315,793.7729,612.4542,0.17193603515625,0.1612548828125,0.98101806640625,-2.76641845703125,12.51617431640625,13.585357666015625,1,1.0,1.0,1.0,1.0,10.00
2024-10-11 20:42:12.964,0.5208088,0.36936563,-0.067240596,0.62005633,0.6718196,-0.105828926,-0.22110833,0.46173364,0.93448347,0.21255809,0.027652811,0.89606225,0.6659694,-0.019052241,0.21286617,0.4505941,0.005052022,-0.38001254,0.07015381,-0.05452138,791.75824,788.5348,805.8608,791.75824,471.02563,0.17193603515625,0.1612548828125,0.98101806640625,-2.76641845703125,12.51617431640625,13.585357666015625,1,1.0,1.0,1.0,1.0,10.00
2024-10-11 20:42:12.964,0.5208088,0.36936563,-0.067240596,0.62005633,0.6718196,-0.105828926,-0.22110833,0.46173364,0.93448347,0.21255809,0.027652811,0.89606225,0.6659694,-0.019052241,0.21286617,0.4505941,0.005052022,-0.38001254,0.07015381,-0.05452138,786.1172,784.90845,811.9048,800.6227,551.2088,0.17193603515625,0.1612548828125,0.98101806640625,-2.76641845703125,12.51617431640625,13.585357666015625,1,1.0,1.0,1.0,1.0,10.00
2024-10-11 20:42:12.965,0.5208088,0.36936563,-0.067240596,0.62005633,0.6718196,-0.105828926,-0.22110833,0.46173364,0.93448347,0.21255809,0.027652811,0.89606225,0.6659694,-0.019052241,0.21286617,0.4505941,0.005052022,-0.38001254,0.07015381,-0.05452138,775.64105,782.8938,810.696,795.38464,736.1539,0.17193603515625,0.1612548828125,0.98101806640625,-2.76641845703125,12.51617431640625,13.585357666015625,1,1.0,1.0,1.0,1.0,10.00
2024-10-11 20:42:12.966,0.5208088,0.36936563,-0.067240596,0.62005633,0.6718196,-0.105828926,-0.22110833,0.46173364,0.93448347,0.21255809,0.027652811,0.89606225,0.6659694,-0.019052241,0.21286617,0.4505941,0.005052022,-0.38001254,0.07015381,-0.05452138,781.685,786.9231,812.3077,794.57874,754.2857,0.17193603515625,0.1612548828125,0.98101806640625,-2.76641845703125,12.51617431640625,13.585357666015625,1,1.0,1.0,1.0,1.0,10.00
2024-10-11 20:42:12.967,0.5208088,0.36936563,-0.067240596,0.62005633,0.6718196,-0.105828926,-0.22110833,0.46173364,0.93448347,0.21255809,0.027652811,0.89606225,0.6659694,-0.019052241,0.21286617,0.4505941,0.005052022,-0.38001254,0.07015381,-0.05452138,787.72894,788.93774,816.337,797.3993,550.40295,0.17193603515625,0.1612548828125,0.98101806640625,-2.76641845703125,12.51617431640625,13.585357666015625,1,1.0,1.0,1.0,1.0,10.00
2024-10-11 20:42:12.967,0.5208088,0.36936563,-0.067240596,0.62005633,0.6718196,-0.105828926,-0.22110833,0.46173364,0.93448347,0.21255809,0.027652811,0.89606225,0.6659694,-0.019052241,0.21286617,0.4505941,0.005052022,-0.38001254,0.07015381,-0.05452138,785.31134,786.9231,807.47253,793.36993,680.54944,0.17193603515625,0.1612548828125,0.98101806640625,-2.76641845703125,12.51617431640625,13.585357666015625,1,1.0,1.0,1.0,1.0,10.00
2024-10-11 20:42:12.968,0.5208088,0.36936563,-0.067240596,0.62005633,0.6718196,-0.105828926,-0.22110833,0.46173364,0.93448347,0.21255809,0.027652811,0.89606225,0.6659694,-0.019052241,0.21286617,0.4505941,0.005052022,-0.38001254,0.07015381,-0.05452138,787.326,784.10254,807.0696,797.3993,786.9231,0.17193603515625,0.1612548828125,0.98101806640625,-2.76641845703125,12.51617431640625,13.585357666015625,1,1.0,1.0,1.0,1.0,10.00
2024-10-11 20:42:12.969,0.5208088,0.36936563,-0.067240596,0.62005633,0.6718196,-0.105828926,-0.22110833,0.46173364,0.93448347,0.21255809,0.027652811,0.89606225,0.6659694,-0.019052241,0.21286617,0.4505941,0.005052022,-0.38001254,0.07015381,-0.05452138,780.07324,786.52014,809.4872,801.8315,509.70697,0.17193603515625,0.1612548828125,0.98101806640625,-2.76641845703125,12.51617431640625,13.585357666015625,1,1.0,1.0,1.0,1.0,10.00
2024-10-11 20:42:12.969,0.5208088,0.36936563,-0.067240596,0.62005633,0.6718196,-0.105828926,-0.22110833,0.46173364,0.93448347,0.21255809,0.027652811,0.89606225,0.6659694,-0.019052241,0.21286617,0.4505941,0.005052022,-0.38001254,0.07015381,-0.05452138,789.34064,790.54944,805.4579,805.8608,510.1099,0.17193603515625,0.1612548828125,0.98101806640625,-2.76641845703125,12.51617431640625,13.585357666015625,1,1.0,1.0,1.0,1.0,10.00
2024-10-11 20:42:12.970,0.5208088,0.36936563,-0.067240596,0.62005633,0.6718196,-0.105828926,-0.22110833,0.46173364,0.93448347,0.21255809,0.027652811,0.89606225,0.6659694,-0.019052241,0.21286617,0.4505941,0.005052022,-0.38001254,0.07015381,-0.05452138,799.41394,793.36993,813.5165,809.0842,680.9524,0.14666748046875,0.149169921875,0.98333740234375,-3.207550048828125,15.275115966796875,13.99658203125,1,1.0,1.0,1.0,1.0,10.00
2024-10-11 20:42:12.971,0.5208088,0.36936563,-0.067240596,0.62005633,0.6718196,-0.105828926,-0.22110833,0.46173364,0.93448347,0.21255809,0.027652811,0.89606225,0.6659694,-0.019052241,0.21286617,0.4505941,0.005052022,-0.38001254,0.07015381,-0.05452138,798.20514,795.78754,823.9927,810.293,620.9158,0.14666748046875,0.149169921875,0.98333740234375,-3.207550048828125,15.275115966796875,13.99658203125,1,1.0,1.0,1.0,1.0,10.00
2024-10-11 20:42:12.972,0.5208088,0.36936563,-0.067240596,0.62005633,0.6718196,-0.105828926,-0.22110833,0.46173364,0.93448347,0.21255809,0.027652811,0.89606225,0.6659694,-0.019052241,0.21286617,0.4505941,0.005052022,-0.38001254,0.07015381,-0.05452138,805.4579,796.5934,819.15753,812.71063,464.9817,0.14666748046875,0.149169921875,0.98333740234375,-3.207550048828125,15.275115966796875,13.99658203125,1,1.0,1.0,1.0,1.0,10.00
2024-10-11 20:42:12.972,0.49754268,0.5352514,-0.15687314,0.64869696,0.62188435,-0.08112732,-0.25294787,0.47282726,0.8664095,0.17575657,-0.087405674,0.890019,0.6524498,-0.019356977,0.21643008,0.44929308,0.004137696,-0.39334837,0.097182505,-0.030636681,818.7546,787.72894,815.12823,816.7399,519.3773,0.14666748046875,0.149169921875,0.98333740234375,-3.207550048828125,15.275115966796875,13.99658203125,1,1.0,1.0,1.0,1.0,10.00
2024-10-11 20:42:12.978,0.49754268,0.5352514,-0.15687314,0.64869696,0.62188435,-0.08112732,-0.25294787,0.47282726,0.8664095,0.17575657,-0.087405674,0.890019,0.6524498,-0.019356977,0.21643008,0.44929308,0.004137696,-0.39334837,0.097182505,-0.030636681,806.26373,784.90845,810.696,821.5751,619.304,0.14666748046875,0.149169921875,0.98333740234375,-3.207550048828125,15.275115966796875,13.99658203125,1,1.0,1.0,1.0,1.0,10.00
2024-10-11 20:42:12.979,0.49754268,0.5352514,-0.15687314,0.64869696,0.62188435,-0.08112732,-0.25294787,0.47282726,0.8664095,0.17575657,-0.087405674,0.890019,0.6524498,-0.019356977,0.21643008,0.44929308,0.004137696,-0.39334837,0.097182505,-0.030636681,792.96704,789.34064,801.02563,825.2015,711.978,0.14666748046875,0.149169921875,0.98333740234375,-3.207550048828125,15.275115966796875,13.99658203125,1,1.0,1.0,1.0,1.0,10.00
2024-10-11 20:42:12.980,0.49754268,0.5352514,-0.15687314,0.64869696,0.62188435,-0.08112732,-0.25294787,0.47282726,0.8664095,0.17575657,-0.087405674,0.890019,0.6524498,-0.019356977,0.21643008,0.44929308,0.004137696,-0.39334837,0.097182505,-0.030636681,797.3993,793.36993,803.8461,832.8571,686.1905,0.14666748046875,0.149169921875,0.98333740234375,-3.207550048828125,15.275115966796875,13.99658203125,1,1.0,1.0,1.0,1.0,10.00
2024-10-11 20:42:12.981,0.49754268,0.5352514,-0.15687314,0.64869696,0.62188435,-0.08112732,-0.25294787,0.47282726,0.8664095,0.17575657,-0.087405674,0.890019,0.6524498,-0.019356977,0.21643008,0.44929308,0.004137696,-0.39334837,0.097182505,-0.030636681,797.8022,792.1612,806.6667,822.7839,623.73627,0.14666748046875,0.149169921875,0.98333740234375,-3.207550048828125,15.275115966796875,13.99658203125,1,1.0,1.0,1.0,1.0,10.00
2024-10-11 20:42:12.982,0.49754268,0.5352514,-0.15687314,0.64869696,0.62188435,-0.08112732,-0.25294787,0.47282726,0.8664095,0.17575657,-0.087405674,0.890019,0.6524498,-0.019356977,0.21643008,0.44929308,0.004137696,-0.39334837,0.097182505,-0.030636681,806.26373,794.17584,796.99634,811.0989,981.53845,0.14666748046875,0.149169921875,0.98333740234375,-3.207550048828125,15.275115966796875,13.99658203125,1,1.0,1.0,1.0,1.0,10.00
2024-10-11 20:42:12.982,0.49754268,0.5352514,-0.15687314,0.64869696,0.62188435,-0.08112732,-0.25294787,0.47282726,0.8664095,0.17575657,-0.087405674,0.890019,0.6524498,-0.019356977,0.21643008,0.44929308,0.004137696,-0.39334837,0.097182505,-0.030636681,808.2784,800.2198,802.23444,809.4872,940.4396,0.14666748046875,0.149169921875,0.98333740234375,-3.207550048828125,15.275115966796875,13.99658203125,1,1.0,1.0,1.0,1.0,10.00
2024-10-11 20:42:12.983,0.49754268,0.5352514,-0.15687314,0.64869696,0.62188435,-0.08112732,-0.25294787,0.47282726,0.8664095,0.17575657,-0.087405674,0.890019,0.6524498,-0.019356977,0.21643008,0.44929308,0.004137696,-0.39334837,0.097182505,-0.030636681,803.44324,799.81683,807.0696,799.81683,507.28937,0.14666748046875,0.149169921875,0.98333740234375,-3.207550048828125,15.275115966796875,13.99658203125,1,1.0,1.0,1.0,1.0,10.00
2024-10-11 20:42:12.984,0.49754268,0.5352514,-0.15687314,0.64869696,0.62188435,-0.08112732,-0.25294787,0.47282726,0.8664095,0.17575657,-0.087405674,0.890019,0.6524498,-0.019356977,0.21643008,0.44929308,0.004137696,-0.39334837,0.097182505,-0.030636681,806.26373,797.8022,807.8755,807.8755,626.9597,0.14666748046875,0.149169921875,0.98333740234375,-3.207550048828125,15.275115966796875,13.99658203125,1,1.0,1.0,1.0,1.0,10.00
2024-10-11 20:42:13.052,0.49754268,0.5352514,-0.15687314,0.64869696,0.62188435,-0.08112732,-0.25294787,0.47282726,0.8664095,0.17575657,-0.087405674,0.890019,0.6524498,-0.019356977,0.21643008,0.44929308,0.004137696,-0.39334837,0.097182505,-0.030636681,803.8461,796.1905,811.0989,821.1722,691.4286,0.13446044921875,0.144775390625,0.98687744140625,-3.147735595703125,17.1966552734375,15.013427734375,1,1.0,1.0,1.0,1.0,10.00
2024-10-11 20:42:13.054,0.49754268,0.5352514,-0.15687314,0.64869696,0.62188435,-0.08112732,-0.25294787,0.47282726,0.8664095,0.17575657,-0.087405674,0.890019,0.6524498,-0.019356977,0.21643008,0.44929308,0.004137696,-0.39334837,0.097182505,-0.030636681,795.78754,793.7729,801.8315,823.1868,535.89746,0.13446044921875,0.144775390625,0.98687744140625,-3.147735595703125,17.1966552734375,15.013427734375,1,1.0,1.0,1.0,1.0,10.00
2024-10-11 20:42:13.054,0.49754268,0.5352514,-0.15687314,0.64869696,0.62188435,-0.08112732,-0.25294787,0.47282726,0.8664095,0.17575657,-0.087405674,0.890019,0.6524498,-0.019356977,0.21643008,0.44929308,0.004137696,-0.39334837,0.097182505,-0.030636681,803.44324,795.78754,796.1905,817.1429,489.56042,0.13446044921875,0.144775390625,0.98687744140625,-3.147735595703125,17.1966552734375,15.013427734375,1,1.0,1.0,1.0,1.0,10.00
2024-10-11 20:42:13.055,0.49754268,0.5352514,-0.15687314,0.64869696,0.62188435,-0.08112732,-0.25294787,0.47282726,0.8664095,0.17575657,-0.087405674,0.890019,0.6524498,-0.019356977,0.21643008,0.44929308,0.004137696,-0.39334837,0.097182505,-0.030636681,806.26373,797.3993,802.6374,801.02563,564.90845,0.13446044921875,0.144775390625,0.98687744140625,-3.147735595703125,17.1966552734375,15.013427734375,1,1.0,1.0,1.0,1.0,10.00
2024-10-11 20:42:13.056,0.49754268,0.5352514,-0.15687314,0.64869696,0.62188435,-0.08112732,-0.25294787,0.47282726,0.8664095,0.17575657,-0.087405674,0.890019,0.6524498,-0.019356977,0.21643008,0.44929308,0.004137696,-0.39334837,0.097182505,-0.030636681,810.696,799.011,810.293,793.7729,609.6337,0.13446044921875,0.144775390625,0.98687744140625,-3.147735595703125,17.1966552734375,15.013427734375,1,1.0,1.0,1.0,1.0,10.00
2024-10-11 20:42:13.056,0.49754268,0.5352514,-0.15687314,0.64869696,0.62188435,-0.08112732,-0.25294787,0.47282726,0.8664095,0.17575657,-0.087405674,0.890019,0.6524498,-0.019356977,0.21643008,0.44929308,0.004137696,-0.39334837,0.097182505,-0.030636681,807.8755,799.41394,802.23444,798.60803,659.19415,0.13446044921875,0.144775390625,0.98687744140625,-3.147735595703125,17.1966552734375,15.013427734375,1,1.0,1.0,1.0,1.0,10.00
2024-10-11 20:42:13.057,0.49754268,0.5352514,-0.15687314,0.64869696,0.62188435,-0.08112732,-0.25294787,0.47282726,0.8664095,0.17575657,-0.087405674,0.890019,0.6524498,-0.019356977,0.21643008,0.44929308,0.004137696,-0.39334837,0.097182505,-0.030636681,802.23444,799.81683,792.5641,801.4286,601.1722,0.13446044921875,0.144775390625,0.98687744140625,-3.147735595703125,17.1966552734375,15.013427734375,1,1.0,1.0,1.0,1.0,10.00
2024-10-11 20:42:13.058,0.49754268,0.5352514,-0.15687314,0.64869696,0.62188435,-0.08112732,-0.25294787,0.47282726,0.8664095,0.17575657,-0.087405674,0.890019,0.6524498,-0.019356977,0.21643008,0.44929308,0.004137696,-0.39334837,0.097182505,-0.030636681,802.6374,800.2198,803.44324,801.02563,803.44324,0.13446044921875,0.144775390625,0.98687744140625,-3.147735595703125,17.1966552734375,15.013427734375,1,1.0,1.0,1.0,1.0,10.00
2024-10-11 20:42:13.059,0.49754268,0.5352514,-0.15687314,0.64869696,0.62188435,-0.08112732,-0.25294787,0.47282726,0.8664095,0.17575657,-0.087405674,0.890019,0.6524498,-0.019356977,0.21643008,0.44929308,0.004137696,-0.39334837,0.097182505,-0.030636681,805.4579,794.17584,799.011,803.0403,998.46155,0.13446044921875,0.144775390625,0.98687744140625,-3.147735595703125,17.1966552734375,15.013427734375,1,1.0,1.0,1.0,1.0,10.00
2024-10-11 20:42:13.060,0.49754268,0.5352514,-0.15687314,0.64869696,0.62188435,-0.08112732,-0.25294787,0.47282726,0.8664095,0.17575657,-0.087405674,0.890019,0.6524498,-0.019356977,0.21643008,0.44929308,0.004137696,-0.39334837,0.097182505,-0.030636681,811.50183,797.3993,796.99634,799.81683,635.0183,0.13446044921875,0.144775390625,0.98687744140625,-3.147735595703125,17.1966552734375,15.013427734375,1,1.0,1.0,1.0,1.0,10.00
2024-10-11 20:42:13.061,0.49754268,0.5352514,-0.15687314,0.64869696,0.62188435,-0.08112732,-0.25294787,0.47282726,0.8664095,0.17575657,-0.087405674,0.890019,0.6524498,-0.019356977,0.21643008,0.44929308,0.004137696,-0.39334837,0.097182505,-0.030636681,803.8461,793.36993,805.05493,790.9524,582.23444,0.13446044921875,0.144775390625,0.98687744140625,-3.147735595703125,17.1966552734375,15.013427734375,1,1.0,1.0,1.0,1.0,10.00
2024-10-11 20:42:13.061,0.49754268,0.5352514,-0.15687314,0.64869696,0.62188435,-0.08112732,-0.25294787,0.47282726,0.8664095,0.17575657,-0.087405674,0.890019,0.6524498,-0.019356977,0.21643008,0.44929308,0.004137696,-0.39334837,0.097182505,-0.030636681,792.96704,788.5348,778.86444,797.3993,666.4469,0.13446044921875,0.144775390625,0.98687744140625,-3.147735595703125,17.1966552734375,15.013427734375,1,1.0,1.0,1.0,1.0,10.00
2024-10-11 20:42:13.093,0.49754268,0.5352514,-0.15687314,0.64869696,0.62188435,-0.08112732,-0.25294787,0.47282726,0.8664095,0.17575657,-0.087405674,0.890019,0.6524498,-0.019356977,0.21643008,0.44929308,0.004137696,-0.39334837,0.097182505,-0.030636681,799.41394,791.3553,771.2088,807.0696,588.2784,0.10638427734375,0.13934326171875,0.988525390625,-2.6617431640625,19.641571044921875,15.454559326171875,1,1.0,1.0,1.0,1.0,10.00
2024-10-11 20:42:13.094,0.49754268,0.5352514,-0.15687314,0.64869696,0.62188435,-0.08112732,-0.25294787,0.47282726,0.8664095,0.17575657,-0.087405674,0.890019,0.6524498,-0.019356977,0.21643008,0.44929308,0.004137696,-0.39334837,0.097182505,-0.030636681,807.47253,794.9817,799.011,807.8755,523.00366,0.10638427734375,0.13934326171875,0.988525390625,-2.6617431640625,19.641571044921875,15.454559326171875,1,1.0,1.0,1.0,1.0,10.00
2024-10-11 20:42:13.095,0.49754268,0.5352514,-0.15687314,0.64869696,0.62188435,-0.08112732,-0.25294787,0.47282726,0.8664095,0.17575657,-0.087405674,0.890019,0.6524498,-0.019356977,0.21643008,0.44929308,0.004137696,-0.39334837,0.097182505,-0.030636681,805.05493,796.1905,790.54944,799.81683,508.9011,0.10638427734375,0.13934326171875,0.988525390625,-2.6617431640625,19.641571044921875,15.454559326171875,1,1.0,1.0,1.0,1.0,10.00
2024-10-11 20:42:13.096,0.49754268,0.5352514,-0.15687314,0.64869696,0.62188435,-0.08112732,-0.25294787,0.47282726,0.8664095,0.17575657,-0.087405674,0.890019,0.6524498,-0.019356977,0.21643008,0.44929308,0.004137696,-0.39334837,0.097182505,-0.030636681,803.8461,792.1612,791.3553,796.5934,596.7399,0.10638427734375,0.13934326171875,0.988525390625,-2.6617431640625,19.641571044921875,15.454559326171875,1,1.0,1.0,1.0,1.0,10.00
2024-10-11 20:42:13.097,0.49754268,0.5352514,-0.15687314,0.64869696,0.62188435,-0.08112732,-0.25294787,0.47282726,0.8664095,0.17575657,-0.087405674,0.890019,0.6524498,-0.019356977,0.21643008,0.44929308,0.004137696,-0.39334837,0.097182505,-0.030636681,804.65204,792.5641,808.68134,794.9817,683.36993,0.10638427734375,0.13934326171875,0.988525390625,-2.6617431640625,19.641571044921875,15.454559326171875,1,1.0,1.0,1.0,1.0,10.00
2024-10-11 20:42:13.098,0.48718292,0.65781426,-0.18266824,0.7028694,0.5906548,-0.05481241,-0.24416588,0.50911057,0.80953705,0.15567818,-0.112097025,0.8673842,0.6446589,-0.0134087475,0.21658988,0.46069548,-0.0056730895,-0.39862278,0.12604265,0.0029116166,795.38464,789.34064,815.9341,792.1612,727.6923,0.10638427734375,0.13934326171875,0.988525390625,-2.6617431640625,19.641571044921875,15.454559326171875,1,1.0,1.0,1.0,1.0,10.00
2024-10-11 20:42:13.104,0.48718292,0.65781426,-0.18266824,0.7028694,0.5906548,-0.05481241,-0.24416588,0.50911057,0.80953705,0.15567818,-0.112097025,0.8673842,0.6446589,-0.0134087475,0.21658988,0.46069548,-0.0056730895,-0.39862278,0.12604265,0.0029116166,790.14655,791.75824,803.8461,793.36993,726.8865,0.10638427734375,0.13934326171875,0.988525390625,-2.6617431640625,19.641571044921875,15.454559326171875,1,1.0,1.0,1.0,1.0,10.00
2024-10-11 20:42:13.104,0.48718292,0.65781426,-0.18266824,0.7028694,0.5906548,-0.05481241,-0.24416588,0.50911057,0.80953705,0.15567818,-0.112097025,0.8673842,0.6446589,-0.0134087475,0.21658988,0.46069548,-0.0056730895,-0.39862278,0.12604265,0.0029116166,798.20514,796.1905,781.685,801.02563,753.47986,0.10638427734375,0.13934326171875,0.988525390625,-2.6617431640625,19.641571044921875,15.454559326171875,1,1.0,1.0,1.0,1.0,10.00
2024-10-11 20:42:13.105,0.48718292,0.65781426,-0.18266824,0.7028694,0.5906548,-0.05481241,-0.24416588,0.50911057,0.80953705,0.15567818,-0.112097025,0.8673842,0.6446589,-0.0134087475,0.21658988,0.46069548,-0.0056730895,-0.39862278,0.12604265,0.0029116166,809.89014,794.57874,773.6264,812.71063,591.9048,0.10638427734375,0.13934326171875,0.988525390625,-2.6617431640625,19.641571044921875,15.454559326171875,1,1.0,1.0,1.0,1.0,10.00
2024-10-11 20:42:13.106,0.48718292,0.65781426,-0.18266824,0.7028694,0.5906548,-0.05481241,-0.24416588,0.50911057,0.80953705,0.15567818,-0.112097025,0.8673842,0.6446589,-0.0134087475,0.21658988,0.46069548,-0.0056730895,-0.39862278,0.12604265,0.0029116166,811.9048,797.3993,774.0293,807.47253,438.38828,0.10638427734375,0.13934326171875,0.988525390625,-2.6617431640625,19.641571044921875,15.454559326171875,1,1.0,1.0,1.0,1.0,10.00
2024-10-11 20:42:13.106,0.48718292,0.65781426,-0.18266824,0.7028694,0.5906548,-0.05481241,-0.24416588,0.50911057,0.80953705,0.15567818,-0.112097025,0.8673842,0.6446589,-0.0134087475,0.21658988,0.46069548,-0.0056730895,-0.39862278,0.12604265,0.0029116166,812.71063,791.3553,803.0403,795.38464,593.5165,0.10638427734375,0.13934326171875,0.988525390625,-2.6617431640625,19.641571044921875,15.454559326171875,1,1.0,1.0,1.0,1.0,10.00
2024-10-11 20:42:13.107,0.48718292,0.65781426,-0.18266824,0.7028694,0.5906548,-0.05481241,-0.24416588,0.50911057,0.80953705,0.15567818,-0.112097025,0.8673842,0.6446589,-0.0134087475,0.21658988,0.46069548,-0.0056730895,-0.39862278,0.12604265,0.0029116166,810.696,787.326,819.5604,792.5641,720.4396,0.10638427734375,0.13934326171875,0.988525390625,-2.6617431640625,19.641571044921875,15.454559326171875,1,1.0,1.0,1.0,1.0,10.00
2024-10-11 20:42:13.108,0.48718292,0.65781426,-0.18266824,0.7028694,0.5906548,-0.05481241,-0.24416588,0.50911057,0.80953705,0.15567818,-0.112097025,0.8673842,0.6446589,-0.0134087475,0.21658988,0.46069548,-0.0056730895,-0.39862278,0.12604265,0.0029116166,799.81683,793.36993,815.9341,794.17584,559.67035,0.07391357421875,0.13128662109375,0.9964599609375,-2.5421142578125,21.75750732421875,13.936767578125,1,1.0,1.0,1.0,1.0,10.00
2024-10-11 20:42:13.109,0.48718292,0.65781426,-0.18266824,0.7028694,0.5906548,-0.05481241,-0.24416588,0.50911057,0.80953705,0.15567818,-0.112097025,0.8673842,0.6446589,-0.0134087475,0.21658988,0.46069548,-0.0056730895,-0.39862278,0.12604265,0.0029116166,795.38464,796.1905,812.71063,804.65204,508.9011,0.07391357421875,0.13128662109375,0.9964599609375,-2.5421142578125,21.75750732421875,13.936767578125,1,1.0,1.0,1.0,1.0,10.00
2024-10-11 20:42:13.110,0.48718292,0.65781426,-0.18266824,0.7028694,0.5906548,-0.05481241,-0.24416588,0.50911057,0.80953705,0.15567818,-0.112097025,0.8673842,0.6446589,-0.0134087475,0.21658988,0.46069548,-0.0056730895,-0.39862278,0.12604265,0.0029116166,800.6227,790.54944,802.6374,803.44324,672.0879,0.07391357421875,0.13128662109375,0.9964599609375,-2.5421142578125,21.75750732421875,13.936767578125,1,1.0,1.0,1.0,1.0,10.00
2024-10-11 20:42:13.111,0.48718292,0.65781426,-0.18266824,0.7028694,0.5906548,-0.05481241,-0.24416588,0.50911057,0.80953705,0.15567818,-0.112097025,0.8673842,0.6446589,-0.0134087475,0.21658988,0.46069548,-0.0056730895,-0.39862278,0.12604265,0.0029116166,800.2198,788.1319,800.2198,792.1612,957.76556,0.07391357421875,0.13128662109375,0.9964599609375,-2.5421142578125,21.75750732421875,13.936767578125,1,1.0,1.0,1.0,1.0,10.00
2024-10-11 20:42:13.112,0.48718292,0.65781426,-0.18266824,0.7028694,0.5906548,-0.05481241,-0.24416588,0.50911057,0.80953705,0.15567818,-0.112097025,0.8673842,0.6446589,-0.0134087475,0.21658988,0.46069548,-0.0056730895,-0.39862278,0.12604265,0.0029116166,794.17584,790.54944,793.7729,800.2198,842.1245,0.07391357421875,0.13128662109375,0.9964599609375,-2.5421142578125,21.75750732421875,13.936767578125,1,1.0,1.0,1.0,1.0,10.00
2024-10-11 20:42:13.112,0.48718292,0.65781426,-0.18266824,0.7028694,0.5906548,-0.05481241,-0.24416588,0.50911057,0.80953705,0.15567818,-0.112097025,0.8673842,0.6446589,-0.0134087475,0.21658988,0.46069548,-0.0056730895,-0.39862278,0.12604265,0.0029116166,789.34064,786.9231,765.16486,814.3223,618.0952,0.07391357421875,0.13128662109375,0.9964599609375,-2.5421142578125,21.75750732421875,13.936767578125,1,1.0,1.0,1.0,1.0,10.00
2024-10-11 20:42:13.113,0.48718292,0.65781426,-0.18266824,0.7028694,0.5906548,-0.05481241,-0.24416588,0.50911057,0.80953705,0.15567818,-0.112097025,0.8673842,0.6446589,-0.0134087475,0.21658988,0.46069548,-0.0056730895,-0.39862278,0.12604265,0.0029116166,791.75824,792.5641,776.4469,803.8461,828.022,0.07391357421875,0.13128662109375,0.9964599609375,-2.5421142578125,21.75750732421875,13.936767578125,1,1.0,1.0,1.0,1.0,10.00
2024-10-11 20:42:13.114,0.48718292,0.65781426,-0.18266824,0.7028694,0.5906548,-0.05481241,-0.24416588,0.50911057,0.80953705,0.15567818,-0.112097025,0.8673842,0.6446589,-0.0134087475,0.21658988,0.46069548,-0.0056730895,-0.39862278,0.12604265,0.0029116166,796.1905,797.8022,807.8755,796.5934,891.685,0.07391357421875,0.13128662109375,0.9964599609375,-2.5421142578125,21.75750732421875,13.936767578125,1,1.0,1.0,1.0,1.0,10.00
2024-10-11 20:42:13.115,0.48718292,0.65781426,-0.18266824,0.7028694,0.5906548,-0.05481241,-0.24416588,0.50911057,0.80953705,0.15567818,-0.112097025,0.8673842,0.6446589,-0.0134087475,0.21658988,0.46069548,-0.0056730895,-0.39862278,0.12604265,0.0029116166,805.4579,796.1905,809.4872,796.99634,593.1135,0.07391357421875,0.13128662109375,0.9964599609375,-2.5421142578125,21.75750732421875,13.936767578125,1,1.0,1.0,1.0,1.0,10.00
2024-10-11 20:42:13.116,0.48718292,0.65781426,-0.18266824,0.7028694,0.5906548,-0.05481241,-0.24416588,0.50911057,0.80953705,0.15567818,-0.112097025,0.8673842,0.6446589,-0.0134087475,0.21658988,0.46069548,-0.0056730895,-0.39862278,0.12604265,0.0029116166,815.9341,792.1612,810.293,796.1905,549.59705,0.07391357421875,0.13128662109375,0.9964599609375,-2.5421142578125,21.75750732421875,13.936767578125,1,1.0,1.0,1.0,1.0,10.00
2024-10-11 20:42:13.116,0.48718292,0.65781426,-0.18266824,0.7028694,0.5906548,-0.05481241,-0.24416588,0.50911057,0.80953705,0.15567818,-0.112097025,0.8673842,0.6446589,-0.0134087475,0.21658988,0.46069548,-0.0056730895,-0.39862278,0.12604265,0.0029116166,809.4872,795.38464,805.05493,803.44324,720.4396,0.07391357421875,0.13128662109375,0.9964599609375,-2.5421142578125,21.75750732421875,13.936767578125,1,1.0,1.0,1.0,1.0,10.00
2024-10-11 20:42:13.117,0.48718292,0.65781426,-0.18266824,0.7028694,0.5906548,-0.05481241,-0.24416588,0.50911057,0.80953705,0.15567818,-0.112097025,0.8673842,0.6446589,-0.0134087475,0.21658988,0.46069548,-0.0056730895,-0.39862278,0.12604265,0.0029116166,799.011,794.9817,797.3993,801.4286,789.7436,0.07391357421875,0.13128662109375,0.9964599609375,-2.5421142578125,21.75750732421875,13.936767578125,1,1.0,1.0,1.0,1.0,10.00
2024-10-11 20:42:13.187,0.48718292,0.65781426,-0.18266824,0.7028694,0.5906548,-0.05481241,-0.24416588,0.50911057,0.80953705,0.15567818,-0.112097025,0.8673842,0.6446589,-0.0134087475,0.21658988,0.46069548,-0.0056730895,-0.39862278,0.12604265,0.0029116166,792.5641,793.36993,793.7729,799.81683,670.07324,0.07391357421875,0.13128662109375,0.9964599609375,-2.5421142578125,21.75750732421875,13.936767578125,1,1.0,1.0,1.0,1.0,10.00
2024-10-11 20:42:13.188,0.48718292,0.65781426,-0.18266824,0.7028694,0.5906548,-0.05481241,-0.24416588,0.50911057,0.80953705,0.15567818,-0.112097025,0.8673842,0.6446589,-0.0134087475,0.21658988,0.46069548,-0.0056730895,-0.39862278,0.12604265,0.0029116166,797.3993,797.8022,789.34064,801.02563,633.8095,0.07391357421875,0.13128662109375,0.9964599609375,-2.5421142578125,21.75750732421875,13.936767578125,1,1.0,1.0,1.0,1.0,10.00
2024-10-11 20:42:13.188,0.48718292,0.65781426,-0.18266824,0.7028694,0.5906548,-0.05481241,-0.24416588,0.50911057,0.80953705,0.15567818,-0.112097025,0.8673842,0.6446589,-0.0134087475,0.21658988,0.46069548,-0.0056730895,-0.39862278,0.12604265,0.0029116166,808.2784,797.8022,776.04395,801.02563,692.6374,0.07391357421875,0.13128662109375,0.9964599609375,-2.5421142578125,21.75750732421875,13.936767578125,1,1.0,1.0,1.0,1.0,10.00
2024-10-11 20:42:13.189,0.48718292,0.65781426,-0.18266824,0.7028694,0.5906548,-0.05481241,-0.24416588,0.50911057,0.80953705,0.15567818,-0.112097025,0.8673842,0.6446589,-0.0134087475,0.21658988,0.46069548,-0.0056730895,-0.39862278,0.12604265,0.0029116166,813.1135,799.41394,789.34064,799.41394,697.0696,0.07391357421875,0.13128662109375,0.9964599609375,-2.5421142578125,21.75750732421875,13.936767578125,1,1.0,1.0,1.0,1.0,10.00
2024-10-11 20:42:13.190,0.48718292,0.65781426,-0.18266824,0.7028694,0.5906548,-0.05481241,-0.24416588,0.50911057,0.80953705,0.15567818,-0.112097025,0.8673842,0.6446589,-0.0134087475,0.21658988,0.46069548,-0.0056730895,-0.39862278,0.12604265,0.0029116166,810.696,799.81683,807.47253,799.011,657.98535,0.07391357421875,0.13128662109375,0.9964599609375,-2.5421142578125,21.75750732421875,13.936767578125,1,1.0,1.0,1.0,1.0,10.00
2024-10-11 20:42:13.191,0.48718292,0.65781426,-0.18266824,0.7028694,0.5906548,-0.05481241,-0.24416588,0.50911057,0.80953705,0.15567818,-0.112097025,0.8673842,0.6446589,-0.0134087475,0.21658988,0.46069548,-0.0056730895,-0.39862278,0.12604265,0.0029116166,811.9048,798.60803,803.8461,804.2491,760.7326,0.07391357421875,0.13128662109375,0.9964599609375,-2.5421142578125,21.75750732421875,13.936767578125,1,1.0,1.0,1.0,1.0,10.00
2024-10-11 20:42:13.191,0.48718292,0.65781426,-0.18266824,0.7028694,0.5906548,-0.05481241,-0.24416588,0.50911057,0.80953705,0.15567818,-0.112097025,0.8673842,0.6446589,-0.0134087475,0.21658988,0.46069548,-0.0056730895,-0.39862278,0.12604265,0.0029116166,817.1429,793.7729,803.44324,819.15753,1144.3224,0.07391357421875,0.13128662109375,0.9964599609375,-2.5421142578125,21.75750732421875,13.936767578125,1,1.0,1.0,1.0,1.0,10.00
2024-10-11 20:42:13.192,0.4698075,0.7309114,-0.1540472,0.73681355,0.58549786,-0.04331564,-0.21611293,0.53851616,0.7193653,0.16043384,-0.13932425,0.8511245,0.640074,0.004638387,0.20912206,0.48707917,-0.027969709,-0.39497578,0.15430422,0.050574023,818.3516,793.36993,798.20514,828.022,1106.4469,0.07391357421875,0.13128662109375,0.9964599609375,-2.5421142578125,21.75750732421875,13.936767578125,1,1.0,1.0,1.0,1.0,10.00
2024-10-11 20:42:13.199,0.4698075,0.7309114,-0.1540472,0.73681355,0.58549786,-0.04331564,-0.21611293,0.53851616,0.7193653,0.16043384,-0.13932425,0.8511245,0.640074,0.004638387,0.20912206,0.48707917,-0.027969709,-0.39497578,0.15430422,0.050574023,811.9048,799.011,791.3553,807.8755,696.6667,0.07391357421875,0.13128662109375,0.9964599609375,-2.5421142578125,21.75750732421875,13.936767578125,1,1.0,1.0,1.0,1.0,10.00
2024-10-11 20:42:13.200,0.4698075,0.7309114,-0.1540472,0.73681355,0.58549786,-0.04331564,-0.21611293,0.53851616,0.7193653,0.16043384,-0.13932425,0.8511245,0.640074,0.004638387,0.20912206,0.48707917,-0.027969709,-0.39497578,0.15430422,0.050574023,799.81683,800.2198,794.17584,792.96704,626.9597,0.07391357421875,0.13128662109375,0.9964599609375,-2.5421142578125,21.75750732421875,13.936767578125,1,1.0,1.0,1.0,1.0,10.00
2024-10-11 20:42:13.200,0.4698075,0.7309114,-0.1540472,0.73681355,0.58549786,-0.04331564,-0.21611293,0.53851616,0.7193653,0.16043384,-0.13932425,0.8511245,0.640074,0.004638387,0.20912206,0.48707917,-0.027969709,-0.39497578,0.15430422,0.050574023,800.2198,797.3993,793.36993,783.69965,674.90845,0.07391357421875,0.13128662109375,0.9964599609375,-2.5421142578125,21.75750732421875,13.936767578125,1,1.0,1.0,1.0,1.0,10.00
2024-10-11 20:42:13.201,0.4698075,0.7309114,-0.1540472,0.73681355,0.58549786,-0.04331564,-0.21611293,0.53851616,0.7193653,0.16043384,-0.13932425,0.8511245,0.640074,0.004638387,0.20912206,0.48707917,-0.027969709,-0.39497578,0.15430422,0.050574023,806.6667,800.6227,787.326,773.6264,649.12085,0.07391357421875,0.13128662109375,0.9964599609375,-2.5421142578125,21.75750732421875,13.936767578125,1,1.0,1.0,1.0,1.0,10.00
2024-10-11 20:42:13.231,0.4698075,0.7309114,-0.1540472,0.73681355,0.58549786,-0.04331564,-0.21611293,0.53851616,0.7193653,0.16043384,-0.13932425,0.8511245,0.640074,0.004638387,0.20912206,0.48707917,-0.027969709,-0.39497578,0.15430422,0.050574023,803.44324,803.0403,786.1172,781.685,609.2308,0.04742431640625,0.12408447265625,0.99591064453125,-2.295379638671875,23.095855712890625,12.42645263671875,1,1.0,1.0,1.0,1.0,10.00
2024-10-11 20:42:13.233,0.4698075,0.7309114,-0.1540472,0.73681355,0.58549786,-0.04331564,-0.21611293,0.53851616,0.7193653,0.16043384,-0.13932425,0.8511245,0.640074,0.004638387,0.20912206,0.48707917,-0.027969709,-0.39497578,0.15430422,0.050574023,799.41394,794.57874,787.326,787.326,651.9414,0.04742431640625,0.12408447265625,0.99591064453125,-2.295379638671875,23.095855712890625,12.42645263671875,1,1.0,1.0,1.0,1.0,10.00
2024-10-11 20:42:13.233,0.4698075,0.7309114,-0.1540472,0.73681355,0.58549786,-0.04331564,-0.21611293,0.53851616,0.7193653,0.16043384,-0.13932425,0.8511245,0.640074,0.004638387,0.20912206,0.48707917,-0.027969709,-0.39497578,0.15430422,0.050574023,799.81683,792.96704,793.7729,785.31134,709.15753,0.04742431640625,0.12408447265625,0.99591064453125,-2.295379638671875,23.095855712890625,12.42645263671875,1,1.0,1.0,1.0,1.0,10.00
2024-10-11 20:42:13.234,0.4698075,0.7309114,-0.1540472,0.73681355,0.58549786,-0.04331564,-0.21611293,0.53851616,0.7193653,0.16043384,-0.13932425,0.8511245,0.640074,0.004638387,0.20912206,0.48707917,-0.027969709,-0.39497578,0.15430422,0.050574023,803.0403,800.2198,797.8022,783.69965,689.011,0.04742431640625,0.12408447265625,0.99591064453125,-2.295379638671875,23.095855712890625,12.42645263671875,1,1.0,1.0,1.0,1.0,10.00
2024-10-11 20:42:13.235,0.4698075,0.7309114,-0.1540472,0.73681355,0.58549786,-0.04331564,-0.21611293,0.53851616,0.7193653,0.16043384,-0.13932425,0.8511245,0.640074,0.004638387,0.20912206,0.48707917,-0.027969709,-0.39497578,0.15430422,0.050574023,809.0842,799.41394,800.2198,786.9231,627.3626,0.04742431640625,0.12408447265625,0.99591064453125,-2.295379638671875,23.095855712890625,12.42645263671875,1,1.0,1.0,1.0,1.0,10.00
2024-10-11 20:42:13.235,0.4698075,0.7309114,-0.1540472,0.73681355,0.58549786,-0.04331564,-0.21611293,0.53851616,0.7193653,0.16043384,-0.13932425,0.8511245,0.640074,0.004638387,0.20912206,0.48707917,-0.027969709,-0.39497578,0.15430422,0.050574023,808.2784,796.5934,802.23444,797.8022,822.7839,0.04742431640625,0.12408447265625,0.99591064453125,-2.295379638671875,23.095855712890625,12.42645263671875,1,1.0,1.0,1.0,1.0,10.00
2024-10-11 20:42:13.236,0.4698075,0.7309114,-0.1540472,0.73681355,0.58549786,-0.04331564,-0.21611293,0.53851616,0.7193653,0.16043384,-0.13932425,0.8511245,0.640074,0.004638387,0.20912206,0.48707917,-0.027969709,-0.39497578,0.15430422,0.050574023,809.4872,797.8022,790.9524,794.57874,1020.2198,0.04742431640625,0.12408447265625,0.99591064453125,-2.295379638671875,23.095855712890625,12.42645263671875,1,1.0,1.0,1.0,1.0,10.00
2024-10-11 20:42:13.237,0.4698075,0.7309114,-0.1540472,0.73681355,0.58549786,-0.04331564,-0.21611293,0.53851616,0.7193653,0.16043384,-0.13932425,0.8511245,0.640074,0.004638387,0.20912206,0.48707917,-0.027969709,-0.39497578,0.15430422,0.050574023,811.50183,799.81683,786.9231,794.57874,865.89746,0.04742431640625,0.12408447265625,0.99591064453125,-2.295379638671875,23.095855712890625,12.42645263671875,1,1.0,1.0,1.0,1.0,10.00
2024-10-11 20:42:13.238,0.4698075,0.7309114,-0.1540472,0.73681355,0.58549786,-0.04331564,-0.21611293,0.53851616,0.7193653,0.16043384,-0.13932425,0.8511245,0.640074,0.004638387,0.20912206,0.48707917,-0.027969709,-0.39497578,0.15430422,0.050574023,802.6374,798.20514,792.96704,807.0696,717.619,0.04742431640625,0.12408447265625,0.99591064453125,-2.295379638671875,23.095855712890625,12.42645263671875,1,1.0,1.0,1.0,1.0,10.00
2024-10-11 20:42:13.239,0.4698075,0.7309114,-0.1540472,0.73681355,0.58549786,-0.04331564,-0.21611293,0.53851616,0.7193653,0.16043384,-0.13932425,0.8511245,0.640074,0.004638387,0.20912206,0.48707917,-0.027969709,-0.39497578,0.15430422,0.050574023,799.41394,789.34064,796.5934,810.696,672.0879,0.04742431640625,0.12408447265625,0.99591064453125,-2.295379638671875,23.095855712890625,12.42645263671875,1,1.0,1.0,1.0,1.0,10.00
2024-10-11 20:42:13.240,0.4698075,0.7309114,-0.1540472,0.73681355,0.58549786,-0.04331564,-0.21611293,0.53851616,0.7193653,0.16043384,-0.13932425,0.8511245,0.640074,0.004638387,0.20912206,0.48707917,-0.027969709,-0.39497578,0.15430422,0.050574023,798.20514,788.93774,799.81683,801.8315,714.7985,0.04742431640625,0.12408447265625,0.99591064453125,-2.295379638671875,23.095855712890625,12.42645263671875,1,1.0,1.0,1.0,1.0,10.00
2024-10-11 20:42:13.241,0.4698075,0.7309114,-0.1540472,0.73681355,0.58549786,-0.04331564,-0.21611293,0.53851616,0.7193653,0.16043384,-0.13932425,0.8511245,0.640074,0.004638387,0.20912206,0.48707917,-0.027969709,-0.39497578,0.15430422,0.050574023,796.5934,800.2198,789.34064,799.81683,630.989,0.04742431640625,0.12408447265625,0.99591064453125,-2.295379638671875,23.095855712890625,12.42645263671875,1,1.0,1.0,1.0,1.0,10.00
2024-10-11 20:42:13.273,0.4698075,0.7309114,-0.1540472,0.73681355,0.58549786,-0.04331564,-0.21611293,0.53851616,0.7193653,0.16043384,-0.13932425,0.8511245,0.640074,0.004638387,0.20912206,0.48707917,-0.027969709,-0.39497578,0.15430422,0.050574023,803.0403,804.65204,784.5055,807.0696,574.9817,0.02105712890625,0.11517333984375,0.98876953125,-2.8411865234375,23.574371337890625,11.252593994140625,1,1.0,1.0,1.0,1.0,10.00
2024-10-11 20:42:13.274,0.4698075,0.7309114,-0.1540472,0.73681355,0.58549786,-0.04331564,-0.21611293,0.53851616,0.7193653,0.16043384,-0.13932425,0.8511245,0.640074,0.004638387,0.20912206,0.48707917,-0.027969709,-0.39497578,0.15430422,0.050574023,807.8755,801.8315,790.54944,811.0989,775.64105,0.02105712890625,0.11517333984375,0.98876953125,-2.8411865234375,23.574371337890625,11.252593994140625,1,1.0,1.0,1.0,1.0,10.00
2024-10-11 20:42:13.275,0.4698075,0.7309114,-0.1540472,0.73681355,0.58549786,-0.04331564,-0.21611293,0.53851616,0.7193653,0.16043384,-0.13932425,0.8511245,0.640074,0.004638387,0.20912206,0.48707917,-0.027969709,-0.39497578,0.15430422,0.050574023,811.0989,801.8315,793.36993,811.50183,754.2857,0.02105712890625,0.11517333984375,0.98876953125,-2.8411865234375,23.574371337890625,11.252593994140625,1,1.0,1.0,1.0,1.0,10.00
2024-10-11 20:42:13.275,0.4698075,0.7309114,-0.1540472,0.73681355,0.58549786,-0.04331564,-0.21611293,0.53851616,0.7193653,0.16043384,-0.13932425,0.8511245,0.640074,0.004638387,0.20912206,0.48707917,-0.027969709,-0.39497578,0.15430422,0.050574023,804.2491,804.2491,801.8315,806.26373,590.293,0.02105712890625,0.11517333984375,0.98876953125,-2.8411865234375,23.574371337890625,11.252593994140625,1,1.0,1.0,1.0,1.0,10.00
2024-10-11 20:42:13.276,0.4698075,0.7309114,-0.1540472,0.73681355,0.58549786,-0.04331564,-0.21611293,0.53851616,0.7193653,0.16043384,-0.13932425,0.8511245,0.640074,0.004638387,0.20912206,0.48707917,-0.027969709,-0.39497578,0.15430422,0.050574023,806.26373,801.4286,803.8461,811.0989,592.71063,0.02105712890625,0.11517333984375,0.98876953125,-2.8411865234375,23.574371337890625,11.252593994140625,1,1.0,1.0,1.0,1.0,10.00
2024-10-11 20:42:13.277,0.4698075,0.7309114,-0.1540472,0.73681355,0.58549786,-0.04331564,-0.21611293,0.53851616,0.7193653,0.16043384,-0.13932425,0.8511245,0.640074,0.004638387,0.20912206,0.48707917,-0.027969709,-0.39497578,0.15430422,0.050574023,824.7985,797.3993,798.20514,829.6337,1035.5311,0.02105712890625,0.11517333984375,0.98876953125,-2.8411865234375,23.574371337890625,11.252593994140625,1,1.0,1.0,1.0,1.0,10.00
2024-10-11 20:42:13.278,0.4698075,0.7309114,-0.1540472,0.73681355,0.58549786,-0.04331564,-0.21611293,0.53851616,0.7193653,0.16043384,-0.13932425,0.8511245,0.640074,0.004638387,0.20912206,0.48707917,-0.027969709,-0.39497578,0.15430422,0.050574023,820.7692,797.3993,802.6374,829.6337,1139.0842,0.02105712890625,0.11517333984375,0.98876953125,-2.8411865234375,23.574371337890625,11.252593994140625,1,1.0,1.0,1.0,1.0,10.00
2024-10-11 20:42:13.279,0.4698075,0.7309114,-0.1540472,0.73681355,0.58549786,-0.04331564,-0.21611293,0.53851616,0.7193653,0.16043384,-0.13932425,0.8511245,0.640074,0.004638387,0.20912206,0.48707917,-0.027969709,-0.39497578,0.15430422,0.050574023,793.36993,800.6227,803.8461,803.0403,584.65204,0.02105712890625,0.11517333984375,0.98876953125,-2.8411865234375,23.574371337890625,11.252593994140625,1,1.0,1.0,1.0,1.0,10.00
2024-10-11 20:42:13.280,0.4698075,0.7309114,-0.1540472,0.73681355,0.58549786,-0.04331564,-0.21611293,0.53851616,0.7193653,0.16043384,-0.13932425,0.8511245,0.640074,0.004638387,0.20912206,0.48707917,-0.027969709,-0.39497578,0.15430422,0.050574023,791.75824,803.0403,794.57874,783.2967,514.5421,0.02105712890625,0.11517333984375,0.98876953125,-2.8411865234375,23.574371337890625,11.252593994140625,1,1.0,1.0,1.0,1.0,10.00
2024-10-11 20:42:13.281,0.4477118,0.7654358,-0.12588416,0.7532909,0.5902626,-0.047531582,-0.18466254,0.5546959,0.62915766,0.16971281,-0.15586638,0.85540944,0.62894386,0.033189695,0.19636859,0.522868,-0.061392434,-0.38370505,0.1779736,0.11412382,793.7729,802.6374,790.54944,773.22345,626.1539,0.02105712890625,0.11517333984375,0.98876953125,-2.8411865234375,23.574371337890625,11.252593994140625,1,1.0,1.0,1.0,1.0,10.00
2024-10-11 20:42:13.288,0.4477118,0.7654358,-0.12588416,0.7532909,0.5902626,-0.047531582,-0.18466254,0.5546959,0.62915766,0.16971281,-0.15586638,0.85540944,0.62894386,0.033189695,0.19636859,0.522868,-0.061392434,-0.38370505,0.1779736,0.11412382,781.28204,799.81683,801.02563,763.95605,571.3553,0.02105712890625,0.11517333984375,0.98876953125,-2.8411865234375,23.574371337890625,11.252593994140625,1,1.0,1.0,1.0,1.0,10.00
2024-10-11 20:42:13.289,0.4477118,0.7654358,-0.12588416,0.7532909,0.5902626,-0.047531582,-0.18466254,0.5546959,0.62915766,0.16971281,-0.15586638,0.85540944,0.62894386,0.033189695,0.19636859,0.522868,-0.061392434,-0.38370505,0.1779736,0.11412382,782.49084,799.81683,783.2967,770.40295,448.0586,0.02105712890625,0.11517333984375,0.98876953125,-2.8411865234375,23.574371337890625,11.252593994140625,1,1.0,1.0,1.0,1.0,10.00
2024-10-11 20:42:13.322,0.4477118,0.7654358,-0.12588416,0.7532909,0.5902626,-0.047531582,-0.18466254,0.5546959,0.62915766,0.16971281,-0.15586638,0.85540944,0.62894386,0.033189695,0.19636859,0.522868,-0.061392434,-0.38370505,0.1779736,0.11412382,779.2674,801.4286,764.35895,772.01465,572.5641,-0.01287841796875,0.107666015625,0.99737548828125,-2.3626708984375,23.1182861328125,11.641387939453125,1,1.0,1.0,1.0,1.0,10.00
2024-10-11 20:42:13.323,0.4477118,0.7654358,-0.12588416,0.7532909,0.5902626,-0.047531582,-0.18466254,0.5546959,0.62915766,0.16971281,-0.15586638,0.85540944,0.62894386,0.033189695,0.19636859,0.522868,-0.061392434,-0.38370505,0.1779736,0.11412382,763.1502,803.44324,800.6227,776.4469,815.9341,-0.01287841796875,0.107666015625,0.99737548828125,-2.3626708984375,23.1182861328125,11.641387939453125,1,1.0,1.0,1.0,1.0,10.00
2024-10-11 20:42:13.324,0.4477118,0.7654358,-0.12588416,0.7532909,0.5902626,-0.047531582,-0.18466254,0.5546959,0.62915766,0.16971281,-0.15586638,0.85540944,0.62894386,0.033189695,0.19636859,0.522868,-0.061392434,-0.38370505,0.1779736,0.11412382,743.00366,807.0696,823.1868,765.56775,615.6777,-0.01287841796875,0.107666015625,0.99737548828125,-2.3626708984375,23.1182861328125,11.641387939453125,1,1.0,1.0,1.0,1.0,10.00
2024-10-11 20:42:13.325,0.4477118,0.7654358,-0.12588416,0.7532909,0.5902626,-0.047531582,-0.18466254,0.5546959,0.62915766,0.16971281,-0.15586638,0.85540944,0.62894386,0.033189695,0.19636859,0.522868,-0.061392434,-0.38370505,0.1779736,0.11412382,740.18317,809.0842,809.4872,754.2857,483.9194,-0.01287841796875,0.107666015625,0.99737548828125,-2.3626708984375,23.1182861328125,11.641387939453125,1,1.0,1.0,1.0,1.0,10.00
2024-10-11 20:42:13.325,0.4477118,0.7654358,-0.12588416,0.7532909,0.5902626,-0.047531582,-0.18466254,0.5546959,0.62915766,0.16971281,-0.15586638,0.85540944,0.62894386,0.033189695,0.19636859,0.522868,-0.061392434,-0.38370505,0.1779736,0.11412382,743.8095,807.47253,798.20514,765.56775,615.6777,-0.01287841796875,0.107666015625,0.99737548828125,-2.3626708984375,23.1182861328125,11.641387939453125,1,1.0,1.0,1.0,1.0,10.00
2024-10-11 20:42:13.326,0.4477118,0.7654358,-0.12588416,0.7532909,0.5902626,-0.047531582,-0.18466254,0.5546959,0.62915766,0.16971281,-0.15586638,0.85540944,0.62894386,0.033189695,0.19636859,0.522868,-0.061392434,-0.38370505,0.1779736,0.11412382,733.3333,807.0696,800.6227,761.9414,703.5165,-0.01287841796875,0.107666015625,0.99737548828125,-2.3626708984375,23.1182861328125,11.641387939453125,1,1.0,1.0,1.0,1.0,10.00
2024-10-11 20:42:13.327,0.4477118,0.7654358,-0.12588416,0.7532909,0.5902626,-0.047531582,-0.18466254,0.5546959,0.62915766,0.16971281,-0.15586638,0.85540944,0.62894386,0.033189695,0.19636859,0.522868,-0.061392434,-0.38370505,0.1779736,0.11412382,730.5128,806.6667,803.8461,745.82416,699.4872,-0.01287841796875,0.107666015625,0.99737548828125,-2.3626708984375,23.1182861328125,11.641387939453125,1,1.0,1.0,1.0,1.0,10.00
2024-10-11 20:42:13.328,0.4477118,0.7654358,-0.12588416,0.7532909,0.5902626,-0.047531582,-0.18466254,0.5546959,0.62915766,0.16971281,-0.15586638,0.85540944,0.62894386,0.033189695,0.19636859,0.522868,-0.061392434,-0.38370505,0.1779736,0.11412382,734.94507,809.4872,797.3993,740.58606,550.0,-0.01287841796875,0.107666015625,0.99737548828125,-2.3626708984375,23.1182861328125,11.641387939453125,1,1.0,1.0,1.0,1.0,10.00
2024-10-11 20:42:13.329,0.4477118,0.7654358,-0.12588416,0.7532909,0.5902626,-0.047531582,-0.18466254,0.5546959,0.62915766,0.16971281,-0.15586638,0.85540944,0.62894386,0.033189695,0.19636859,0.522868,-0.061392434,-0.38370505,0.1779736,0.11412382,738.5714,811.0989,794.17584,747.8388,726.08057,-0.01287841796875,0.107666015625,0.99737548828125,-2.3626708984375,23.1182861328125,11.641387939453125,1,1.0,1.0,1.0,1.0,10.00
2024-10-11 20:42:13.330,0.4477118,0.7654358,-0.12588416,0.7532909,0.5902626,-0.047531582,-0.18466254,0.5546959,0.62915766,0.16971281,-0.15586638,0.85540944,0.62894386,0.033189695,0.19636859,0.522868,-0.061392434,-0.38370505,0.1779736,0.11412382,741.79486,810.293,796.5934,750.65936,928.7546,-0.01287841796875,0.107666015625,0.99737548828125,-2.3626708984375,23.1182861328125,11.641387939453125,1,1.0,1.0,1.0,1.0,10.00
2024-10-11 20:42:13.331,0.4477118,0.7654358,-0.12588416,0.7532909,0.5902626,-0.047531582,-0.18466254,0.5546959,0.62915766,0.16971281,-0.15586638,0.85540944,0.62894386,0.033189695,0.19636859,0.522868,-0.061392434,-0.38370505,0.1779736,0.11412382,742.6007,808.2784,796.5934,751.06226,612.8571,-0.01287841796875,0.107666015625,0.99737548828125,-2.3626708984375,23.1182861328125,11.641387939453125,1,1.0,1.0,1.0,1.0,10.00
2024-10-11 20:42:13.332,0.4477118,0.7654358,-0.12588416,0.7532909,0.5902626,-0.047531582,-0.18466254,0.5546959,0.62915766,0.16971281,-0.15586638,0.85540944,0.62894386,0.033189695,0.19636859,0.522868,-0.061392434,-0.38370505,0.1779736,0.11412382,740.989,809.0842,788.1319,749.45056,463.7729,-0.01287841796875,0.107666015625,0.99737548828125,-2.3626708984375,23.1182861328125,11.641387939453125,1,1.0,1.0,1.0,1.0,10.00
2024-10-11 20:42:13.359,0.4477118,0.7654358,-0.12588416,0.7532909,0.5902626,-0.047531582,-0.18466254,0.5546959,0.62915766,0.16971281,-0.15586638,0.85540944,0.62894386,0.033189695,0.19636859,0.522868,-0.061392434,-0.38370505,0.1779736,0.11412382,756.7033,813.1135,784.90845,752.27106,711.5751,-0.04437255859375,0.10711669921875,0.9967041015625,-2.332763671875,20.2471923828125,11.940460205078125,1,1.0,1.0,1.0,1.0,10.00
2024-10-11 20:42:13.360,0.4477118,0.7654358,-0.12588416,0.7532909,0.5902626,-0.047531582,-0.18466254,0.5546959,0.62915766,0.16971281,-0.15586638,0.85540944,0.62894386,0.033189695,0.19636859,0.522868,-0.061392434,-0.38370505,0.1779736,0.11412382,760.7326,815.12823,793.36993,750.65936,795.78754,-0.04437255859375,0.10711669921875,0.9967041015625,-2.332763671875,20.2471923828125,11.940460205078125,1,1.0,1.0,1.0,1.0,10.00
2024-10-11 20:42:13.361,0.4477118,0.7654358,-0.12588416,0.7532909,0.5902626,-0.047531582,-0.18466254,0.5546959,0.62915766,0.16971281,-0.15586638,0.85540944,0.62894386,0.033189695,0.19636859,0.522868,-0.061392434,-0.38370505,0.1779736,0.11412382,742.1978,821.978,788.93774,741.39197,635.42126,-0.04437255859375,0.10711669921875,0.9967041015625,-2.332763671875,20.2471923828125,11.940460205078125,1,1.0,1.0,1.0,1.0,10.00
2024-10-11 20:42:13.362,0.4477118,0.7654358,-0.12588416,0.7532909,0.5902626,-0.047531582,-0.18466254,0.5546959,0.62915766,0.16971281,-0.15586638,0.85540944,0.62894386,0.033189695,0.19636859,0.522868,-0.061392434,-0.38370505,0.1779736,0.11412382,747.8388,820.3663,778.46155,747.03296,651.53845,-0.04437255859375,0.10711669921875,0.9967041015625,-2.332763671875,20.2471923828125,11.940460205078125,1,1.0,1.0,1.0,1.0,10.00
2024-10-11 20:42:13.363,0.4477118,0.7654358,-0.12588416,0.7532909,0.5902626,-0.047531582,-0.18466254,0.5546959,0.62915766,0.16971281,-0.15586638,0.85540944,0.62894386,0.033189695,0.19636859,0.522868,-0.061392434,-0.38370505,0.1779736,0.11412382,753.47986,812.3077,783.69965,750.2564,762.74725,-0.04437255859375,0.10711669921875,0.9967041015625,-2.332763671875,20.2471923828125,11.940460205078125,1,1.0,1.0,1.0,1.0,10.00
2024-10-11 20:42:13.364,0.4477118,0.7654358,-0.12588416,0.7532909,0.5902626,-0.047531582,-0.18466254,0.5546959,0.62915766,0.16971281,-0.15586638,0.85540944,0.62894386,0.033189695,0.19636859,0.522868,-0.061392434,-0.38370505,0.1779736,0.11412382,745.82416,813.91943,786.1172,746.63007,807.8755,-0.04437255859375,0.10711669921875,0.9967041015625,-2.332763671875,20.2471923828125,11.940460205078125,1,1.0,1.0,1.0,1.0,10.00
2024-10-11 20:42:13.365,0.4477118,0.7654358,-0.12588416,0.7532909,0.5902626,-0.047531582,-0.18466254,0.5546959,0.62915766,0.16971281,-0.15586638,0.85540944,0.62894386,0.033189695,0.19636859,0.522868,-0.061392434,-0.38370505,0.1779736,0.11412382,752.674,814.7253,788.5348,745.42126,763.1502,-0.04437255859375,0.10711669921875,0.9967041015625,-2.332763671875,20.2471923828125,11.940460205078125,1,1.0,1.0,1.0,1.0,10.00
2024-10-11 20:42:13.365,0.4477118,0.7654358,-0.12588416,0.7532909,0.5902626,-0.047531582,-0.18466254,0.5546959,0.62915766,0.16971281,-0.15586638,0.85540944,0.62894386,0.033189695,0.19636859,0.522868,-0.061392434,-0.38370505,0.1779736,0.11412382,759.5238,813.91943,784.90845,741.79486,728.9011,-0.04437255859375,0.10711669921875,0.9967041015625,-2.332763671875,20.2471923828125,11.940460205078125,1,1.0,1.0,1.0,1.0,10.00
2024-10-11 20:42:13.366,0.4477118,0.7654358,-0.12588416,0.7532909,0.5902626,-0.047531582,-0.18466254,0.5546959,0.62915766,0.16971281,-0.15586638,0.85540944,0.62894386,0.033189695,0.19636859,0.522868,-0.061392434,-0.38370505,0.1779736,0.11412382,752.27106,813.5165,785.7143,755.09155,746.63007,-0.04437255859375,0.10711669921875,0.9967041015625,-2.332763671875,20.2471923828125,11.940460205078125,1,1.0,1.0,1.0,1.0,10.00
2024-10-11 20:42:13.367,0.4477118,0.7654358,-0.12588416,0.7532909,0.5902626,-0.047531582,-0.18466254,0.5546959,0.62915766,0.16971281,-0.15586638,0.85540944,0.62894386,0.033189695,0.19636859,0.522868,-0.061392434,-0.38370505,0.1779736,0.11412382,752.674,812.71063,790.54944,765.9707,661.2088,-0.04437255859375,0.10711669921875,0.9967041015625,-2.332763671875,20.2471923828125,11.940460205078125,1,1.0,1.0,1.0,1.0,10.00
2024-10-11 20:42:13.368,0.4477118,0.7654358,-0.12588416,0.7532909,0.5902626,-0.047531582,-0.18466254,0.5546959,0.62915766,0.16971281,-0.15586638,0.85540944,0.62894386,0.033189695,0.19636859,0.522868,-0.061392434,-0.38370505,0.1779736,0.11412382,767.1795,809.0842,780.07324,765.56775,559.67035,-0.04437255859375,0.10711669921875,0.9967041015625,-2.332763671875,20.2471923828125,11.940460205078125,1,1.0,1.0,1.0,1.0,10.00
2024-10-11 20:42:13.369,0.4313331,0.77597713,-0.10963283,0.77643377,0.58078986,-0.05671723,-0.15506054,0.568494,0.5789595,0.16543643,-0.17870429,0.85540944,0.6082077,0.061870568,0.18731101,0.55740803,-0.1013902,-0.36875996,0.195516,0.18704347,761.53845,807.8755,776.8498,765.16486,675.31134,-0.04437255859375,0.10711669921875,0.9967041015625,-2.332763671875,20.2471923828125,11.940460205078125,1,1.0,1.0,1.0,1.0,10.00
2024-10-11 20:42:13.402,0.4313331,0.77597713,-0.10963283,0.77643377,0.58078986,-0.05671723,-0.15506054,0.568494,0.5789595,0.16543643,-0.17870429,0.85540944,0.6082077,0.061870568,0.18731101,0.55740803,-0.1013902,-0.36875996,0.195516,0.18704347,757.9121,810.293,786.9231,762.3443,923.5165,-0.04437255859375,0.10711669921875,0.9967041015625,-2.332763671875,20.2471923828125,11.940460205078125,1,1.0,1.0,1.0,1.0,10.00
2024-10-11 20:42:13.403,0.4313331,0.77597713,-0.10963283,0.77643377,0.58078986,-0.05671723,-0.15506054,0.568494,0.5789595,0.16543643,-0.17870429,0.85540944,0.6082077,0.061870568,0.18731101,0.55740803,-0.1013902,-0.36875996,0.195516,0.18704347,761.9414,814.7253,782.0879,755.89746,765.16486,-0.04437255859375,0.10711669921875,0.9967041015625,-2.332763671875,20.2471923828125,11.940460205078125,1,1.0,1.0,1.0,1.0,10.00
2024-10-11 20:42:13.404,0.4313331,0.77597713,-0.10963283,0.77643377,0.58078986,-0.05671723,-0.15506054,0.568494,0.5789595,0.16543643,-0.17870429,0.85540944,0.6082077,0.061870568,0.18731101,0.55740803,-0.1013902,-0.36875996,0.195516,0.18704347,761.53845,815.12823,791.3553,760.7326,545.16486,-0.04437255859375,0.10711669921875,0.9967041015625,-2.332763671875,20.2471923828125,11.940460205078125,1,1.0,1.0,1.0,1.0,10.00
2024-10-11 20:42:13.405,0.4313331,0.77597713,-0.10963283,0.77643377,0.58078986,-0.05671723,-0.15506054,0.568494,0.5789595,0.16543643,-0.17870429,0.85540944,0.6082077,0.061870568,0.18731101,0.55740803,-0.1013902,-0.36875996,0.195516,0.18704347,765.16486,808.2784,805.8608,770.80585,758.71796,-0.04437255859375,0.10711669921875,0.9967041015625,-2.332763671875,20.2471923828125,11.940460205078125,1,1.0,1.0,1.0,1.0,10.00
2024-10-11 20:42:13.405,0.4313331,0.77597713,-0.10963283,0.77643377,0.58078986,-0.05671723,-0.15506054,0.568494,0.5789595,0.16543643,-0.17870429,0.85540944,0.6082077,0.061870568,0.18731101,0.55740803,-0.1013902,-0.36875996,0.195516,0.18704347,777.6557,809.89014,803.0403,776.8498,760.7326,-0.04437255859375,0.10711669921875,0.9967041015625,-2.332763671875,20.2471923828125,11.940460205078125,1,1.0,1.0,1.0,1.0,10.00
2024-10-11 20:42:13.406,0.4313331,0.77597713,-0.10963283,0.77643377,0.58078986,-0.05671723,-0.15506054,0.568494,0.5789595,0.16543643,-0.17870429,0.85540944,0.6082077,0.061870568,0.18731101,0.55740803,-0.1013902,-0.36875996,0.195516,0.18704347,783.69965,813.5165,787.326,780.4762,618.0952,-0.04437255859375,0.10711669921875,0.9967041015625,-2.332763671875,20.2471923828125,11.940460205078125,1,1.0,1.0,1.0,1.0,10.00
2024-10-11 20:42:13.407,0.4313331,0.77597713,-0.10963283,0.77643377,0.58078986,-0.05671723,-0.15506054,0.568494,0.5789595,0.16543643,-0.17870429,0.85540944,0.6082077,0.061870568,0.18731101,0.55740803,-0.1013902,-0.36875996,0.195516,0.18704347,784.10254,809.4872,780.87915,784.10254,603.1868,-0.04437255859375,0.10711669921875,0.9967041015625,-2.332763671875,20.2471923828125,11.940460205078125,1,1.0,1.0,1.0,1.0,10.00
2024-10-11 20:42:13.408,0.4313331,0.77597713,-0.10963283,0.77643377,0.58078986,-0.05671723,-0.15506054,0.568494,0.5789595,0.16543643,-0.17870429,0.85540944,0.6082077,0.061870568,0.18731101,0.55740803,-0.1013902,-0.36875996,0.195516,0.18704347,778.46155,797.8022,789.7436,794.17584,880.40295,-0.04437255859375,0.10711669921875,0.9967041015625,-2.332763671875,20.2471923828125,11.940460205078125,1,1.0,1.0,1.0,1.0,10.00
2024-10-11 20:42:13.408,0.4313331,0.77597713,-0.10963283,0.77643377,0.58078986,-0.05671723,-0.15506054,0.568494,0.5789595,0.16543643,-0.17870429,0.85540944,0.6082077,0.061870568,0.18731101,0.55740803,-0.1013902,-0.36875996,0.195516,0.18704347,775.64105,797.3993,790.54944,793.36993,965.82416,-0.04437255859375,0.10711669921875,0.9967041015625,-2.332763671875,20.2471923828125,11.940460205078125,1,1.0,1.0,1.0,1.0,10.00
2024-10-11 20:42:13.409,0.4313331,0.77597713,-0.10963283,0.77643377,0.58078986,-0.05671723,-0.15506054,0.568494,0.5789595,0.16543643,-0.17870429,0.85540944,0.6082077,0.061870568,0.18731101,0.55740803,-0.1013902,-0.36875996,0.195516,0.18704347,785.31134,808.2784,792.5641,784.5055,574.57874,-0.04437255859375,0.10711669921875,0.9967041015625,-2.332763671875,20.2471923828125,11.940460205078125,1,1.0,1.0,1.0,1.0,10.00
2024-10-11 20:42:13.410,0.4313331,0.77597713,-0.10963283,0.77643377,0.58078986,-0.05671723,-0.15506054,0.568494,0.5789595,0.16543643,-0.17870429,0.85540944,0.6082077,0.061870568,0.18731101,0.55740803,-0.1013902,-0.36875996,0.195516,0.18704347,786.52014,813.91943,794.17584,795.38464,496.41025,-0.04437255859375,0.10711669921875,0.9967041015625,-2.332763671875,20.2471923828125,11.940460205078125,1,1.0,1.0,1.0,1.0,10.00
2024-10-11 20:42:13.411,0.4313331,0.77597713,-0.10963283,0.77643377,0.58078986,-0.05671723,-0.15506054,0.568494,0.5789595,0.16543643,-0.17870429,0.85540944,0.6082077,0.061870568,0.18731101,0.55740803,-0.1013902,-0.36875996,0.195516,0.18704347,792.1612,809.4872,792.1612,799.41394,578.20514,-0.04437255859375,0.10711669921875,0.9967041015625,-2.332763671875,20.2471923828125,11.940460205078125,1,1.0,1.0,1.0,1.0,10.00
2024-10-11 20:42:13.469,0.4313331,0.77597713,-0.10963283,0.77643377,0.58078986,-0.05671723,-0.15506054,0.568494,0.5789595,0.16543643,-0.17870429,0.85540944,0.6082077,0.061870568,0.18731101,0.55740803,-0.1013902,-0.36875996,0.195516,0.18704347,801.8315,802.6374,793.36993,794.17584,643.8828,-0.0595703125,0.10272216796875,0.9940185546875,-1.278533935546875,18.363037109375,10.729217529296875,1,1.0,1.0,1.0,1.0,10.00
2024-10-11 20:42:13.470,0.4313331,0.77597713,-0.10963283,0.77643377,0.58078986,-0.05671723,-0.15506054,0.568494,0.5789595,0.16543643,-0.17870429,0.85540944,0.6082077,0.061870568,0.18731101,0.55740803,-0.1013902,-0.36875996,0.195516,0.18704347,799.41394,800.6227,793.7729,796.1905,587.0696,-0.0595703125,0.10272216796875,0.9940185546875,-1.278533935546875,18.363037109375,10.729217529296875,1,1.0,1.0,1.0,1.0,10.00
2024-10-11 20:42:13.471,0.4313331,0.77597713,-0.10963283,0.77643377,0.58078986,-0.05671723,-0.15506054,0.568494,0.5789595,0.16543643,-0.17870429,0.85540944,0.6082077,0.061870568,0.18731101,0.55740803,-0.1013902,-0.36875996,0.195516,0.18704347,797.8022,799.011,787.72894,796.1905,519.7802,-0.0595703125,0.10272216796875,0.9940185546875,-1.278533935546875,18.363037109375,10.729217529296875,1,1.0,1.0,1.0,1.0,10.00
2024-10-11 20:42:13.472,0.4313331,0.77597713,-0.10963283,0.77643377,0.58078986,-0.05671723,-0.15506054,0.568494,0.5789595,0.16543643,-0.17870429,0.85540944,0.6082077,0.061870568,0.18731101,0.55740803,-0.1013902,-0.36875996,0.195516,0.18704347,792.96704,798.60803,785.31134,797.8022,541.53845,-0.0595703125,0.10272216796875,0.9940185546875,-1.278533935546875,18.363037109375,10.729217529296875,1,1.0,1.0,1.0,1.0,10.00
2024-10-11 20:42:13.472,0.4313331,0.77597713,-0.10963283,0.77643377,0.58078986,-0.05671723,-0.15506054,0.568494,0.5789595,0.16543643,-0.17870429,0.85540944,0.6082077,0.061870568,0.18731101,0.55740803,-0.1013902,-0.36875996,0.195516,0.18704347,792.1612,799.011,795.38464,798.20514,581.02563,-0.0595703125,0.10272216796875,0.9940185546875,-1.278533935546875,18.363037109375,10.729217529296875,1,1.0,1.0,1.0,1.0,10.00
2024-10-11 20:42:13.473,0.4313331,0.77597713,-0.10963283,0.77643377,0.58078986,-0.05671723,-0.15506054,0.568494,0.5789595,0.16543643,-0.17870429,0.85540944,0.6082077,0.061870568,0.18731101,0.55740803,-0.1013902,-0.36875996,0.195516,0.18704347,801.4286,804.2491,785.7143,791.3553,644.68866,-0.0595703125,0.10272216796875,0.9940185546875,-1.278533935546875,18.363037109375,10.729217529296875,1,1.0,1.0,1.0,1.0,10.00
2024-10-11 20:42:13.474,0.4313331,0.77597713,-0.10963283,0.77643377,0.58078986,-0.05671723,-0.15506054,0.568494,0.5789595,0.16543643,-0.17870429,0.85540944,0.6082077,0.061870568,0.18731101,0.55740803,-0.1013902,-0.36875996,0.195516,0.18704347,809.89014,801.4286,787.72894,787.326,787.72894,-0.0595703125,0.10272216796875,0.9940185546875,-1.278533935546875,18.363037109375,10.729217529296875,1,1.0,1.0,1.0,1.0,10.00
2024-10-11 20:42:13.474,0.4313331,0.77597713,-0.10963283,0.77643377,0.58078986,-0.05671723,-0.15506054,0.568494,0.5789595,0.16543643,-0.17870429,0.85540944,0.6082077,0.061870568,0.18731101,0.55740803,-0.1013902,-0.36875996,0.195516,0.18704347,803.44324,795.38464,796.5934,788.5348,996.8498,-0.0595703125,0.10272216796875,0.9940185546875,-1.278533935546875,18.363037109375,10.729217529296875,1,1.0,1.0,1.0,1.0,10.00
2024-10-11 20:42:13.475,0.4313331,0.77597713,-0.10963283,0.77643377,0.58078986,-0.05671723,-0.15506054,0.568494,0.5789595,0.16543643,-0.17870429,0.85540944,0.6082077,0.061870568,0.18731101,0.55740803,-0.1013902,-0.36875996,0.195516,0.18704347,799.41394,797.8022,786.52014,789.7436,770.80585,-0.0595703125,0.10272216796875,0.9940185546875,-1.278533935546875,18.363037109375,10.729217529296875,1,1.0,1.0,1.0,1.0,10.00
2024-10-11 20:42:13.476,0.4313331,0.77597713,-0.10963283,0.77643377,0.58078986,-0.05671723,-0.15506054,0.568494,0.5789595,0.16543643,-0.17870429,0.85540944,0.6082077,0.061870568,0.18731101,0.55740803,-0.1013902,-0.36875996,0.195516,0.18704347,799.41394,798.20514,790.54944,786.1172,520.58606,-0.0595703125,0.10272216796875,0.9940185546875,-1.278533935546875,18.363037109375,10.729217529296875,1,1.0,1.0,1.0,1.0,10.00
2024-10-11 20:42:13.476,0.4313331,0.77597713,-0.10963283,0.77643377,0.58078986,-0.05671723,-0.15506054,0.568494,0.5789595,0.16543643,-0.17870429,0.85540944,0.6082077,0.061870568,0.18731101,0.55740803,-0.1013902,-0.36875996,0.195516,0.18704347,792.1612,799.41394,804.2491,795.78754,630.18317,-0.0595703125,0.10272216796875,0.9940185546875,-1.278533935546875,18.363037109375,10.729217529296875,1,1.0,1.0,1.0,1.0,10.00
2024-10-11 20:42:13.477,0.4313331,0.77597713,-0.10963283,0.77643377,0.58078986,-0.05671723,-0.15506054,0.568494,0.5789595,0.16543643,-0.17870429,0.85540944,0.6082077,0.061870568,0.18731101,0.55740803,-0.1013902,-0.36875996,0.195516,0.18704347,802.23444,799.41394,801.4286,814.3223,984.7619,-0.0595703125,0.10272216796875,0.9940185546875,-1.278533935546875,18.363037109375,10.729217529296875,1,1.0,1.0,1.0,1.0,10.00
2024-10-11 20:42:13.504,0.4313331,0.77597713,-0.10963283,0.77643377,0.58078986,-0.05671723,-0.15506054,0.568494,0.5789595,0.16543643,-0.17870429,0.85540944,0.6082077,0.061870568,0.18731101,0.55740803,-0.1013902,-0.36875996,0.195516,0.18704347,813.5165,801.02563,796.5934,809.0842,936.0073,-0.0821533203125,0.1072998046875,0.99542236328125,-1.114044189453125,15.98541259765625,10.041351318359375,1,1.0,1.0,1.0,1.0,10.00
2024-10-11 20:42:13.505,0.4244064,0.7814319,-0.1021037,0.8167006,0.54277873,-0.061972983,-0.12422233,0.596681,0.5600032,0.1546007,-0.19180919,0.9131015,0.58684915,0.08014074,0.19252026,0.5845577,-0.14306416,-0.35449508,0.211637,0.2586684,817.5458,802.6374,800.6227,799.81683,604.3956,-0.0821533203125,0.1072998046875,0.99542236328125,-1.114044189453125,15.98541259765625,10.041351318359375,1,1.0,1.0,1.0,1.0,10.00
2024-10-11 20:42:13.511,0.4244064,0.7814319,-0.1021037,0.8167006,0.54277873,-0.061972983,-0.12422233,0.596681,0.5600032,0.1546007,-0.19180919,0.9131015,0.58684915,0.08014074,0.19252026,0.5845577,-0.14306416,-0.35449508,0.211637,0.2586684,805.4579,798.60803,793.7729,800.2198,673.2967,-0.0821533203125,0.1072998046875,0.99542236328125,-1.114044189453125,15.98541259765625,10.041351318359375,1,1.0,1.0,1.0,1.0,10.00
2024-10-11 20:42:13.512,0.4244064,0.7814319,-0.1021037,0.8167006,0.54277873,-0.061972983,-0.12422233,0.596681,0.5600032,0.1546007,-0.19180919,0.9131015,0.58684915,0.08014074,0.19252026,0.5845577,-0.14306416,-0.35449508,0.211637,0.2586684,799.81683,800.2198,789.7436,807.8755,770.80585,-0.0821533203125,0.1072998046875,0.99542236328125,-1.114044189453125,15.98541259765625,10.041351318359375,1,1.0,1.0,1.0,1.0,10.00
2024-10-11 20:42:13.513,0.4244064,0.7814319,-0.1021037,0.8167006,0.54277873,-0.061972983,-0.12422233,0.596681,0.5600032,0.1546007,-0.19180919,0.9131015,0.58684915,0.08014074,0.19252026,0.5845577,-0.14306416,-0.35449508,0.211637,0.2586684,812.3077,802.23444,795.78754,812.71063,703.91943,-0.0821533203125,0.1072998046875,0.99542236328125,-1.114044189453125,15.98541259765625,10.041351318359375,1,1.0,1.0,1.0,1.0,10.00
2024-10-11 20:42:13.514,0.4244064,0.7814319,-0.1021037,0.8167006,0.54277873,-0.061972983,-0.12422233,0.596681,0.5600032,0.1546007,-0.19180919,0.9131015,0.58684915,0.08014074,0.19252026,0.5845577,-0.14306416,-0.35449508,0.211637,0.2586684,815.9341,799.41394,798.20514,818.7546,809.4872,-0.0821533203125,0.1072998046875,0.99542236328125,-1.114044189453125,15.98541259765625,10.041351318359375,1,1.0,1.0,1.0,1.0,10.00
2024-10-11 20:42:13.515,0.4244064,0.7814319,-0.1021037,0.8167006,0.54277873,-0.061972983,-0.12422233,0.596681,0.5600032,0.1546007,-0.19180919,0.9131015,0.58684915,0.08014074,0.19252026,0.5845577,-0.14306416,-0.35449508,0.211637,0.2586684,806.6667,794.57874,800.6227,817.5458,1108.0586,-0.0821533203125,0.1072998046875,0.99542236328125,-1.114044189453125,15.98541259765625,10.041351318359375,1,1.0,1.0,1.0,1.0,10.00
2024-10-11 20:42:13.516,0.4244064,0.7814319,-0.1021037,0.8167006,0.54277873,-0.061972983,-0.12422233,0.596681,0.5600032,0.1546007,-0.19180919,0.9131015,0.58684915,0.08014074,0.19252026,0.5845577,-0.14306416,-0.35449508,0.211637,0.2586684,801.4286,793.7729,792.5641,813.1135,983.5531,-0.0821533203125,0.1072998046875,0.99542236328125,-1.114044189453125,15.98541259765625,10.041351318359375,1,1.0,1.0,1.0,1.0,10.00
2024-10-11 20:42:13.516,0.4244064,0.7814319,-0.1021037,0.8167006,0.54277873,-0.061972983,-0.12422233,0.596681,0.5600032,0.1546007,-0.19180919,0.9131015,0.58684915,0.08014074,0.19252026,0.5845577,-0.14306416,-0.35449508,0.211637,0.2586684,808.2784,794.57874,797.3993,816.7399,784.10254,-0.0821533203125,0.1072998046875,0.99542236328125,-1.114044189453125,15.98541259765625,10.041351318359375,1,1.0,1.0,1.0,1.0,10.00
2024-10-11 20:42:13.517,0.4244064,0.7814319,-0.1021037,0.8167006,0.54277873,-0.061972983,-0.12422233,0.596681,0.5600032,0.1546007,-0.19180919,0.9131015,0.58684915,0.08014074,0.19252026,0.5845577,-0.14306416,-0.35449508,0.211637,0.2586684,813.1135,795.78754,807.0696,799.41394,864.68866,-0.0821533203125,0.1072998046875,0.99542236328125,-1.114044189453125,15.98541259765625,10.041351318359375,1,1.0,1.0,1.0,1.0,10.00
2024-10-11 20:42:13.518,0.4244064,0.7814319,-0.1021037,0.8167006,0.54277873,-0.061972983,-0.12422233,0.596681,0.5600032,0.1546007,-0.19180919,0.9131015,0.58684915,0.08014074,0.19252026,0.5845577,-0.14306416,-0.35449508,0.211637,0.2586684,820.7692,794.57874,809.4872,781.28204,954.5421,-0.0821533203125,0.1072998046875,0.99542236328125,-1.114044189453125,15.98541259765625,10.041351318359375,1,1.0,1.0,1.0,1.0,10.00
2024-10-11 20:42:13.519,0.4244064,0.7814319,-0.1021037,0.8167006,0.54277873,-0.061972983,-0.12422233,0.596681,0.5600032,0.1546007,-0.19180919,0.9131015,0.58684915,0.08014074,0.19252026,0.5845577,-0.14306416,-0.35449508,0.211637,0.2586684,817.9487,795.78754,803.44324,789.7436,922.71063,-0.0821533203125,0.1072998046875,0.99542236328125,-1.114044189453125,15.98541259765625,10.041351318359375,1,1.0,1.0,1.0,1.0,10.00
2024-10-11 20:42:13.545,0.4244064,0.7814319,-0.1021037,0.8167006,0.54277873,-0.061972983,-0.12422233,0.596681,0.5600032,0.1546007,-0.19180919,0.9131015,0.58684915,0.08014074,0.19252026,0.5845577,-0.14306416,-0.35449508,0.211637,0.2586684,802.6374,797.3993,793.36993,795.78754,742.6007,-0.0941162109375,0.10345458984375,1.00042724609375,-0.79254150390625,15.32745361328125,10.340423583984375,1,1.0,1.0,1.0,1.0,10.00
2024-10-11 20:42:13.546,0.4244064,0.7814319,-0.1021037,0.8167006,0.54277873,-0.061972983,-0.12422233,0.596681,0.5600032,0.1546007,-0.19180919,0.9131015,0.58684915,0.08014074,0.19252026,0.5845577,-0.14306416,-0.35449508,0.211637,0.2586684,797.8022,796.5934,798.20514,795.38464,670.07324,-0.0941162109375,0.10345458984375,1.00042724609375,-0.79254150390625,15.32745361328125,10.340423583984375,1,1.0,1.0,1.0,1.0,10.00
2024-10-11 20:42:13.547,0.4244064,0.7814319,-0.1021037,0.8167006,0.54277873,-0.061972983,-0.12422233,0.596681,0.5600032,0.1546007,-0.19180919,0.9131015,0.58684915,0.08014074,0.19252026,0.5845577,-0.14306416,-0.35449508,0.211637,0.2586684,801.8315,794.57874,799.41394,799.41394,963.4066,-0.0941162109375,0.10345458984375,1.00042724609375,-0.79254150390625,15.32745361328125,10.340423583984375,1,1.0,1.0,1.0,1.0,10.00
2024-10-11 20:42:13.548,0.4244064,0.7814319,-0.1021037,0.8167006,0.54277873,-0.061972983,-0.12422233,0.596681,0.5600032,0.1546007,-0.19180919,0.9131015,0.58684915,0.08014074,0.19252026,0.5845577,-0.14306416,-0.35449508,0.211637,0.2586684,814.7253,793.36993,792.1612,801.4286,1074.6154,-0.0941162109375,0.10345458984375,1.00042724609375,-0.79254150390625,15.32745361328125,10.340423583984375,1,1.0,1.0,1.0,1.0,10.00
2024-10-11 20:42:13.549,0.4244064,0.7814319,-0.1021037,0.8167006,0.54277873,-0.061972983,-0.12422233,0.596681,0.5600032,0.1546007,-0.19180919,0.9131015,0.58684915,0.08014074,0.19252026,0.5845577,-0.14306416,-0.35449508,0.211637,0.2586684,815.9341,795.78754,778.86444,796.5934,653.5531,-0.0941162109375,0.10345458984375,1.00042724609375,-0.79254150390625,15.32745361328125,10.340423583984375,1,1.0,1.0,1.0,1.0,10.00
2024-10-11 20:42:13.550,0.4244064,0.7814319,-0.1021037,0.8167006,0.54277873,-0.061972983,-0.12422233,0.596681,0.5600032,0.1546007,-0.19180919,0.9131015,0.58684915,0.08014074,0.19252026,0.5845577,-0.14306416,-0.35449508,0.211637,0.2586684,809.4872,802.23444,776.04395,799.41394,676.1172,-0.0941162109375,0.10345458984375,1.00042724609375,-0.79254150390625,15.32745361328125,10.340423583984375,1,1.0,1.0,1.0,1.0,10.00
2024-10-11 20:42:13.551,0.4244064,0.7814319,-0.1021037,0.8167006,0.54277873,-0.061972983,-0.12422233,0.596681,0.5600032,0.1546007,-0.19180919,0.9131015,0.58684915,0.08014074,0.19252026,0.5845577,-0.14306416,-0.35449508,0.211637,0.2586684,813.1135,809.0842,791.75824,804.2491,894.10254,-0.0941162109375,0.10345458984375,1.00042724609375,-0.79254150390625,15.32745361328125,10.340423583984375,1,1.0,1.0,1.0,1.0,10.00
2024-10-11 20:42:13.552,0.4244064,0.7814319,-0.1021037,0.8167006,0.54277873,-0.061972983,-0.12422233,0.596681,0.5600032,0.1546007,-0.19180919,0.9131015,0.58684915,0.08014074,0.19252026,0.5845577,-0.14306416,-0.35449508,0.211637,0.2586684,813.5165,801.8315,806.6667,801.02563,800.6227,-0.0941162109375,0.10345458984375,1.00042724609375,-0.79254150390625,15.32745361328125,10.340423583984375,1,1.0,1.0,1.0,1.0,10.00
2024-10-11 20:42:13.552,0.4244064,0.7814319,-0.1021037,0.8167006,0.54277873,-0.061972983,-0.12422233,0.596681,0.5600032,0.1546007,-0.19180919,0.9131015,0.58684915,0.08014074,0.19252026,0.5845577,-0.14306416,-0.35449508,0.211637,0.2586684,803.8461,796.99634,810.293,803.44324,689.81683,-0.0941162109375,0.10345458984375,1.00042724609375,-0.79254150390625,15.32745361328125,10.340423583984375,1,1.0,1.0,1.0,1.0,10.00
