TimeStamp,Delta_TP9,Delta_AF7,Delta_AF8,Delta_TP10,Theta_TP9,Theta_AF7,Theta_AF8,Theta_TP10,Alpha_TP9,Alpha_AF7,Alpha_AF8,Alpha_TP10,Beta_TP9,Beta_AF7,Beta_AF8,Beta_TP10,Gamma_TP9,Gamma_AF7,Gamma_AF8,Gamma_TP10,RAW_TP9,RAW_AF7,RAW_AF8,RAW_TP10,AUX_RIGHT,Accelerometer_X,Accelerometer_Y,Accelerometer_Z,Gyro_X,Gyro_Y,Gyro_Z,HeadBandOn,HSI_TP9,HSI_AF7,HSI_AF8,HSI_TP10,Battery,Elements
2024-10-11 20:38:27.417,0.13857464,0.015372191,1.1430535,0.08438157,0.4078013,-0.18681224,0.6572812,0.5875351,0.45396483,-0.36888778,0.34479067,0.14027707,0.31089175,0.11802954,0.08761164,0.3935599,0.008378546,-0.25232315,-0.09370772,-0.07373067,801.02563,800.6227,799.011,808.2784,624.1392,-0.16619873046875,0.090576171875,0.99365234375,0.321502685546875,-1.622467041015625,-0.46356201171875,1,1.0,1.0,1.0,1.0,10.00
2024-10-11 20:38:27.418,0.13857464,0.015372191,1.1430535,0.08438157,0.4078013,-0.18681224,0.6572812,0.5875351,0.45396483,-0.36888778,0.34479067,0.14027707,0.31089175,0.11802954,0.08761164,0.3935599,0.008378546,-0.25232315,-0.09370772,-0.07373067,805.05493,801.8315,806.26373,809.0842,705.5311,-0.16619873046875,0.090576171875,0.99365234375,0.321502685546875,-1.622467041015625,-0.46356201171875,1,1.0,1.0,1.0,1.0,10.00
2024-10-11 20:38:27.419,0.13857464,0.015372191,1.1430535,0.08438157,0.4078013,-0.18681224,0.6572812,0.5875351,0.45396483,-0.36888778,0.34479067,0.14027707,0.31089175,0.11802954,0.08761164,0.3935599,0.008378546,-0.25232315,-0.09370772,-0.07373067,803.44324,793.7729,808.2784,809.4872,868.71796,-0.16619873046875,0.090576171875,0.99365234375,0.321502685546875,-1.622467041015625,-0.46356201171875,1,1.0,1.0,1.0,1.0,10.00
2024-10-11 20:38:27.420,0.13857464,0.015372191,1.1430535,0.08438157,0.4078013,-0.18681224,0.6572812,0.5875351,0.45396483,-0.36888778,0.34479067,0.14027707,0.31089175,0.11802954,0.08761164,0.3935599,0.008378546,-0.25232315,-0.09370772,-0.07373067,802.6374,794.17584,808.68134,804.2491,776.8498,-0.16619873046875,0.090576171875,0.99365234375,0.321502685546875,-1.622467041015625,-0.46356201171875,1,1.0,1.0,1.0,1.0,10.00
2024-10-11 20:38:27.421,0.13857464,0.015372191,1.1430535,0.08438157,0.4078013,-0.18681224,0.6572812,0.5875351,0.45396483,-0.36888778,0.34479067,0.14027707,0.31089175,0.11802954,0.08761164,0.3935599,0.008378546,-0.25232315,-0.09370772,-0.07373067,795.38464,799.41394,810.293,802.6374,697.8755,-0.16619873046875,0.090576171875,0.99365234375,0.321502685546875,-1.622467041015625,-0.46356201171875,1,1.0,1.0,1.0,1.0,10.00
2024-10-11 20:38:27.422,0.13857464,0.015372191,1.1430535,0.08438157,0.4078013,-0.18681224,0.6572812,0.5875351,0.45396483,-0.36888778,0.34479067,0.14027707,0.31089175,0.11802954,0.08761164,0.3935599,0.008378546,-0.25232315,-0.09370772,-0.07373067,792.1612,798.60803,809.0842,805.8608,836.8865,-0.16619873046875,0.090576171875,0.99365234375,0.321502685546875,-1.622467041015625,-0.46356201171875,1,1.0,1.0,1.0,1.0,10.00
2024-10-11 20:38:27.423,0.13857464,0.015372191,1.1430535,0.08438157,0.4078013,-0.18681224,0.6572812,0.5875351,0.45396483,-0.36888778,0.34479067,0.14027707,0.31089175,0.11802954,0.08761164,0.3935599,0.008378546,-0.25232315,-0.09370772,-0.07373067,802.23444,792.96704,806.26373,810.696,808.68134,-0.16619873046875,0.090576171875,0.99365234375,0.321502685546875,-1.622467041015625,-0.46356201171875,1,1.0,1.0,1.0,1.0,10.00
2024-10-11 20:38:27.423,0.13857464,0.015372191,1.1430535,0.08438157,0.4078013,-0.18681224,0.6572812,0.5875351,0.45396483,-0.36888778,0.34479067,0.14027707,0.31089175,0.11802954,0.08761164,0.3935599,0.008378546,-0.25232315,-0.09370772,-0.07373067,803.0403,790.9524,807.8755,812.71063,619.304,-0.16619873046875,0.090576171875,0.99365234375,0.321502685546875,-1.622467041015625,-0.46356201171875,1,1.0,1.0,1.0,1.0,10.00
2024-10-11 20:38:27.424,0.13857464,0.015372191,1.1430535,0.08438157,0.4078013,-0.18681224,0.6572812,0.5875351,0.45396483,-0.36888778,0.34479067,0.14027707,0.31089175,0.11802954,0.08761164,0.3935599,0.008378546,-0.25232315,-0.09370772,-0.07373067,803.44324,796.5934,804.65204,810.696,624.94507,-0.16619873046875,0.090576171875,0.99365234375,0.321502685546875,-1.622467041015625,-0.46356201171875,1,1.0,1.0,1.0,1.0,10.00
2024-10-11 20:38:27.425,0.13857464,0.015372191,1.1430535,0.08438157,0.4078013,-0.18681224,0.6572812,0.5875351,0.45396483,-0.36888778,0.34479067,0.14027707,0.31089175,0.11802954,0.08761164,0.3935599,0.008378546,-0.25232315,-0.09370772,-0.07373067,805.4579,801.02563,803.44324,809.4872,801.8315,-0.16619873046875,0.090576171875,0.99365234375,0.321502685546875,-1.622467041015625,-0.46356201171875,1,1.0,1.0,1.0,1.0,10.00
2024-10-11 20:38:27.426,0.13857464,0.015372191,1.1430535,0.08438157,0.4078013,-0.18681224,0.6572812,0.5875351,0.45396483,-0.36888778,0.34479067,0.14027707,0.31089175,0.11802954,0.08761164,0.3935599,0.008378546,-0.25232315,-0.09370772,-0.07373067,800.6227,803.8461,806.6667,801.4286,752.27106,-0.16619873046875,0.090576171875,0.99365234375,0.321502685546875,-1.622467041015625,-0.46356201171875,1,1.0,1.0,1.0,1.0,10.00
2024-10-11 20:38:27.427,0.13857464,0.015372191,1.131121,0.08438157,0.4078013,-0.18681224,0.63862526,0.5875351,0.45396483,-0.36888778,0.34479067,0.14027707,0.31089175,0.11802954,0.0872991,0.3935599,0.008378546,-0.25232315,-0.11613895,-0.07373067,800.6227,801.02563,807.8755,801.02563,632.6007,-0.16619873046875,0.090576171875,0.99365234375,0.321502685546875,-1.622467041015625,-0.46356201171875,1,1.0,1.0,1.0,1.0,10.00
2024-10-11 20:38:27.538,0.13857464,0.015372191,1.131121,0.08438157,0.4078013,-0.18681224,0.63862526,0.5875351,0.45396483,-0.36888778,0.34479067,0.14027707,0.31089175,0.11802954,0.0872991,0.3935599,0.008378546,-0.25232315,-0.11613895,-0.07373067,805.05493,794.57874,801.8315,804.65204,687.3993,-0.1710205078125,0.08740234375,0.992919921875,0.800018310546875,-0.657958984375,-2.220611572265625,1,1.0,1.0,1.0,1.0,10.00
2024-10-11 20:38:27.539,0.13857464,0.015372191,1.131121,0.08438157,0.4078013,-0.18681224,0.63862526,0.5875351,0.45396483,-0.36888778,0.34479067,0.14027707,0.31089175,0.11802954,0.0872991,0.3935599,0.008378546,-0.25232315,-0.11613895,-0.07373067,799.81683,795.38464,794.9817,803.44324,911.02563,-0.1710205078125,0.08740234375,0.992919921875,0.800018310546875,-0.657958984375,-2.220611572265625,1,1.0,1.0,1.0,1.0,10.00
2024-10-11 20:38:27.540,0.13857464,0.015372191,1.131121,0.08438157,0.4078013,-0.18681224,0.63862526,0.5875351,0.45396483,-0.36888778,0.34479067,0.14027707,0.31089175,0.11802954,0.0872991,0.3935599,0.008378546,-0.25232315,-0.11613895,-0.07373067,794.9817,796.1905,802.6374,800.2198,965.0183,-0.1710205078125,0.08740234375,0.992919921875,0.800018310546875,-0.657958984375,-2.220611572265625,1,1.0,1.0,1.0,1.0,10.00
2024-10-11 20:38:27.541,0.13857464,0.015372191,1.131121,0.08438157,0.4078013,-0.18681224,0.63862526,0.5875351,0.45396483,-0.36888778,0.34479067,0.14027707,0.31089175,0.11802954,0.0872991,0.3935599,0.008378546,-0.25232315,-0.11613895,-0.07373067,799.011,798.60803,801.4286,796.1905,661.6117,-0.1710205078125,0.08740234375,0.992919921875,0.800018310546875,-0.657958984375,-2.220611572265625,1,1.0,1.0,1.0,1.0,10.00
2024-10-11 20:38:27.542,0.13857464,0.015372191,1.131121,0.08438157,0.4078013,-0.18681224,0.63862526,0.5875351,0.45396483,-0.36888778,0.34479067,0.14027707,0.31089175,0.11802954,0.0872991,0.3935599,0.008378546,-0.25232315,-0.11613895,-0.07373067,802.6374,797.8022,799.41394,801.02563,618.49817,-0.1710205078125,0.08740234375,0.992919921875,0.800018310546875,-0.657958984375,-2.220611572265625,1,1.0,1.0,1.0,1.0,10.00
2024-10-11 20:38:27.543,0.13857464,0.015372191,1.131121,0.08438157,0.4078013,-0.18681224,0.63862526,0.5875351,0.45396483,-0.36888778,0.34479067,0.14027707,0.31089175,0.11802954,0.0872991,0.3935599,0.008378546,-0.25232315,-0.11613895,-0.07373067,806.6667,800.6227,801.8315,808.2784,908.20514,-0.1710205078125,0.08740234375,0.992919921875,0.800018310546875,-0.657958984375,-2.220611572265625,1,1.0,1.0,1.0,1.0,10.00
2024-10-11 20:38:27.544,0.13857464,0.015372191,1.131121,0.08438157,0.4078013,-0.18681224,0.63862526,0.5875351,0.45396483,-0.36888778,0.34479067,0.14027707,0.31089175,0.11802954,0.0872991,0.3935599,0.008378546,-0.25232315,-0.11613895,-0.07373067,807.8755,804.65204,801.4286,806.26373,913.8461,-0.1710205078125,0.08740234375,0.992919921875,0.800018310546875,-0.657958984375,-2.220611572265625,1,1.0,1.0,1.0,1.0,10.00
2024-10-11 20:38:27.545,0.13857464,0.015372191,1.131121,0.08438157,0.4078013,-0.18681224,0.63862526,0.5875351,0.45396483,-0.36888778,0.34479067,0.14027707,0.31089175,0.11802954,0.0872991,0.3935599,0.008378546,-0.25232315,-0.11613895,-0.07373067,799.81683,803.0403,805.4579,795.78754,589.4872,-0.1710205078125,0.08740234375,0.992919921875,0.800018310546875,-0.657958984375,-2.220611572265625,1,1.0,1.0,1.0,1.0,10.00
2024-10-11 20:38:27.546,0.13857464,0.015372191,1.131121,0.08438157,0.4078013,-0.18681224,0.63862526,0.5875351,0.45396483,-0.36888778,0.34479067,0.14027707,0.31089175,0.11802954,0.0872991,0.3935599,0.008378546,-0.25232315,-0.11613895,-0.07373067,803.0403,796.99634,806.26373,795.78754,661.6117,-0.1710205078125,0.08740234375,0.992919921875,0.800018310546875,-0.657958984375,-2.220611572265625,1,1.0,1.0,1.0,1.0,10.00
2024-10-11 20:38:27.548,0.13857464,0.015372191,1.131121,0.08438157,0.4078013,-0.18681224,0.63862526,0.5875351,0.45396483,-0.36888778,0.34479067,0.14027707,0.31089175,0.11802954,0.0872991,0.3935599,0.008378546,-0.25232315,-0.11613895,-0.07373067,807.8755,797.3993,805.05493,800.2198,851.79486,-0.1710205078125,0.08740234375,0.992919921875,0.800018310546875,-0.657958984375,-2.220611572265625,1,1.0,1.0,1.0,1.0,10.00
2024-10-11 20:38:27.549,0.13857464,0.015372191,1.131121,0.08438157,0.4078013,-0.18681224,0.63862526,0.5875351,0.45396483,-0.36888778,0.34479067,0.14027707,0.31089175,0.11802954,0.0872991,0.3935599,0.008378546,-0.25232315,-0.11613895,-0.07373067,803.0403,803.0403,802.6374,797.3993,749.45056,-0.1710205078125,0.08740234375,0.992919921875,0.800018310546875,-0.657958984375,-2.220611572265625,1,1.0,1.0,1.0,1.0,10.00
2024-10-11 20:38:27.550,0.13857464,0.015372191,1.131121,0.08438157,0.4078013,-0.18681224,0.63862526,0.5875351,0.45396483,-0.36888778,0.34479067,0.14027707,0.31089175,0.11802954,0.0872991,0.3935599,0.008378546,-0.25232315,-0.11613895,-0.07373067,799.011,799.011,799.81683,795.78754,562.8938,-0.1710205078125,0.08740234375,0.992919921875,0.800018310546875,-0.657958984375,-2.220611572265625,1,1.0,1.0,1.0,1.0,10.00
2024-10-11 20:38:27.551,0.13857464,0.015372191,1.131121,0.08438157,0.4078013,-0.18681224,0.63862526,0.5875351,0.45396483,-0.36888778,0.34479067,0.14027707,0.31089175,0.11802954,0.0872991,0.3935599,0.008378546,-0.25232315,-0.11613895,-0.07373067,805.4579,798.60803,794.17584,804.65204,720.4396,-0.1710205078125,0.08740234375,0.992919921875,0.800018310546875,-0.657958984375,-2.220611572265625,1,1.0,1.0,1.0,1.0,10.00
2024-10-11 20:38:27.552,0.13857464,0.015372191,1.131121,0.08438157,0.4078013,-0.18681224,0.63862526,0.5875351,0.45396483,-0.36888778,0.34479067,0.14027707,0.31089175,0.11802954,0.0872991,0.3935599,0.008378546,-0.25232315,-0.11613895,-0.07373067,803.44324,800.2198,795.38464,805.4579,906.5934,-0.1710205078125,0.08740234375,0.992919921875,0.800018310546875,-0.657958984375,-2.220611572265625,1,1.0,1.0,1.0,1.0,10.00
2024-10-11 20:38:27.553,0.13857464,0.015372191,1.131121,0.08438157,0.4078013,-0.18681224,0.63862526,0.5875351,0.45396483,-0.36888778,0.34479067,0.14027707,0.31089175,0.11802954,0.0872991,0.3935599,0.008378546,-0.25232315,-0.11613895,-0.07373067,798.20514,801.8315,794.17584,803.44324,744.61536,-0.1710205078125,0.08740234375,0.992919921875,0.800018310546875,-0.657958984375,-2.220611572265625,1,1.0,1.0,1.0,1.0,10.00
2024-10-11 20:38:27.554,0.13857464,0.015372191,1.131121,0.08438157,0.4078013,-0.18681224,0.63862526,0.5875351,0.45396483,-0.36888778,0.34479067,0.14027707,0.31089175,0.11802954,0.0872991,0.3935599,0.008378546,-0.25232315,-0.11613895,-0.07373067,805.4579,797.3993,787.326,808.68134,694.2491,-0.1710205078125,0.08740234375,0.992919921875,0.800018310546875,-0.657958984375,-2.220611572265625,1,1.0,1.0,1.0,1.0,10.00
2024-10-11 20:38:27.555,0.13857464,0.015372191,1.131121,0.08438157,0.4078013,-0.18681224,0.63862526,0.5875351,0.45396483,-0.36888778,0.34479067,0.14027707,0.31089175,0.11802954,0.0872991,0.3935599,0.008378546,-0.25232315,-0.11613895,-0.07373067,802.6374,799.011,792.1612,802.6374,896.52014,-0.1710205078125,0.08740234375,0.992919921875,0.800018310546875,-0.657958984375,-2.220611572265625,1,1.0,1.0,1.0,1.0,10.00
2024-10-11 20:38:27.556,0.13857464,0.015372191,1.131121,0.08438157,0.4078013,-0.18681224,0.63862526,0.5875351,0.45396483,-0.36888778,0.34479067,0.14027707,0.31089175,0.11802954,0.0872991,0.3935599,0.008378546,-0.25232315,-0.11613895,-0.07373067,797.8022,805.4579,794.9817,797.3993,1039.1575,-0.1710205078125,0.08740234375,0.992919921875,0.800018310546875,-0.657958984375,-2.220611572265625,1,1.0,1.0,1.0,1.0,10.00
2024-10-11 20:38:27.557,0.13857464,0.015372191,1.131121,0.08438157,0.4078013,-0.18681224,0.63862526,0.5875351,0.45396483,-0.36888778,0.34479067,0.14027707,0.31089175,0.11802954,0.0872991,0.3935599,0.008378546,-0.25232315,-0.11613895,-0.07373067,804.2491,800.2198,800.2198,800.6227,1060.9158,-0.1710205078125,0.08740234375,0.992919921875,0.800018310546875,-0.657958984375,-2.220611572265625,1,1.0,1.0,1.0,1.0,10.00
2024-10-11 20:38:27.558,0.13857464,0.015372191,1.131121,0.08438157,0.4078013,-0.18681224,0.63862526,0.5875351,0.45396483,-0.36888778,0.34479067,0.14027707,0.31089175,0.11802954,0.0872991,0.3935599,0.008378546,-0.25232315,-0.11613895,-0.07373067,803.44324,795.38464,804.65204,799.81683,830.4396,-0.1710205078125,0.08740234375,0.992919921875,0.800018310546875,-0.657958984375,-2.220611572265625,1,1.0,1.0,1.0,1.0,10.00
2024-10-11 20:38:27.559,0.13857464,0.015372191,1.131121,0.08438157,0.4078013,-0.18681224,0.63862526,0.5875351,0.45396483,-0.36888778,0.34479067,0.14027707,0.31089175,0.11802954,0.0872991,0.3935599,0.008378546,-0.25232315,-0.11613895,-0.07373067,801.02563,799.41394,803.8461,803.0403,830.84247,-0.1710205078125,0.08740234375,0.992919921875,0.800018310546875,-0.657958984375,-2.220611572265625,1,1.0,1.0,1.0,1.0,10.00
2024-10-11 20:38:27.560,0.13857464,0.015372191,1.131121,0.08438157,0.4078013,-0.18681224,0.63862526,0.5875351,0.45396483,-0.36888778,0.34479067,0.14027707,0.31089175,0.11802954,0.0872991,0.3935599,0.008378546,-0.25232315,-0.11613895,-0.07373067,801.8315,794.57874,796.5934,804.2491,973.47986,-0.1710205078125,0.08740234375,0.992919921875,0.800018310546875,-0.657958984375,-2.220611572265625,1,1.0,1.0,1.0,1.0,10.00
2024-10-11 20:38:27.561,0.13857464,0.015372191,1.131121,0.08438157,0.4078013,-0.18681224,0.63862526,0.5875351,0.45396483,-0.36888778,0.34479067,0.14027707,0.31089175,0.11802954,0.0872991,0.3935599,0.008378546,-0.25232315,-0.11613895,-0.07373067,797.8022,793.7729,802.23444,794.57874,769.19415,-0.1710205078125,0.08740234375,0.992919921875,0.800018310546875,-0.657958984375,-2.220611572265625,1,1.0,1.0,1.0,1.0,10.00
2024-10-11 20:38:27.562,0.13857464,0.015372191,1.131121,0.08438157,0.4078013,-0.18681224,0.63862526,0.5875351,0.45396483,-0.36888778,0.34479067,0.14027707,0.31089175,0.11802954,0.0872991,0.3935599,0.008378546,-0.25232315,-0.11613895,-0.07373067,790.14655,797.3993,799.41394,788.93774,571.3553,-0.1710205078125,0.08740234375,0.992919921875,0.800018310546875,-0.657958984375,-2.220611572265625,1,1.0,1.0,1.0,1.0,10.00
2024-10-11 20:38:27.627,0.13857464,0.015372191,1.131121,0.08438157,0.4078013,-0.18681224,0.63862526,0.5875351,0.45396483,-0.36888778,0.34479067,0.14027707,0.31089175,0.11802954,0.0872991,0.3935599,0.008378546,-0.25232315,-0.11613895,-0.07373067,792.1612,793.7729,792.96704,799.011,666.04395,-0.15472412109375,0.10235595703125,0.997802734375,2.28790283203125,-1.5252685546875,-3.386993408203125,1,1.0,1.0,1.0,1.0,10.00
2024-10-11 20:38:27.628,0.13857464,0.015372191,1.1062169,0.08438157,0.4078013,-0.18681224,0.6076224,0.5875351,0.45396483,-0.36888778,0.34471807,0.14027707,0.31089175,0.11802954,0.08515528,0.3935599,0.008378546,-0.25232315,-0.13890125,-0.07373067,791.3553,790.9524,805.05493,805.4579,833.663,-0.15472412109375,0.10235595703125,0.997802734375,2.28790283203125,-1.5252685546875,-3.386993408203125,1,1.0,1.0,1.0,1.0,10.00
2024-10-11 20:38:27.632,0.13857464,0.015372191,1.1062169,0.08438157,0.4078013,-0.18681224,0.6076224,0.5875351,0.45396483,-0.36888778,0.34471807,0.14027707,0.31089175,0.11802954,0.08515528,0.3935599,0.008378546,-0.25232315,-0.13890125,-0.07373067,794.17584,792.5641,799.011,802.23444,713.9927,-0.15472412109375,0.10235595703125,0.997802734375,2.28790283203125,-1.5252685546875,-3.386993408203125,1,1.0,1.0,1.0,1.0,10.00
2024-10-11 20:38:27.633,0.13857464,0.015372191,1.1062169,0.08438157,0.4078013,-0.18681224,0.6076224,0.5875351,0.45396483,-0.36888778,0.34471807,0.14027707,0.31089175,0.11802954,0.08515528,0.3935599,0.008378546,-0.25232315,-0.13890125,-0.07373067,798.60803,795.38464,792.5641,797.3993,713.5897,-0.15472412109375,0.10235595703125,0.997802734375,2.28790283203125,-1.5252685546875,-3.386993408203125,1,1.0,1.0,1.0,1.0,10.00
2024-10-11 20:38:27.633,0.13857464,0.015372191,1.1062169,0.08438157,0.4078013,-0.18681224,0.6076224,0.5875351,0.45396483,-0.36888778,0.34471807,0.14027707,0.31089175,0.11802954,0.08515528,0.3935599,0.008378546,-0.25232315,-0.13890125,-0.07373067,797.8022,792.96704,801.4286,794.57874,880.0,-0.15472412109375,0.10235595703125,0.997802734375,2.28790283203125,-1.5252685546875,-3.386993408203125,1,1.0,1.0,1.0,1.0,10.00
2024-10-11 20:38:27.634,0.13857464,0.015372191,1.1062169,0.08438157,0.4078013,-0.18681224,0.6076224,0.5875351,0.45396483,-0.36888778,0.34471807,0.14027707,0.31089175,0.11802954,0.08515528,0.3935599,0.008378546,-0.25232315,-0.13890125,-0.07373067,795.78754,788.93774,807.8755,792.1612,945.6777,-0.15472412109375,0.10235595703125,0.997802734375,2.28790283203125,-1.5252685546875,-3.386993408203125,1,1.0,1.0,1.0,1.0,10.00
2024-10-11 20:38:27.635,0.13857464,0.015372191,1.1062169,0.08438157,0.4078013,-0.18681224,0.6076224,0.5875351,0.45396483,-0.36888778,0.34471807,0.14027707,0.31089175,0.11802954,0.08515528,0.3935599,0.008378546,-0.25232315,-0.13890125,-0.07373067,794.9817,787.72894,804.65204,788.93774,809.4872,-0.15472412109375,0.10235595703125,0.997802734375,2.28790283203125,-1.5252685546875,-3.386993408203125,1,1.0,1.0,1.0,1.0,10.00
2024-10-11 20:38:27.636,0.13857464,0.015372191,1.1062169,0.08438157,0.4078013,-0.18681224,0.6076224,0.5875351,0.45396483,-0.36888778,0.34471807,0.14027707,0.31089175,0.11802954,0.08515528,0.3935599,0.008378546,-0.25232315,-0.13890125,-0.07373067,792.1612,790.9524,803.44324,785.7143,880.80585,-0.15472412109375,0.10235595703125,0.997802734375,2.28790283203125,-1.5252685546875,-3.386993408203125,1,1.0,1.0,1.0,1.0,10.00
2024-10-11 20:38:27.636,0.13857464,0.015372191,1.1062169,0.08438157,0.4078013,-0.18681224,0.6076224,0.5875351,0.45396483,-0.36888778,0.34471807,0.14027707,0.31089175,0.11802954,0.08515528,0.3935599,0.008378546,-0.25232315,-0.13890125,-0.07373067,789.34064,793.7729,808.68134,788.1319,906.1905,-0.15472412109375,0.10235595703125,0.997802734375,2.28790283203125,-1.5252685546875,-3.386993408203125,1,1.0,1.0,1.0,1.0,10.00
2024-10-11 20:38:27.637,0.13857464,0.015372191,1.1062169,0.08438157,0.4078013,-0.18681224,0.6076224,0.5875351,0.45396483,-0.36888778,0.34471807,0.14027707,0.31089175,0.11802954,0.08515528,0.3935599,0.008378546,-0.25232315,-0.13890125,-0.07373067,794.17584,795.38464,808.2784,788.93774,780.4762,-0.15472412109375,0.10235595703125,0.997802734375,2.28790283203125,-1.5252685546875,-3.386993408203125,1,1.0,1.0,1.0,1.0,10.00
2024-10-11 20:38:27.637,0.13857464,0.015372191,1.1062169,0.08438157,0.4078013,-0.18681224,0.6076224,0.5875351,0.45396483,-0.36888778,0.34471807,0.14027707,0.31089175,0.11802954,0.08515528,0.3935599,0.008378546,-0.25232315,-0.13890125,-0.07373067,795.38464,798.20514,806.6667,792.5641,734.5421,-0.15472412109375,0.10235595703125,0.997802734375,2.28790283203125,-1.5252685546875,-3.386993408203125,1,1.0,1.0,1.0,1.0,10.00
2024-10-11 20:38:27.638,0.13857464,0.015372191,1.1062169,0.08438157,0.4078013,-0.18681224,0.6076224,0.5875351,0.45396483,-0.36888778,0.34471807,0.14027707,0.31089175,0.11802954,0.08515528,0.3935599,0.008378546,-0.25232315,-0.13890125,-0.07373067,791.3553,796.5934,805.4579,795.78754,836.08057,-0.15472412109375,0.10235595703125,0.997802734375,2.28790283203125,-1.5252685546875,-3.386993408203125,1,1.0,1.0,1.0,1.0,10.00
2024-10-11 20:38:27.660,0.13857464,0.015372191,1.1062169,0.08438157,0.4078013,-0.18681224,0.6076224,0.5875351,0.45396483,-0.36888778,0.34471807,0.14027707,0.31089175,0.11802954,0.08515528,0.3935599,0.008378546,-0.25232315,-0.13890125,-0.07373067,789.7436,792.96704,801.02563,792.1612,950.5128,-0.1572265625,0.09930419921875,0.98974609375,0.306549072265625,0.4486083984375,-3.93280029296875,1,1.0,1.0,1.0,1.0,10.00
2024-10-11 20:38:27.661,0.13857464,0.015372191,1.1062169,0.08438157,0.4078013,-0.18681224,0.6076224,0.5875351,0.45396483,-0.36888778,0.34471807,0.14027707,0.31089175,0.11802954,0.08515528,0.3935599,0.008378546,-0.25232315,-0.13890125,-0.07373067,788.1319,792.96704,799.81683,792.1612,800.2198,-0.1572265625,0.09930419921875,0.98974609375,0.306549072265625,0.4486083984375,-3.93280029296875,1,1.0,1.0,1.0,1.0,10.00
2024-10-11 20:38:27.661,0.13857464,0.015372191,1.1062169,0.08438157,0.4078013,-0.18681224,0.6076224,0.5875351,0.45396483,-0.36888778,0.34471807,0.14027707,0.31089175,0.11802954,0.08515528,0.3935599,0.008378546,-0.25232315,-0.13890125,-0.07373067,799.41394,796.1905,802.6374,797.3993,734.94507,-0.1572265625,0.09930419921875,0.98974609375,0.306549072265625,0.4486083984375,-3.93280029296875,1,1.0,1.0,1.0,1.0,10.00
2024-10-11 20:38:27.662,0.13857464,0.015372191,1.1062169,0.08438157,0.4078013,-0.18681224,0.6076224,0.5875351,0.45396483,-0.36888778,0.34471807,0.14027707,0.31089175,0.11802954,0.08515528,0.3935599,0.008378546,-0.25232315,-0.13890125,-0.07373067,788.93774,794.17584,798.20514,793.36993,906.5934,-0.1572265625,0.09930419921875,0.98974609375,0.306549072265625,0.4486083984375,-3.93280029296875,1,1.0,1.0,1.0,1.0,10.00
2024-10-11 20:38:27.662,0.13857464,0.015372191,1.1062169,0.08438157,0.4078013,-0.18681224,0.6076224,0.5875351,0.45396483,-0.36888778,0.34471807,0.14027707,0.31089175,0.11802954,0.08515528,0.3935599,0.008378546,-0.25232315,-0.13890125,-0.07373067,788.93774,784.90845,796.1905,804.65204,995.2381,-0.1572265625,0.09930419921875,0.98974609375,0.306549072265625,0.4486083984375,-3.93280029296875,1,1.0,1.0,1.0,1.0,10.00
2024-10-11 20:38:27.663,0.13857464,0.015372191,1.1062169,0.08438157,0.4078013,-0.18681224,0.6076224,0.5875351,0.45396483,-0.36888778,0.34471807,0.14027707,0.31089175,0.11802954,0.08515528,0.3935599,0.008378546,-0.25232315,-0.13890125,-0.07373067,820.7692,788.1319,805.8608,829.2308,886.4469,-0.1572265625,0.09930419921875,0.98974609375,0.306549072265625,0.4486083984375,-3.93280029296875,1,1.0,1.0,1.0,1.0,10.00
2024-10-11 20:38:27.663,0.13857464,0.015372191,1.1062169,0.08438157,0.4078013,-0.18681224,0.6076224,0.5875351,0.45396483,-0.36888778,0.34471807,0.14027707,0.31089175,0.11802954,0.08515528,0.3935599,0.008378546,-0.25232315,-0.13890125,-0.07373067,805.05493,804.65204,805.8608,809.4872,924.7253,-0.1572265625,0.09930419921875,0.98974609375,0.306549072265625,0.4486083984375,-3.93280029296875,1,1.0,1.0,1.0,1.0,10.00
2024-10-11 20:38:27.664,0.13857464,0.015372191,1.1062169,0.08438157,0.4078013,-0.18681224,0.6076224,0.5875351,0.45396483,-0.36888778,0.34471807,0.14027707,0.31089175,0.11802954,0.08515528,0.3935599,0.008378546,-0.25232315,-0.13890125,-0.07373067,777.6557,809.0842,806.26373,786.52014,1028.6813,-0.1572265625,0.09930419921875,0.98974609375,0.306549072265625,0.4486083984375,-3.93280029296875,1,1.0,1.0,1.0,1.0,10.00
2024-10-11 20:38:27.666,0.13857464,0.015372191,1.1062169,0.08438157,0.4078013,-0.18681224,0.6076224,0.5875351,0.45396483,-0.36888778,0.34471807,0.14027707,0.31089175,0.11802954,0.08515528,0.3935599,0.008378546,-0.25232315,-0.13890125,-0.07373067,771.2088,809.89014,807.0696,777.25275,924.3223,-0.1572265625,0.09930419921875,0.98974609375,0.306549072265625,0.4486083984375,-3.93280029296875,1,1.0,1.0,1.0,1.0,10.00
2024-10-11 20:38:27.667,0.13857464,0.015372191,1.1062169,0.08438157,0.4078013,-0.18681224,0.6076224,0.5875351,0.45396483,-0.36888778,0.34471807,0.14027707,0.31089175,0.11802954,0.08515528,0.3935599,0.008378546,-0.25232315,-0.13890125,-0.07373067,751.06226,812.3077,807.8755,751.4652,665.64105,-0.1572265625,0.09930419921875,0.98974609375,0.306549072265625,0.4486083984375,-3.93280029296875,1,1.0,1.0,1.0,1.0,10.00
2024-10-11 20:38:27.667,0.13857464,0.015372191,1.1062169,0.08438157,0.4078013,-0.18681224,0.6076224,0.5875351,0.45396483,-0.36888778,0.34471807,0.14027707,0.31089175,0.11802954,0.08515528,0.3935599,0.008378546,-0.25232315,-0.13890125,-0.07373067,736.1539,814.7253,802.23444,736.55676,629.3773,-0.1572265625,0.09930419921875,0.98974609375,0.306549072265625,0.4486083984375,-3.93280029296875,1,1.0,1.0,1.0,1.0,10.00
2024-10-11 20:38:27.668,0.13857464,0.015372191,1.1062169,0.08438157,0.4078013,-0.18681224,0.6076224,0.5875351,0.45396483,-0.36888778,0.34471807,0.14027707,0.31089175,0.11802954,0.08515528,0.3935599,0.008378546,-0.25232315,-0.13890125,-0.07373067,731.7216,813.1135,794.57874,727.6923,834.0659,-0.1572265625,0.09930419921875,0.98974609375,0.306549072265625,0.4486083984375,-3.93280029296875,1,1.0,1.0,1.0,1.0,10.00
2024-10-11 20:38:27.669,0.13857464,0.015372191,1.1062169,0.08438157,0.4078013,-0.18681224,0.6076224,0.5875351,0.45396483,-0.36888778,0.34471807,0.14027707,0.31089175,0.11802954,0.08515528,0.3935599,0.008378546,-0.25232315,-0.13890125,-0.07373067,720.4396,808.68134,794.9817,719.2308,926.7399,-0.17010498046875,0.09326171875,0.99517822265625,-0.10467529296875,2.2430419921875,-5.106658935546875,1,1.0,1.0,1.0,1.0,10.00
2024-10-11 20:38:27.670,0.13857464,0.015372191,1.1062169,0.08438157,0.4078013,-0.18681224,0.6076224,0.5875351,0.45396483,-0.36888778,0.34471807,0.14027707,0.31089175,0.11802954,0.08515528,0.3935599,0.008378546,-0.25232315,-0.13890125,-0.07373067,713.5897,819.5604,798.20514,704.7253,720.0366,-0.17010498046875,0.09326171875,0.99517822265625,-0.10467529296875,2.2430419921875,-5.106658935546875,1,1.0,1.0,1.0,1.0,10.00
2024-10-11 20:38:27.670,0.13857464,0.015372191,1.1062169,0.08438157,0.4078013,-0.18681224,0.6076224,0.5875351,0.45396483,-0.36888778,0.34471807,0.14027707,0.31089175,0.11802954,0.08515528,0.3935599,0.008378546,-0.25232315,-0.13890125,-0.07373067,696.26373,831.2454,801.8315,686.1905,617.6923,-0.17010498046875,0.09326171875,0.99517822265625,-0.10467529296875,2.2430419921875,-5.106658935546875,1,1.0,1.0,1.0,1.0,10.00
2024-10-11 20:38:27.671,0.13857464,0.015372191,1.0701139,0.08438157,0.4078013,-0.18681224,0.56377876,0.5875351,0.45396483,-0.36888778,0.31598395,0.14027707,0.31089175,0.11802954,0.082048334,0.3935599,0.008378546,-0.25232315,-0.15977173,-0.07373067,663.6264,838.9011,803.44324,671.685,766.77655,-0.17010498046875,0.09326171875,0.99517822265625,-0.10467529296875,2.2430419921875,-5.106658935546875,1,1.0,1.0,1.0,1.0,10.00
2024-10-11 20:38:27.675,0.13857464,0.015372191,1.0701139,0.08438157,0.4078013,-0.18681224,0.56377876,0.5875351,0.45396483,-0.36888778,0.31598395,0.14027707,0.31089175,0.11802954,0.082048334,0.3935599,0.008378546,-0.25232315,-0.15977173,-0.07373067,649.5238,837.6923,802.23444,658.7912,866.7033,-0.17010498046875,0.09326171875,0.99517822265625,-0.10467529296875,2.2430419921875,-5.106658935546875,1,1.0,1.0,1.0,1.0,10.00
2024-10-11 20:38:27.675,0.13857464,0.015372191,1.0701139,0.08438157,0.4078013,-0.18681224,0.56377876,0.5875351,0.45396483,-0.36888778,0.31598395,0.14027707,0.31089175,0.11802954,0.082048334,0.3935599,0.008378546,-0.25232315,-0.15977173,-0.07373067,622.9304,832.0513,799.41394,638.6447,737.3626,-0.17010498046875,0.09326171875,0.99517822265625,-0.10467529296875,2.2430419921875,-5.106658935546875,1,1.0,1.0,1.0,1.0,10.00
2024-10-11 20:38:27.676,0.13857464,0.015372191,1.0701139,0.08438157,0.4078013,-0.18681224,0.56377876,0.5875351,0.45396483,-0.36888778,0.31598395,0.14027707,0.31089175,0.11802954,0.082048334,0.3935599,0.008378546,-0.25232315,-0.15977173,-0.07373067,608.8278,835.6777,803.0403,631.79486,720.4396,-0.17010498046875,0.09326171875,0.99517822265625,-0.10467529296875,2.2430419921875,-5.106658935546875,1,1.0,1.0,1.0,1.0,10.00
2024-10-11 20:38:27.677,0.13857464,0.015372191,1.0701139,0.08438157,0.4078013,-0.18681224,0.56377876,0.5875351,0.45396483,-0.36888778,0.31598395,0.14027707,0.31089175,0.11802954,0.082048334,0.3935599,0.008378546,-0.25232315,-0.15977173,-0.07373067,614.0659,846.9597,807.8755,627.3626,858.6447,-0.17010498046875,0.09326171875,0.99517822265625,-0.10467529296875,2.2430419921875,-5.106658935546875,1,1.0,1.0,1.0,1.0,10.00
2024-10-11 20:38:27.677,0.13857464,0.015372191,1.0701139,0.08438157,0.4078013,-0.18681224,0.56377876,0.5875351,0.45396483,-0.36888778,0.31598395,0.14027707,0.31089175,0.11802954,0.082048334,0.3935599,0.008378546,-0.25232315,-0.15977173,-0.07373067,612.0513,855.82416,811.50183,615.2747,812.3077,-0.17010498046875,0.09326171875,0.99517822265625,-0.10467529296875,2.2430419921875,-5.106658935546875,1,1.0,1.0,1.0,1.0,10.00
2024-10-11 20:38:27.678,0.13857464,0.015372191,1.0701139,0.08438157,0.4078013,-0.18681224,0.56377876,0.5875351,0.45396483,-0.36888778,0.31598395,0.14027707,0.31089175,0.11802954,0.082048334,0.3935599,0.008378546,-0.25232315,-0.15977173,-0.07373067,604.3956,856.2271,815.5311,606.0073,591.9048,-0.17010498046875,0.09326171875,0.99517822265625,-0.10467529296875,2.2430419921875,-5.106658935546875,1,1.0,1.0,1.0,1.0,10.00
2024-10-11 20:38:27.679,0.13857464,0.015372191,1.0701139,0.08438157,0.4078013,-0.18681224,0.56377876,0.5875351,0.45396483,-0.36888778,0.31598395,0.14027707,0.31089175,0.11802954,0.082048334,0.3935599,0.008378546,-0.25232315,-0.15977173,-0.07373067,590.293,846.9597,811.50183,597.1429,647.9121,-0.17010498046875,0.09326171875,0.99517822265625,-0.10467529296875,2.2430419921875,-5.106658935546875,1,1.0,1.0,1.0,1.0,10.00
2024-10-11 20:38:27.679,0.13857464,0.015372191,1.0701139,0.08438157,0.4078013,-0.18681224,0.56377876,0.5875351,0.45396483,-0.36888778,0.31598395,0.14027707,0.31089175,0.11802954,0.082048334,0.3935599,0.008378546,-0.25232315,-0.15977173,-0.07373067,595.12823,846.55676,809.0842,597.9487,843.3333,-0.17010498046875,0.09326171875,0.99517822265625,-0.10467529296875,2.2430419921875,-5.106658935546875,1,1.0,1.0,1.0,1.0,10.00
2024-10-11 20:38:27.680,0.13857464,0.015372191,1.0701139,0.08438157,0.4078013,-0.18681224,0.56377876,0.5875351,0.45396483,-0.36888778,0.31598395,0.14027707,0.31089175,0.11802954,0.082048334,0.3935599,0.008378546,-0.25232315,-0.15977173,-0.07373067,600.3663,860.2564,805.4579,599.15753,873.1502,-0.1611328125,0.08612060546875,0.98468017578125,0.171966552734375,2.19818115234375,-4.508514404296875,1,1.0,1.0,1.0,1.0,10.00
2024-10-11 20:38:27.681,0.13857464,0.015372191,1.0701139,0.08438157,0.4078013,-0.18681224,0.56377876,0.5875351,0.45396483,-0.36888778,0.31598395,0.14027707,0.31089175,0.11802954,0.082048334,0.3935599,0.008378546,-0.25232315,-0.15977173,-0.07373067,594.7253,858.6447,803.0403,588.2784,753.47986,-0.1611328125,0.08612060546875,0.98468017578125,0.171966552734375,2.19818115234375,-4.508514404296875,1,1.0,1.0,1.0,1.0,10.00
2024-10-11 20:38:27.682,0.13857464,0.015372191,1.0701139,0.08438157,0.4078013,-0.18681224,0.56377876,0.5875351,0.45396483,-0.36888778,0.31598395,0.14027707,0.31089175,0.11802954,0.082048334,0.3935599,0.008378546,-0.25232315,-0.15977173,-0.07373067,601.1722,850.58606,798.20514,587.47253,693.44324,-0.1611328125,0.08612060546875,0.98468017578125,0.171966552734375,2.19818115234375,-4.508514404296875,1,1.0,1.0,1.0,1.0,10.00
2024-10-11 20:38:27.682,0.13857464,0.015372191,1.0701139,0.08438157,0.4078013,-0.18681224,0.56377876,0.5875351,0.45396483,-0.36888778,0.31598395,0.14027707,0.31089175,0.11802954,0.082048334,0.3935599,0.008378546,-0.25232315,-0.15977173,-0.07373067,619.304,853.00366,793.7729,607.2161,803.8461,-0.1611328125,0.08612060546875,0.98468017578125,0.171966552734375,2.19818115234375,-4.508514404296875,1,1.0,1.0,1.0,1.0,10.00
2024-10-11 20:38:27.683,0.13857464,0.015372191,1.0701139,0.08438157,0.4078013,-0.18681224,0.56377876,0.5875351,0.45396483,-0.36888778,0.31598395,0.14027707,0.31089175,0.11802954,0.082048334,0.3935599,0.008378546,-0.25232315,-0.15977173,-0.07373067,615.2747,851.39197,806.6667,613.2601,701.9048,-0.1611328125,0.08612060546875,0.98468017578125,0.171966552734375,2.19818115234375,-4.508514404296875,1,1.0,1.0,1.0,1.0,10.00
2024-10-11 20:38:27.684,0.13857464,0.015372191,1.0701139,0.08438157,0.4078013,-0.18681224,0.56377876,0.5875351,0.45396483,-0.36888778,0.31598395,0.14027707,0.31089175,0.11802954,0.082048334,0.3935599,0.008378546,-0.25232315,-0.15977173,-0.07373067,615.6777,847.3626,811.9048,615.2747,670.4762,-0.1611328125,0.08612060546875,0.98468017578125,0.171966552734375,2.19818115234375,-4.508514404296875,1,1.0,1.0,1.0,1.0,10.00
2024-10-11 20:38:27.685,0.13857464,0.015372191,1.0701139,0.08438157,0.4078013,-0.18681224,0.56377876,0.5875351,0.45396483,-0.36888778,0.31598395,0.14027707,0.31089175,0.11802954,0.082048334,0.3935599,0.008378546,-0.25232315,-0.15977173,-0.07373067,631.39197,836.4835,794.9817,633.4066,983.1502,-0.1611328125,0.08612060546875,0.98468017578125,0.171966552734375,2.19818115234375,-4.508514404296875,1,1.0,1.0,1.0,1.0,10.00
2024-10-11 20:38:27.686,0.13857464,0.015372191,1.0701139,0.08438157,0.4078013,-0.18681224,0.56377876,0.5875351,0.45396483,-0.36888778,0.31598395,0.14027707,0.31089175,0.11802954,0.082048334,0.3935599,0.008378546,-0.25232315,-0.15977173,-0.07373067,634.61536,825.6044,792.1612,635.42126,1053.2601,-0.1611328125,0.08612060546875,0.98468017578125,0.171966552734375,2.19818115234375,-4.508514404296875,1,1.0,1.0,1.0,1.0,10.00
2024-10-11 20:38:27.686,0.13857464,0.015372191,1.0701139,0.08438157,0.4078013,-0.18681224,0.56377876,0.5875351,0.45396483,-0.36888778,0.31598395,0.14027707,0.31089175,0.11802954,0.082048334,0.3935599,0.008378546,-0.25232315,-0.15977173,-0.07373067,642.27106,831.2454,799.011,636.2271,774.43225,-0.1611328125,0.08612060546875,0.98468017578125,0.171966552734375,2.19818115234375,-4.508514404296875,1,1.0,1.0,1.0,1.0,10.00
2024-10-11 20:38:27.687,0.13857464,0.015372191,1.0701139,0.08438157,0.4078013,-0.18681224,0.56377876,0.5875351,0.45396483,-0.36888778,0.31598395,0.14027707,0.31089175,0.11802954,0.082048334,0.3935599,0.008378546,-0.25232315,-0.15977173,-0.07373067,653.1502,828.8278,790.14655,657.5824,709.9634,-0.1611328125,0.08612060546875,0.98468017578125,0.171966552734375,2.19818115234375,-4.508514404296875,1,1.0,1.0,1.0,1.0,10.00
2024-10-11 20:38:27.688,0.13857464,0.015372191,1.0701139,0.08438157,0.4078013,-0.18681224,0.56377876,0.5875351,0.45396483,-0.36888778,0.31598395,0.14027707,0.31089175,0.11802954,0.082048334,0.3935599,0.008378546,-0.25232315,-0.15977173,-0.07373067,667.25275,819.5604,792.1612,671.28204,910.2198,-0.1611328125,0.08612060546875,0.98468017578125,0.171966552734375,2.19818115234375,-4.508514404296875,1,1.0,1.0,1.0,1.0,10.00
2024-10-11 20:38:27.688,0.13857464,0.015372191,1.0701139,0.08438157,0.4078013,-0.18681224,0.56377876,0.5875351,0.45396483,-0.36888778,0.31598395,0.14027707,0.31089175,0.11802954,0.082048334,0.3935599,0.008378546,-0.25232315,-0.15977173,-0.07373067,674.5055,817.5458,797.8022,672.8938,959.3773,-0.1611328125,0.08612060546875,0.98468017578125,0.171966552734375,2.19818115234375,-4.508514404296875,1,1.0,1.0,1.0,1.0,10.00
2024-10-11 20:38:27.689,0.13857464,0.015372191,1.0701139,0.08438157,0.4078013,-0.18681224,0.56377876,0.5875351,0.45396483,-0.36888778,0.31598395,0.14027707,0.31089175,0.11802954,0.082048334,0.3935599,0.008378546,-0.25232315,-0.15977173,-0.07373067,695.05493,820.7692,792.96704,690.2198,708.7546,-0.1611328125,0.08612060546875,0.98468017578125,0.171966552734375,2.19818115234375,-4.508514404296875,1,1.0,1.0,1.0,1.0,10.00
2024-10-11 20:38:27.690,0.13857464,0.015372191,1.0701139,0.08438157,0.4078013,-0.18681224,0.56377876,0.5875351,0.45396483,-0.36888778,0.31598395,0.14027707,0.31089175,0.11802954,0.082048334,0.3935599,0.008378546,-0.25232315,-0.15977173,-0.07373067,711.5751,815.9341,788.1319,709.5604,669.67035,-0.1611328125,0.08612060546875,0.98468017578125,0.171966552734375,2.19818115234375,-4.508514404296875,1,1.0,1.0,1.0,1.0,10.00
2024-10-11 20:38:27.690,0.13857464,0.015372191,1.0701139,0.08438157,0.4078013,-0.18681224,0.56377876,0.5875351,0.45396483,-0.36888778,0.31598395,0.14027707,0.31089175,0.11802954,0.082048334,0.3935599,0.008378546,-0.25232315,-0.15977173,-0.07373067,722.0513,811.9048,785.7143,723.663,732.9304,-0.1611328125,0.08612060546875,0.98468017578125,0.171966552734375,2.19818115234375,-4.508514404296875,1,1.0,1.0,1.0,1.0,10.00
2024-10-11 20:38:27.691,0.13857464,0.015372191,1.0701139,0.08438157,0.4078013,-0.18681224,0.56377876,0.5875351,0.45396483,-0.36888778,0.31598395,0.14027707,0.31089175,0.11802954,0.082048334,0.3935599,0.008378546,-0.25232315,-0.15977173,-0.07373067,726.4835,814.7253,778.0586,720.0366,823.9927,-0.1611328125,0.08612060546875,0.98468017578125,0.171966552734375,2.19818115234375,-4.508514404296875,1,1.0,1.0,1.0,1.0,10.00
2024-10-11 20:38:27.691,0.13857464,0.015372191,1.0701139,0.08438157,0.4078013,-0.18681224,0.56377876,0.5875351,0.45396483,-0.36888778,0.31598395,0.14027707,0.31089175,0.11802954,0.082048334,0.3935599,0.008378546,-0.25232315,-0.15977173,-0.07373067,734.94507,803.44324,774.0293,722.4542,665.2381,-0.1611328125,0.08612060546875,0.98468017578125,0.171966552734375,2.19818115234375,-4.508514404296875,1,1.0,1.0,1.0,1.0,10.00
2024-10-11 20:38:27.692,0.13857464,0.015372191,1.0338705,0.08438157,0.4078013,-0.18681224,0.5154927,0.5875351,0.45396483,-0.36888778,0.28137213,0.14027707,0.31089175,0.11802954,0.07911127,0.3935599,0.008378546,-0.25232315,-0.17854604,-0.07373067,748.24176,802.23444,769.59705,744.21246,630.18317,-0.1611328125,0.08612060546875,0.98468017578125,0.171966552734375,2.19818115234375,-4.508514404296875,1,1.0,1.0,1.0,1.0,10.00
2024-10-11 20:38:27.696,0.13857464,0.015372191,1.0338705,0.08438157,0.4078013,-0.18681224,0.5154927,0.5875351,0.45396483,-0.36888778,0.28137213,0.14027707,0.31089175,0.11802954,0.07911127,0.3935599,0.008378546,-0.25232315,-0.17854604,-0.07373067,742.6007,806.26373,767.98535,753.47986,953.73627,-0.1611328125,0.08612060546875,0.98468017578125,0.171966552734375,2.19818115234375,-4.508514404296875,1,1.0,1.0,1.0,1.0,10.00
2024-10-11 20:38:27.697,0.13857464,0.015372191,1.0338705,0.08438157,0.4078013,-0.18681224,0.5154927,0.5875351,0.45396483,-0.36888778,0.28137213,0.14027707,0.31089175,0.11802954,0.07911127,0.3935599,0.008378546,-0.25232315,-0.17854604,-0.07373067,745.82416,802.6374,779.67035,756.30035,887.25275,-0.1611328125,0.08612060546875,0.98468017578125,0.171966552734375,2.19818115234375,-4.508514404296875,1,1.0,1.0,1.0,1.0,10.00
2024-10-11 20:38:27.698,0.13857464,0.015372191,1.0338705,0.08438157,0.4078013,-0.18681224,0.5154927,0.5875351,0.45396483,-0.36888778,0.28137213,0.14027707,0.31089175,0.11802954,0.07911127,0.3935599,0.008378546,-0.25232315,-0.17854604,-0.07373067,762.3443,798.20514,788.5348,761.9414,662.01465,-0.1611328125,0.08612060546875,0.98468017578125,0.171966552734375,2.19818115234375,-4.508514404296875,1,1.0,1.0,1.0,1.0,10.00
2024-10-11 20:38:27.699,0.13857464,0.015372191,1.0338705,0.08438157,0.4078013,-0.18681224,0.5154927,0.5875351,0.45396483,-0.36888778,0.28137213,0.14027707,0.31089175,0.11802954,0.07911127,0.3935599,0.008378546,-0.25232315,-0.17854604,-0.07373067,760.7326,794.17584,782.49084,768.7912,696.6667,-0.1611328125,0.08612060546875,0.98468017578125,0.171966552734375,2.19818115234375,-4.508514404296875,1,1.0,1.0,1.0,1.0,10.00
2024-10-11 20:38:27.699,0.13857464,0.015372191,1.0338705,0.08438157,0.4078013,-0.18681224,0.5154927,0.5875351,0.45396483,-0.36888778,0.28137213,0.14027707,0.31089175,0.11802954,0.07911127,0.3935599,0.008378546,-0.25232315,-0.17854604,-0.07373067,761.13556,798.20514,775.64105,776.8498,857.4359,-0.1611328125,0.08612060546875,0.98468017578125,0.171966552734375,2.19818115234375,-4.508514404296875,1,1.0,1.0,1.0,1.0,10.00
2024-10-11 20:38:27.700,0.13857464,0.015372191,1.0338705,0.08438157,0.4078013,-0.18681224,0.5154927,0.5875351,0.45396483,-0.36888778,0.28137213,0.14027707,0.31089175,0.11802954,0.07911127,0.3935599,0.008378546,-0.25232315,-0.17854604,-0.07373067,772.01465,799.011,778.0586,783.2967,774.83514,-0.1611328125,0.08612060546875,0.98468017578125,0.171966552734375,2.19818115234375,-4.508514404296875,1,1.0,1.0,1.0,1.0,10.00
2024-10-11 20:38:27.701,0.13857464,0.015372191,1.0338705,0.08438157,0.4078013,-0.18681224,0.5154927,0.5875351,0.45396483,-0.36888778,0.28137213,0.14027707,0.31089175,0.11802954,0.07911127,0.3935599,0.008378546,-0.25232315,-0.17854604,-0.07373067,781.685,794.57874,772.8205,787.72894,641.06226,-0.16290283203125,0.08306884765625,0.9893798828125,0.37384033203125,-0.844879150390625,-0.7177734375,1,1.0,1.0,1.0,1.0,10.00
2024-10-11 20:38:27.702,0.13857464,0.015372191,1.0338705,0.08438157,0.4078013,-0.18681224,0.5154927,0.5875351,0.45396483,-0.36888778,0.28137213,0.14027707,0.31089175,0.11802954,0.07911127,0.3935599,0.008378546,-0.25232315,-0.17854604,-0.07373067,782.49084,791.75824,766.3736,789.7436,770.40295,-0.16290283203125,0.08306884765625,0.9893798828125,0.37384033203125,-0.844879150390625,-0.7177734375,1,1.0,1.0,1.0,1.0,10.00
2024-10-11 20:38:27.703,0.13857464,0.015372191,1.0338705,0.08438157,0.4078013,-0.18681224,0.5154927,0.5875351,0.45396483,-0.36888778,0.28137213,0.14027707,0.31089175,0.11802954,0.07911127,0.3935599,0.008378546,-0.25232315,-0.17854604,-0.07373067,782.0879,790.54944,770.40295,796.5934,889.2674,-0.16290283203125,0.08306884765625,0.9893798828125,0.37384033203125,-0.844879150390625,-0.7177734375,1,1.0,1.0,1.0,1.0,10.00
2024-10-11 20:38:27.704,0.13857464,0.015372191,1.0338705,0.08438157,0.4078013,-0.18681224,0.5154927,0.5875351,0.45396483,-0.36888778,0.28137213,0.14027707,0.31089175,0.11802954,0.07911127,0.3935599,0.008378546,-0.25232315,-0.17854604,-0.07373067,792.96704,792.1612,780.07324,800.2198,653.1502,-0.16290283203125,0.08306884765625,0.9893798828125,0.37384033203125,-0.844879150390625,-0.7177734375,1,1.0,1.0,1.0,1.0,10.00
2024-10-11 20:38:27.704,0.13857464,0.015372191,1.0338705,0.08438157,0.4078013,-0.18681224,0.5154927,0.5875351,0.45396483,-0.36888778,0.28137213,0.14027707,0.31089175,0.11802954,0.07911127,0.3935599,0.008378546,-0.25232315,-0.17854604,-0.07373067,801.4286,794.17584,785.7143,798.20514,508.49817,-0.16290283203125,0.08306884765625,0.9893798828125,0.37384033203125,-0.844879150390625,-0.7177734375,1,1.0,1.0,1.0,1.0,10.00
2024-10-11 20:38:27.705,0.13857464,0.015372191,1.0338705,0.08438157,0.4078013,-0.18681224,0.5154927,0.5875351,0.45396483,-0.36888778,0.28137213,0.14027707,0.31089175,0.11802954,0.07911127,0.3935599,0.008378546,-0.25232315,-0.17854604,-0.07373067,805.8608,794.17584,790.54944,805.8608,807.8755,-0.16290283203125,0.08306884765625,0.9893798828125,0.37384033203125,-0.844879150390625,-0.7177734375,1,1.0,1.0,1.0,1.0,10.00
2024-10-11 20:38:27.705,0.13857464,0.015372191,1.0338705,0.08438157,0.4078013,-0.18681224,0.5154927,0.5875351,0.45396483,-0.36888778,0.28137213,0.14027707,0.31089175,0.11802954,0.07911127,0.3935599,0.008378546,-0.25232315,-0.17854604,-0.07373067,812.3077,792.1612,790.54944,809.4872,992.01465,-0.16290283203125,0.08306884765625,0.9893798828125,0.37384033203125,-0.844879150390625,-0.7177734375,1,1.0,1.0,1.0,1.0,10.00
2024-10-11 20:38:27.706,0.13857464,0.015372191,1.0338705,0.08438157,0.4078013,-0.18681224,0.5154927,0.5875351,0.45396483,-0.36888778,0.28137213,0.14027707,0.31089175,0.11802954,0.07911127,0.3935599,0.008378546,-0.25232315,-0.17854604,-0.07373067,811.9048,792.5641,782.0879,801.02563,796.5934,-0.16290283203125,0.08306884765625,0.9893798828125,0.37384033203125,-0.844879150390625,-0.7177734375,1,1.0,1.0,1.0,1.0,10.00
2024-10-11 20:38:27.707,0.13857464,0.015372191,1.0338705,0.08438157,0.4078013,-0.18681224,0.5154927,0.5875351,0.45396483,-0.36888778,0.28137213,0.14027707,0.31089175,0.11802954,0.07911127,0.3935599,0.008378546,-0.25232315,-0.17854604,-0.07373067,813.5165,794.17584,778.46155,804.2491,630.989,-0.16290283203125,0.08306884765625,0.9893798828125,0.37384033203125,-0.844879150390625,-0.7177734375,1,1.0,1.0,1.0,1.0,10.00
2024-10-11 20:38:27.707,0.13857464,0.015372191,1.0338705,0.08438157,0.4078013,-0.18681224,0.5154927,0.5875351,0.45396483,-0.36888778,0.28137213,0.14027707,0.31089175,0.11802954,0.07911127,0.3935599,0.008378546,-0.25232315,-0.17854604,-0.07373067,816.337,792.96704,779.67035,815.5311,794.9817,-0.16290283203125,0.08306884765625,0.9893798828125,0.37384033203125,-0.844879150390625,-0.7177734375,1,1.0,1.0,1.0,1.0,10.00
2024-10-11 20:38:27.708,0.13857464,0.015372191,1.0338705,0.08438157,0.4078013,-0.18681224,0.5154927,0.5875351,0.45396483,-0.36888778,0.28137213,0.14027707,0.31089175,0.11802954,0.07911127,0.3935599,0.008378546,-0.25232315,-0.17854604,-0.07373067,813.5165,790.9524,784.90845,819.15753,875.9707,-0.16290283203125,0.08306884765625,0.9893798828125,0.37384033203125,-0.844879150390625,-0.7177734375,1,1.0,1.0,1.0,1.0,10.00
2024-10-11 20:38:27.709,0.13857464,0.015372191,1.0338705,0.08438157,0.4078013,-0.18681224,0.5154927,0.5875351,0.45396483,-0.36888778,0.28137213,0.14027707,0.31089175,0.11802954,0.07911127,0.3935599,0.008378546,-0.25232315,-0.17854604,-0.07373067,809.89014,792.1612,789.34064,815.5311,805.4579,-0.16290283203125,0.08306884765625,0.9893798828125,0.37384033203125,-0.844879150390625,-0.7177734375,1,1.0,1.0,1.0,1.0,10.00
2024-10-11 20:38:27.709,0.13857464,0.015372191,1.0338705,0.08438157,0.4078013,-0.18681224,0.5154927,0.5875351,0.45396483,-0.36888778,0.28137213,0.14027707,0.31089175,0.11802954,0.07911127,0.3935599,0.008378546,-0.25232315,-0.17854604,-0.07373067,809.89014,796.5934,786.1172,817.1429,758.315,-0.17022705078125,0.08782958984375,0.9951171875,0.67291259765625,-0.34393310546875,0.5682373046875,1,1.0,1.0,1.0,1.0,10.00
2024-10-11 20:38:27.710,0.13857464,0.015372191,1.0338705,0.08438157,0.4078013,-0.18681224,0.5154927,0.5875351,0.45396483,-0.36888778,0.28137213,0.14027707,0.31089175,0.11802954,0.07911127,0.3935599,0.008378546,-0.25232315,-0.17854604,-0.07373067,811.9048,792.96704,785.7143,822.7839,978.315,-0.17022705078125,0.08782958984375,0.9951171875,0.67291259765625,-0.34393310546875,0.5682373046875,1,1.0,1.0,1.0,1.0,10.00
2024-10-11 20:38:27.710,0.13857464,0.015372191,1.0338705,0.08438157,0.4078013,-0.18681224,0.5154927,0.5875351,0.45396483,-0.36888778,0.28137213,0.14027707,0.31089175,0.11802954,0.07911127,0.3935599,0.008378546,-0.25232315,-0.17854604,-0.07373067,811.0989,784.5055,791.3553,821.978,1066.9597,-0.17022705078125,0.08782958984375,0.9951171875,0.67291259765625,-0.34393310546875,0.5682373046875,1,1.0,1.0,1.0,1.0,10.00
2024-10-11 20:38:27.711,0.13857464,0.015372191,1.0338705,0.08438157,0.4078013,-0.18681224,0.5154927,0.5875351,0.45396483,-0.36888778,0.28137213,0.14027707,0.31089175,0.11802954,0.07911127,0.3935599,0.008378546,-0.25232315,-0.17854604,-0.07373067,819.15753,792.1612,797.8022,822.7839,817.5458,-0.17022705078125,0.08782958984375,0.9951171875,0.67291259765625,-0.34393310546875,0.5682373046875,1,1.0,1.0,1.0,1.0,10.00
2024-10-11 20:38:27.711,0.13857464,0.015372191,1.0338705,0.08438157,0.4078013,-0.18681224,0.5154927,0.5875351,0.45396483,-0.36888778,0.28137213,0.14027707,0.31089175,0.11802954,0.07911127,0.3935599,0.008378546,-0.25232315,-0.17854604,-0.07373067,830.4396,796.99634,796.99634,825.2015,828.8278,-0.17022705078125,0.08782958984375,0.9951171875,0.67291259765625,-0.34393310546875,0.5682373046875,1,1.0,1.0,1.0,1.0,10.00
2024-10-11 20:38:27.712,0.13857464,0.015372191,1.0338705,0.08438157,0.4078013,-0.18681224,0.5154927,0.5875351,0.45396483,-0.36888778,0.28137213,0.14027707,0.31089175,0.11802954,0.07911127,0.3935599,0.008378546,-0.25232315,-0.17854604,-0.07373067,827.2161,794.17584,790.9524,826.4103,988.3883,-0.17022705078125,0.08782958984375,0.9951171875,0.67291259765625,-0.34393310546875,0.5682373046875,1,1.0,1.0,1.0,1.0,10.00
2024-10-11 20:38:27.712,0.13857464,0.015372191,1.0338705,0.08438157,0.4078013,-0.18681224,0.5154927,0.5875351,0.45396483,-0.36888778,0.28137213,0.14027707,0.31089175,0.11802954,0.07911127,0.3935599,0.008378546,-0.25232315,-0.17854604,-0.07373067,823.5897,793.7729,784.90845,827.619,1047.2161,-0.17022705078125,0.08782958984375,0.9951171875,0.67291259765625,-0.34393310546875,0.5682373046875,1,1.0,1.0,1.0,1.0,10.00
2024-10-11 20:38:27,,,,,,,,,,,,,,,,,,,,,,,,,,,,,,,,,,,,,,/muse/elements/blink
2024-10-11 20:38:27.713,0.13857464,0.015372191,1.0121317,0.08438157,0.4078013,-0.18681224,0.47996494,0.5875351,0.45396483,-0.36888778,0.28137213,0.14027707,0.31089175,0.11802954,0.078148685,0.3935599,0.008378546,-0.25232315,-0.19556595,-0.07373067,821.978,796.99634,793.36993,823.5897,906.1905,-0.17022705078125,0.08782958984375,0.9951171875,0.67291259765625,-0.34393310546875,0.5682373046875,1,1.0,1.0,1.0,1.0,10.00
2024-10-11 20:38:27.716,0.13857464,0.015372191,1.0121317,0.08438157,0.4078013,-0.18681224,0.47996494,0.5875351,0.45396483,-0.36888778,0.28137213,0.14027707,0.31089175,0.11802954,0.078148685,0.3935599,0.008378546,-0.25232315,-0.19556595,-0.07373067,817.1429,795.78754,795.78754,821.978,833.2601,-0.17022705078125,0.08782958984375,0.9951171875,0.67291259765625,-0.34393310546875,0.5682373046875,1,1.0,1.0,1.0,1.0,10.00
2024-10-11 20:38:27.717,0.13857464,0.015372191,1.0121317,0.08438157,0.4078013,-0.18681224,0.47996494,0.5875351,0.45396483,-0.36888778,0.28137213,0.14027707,0.31089175,0.11802954,0.078148685,0.3935599,0.008378546,-0.25232315,-0.19556595,-0.07373067,820.7692,788.1319,789.7436,831.2454,1073.4066,-0.17022705078125,0.08782958984375,0.9951171875,0.67291259765625,-0.34393310546875,0.5682373046875,1,1.0,1.0,1.0,1.0,10.00
2024-10-11 20:38:27.718,0.13857464,0.015372191,1.0121317,0.08438157,0.4078013,-0.18681224,0.47996494,0.5875351,0.45396483,-0.36888778,0.28137213,0.14027707,0.31089175,0.11802954,0.078148685,0.3935599,0.008378546,-0.25232315,-0.19556595,-0.07373067,818.3516,786.1172,792.96704,838.0952,1305.0916,-0.17022705078125,0.08782958984375,0.9951171875,0.67291259765625,-0.34393310546875,0.5682373046875,1,1.0,1.0,1.0,1.0,10.00
2024-10-11 20:38:27.718,0.13857464,0.015372191,1.0121317,0.08438157,0.4078013,-0.18681224,0.47996494,0.5875351,0.45396483,-0.36888778,0.28137213,0.14027707,0.31089175,0.11802954,0.078148685,0.3935599,0.008378546,-0.25232315,-0.19556595,-0.07373067,820.3663,787.72894,791.75824,834.87177,1324.8352,-0.17022705078125,0.08782958984375,0.9951171875,0.67291259765625,-0.34393310546875,0.5682373046875,1,1.0,1.0,1.0,1.0,10.00
2024-10-11 20:38:27.751,0.13857464,0.015372191,1.0121317,0.08438157,0.4078013,-0.18681224,0.47996494,0.5875351,0.45396483,-0.36888778,0.28137213,0.14027707,0.31089175,0.11802954,0.078148685,0.3935599,0.008378546,-0.25232315,-0.19556595,-0.07373067,822.381,792.5641,788.1319,826.4103,1076.227,-0.1722412109375,0.09649658203125,0.990478515625,0.6280517578125,0.88226318359375,1.854248046875,1,1.0,1.0,1.0,1.0,10.00
2024-10-11 20:38:27.752,0.13857464,0.015372191,1.0121317,0.08438157,0.4078013,-0.18681224,0.47996494,0.5875351,0.45396483,-0.36888778,0.28137213,0.14027707,0.31089175,0.11802954,0.078148685,0.3935599,0.008378546,-0.25232315,-0.19556595,-0.07373067,825.2015,788.93774,793.36993,823.5897,963.00366,-0.1722412109375,0.09649658203125,0.990478515625,0.6280517578125,0.88226318359375,1.854248046875,1,1.0,1.0,1.0,1.0,10.00
2024-10-11 20:38:27.753,0.13857464,0.015372191,1.0121317,0.08438157,0.4078013,-0.18681224,0.47996494,0.5875351,0.45396483,-0.36888778,0.28137213,0.14027707,0.31089175,0.11802954,0.078148685,0.3935599,0.008378546,-0.25232315,-0.19556595,-0.07373067,826.8132,789.7436,788.5348,829.2308,1203.5531,-0.1722412109375,0.09649658203125,0.990478515625,0.6280517578125,0.88226318359375,1.854248046875,1,1.0,1.0,1.0,1.0,10.00
2024-10-11 20:38:27.755,0.13857464,0.015372191,1.0121317,0.08438157,0.4078013,-0.18681224,0.47996494,0.5875351,0.45396483,-0.36888778,0.28137213,0.14027707,0.31089175,0.11802954,0.078148685,0.3935599,0.008378546,-0.25232315,-0.19556595,-0.07373067,824.7985,795.78754,784.5055,829.2308,1205.1648,-0.1722412109375,0.09649658203125,0.990478515625,0.6280517578125,0.88226318359375,1.854248046875,1,1.0,1.0,1.0,1.0,10.00
2024-10-11 20:38:27.755,0.13857464,0.015372191,1.0121317,0.08438157,0.4078013,-0.18681224,0.47996494,0.5875351,0.45396483,-0.36888778,0.28137213,0.14027707,0.31089175,0.11802954,0.078148685,0.3935599,0.008378546,-0.25232315,-0.19556595,-0.07373067,823.1868,793.36993,791.75824,820.3663,916.6667,-0.1722412109375,0.09649658203125,0.990478515625,0.6280517578125,0.88226318359375,1.854248046875,1,1.0,1.0,1.0,1.0,10.00
2024-10-11 20:38:27.756,0.13857464,0.015372191,1.0121317,0.08438157,0.4078013,-0.18681224,0.47996494,0.5875351,0.45396483,-0.36888778,0.28137213,0.14027707,0.31089175,0.11802954,0.078148685,0.3935599,0.008378546,-0.25232315,-0.19556595,-0.07373067,815.9341,790.9524,790.9524,821.1722,1075.0183,-0.1722412109375,0.09649658203125,0.990478515625,0.6280517578125,0.88226318359375,1.854248046875,1,1.0,1.0,1.0,1.0,10.00
2024-10-11 20:38:27.756,0.13857464,0.015372191,1.0121317,0.08438157,0.4078013,-0.18681224,0.47996494,0.5875351,0.45396483,-0.36888778,0.28137213,0.14027707,0.31089175,0.11802954,0.078148685,0.3935599,0.008378546,-0.25232315,-0.19556595,-0.07373067,810.696,789.7436,794.17584,825.6044,1130.2197,-0.1722412109375,0.09649658203125,0.990478515625,0.6280517578125,0.88226318359375,1.854248046875,1,1.0,1.0,1.0,1.0,10.00
2024-10-11 20:38:27.757,0.13857464,0.015372191,1.0121317,0.08438157,0.4078013,-0.18681224,0.47996494,0.5875351,0.45396483,-0.36888778,0.28137213,0.14027707,0.31089175,0.11802954,0.078148685,0.3935599,0.008378546,-0.25232315,-0.19556595,-0.07373067,807.0696,789.7436,798.20514,819.9634,651.53845,-0.1722412109375,0.09649658203125,0.990478515625,0.6280517578125,0.88226318359375,1.854248046875,1,1.0,1.0,1.0,1.0,10.00
2024-10-11 20:38:27.758,0.13857464,0.015372191,1.0121317,0.08438157,0.4078013,-0.18681224,0.47996494,0.5875351,0.45396483,-0.36888778,0.28137213,0.14027707,0.31089175,0.11802954,0.078148685,0.3935599,0.008378546,-0.25232315,-0.19556595,-0.07373067,815.9341,797.3993,794.57874,816.337,622.9304,-0.1722412109375,0.09649658203125,0.990478515625,0.6280517578125,0.88226318359375,1.854248046875,1,1.0,1.0,1.0,1.0,10.00
2024-10-11 20:38:27.758,0.13857464,0.015372191,1.0121317,0.08438157,0.4078013,-0.18681224,0.47996494,0.5875351,0.45396483,-0.36888778,0.28137213,0.14027707,0.31089175,0.11802954,0.078148685,0.3935599,0.008378546,-0.25232315,-0.19556595,-0.07373067,823.5897,801.4286,790.9524,819.15753,655.56775,-0.1722412109375,0.09649658203125,0.990478515625,0.6280517578125,0.88226318359375,1.854248046875,1,1.0,1.0,1.0,1.0,10.00
2024-10-11 20:38:27.759,0.13857464,0.015372191,1.0121317,0.08438157,0.4078013,-0.18681224,0.47996494,0.5875351,0.45396483,-0.36888778,0.28137213,0.14027707,0.31089175,0.11802954,0.078148685,0.3935599,0.008378546,-0.25232315,-0.19556595,-0.07373067,815.9341,800.6227,788.5348,817.5458,517.76556,-0.1722412109375,0.09649658203125,0.990478515625,0.6280517578125,0.88226318359375,1.854248046875,1,1.0,1.0,1.0,1.0,10.00
2024-10-11 20:38:27.759,0.13857464,0.015372191,1.0121317,0.08438157,0.4078013,-0.18681224,0.47996494,0.5875351,0.45396483,-0.36888778,0.28137213,0.14027707,0.31089175,0.11802954,0.078148685,0.3935599,0.008378546,-0.25232315,-0.19556595,-0.07373067,819.5604,799.81683,795.78754,821.978,532.674,-0.1722412109375,0.09649658203125,0.990478515625,0.6280517578125,0.88226318359375,1.854248046875,1,1.0,1.0,1.0,1.0,10.00
2024-10-11 20:38:27.798,0.13857464,0.015372191,1.0121317,0.08438157,0.4078013,-0.18681224,0.47996494,0.5875351,0.45396483,-0.36888778,0.28137213,0.14027707,0.31089175,0.11802954,0.078148685,0.3935599,0.008378546,-0.25232315,-0.19556595,-0.07373067,822.7839,797.8022,803.0403,827.619,625.34796,-0.18316650390625,0.08984375,0.9879150390625,-0.16448974609375,1.891632080078125,3.177642822265625,1,1.0,1.0,1.0,1.0,10.00
2024-10-11 20:38:27.798,0.13857464,0.015372191,1.0121317,0.08438157,0.4078013,-0.18681224,0.47996494,0.5875351,0.45396483,-0.36888778,0.28137213,0.14027707,0.31089175,0.11802954,0.078148685,0.3935599,0.008378546,-0.25232315,-0.19556595,-0.07373067,819.9634,799.81683,794.57874,819.9634,628.97437,-0.18316650390625,0.08984375,0.9879150390625,-0.16448974609375,1.891632080078125,3.177642822265625,1,1.0,1.0,1.0,1.0,10.00
2024-10-11 20:38:27.799,0.13857464,0.015372191,1.0121317,0.08438157,0.4078013,-0.18681224,0.47996494,0.5875351,0.45396483,-0.36888778,0.28137213,0.14027707,0.31089175,0.11802954,0.078148685,0.3935599,0.008378546,-0.25232315,-0.19556595,-0.07373067,820.3663,792.5641,790.14655,812.3077,538.315,-0.18316650390625,0.08984375,0.9879150390625,-0.16448974609375,1.891632080078125,3.177642822265625,1,1.0,1.0,1.0,1.0,10.00
2024-10-11 20:38:27.800,0.13857464,0.015372191,1.0121317,0.08438157,0.4078013,-0.18681224,0.47996494,0.5875351,0.45396483,-0.36888778,0.28137213,0.14027707,0.31089175,0.11802954,0.078148685,0.3935599,0.008378546,-0.25232315,-0.19556595,-0.07373067,825.6044,794.9817,790.14655,813.5165,498.4249,-0.18316650390625,0.08984375,0.9879150390625,-0.16448974609375,1.891632080078125,3.177642822265625,1,1.0,1.0,1.0,1.0,10.00
2024-10-11 20:38:27.800,0.13857464,0.015372191,1.0121317,0.08438157,0.4078013,-0.18681224,0.47996494,0.5875351,0.45396483,-0.36888778,0.28137213,0.14027707,0.31089175,0.11802954,0.078148685,0.3935599,0.008378546,-0.25232315,-0.19556595,-0.07373067,827.619,801.4286,791.75824,816.7399,737.76556,-0.18316650390625,0.08984375,0.9879150390625,-0.16448974609375,1.891632080078125,3.177642822265625,1,1.0,1.0,1.0,1.0,10.00
2024-10-11 20:38:27.801,0.13857464,0.015372191,1.0121317,0.08438157,0.4078013,-0.18681224,0.47996494,0.5875351,0.45396483,-0.36888778,0.28137213,0.14027707,0.31089175,0.11802954,0.078148685,0.3935599,0.008378546,-0.25232315,-0.19556595,-0.07373067,823.1868,796.99634,792.1612,815.5311,879.19415,-0.18316650390625,0.08984375,0.9879150390625,-0.16448974609375,1.891632080078125,3.177642822265625,1,1.0,1.0,1.0,1.0,10.00
2024-10-11 20:38:27.801,0.13857464,0.015372191,1.0121317,0.08438157,0.4078013,-0.18681224,0.47996494,0.5875351,0.45396483,-0.36888778,0.28137213,0.14027707,0.31089175,0.11802954,0.078148685,0.3935599,0.008378546,-0.25232315,-0.19556595,-0.07373067,823.5897,793.36993,785.31134,809.0842,718.4249,-0.18316650390625,0.08984375,0.9879150390625,-0.16448974609375,1.891632080078125,3.177642822265625,1,1.0,1.0,1.0,1.0,10.00
2024-10-11 20:38:27.802,0.13857464,0.015372191,1.0121317,0.08438157,0.4078013,-0.18681224,0.47996494,0.5875351,0.45396483,-0.36888778,0.28137213,0.14027707,0.31089175,0.11802954,0.078148685,0.3935599,0.008378546,-0.25232315,-0.19556595,-0.07373067,828.8278,797.8022,790.14655,813.5165,756.30035,-0.18316650390625,0.08984375,0.9879150390625,-0.16448974609375,1.891632080078125,3.177642822265625,1,1.0,1.0,1.0,1.0,10.00
2024-10-11 20:38:27.802,0.13857464,0.015372191,1.0121317,0.08438157,0.4078013,-0.18681224,0.47996494,0.5875351,0.45396483,-0.36888778,0.28137213,0.14027707,0.31089175,0.11802954,0.078148685,0.3935599,0.008378546,-0.25232315,-0.19556595,-0.07373067,825.6044,800.2198,793.36993,816.337,876.3736,-0.18316650390625,0.08984375,0.9879150390625,-0.16448974609375,1.891632080078125,3.177642822265625,1,1.0,1.0,1.0,1.0,10.00
2024-10-11 20:38:27.803,0.13857464,0.015372191,1.0078475,0.08438157,0.4078013,-0.18681224,0.4724802,0.5875351,0.45396483,-0.36888778,0.26938573,0.14027707,0.31089175,0.11802954,0.08239889,0.3935599,0.008378546,-0.25232315,-0.20512202,-0.07373067,823.5897,800.6227,791.75824,815.12823,716.8132,-0.18316650390625,0.08984375,0.9879150390625,-0.16448974609375,1.891632080078125,3.177642822265625,1,1.0,1.0,1.0,1.0,10.00
2024-10-11 20:38:27.806,0.13857464,0.015372191,1.0078475,0.08438157,0.4078013,-0.18681224,0.4724802,0.5875351,0.45396483,-0.36888778,0.26938573,0.14027707,0.31089175,0.11802954,0.08239889,0.3935599,0.008378546,-0.25232315,-0.20512202,-0.07373067,822.7839,801.8315,790.54944,815.12823,548.7912,-0.18316650390625,0.08984375,0.9879150390625,-0.16448974609375,1.891632080078125,3.177642822265625,1,1.0,1.0,1.0,1.0,10.00
2024-10-11 20:38:27.807,0.13857464,0.015372191,1.0078475,0.08438157,0.4078013,-0.18681224,0.4724802,0.5875351,0.45396483,-0.36888778,0.26938573,0.14027707,0.31089175,0.11802954,0.08239889,0.3935599,0.008378546,-0.25232315,-0.20512202,-0.07373067,825.2015,800.2198,796.99634,816.337,555.64105,-0.18316650390625,0.08984375,0.9879150390625,-0.16448974609375,1.891632080078125,3.177642822265625,1,1.0,1.0,1.0,1.0,10.00
2024-10-11 20:38:27.832,0.13857464,0.015372191,1.0078475,0.08438157,0.4078013,-0.18681224,0.4724802,0.5875351,0.45396483,-0.36888778,0.26938573,0.14027707,0.31089175,0.11802954,0.08239889,0.3935599,0.008378546,-0.25232315,-0.20512202,-0.07373067,823.5897,798.60803,793.7729,813.5165,842.1245,-0.18316650390625,0.08984375,0.9879150390625,-0.16448974609375,1.891632080078125,3.177642822265625,1,1.0,1.0,1.0,1.0,10.00
2024-10-11 20:38:27.832,0.13857464,0.015372191,1.0078475,0.08438157,0.4078013,-0.18681224,0.4724802,0.5875351,0.45396483,-0.36888778,0.26938573,0.14027707,0.31089175,0.11802954,0.08239889,0.3935599,0.008378546,-0.25232315,-0.20512202,-0.07373067,806.26373,799.41394,782.0879,801.8315,737.3626,-0.18316650390625,0.08984375,0.9879150390625,-0.16448974609375,1.891632080078125,3.177642822265625,1,1.0,1.0,1.0,1.0,10.00
2024-10-11 20:38:27.833,0.13857464,0.015372191,1.0078475,0.08438157,0.4078013,-0.18681224,0.4724802,0.5875351,0.45396483,-0.36888778,0.26938573,0.14027707,0.31089175,0.11802954,0.08239889,0.3935599,0.008378546,-0.25232315,-0.20512202,-0.07373067,809.4872,794.9817,787.326,803.8461,458.13187,-0.18316650390625,0.08984375,0.9879150390625,-0.16448974609375,1.891632080078125,3.177642822265625,1,1.0,1.0,1.0,1.0,10.00
2024-10-11 20:38:27.833,0.13857464,0.015372191,1.0078475,0.08438157,0.4078013,-0.18681224,0.4724802,0.5875351,0.45396483,-0.36888778,0.26938573,0.14027707,0.31089175,0.11802954,0.08239889,0.3935599,0.008378546,-0.25232315,-0.20512202,-0.07373067,822.7839,792.96704,792.96704,810.293,671.685,-0.18316650390625,0.08984375,0.9879150390625,-0.16448974609375,1.891632080078125,3.177642822265625,1,1.0,1.0,1.0,1.0,10.00
2024-10-11 20:38:27.834,0.13857464,0.015372191,1.0078475,0.08438157,0.4078013,-0.18681224,0.4724802,0.5875351,0.45396483,-0.36888778,0.26938573,0.14027707,0.31089175,0.11802954,0.08239889,0.3935599,0.008378546,-0.25232315,-0.20512202,-0.07373067,825.2015,793.36993,791.3553,811.0989,789.7436,-0.18316650390625,0.08984375,0.9879150390625,-0.16448974609375,1.891632080078125,3.177642822265625,1,1.0,1.0,1.0,1.0,10.00
2024-10-11 20:38:27.834,0.13857464,0.015372191,1.0078475,0.08438157,0.4078013,-0.18681224,0.4724802,0.5875351,0.45396483,-0.36888778,0.26938573,0.14027707,0.31089175,0.11802954,0.08239889,0.3935599,0.008378546,-0.25232315,-0.20512202,-0.07373067,821.978,793.7729,794.9817,813.91943,615.2747,-0.18316650390625,0.08984375,0.9879150390625,-0.16448974609375,1.891632080078125,3.177642822265625,1,1.0,1.0,1.0,1.0,10.00
2024-10-11 20:38:27.835,0.13857464,0.015372191,1.0078475,0.08438157,0.4078013,-0.18681224,0.4724802,0.5875351,0.45396483,-0.36888778,0.26938573,0.14027707,0.31089175,0.11802954,0.08239889,0.3935599,0.008378546,-0.25232315,-0.20512202,-0.07373067,818.7546,801.02563,798.60803,815.5311,642.27106,-0.18316650390625,0.08984375,0.9879150390625,-0.16448974609375,1.891632080078125,3.177642822265625,1,1.0,1.0,1.0,1.0,10.00
2024-10-11 20:38:27.836,0.13857464,0.015372191,1.0078475,0.08438157,0.4078013,-0.18681224,0.4724802,0.5875351,0.45396483,-0.36888778,0.26938573,0.14027707,0.31089175,0.11802954,0.08239889,0.3935599,0.008378546,-0.25232315,-0.20512202,-0.07373067,819.5604,799.011,793.36993,818.7546,759.5238,-0.18316650390625,0.08984375,0.9879150390625,-0.16448974609375,1.891632080078125,3.177642822265625,1,1.0,1.0,1.0,1.0,10.00
2024-10-11 20:38:27.836,0.13857464,0.015372191,1.0078475,0.08438157,0.4078013,-0.18681224,0.4724802,0.5875351,0.45396483,-0.36888778,0.26938573,0.14027707,0.31089175,0.11802954,0.08239889,0.3935599,0.008378546,-0.25232315,-0.20512202,-0.07373067,818.3516,796.99634,788.93774,823.1868,713.1868,-0.18316650390625,0.08984375,0.9879150390625,-0.16448974609375,1.891632080078125,3.177642822265625,1,1.0,1.0,1.0,1.0,10.00
2024-10-11 20:38:27.837,0.13857464,0.015372191,1.0078475,0.08438157,0.4078013,-0.18681224,0.4724802,0.5875351,0.45396483,-0.36888778,0.26938573,0.14027707,0.31089175,0.11802954,0.08239889,0.3935599,0.008378546,-0.25232315,-0.20512202,-0.07373067,815.5311,798.20514,786.9231,818.7546,650.32965,-0.18316650390625,0.08984375,0.9879150390625,-0.16448974609375,1.891632080078125,3.177642822265625,1,1.0,1.0,1.0,1.0,10.00
2024-10-11 20:38:27.837,0.13857464,0.015372191,1.0078475,0.08438157,0.4078013,-0.18681224,0.4724802,0.5875351,0.45396483,-0.36888778,0.26938573,0.14027707,0.31089175,0.11802954,0.08239889,0.3935599,0.008378546,-0.25232315,-0.20512202,-0.07373067,821.978,794.17584,788.1319,821.1722,614.0659,-0.18316650390625,0.08984375,0.9879150390625,-0.16448974609375,1.891632080078125,3.177642822265625,1,1.0,1.0,1.0,1.0,10.00
2024-10-11 20:38:27.838,0.13857464,0.015372191,1.0078475,0.08438157,0.4078013,-0.18681224,0.4724802,0.5875351,0.45396483,-0.36888778,0.26938573,0.14027707,0.31089175,0.11802954,0.08239889,0.3935599,0.008378546,-0.25232315,-0.20512202,-0.07373067,824.3956,788.93774,798.60803,821.1722,785.7143,-0.18316650390625,0.08984375,0.9879150390625,-0.16448974609375,1.891632080078125,3.177642822265625,1,1.0,1.0,1.0,1.0,10.00
2024-10-11 20:38:27.838,0.13857464,0.015372191,1.0078475,0.08438157,0.4078013,-0.18681224,0.4724802,0.5875351,0.45396483,-0.36888778,0.26938573,0.14027707,0.31089175,0.11802954,0.08239889,0.3935599,0.008378546,-0.25232315,-0.20512202,-0.07373067,816.7399,790.9524,790.54944,817.9487,793.7729,-0.19927978515625,0.08856201171875,0.9942626953125,-0.34393310546875,1.428070068359375,4.127197265625,1,1.0,1.0,1.0,1.0,10.00
2024-10-11 20:38:27.839,0.13857464,0.015372191,1.0078475,0.08438157,0.4078013,-0.18681224,0.4724802,0.5875351,0.45396483,-0.36888778,0.26938573,0.14027707,0.31089175,0.11802954,0.08239889,0.3935599,0.008378546,-0.25232315,-0.20512202,-0.07373067,809.4872,795.38464,795.78754,815.9341,614.87177,-0.19927978515625,0.08856201171875,0.9942626953125,-0.34393310546875,1.428070068359375,4.127197265625,1,1.0,1.0,1.0,1.0,10.00
2024-10-11 20:38:27.839,0.13857464,0.015372191,1.0078475,0.08438157,0.4078013,-0.18681224,0.4724802,0.5875351,0.45396483,-0.36888778,0.26938573,0.14027707,0.31089175,0.11802954,0.08239889,0.3935599,0.008378546,-0.25232315,-0.20512202,-0.07373067,805.4579,791.3553,809.4872,816.337,617.28937,-0.19927978515625,0.08856201171875,0.9942626953125,-0.34393310546875,1.428070068359375,4.127197265625,1,1.0,1.0,1.0,1.0,10.00
2024-10-11 20:38:27.840,0.13857464,0.015372191,1.0078475,0.08438157,0.4078013,-0.18681224,0.4724802,0.5875351,0.45396483,-0.36888778,0.26938573,0.14027707,0.31089175,0.11802954,0.08239889,0.3935599,0.008378546,-0.25232315,-0.20512202,-0.07373067,801.4286,790.9524,793.36993,815.5311,753.0769,-0.19927978515625,0.08856201171875,0.9942626953125,-0.34393310546875,1.428070068359375,4.127197265625,1,1.0,1.0,1.0,1.0,10.00
2024-10-11 20:38:27.840,0.13857464,0.015372191,1.0078475,0.08438157,0.4078013,-0.18681224,0.4724802,0.5875351,0.45396483,-0.36888778,0.26938573,0.14027707,0.31089175,0.11802954,0.08239889,0.3935599,0.008378546,-0.25232315,-0.20512202,-0.07373067,801.8315,787.326,787.326,818.7546,753.8828,-0.19927978515625,0.08856201171875,0.9942626953125,-0.34393310546875,1.428070068359375,4.127197265625,1,1.0,1.0,1.0,1.0,10.00
2024-10-11 20:38:27.841,0.13857464,0.015372191,1.0078475,0.08438157,0.4078013,-0.18681224,0.4724802,0.5875351,0.45396483,-0.36888778,0.26938573,0.14027707,0.31089175,0.11802954,0.08239889,0.3935599,0.008378546,-0.25232315,-0.20512202,-0.07373067,804.2491,788.1319,801.02563,819.15753,658.7912,-0.19927978515625,0.08856201171875,0.9942626953125,-0.34393310546875,1.428070068359375,4.127197265625,1,1.0,1.0,1.0,1.0,10.00
2024-10-11 20:38:27.841,0.13857464,0.015372191,1.0078475,0.08438157,0.4078013,-0.18681224,0.4724802,0.5875351,0.45396483,-0.36888778,0.26938573,0.14027707,0.31089175,0.11802954,0.08239889,0.3935599,0.008378546,-0.25232315,-0.20512202,-0.07373067,807.8755,791.3553,808.2784,811.9048,751.8681,-0.19927978515625,0.08856201171875,0.9942626953125,-0.34393310546875,1.428070068359375,4.127197265625,1,1.0,1.0,1.0,1.0,10.00
2024-10-11 20:38:27.842,0.13857464,0.015372191,1.0078475,0.08438157,0.4078013,-0.18681224,0.4724802,0.5875351,0.45396483,-0.36888778,0.26938573,0.14027707,0.31089175,0.11802954,0.08239889,0.3935599,0.008378546,-0.25232315,-0.20512202,-0.07373067,805.4579,789.34064,810.293,810.696,848.97437,-0.19927978515625,0.08856201171875,0.9942626953125,-0.34393310546875,1.428070068359375,4.127197265625,1,1.0,1.0,1.0,1.0,10.00
2024-10-11 20:38:27.842,0.13857464,0.015372191,1.0078475,0.08438157,0.4078013,-0.18681224,0.4724802,0.5875351,0.45396483,-0.36888778,0.26938573,0.14027707,0.31089175,0.11802954,0.08239889,0.3935599,0.008378546,-0.25232315,-0.20512202,-0.07373067,800.2198,787.326,806.6667,808.68134,728.9011,-0.19927978515625,0.08856201171875,0.9942626953125,-0.34393310546875,1.428070068359375,4.127197265625,1,1.0,1.0,1.0,1.0,10.00
2024-10-11 20:38:27.842,0.13857464,0.015372191,1.0078475,0.08438157,0.4078013,-0.18681224,0.4724802,0.5875351,0.45396483,-0.36888778,0.26938573,0.14027707,0.31089175,0.11802954,0.08239889,0.3935599,0.008378546,-0.25232315,-0.20512202,-0.07373067,805.8608,790.9524,800.6227,807.8755,562.49084,-0.19927978515625,0.08856201171875,0.9942626953125,-0.34393310546875,1.428070068359375,4.127197265625,1,1.0,1.0,1.0,1.0,10.00
2024-10-11 20:38:27.843,0.13857464,0.015372191,1.0078475,0.08438157,0.4078013,-0.18681224,0.4724802,0.5875351,0.45396483,-0.36888778,0.26938573,0.14027707,0.31089175,0.11802954,0.08239889,0.3935599,0.008378546,-0.25232315,-0.20512202,-0.07373067,804.2491,790.54944,796.99634,805.8608,626.55676,-0.19927978515625,0.08856201171875,0.9942626953125,-0.34393310546875,1.428070068359375,4.127197265625,1,1.0,1.0,1.0,1.0,10.00
2024-10-11 20:38:27.843,0.13857464,0.015372191,1.0217654,0.08438157,0.4078013,-0.18681224,0.493986,0.5875351,0.45396483,-0.36888778,0.3105025,0.14027707,0.31089175,0.11802954,0.09235475,0.3935599,0.008378546,-0.25232315,-0.19440304,-0.07373067,803.0403,789.34064,796.5934,805.8608,796.99634,-0.19927978515625,0.08856201171875,0.9942626953125,-0.34393310546875,1.428070068359375,4.127197265625,1,1.0,1.0,1.0,1.0,10.00
2024-10-11 20:38:27.937,0.13857464,0.015372191,1.0217654,0.08438157,0.4078013,-0.18681224,0.493986,0.5875351,0.45396483,-0.36888778,0.3105025,0.14027707,0.31089175,0.11802954,0.09235475,0.3935599,0.008378546,-0.25232315,-0.19440304,-0.07373067,802.6374,793.7729,790.9524,800.6227,664.43225,-0.20794677734375,0.09478759765625,0.978759765625,0.94207763671875,2.0037841796875,3.60382080078125,1,1.0,1.0,1.0,1.0,10.00
2024-10-11 20:38:27.938,0.13857464,0.015372191,1.0217654,0.08438157,0.4078013,-0.18681224,0.493986,0.5875351,0.45396483,-0.36888778,0.3105025,0.14027707,0.31089175,0.11802954,0.09235475,0.3935599,0.008378546,-0.25232315,-0.19440304,-0.07373067,799.011,794.9817,785.7143,801.02563,534.68866,-0.20794677734375,0.09478759765625,0.978759765625,0.94207763671875,2.0037841796875,3.60382080078125,1,1.0,1.0,1.0,1.0,10.00
2024-10-11 20:38:27.939,0.13857464,0.015372191,1.0217654,0.08438157,0.4078013,-0.18681224,0.493986,0.5875351,0.45396483,-0.36888778,0.3105025,0.14027707,0.31089175,0.11802954,0.09235475,0.3935599,0.008378546,-0.25232315,-0.19440304,-0.07373067,801.4286,791.3553,789.7436,805.8608,724.87177,-0.20794677734375,0.09478759765625,0.978759765625,0.94207763671875,2.0037841796875,3.60382080078125,1,1.0,1.0,1.0,1.0,10.00
2024-10-11 20:38:27.939,0.13857464,0.015372191,1.0217654,0.08438157,0.4078013,-0.18681224,0.493986,0.5875351,0.45396483,-0.36888778,0.3105025,0.14027707,0.31089175,0.11802954,0.09235475,0.3935599,0.008378546,-0.25232315,-0.19440304,-0.07373067,811.0989,789.7436,786.1172,801.4286,740.18317,-0.20794677734375,0.09478759765625,0.978759765625,0.94207763671875,2.0037841796875,3.60382080078125,1,1.0,1.0,1.0,1.0,10.00
2024-10-11 20:38:27.940,0.13857464,0.015372191,1.0217654,0.08438157,0.4078013,-0.18681224,0.493986,0.5875351,0.45396483,-0.36888778,0.3105025,0.14027707,0.31089175,0.11802954,0.09235475,0.3935599,0.008378546,-0.25232315,-0.19440304,-0.07373067,809.0842,786.1172,789.34064,800.6227,593.5165,-0.20794677734375,0.09478759765625,0.978759765625,0.94207763671875,2.0037841796875,3.60382080078125,1,1.0,1.0,1.0,1.0,10.00
2024-10-11 20:38:27.940,0.13857464,0.015372191,1.0217654,0.08438157,0.4078013,-0.18681224,0.493986,0.5875351,0.45396483,-0.36888778,0.3105025,0.14027707,0.31089175,0.11802954,0.09235475,0.3935599,0.008378546,-0.25232315,-0.19440304,-0.07373067,810.696,789.7436,802.23444,806.6667,722.4542,-0.20794677734375,0.09478759765625,0.978759765625,0.94207763671875,2.0037841796875,3.60382080078125,1,1.0,1.0,1.0,1.0,10.00
2024-10-11 20:38:27.941,0.13857464,0.015372191,1.0217654,0.08438157,0.4078013,-0.18681224,0.493986,0.5875351,0.45396483,-0.36888778,0.3105025,0.14027707,0.31089175,0.11802954,0.09235475,0.3935599,0.008378546,-0.25232315,-0.19440304,-0.07373067,813.1135,790.9524,799.011,806.6667,957.76556,-0.20794677734375,0.09478759765625,0.978759765625,0.94207763671875,2.0037841796875,3.60382080078125,1,1.0,1.0,1.0,1.0,10.00
2024-10-11 20:38:27.942,0.13857464,0.015372191,1.0217654,0.08438157,0.4078013,-0.18681224,0.493986,0.5875351,0.45396483,-0.36888778,0.3105025,0.14027707,0.31089175,0.11802954,0.09235475,0.3935599,0.008378546,-0.25232315,-0.19440304,-0.07373067,805.05493,790.14655,796.1905,811.9048,1221.6849,-0.20794677734375,0.09478759765625,0.978759765625,0.94207763671875,2.0037841796875,3.60382080078125,1,1.0,1.0,1.0,1.0,10.00
2024-10-11 20:38:27.942,0.13857464,0.015372191,1.0217654,0.08438157,0.4078013,-0.18681224,0.493986,0.5875351,0.45396483,-0.36888778,0.3105025,0.14027707,0.31089175,0.11802954,0.09235475,0.3935599,0.008378546,-0.25232315,-0.19440304,-0.07373067,807.47253,792.96704,798.60803,817.1429,1248.2784,-0.20794677734375,0.09478759765625,0.978759765625,0.94207763671875,2.0037841796875,3.60382080078125,1,1.0,1.0,1.0,1.0,10.00
2024-10-11 20:38:27.943,0.13857464,0.015372191,1.0217654,0.08438157,0.4078013,-0.18681224,0.493986,0.5875351,0.45396483,-0.36888778,0.3105025,0.14027707,0.31089175,0.11802954,0.09235475,0.3935599,0.008378546,-0.25232315,-0.19440304,-0.07373067,813.5165,796.1905,795.38464,813.5165,816.337,-0.20794677734375,0.09478759765625,0.978759765625,0.94207763671875,2.0037841796875,3.60382080078125,1,1.0,1.0,1.0,1.0,10.00
2024-10-11 20:38:27.943,0.13857464,0.015372191,1.0217654,0.08438157,0.4078013,-0.18681224,0.493986,0.5875351,0.45396483,-0.36888778,0.3105025,0.14027707,0.31089175,0.11802954,0.09235475,0.3935599,0.008378546,-0.25232315,-0.19440304,-0.07373067,811.50183,798.60803,794.57874,810.696,514.1392,-0.20794677734375,0.09478759765625,0.978759765625,0.94207763671875,2.0037841796875,3.60382080078125,1,1.0,1.0,1.0,1.0,10.00
2024-10-11 20:38:27.944,0.13857464,0.015372191,1.0217654,0.08438157,0.4078013,-0.18681224,0.493986,0.5875351,0.45396483,-0.36888778,0.3105025,0.14027707,0.31089175,0.11802954,0.09235475,0.3935599,0.008378546,-0.25232315,-0.19440304,-0.07373067,803.8461,797.8022,794.57874,811.9048,517.3626,-0.20794677734375,0.09478759765625,0.978759765625,0.94207763671875,2.0037841796875,3.60382080078125,1,1.0,1.0,1.0,1.0,10.00
2024-10-11 20:38:27.945,0.13857464,0.015372191,1.0217654,0.08438157,0.4078013,-0.18681224,0.493986,0.5875351,0.45396483,-0.36888778,0.3105025,0.14027707,0.31089175,0.11802954,0.09235475,0.3935599,0.008378546,-0.25232315,-0.19440304,-0.07373067,804.65204,796.1905,795.78754,810.696,399.30402,-0.21270751953125,0.0989990234375,0.9825439453125,0.2392578125,1.846771240234375,4.56085205078125,1,1.0,1.0,1.0,1.0,10.00
2024-10-11 20:38:27.945,0.13857464,0.015372191,1.0217654,0.08438157,0.4078013,-0.18681224,0.493986,0.5875351,0.45396483,-0.36888778,0.3105025,0.14027707,0.31089175,0.11802954,0.09235475,0.3935599,0.008378546,-0.25232315,-0.19440304,-0.07373067,807.8755,793.36993,801.4286,809.0842,307.83884,-0.21270751953125,0.0989990234375,0.9825439453125,0.2392578125,1.846771240234375,4.56085205078125,1,1.0,1.0,1.0,1.0,10.00
2024-10-11 20:38:27.946,0.13857464,0.015372191,1.0217654,0.08438157,0.4078013,-0.18681224,0.493986,0.5875351,0.45396483,-0.36888778,0.3105025,0.14027707,0.31089175,0.11802954,0.09235475,0.3935599,0.008378546,-0.25232315,-0.19440304,-0.07373067,812.3077,794.57874,805.8608,811.9048,404.94507,-0.21270751953125,0.0989990234375,0.9825439453125,0.2392578125,1.846771240234375,4.56085205078125,1,1.0,1.0,1.0,1.0,10.00
2024-10-11 20:38:27.947,0.13857464,0.015372191,1.0217654,0.08438157,0.4078013,-0.18681224,0.493986,0.5875351,0.45396483,-0.36888778,0.3105025,0.14027707,0.31089175,0.11802954,0.09235475,0.3935599,0.008378546,-0.25232315,-0.19440304,-0.07373067,813.1135,800.2198,803.8461,815.12823,446.4469,-0.21270751953125,0.0989990234375,0.9825439453125,0.2392578125,1.846771240234375,4.56085205078125,1,1.0,1.0,1.0,1.0,10.00
2024-10-11 20:38:27.947,0.13857464,0.015372191,1.0217654,0.08438157,0.4078013,-0.18681224,0.493986,0.5875351,0.45396483,-0.36888778,0.3105025,0.14027707,0.31089175,0.11802954,0.09235475,0.3935599,0.008378546,-0.25232315,-0.19440304,-0.07373067,818.3516,801.8315,800.2198,813.91943,388.02197,-0.21270751953125,0.0989990234375,0.9825439453125,0.2392578125,1.846771240234375,4.56085205078125,1,1.0,1.0,1.0,1.0,10.00
2024-10-11 20:38:27.948,0.13857464,0.015372191,1.0217654,0.08438157,0.4078013,-0.18681224,0.493986,0.5875351,0.45396483,-0.36888778,0.3105025,0.14027707,0.31089175,0.11802954,0.09235475,0.3935599,0.008378546,-0.25232315,-0.19440304,-0.07373067,815.9341,800.2198,797.3993,810.696,517.76556,-0.21270751953125,0.0989990234375,0.9825439453125,0.2392578125,1.846771240234375,4.56085205078125,1,1.0,1.0,1.0,1.0,10.00
2024-10-11 20:38:27.948,0.13857464,0.015372191,1.0217654,0.08438157,0.4078013,-0.18681224,0.493986,0.5875351,0.45396483,-0.36888778,0.3105025,0.14027707,0.31089175,0.11802954,0.09235475,0.3935599,0.008378546,-0.25232315,-0.19440304,-0.07373067,805.8608,800.2198,795.38464,811.50183,755.89746,-0.21270751953125,0.0989990234375,0.9825439453125,0.2392578125,1.846771240234375,4.56085205078125,1,1.0,1.0,1.0,1.0,10.00
2024-10-11 20:38:27.949,0.13857464,0.015372191,1.0217654,0.08438157,0.4078013,-0.18681224,0.493986,0.5875351,0.45396483,-0.36888778,0.3105025,0.14027707,0.31089175,0.11802954,0.09235475,0.3935599,0.008378546,-0.25232315,-0.19440304,-0.07373067,812.71063,798.60803,798.60803,815.9341,700.696,-0.21270751953125,0.0989990234375,0.9825439453125,0.2392578125,1.846771240234375,4.56085205078125,1,1.0,1.0,1.0,1.0,10.00
2024-10-11 20:38:27.950,0.13857464,0.015372191,1.0217654,0.08438157,0.4078013,-0.18681224,0.493986,0.5875351,0.45396483,-0.36888778,0.3105025,0.14027707,0.31089175,0.11802954,0.09235475,0.3935599,0.008378546,-0.25232315,-0.19440304,-0.07373067,813.5165,798.20514,796.1905,810.696,539.12085,-0.21270751953125,0.0989990234375,0.9825439453125,0.2392578125,1.846771240234375,4.56085205078125,1,1.0,1.0,1.0,1.0,10.00
2024-10-11 20:38:27.950,0.13857464,0.015372191,1.0217654,0.08438157,0.4078013,-0.18681224,0.493986,0.5875351,0.45396483,-0.36888778,0.3105025,0.14027707,0.31089175,0.11802954,0.09235475,0.3935599,0.008378546,-0.25232315,-0.19440304,-0.07373067,811.0989,797.8022,792.5641,807.0696,541.13556,-0.21270751953125,0.0989990234375,0.9825439453125,0.2392578125,1.846771240234375,4.56085205078125,1,1.0,1.0,1.0,1.0,10.00
2024-10-11 20:38:27.951,0.13857464,0.015372191,1.0217654,0.08438157,0.4078013,-0.18681224,0.493986,0.5875351,0.45396483,-0.36888778,0.3105025,0.14027707,0.31089175,0.11802954,0.09235475,0.3935599,0.008378546,-0.25232315,-0.19440304,-0.07373067,808.68134,790.54944,796.99634,807.0696,651.9414,-0.21270751953125,0.0989990234375,0.9825439453125,0.2392578125,1.846771240234375,4.56085205078125,1,1.0,1.0,1.0,1.0,10.00
2024-10-11 20:38:27.951,0.13857464,0.015372191,1.0217654,0.08438157,0.4078013,-0.18681224,0.493986,0.5875351,0.45396483,-0.36888778,0.3105025,0.14027707,0.31089175,0.11802954,0.09235475,0.3935599,0.008378546,-0.25232315,-0.19440304,-0.07373067,810.696,791.3553,807.47253,813.91943,689.81683,-0.21270751953125,0.0989990234375,0.9825439453125,0.2392578125,1.846771240234375,4.56085205078125,1,1.0,1.0,1.0,1.0,10.00
2024-10-11 20:38:27.975,0.13857464,0.015372191,1.0217654,0.08438157,0.4078013,-0.18681224,0.493986,0.5875351,0.45396483,-0.36888778,0.3105025,0.14027707,0.31089175,0.11802954,0.09235475,0.3935599,0.008378546,-0.25232315,-0.19440304,-0.07373067,808.68134,802.6374,806.6667,819.15753,634.61536,-0.229248046875,0.095947265625,0.97991943359375,-0.276641845703125,2.086029052734375,1.682281494140625,1,1.0,1.0,1.0,1.0,10.00
2024-10-11 20:38:27.976,0.13857464,0.015372191,1.0468625,0.08438157,0.4078013,-0.18681224,0.5259664,0.5875351,0.45396483,-0.36888778,0.3423519,0.14027707,0.31089175,0.11802954,0.103947245,0.3935599,0.008378546,-0.25232315,-0.1618847,-0.07373067,805.8608,798.60803,801.8315,811.9048,673.2967,-0.229248046875,0.095947265625,0.97991943359375,-0.276641845703125,2.086029052734375,1.682281494140625,1,1.0,1.0,1.0,1.0,10.00
2024-10-11 20:38:27.981,0.13857464,0.015372191,1.0468625,0.08438157,0.4078013,-0.18681224,0.5259664,0.5875351,0.45396483,-0.36888778,0.3423519,0.14027707,0.31089175,0.11802954,0.103947245,0.3935599,0.008378546,-0.25232315,-0.1618847,-0.07373067,803.0403,793.36993,799.011,799.81683,746.63007,-0.229248046875,0.095947265625,0.97991943359375,-0.276641845703125,2.086029052734375,1.682281494140625,1,1.0,1.0,1.0,1.0,10.00
2024-10-11 20:38:27.981,0.13857464,0.015372191,1.0468625,0.08438157,0.4078013,-0.18681224,0.5259664,0.5875351,0.45396483,-0.36888778,0.3423519,0.14027707,0.31089175,0.11802954,0.103947245,0.3935599,0.008378546,-0.25232315,-0.1618847,-0.07373067,807.8755,798.60803,798.60803,795.78754,735.7509,-0.229248046875,0.095947265625,0.97991943359375,-0.276641845703125,2.086029052734375,1.682281494140625,1,1.0,1.0,1.0,1.0,10.00
2024-10-11 20:38:27.982,0.13857464,0.015372191,1.0468625,0.08438157,0.4078013,-0.18681224,0.5259664,0.5875351,0.45396483,-0.36888778,0.3423519,0.14027707,0.31089175,0.11802954,0.103947245,0.3935599,0.008378546,-0.25232315,-0.1618847,-0.07373067,814.7253,797.3993,803.8461,799.81683,702.3077,-0.229248046875,0.095947265625,0.97991943359375,-0.276641845703125,2.086029052734375,1.682281494140625,1,1.0,1.0,1.0,1.0,10.00
2024-10-11 20:38:27.983,0.13857464,0.015372191,1.0468625,0.08438157,0.4078013,-0.18681224,0.5259664,0.5875351,0.45396483,-0.36888778,0.3423519,0.14027707,0.31089175,0.11802954,0.103947245,0.3935599,0.008378546,-0.25232315,-0.1618847,-0.07373067,805.05493,792.1612,801.4286,793.7729,749.45056,-0.229248046875,0.095947265625,0.97991943359375,-0.276641845703125,2.086029052734375,1.682281494140625,1,1.0,1.0,1.0,1.0,10.00
2024-10-11 20:38:27.983,0.13857464,0.015372191,1.0468625,0.08438157,0.4078013,-0.18681224,0.5259664,0.5875351,0.45396483,-0.36888778,0.3423519,0.14027707,0.31089175,0.11802954,0.103947245,0.3935599,0.008378546,-0.25232315,-0.1618847,-0.07373067,798.20514,783.69965,798.20514,796.99634,1089.1208,-0.229248046875,0.095947265625,0.97991943359375,-0.276641845703125,2.086029052734375,1.682281494140625,1,1.0,1.0,1.0,1.0,10.00
2024-10-11 20:38:27.984,0.13857464,0.015372191,1.0468625,0.08438157,0.4078013,-0.18681224,0.5259664,0.5875351,0.45396483,-0.36888778,0.3423519,0.14027707,0.31089175,0.11802954,0.103947245,0.3935599,0.008378546,-0.25232315,-0.1618847,-0.07373067,796.99634,783.2967,799.011,804.2491,1129.414,-0.229248046875,0.095947265625,0.97991943359375,-0.276641845703125,2.086029052734375,1.682281494140625,1,1.0,1.0,1.0,1.0,10.00
2024-10-11 20:38:27.984,0.13857464,0.015372191,1.0468625,0.08438157,0.4078013,-0.18681224,0.5259664,0.5875351,0.45396483,-0.36888778,0.3423519,0.14027707,0.31089175,0.11802954,0.103947245,0.3935599,0.008378546,-0.25232315,-0.1618847,-0.07373067,799.41394,795.78754,798.60803,805.05493,660.40295,-0.229248046875,0.095947265625,0.97991943359375,-0.276641845703125,2.086029052734375,1.682281494140625,1,1.0,1.0,1.0,1.0,10.00
2024-10-11 20:38:27.985,0.13857464,0.015372191,1.0468625,0.08438157,0.4078013,-0.18681224,0.5259664,0.5875351,0.45396483,-0.36888778,0.3423519,0.14027707,0.31089175,0.11802954,0.103947245,0.3935599,0.008378546,-0.25232315,-0.1618847,-0.07373067,800.2198,792.96704,799.41394,798.60803,458.13187,-0.229248046875,0.095947265625,0.97991943359375,-0.276641845703125,2.086029052734375,1.682281494140625,1,1.0,1.0,1.0,1.0,10.00
2024-10-11 20:38:27.985,0.13857464,0.015372191,1.0468625,0.08438157,0.4078013,-0.18681224,0.5259664,0.5875351,0.45396483,-0.36888778,0.3423519,0.14027707,0.31089175,0.11802954,0.103947245,0.3935599,0.008378546,-0.25232315,-0.1618847,-0.07373067,794.9817,788.93774,801.4286,789.34064,466.5934,-0.229248046875,0.095947265625,0.97991943359375,-0.276641845703125,2.086029052734375,1.682281494140625,1,1.0,1.0,1.0,1.0,10.00
2024-10-11 20:38:27.986,0.13857464,0.015372191,1.0468625,0.08438157,0.4078013,-0.18681224,0.5259664,0.5875351,0.45396483,-0.36888778,0.3423519,0.14027707,0.31089175,0.11802954,0.103947245,0.3935599,0.008378546,-0.25232315,-0.1618847,-0.07373067,796.99634,801.02563,805.8608,796.99634,465.3846,-0.229248046875,0.095947265625,0.97991943359375,-0.276641845703125,2.086029052734375,1.682281494140625,1,1.0,1.0,1.0,1.0,10.00
2024-10-11 20:38:28.105,0.13857464,0.015372191,1.0468625,0.08438157,0.4078013,-0.18681224,0.5259664,0.5875351,0.45396483,-0.36888778,0.3423519,0.14027707,0.31089175,0.11802954,0.103947245,0.3935599,0.008378546,-0.25232315,-0.1618847,-0.07373067,802.23444,806.26373,803.8461,797.3993,550.80585,-0.2379150390625,0.08673095703125,0.98370361328125,-0.650482177734375,2.011260986328125,-2.28790283203125,1,1.0,1.0,1.0,1.0,10.00
2024-10-11 20:38:28.107,0.13857464,0.015372191,1.0468625,0.08438157,0.4078013,-0.18681224,0.5259664,0.5875351,0.45396483,-0.36888778,0.3423519,0.14027707,0.31089175,0.11802954,0.103947245,0.3935599,0.008378546,-0.25232315,-0.1618847,-0.07373067,799.81683,796.99634,794.57874,792.5641,707.1429,-0.2379150390625,0.08673095703125,0.98370361328125,-0.650482177734375,2.011260986328125,-2.28790283203125,1,1.0,1.0,1.0,1.0,10.00
2024-10-11 20:38:28.108,0.13857464,0.015372191,1.0468625,0.08438157,0.4078013,-0.18681224,0.5259664,0.5875351,0.45396483,-0.36888778,0.3423519,0.14027707,0.31089175,0.11802954,0.103947245,0.3935599,0.008378546,-0.25232315,-0.1618847,-0.07373067,800.6227,793.7729,793.36993,790.54944,677.326,-0.2379150390625,0.08673095703125,0.98370361328125,-0.650482177734375,2.011260986328125,-2.28790283203125,1,1.0,1.0,1.0,1.0,10.00
2024-10-11 20:38:28.108,0.13857464,0.015372191,1.0468625,0.08438157,0.4078013,-0.18681224,0.5259664,0.5875351,0.45396483,-0.36888778,0.3423519,0.14027707,0.31089175,0.11802954,0.103947245,0.3935599,0.008378546,-0.25232315,-0.1618847,-0.07373067,797.3993,795.38464,793.7729,794.17584,462.96704,-0.2379150390625,0.08673095703125,0.98370361328125,-0.650482177734375,2.011260986328125,-2.28790283203125,1,1.0,1.0,1.0,1.0,10.00
2024-10-11 20:38:28.109,0.13857464,0.015372191,1.0468625,0.08438157,0.4078013,-0.18681224,0.5259664,0.5875351,0.45396483,-0.36888778,0.3423519,0.14027707,0.31089175,0.11802954,0.103947245,0.3935599,0.008378546,-0.25232315,-0.1618847,-0.07373067,792.96704,791.3553,796.99634,799.011,460.9524,-0.2379150390625,0.08673095703125,0.98370361328125,-0.650482177734375,2.011260986328125,-2.28790283203125,1,1.0,1.0,1.0,1.0,10.00
2024-10-11 20:38:28.109,0.13857464,0.015372191,1.0468625,0.08438157,0.4078013,-0.18681224,0.5259664,0.5875351,0.45396483,-0.36888778,0.3423519,0.14027707,0.31089175,0.11802954,0.103947245,0.3935599,0.008378546,-0.25232315,-0.1618847,-0.07373067,802.6374,787.326,799.41394,802.6374,713.5897,-0.2379150390625,0.08673095703125,0.98370361328125,-0.650482177734375,2.011260986328125,-2.28790283203125,1,1.0,1.0,1.0,1.0,10.00
2024-10-11 20:38:28.110,0.13857464,0.015372191,1.0468625,0.08438157,0.4078013,-0.18681224,0.5259664,0.5875351,0.45396483,-0.36888778,0.3423519,0.14027707,0.31089175,0.11802954,0.103947245,0.3935599,0.008378546,-0.25232315,-0.1618847,-0.07373067,812.71063,786.9231,801.02563,807.0696,830.0366,-0.2379150390625,0.08673095703125,0.98370361328125,-0.650482177734375,2.011260986328125,-2.28790283203125,1,1.0,1.0,1.0,1.0,10.00
2024-10-11 20:38:28.110,0.13857464,0.015372191,1.0468625,0.08438157,0.4078013,-0.18681224,0.5259664,0.5875351,0.45396483,-0.36888778,0.3423519,0.14027707,0.31089175,0.11802954,0.103947245,0.3935599,0.008378546,-0.25232315,-0.1618847,-0.07373067,796.99634,799.81683,799.011,795.78754,581.02563,-0.2379150390625,0.08673095703125,0.98370361328125,-0.650482177734375,2.011260986328125,-2.28790283203125,1,1.0,1.0,1.0,1.0,10.00
2024-10-11 20:38:28.111,0.13857464,0.015372191,1.0468625,0.08438157,0.4078013,-0.18681224,0.5259664,0.5875351,0.45396483,-0.36888778,0.3423519,0.14027707,0.31089175,0.11802954,0.103947245,0.3935599,0.008378546,-0.25232315,-0.1618847,-0.07373067,785.31134,803.8461,797.3993,784.10254,440.80585,-0.2379150390625,0.08673095703125,0.98370361328125,-0.650482177734375,2.011260986328125,-2.28790283203125,1,1.0,1.0,1.0,1.0,10.00
2024-10-11 20:38:28.112,0.13857464,0.015372191,1.0468625,0.08438157,0.4078013,-0.18681224,0.5259664,0.5875351,0.45396483,-0.36888778,0.3423519,0.14027707,0.31089175,0.11802954,0.103947245,0.3935599,0.008378546,-0.25232315,-0.1618847,-0.07373067,795.38464,798.60803,796.1905,786.52014,720.84247,-0.2379150390625,0.08673095703125,0.98370361328125,-0.650482177734375,2.011260986328125,-2.28790283203125,1,1.0,1.0,1.0,1.0,10.00
2024-10-11 20:38:28.112,0.13857464,0.015372191,1.0468625,0.08438157,0.4078013,-0.18681224,0.5259664,0.5875351,0.45396483,-0.36888778,0.3423519,0.14027707,0.31089175,0.11802954,0.103947245,0.3935599,0.008378546,-0.25232315,-0.1618847,-0.07373067,795.38464,801.4286,798.20514,786.1172,674.5055,-0.2379150390625,0.08673095703125,0.98370361328125,-0.650482177734375,2.011260986328125,-2.28790283203125,1,1.0,1.0,1.0,1.0,10.00
2024-10-11 20:38:28.113,0.13857464,0.015372191,1.0468625,0.08438157,0.4078013,-0.18681224,0.5259664,0.5875351,0.45396483,-0.36888778,0.3423519,0.14027707,0.31089175,0.11802954,0.103947245,0.3935599,0.008378546,-0.25232315,-0.1618847,-0.07373067,796.1905,801.02563,798.20514,784.5055,345.31134,-0.2379150390625,0.08673095703125,0.98370361328125,-0.650482177734375,2.011260986328125,-2.28790283203125,1,1.0,1.0,1.0,1.0,10.00
2024-10-11 20:38:28.209,0.13857464,0.015372191,1.0468625,0.08438157,0.4078013,-0.18681224,0.5259664,0.5875351,0.45396483,-0.36888778,0.3423519,0.14027707,0.31089175,0.11802954,0.103947245,0.3935599,0.008378546,-0.25232315,-0.1618847,-0.07373067,793.7729,796.5934,788.93774,788.93774,413.4066,-0.2379150390625,0.08673095703125,0.98370361328125,-0.650482177734375,2.011260986328125,-2.28790283203125,1,1.0,1.0,1.0,1.0,10.00
2024-10-11 20:38:28.210,0.13857464,0.015372191,1.0468625,0.08438157,0.4078013,-0.18681224,0.5259664,0.5875351,0.45396483,-0.36888778,0.3423519,0.14027707,0.31089175,0.11802954,0.103947245,0.3935599,0.008378546,-0.25232315,-0.1618847,-0.07373067,790.54944,798.20514,790.14655,782.49084,499.6337,-0.2379150390625,0.08673095703125,0.98370361328125,-0.650482177734375,2.011260986328125,-2.28790283203125,1,1.0,1.0,1.0,1.0,10.00
2024-10-11 20:38:28.211,0.13857464,0.015372191,1.0468625,0.08438157,0.4078013,-0.18681224,0.5259664,0.5875351,0.45396483,-0.36888778,0.3423519,0.14027707,0.31089175,0.11802954,0.103947245,0.3935599,0.008378546,-0.25232315,-0.1618847,-0.07373067,792.5641,799.011,793.7729,780.87915,370.69598,-0.2379150390625,0.08673095703125,0.98370361328125,-0.650482177734375,2.011260986328125,-2.28790283203125,1,1.0,1.0,1.0,1.0,10.00
2024-10-11 20:38:28.212,0.13857464,0.015372191,1.0635709,0.08438157,0.4078013,-0.18681224,0.5422337,0.5875351,0.45396483,-0.36888778,0.34141386,0.14027707,0.31089175,0.11802954,0.11231944,0.3935599,0.008378546,-0.25232315,-0.12363728,-0.07373067,792.1612,789.7436,788.93774,786.52014,331.2088,-0.2379150390625,0.08673095703125,0.98370361328125,-0.650482177734375,2.011260986328125,-2.28790283203125,1,2.0,1.0,1.0,2.0,10.00
2024-10-11 20:38:28.216,0.13857464,0.015372191,1.0635709,0.08438157,0.4078013,-0.18681224,0.5422337,0.5875351,0.45396483,-0.36888778,0.34141386,0.14027707,0.31089175,0.11802954,0.11231944,0.3935599,0.008378546,-0.25232315,-0.12363728,-0.07373067,791.75824,789.34064,787.72894,786.9231,550.80585,-0.2379150390625,0.08673095703125,0.98370361328125,-0.650482177734375,2.011260986328125,-2.28790283203125,1,2.0,1.0,1.0,2.0,10.00
2024-10-11 20:38:28.217,0.13857464,0.015372191,1.0635709,0.08438157,0.4078013,-0.18681224,0.5422337,0.5875351,0.45396483,-0.36888778,0.34141386,0.14027707,0.31089175,0.11802954,0.11231944,0.3935599,0.008378546,-0.25232315,-0.12363728,-0.07373067,796.99634,799.41394,787.326,793.36993,732.52747,-0.2379150390625,0.08673095703125,0.98370361328125,-0.650482177734375,2.011260986328125,-2.28790283203125,1,2.0,1.0,1.0,2.0,10.00
2024-10-11 20:38:28.217,0.13857464,0.015372191,1.0635709,0.08438157,0.4078013,-0.18681224,0.5422337,0.5875351,0.45396483,-0.36888778,0.34141386,0.14027707,0.31089175,0.11802954,0.11231944,0.3935599,0.008378546,-0.25232315,-0.12363728,-0.07373067,802.6374,799.81683,788.93774,794.9817,595.9341,-0.2379150390625,0.08673095703125,0.98370361328125,-0.650482177734375,2.011260986328125,-2.28790283203125,1,2.0,1.0,1.0,2.0,10.00
2024-10-11 20:38:28.218,0.13857464,0.015372191,1.0635709,0.08438157,0.4078013,-0.18681224,0.5422337,0.5875351,0.45396483,-0.36888778,0.34141386,0.14027707,0.31089175,0.11802954,0.11231944,0.3935599,0.008378546,-0.25232315,-0.12363728,-0.07373067,792.5641,790.9524,789.7436,789.7436,367.47253,-0.2379150390625,0.08673095703125,0.98370361328125,-0.650482177734375,2.011260986328125,-2.28790283203125,1,2.0,1.0,1.0,2.0,10.00
2024-10-11 20:38:28.219,0.13857464,0.015372191,1.0635709,0.08438157,0.4078013,-0.18681224,0.5422337,0.5875351,0.45396483,-0.36888778,0.34141386,0.14027707,0.31089175,0.11802954,0.11231944,0.3935599,0.008378546,-0.25232315,-0.12363728,-0.07373067,790.9524,792.5641,787.72894,791.75824,568.1319,-0.2379150390625,0.08673095703125,0.98370361328125,-0.650482177734375,2.011260986328125,-2.28790283203125,1,2.0,1.0,1.0,2.0,10.00
2024-10-11 20:38:28.219,0.13857464,0.015372191,1.0635709,0.08438157,0.4078013,-0.18681224,0.5422337,0.5875351,0.45396483,-0.36888778,0.34141386,0.14027707,0.31089175,0.11802954,0.11231944,0.3935599,0.008378546,-0.25232315,-0.12363728,-0.07373067,803.44324,796.99634,788.93774,790.14655,846.9597,-0.2379150390625,0.08673095703125,0.98370361328125,-0.650482177734375,2.011260986328125,-2.28790283203125,1,2.0,1.0,1.0,2.0,10.00
2024-10-11 20:38:28.220,0.13857464,0.015372191,1.0635709,0.08438157,0.4078013,-0.18681224,0.5422337,0.5875351,0.45396483,-0.36888778,0.34141386,0.14027707,0.31089175,0.11802954,0.11231944,0.3935599,0.008378546,-0.25232315,-0.12363728,-0.07373067,796.1905,796.1905,790.9524,785.7143,659.59705,-0.2379150390625,0.08673095703125,0.98370361328125,-0.650482177734375,2.011260986328125,-2.28790283203125,1,2.0,1.0,1.0,2.0,10.00
2024-10-11 20:38:28.220,0.13857464,0.015372191,1.0635709,0.08438157,0.4078013,-0.18681224,0.5422337,0.5875351,0.45396483,-0.36888778,0.34141386,0.14027707,0.31089175,0.11802954,0.11231944,0.3935599,0.008378546,-0.25232315,-0.12363728,-0.07373067,788.1319,791.75824,795.78754,785.7143,498.82785,-0.2379150390625,0.08673095703125,0.98370361328125,-0.650482177734375,2.011260986328125,-2.28790283203125,1,2.0,1.0,1.0,2.0,10.00
2024-10-11 20:38:28.221,0.13857464,0.015372191,1.0635709,0.08438157,0.4078013,-0.18681224,0.5422337,0.5875351,0.45396483,-0.36888778,0.34141386,0.14027707,0.31089175,0.11802954,0.11231944,0.3935599,0.008378546,-0.25232315,-0.12363728,-0.07373067,797.3993,792.96704,795.38464,788.5348,529.85345,-0.2200927734375,0.08447265625,0.98345947265625,-0.538330078125,-0.40374755859375,-2.863616943359375,1,2.0,1.0,1.0,2.0,10.00
2024-10-11 20:38:28.222,0.13857464,0.015372191,1.0635709,0.08438157,0.4078013,-0.18681224,0.5422337,0.5875351,0.45396483,-0.36888778,0.34141386,0.14027707,0.31089175,0.11802954,0.11231944,0.3935599,0.008378546,-0.25232315,-0.12363728,-0.07373067,796.5934,792.1612,788.93774,795.38464,614.0659,-0.2200927734375,0.08447265625,0.98345947265625,-0.538330078125,-0.40374755859375,-2.863616943359375,1,2.0,1.0,1.0,2.0,10.00
2024-10-11 20:38:28.222,0.13857464,0.015372191,1.0635709,0.08438157,0.4078013,-0.18681224,0.5422337,0.5875351,0.45396483,-0.36888778,0.34141386,0.14027707,0.31089175,0.11802954,0.11231944,0.3935599,0.008378546,-0.25232315,-0.12363728,-0.07373067,796.5934,792.5641,788.93774,803.0403,585.8608,-0.2200927734375,0.08447265625,0.98345947265625,-0.538330078125,-0.40374755859375,-2.863616943359375,1,2.0,1.0,1.0,2.0,10.00
2024-10-11 20:38:28.223,0.13857464,0.015372191,1.0635709,0.08438157,0.4078013,-0.18681224,0.5422337,0.5875351,0.45396483,-0.36888778,0.34141386,0.14027707,0.31089175,0.11802954,0.11231944,0.3935599,0.008378546,-0.25232315,-0.12363728,-0.07373067,802.23444,796.99634,798.20514,803.44324,538.71796,-0.2200927734375,0.08447265625,0.98345947265625,-0.538330078125,-0.40374755859375,-2.863616943359375,1,2.0,1.0,1.0,2.0,10.00
2024-10-11 20:38:28.224,0.13857464,0.015372191,1.0635709,0.08438157,0.4078013,-0.18681224,0.5422337,0.5875351,0.45396483,-0.36888778,0.34141386,0.14027707,0.31089175,0.11802954,0.11231944,0.3935599,0.008378546,-0.25232315,-0.12363728,-0.07373067,805.05493,794.17584,801.4286,802.6374,624.1392,-0.2200927734375,0.08447265625,0.98345947265625,-0.538330078125,-0.40374755859375,-2.863616943359375,1,2.0,1.0,1.0,2.0,10.00
2024-10-11 20:38:28.224,0.13857464,0.015372191,1.0635709,0.08438157,0.4078013,-0.18681224,0.5422337,0.5875351,0.45396483,-0.36888778,0.34141386,0.14027707,0.31089175,0.11802954,0.11231944,0.3935599,0.008378546,-0.25232315,-0.12363728,-0.07373067,798.60803,794.57874,800.2198,807.47253,680.54944,-0.2200927734375,0.08447265625,0.98345947265625,-0.538330078125,-0.40374755859375,-2.863616943359375,1,2.0,1.0,1.0,2.0,10.00
2024-10-11 20:38:28.225,0.13857464,0.015372191,1.0635709,0.08438157,0.4078013,-0.18681224,0.5422337,0.5875351,0.45396483,-0.36888778,0.34141386,0.14027707,0.31089175,0.11802954,0.11231944,0.3935599,0.008378546,-0.25232315,-0.12363728,-0.07373067,789.34064,794.57874,798.20514,799.41394,597.9487,-0.2200927734375,0.08447265625,0.98345947265625,-0.538330078125,-0.40374755859375,-2.863616943359375,1,2.0,1.0,1.0,2.0,10.00
2024-10-11 20:38:28.225,0.13857464,0.015372191,1.0635709,0.08438157,0.4078013,-0.18681224,0.5422337,0.5875351,0.45396483,-0.36888778,0.34141386,0.14027707,0.31089175,0.11802954,0.11231944,0.3935599,0.008378546,-0.25232315,-0.12363728,-0.07373067,791.75824,795.78754,797.8022,801.4286,703.1135,-0.2200927734375,0.08447265625,0.98345947265625,-0.538330078125,-0.40374755859375,-2.863616943359375,1,2.0,1.0,1.0,2.0,10.00
2024-10-11 20:38:28.226,0.13857464,0.015372191,1.0635709,0.08438157,0.4078013,-0.18681224,0.5422337,0.5875351,0.45396483,-0.36888778,0.34141386,0.14027707,0.31089175,0.11802954,0.11231944,0.3935599,0.008378546,-0.25232315,-0.12363728,-0.07373067,797.8022,797.8022,801.4286,809.0842,766.3736,-0.2200927734375,0.08447265625,0.98345947265625,-0.538330078125,-0.40374755859375,-2.863616943359375,1,2.0,1.0,1.0,2.0,10.00
2024-10-11 20:38:28.226,0.13857464,0.015372191,1.0635709,0.08438157,0.4078013,-0.18681224,0.5422337,0.5875351,0.45396483,-0.36888778,0.34141386,0.14027707,0.31089175,0.11802954,0.11231944,0.3935599,0.008378546,-0.25232315,-0.12363728,-0.07373067,798.60803,794.17584,799.81683,805.8608,589.89014,-0.2200927734375,0.08447265625,0.98345947265625,-0.538330078125,-0.40374755859375,-2.863616943359375,1,2.0,1.0,1.0,2.0,10.00
2024-10-11 20:38:28.227,0.13857464,0.015372191,1.0635709,0.08438157,0.4078013,-0.18681224,0.5422337,0.5875351,0.45396483,-0.36888778,0.34141386,0.14027707,0.31089175,0.11802954,0.11231944,0.3935599,0.008378546,-0.25232315,-0.12363728,-0.07373067,801.02563,792.96704,799.011,806.26373,398.09525,-0.2200927734375,0.08447265625,0.98345947265625,-0.538330078125,-0.40374755859375,-2.863616943359375,1,2.0,1.0,1.0,2.0,10.00
2024-10-11 20:38:28.228,0.13857464,0.015372191,1.0635709,0.08438157,0.4078013,-0.18681224,0.5422337,0.5875351,0.45396483,-0.36888778,0.34141386,0.14027707,0.31089175,0.11802954,0.11231944,0.3935599,0.008378546,-0.25232315,-0.12363728,-0.07373067,797.8022,795.78754,799.41394,804.65204,516.9597,-0.2200927734375,0.08447265625,0.98345947265625,-0.538330078125,-0.40374755859375,-2.863616943359375,1,2.0,1.0,1.0,2.0,10.00
2024-10-11 20:38:28.258,0.13857464,0.015372191,1.0635709,0.08438157,0.4078013,-0.18681224,0.5422337,0.5875351,0.45396483,-0.36888778,0.34141386,0.14027707,0.31089175,0.11802954,0.11231944,0.3935599,0.008378546,-0.25232315,-0.12363728,-0.07373067,799.41394,790.9524,796.1905,801.8315,719.2308,-0.218017578125,0.0821533203125,0.978759765625,0.560760498046875,0.097198486328125,-2.175750732421875,1,2.0,1.0,1.0,2.0,10.00
2024-10-11 20:38:28.259,0.13857464,0.015372191,1.0635709,0.08438157,0.4078013,-0.18681224,0.5422337,0.5875351,0.45396483,-0.36888778,0.34141386,0.14027707,0.31089175,0.11802954,0.11231944,0.3935599,0.008378546,-0.25232315,-0.12363728,-0.07373067,801.8315,792.1612,797.3993,796.1905,523.00366,-0.218017578125,0.0821533203125,0.978759765625,0.560760498046875,0.097198486328125,-2.175750732421875,1,2.0,1.0,1.0,2.0,10.00
2024-10-11 20:38:28.260,0.13857464,0.015372191,1.0635709,0.08438157,0.4078013,-0.18681224,0.5422337,0.5875351,0.45396483,-0.36888778,0.34141386,0.14027707,0.31089175,0.11802954,0.11231944,0.3935599,0.008378546,-0.25232315,-0.12363728,-0.07373067,799.81683,800.2198,799.81683,794.57874,350.54944,-0.218017578125,0.0821533203125,0.978759765625,0.560760498046875,0.097198486328125,-2.175750732421875,1,2.0,1.0,1.0,2.0,10.00
2024-10-11 20:38:28.261,0.13857464,0.015372191,1.0635709,0.08438157,0.4078013,-0.18681224,0.5422337,0.5875351,0.45396483,-0.36888778,0.34141386,0.14027707,0.31089175,0.11802954,0.11231944,0.3935599,0.008378546,-0.25232315,-0.12363728,-0.07373067,800.2198,797.8022,799.011,796.1905,565.31134,-0.218017578125,0.0821533203125,0.978759765625,0.560760498046875,0.097198486328125,-2.175750732421875,1,2.0,1.0,1.0,2.0,10.00
2024-10-11 20:38:28.261,0.13857464,0.015372191,1.0635709,0.08438157,0.4078013,-0.18681224,0.5422337,0.5875351,0.45396483,-0.36888778,0.34141386,0.14027707,0.31089175,0.11802954,0.11231944,0.3935599,0.008378546,-0.25232315,-0.12363728,-0.07373067,799.011,795.38464,799.011,798.60803,651.9414,-0.218017578125,0.0821533203125,0.978759765625,0.560760498046875,0.097198486328125,-2.175750732421875,1,2.0,1.0,1.0,2.0,10.00
2024-10-11 20:38:28.262,0.13857464,0.015372191,1.0574089,0.08438157,0.4078013,-0.18681224,0.52412313,0.5875351,0.45396483,-0.36888778,0.31425408,0.14027707,0.31089175,0.11802954,0.11902423,0.3935599,0.008378546,-0.25232315,-0.09553156,-0.07373067,802.23444,795.78754,801.02563,798.20514,553.22345,-0.218017578125,0.0821533203125,0.978759765625,0.560760498046875,0.097198486328125,-2.175750732421875,1,2.0,1.0,1.0,2.0,10.00
2024-10-11 20:38:28.266,0.13857464,0.015372191,1.0574089,0.08438157,0.4078013,-0.18681224,0.52412313,0.5875351,0.45396483,-0.36888778,0.31425408,0.14027707,0.31089175,0.11802954,0.11902423,0.3935599,0.008378546,-0.25232315,-0.09553156,-0.07373067,802.6374,789.34064,796.99634,789.34064,576.99634,-0.218017578125,0.0821533203125,0.978759765625,0.560760498046875,0.097198486328125,-2.175750732421875,1,2.0,1.0,1.0,2.0,10.00
2024-10-11 20:38:28.267,0.13857464,0.015372191,1.0574089,0.08438157,0.4078013,-0.18681224,0.52412313,0.5875351,0.45396483,-0.36888778,0.31425408,0.14027707,0.31089175,0.11802954,0.11902423,0.3935599,0.008378546,-0.25232315,-0.09553156,-0.07373067,808.68134,789.34064,793.36993,795.38464,766.3736,-0.218017578125,0.0821533203125,0.978759765625,0.560760498046875,0.097198486328125,-2.175750732421875,1,2.0,1.0,1.0,2.0,10.00
2024-10-11 20:38:28.268,0.13857464,0.015372191,1.0574089,0.08438157,0.4078013,-0.18681224,0.52412313,0.5875351,0.45396483,-0.36888778,0.31425408,0.14027707,0.31089175,0.11802954,0.11902423,0.3935599,0.008378546,-0.25232315,-0.09553156,-0.07373067,807.0696,799.41394,795.38464,801.4286,811.0989,-0.218017578125,0.0821533203125,0.978759765625,0.560760498046875,0.097198486328125,-2.175750732421875,1,2.0,1.0,1.0,2.0,10.00
2024-10-11 20:38:28.268,0.13857464,0.015372191,1.0574089,0.08438157,0.4078013,-0.18681224,0.52412313,0.5875351,0.45396483,-0.36888778,0.31425408,0.14027707,0.31089175,0.11802954,0.11902423,0.3935599,0.008378546,-0.25232315,-0.09553156,-0.07373067,799.41394,799.81683,796.99634,796.99634,582.23444,-0.218017578125,0.0821533203125,0.978759765625,0.560760498046875,0.097198486328125,-2.175750732421875,1,2.0,1.0,1.0,2.0,10.00
2024-10-11 20:38:28.269,0.13857464,0.015372191,1.0574089,0.08438157,0.4078013,-0.18681224,0.52412313,0.5875351,0.45396483,-0.36888778,0.31425408,0.14027707,0.31089175,0.11802954,0.11902423,0.3935599,0.008378546,-0.25232315,-0.09553156,-0.07373067,801.8315,795.78754,799.81683,801.02563,534.68866,-0.218017578125,0.0821533203125,0.978759765625,0.560760498046875,0.097198486328125,-2.175750732421875,1,2.0,1.0,1.0,2.0,10.00
2024-10-11 20:38:28.269,0.13857464,0.015372191,1.0574089,0.08438157,0.4078013,-0.18681224,0.52412313,0.5875351,0.45396483,-0.36888778,0.31425408,0.14027707,0.31089175,0.11802954,0.11902423,0.3935599,0.008378546,-0.25232315,-0.09553156,-0.07373067,805.05493,794.9817,805.8608,802.23444,627.76556,-0.218017578125,0.0821533203125,0.978759765625,0.560760498046875,0.097198486328125,-2.175750732421875,1,2.0,1.0,1.0,2.0,10.00
2024-10-11 20:38:28.270,0.13857464,0.015372191,1.0574089,0.08438157,0.4078013,-0.18681224,0.52412313,0.5875351,0.45396483,-0.36888778,0.31425408,0.14027707,0.31089175,0.11802954,0.11902423,0.3935599,0.008378546,-0.25232315,-0.09553156,-0.07373067,801.8315,796.99634,801.4286,799.41394,574.9817,-0.22503662109375,0.08489990234375,0.98321533203125,-0.0,-0.022430419921875,-0.9271240234375,1,2.0,1.0,1.0,2.0,10.00
2024-10-11 20:38:28.271,0.13857464,0.015372191,1.0574089,0.08438157,0.4078013,-0.18681224,0.52412313,0.5875351,0.45396483,-0.36888778,0.31425408,0.14027707,0.31089175,0.11802954,0.11902423,0.3935599,0.008378546,-0.25232315,-0.09553156,-0.07373067,800.2198,799.011,794.57874,797.3993,381.5751,-0.22503662109375,0.08489990234375,0.98321533203125,-0.0,-0.022430419921875,-0.9271240234375,1,2.0,1.0,1.0,2.0,10.00
2024-10-11 20:38:28.271,0.13857464,0.015372191,1.0574089,0.08438157,0.4078013,-0.18681224,0.52412313,0.5875351,0.45396483,-0.36888778,0.31425408,0.14027707,0.31089175,0.11802954,0.11902423,0.3935599,0.008378546,-0.25232315,-0.09553156,-0.07373067,800.2198,797.8022,802.6374,801.02563,423.07693,-0.22503662109375,0.08489990234375,0.98321533203125,-0.0,-0.022430419921875,-0.9271240234375,1,2.0,1.0,1.0,2.0,10.00
2024-10-11 20:38:28.272,0.13857464,0.015372191,1.0574089,0.08438157,0.4078013,-0.18681224,0.52412313,0.5875351,0.45396483,-0.36888778,0.31425408,0.14027707,0.31089175,0.11802954,0.11902423,0.3935599,0.008378546,-0.25232315,-0.09553156,-0.07373067,796.99634,802.6374,809.89014,803.0403,502.85715,-0.22503662109375,0.08489990234375,0.98321533203125,-0.0,-0.022430419921875,-0.9271240234375,1,2.0,1.0,1.0,2.0,10.00
2024-10-11 20:38:28.272,0.13857464,0.015372191,1.0574089,0.08438157,0.4078013,-0.18681224,0.52412313,0.5875351,0.45396483,-0.36888778,0.31425408,0.14027707,0.31089175,0.11802954,0.11902423,0.3935599,0.008378546,-0.25232315,-0.09553156,-0.07373067,791.75824,797.3993,801.4286,801.4286,539.5238,-0.22503662109375,0.08489990234375,0.98321533203125,-0.0,-0.022430419921875,-0.9271240234375,1,2.0,1.0,1.0,2.0,10.00
2024-10-11 20:38:28.273,0.13857464,0.015372191,1.0574089,0.08438157,0.4078013,-0.18681224,0.52412313,0.5875351,0.45396483,-0.36888778,0.31425408,0.14027707,0.31089175,0.11802954,0.11902423,0.3935599,0.008378546,-0.25232315,-0.09553156,-0.07373067,792.5641,790.9524,791.3553,798.60803,580.2198,-0.22503662109375,0.08489990234375,0.98321533203125,-0.0,-0.022430419921875,-0.9271240234375,1,2.0,1.0,1.0,2.0,10.00
2024-10-11 20:38:28.274,0.13857464,0.015372191,1.0574089,0.08438157,0.4078013,-0.18681224,0.52412313,0.5875351,0.45396483,-0.36888778,0.31425408,0.14027707,0.31089175,0.11802954,0.11902423,0.3935599,0.008378546,-0.25232315,-0.09553156,-0.07373067,798.20514,797.8022,794.17584,792.96704,568.1319,-0.22503662109375,0.08489990234375,0.98321533203125,-0.0,-0.022430419921875,-0.9271240234375,1,2.0,1.0,1.0,2.0,10.00
2024-10-11 20:38:28.274,0.13857464,0.015372191,1.0574089,0.08438157,0.4078013,-0.18681224,0.52412313,0.5875351,0.45396483,-0.36888778,0.31425408,0.14027707,0.31089175,0.11802954,0.11902423,0.3935599,0.008378546,-0.25232315,-0.09553156,-0.07373067,801.02563,802.6374,795.78754,795.78754,629.3773,-0.22503662109375,0.08489990234375,0.98321533203125,-0.0,-0.022430419921875,-0.9271240234375,1,2.0,1.0,1.0,2.0,10.00
2024-10-11 20:38:28.275,0.13857464,0.015372191,1.0574089,0.08438157,0.4078013,-0.18681224,0.52412313,0.5875351,0.45396483,-0.36888778,0.31425408,0.14027707,0.31089175,0.11802954,0.11902423,0.3935599,0.008378546,-0.25232315,-0.09553156,-0.07373067,801.4286,806.26373,800.6227,800.6227,595.9341,-0.22503662109375,0.08489990234375,0.98321533203125,-0.0,-0.022430419921875,-0.9271240234375,1,2.0,1.0,1.0,2.0,10.00
2024-10-11 20:38:28.275,0.13857464,0.015372191,1.0574089,0.08438157,0.4078013,-0.18681224,0.52412313,0.5875351,0.45396483,-0.36888778,0.31425408,0.14027707,0.31089175,0.11802954,0.11902423,0.3935599,0.008378546,-0.25232315,-0.09553156,-0.07373067,799.41394,805.8608,801.8315,803.0403,517.76556,-0.22503662109375,0.08489990234375,0.98321533203125,-0.0,-0.022430419921875,-0.9271240234375,1,2.0,1.0,1.0,2.0,10.00
2024-10-11 20:38:28.276,0.13857464,0.015372191,1.0574089,0.08438157,0.4078013,-0.18681224,0.52412313,0.5875351,0.45396483,-0.36888778,0.31425408,0.14027707,0.31089175,0.11802954,0.11902423,0.3935599,0.008378546,-0.25232315,-0.09553156,-0.07373067,796.99634,796.99634,801.02563,806.6667,556.4469,-0.22503662109375,0.08489990234375,0.98321533203125,-0.0,-0.022430419921875,-0.9271240234375,1,2.0,1.0,1.0,2.0,10.00
2024-10-11 20:38:28.276,0.13857464,0.015372191,1.0574089,0.08438157,0.4078013,-0.18681224,0.52412313,0.5875351,0.45396483,-0.36888778,0.31425408,0.14027707,0.31089175,0.11802954,0.11902423,0.3935599,0.008378546,-0.25232315,-0.09553156,-0.07373067,795.78754,796.1905,802.6374,807.8755,541.9414,-0.22503662109375,0.08489990234375,0.98321533203125,-0.0,-0.022430419921875,-0.9271240234375,1,2.0,1.0,1.0,2.0,10.00
2024-10-11 20:38:28.277,0.13857464,0.015372191,1.0574089,0.08438157,0.4078013,-0.18681224,0.52412313,0.5875351,0.45396483,-0.36888778,0.31425408,0.14027707,0.31089175,0.11802954,0.11902423,0.3935599,0.008378546,-0.25232315,-0.09553156,-0.07373067,801.02563,799.011,803.44324,805.8608,484.72528,-0.22222900390625,0.081787109375,0.97509765625,0.246734619140625,0.8074951171875,-1.173858642578125,1,2.0,1.0,1.0,2.0,10.00
2024-10-11 20:38:28.278,0.13857464,0.015372191,1.0574089,0.08438157,0.4078013,-0.18681224,0.52412313,0.5875351,0.45396483,-0.36888778,0.31425408,0.14027707,0.31089175,0.11802954,0.11902423,0.3935599,0.008378546,-0.25232315,-0.09553156,-0.07373067,795.78754,794.57874,800.2198,798.60803,448.46155,-0.22222900390625,0.081787109375,0.97509765625,0.246734619140625,0.8074951171875,-1.173858642578125,1,2.0,1.0,1.0,2.0,10.00
2024-10-11 20:38:28.279,0.13857464,0.015372191,1.0574089,0.08438157,0.4078013,-0.18681224,0.52412313,0.5875351,0.45396483,-0.36888778,0.31425408,0.14027707,0.31089175,0.11802954,0.11902423,0.3935599,0.008378546,-0.25232315,-0.09553156,-0.07373067,787.72894,795.38464,791.3553,790.54944,531.06226,-0.22222900390625,0.081787109375,0.97509765625,0.246734619140625,0.8074951171875,-1.173858642578125,1,2.0,1.0,1.0,2.0,10.00
2024-10-11 20:38:28.279,0.13857464,0.015372191,1.0574089,0.08438157,0.4078013,-0.18681224,0.52412313,0.5875351,0.45396483,-0.36888778,0.31425408,0.14027707,0.31089175,0.11802954,0.11902423,0.3935599,0.008378546,-0.25232315,-0.09553156,-0.07373067,795.38464,791.75824,793.36993,794.9817,670.87915,-0.22222900390625,0.081787109375,0.97509765625,0.246734619140625,0.8074951171875,-1.173858642578125,1,2.0,1.0,1.0,2.0,10.00
2024-10-11 20:38:28.280,0.13857464,0.015372191,1.0574089,0.08438157,0.4078013,-0.18681224,0.52412313,0.5875351,0.45396483,-0.36888778,0.31425408,0.14027707,0.31089175,0.11802954,0.11902423,0.3935599,0.008378546,-0.25232315,-0.09553156,-0.07373067,794.9817,791.3553,798.20514,793.7729,549.59705,-0.22222900390625,0.081787109375,0.97509765625,0.246734619140625,0.8074951171875,-1.173858642578125,1,2.0,1.0,1.0,2.0,10.00
2024-10-11 20:38:28.280,0.13857464,0.015372191,1.0574089,0.08438157,0.4078013,-0.18681224,0.52412313,0.5875351,0.45396483,-0.36888778,0.31425408,0.14027707,0.31089175,0.11802954,0.11902423,0.3935599,0.008378546,-0.25232315,-0.09553156,-0.07373067,786.52014,795.78754,794.9817,787.72894,555.64105,-0.22222900390625,0.081787109375,0.97509765625,0.246734619140625,0.8074951171875,-1.173858642578125,1,2.0,1.0,1.0,2.0,10.00
2024-10-11 20:38:28.281,0.13857464,0.015372191,1.0574089,0.08438157,0.4078013,-0.18681224,0.52412313,0.5875351,0.45396483,-0.36888778,0.31425408,0.14027707,0.31089175,0.11802954,0.11902423,0.3935599,0.008378546,-0.25232315,-0.09553156,-0.07373067,791.75824,796.1905,795.78754,790.14655,773.6264,-0.22222900390625,0.081787109375,0.97509765625,0.246734619140625,0.8074951171875,-1.173858642578125,1,2.0,1.0,1.0,2.0,10.00
2024-10-11 20:38:28.281,0.13857464,0.015372191,1.0272684,0.08438157,0.4078013,-0.18681224,0.47018957,0.5875351,0.45396483,-0.36888778,0.3034506,0.14027707,0.31089175,0.11802954,0.12772417,0.3935599,0.008378546,-0.25232315,-0.08106389,-0.07373067,803.44324,794.9817,793.7729,797.3993,1097.5824,-0.22222900390625,0.081787109375,0.97509765625,0.246734619140625,0.8074951171875,-1.173858642578125,1,2.0,1.0,1.0,2.0,10.00
2024-10-11 20:38:28.286,0.13857464,0.015372191,1.0272684,0.08438157,0.4078013,-0.18681224,0.47018957,0.5875351,0.45396483,-0.36888778,0.3034506,0.14027707,0.31089175,0.11802954,0.12772417,0.3935599,0.008378546,-0.25232315,-0.08106389,-0.07373067,805.8608,796.1905,795.78754,801.02563,1077.8389,-0.22222900390625,0.081787109375,0.97509765625,0.246734619140625,0.8074951171875,-1.173858642578125,1,2.0,1.0,1.0,2.0,10.00
2024-10-11 20:38:28.287,0.13857464,0.015372191,1.0272684,0.08438157,0.4078013,-0.18681224,0.47018957,0.5875351,0.45396483,-0.36888778,0.3034506,0.14027707,0.31089175,0.11802954,0.12772417,0.3935599,0.008378546,-0.25232315,-0.08106389,-0.07373067,801.4286,795.78754,801.8315,794.57874,585.05493,-0.22222900390625,0.081787109375,0.97509765625,0.246734619140625,0.8074951171875,-1.173858642578125,1,2.0,1.0,1.0,2.0,10.00
2024-10-11 20:38:28.287,0.13857464,0.015372191,1.0272684,0.08438157,0.4078013,-0.18681224,0.47018957,0.5875351,0.45396483,-0.36888778,0.3034506,0.14027707,0.31089175,0.11802954,0.12772417,0.3935599,0.008378546,-0.25232315,-0.08106389,-0.07373067,801.4286,796.99634,801.8315,800.6227,478.6813,-0.22222900390625,0.081787109375,0.97509765625,0.246734619140625,0.8074951171875,-1.173858642578125,1,2.0,1.0,1.0,2.0,10.00
2024-10-11 20:38:28.288,0.13857464,0.015372191,1.0272684,0.08438157,0.4078013,-0.18681224,0.47018957,0.5875351,0.45396483,-0.36888778,0.3034506,0.14027707,0.31089175,0.11802954,0.12772417,0.3935599,0.008378546,-0.25232315,-0.08106389,-0.07373067,803.44324,798.20514,797.8022,807.47253,606.8132,-0.22222900390625,0.081787109375,0.97509765625,0.246734619140625,0.8074951171875,-1.173858642578125,1,2.0,1.0,1.0,2.0,10.00
2024-10-11 20:38:28.316,0.13857464,0.015372191,1.0272684,0.08438157,0.4078013,-0.18681224,0.47018957,0.5875351,0.45396483,-0.36888778,0.3034506,0.14027707,0.31089175,0.11802954,0.12772417,0.3935599,0.008378546,-0.25232315,-0.08106389,-0.07373067,799.41394,794.57874,795.38464,803.44324,453.69965,-0.22222900390625,0.081787109375,0.97509765625,0.246734619140625,0.8074951171875,-1.173858642578125,1,2.0,1.0,1.0,2.0,10.00
2024-10-11 20:38:28.317,0.13857464,0.015372191,1.0272684,0.08438157,0.4078013,-0.18681224,0.47018957,0.5875351,0.45396483,-0.36888778,0.3034506,0.14027707,0.31089175,0.11802954,0.12772417,0.3935599,0.008378546,-0.25232315,-0.08106389,-0.07373067,802.6374,799.41394,799.41394,798.60803,392.05127,-0.22222900390625,0.081787109375,0.97509765625,0.246734619140625,0.8074951171875,-1.173858642578125,1,2.0,1.0,1.0,2.0,10.00
2024-10-11 20:38:28.318,0.13857464,0.015372191,1.0272684,0.08438157,0.4078013,-0.18681224,0.47018957,0.5875351,0.45396483,-0.36888778,0.3034506,0.14027707,0.31089175,0.11802954,0.12772417,0.3935599,0.008378546,-0.25232315,-0.08106389,-0.07373067,808.2784,796.99634,805.05493,805.05493,689.41394,-0.22222900390625,0.081787109375,0.97509765625,0.246734619140625,0.8074951171875,-1.173858642578125,1,2.0,1.0,1.0,2.0,10.00
2024-10-11 20:38:28.318,0.13857464,0.015372191,1.0272684,0.08438157,0.4078013,-0.18681224,0.47018957,0.5875351,0.45396483,-0.36888778,0.3034506,0.14027707,0.31089175,0.11802954,0.12772417,0.3935599,0.008378546,-0.25232315,-0.08106389,-0.07373067,801.8315,794.57874,802.23444,809.89014,919.4872,-0.22222900390625,0.081787109375,0.97509765625,0.246734619140625,0.8074951171875,-1.173858642578125,1,2.0,1.0,1.0,2.0,10.00
2024-10-11 20:38:28.319,0.13857464,0.015372191,1.0272684,0.08438157,0.4078013,-0.18681224,0.47018957,0.5875351,0.45396483,-0.36888778,0.3034506,0.14027707,0.31089175,0.11802954,0.12772417,0.3935599,0.008378546,-0.25232315,-0.08106389,-0.07373067,799.011,796.5934,794.9817,800.2198,588.68134,-0.22222900390625,0.081787109375,0.97509765625,0.246734619140625,0.8074951171875,-1.173858642578125,1,2.0,1.0,1.0,2.0,10.00
2024-10-11 20:38:28.320,0.13857464,0.015372191,1.0272684,0.08438157,0.4078013,-0.18681224,0.47018957,0.5875351,0.45396483,-0.36888778,0.3034506,0.14027707,0.31089175,0.11802954,0.12772417,0.3935599,0.008378546,-0.25232315,-0.08106389,-0.07373067,802.23444,794.57874,797.8022,796.1905,535.89746,-0.22222900390625,0.081787109375,0.97509765625,0.246734619140625,0.8074951171875,-1.173858642578125,1,2.0,1.0,1.0,2.0,10.00
2024-10-11 20:38:28.320,0.13857464,0.015372191,1.0272684,0.08438157,0.4078013,-0.18681224,0.47018957,0.5875351,0.45396483,-0.36888778,0.3034506,0.14027707,0.31089175,0.11802954,0.12772417,0.3935599,0.008378546,-0.25232315,-0.08106389,-0.07373067,807.0696,796.99634,801.4286,805.4579,763.95605,-0.22222900390625,0.081787109375,0.97509765625,0.246734619140625,0.8074951171875,-1.173858642578125,1,2.0,1.0,1.0,2.0,10.00
2024-10-11 20:38:28.321,0.13857464,0.015372191,1.0272684,0.08438157,0.4078013,-0.18681224,0.47018957,0.5875351,0.45396483,-0.36888778,0.3034506,0.14027707,0.31089175,0.11802954,0.12772417,0.3935599,0.008378546,-0.25232315,-0.08106389,-0.07373067,805.05493,794.9817,801.4286,810.696,639.45056,-0.22222900390625,0.081787109375,0.97509765625,0.246734619140625,0.8074951171875,-1.173858642578125,1,2.0,1.0,1.0,2.0,10.00
2024-10-11 20:38:28.321,0.13857464,0.015372191,1.0272684,0.08438157,0.4078013,-0.18681224,0.47018957,0.5875351,0.45396483,-0.36888778,0.3034506,0.14027707,0.31089175,0.11802954,0.12772417,0.3935599,0.008378546,-0.25232315,-0.08106389,-0.07373067,796.1905,797.8022,802.6374,806.6667,413.4066,-0.22222900390625,0.081787109375,0.97509765625,0.246734619140625,0.8074951171875,-1.173858642578125,1,2.0,1.0,1.0,2.0,10.00
2024-10-11 20:38:28.322,0.13857464,0.015372191,1.0272684,0.08438157,0.4078013,-0.18681224,0.47018957,0.5875351,0.45396483,-0.36888778,0.3034506,0.14027707,0.31089175,0.11802954,0.12772417,0.3935599,0.008378546,-0.25232315,-0.08106389,-0.07373067,799.81683,796.99634,807.47253,804.65204,460.1465,-0.22222900390625,0.081787109375,0.97509765625,0.246734619140625,0.8074951171875,-1.173858642578125,1,2.0,1.0,1.0,2.0,10.00
