TimeStamp,Delta_TP9,Delta_AF7,Delta_AF8,Delta_TP10,Theta_TP9,Theta_AF7,Theta_AF8,Theta_TP10,Alpha_TP9,Alpha_AF7,Alpha_AF8,Alpha_TP10,Beta_TP9,Beta_AF7,Beta_AF8,Beta_TP10,Gamma_TP9,Gamma_AF7,Gamma_AF8,Gamma_TP10,RAW_TP9,RAW_AF7,RAW_AF8,RAW_TP10,AUX_RIGHT,Accelerometer_X,Accelerometer_Y,Accelerometer_Z,Gyro_X,Gyro_Y,Gyro_Z,HeadBandOn,HSI_TP9,HSI_AF7,HSI_AF8,HSI_TP10,Battery,Elements
2024-10-11 20:44:35.553,0.53848326,0.25213423,0.3821082,0.572921,-0.028612329,-0.054247655,-0.2231188,-0.028035281,0.47687268,0.25788546,0.25670335,0.29780433,0.575732,-0.13716936,0.502068,0.32254893,-0.051131457,-0.610801,0.3250253,-0.13745499,780.07324,793.7729,815.12823,786.52014,657.98535,0.2301025390625,0.19818115234375,0.95208740234375,2.220611572265625,-1.854248046875,1.173858642578125,1,1.0,1.0,1.0,1.0,10.00
2024-10-11 20:44:35.554,0.53848326,0.25213423,0.3821082,0.572921,-0.028612329,-0.054247655,-0.2231188,-0.028035281,0.47687268,0.25788546,0.25670335,0.29780433,0.575732,-0.13716936,0.502068,0.32254893,-0.051131457,-0.610801,0.3250253,-0.13745499,774.0293,792.96704,813.1135,787.326,722.8571,0.2301025390625,0.19818115234375,0.95208740234375,2.220611572265625,-1.854248046875,1.173858642578125,1,1.0,1.0,1.0,1.0,10.00
2024-10-11 20:44:35.556,0.53848326,0.25213423,0.3821082,0.572921,-0.028612329,-0.054247655,-0.2231188,-0.028035281,0.47687268,0.25788546,0.25670335,0.29780433,0.575732,-0.13716936,0.502068,0.32254893,-0.051131457,-0.610801,0.3250253,-0.13745499,773.22345,793.7729,820.3663,781.685,651.13556,0.2301025390625,0.19818115234375,0.95208740234375,2.220611572265625,-1.854248046875,1.173858642578125,1,1.0,1.0,1.0,1.0,10.00
2024-10-11 20:44:35.557,0.53848326,0.25213423,0.3821082,0.572921,-0.028612329,-0.054247655,-0.2231188,-0.028035281,0.47687268,0.25788546,0.25670335,0.29780433,0.575732,-0.13716936,0.502068,0.32254893,-0.051131457,-0.610801,0.3250253,-0.13745499,778.86444,791.3553,827.619,788.5348,630.58606,0.2301025390625,0.19818115234375,0.95208740234375,2.220611572265625,-1.854248046875,1.173858642578125,1,1.0,1.0,1.0,1.0,10.00
2024-10-11 20:44:35.558,0.53848326,0.25213423,0.3821082,0.572921,-0.028612329,-0.054247655,-0.2231188,-0.028035281,0.47687268,0.25788546,0.25670335,0.29780433,0.575732,-0.13716936,0.502068,0.32254893,-0.051131457,-0.610801,0.3250253,-0.13745499,778.0586,787.72894,825.6044,799.011,950.5128,0.2301025390625,0.19818115234375,0.95208740234375,2.220611572265625,-1.854248046875,1.173858642578125,1,1.0,1.0,1.0,1.0,10.00
2024-10-11 20:44:35.559,0.53848326,0.25213423,0.3821082,0.572921,-0.028612329,-0.054247655,-0.2231188,-0.028035281,0.47687268,0.25788546,0.25670335,0.29780433,0.575732,-0.13716936,0.502068,0.32254893,-0.051131457,-0.610801,0.3250253,-0.13745499,766.3736,784.10254,819.5604,795.78754,1238.608,0.2301025390625,0.19818115234375,0.95208740234375,2.220611572265625,-1.854248046875,1.173858642578125,1,1.0,1.0,1.0,1.0,10.00
2024-10-11 20:44:35.559,0.53848326,0.25213423,0.3821082,0.572921,-0.028612329,-0.054247655,-0.2231188,-0.028035281,0.47687268,0.25788546,0.25670335,0.29780433,0.575732,-0.13716936,0.502068,0.32254893,-0.051131457,-0.610801,0.3250253,-0.13745499,767.5824,786.9231,821.978,788.93774,902.1612,0.2301025390625,0.19818115234375,0.95208740234375,2.220611572265625,-1.854248046875,1.173858642578125,1,1.0,1.0,1.0,1.0,10.00
2024-10-11 20:44:35.560,0.53848326,0.25213423,0.3821082,0.572921,-0.028612329,-0.054247655,-0.2231188,-0.028035281,0.47687268,0.25788546,0.25670335,0.29780433,0.575732,-0.13716936,0.502068,0.32254893,-0.051131457,-0.610801,0.3250253,-0.13745499,769.59705,791.75824,817.5458,786.52014,671.685,0.2301025390625,0.19818115234375,0.95208740234375,2.220611572265625,-1.854248046875,1.173858642578125,1,1.0,1.0,1.0,1.0,10.00
2024-10-11 20:44:35.561,0.53848326,0.25213423,0.3821082,0.572921,-0.028612329,-0.054247655,-0.2231188,-0.028035281,0.47687268,0.25788546,0.25670335,0.29780433,0.575732,-0.13716936,0.502068,0.32254893,-0.051131457,-0.610801,0.3250253,-0.13745499,768.7912,789.7436,820.3663,790.9524,863.47986,0.2301025390625,0.19818115234375,0.95208740234375,2.220611572265625,-1.854248046875,1.173858642578125,1,1.0,1.0,1.0,1.0,10.00
2024-10-11 20:44:35.561,0.53848326,0.25213423,0.3821082,0.572921,-0.028612329,-0.054247655,-0.2231188,-0.028035281,0.47687268,0.25788546,0.25670335,0.29780433,0.575732,-0.13716936,0.502068,0.32254893,-0.051131457,-0.610801,0.3250253,-0.13745499,775.2381,789.34064,832.8571,789.34064,728.9011,0.2301025390625,0.19818115234375,0.95208740234375,2.220611572265625,-1.854248046875,1.173858642578125,1,1.0,1.0,1.0,1.0,10.00
2024-10-11 20:44:35.562,0.53848326,0.25213423,0.3821082,0.572921,-0.028612329,-0.054247655,-0.2231188,-0.028035281,0.47687268,0.25788546,0.25670335,0.29780433,0.575732,-0.13716936,0.502068,0.32254893,-0.051131457,-0.610801,0.3250253,-0.13745499,779.67035,786.52014,836.8865,787.72894,589.89014,0.2301025390625,0.19818115234375,0.95208740234375,2.220611572265625,-1.854248046875,1.173858642578125,1,1.0,1.0,1.0,1.0,10.00
2024-10-11 20:44:35.563,0.53848326,0.25213423,0.3821082,0.572921,-0.028612329,-0.054247655,-0.2231188,-0.028035281,0.47687268,0.25788546,0.25670335,0.29780433,0.575732,-0.13716936,0.502068,0.32254893,-0.051131457,-0.610801,0.3250253,-0.13745499,780.4762,782.0879,830.84247,791.3553,653.1502,0.2301025390625,0.19818115234375,0.95208740234375,2.220611572265625,-1.854248046875,1.173858642578125,1,1.0,1.0,1.0,1.0,10.00
2024-10-11 20:44:35.603,0.53848326,0.25213423,0.3821082,0.572921,-0.028612329,-0.054247655,-0.2231188,-0.028035281,0.47687268,0.25788546,0.25670335,0.29780433,0.575732,-0.13716936,0.502068,0.32254893,-0.051131457,-0.610801,0.3250253,-0.13745499,777.25275,780.4762,826.0073,792.96704,778.86444,0.2384033203125,0.20269775390625,0.95318603515625,2.91595458984375,-2.340240478515625,1.4654541015625,1,1.0,1.0,1.0,1.0,10.00
2024-10-11 20:44:35.604,0.53848326,0.25213423,0.3821082,0.572921,-0.028612329,-0.054247655,-0.2231188,-0.028035281,0.47687268,0.25788546,0.25670335,0.29780433,0.575732,-0.13716936,0.502068,0.32254893,-0.051131457,-0.610801,0.3250253,-0.13745499,776.8498,781.685,825.2015,790.14655,649.5238,0.2384033203125,0.20269775390625,0.95318603515625,2.91595458984375,-2.340240478515625,1.4654541015625,1,1.0,1.0,1.0,1.0,10.00
2024-10-11 20:44:35.604,0.53848326,0.25213423,0.3821082,0.572921,-0.028612329,-0.054247655,-0.2231188,-0.028035281,0.47687268,0.25788546,0.25670335,0.29780433,0.575732,-0.13716936,0.502068,0.32254893,-0.051131457,-0.610801,0.3250253,-0.13745499,784.90845,783.2967,825.6044,788.93774,599.5604,0.2384033203125,0.20269775390625,0.95318603515625,2.91595458984375,-2.340240478515625,1.4654541015625,1,1.0,1.0,1.0,1.0,10.00
2024-10-11 20:44:35.605,0.5398496,0.24102354,0.21251951,0.6039161,0.028960112,-0.16080557,-0.3499881,0.008219688,0.5427744,0.15865624,0.18636389,0.36830288,0.5547823,-0.14634767,0.50524044,0.33548248,-0.058025535,-0.6165512,0.30297258,-0.12362775,784.10254,781.28204,826.0073,795.38464,748.24176,0.2384033203125,0.20269775390625,0.95318603515625,2.91595458984375,-2.340240478515625,1.4654541015625,1,1.0,1.0,1.0,1.0,10.00
2024-10-11 20:44:35.611,0.5398496,0.24102354,0.21251951,0.6039161,0.028960112,-0.16080557,-0.3499881,0.008219688,0.5427744,0.15865624,0.18636389,0.36830288,0.5547823,-0.14634767,0.50524044,0.33548248,-0.058025535,-0.6165512,0.30297258,-0.12362775,783.69965,784.10254,821.5751,802.23444,840.5128,0.2384033203125,0.20269775390625,0.95318603515625,2.91595458984375,-2.340240478515625,1.4654541015625,1,1.0,1.0,1.0,1.0,10.00
2024-10-11 20:44:35.612,0.5398496,0.24102354,0.21251951,0.6039161,0.028960112,-0.16080557,-0.3499881,0.008219688,0.5427744,0.15865624,0.18636389,0.36830288,0.5547823,-0.14634767,0.50524044,0.33548248,-0.058025535,-0.6165512,0.30297258,-0.12362775,783.2967,783.2967,815.12823,795.38464,812.71063,0.2384033203125,0.20269775390625,0.95318603515625,2.91595458984375,-2.340240478515625,1.4654541015625,1,1.0,1.0,1.0,1.0,10.00
2024-10-11 20:44:35.612,0.5398496,0.24102354,0.21251951,0.6039161,0.028960112,-0.16080557,-0.3499881,0.008219688,0.5427744,0.15865624,0.18636389,0.36830288,0.5547823,-0.14634767,0.50524044,0.33548248,-0.058025535,-0.6165512,0.30297258,-0.12362775,784.10254,786.1172,821.5751,790.9524,800.6227,0.2384033203125,0.20269775390625,0.95318603515625,2.91595458984375,-2.340240478515625,1.4654541015625,1,1.0,1.0,1.0,1.0,10.00
2024-10-11 20:44:35.613,0.5398496,0.24102354,0.21251951,0.6039161,0.028960112,-0.16080557,-0.3499881,0.008219688,0.5427744,0.15865624,0.18636389,0.36830288,0.5547823,-0.14634767,0.50524044,0.33548248,-0.058025535,-0.6165512,0.30297258,-0.12362775,794.57874,790.54944,818.7546,799.81683,795.78754,0.2384033203125,0.20269775390625,0.95318603515625,2.91595458984375,-2.340240478515625,1.4654541015625,1,1.0,1.0,1.0,1.0,10.00
2024-10-11 20:44:35.614,0.5398496,0.24102354,0.21251951,0.6039161,0.028960112,-0.16080557,-0.3499881,0.008219688,0.5427744,0.15865624,0.18636389,0.36830288,0.5547823,-0.14634767,0.50524044,0.33548248,-0.058025535,-0.6165512,0.30297258,-0.12362775,798.60803,790.14655,803.0403,803.8461,812.71063,0.2384033203125,0.20269775390625,0.95318603515625,2.91595458984375,-2.340240478515625,1.4654541015625,1,1.0,1.0,1.0,1.0,10.00
2024-10-11 20:44:35.615,0.5398496,0.24102354,0.21251951,0.6039161,0.028960112,-0.16080557,-0.3499881,0.008219688,0.5427744,0.15865624,0.18636389,0.36830288,0.5547823,-0.14634767,0.50524044,0.33548248,-0.058025535,-0.6165512,0.30297258,-0.12362775,794.9817,783.69965,811.50183,797.8022,747.03296,0.2384033203125,0.20269775390625,0.95318603515625,2.91595458984375,-2.340240478515625,1.4654541015625,1,1.0,1.0,1.0,1.0,10.00
2024-10-11 20:44:35.616,0.5398496,0.24102354,0.21251951,0.6039161,0.028960112,-0.16080557,-0.3499881,0.008219688,0.5427744,0.15865624,0.18636389,0.36830288,0.5547823,-0.14634767,0.50524044,0.33548248,-0.058025535,-0.6165512,0.30297258,-0.12362775,796.1905,784.5055,819.9634,798.60803,701.50183,0.2384033203125,0.20269775390625,0.95318603515625,2.91595458984375,-2.340240478515625,1.4654541015625,1,1.0,1.0,1.0,1.0,10.00
2024-10-11 20:44:35.616,0.5398496,0.24102354,0.21251951,0.6039161,0.028960112,-0.16080557,-0.3499881,0.008219688,0.5427744,0.15865624,0.18636389,0.36830288,0.5547823,-0.14634767,0.50524044,0.33548248,-0.058025535,-0.6165512,0.30297258,-0.12362775,796.1905,789.34064,808.68134,806.6667,946.08057,0.2384033203125,0.20269775390625,0.95318603515625,2.91595458984375,-2.340240478515625,1.4654541015625,1,1.0,1.0,1.0,1.0,10.00
2024-10-11 20:44:35.653,0.5398496,0.24102354,0.21251951,0.6039161,0.028960112,-0.16080557,-0.3499881,0.008219688,0.5427744,0.15865624,0.18636389,0.36830288,0.5547823,-0.14634767,0.50524044,0.33548248,-0.058025535,-0.6165512,0.30297258,-0.12362775,796.1905,790.14655,806.26373,808.68134,1234.5787,0.2432861328125,0.20928955078125,0.9462890625,3.327178955078125,-2.4224853515625,1.435546875,1,1.0,1.0,1.0,1.0,10.00
2024-10-11 20:44:35.654,0.5398496,0.24102354,0.21251951,0.6039161,0.028960112,-0.16080557,-0.3499881,0.008219688,0.5427744,0.15865624,0.18636389,0.36830288,0.5547823,-0.14634767,0.50524044,0.33548248,-0.058025535,-0.6165512,0.30297258,-0.12362775,794.17584,792.96704,811.9048,796.5934,942.0513,0.2432861328125,0.20928955078125,0.9462890625,3.327178955078125,-2.4224853515625,1.435546875,1,1.0,1.0,1.0,1.0,10.00
2024-10-11 20:44:35.655,0.5398496,0.24102354,0.21251951,0.6039161,0.028960112,-0.16080557,-0.3499881,0.008219688,0.5427744,0.15865624,0.18636389,0.36830288,0.5547823,-0.14634767,0.50524044,0.33548248,-0.058025535,-0.6165512,0.30297258,-0.12362775,788.5348,793.36993,810.293,788.1319,759.5238,0.2432861328125,0.20928955078125,0.9462890625,3.327178955078125,-2.4224853515625,1.435546875,1,1.0,1.0,1.0,1.0,10.00
2024-10-11 20:44:35.655,0.5398496,0.24102354,0.21251951,0.6039161,0.028960112,-0.16080557,-0.3499881,0.008219688,0.5427744,0.15865624,0.18636389,0.36830288,0.5547823,-0.14634767,0.50524044,0.33548248,-0.058025535,-0.6165512,0.30297258,-0.12362775,786.1172,790.54944,811.50183,794.17584,958.5714,0.2432861328125,0.20928955078125,0.9462890625,3.327178955078125,-2.4224853515625,1.435546875,1,1.0,1.0,1.0,1.0,10.00
2024-10-11 20:44:35.656,0.5398496,0.24102354,0.21251951,0.6039161,0.028960112,-0.16080557,-0.3499881,0.008219688,0.5427744,0.15865624,0.18636389,0.36830288,0.5547823,-0.14634767,0.50524044,0.33548248,-0.058025535,-0.6165512,0.30297258,-0.12362775,784.10254,790.54944,812.3077,794.57874,845.34796,0.2432861328125,0.20928955078125,0.9462890625,3.327178955078125,-2.4224853515625,1.435546875,1,1.0,1.0,1.0,1.0,10.00
2024-10-11 20:44:35.657,0.5398496,0.24102354,0.21251951,0.6039161,0.028960112,-0.16080557,-0.3499881,0.008219688,0.5427744,0.15865624,0.18636389,0.36830288,0.5547823,-0.14634767,0.50524044,0.33548248,-0.058025535,-0.6165512,0.30297258,-0.12362775,784.5055,789.34064,809.0842,798.60803,733.73627,0.2432861328125,0.20928955078125,0.9462890625,3.327178955078125,-2.4224853515625,1.435546875,1,1.0,1.0,1.0,1.0,10.00
2024-10-11 20:44:35.658,0.5398496,0.24102354,0.21251951,0.6039161,0.028960112,-0.16080557,-0.3499881,0.008219688,0.5427744,0.15865624,0.18636389,0.36830288,0.5547823,-0.14634767,0.50524044,0.33548248,-0.058025535,-0.6165512,0.30297258,-0.12362775,786.1172,790.54944,797.8022,805.8608,909.41394,0.2432861328125,0.20928955078125,0.9462890625,3.327178955078125,-2.4224853515625,1.435546875,1,1.0,1.0,1.0,1.0,10.00
2024-10-11 20:44:35.659,0.5398496,0.24102354,0.21251951,0.6039161,0.028960112,-0.16080557,-0.3499881,0.008219688,0.5427744,0.15865624,0.18636389,0.36830288,0.5547823,-0.14634767,0.50524044,0.33548248,-0.058025535,-0.6165512,0.30297258,-0.12362775,788.1319,794.17584,791.3553,797.8022,957.76556,0.2432861328125,0.20928955078125,0.9462890625,3.327178955078125,-2.4224853515625,1.435546875,1,1.0,1.0,1.0,1.0,10.00
2024-10-11 20:44:35.660,0.5398496,0.24102354,0.21251951,0.6039161,0.028960112,-0.16080557,-0.3499881,0.008219688,0.5427744,0.15865624,0.18636389,0.36830288,0.5547823,-0.14634767,0.50524044,0.33548248,-0.058025535,-0.6165512,0.30297258,-0.12362775,791.75824,798.20514,805.8608,797.8022,837.6923,0.2432861328125,0.20928955078125,0.9462890625,3.327178955078125,-2.4224853515625,1.435546875,1,1.0,1.0,1.0,1.0,10.00
2024-10-11 20:44:35.661,0.5398496,0.24102354,0.21251951,0.6039161,0.028960112,-0.16080557,-0.3499881,0.008219688,0.5427744,0.15865624,0.18636389,0.36830288,0.5547823,-0.14634767,0.50524044,0.33548248,-0.058025535,-0.6165512,0.30297258,-0.12362775,796.5934,798.60803,807.8755,802.23444,682.96704,0.2432861328125,0.20928955078125,0.9462890625,3.327178955078125,-2.4224853515625,1.435546875,1,1.0,1.0,1.0,1.0,10.00
2024-10-11 20:44:35.662,0.5398496,0.24102354,0.21251951,0.6039161,0.028960112,-0.16080557,-0.3499881,0.008219688,0.5427744,0.15865624,0.18636389,0.36830288,0.5547823,-0.14634767,0.50524044,0.33548248,-0.058025535,-0.6165512,0.30297258,-0.12362775,799.011,789.7436,804.2491,799.81683,702.3077,0.2432861328125,0.20928955078125,0.9462890625,3.327178955078125,-2.4224853515625,1.435546875,1,1.0,1.0,1.0,1.0,10.00
2024-10-11 20:44:35.662,0.5398496,0.24102354,0.21251951,0.6039161,0.028960112,-0.16080557,-0.3499881,0.008219688,0.5427744,0.15865624,0.18636389,0.36830288,0.5547823,-0.14634767,0.50524044,0.33548248,-0.058025535,-0.6165512,0.30297258,-0.12362775,790.9524,784.90845,809.0842,796.99634,899.34064,0.2432861328125,0.20928955078125,0.9462890625,3.327178955078125,-2.4224853515625,1.435546875,1,1.0,1.0,1.0,1.0,10.00
2024-10-11 20:44:35.663,0.5398496,0.24102354,0.21251951,0.6039161,0.028960112,-0.16080557,-0.3499881,0.008219688,0.5427744,0.15865624,0.18636389,0.36830288,0.5547823,-0.14634767,0.50524044,0.33548248,-0.058025535,-0.6165512,0.30297258,-0.12362775,791.75824,794.57874,816.337,801.4286,815.5311,0.2432861328125,0.20928955078125,0.9462890625,3.327178955078125,-2.4224853515625,1.435546875,1,1.0,1.0,1.0,1.0,10.00
2024-10-11 20:44:35.664,0.5398496,0.24102354,0.21251951,0.6039161,0.028960112,-0.16080557,-0.3499881,0.008219688,0.5427744,0.15865624,0.18636389,0.36830288,0.5547823,-0.14634767,0.50524044,0.33548248,-0.058025535,-0.6165512,0.30297258,-0.12362775,794.9817,796.1905,813.5165,803.0403,742.6007,0.2432861328125,0.20928955078125,0.9462890625,3.327178955078125,-2.4224853515625,1.435546875,1,1.0,1.0,1.0,1.0,10.00
2024-10-11 20:44:35.665,0.5398496,0.24102354,0.21251951,0.6039161,0.028960112,-0.16080557,-0.3499881,0.008219688,0.5427744,0.15865624,0.18636389,0.36830288,0.5547823,-0.14634767,0.50524044,0.33548248,-0.058025535,-0.6165512,0.30297258,-0.12362775,788.5348,791.75824,806.26373,795.38464,740.989,0.2432861328125,0.20928955078125,0.9462890625,3.327178955078125,-2.4224853515625,1.435546875,1,1.0,1.0,1.0,1.0,10.00
2024-10-11 20:44:35.666,0.5398496,0.24102354,0.21251951,0.6039161,0.028960112,-0.16080557,-0.3499881,0.008219688,0.5427744,0.15865624,0.18636389,0.36830288,0.5547823,-0.14634767,0.50524044,0.33548248,-0.058025535,-0.6165512,0.30297258,-0.12362775,785.7143,793.36993,802.23444,788.93774,792.1612,0.2432861328125,0.20928955078125,0.9462890625,3.327178955078125,-2.4224853515625,1.435546875,1,1.0,1.0,1.0,1.0,10.00
2024-10-11 20:44:35.667,0.5398496,0.24102354,0.21251951,0.6039161,0.028960112,-0.16080557,-0.3499881,0.008219688,0.5427744,0.15865624,0.18636389,0.36830288,0.5547823,-0.14634767,0.50524044,0.33548248,-0.058025535,-0.6165512,0.30297258,-0.12362775,792.1612,798.20514,799.011,790.9524,854.21246,0.2432861328125,0.20928955078125,0.9462890625,3.327178955078125,-2.4224853515625,1.435546875,1,1.0,1.0,1.0,1.0,10.00
2024-10-11 20:44:35.668,0.5466333,0.29450342,0.06732601,0.64379036,0.07172744,-0.1743335,-0.37867674,0.03180762,0.6056915,0.19378309,0.151561,0.4455394,0.53022224,-0.15911011,0.5067281,0.33344865,-0.06242772,-0.5980978,0.2815005,-0.08434485,794.57874,799.011,802.6374,795.78754,840.10986,0.2432861328125,0.20928955078125,0.9462890625,3.327178955078125,-2.4224853515625,1.435546875,1,1.0,1.0,1.0,1.0,10.00
2024-10-11 20:44:35.674,0.5466333,0.29450342,0.06732601,0.64379036,0.07172744,-0.1743335,-0.37867674,0.03180762,0.6056915,0.19378309,0.151561,0.4455394,0.53022224,-0.15911011,0.5067281,0.33344865,-0.06242772,-0.5980978,0.2815005,-0.08434485,791.75824,796.5934,809.0842,798.60803,922.71063,0.2432861328125,0.20928955078125,0.9462890625,3.327178955078125,-2.4224853515625,1.435546875,1,1.0,1.0,1.0,1.0,10.00
2024-10-11 20:44:35.675,0.5466333,0.29450342,0.06732601,0.64379036,0.07172744,-0.1743335,-0.37867674,0.03180762,0.6056915,0.19378309,0.151561,0.4455394,0.53022224,-0.15911011,0.5067281,0.33344865,-0.06242772,-0.5980978,0.2815005,-0.08434485,783.69965,795.78754,804.2491,803.8461,1245.8608,0.2432861328125,0.20928955078125,0.9462890625,3.327178955078125,-2.4224853515625,1.435546875,1,1.0,1.0,1.0,1.0,10.00
2024-10-11 20:44:35.676,0.5466333,0.29450342,0.06732601,0.64379036,0.07172744,-0.1743335,-0.37867674,0.03180762,0.6056915,0.19378309,0.151561,0.4455394,0.53022224,-0.15911011,0.5067281,0.33344865,-0.06242772,-0.5980978,0.2815005,-0.08434485,786.52014,796.99634,794.17584,801.8315,1202.3444,0.2432861328125,0.20928955078125,0.9462890625,3.327178955078125,-2.4224853515625,1.435546875,1,1.0,1.0,1.0,1.0,10.00
2024-10-11 20:44:35.677,0.5466333,0.29450342,0.06732601,0.64379036,0.07172744,-0.1743335,-0.37867674,0.03180762,0.6056915,0.19378309,0.151561,0.4455394,0.53022224,-0.15911011,0.5067281,0.33344865,-0.06242772,-0.5980978,0.2815005,-0.08434485,794.17584,799.011,800.2198,796.99634,798.20514,0.2432861328125,0.20928955078125,0.9462890625,3.327178955078125,-2.4224853515625,1.435546875,1,1.0,1.0,1.0,1.0,10.00
2024-10-11 20:44:35.678,0.5466333,0.29450342,0.06732601,0.64379036,0.07172744,-0.1743335,-0.37867674,0.03180762,0.6056915,0.19378309,0.151561,0.4455394,0.53022224,-0.15911011,0.5067281,0.33344865,-0.06242772,-0.5980978,0.2815005,-0.08434485,784.90845,797.8022,806.6667,801.02563,895.7143,0.2432861328125,0.20928955078125,0.9462890625,3.327178955078125,-2.4224853515625,1.435546875,1,1.0,1.0,1.0,1.0,10.00
2024-10-11 20:44:35.679,0.5466333,0.29450342,0.06732601,0.64379036,0.07172744,-0.1743335,-0.37867674,0.03180762,0.6056915,0.19378309,0.151561,0.4455394,0.53022224,-0.15911011,0.5067281,0.33344865,-0.06242772,-0.5980978,0.2815005,-0.08434485,781.685,799.81683,801.4286,800.2198,923.91943,0.2432861328125,0.20928955078125,0.9462890625,3.327178955078125,-2.4224853515625,1.435546875,1,1.0,1.0,1.0,1.0,10.00
2024-10-11 20:44:35.748,0.5466333,0.29450342,0.06732601,0.64379036,0.07172744,-0.1743335,-0.37867674,0.03180762,0.6056915,0.19378309,0.151561,0.4455394,0.53022224,-0.15911011,0.5067281,0.33344865,-0.06242772,-0.5980978,0.2815005,-0.08434485,787.326,799.81683,799.41394,790.14655,706.7399,0.26776123046875,0.231201171875,0.95086669921875,4.284210205078125,-0.94207763671875,2.5421142578125,1,1.0,1.0,1.0,1.0,10.00
2024-10-11 20:44:35.750,0.5466333,0.29450342,0.06732601,0.64379036,0.07172744,-0.1743335,-0.37867674,0.03180762,0.6056915,0.19378309,0.151561,0.4455394,0.53022224,-0.15911011,0.5067281,0.33344865,-0.06242772,-0.5980978,0.2815005,-0.08434485,792.1612,798.60803,798.60803,790.9524,750.65936,0.26776123046875,0.231201171875,0.95086669921875,4.284210205078125,-0.94207763671875,2.5421142578125,1,1.0,1.0,1.0,1.0,10.00
2024-10-11 20:44:35.750,0.5466333,0.29450342,0.06732601,0.64379036,0.07172744,-0.1743335,-0.37867674,0.03180762,0.6056915,0.19378309,0.151561,0.4455394,0.53022224,-0.15911011,0.5067281,0.33344865,-0.06242772,-0.5980978,0.2815005,-0.08434485,790.9524,796.5934,802.23444,794.9817,747.4359,0.26776123046875,0.231201171875,0.95086669921875,4.284210205078125,-0.94207763671875,2.5421142578125,1,1.0,1.0,1.0,1.0,10.00
2024-10-11 20:44:35.751,0.5466333,0.29450342,0.06732601,0.64379036,0.07172744,-0.1743335,-0.37867674,0.03180762,0.6056915,0.19378309,0.151561,0.4455394,0.53022224,-0.15911011,0.5067281,0.33344865,-0.06242772,-0.5980978,0.2815005,-0.08434485,786.52014,792.1612,803.8461,787.72894,628.1685,0.26776123046875,0.231201171875,0.95086669921875,4.284210205078125,-0.94207763671875,2.5421142578125,1,1.0,1.0,1.0,1.0,10.00
2024-10-11 20:44:35.752,0.5466333,0.29450342,0.06732601,0.64379036,0.07172744,-0.1743335,-0.37867674,0.03180762,0.6056915,0.19378309,0.151561,0.4455394,0.53022224,-0.15911011,0.5067281,0.33344865,-0.06242772,-0.5980978,0.2815005,-0.08434485,789.7436,795.78754,796.5934,788.1319,583.0403,0.26776123046875,0.231201171875,0.95086669921875,4.284210205078125,-0.94207763671875,2.5421142578125,1,1.0,1.0,1.0,1.0,10.00
2024-10-11 20:44:35.753,0.5466333,0.29450342,0.06732601,0.64379036,0.07172744,-0.1743335,-0.37867674,0.03180762,0.6056915,0.19378309,0.151561,0.4455394,0.53022224,-0.15911011,0.5067281,0.33344865,-0.06242772,-0.5980978,0.2815005,-0.08434485,796.1905,794.57874,792.5641,796.99634,760.32965,0.26776123046875,0.231201171875,0.95086669921875,4.284210205078125,-0.94207763671875,2.5421142578125,1,1.0,1.0,1.0,1.0,10.00
2024-10-11 20:44:35.753,0.5466333,0.29450342,0.06732601,0.64379036,0.07172744,-0.1743335,-0.37867674,0.03180762,0.6056915,0.19378309,0.151561,0.4455394,0.53022224,-0.15911011,0.5067281,0.33344865,-0.06242772,-0.5980978,0.2815005,-0.08434485,794.9817,790.14655,793.36993,795.38464,946.08057,0.26776123046875,0.231201171875,0.95086669921875,4.284210205078125,-0.94207763671875,2.5421142578125,1,1.0,1.0,1.0,1.0,10.00
2024-10-11 20:44:35.754,0.5466333,0.29450342,0.06732601,0.64379036,0.07172744,-0.1743335,-0.37867674,0.03180762,0.6056915,0.19378309,0.151561,0.4455394,0.53022224,-0.15911011,0.5067281,0.33344865,-0.06242772,-0.5980978,0.2815005,-0.08434485,790.14655,792.5641,800.6227,789.7436,809.0842,0.26776123046875,0.231201171875,0.95086669921875,4.284210205078125,-0.94207763671875,2.5421142578125,1,1.0,1.0,1.0,1.0,10.00
2024-10-11 20:44:35.755,0.5466333,0.29450342,0.06732601,0.64379036,0.07172744,-0.1743335,-0.37867674,0.03180762,0.6056915,0.19378309,0.151561,0.4455394,0.53022224,-0.15911011,0.5067281,0.33344865,-0.06242772,-0.5980978,0.2815005,-0.08434485,790.14655,794.9817,804.65204,785.7143,683.36993,0.26776123046875,0.231201171875,0.95086669921875,4.284210205078125,-0.94207763671875,2.5421142578125,1,1.0,1.0,1.0,1.0,10.00
2024-10-11 20:44:35.755,0.5466333,0.29450342,0.06732601,0.64379036,0.07172744,-0.1743335,-0.37867674,0.03180762,0.6056915,0.19378309,0.151561,0.4455394,0.53022224,-0.15911011,0.5067281,0.33344865,-0.06242772,-0.5980978,0.2815005,-0.08434485,796.99634,798.60803,799.011,779.67035,674.90845,0.26776123046875,0.231201171875,0.95086669921875,4.284210205078125,-0.94207763671875,2.5421142578125,1,1.0,1.0,1.0,1.0,10.00
2024-10-11 20:44:35.756,0.5466333,0.29450342,0.06732601,0.64379036,0.07172744,-0.1743335,-0.37867674,0.03180762,0.6056915,0.19378309,0.151561,0.4455394,0.53022224,-0.15911011,0.5067281,0.33344865,-0.06242772,-0.5980978,0.2815005,-0.08434485,807.8755,798.60803,803.0403,791.3553,1031.5018,0.26776123046875,0.231201171875,0.95086669921875,4.284210205078125,-0.94207763671875,2.5421142578125,1,1.0,1.0,1.0,1.0,10.00
2024-10-11 20:44:35.757,0.5466333,0.29450342,0.06732601,0.64379036,0.07172744,-0.1743335,-0.37867674,0.03180762,0.6056915,0.19378309,0.151561,0.4455394,0.53022224,-0.15911011,0.5067281,0.33344865,-0.06242772,-0.5980978,0.2815005,-0.08434485,799.81683,797.3993,803.0403,797.3993,1019.011,0.26776123046875,0.231201171875,0.95086669921875,4.284210205078125,-0.94207763671875,2.5421142578125,1,1.0,1.0,1.0,1.0,10.00
2024-10-11 20:44:35.758,0.5466333,0.29450342,0.06732601,0.64379036,0.07172744,-0.1743335,-0.37867674,0.03180762,0.6056915,0.19378309,0.151561,0.4455394,0.53022224,-0.15911011,0.5067281,0.33344865,-0.06242772,-0.5980978,0.2815005,-0.08434485,790.14655,799.41394,802.6374,798.20514,554.83514,0.2620849609375,0.2587890625,0.951904296875,3.46923828125,1.60003662109375,6.452484130859375,1,1.0,1.0,1.0,1.0,10.00
2024-10-11 20:44:35.759,0.5466333,0.29450342,0.06732601,0.64379036,0.07172744,-0.1743335,-0.37867674,0.03180762,0.6056915,0.19378309,0.151561,0.4455394,0.53022224,-0.15911011,0.5067281,0.33344865,-0.06242772,-0.5980978,0.2815005,-0.08434485,796.5934,795.38464,806.26373,801.02563,502.45422,0.2620849609375,0.2587890625,0.951904296875,3.46923828125,1.60003662109375,6.452484130859375,1,1.0,1.0,1.0,1.0,10.00
2024-10-11 20:44:35.760,0.5466333,0.29450342,0.06732601,0.64379036,0.07172744,-0.1743335,-0.37867674,0.03180762,0.6056915,0.19378309,0.151561,0.4455394,0.53022224,-0.15911011,0.5067281,0.33344865,-0.06242772,-0.5980978,0.2815005,-0.08434485,793.7729,791.3553,805.8608,803.8461,663.22345,0.2620849609375,0.2587890625,0.951904296875,3.46923828125,1.60003662109375,6.452484130859375,1,1.0,1.0,1.0,1.0,10.00
2024-10-11 20:44:35.761,0.5466333,0.29450342,0.06732601,0.64379036,0.07172744,-0.1743335,-0.37867674,0.03180762,0.6056915,0.19378309,0.151561,0.4455394,0.53022224,-0.15911011,0.5067281,0.33344865,-0.06242772,-0.5980978,0.2815005,-0.08434485,797.8022,793.36993,805.05493,808.2784,717.2161,0.2620849609375,0.2587890625,0.951904296875,3.46923828125,1.60003662109375,6.452484130859375,1,1.0,1.0,1.0,1.0,10.00
2024-10-11 20:44:35.762,0.5466333,0.29450342,0.06732601,0.64379036,0.07172744,-0.1743335,-0.37867674,0.03180762,0.6056915,0.19378309,0.151561,0.4455394,0.53022224,-0.15911011,0.5067281,0.33344865,-0.06242772,-0.5980978,0.2815005,-0.08434485,803.0403,794.17584,803.44324,807.0696,643.47986,0.2620849609375,0.2587890625,0.951904296875,3.46923828125,1.60003662109375,6.452484130859375,1,1.0,1.0,1.0,1.0,10.00
2024-10-11 20:44:35.763,0.5466333,0.29450342,0.06732601,0.64379036,0.07172744,-0.1743335,-0.37867674,0.03180762,0.6056915,0.19378309,0.151561,0.4455394,0.53022224,-0.15911011,0.5067281,0.33344865,-0.06242772,-0.5980978,0.2815005,-0.08434485,798.60803,796.1905,805.4579,806.6667,857.8388,0.2620849609375,0.2587890625,0.951904296875,3.46923828125,1.60003662109375,6.452484130859375,1,1.0,1.0,1.0,1.0,10.00
2024-10-11 20:44:35.764,0.5466333,0.29450342,0.06732601,0.64379036,0.07172744,-0.1743335,-0.37867674,0.03180762,0.6056915,0.19378309,0.151561,0.4455394,0.53022224,-0.15911011,0.5067281,0.33344865,-0.06242772,-0.5980978,0.2815005,-0.08434485,792.5641,794.9817,804.2491,806.26373,1079.4506,0.2620849609375,0.2587890625,0.951904296875,3.46923828125,1.60003662109375,6.452484130859375,1,1.0,1.0,1.0,1.0,10.00
2024-10-11 20:44:35.764,0.57377666,0.35006782,-0.007192829,0.68812966,0.10972424,-0.15481919,-0.36117384,0.056641687,0.6625036,0.21064904,0.12422912,0.47672197,0.5068456,-0.17654811,0.50808936,0.3245022,-0.06889876,-0.5676778,0.2614191,-0.0343787,786.9231,792.1612,794.9817,802.23444,778.86444,0.2620849609375,0.2587890625,0.951904296875,3.46923828125,1.60003662109375,6.452484130859375,1,1.0,1.0,1.0,1.0,10.00
2024-10-11 20:44:35.770,0.57377666,0.35006782,-0.007192829,0.68812966,0.10972424,-0.15481919,-0.36117384,0.056641687,0.6625036,0.21064904,0.12422912,0.47672197,0.5068456,-0.17654811,0.50808936,0.3245022,-0.06889876,-0.5676778,0.2614191,-0.0343787,795.38464,794.17584,787.72894,794.57874,558.86444,0.2620849609375,0.2587890625,0.951904296875,3.46923828125,1.60003662109375,6.452484130859375,1,1.0,1.0,1.0,1.0,10.00
2024-10-11 20:44:35.771,0.57377666,0.35006782,-0.007192829,0.68812966,0.10972424,-0.15481919,-0.36117384,0.056641687,0.6625036,0.21064904,0.12422912,0.47672197,0.5068456,-0.17654811,0.50808936,0.3245022,-0.06889876,-0.5676778,0.2614191,-0.0343787,795.38464,795.78754,798.20514,788.1319,731.7216,0.2620849609375,0.2587890625,0.951904296875,3.46923828125,1.60003662109375,6.452484130859375,1,1.0,1.0,1.0,1.0,10.00
2024-10-11 20:44:35.772,0.57377666,0.35006782,-0.007192829,0.68812966,0.10972424,-0.15481919,-0.36117384,0.056641687,0.6625036,0.21064904,0.12422912,0.47672197,0.5068456,-0.17654811,0.50808936,0.3245022,-0.06889876,-0.5676778,0.2614191,-0.0343787,793.36993,796.1905,809.89014,794.9817,753.47986,0.2620849609375,0.2587890625,0.951904296875,3.46923828125,1.60003662109375,6.452484130859375,1,1.0,1.0,1.0,1.0,10.00
2024-10-11 20:44:35.773,0.57377666,0.35006782,-0.007192829,0.68812966,0.10972424,-0.15481919,-0.36117384,0.056641687,0.6625036,0.21064904,0.12422912,0.47672197,0.5068456,-0.17654811,0.50808936,0.3245022,-0.06889876,-0.5676778,0.2614191,-0.0343787,796.5934,796.1905,803.0403,801.02563,668.0586,0.2620849609375,0.2587890625,0.951904296875,3.46923828125,1.60003662109375,6.452484130859375,1,1.0,1.0,1.0,1.0,10.00
2024-10-11 20:44:35.835,0.57377666,0.35006782,-0.007192829,0.68812966,0.10972424,-0.15481919,-0.36117384,0.056641687,0.6625036,0.21064904,0.12422912,0.47672197,0.5068456,-0.17654811,0.50808936,0.3245022,-0.06889876,-0.5676778,0.2614191,-0.0343787,793.36993,798.60803,793.7729,799.41394,546.77655,0.2425537109375,0.2706298828125,0.96295166015625,0.515899658203125,4.194488525390625,7.798309326171875,1,1.0,1.0,1.0,1.0,10.00
2024-10-11 20:44:35.836,0.57377666,0.35006782,-0.007192829,0.68812966,0.10972424,-0.15481919,-0.36117384,0.056641687,0.6625036,0.21064904,0.12422912,0.47672197,0.5068456,-0.17654811,0.50808936,0.3245022,-0.06889876,-0.5676778,0.2614191,-0.0343787,798.60803,796.1905,794.57874,798.60803,797.3993,0.2425537109375,0.2706298828125,0.96295166015625,0.515899658203125,4.194488525390625,7.798309326171875,1,1.0,1.0,1.0,1.0,10.00
2024-10-11 20:44:35.837,0.57377666,0.35006782,-0.007192829,0.68812966,0.10972424,-0.15481919,-0.36117384,0.056641687,0.6625036,0.21064904,0.12422912,0.47672197,0.5068456,-0.17654811,0.50808936,0.3245022,-0.06889876,-0.5676778,0.2614191,-0.0343787,801.4286,796.1905,796.99634,796.5934,1047.619,0.2425537109375,0.2706298828125,0.96295166015625,0.515899658203125,4.194488525390625,7.798309326171875,1,1.0,1.0,1.0,1.0,10.00
2024-10-11 20:44:35.838,0.57377666,0.35006782,-0.007192829,0.68812966,0.10972424,-0.15481919,-0.36117384,0.056641687,0.6625036,0.21064904,0.12422912,0.47672197,0.5068456,-0.17654811,0.50808936,0.3245022,-0.06889876,-0.5676778,0.2614191,-0.0343787,797.8022,801.02563,800.2198,786.1172,784.5055,0.2425537109375,0.2706298828125,0.96295166015625,0.515899658203125,4.194488525390625,7.798309326171875,1,1.0,1.0,1.0,1.0,10.00
2024-10-11 20:44:35.839,0.57377666,0.35006782,-0.007192829,0.68812966,0.10972424,-0.15481919,-0.36117384,0.056641687,0.6625036,0.21064904,0.12422912,0.47672197,0.5068456,-0.17654811,0.50808936,0.3245022,-0.06889876,-0.5676778,0.2614191,-0.0343787,800.2198,795.78754,799.41394,785.7143,661.6117,0.2425537109375,0.2706298828125,0.96295166015625,0.515899658203125,4.194488525390625,7.798309326171875,1,1.0,1.0,1.0,1.0,10.00
2024-10-11 20:44:35.839,0.57377666,0.35006782,-0.007192829,0.68812966,0.10972424,-0.15481919,-0.36117384,0.056641687,0.6625036,0.21064904,0.12422912,0.47672197,0.5068456,-0.17654811,0.50808936,0.3245022,-0.06889876,-0.5676778,0.2614191,-0.0343787,796.99634,794.17584,794.9817,787.326,1052.8572,0.2425537109375,0.2706298828125,0.96295166015625,0.515899658203125,4.194488525390625,7.798309326171875,1,1.0,1.0,1.0,1.0,10.00
2024-10-11 20:44:35.840,0.57377666,0.35006782,-0.007192829,0.68812966,0.10972424,-0.15481919,-0.36117384,0.056641687,0.6625036,0.21064904,0.12422912,0.47672197,0.5068456,-0.17654811,0.50808936,0.3245022,-0.06889876,-0.5676778,0.2614191,-0.0343787,780.87915,793.36993,796.5934,776.8498,1305.4945,0.2425537109375,0.2706298828125,0.96295166015625,0.515899658203125,4.194488525390625,7.798309326171875,1,1.0,1.0,1.0,1.0,10.00
2024-10-11 20:44:35.841,0.57377666,0.35006782,-0.007192829,0.68812966,0.10972424,-0.15481919,-0.36117384,0.056641687,0.6625036,0.21064904,0.12422912,0.47672197,0.5068456,-0.17654811,0.50808936,0.3245022,-0.06889876,-0.5676778,0.2614191,-0.0343787,770.80585,791.75824,795.38464,762.3443,789.7436,0.2425537109375,0.2706298828125,0.96295166015625,0.515899658203125,4.194488525390625,7.798309326171875,1,1.0,1.0,1.0,1.0,10.00
2024-10-11 20:44:35.841,0.57377666,0.35006782,-0.007192829,0.68812966,0.10972424,-0.15481919,-0.36117384,0.056641687,0.6625036,0.21064904,0.12422912,0.47672197,0.5068456,-0.17654811,0.50808936,0.3245022,-0.06889876,-0.5676778,0.2614191,-0.0343787,786.1172,793.7729,795.78754,767.98535,702.71063,0.2425537109375,0.2706298828125,0.96295166015625,0.515899658203125,4.194488525390625,7.798309326171875,1,1.0,1.0,1.0,1.0,10.00
2024-10-11 20:44:35.842,0.57377666,0.35006782,-0.007192829,0.68812966,0.10972424,-0.15481919,-0.36117384,0.056641687,0.6625036,0.21064904,0.12422912,0.47672197,0.5068456,-0.17654811,0.50808936,0.3245022,-0.06889876,-0.5676778,0.2614191,-0.0343787,794.17584,792.1612,792.1612,780.87915,922.3077,0.2425537109375,0.2706298828125,0.96295166015625,0.515899658203125,4.194488525390625,7.798309326171875,1,1.0,1.0,1.0,1.0,10.00
2024-10-11 20:44:35.843,0.57377666,0.35006782,-0.007192829,0.68812966,0.10972424,-0.15481919,-0.36117384,0.056641687,0.6625036,0.21064904,0.12422912,0.47672197,0.5068456,-0.17654811,0.50808936,0.3245022,-0.06889876,-0.5676778,0.2614191,-0.0343787,792.1612,789.34064,790.9524,790.9524,784.10254,0.2425537109375,0.2706298828125,0.96295166015625,0.515899658203125,4.194488525390625,7.798309326171875,1,1.0,1.0,1.0,1.0,10.00
2024-10-11 20:44:35.844,0.57377666,0.35006782,-0.007192829,0.68812966,0.10972424,-0.15481919,-0.36117384,0.056641687,0.6625036,0.21064904,0.12422912,0.47672197,0.5068456,-0.17654811,0.50808936,0.3245022,-0.06889876,-0.5676778,0.2614191,-0.0343787,789.34064,794.9817,805.05493,794.17584,767.98535,0.2425537109375,0.2706298828125,0.96295166015625,0.515899658203125,4.194488525390625,7.798309326171875,1,1.0,1.0,1.0,1.0,10.00
2024-10-11 20:44:35.872,0.57377666,0.35006782,-0.007192829,0.68812966,0.10972424,-0.15481919,-0.36117384,0.056641687,0.6625036,0.21064904,0.12422912,0.47672197,0.5068456,-0.17654811,0.50808936,0.3245022,-0.06889876,-0.5676778,0.2614191,-0.0343787,781.28204,797.3993,812.3077,796.99634,970.65936,0.23297119140625,0.26324462890625,0.96197509765625,-5.24871826171875,5.1739501953125,5.39825439453125,1,1.0,1.0,1.0,1.0,10.00
2024-10-11 20:44:35.873,0.57377666,0.35006782,-0.007192829,0.68812966,0.10972424,-0.15481919,-0.36117384,0.056641687,0.6625036,0.21064904,0.12422912,0.47672197,0.5068456,-0.17654811,0.50808936,0.3245022,-0.06889876,-0.5676778,0.2614191,-0.0343787,778.86444,791.3553,808.68134,802.6374,892.49084,0.23297119140625,0.26324462890625,0.96197509765625,-5.24871826171875,5.1739501953125,5.39825439453125,1,1.0,1.0,1.0,1.0,10.00
2024-10-11 20:44:35.874,0.57377666,0.35006782,-0.007192829,0.68812966,0.10972424,-0.15481919,-0.36117384,0.056641687,0.6625036,0.21064904,0.12422912,0.47672197,0.5068456,-0.17654811,0.50808936,0.3245022,-0.06889876,-0.5676778,0.2614191,-0.0343787,781.685,791.3553,809.0842,803.44324,697.0696,0.23297119140625,0.26324462890625,0.96197509765625,-5.24871826171875,5.1739501953125,5.39825439453125,1,1.0,1.0,1.0,1.0,10.00
2024-10-11 20:44:35.874,0.57377666,0.35006782,-0.007192829,0.68812966,0.10972424,-0.15481919,-0.36117384,0.056641687,0.6625036,0.21064904,0.12422912,0.47672197,0.5068456,-0.17654811,0.50808936,0.3245022,-0.06889876,-0.5676778,0.2614191,-0.0343787,787.72894,794.9817,810.696,807.8755,681.75824,0.23297119140625,0.26324462890625,0.96197509765625,-5.24871826171875,5.1739501953125,5.39825439453125,1,1.0,1.0,1.0,1.0,10.00
2024-10-11 20:44:35.875,0.57377666,0.35006782,-0.007192829,0.68812966,0.10972424,-0.15481919,-0.36117384,0.056641687,0.6625036,0.21064904,0.12422912,0.47672197,0.5068456,-0.17654811,0.50808936,0.3245022,-0.06889876,-0.5676778,0.2614191,-0.0343787,789.34064,795.78754,807.0696,813.1135,784.10254,0.23297119140625,0.26324462890625,0.96197509765625,-5.24871826171875,5.1739501953125,5.39825439453125,1,1.0,1.0,1.0,1.0,10.00
2024-10-11 20:44:35.876,0.57377666,0.35006782,-0.007192829,0.68812966,0.10972424,-0.15481919,-0.36117384,0.056641687,0.6625036,0.21064904,0.12422912,0.47672197,0.5068456,-0.17654811,0.50808936,0.3245022,-0.06889876,-0.5676778,0.2614191,-0.0343787,791.3553,796.1905,806.26373,811.0989,961.79486,0.23297119140625,0.26324462890625,0.96197509765625,-5.24871826171875,5.1739501953125,5.39825439453125,1,1.0,1.0,1.0,1.0,10.00
2024-10-11 20:44:35.877,0.57377666,0.35006782,-0.007192829,0.68812966,0.10972424,-0.15481919,-0.36117384,0.056641687,0.6625036,0.21064904,0.12422912,0.47672197,0.5068456,-0.17654811,0.50808936,0.3245022,-0.06889876,-0.5676778,0.2614191,-0.0343787,795.78754,796.99634,803.0403,806.26373,844.94507,0.23297119140625,0.26324462890625,0.96197509765625,-5.24871826171875,5.1739501953125,5.39825439453125,1,1.0,1.0,1.0,1.0,10.00
2024-10-11 20:44:35.878,0.57377666,0.35006782,-0.007192829,0.68812966,0.10972424,-0.15481919,-0.36117384,0.056641687,0.6625036,0.21064904,0.12422912,0.47672197,0.5068456,-0.17654811,0.50808936,0.3245022,-0.06889876,-0.5676778,0.2614191,-0.0343787,797.8022,794.9817,798.20514,802.23444,688.60803,0.23297119140625,0.26324462890625,0.96197509765625,-5.24871826171875,5.1739501953125,5.39825439453125,1,1.0,1.0,1.0,1.0,10.00
2024-10-11 20:44:35.879,0.57377666,0.35006782,-0.007192829,0.68812966,0.10972424,-0.15481919,-0.36117384,0.056641687,0.6625036,0.21064904,0.12422912,0.47672197,0.5068456,-0.17654811,0.50808936,0.3245022,-0.06889876,-0.5676778,0.2614191,-0.0343787,788.93774,794.9817,797.8022,803.0403,780.07324,0.23297119140625,0.26324462890625,0.96197509765625,-5.24871826171875,5.1739501953125,5.39825439453125,1,1.0,1.0,1.0,1.0,10.00
2024-10-11 20:44:35.880,0.622269,0.38643622,-0.022738004,0.68812966,0.16011822,-0.13206935,-0.32839695,0.056641687,0.7149804,0.19404404,0.09053463,0.47672197,0.48854166,-0.19277243,0.51192474,0.3245022,-0.079233155,-0.53675824,0.24153975,-0.0343787,785.7143,797.3993,798.60803,796.1905,674.5055,0.23297119140625,0.26324462890625,0.96197509765625,-5.24871826171875,5.1739501953125,5.39825439453125,1,1.0,1.0,1.0,1.0,10.00
2024-10-11 20:44:35.886,0.622269,0.38643622,-0.022738004,0.68812966,0.16011822,-0.13206935,-0.32839695,0.056641687,0.7149804,0.19404404,0.09053463,0.47672197,0.48854166,-0.19277243,0.51192474,0.3245022,-0.079233155,-0.53675824,0.24153975,-0.0343787,799.011,795.78754,789.34064,795.38464,494.79852,0.23297119140625,0.26324462890625,0.96197509765625,-5.24871826171875,5.1739501953125,5.39825439453125,1,1.0,1.0,1.0,1.0,10.00
2024-10-11 20:44:35.887,0.622269,0.38643622,-0.022738004,0.68812966,0.16011822,-0.13206935,-0.32839695,0.056641687,0.7149804,0.19404404,0.09053463,0.47672197,0.48854166,-0.19277243,0.51192474,0.3245022,-0.079233155,-0.53675824,0.24153975,-0.0343787,794.17584,791.75824,796.1905,798.20514,429.92673,0.23297119140625,0.26324462890625,0.96197509765625,-5.24871826171875,5.1739501953125,5.39825439453125,1,1.0,1.0,1.0,1.0,10.00
2024-10-11 20:44:35.953,0.622269,0.38643622,-0.022738004,0.68812966,0.16011822,-0.13206935,-0.32839695,0.056641687,0.7149804,0.19404404,0.09053463,0.47672197,0.48854166,-0.19277243,0.51192474,0.3245022,-0.079233155,-0.53675824,0.24153975,-0.0343787,791.75824,791.75824,812.71063,792.5641,701.9048,0.23297119140625,0.26324462890625,0.96197509765625,-5.24871826171875,5.1739501953125,5.39825439453125,1,1.0,1.0,1.0,1.0,10.00
2024-10-11 20:44:35.955,0.622269,0.38643622,-0.022738004,0.68812966,0.16011822,-0.13206935,-0.32839695,0.056641687,0.7149804,0.19404404,0.09053463,0.47672197,0.48854166,-0.19277243,0.51192474,0.3245022,-0.079233155,-0.53675824,0.24153975,-0.0343787,799.011,790.9524,799.41394,780.87915,888.46155,0.23297119140625,0.26324462890625,0.96197509765625,-5.24871826171875,5.1739501953125,5.39825439453125,1,1.0,1.0,1.0,1.0,10.00
2024-10-11 20:44:35.956,0.622269,0.38643622,-0.022738004,0.68812966,0.16011822,-0.13206935,-0.32839695,0.056641687,0.7149804,0.19404404,0.09053463,0.47672197,0.48854166,-0.19277243,0.51192474,0.3245022,-0.079233155,-0.53675824,0.24153975,-0.0343787,796.5934,793.7729,789.7436,774.0293,618.0952,0.23297119140625,0.26324462890625,0.96197509765625,-5.24871826171875,5.1739501953125,5.39825439453125,1,1.0,1.0,1.0,1.0,10.00
2024-10-11 20:44:35.957,0.622269,0.38643622,-0.022738004,0.68812966,0.16011822,-0.13206935,-0.32839695,0.056641687,0.7149804,0.19404404,0.09053463,0.47672197,0.48854166,-0.19277243,0.51192474,0.3245022,-0.079233155,-0.53675824,0.24153975,-0.0343787,793.7729,796.99634,803.8461,781.28204,643.8828,0.23297119140625,0.26324462890625,0.96197509765625,-5.24871826171875,5.1739501953125,5.39825439453125,1,1.0,1.0,1.0,1.0,10.00
2024-10-11 20:44:35.958,0.622269,0.38643622,-0.022738004,0.68812966,0.16011822,-0.13206935,-0.32839695,0.056641687,0.7149804,0.19404404,0.09053463,0.47672197,0.48854166,-0.19277243,0.51192474,0.3245022,-0.079233155,-0.53675824,0.24153975,-0.0343787,802.23444,794.9817,808.2784,792.96704,984.7619,0.23297119140625,0.26324462890625,0.96197509765625,-5.24871826171875,5.1739501953125,5.39825439453125,1,1.0,1.0,1.0,1.0,10.00
2024-10-11 20:44:35.958,0.622269,0.38643622,-0.022738004,0.68812966,0.16011822,-0.13206935,-0.32839695,0.056641687,0.7149804,0.19404404,0.09053463,0.47672197,0.48854166,-0.19277243,0.51192474,0.3245022,-0.079233155,-0.53675824,0.24153975,-0.0343787,797.8022,792.96704,803.44324,791.3553,1298.6447,0.23297119140625,0.26324462890625,0.96197509765625,-5.24871826171875,5.1739501953125,5.39825439453125,1,1.0,1.0,1.0,1.0,10.00
2024-10-11 20:44:35.959,0.622269,0.38643622,-0.022738004,0.68812966,0.16011822,-0.13206935,-0.32839695,0.056641687,0.7149804,0.19404404,0.09053463,0.47672197,0.48854166,-0.19277243,0.51192474,0.3245022,-0.079233155,-0.53675824,0.24153975,-0.0343787,792.5641,798.60803,803.44324,781.685,1005.31134,0.23297119140625,0.26324462890625,0.96197509765625,-5.24871826171875,5.1739501953125,5.39825439453125,1,1.0,1.0,1.0,1.0,10.00
2024-10-11 20:44:35.961,0.622269,0.38643622,-0.022738004,0.68812966,0.16011822,-0.13206935,-0.32839695,0.056641687,0.7149804,0.19404404,0.09053463,0.47672197,0.48854166,-0.19277243,0.51192474,0.3245022,-0.079233155,-0.53675824,0.24153975,-0.0343787,800.6227,801.4286,804.2491,783.2967,708.3516,0.23297119140625,0.26324462890625,0.96197509765625,-5.24871826171875,5.1739501953125,5.39825439453125,1,1.0,1.0,1.0,1.0,10.00
2024-10-11 20:44:35.962,0.622269,0.38643622,-0.022738004,0.68812966,0.16011822,-0.13206935,-0.32839695,0.056641687,0.7149804,0.19404404,0.09053463,0.47672197,0.48854166,-0.19277243,0.51192474,0.3245022,-0.079233155,-0.53675824,0.24153975,-0.0343787,811.50183,800.6227,797.3993,789.34064,925.5311,0.23297119140625,0.26324462890625,0.96197509765625,-5.24871826171875,5.1739501953125,5.39825439453125,1,1.0,1.0,1.0,1.0,10.00
2024-10-11 20:44:35.963,0.622269,0.38643622,-0.022738004,0.68812966,0.16011822,-0.13206935,-0.32839695,0.056641687,0.7149804,0.19404404,0.09053463,0.47672197,0.48854166,-0.19277243,0.51192474,0.3245022,-0.079233155,-0.53675824,0.24153975,-0.0343787,817.1429,801.8315,795.38464,788.1319,811.50183,0.23297119140625,0.26324462890625,0.96197509765625,-5.24871826171875,5.1739501953125,5.39825439453125,1,1.0,1.0,1.0,1.0,10.00
2024-10-11 20:44:35.964,0.622269,0.38643622,-0.022738004,0.68812966,0.16011822,-0.13206935,-0.32839695,0.056641687,0.7149804,0.19404404,0.09053463,0.47672197,0.48854166,-0.19277243,0.51192474,0.3245022,-0.079233155,-0.53675824,0.24153975,-0.0343787,803.8461,800.2198,806.26373,776.4469,545.56775,0.23297119140625,0.26324462890625,0.96197509765625,-5.24871826171875,5.1739501953125,5.39825439453125,1,1.0,1.0,1.0,1.0,10.00
2024-10-11 20:44:35.965,0.622269,0.38643622,-0.022738004,0.68812966,0.16011822,-0.13206935,-0.32839695,0.056641687,0.7149804,0.19404404,0.09053463,0.47672197,0.48854166,-0.19277243,0.51192474,0.3245022,-0.079233155,-0.53675824,0.24153975,-0.0343787,796.5934,795.38464,810.696,773.22345,640.65936,0.23297119140625,0.26324462890625,0.96197509765625,-5.24871826171875,5.1739501953125,5.39825439453125,1,1.0,1.0,1.0,1.0,10.00
2024-10-11 20:44:35.967,0.622269,0.38643622,-0.022738004,0.68812966,0.16011822,-0.13206935,-0.32839695,0.056641687,0.7149804,0.19404404,0.09053463,0.47672197,0.48854166,-0.19277243,0.51192474,0.3245022,-0.079233155,-0.53675824,0.24153975,-0.0343787,803.0403,790.9524,804.65204,788.5348,879.19415,0.229248046875,0.2373046875,0.96893310546875,-10.205841064453125,6.063690185546875,2.3028564453125,1,1.0,1.0,1.0,1.0,10.00
2024-10-11 20:44:35.971,0.622269,0.38643622,-0.022738004,0.68812966,0.16011822,-0.13206935,-0.32839695,0.056641687,0.7149804,0.19404404,0.09053463,0.47672197,0.48854166,-0.19277243,0.51192474,0.3245022,-0.079233155,-0.53675824,0.24153975,-0.0343787,803.8461,793.7729,802.6374,790.54944,780.87915,0.229248046875,0.2373046875,0.96893310546875,-10.205841064453125,6.063690185546875,2.3028564453125,1,1.0,1.0,1.0,1.0,10.00
2024-10-11 20:44:35.972,0.622269,0.38643622,-0.022738004,0.68812966,0.16011822,-0.13206935,-0.32839695,0.056641687,0.7149804,0.19404404,0.09053463,0.47672197,0.48854166,-0.19277243,0.51192474,0.3245022,-0.079233155,-0.53675824,0.24153975,-0.0343787,797.3993,794.57874,799.011,790.54944,685.38464,0.229248046875,0.2373046875,0.96893310546875,-10.205841064453125,6.063690185546875,2.3028564453125,1,1.0,1.0,1.0,1.0,10.00
2024-10-11 20:44:35.973,0.622269,0.38643622,-0.022738004,0.68812966,0.16011822,-0.13206935,-0.32839695,0.056641687,0.7149804,0.19404404,0.09053463,0.47672197,0.48854166,-0.19277243,0.51192474,0.3245022,-0.079233155,-0.53675824,0.24153975,-0.0343787,793.36993,793.7729,795.38464,797.8022,678.5348,0.229248046875,0.2373046875,0.96893310546875,-10.205841064453125,6.063690185546875,2.3028564453125,1,1.0,1.0,1.0,1.0,10.00
2024-10-11 20:44:35.974,0.622269,0.38643622,-0.022738004,0.68812966,0.16011822,-0.13206935,-0.32839695,0.056641687,0.7149804,0.19404404,0.09053463,0.47672197,0.48854166,-0.19277243,0.51192474,0.3245022,-0.079233155,-0.53675824,0.24153975,-0.0343787,801.8315,799.81683,788.1319,801.4286,757.50916,0.229248046875,0.2373046875,0.96893310546875,-10.205841064453125,6.063690185546875,2.3028564453125,1,1.0,1.0,1.0,1.0,10.00
2024-10-11 20:44:35.975,0.622269,0.38643622,-0.022738004,0.68812966,0.16011822,-0.13206935,-0.32839695,0.056641687,0.7149804,0.19404404,0.09053463,0.47672197,0.48854166,-0.19277243,0.51192474,0.3245022,-0.079233155,-0.53675824,0.24153975,-0.0343787,803.44324,798.60803,788.5348,806.6667,967.4359,0.229248046875,0.2373046875,0.96893310546875,-10.205841064453125,6.063690185546875,2.3028564453125,1,1.0,1.0,1.0,1.0,10.00
2024-10-11 20:44:35.976,0.622269,0.38643622,-0.022738004,0.68812966,0.16011822,-0.13206935,-0.32839695,0.056641687,0.7149804,0.19404404,0.09053463,0.47672197,0.48854166,-0.19277243,0.51192474,0.3245022,-0.079233155,-0.53675824,0.24153975,-0.0343787,795.38464,792.96704,797.8022,814.7253,899.7436,0.229248046875,0.2373046875,0.96893310546875,-10.205841064453125,6.063690185546875,2.3028564453125,1,1.0,1.0,1.0,1.0,10.00
2024-10-11 20:44:35.976,0.622269,0.38643622,-0.022738004,0.68812966,0.16011822,-0.13206935,-0.32839695,0.056641687,0.7149804,0.19404404,0.09053463,0.47672197,0.48854166,-0.19277243,0.51192474,0.3245022,-0.079233155,-0.53675824,0.24153975,-0.0343787,794.17584,791.75824,794.9817,816.337,861.4652,0.229248046875,0.2373046875,0.96893310546875,-10.205841064453125,6.063690185546875,2.3028564453125,1,1.0,1.0,1.0,1.0,10.00
2024-10-11 20:44:35.977,0.622269,0.38643622,-0.022738004,0.68812966,0.16011822,-0.13206935,-0.32839695,0.056641687,0.7149804,0.19404404,0.09053463,0.47672197,0.48854166,-0.19277243,0.51192474,0.3245022,-0.079233155,-0.53675824,0.24153975,-0.0343787,796.5934,792.5641,786.9231,814.3223,888.46155,0.229248046875,0.2373046875,0.96893310546875,-10.205841064453125,6.063690185546875,2.3028564453125,1,1.0,1.0,1.0,1.0,10.00
2024-10-11 20:44:35.978,0.622269,0.38643622,-0.022738004,0.68812966,0.16011822,-0.13206935,-0.32839695,0.056641687,0.7149804,0.19404404,0.09053463,0.47672197,0.48854166,-0.19277243,0.51192474,0.3245022,-0.079233155,-0.53675824,0.24153975,-0.0343787,803.0403,790.9524,788.5348,814.7253,675.7143,0.229248046875,0.2373046875,0.96893310546875,-10.205841064453125,6.063690185546875,2.3028564453125,1,1.0,1.0,1.0,1.0,10.00
2024-10-11 20:44:35.979,0.622269,0.38643622,-0.022738004,0.68812966,0.16011822,-0.13206935,-0.32839695,0.056641687,0.7149804,0.19404404,0.09053463,0.47672197,0.48854166,-0.19277243,0.51192474,0.3245022,-0.079233155,-0.53675824,0.24153975,-0.0343787,805.4579,790.54944,799.81683,821.978,650.32965,0.229248046875,0.2373046875,0.96893310546875,-10.205841064453125,6.063690185546875,2.3028564453125,1,1.0,1.0,1.0,1.0,10.00
2024-10-11 20:44:35.980,0.6719142,0.41548565,-0.021302352,0.68812966,0.22039402,-0.110908814,-0.29292917,0.056641687,0.7432534,0.16288102,0.06618571,0.47672197,0.47543845,-0.20256121,0.5211222,0.3245022,-0.09008591,-0.5113522,0.22448497,-0.0343787,798.60803,790.14655,810.696,823.5897,774.83514,0.229248046875,0.2373046875,0.96893310546875,-10.205841064453125,6.063690185546875,2.3028564453125,1,1.0,1.0,1.0,1.0,10.00
2024-10-11 20:44:36.013,0.6719142,0.41548565,-0.021302352,0.68812966,0.22039402,-0.110908814,-0.29292917,0.056641687,0.7432534,0.16288102,0.06618571,0.47672197,0.47543845,-0.20256121,0.5211222,0.3245022,-0.09008591,-0.5113522,0.22448497,-0.0343787,795.78754,791.75824,808.68134,819.9634,672.8938,0.23382568359375,0.21429443359375,0.97100830078125,-13.884429931640625,6.8487548828125,1.5252685546875,1,1.0,1.0,1.0,1.0,10.00
2024-10-11 20:44:36.014,0.6719142,0.41548565,-0.021302352,0.68812966,0.22039402,-0.110908814,-0.29292917,0.056641687,0.7432534,0.16288102,0.06618571,0.47672197,0.47543845,-0.20256121,0.5211222,0.3245022,-0.09008591,-0.5113522,0.22448497,-0.0343787,797.3993,794.9817,794.57874,817.9487,511.72162,0.23382568359375,0.21429443359375,0.97100830078125,-13.884429931640625,6.8487548828125,1.5252685546875,1,1.0,1.0,1.0,1.0,10.00
2024-10-11 20:44:36.015,0.6719142,0.41548565,-0.021302352,0.68812966,0.22039402,-0.110908814,-0.29292917,0.056641687,0.7432534,0.16288102,0.06618571,0.47672197,0.47543845,-0.20256121,0.5211222,0.3245022,-0.09008591,-0.5113522,0.22448497,-0.0343787,800.2198,797.8022,797.8022,820.7692,531.8681,0.23382568359375,0.21429443359375,0.97100830078125,-13.884429931640625,6.8487548828125,1.5252685546875,1,1.0,1.0,1.0,1.0,10.00
2024-10-11 20:44:36.016,0.6719142,0.41548565,-0.021302352,0.68812966,0.22039402,-0.110908814,-0.29292917,0.056641687,0.7432534,0.16288102,0.06618571,0.47672197,0.47543845,-0.20256121,0.5211222,0.3245022,-0.09008591,-0.5113522,0.22448497,-0.0343787,802.23444,799.011,801.02563,824.3956,679.34064,0.23382568359375,0.21429443359375,0.97100830078125,-13.884429931640625,6.8487548828125,1.5252685546875,1,1.0,1.0,1.0,1.0,10.00
2024-10-11 20:44:36.017,0.6719142,0.41548565,-0.021302352,0.68812966,0.22039402,-0.110908814,-0.29292917,0.056641687,0.7432534,0.16288102,0.06618571,0.47672197,0.47543845,-0.20256121,0.5211222,0.3245022,-0.09008591,-0.5113522,0.22448497,-0.0343787,805.05493,798.60803,801.4286,819.15753,557.6557,0.23382568359375,0.21429443359375,0.97100830078125,-13.884429931640625,6.8487548828125,1.5252685546875,1,1.0,1.0,1.0,1.0,10.00
2024-10-11 20:44:36.018,0.6719142,0.41548565,-0.021302352,0.68812966,0.22039402,-0.110908814,-0.29292917,0.056641687,0.7432534,0.16288102,0.06618571,0.47672197,0.47543845,-0.20256121,0.5211222,0.3245022,-0.09008591,-0.5113522,0.22448497,-0.0343787,809.89014,798.20514,794.9817,811.50183,533.8828,0.23382568359375,0.21429443359375,0.97100830078125,-13.884429931640625,6.8487548828125,1.5252685546875,1,1.0,1.0,1.0,1.0,10.00
2024-10-11 20:44:36.019,0.6719142,0.41548565,-0.021302352,0.68812966,0.22039402,-0.110908814,-0.29292917,0.056641687,0.7432534,0.16288102,0.06618571,0.47672197,0.47543845,-0.20256121,0.5211222,0.3245022,-0.09008591,-0.5113522,0.22448497,-0.0343787,812.71063,800.2198,791.3553,813.5165,781.685,0.23382568359375,0.21429443359375,0.97100830078125,-13.884429931640625,6.8487548828125,1.5252685546875,1,1.0,1.0,1.0,1.0,10.00
2024-10-11 20:44:36.019,0.6719142,0.41548565,-0.021302352,0.68812966,0.22039402,-0.110908814,-0.29292917,0.056641687,0.7432534,0.16288102,0.06618571,0.47672197,0.47543845,-0.20256121,0.5211222,0.3245022,-0.09008591,-0.5113522,0.22448497,-0.0343787,818.7546,799.81683,802.6374,809.4872,844.94507,0.23382568359375,0.21429443359375,0.97100830078125,-13.884429931640625,6.8487548828125,1.5252685546875,1,1.0,1.0,1.0,1.0,10.00
2024-10-11 20:44:36.020,0.6719142,0.41548565,-0.021302352,0.68812966,0.22039402,-0.110908814,-0.29292917,0.056641687,0.7432534,0.16288102,0.06618571,0.47672197,0.47543845,-0.20256121,0.5211222,0.3245022,-0.09008591,-0.5113522,0.22448497,-0.0343787,827.2161,797.8022,800.2198,793.36993,647.1062,0.23382568359375,0.21429443359375,0.97100830078125,-13.884429931640625,6.8487548828125,1.5252685546875,1,1.0,1.0,1.0,1.0,10.00
2024-10-11 20:44:36.021,0.6719142,0.41548565,-0.021302352,0.68812966,0.22039402,-0.110908814,-0.29292917,0.056641687,0.7432534,0.16288102,0.06618571,0.47672197,0.47543845,-0.20256121,0.5211222,0.3245022,-0.09008591,-0.5113522,0.22448497,-0.0343787,820.7692,799.011,798.20514,793.7729,557.6557,0.23382568359375,0.21429443359375,0.97100830078125,-13.884429931640625,6.8487548828125,1.5252685546875,1,1.0,1.0,1.0,1.0,10.00
2024-10-11 20:44:36.021,0.6719142,0.41548565,-0.021302352,0.68812966,0.22039402,-0.110908814,-0.29292917,0.056641687,0.7432534,0.16288102,0.06618571,0.47672197,0.47543845,-0.20256121,0.5211222,0.3245022,-0.09008591,-0.5113522,0.22448497,-0.0343787,815.5311,801.02563,795.78754,801.8315,653.95605,0.23382568359375,0.21429443359375,0.97100830078125,-13.884429931640625,6.8487548828125,1.5252685546875,1,1.0,1.0,1.0,1.0,10.00
2024-10-11 20:44:36.022,0.6719142,0.41548565,-0.021302352,0.68812966,0.22039402,-0.110908814,-0.29292917,0.056641687,0.7432534,0.16288102,0.06618571,0.47672197,0.47543845,-0.20256121,0.5211222,0.3245022,-0.09008591,-0.5113522,0.22448497,-0.0343787,819.9634,801.02563,779.2674,805.05493,1056.8865,0.23382568359375,0.21429443359375,0.97100830078125,-13.884429931640625,6.8487548828125,1.5252685546875,1,1.0,1.0,1.0,1.0,10.00
2024-10-11 20:44:36.090,0.6719142,0.41548565,-0.021302352,0.68812966,0.22039402,-0.110908814,-0.29292917,0.056641687,0.7432534,0.16288102,0.06618571,0.47672197,0.47543845,-0.20256121,0.5211222,0.3245022,-0.09008591,-0.5113522,0.22448497,-0.0343787,819.5604,803.8461,753.47986,814.3223,1189.0476,0.22607421875,0.1856689453125,0.96929931640625,-16.546173095703125,7.588958740234375,2.82623291015625,1,1.0,1.0,1.0,1.0,10.00
2024-10-11 20:44:36.091,0.6719142,0.41548565,-0.021302352,0.68812966,0.22039402,-0.110908814,-0.29292917,0.056641687,0.7432534,0.16288102,0.06618571,0.47672197,0.47543845,-0.20256121,0.5211222,0.3245022,-0.09008591,-0.5113522,0.22448497,-0.0343787,822.381,807.8755,772.01465,811.9048,671.685,0.22607421875,0.1856689453125,0.96929931640625,-16.546173095703125,7.588958740234375,2.82623291015625,1,1.0,1.0,1.0,1.0,10.00
2024-10-11 20:44:36.091,0.6719142,0.41548565,-0.021302352,0.68812966,0.22039402,-0.110908814,-0.29292917,0.056641687,0.7432534,0.16288102,0.06618571,0.47672197,0.47543845,-0.20256121,0.5211222,0.3245022,-0.09008591,-0.5113522,0.22448497,-0.0343787,817.9487,805.4579,821.978,807.47253,496.8132,0.22607421875,0.1856689453125,0.96929931640625,-16.546173095703125,7.588958740234375,2.82623291015625,1,1.0,1.0,1.0,1.0,10.00
2024-10-11 20:44:36.092,0.6719142,0.41548565,-0.021302352,0.68812966,0.22039402,-0.110908814,-0.29292917,0.056641687,0.7432534,0.16288102,0.06618571,0.47672197,0.47543845,-0.20256121,0.5211222,0.3245022,-0.09008591,-0.5113522,0.22448497,-0.0343787,817.1429,803.0403,837.28937,810.293,655.9707,0.22607421875,0.1856689453125,0.96929931640625,-16.546173095703125,7.588958740234375,2.82623291015625,1,1.0,1.0,1.0,1.0,10.00
2024-10-11 20:44:36.093,0.6719142,0.41548565,-0.021302352,0.68812966,0.22039402,-0.110908814,-0.29292917,0.056641687,0.7432534,0.16288102,0.06618571,0.47672197,0.47543845,-0.20256121,0.5211222,0.3245022,-0.09008591,-0.5113522,0.22448497,-0.0343787,826.4103,802.23444,830.84247,813.5165,636.63007,0.22607421875,0.1856689453125,0.96929931640625,-16.546173095703125,7.588958740234375,2.82623291015625,1,1.0,1.0,1.0,1.0,10.00
2024-10-11 20:44:36.094,0.6719142,0.41548565,-0.021302352,0.68812966,0.22039402,-0.110908814,-0.29292917,0.056641687,0.7432534,0.16288102,0.06618571,0.47672197,0.47543845,-0.20256121,0.5211222,0.3245022,-0.09008591,-0.5113522,0.22448497,-0.0343787,812.3077,801.4286,816.7399,815.5311,570.14655,0.22607421875,0.1856689453125,0.96929931640625,-16.546173095703125,7.588958740234375,2.82623291015625,1,1.0,1.0,1.0,1.0,10.00
2024-10-11 20:44:36.094,0.6719142,0.41548565,-0.021302352,0.68812966,0.22039402,-0.110908814,-0.29292917,0.056641687,0.7432534,0.16288102,0.06618571,0.47672197,0.47543845,-0.20256121,0.5211222,0.3245022,-0.09008591,-0.5113522,0.22448497,-0.0343787,812.71063,800.2198,801.4286,817.5458,850.989,0.22607421875,0.1856689453125,0.96929931640625,-16.546173095703125,7.588958740234375,2.82623291015625,1,1.0,1.0,1.0,1.0,10.00
2024-10-11 20:44:36.095,0.6719142,0.41548565,-0.021302352,0.68812966,0.22039402,-0.110908814,-0.29292917,0.056641687,0.7432534,0.16288102,0.06618571,0.47672197,0.47543845,-0.20256121,0.5211222,0.3245022,-0.09008591,-0.5113522,0.22448497,-0.0343787,808.68134,801.02563,799.011,823.1868,1152.7839,0.22607421875,0.1856689453125,0.96929931640625,-16.546173095703125,7.588958740234375,2.82623291015625,1,1.0,1.0,1.0,1.0,10.00
2024-10-11 20:44:36.096,0.6719142,0.41548565,-0.021302352,0.68812966,0.22039402,-0.110908814,-0.29292917,0.056641687,0.7432534,0.16288102,0.06618571,0.47672197,0.47543845,-0.20256121,0.5211222,0.3245022,-0.09008591,-0.5113522,0.22448497,-0.0343787,801.02563,799.011,800.6227,821.978,765.56775,0.22607421875,0.1856689453125,0.96929931640625,-16.546173095703125,7.588958740234375,2.82623291015625,1,1.0,1.0,1.0,1.0,10.00
2024-10-11 20:44:36.097,0.6719142,0.41548565,-0.021302352,0.68812966,0.22039402,-0.110908814,-0.29292917,0.056641687,0.7432534,0.16288102,0.06618571,0.47672197,0.47543845,-0.20256121,0.5211222,0.3245022,-0.09008591,-0.5113522,0.22448497,-0.0343787,802.6374,793.7729,804.2491,817.5458,506.88644,0.22607421875,0.1856689453125,0.96929931640625,-16.546173095703125,7.588958740234375,2.82623291015625,1,1.0,1.0,1.0,1.0,10.00
2024-10-11 20:44:36.098,0.6719142,0.41548565,-0.021302352,0.68812966,0.22039402,-0.110908814,-0.29292917,0.056641687,0.7432534,0.16288102,0.06618571,0.47672197,0.47543845,-0.20256121,0.5211222,0.3245022,-0.09008591,-0.5113522,0.22448497,-0.0343787,807.0696,794.17584,808.68134,813.1135,660.40295,0.22607421875,0.1856689453125,0.96929931640625,-16.546173095703125,7.588958740234375,2.82623291015625,1,1.0,1.0,1.0,1.0,10.00
2024-10-11 20:44:36.099,0.6719142,0.41548565,-0.021302352,0.68812966,0.22039402,-0.110908814,-0.29292917,0.056641687,0.7432534,0.16288102,0.06618571,0.47672197,0.47543845,-0.20256121,0.5211222,0.3245022,-0.09008591,-0.5113522,0.22448497,-0.0343787,807.8755,795.38464,808.2784,812.71063,726.08057,0.22607421875,0.1856689453125,0.96929931640625,-16.546173095703125,7.588958740234375,2.82623291015625,1,1.0,1.0,1.0,1.0,10.00
2024-10-11 20:44:36.203,0.6719142,0.41548565,-0.021302352,0.68812966,0.22039402,-0.110908814,-0.29292917,0.056641687,0.7432534,0.16288102,0.06618571,0.47672197,0.47543845,-0.20256121,0.5211222,0.3245022,-0.09008591,-0.5113522,0.22448497,-0.0343787,800.6227,794.17584,813.91943,816.7399,642.27106,0.2120361328125,0.16180419921875,0.977783203125,-18.40789794921875,9.353485107421875,3.7384033203125,1,1.0,1.0,1.0,1.0,10.00
2024-10-11 20:44:36.204,0.70851856,0.43977034,-0.0016883851,0.68812966,0.27041295,-0.09454997,-0.2523996,0.056641687,0.7497577,0.14909682,0.045927446,0.47672197,0.46499047,-0.20778821,0.5349143,0.3245022,-0.09335086,-0.49336907,0.21425395,-0.0343787,798.20514,796.99634,815.5311,810.293,557.25275,0.2120361328125,0.16180419921875,0.977783203125,-18.40789794921875,9.353485107421875,3.7384033203125,1,1.0,1.0,1.0,1.0,10.00
2024-10-11 20:44:36.210,0.70851856,0.43977034,-0.0016883851,0.68812966,0.27041295,-0.09454997,-0.2523996,0.056641687,0.7497577,0.14909682,0.045927446,0.47672197,0.46499047,-0.20778821,0.5349143,0.3245022,-0.09335086,-0.49336907,0.21425395,-0.0343787,796.1905,797.3993,798.60803,809.89014,770.0,0.2120361328125,0.16180419921875,0.977783203125,-18.40789794921875,9.353485107421875,3.7384033203125,1,1.0,1.0,1.0,1.0,10.00
2024-10-11 20:44:36.211,0.70851856,0.43977034,-0.0016883851,0.68812966,0.27041295,-0.09454997,-0.2523996,0.056641687,0.7497577,0.14909682,0.045927446,0.47672197,0.46499047,-0.20778821,0.5349143,0.3245022,-0.09335086,-0.49336907,0.21425395,-0.0343787,798.20514,798.60803,796.5934,815.9341,783.2967,0.2120361328125,0.16180419921875,0.977783203125,-18.40789794921875,9.353485107421875,3.7384033203125,1,1.0,1.0,1.0,1.0,10.00
2024-10-11 20:44:36.212,0.70851856,0.43977034,-0.0016883851,0.68812966,0.27041295,-0.09454997,-0.2523996,0.056641687,0.7497577,0.14909682,0.045927446,0.47672197,0.46499047,-0.20778821,0.5349143,0.3245022,-0.09335086,-0.49336907,0.21425395,-0.0343787,800.6227,801.4286,809.4872,812.71063,554.83514,0.2120361328125,0.16180419921875,0.977783203125,-18.40789794921875,9.353485107421875,3.7384033203125,1,1.0,1.0,1.0,1.0,10.00
2024-10-11 20:44:36.213,0.70851856,0.43977034,-0.0016883851,0.68812966,0.27041295,-0.09454997,-0.2523996,0.056641687,0.7497577,0.14909682,0.045927446,0.47672197,0.46499047,-0.20778821,0.5349143,0.3245022,-0.09335086,-0.49336907,0.21425395,-0.0343787,793.7729,795.78754,799.011,803.0403,671.685,0.2120361328125,0.16180419921875,0.977783203125,-18.40789794921875,9.353485107421875,3.7384033203125,1,1.0,1.0,1.0,1.0,10.00
2024-10-11 20:44:36.214,0.70851856,0.43977034,-0.0016883851,0.68812966,0.27041295,-0.09454997,-0.2523996,0.056641687,0.7497577,0.14909682,0.045927446,0.47672197,0.46499047,-0.20778821,0.5349143,0.3245022,-0.09335086,-0.49336907,0.21425395,-0.0343787,796.99634,790.14655,782.49084,795.38464,905.78754,0.2120361328125,0.16180419921875,0.977783203125,-18.40789794921875,9.353485107421875,3.7384033203125,1,1.0,1.0,1.0,1.0,10.00
2024-10-11 20:44:36.215,0.70851856,0.43977034,-0.0016883851,0.68812966,0.27041295,-0.09454997,-0.2523996,0.056641687,0.7497577,0.14909682,0.045927446,0.47672197,0.46499047,-0.20778821,0.5349143,0.3245022,-0.09335086,-0.49336907,0.21425395,-0.0343787,798.60803,794.57874,785.7143,785.7143,771.6117,0.2120361328125,0.16180419921875,0.977783203125,-18.40789794921875,9.353485107421875,3.7384033203125,1,1.0,1.0,1.0,1.0,10.00
2024-10-11 20:44:36.216,0.70851856,0.43977034,-0.0016883851,0.68812966,0.27041295,-0.09454997,-0.2523996,0.056641687,0.7497577,0.14909682,0.045927446,0.47672197,0.46499047,-0.20778821,0.5349143,0.3245022,-0.09335086,-0.49336907,0.21425395,-0.0343787,793.7729,798.20514,797.8022,790.14655,551.2088,0.2120361328125,0.16180419921875,0.977783203125,-18.40789794921875,9.353485107421875,3.7384033203125,1,1.0,1.0,1.0,1.0,10.00
2024-10-11 20:44:36.216,0.70851856,0.43977034,-0.0016883851,0.68812966,0.27041295,-0.09454997,-0.2523996,0.056641687,0.7497577,0.14909682,0.045927446,0.47672197,0.46499047,-0.20778821,0.5349143,0.3245022,-0.09335086,-0.49336907,0.21425395,-0.0343787,786.9231,795.78754,800.2198,792.96704,534.68866,0.2120361328125,0.16180419921875,0.977783203125,-18.40789794921875,9.353485107421875,3.7384033203125,1,1.0,1.0,1.0,1.0,10.00
2024-10-11 20:44:36.217,0.70851856,0.43977034,-0.0016883851,0.68812966,0.27041295,-0.09454997,-0.2523996,0.056641687,0.7497577,0.14909682,0.045927446,0.47672197,0.46499047,-0.20778821,0.5349143,0.3245022,-0.09335086,-0.49336907,0.21425395,-0.0343787,786.52014,794.9817,797.8022,787.72894,679.7436,0.2120361328125,0.16180419921875,0.977783203125,-18.40789794921875,9.353485107421875,3.7384033203125,1,1.0,1.0,1.0,1.0,10.00
2024-10-11 20:44:36.218,0.70851856,0.43977034,-0.0016883851,0.68812966,0.27041295,-0.09454997,-0.2523996,0.056641687,0.7497577,0.14909682,0.045927446,0.47672197,0.46499047,-0.20778821,0.5349143,0.3245022,-0.09335086,-0.49336907,0.21425395,-0.0343787,789.34064,795.78754,784.10254,785.31134,700.293,0.2120361328125,0.16180419921875,0.977783203125,-18.40789794921875,9.353485107421875,3.7384033203125,1,1.0,1.0,1.0,1.0,10.00
2024-10-11 20:44:36.321,0.70851856,0.43977034,-0.0016883851,0.68812966,0.27041295,-0.09454997,-0.2523996,0.056641687,0.7497577,0.14909682,0.045927446,0.47672197,0.46499047,-0.20778821,0.5349143,0.3245022,-0.09335086,-0.49336907,0.21425395,-0.0343787,788.93774,796.99634,793.36993,785.31134,579.81683,0.19091796875,0.1300048828125,0.986328125,-20.5462646484375,11.2451171875,3.30474853515625,1,1.0,1.0,1.0,1.0,10.00
2024-10-11 20:44:36.322,0.70851856,0.43977034,-0.0016883851,0.68812966,0.27041295,-0.09454997,-0.2523996,0.056641687,0.7497577,0.14909682,0.045927446,0.47672197,0.46499047,-0.20778821,0.5349143,0.3245022,-0.09335086,-0.49336907,0.21425395,-0.0343787,782.8938,793.7729,807.0696,783.69965,639.0476,0.19091796875,0.1300048828125,0.986328125,-20.5462646484375,11.2451171875,3.30474853515625,1,1.0,1.0,1.0,1.0,10.00
2024-10-11 20:44:36.323,0.70851856,0.43977034,-0.0016883851,0.68812966,0.27041295,-0.09454997,-0.2523996,0.056641687,0.7497577,0.14909682,0.045927446,0.47672197,0.46499047,-0.20778821,0.5349143,0.3245022,-0.09335086,-0.49336907,0.21425395,-0.0343787,780.07324,792.1612,797.8022,784.10254,821.1722,0.19091796875,0.1300048828125,0.986328125,-20.5462646484375,11.2451171875,3.30474853515625,1,1.0,1.0,1.0,1.0,10.00
2024-10-11 20:44:36.324,0.70851856,0.43977034,-0.0016883851,0.68812966,0.27041295,-0.09454997,-0.2523996,0.056641687,0.7497577,0.14909682,0.045927446,0.47672197,0.46499047,-0.20778821,0.5349143,0.3245022,-0.09335086,-0.49336907,0.21425395,-0.0343787,787.72894,795.38464,785.7143,785.7143,632.1978,0.19091796875,0.1300048828125,0.986328125,-20.5462646484375,11.2451171875,3.30474853515625,1,1.0,1.0,1.0,1.0,10.00
2024-10-11 20:44:36.324,0.70851856,0.43977034,-0.0016883851,0.68812966,0.27041295,-0.09454997,-0.2523996,0.056641687,0.7497577,0.14909682,0.045927446,0.47672197,0.46499047,-0.20778821,0.5349143,0.3245022,-0.09335086,-0.49336907,0.21425395,-0.0343787,792.96704,792.5641,778.46155,793.36993,423.07693,0.19091796875,0.1300048828125,0.986328125,-20.5462646484375,11.2451171875,3.30474853515625,1,1.0,1.0,1.0,1.0,10.00
2024-10-11 20:44:36.325,0.70851856,0.43977034,-0.0016883851,0.68812966,0.27041295,-0.09454997,-0.2523996,0.056641687,0.7497577,0.14909682,0.045927446,0.47672197,0.46499047,-0.20778821,0.5349143,0.3245022,-0.09335086,-0.49336907,0.21425395,-0.0343787,795.38464,789.7436,785.7143,802.23444,724.0659,0.19091796875,0.1300048828125,0.986328125,-20.5462646484375,11.2451171875,3.30474853515625,1,1.0,1.0,1.0,1.0,10.00
2024-10-11 20:44:36.326,0.70851856,0.43977034,-0.0016883851,0.68812966,0.27041295,-0.09454997,-0.2523996,0.056641687,0.7497577,0.14909682,0.045927446,0.47672197,0.46499047,-0.20778821,0.5349143,0.3245022,-0.09335086,-0.49336907,0.21425395,-0.0343787,802.23444,793.36993,799.81683,803.8461,934.7985,0.19091796875,0.1300048828125,0.986328125,-20.5462646484375,11.2451171875,3.30474853515625,1,1.0,1.0,1.0,1.0,10.00
2024-10-11 20:44:36.327,0.70851856,0.43977034,-0.0016883851,0.68812966,0.27041295,-0.09454997,-0.2523996,0.056641687,0.7497577,0.14909682,0.045927446,0.47672197,0.46499047,-0.20778821,0.5349143,0.3245022,-0.09335086,-0.49336907,0.21425395,-0.0343787,805.4579,795.38464,813.1135,805.05493,639.85345,0.19091796875,0.1300048828125,0.986328125,-20.5462646484375,11.2451171875,3.30474853515625,1,1.0,1.0,1.0,1.0,10.00
2024-10-11 20:44:36.327,0.70851856,0.43977034,-0.0016883851,0.68812966,0.27041295,-0.09454997,-0.2523996,0.056641687,0.7497577,0.14909682,0.045927446,0.47672197,0.46499047,-0.20778821,0.5349143,0.3245022,-0.09335086,-0.49336907,0.21425395,-0.0343787,810.293,794.9817,819.15753,804.2491,541.9414,0.19091796875,0.1300048828125,0.986328125,-20.5462646484375,11.2451171875,3.30474853515625,1,1.0,1.0,1.0,1.0,10.00
2024-10-11 20:44:36.328,0.70851856,0.43977034,-0.0016883851,0.68812966,0.27041295,-0.09454997,-0.2523996,0.056641687,0.7497577,0.14909682,0.045927446,0.47672197,0.46499047,-0.20778821,0.5349143,0.3245022,-0.09335086,-0.49336907,0.21425395,-0.0343787,815.9341,794.17584,814.7253,806.26373,703.91943,0.19091796875,0.1300048828125,0.986328125,-20.5462646484375,11.2451171875,3.30474853515625,1,1.0,1.0,1.0,1.0,10.00
2024-10-11 20:44:36.329,0.70851856,0.43977034,-0.0016883851,0.68812966,0.27041295,-0.09454997,-0.2523996,0.056641687,0.7497577,0.14909682,0.045927446,0.47672197,0.46499047,-0.20778821,0.5349143,0.3245022,-0.09335086,-0.49336907,0.21425395,-0.0343787,817.9487,794.57874,803.0403,819.9634,678.93774,0.19091796875,0.1300048828125,0.986328125,-20.5462646484375,11.2451171875,3.30474853515625,1,1.0,1.0,1.0,1.0,10.00
2024-10-11 20:44:36.330,0.70851856,0.43977034,-0.0016883851,0.68812966,0.27041295,-0.09454997,-0.2523996,0.056641687,0.7497577,0.14909682,0.045927446,0.47672197,0.46499047,-0.20778821,0.5349143,0.3245022,-0.09335086,-0.49336907,0.21425395,-0.0343787,823.1868,798.60803,805.8608,826.0073,513.73627,0.19091796875,0.1300048828125,0.986328125,-20.5462646484375,11.2451171875,3.30474853515625,1,1.0,1.0,1.0,1.0,10.00
2024-10-11 20:44:36.356,0.70851856,0.43977034,-0.0016883851,0.68812966,0.27041295,-0.09454997,-0.2523996,0.056641687,0.7497577,0.14909682,0.045927446,0.47672197,0.46499047,-0.20778821,0.5349143,0.3245022,-0.09335086,-0.49336907,0.21425395,-0.0343787,826.0073,805.4579,813.91943,821.1722,505.67764,0.19091796875,0.1300048828125,0.986328125,-20.5462646484375,11.2451171875,3.30474853515625,1,1.0,1.0,1.0,1.0,10.00
2024-10-11 20:44:36.357,0.70851856,0.43977034,-0.0016883851,0.68812966,0.27041295,-0.09454997,-0.2523996,0.056641687,0.7497577,0.14909682,0.045927446,0.47672197,0.46499047,-0.20778821,0.5349143,0.3245022,-0.09335086,-0.49336907,0.21425395,-0.0343787,826.4103,803.8461,803.8461,820.3663,698.2784,0.19091796875,0.1300048828125,0.986328125,-20.5462646484375,11.2451171875,3.30474853515625,1,1.0,1.0,1.0,1.0,10.00
2024-10-11 20:44:36.358,0.70851856,0.43977034,-0.0016883851,0.68812966,0.27041295,-0.09454997,-0.2523996,0.056641687,0.7497577,0.14909682,0.045927446,0.47672197,0.46499047,-0.20778821,0.5349143,0.3245022,-0.09335086,-0.49336907,0.21425395,-0.0343787,824.7985,803.0403,800.2198,814.7253,754.68866,0.19091796875,0.1300048828125,0.986328125,-20.5462646484375,11.2451171875,3.30474853515625,1,1.0,1.0,1.0,1.0,10.00
2024-10-11 20:44:36.358,0.7497386,0.4577727,0.34929904,0.68812966,0.32612565,-0.086337745,-0.014105307,0.056641687,0.75540566,0.13212265,0.25143686,0.47672197,0.45965979,-0.21480696,0.5221677,0.3245022,-0.09572635,-0.4831752,0.21053283,-0.0343787,823.1868,805.4579,812.71063,809.89014,620.5128,0.19091796875,0.1300048828125,0.986328125,-20.5462646484375,11.2451171875,3.30474853515625,1,1.0,1.0,1.0,1.0,10.00
2024-10-11 20:44:36.364,0.7497386,0.4577727,0.34929904,0.68812966,0.32612565,-0.086337745,-0.014105307,0.056641687,0.75540566,0.13212265,0.25143686,0.47672197,0.45965979,-0.21480696,0.5221677,0.3245022,-0.09572635,-0.4831752,0.21053283,-0.0343787,826.8132,807.0696,811.50183,813.1135,693.0403,0.19091796875,0.1300048828125,0.986328125,-20.5462646484375,11.2451171875,3.30474853515625,1,1.0,1.0,1.0,1.0,10.00
2024-10-11 20:44:36.365,0.7497386,0.4577727,0.34929904,0.68812966,0.32612565,-0.086337745,-0.014105307,0.056641687,0.75540566,0.13212265,0.25143686,0.47672197,0.45965979,-0.21480696,0.5221677,0.3245022,-0.09572635,-0.4831752,0.21053283,-0.0343787,831.2454,807.0696,805.4579,822.381,975.89746,0.19091796875,0.1300048828125,0.986328125,-20.5462646484375,11.2451171875,3.30474853515625,1,1.0,1.0,1.0,1.0,10.00
2024-10-11 20:44:36.366,0.7497386,0.4577727,0.34929904,0.68812966,0.32612565,-0.086337745,-0.014105307,0.056641687,0.75540566,0.13212265,0.25143686,0.47672197,0.45965979,-0.21480696,0.5221677,0.3245022,-0.09572635,-0.4831752,0.21053283,-0.0343787,819.9634,806.26373,814.3223,817.1429,971.06226,0.19091796875,0.1300048828125,0.986328125,-20.5462646484375,11.2451171875,3.30474853515625,1,1.0,1.0,1.0,1.0,10.00
2024-10-11 20:44:36.367,0.7497386,0.4577727,0.34929904,0.68812966,0.32612565,-0.086337745,-0.014105307,0.056641687,0.75540566,0.13212265,0.25143686,0.47672197,0.45965979,-0.21480696,0.5221677,0.3245022,-0.09572635,-0.4831752,0.21053283,-0.0343787,795.78754,801.8315,802.6374,797.8022,725.2747,0.19091796875,0.1300048828125,0.986328125,-20.5462646484375,11.2451171875,3.30474853515625,1,1.0,1.0,1.0,1.0,10.00
2024-10-11 20:44:36.368,0.7497386,0.4577727,0.34929904,0.68812966,0.32612565,-0.086337745,-0.014105307,0.056641687,0.75540566,0.13212265,0.25143686,0.47672197,0.45965979,-0.21480696,0.5221677,0.3245022,-0.09572635,-0.4831752,0.21053283,-0.0343787,795.78754,792.96704,793.36993,804.2491,688.20514,0.19091796875,0.1300048828125,0.986328125,-20.5462646484375,11.2451171875,3.30474853515625,1,1.0,1.0,1.0,1.0,10.00
2024-10-11 20:44:36.368,0.7497386,0.4577727,0.34929904,0.68812966,0.32612565,-0.086337745,-0.014105307,0.056641687,0.75540566,0.13212265,0.25143686,0.47672197,0.45965979,-0.21480696,0.5221677,0.3245022,-0.09572635,-0.4831752,0.21053283,-0.0343787,805.05493,786.9231,821.1722,813.5165,886.4469,0.19091796875,0.1300048828125,0.986328125,-20.5462646484375,11.2451171875,3.30474853515625,1,1.0,1.0,1.0,1.0,10.00
2024-10-11 20:44:36.369,0.7497386,0.4577727,0.34929904,0.68812966,0.32612565,-0.086337745,-0.014105307,0.056641687,0.75540566,0.13212265,0.25143686,0.47672197,0.45965979,-0.21480696,0.5221677,0.3245022,-0.09572635,-0.4831752,0.21053283,-0.0343787,799.41394,791.75824,831.2454,801.8315,747.8388,0.19091796875,0.1300048828125,0.986328125,-20.5462646484375,11.2451171875,3.30474853515625,1,1.0,1.0,1.0,1.0,10.00
2024-10-11 20:44:36.370,0.7497386,0.4577727,0.34929904,0.68812966,0.32612565,-0.086337745,-0.014105307,0.056641687,0.75540566,0.13212265,0.25143686,0.47672197,0.45965979,-0.21480696,0.5221677,0.3245022,-0.09572635,-0.4831752,0.21053283,-0.0343787,785.7143,797.8022,822.381,788.1319,593.91943,0.19091796875,0.1300048828125,0.986328125,-20.5462646484375,11.2451171875,3.30474853515625,1,1.0,1.0,1.0,1.0,10.00
2024-10-11 20:44:36.438,0.7497386,0.4577727,0.34929904,0.68812966,0.32612565,-0.086337745,-0.014105307,0.056641687,0.75540566,0.13212265,0.25143686,0.47672197,0.45965979,-0.21480696,0.5221677,0.3245022,-0.09572635,-0.4831752,0.21053283,-0.0343787,771.2088,800.2198,796.5934,783.69965,712.381,0.163330078125,0.09912109375,0.986328125,-20.83038330078125,13.56292724609375,2.213134765625,1,1.0,1.0,1.0,1.0,10.00
2024-10-11 20:44:36.439,0.7497386,0.4577727,0.34929904,0.68812966,0.32612565,-0.086337745,-0.014105307,0.056641687,0.75540566,0.13212265,0.25143686,0.47672197,0.45965979,-0.21480696,0.5221677,0.3245022,-0.09572635,-0.4831752,0.21053283,-0.0343787,758.315,798.20514,794.17584,780.4762,820.7692,0.163330078125,0.09912109375,0.986328125,-20.83038330078125,13.56292724609375,2.213134765625,1,1.0,1.0,1.0,1.0,10.00
2024-10-11 20:44:36.440,0.7497386,0.4577727,0.34929904,0.68812966,0.32612565,-0.086337745,-0.014105307,0.056641687,0.75540566,0.13212265,0.25143686,0.47672197,0.45965979,-0.21480696,0.5221677,0.3245022,-0.09572635,-0.4831752,0.21053283,-0.0343787,753.0769,796.5934,797.8022,772.4176,708.7546,0.163330078125,0.09912109375,0.986328125,-20.83038330078125,13.56292724609375,2.213134765625,1,1.0,1.0,1.0,1.0,10.00
2024-10-11 20:44:36.441,0.7497386,0.4577727,0.34929904,0.68812966,0.32612565,-0.086337745,-0.014105307,0.056641687,0.75540566,0.13212265,0.25143686,0.47672197,0.45965979,-0.21480696,0.5221677,0.3245022,-0.09572635,-0.4831752,0.21053283,-0.0343787,755.09155,797.8022,801.4286,771.2088,660.40295,0.163330078125,0.09912109375,0.986328125,-20.83038330078125,13.56292724609375,2.213134765625,1,1.0,1.0,1.0,1.0,10.00
2024-10-11 20:44:36.441,0.7497386,0.4577727,0.34929904,0.68812966,0.32612565,-0.086337745,-0.014105307,0.056641687,0.75540566,0.13212265,0.25143686,0.47672197,0.45965979,-0.21480696,0.5221677,0.3245022,-0.09572635,-0.4831752,0.21053283,-0.0343787,769.19415,792.96704,818.7546,780.87915,752.674,0.163330078125,0.09912109375,0.986328125,-20.83038330078125,13.56292724609375,2.213134765625,1,1.0,1.0,1.0,1.0,10.00
2024-10-11 20:44:36.442,0.7497386,0.4577727,0.34929904,0.68812966,0.32612565,-0.086337745,-0.014105307,0.056641687,0.75540566,0.13212265,0.25143686,0.47672197,0.45965979,-0.21480696,0.5221677,0.3245022,-0.09572635,-0.4831752,0.21053283,-0.0343787,775.2381,787.72894,817.9487,796.5934,878.3883,0.163330078125,0.09912109375,0.986328125,-20.83038330078125,13.56292724609375,2.213134765625,1,1.0,1.0,1.0,1.0,10.00
2024-10-11 20:44:36.443,0.7497386,0.4577727,0.34929904,0.68812966,0.32612565,-0.086337745,-0.014105307,0.056641687,0.75540566,0.13212265,0.25143686,0.47672197,0.45965979,-0.21480696,0.5221677,0.3245022,-0.09572635,-0.4831752,0.21053283,-0.0343787,765.16486,792.1612,801.8315,790.14655,699.89014,0.163330078125,0.09912109375,0.986328125,-20.83038330078125,13.56292724609375,2.213134765625,1,1.0,1.0,1.0,1.0,10.00
2024-10-11 20:44:36.443,0.7497386,0.4577727,0.34929904,0.68812966,0.32612565,-0.086337745,-0.014105307,0.056641687,0.75540566,0.13212265,0.25143686,0.47672197,0.45965979,-0.21480696,0.5221677,0.3245022,-0.09572635,-0.4831752,0.21053283,-0.0343787,765.16486,792.5641,801.02563,776.04395,608.022,0.163330078125,0.09912109375,0.986328125,-20.83038330078125,13.56292724609375,2.213134765625,1,1.0,1.0,1.0,1.0,10.00
2024-10-11 20:44:36.444,0.7497386,0.4577727,0.34929904,0.68812966,0.32612565,-0.086337745,-0.014105307,0.056641687,0.75540566,0.13212265,0.25143686,0.47672197,0.45965979,-0.21480696,0.5221677,0.3245022,-0.09572635,-0.4831752,0.21053283,-0.0343787,770.80585,790.9524,803.8461,780.07324,713.9927,0.163330078125,0.09912109375,0.986328125,-20.83038330078125,13.56292724609375,2.213134765625,1,1.0,1.0,1.0,1.0,10.00
2024-10-11 20:44:36.445,0.7497386,0.4577727,0.34929904,0.68812966,0.32612565,-0.086337745,-0.014105307,0.056641687,0.75540566,0.13212265,0.25143686,0.47672197,0.45965979,-0.21480696,0.5221677,0.3245022,-0.09572635,-0.4831752,0.21053283,-0.0343787,778.46155,791.75824,805.8608,792.1612,766.3736,0.163330078125,0.09912109375,0.986328125,-20.83038330078125,13.56292724609375,2.213134765625,1,1.0,1.0,1.0,1.0,10.00
2024-10-11 20:44:36.445,0.7497386,0.4577727,0.34929904,0.68812966,0.32612565,-0.086337745,-0.014105307,0.056641687,0.75540566,0.13212265,0.25143686,0.47672197,0.45965979,-0.21480696,0.5221677,0.3245022,-0.09572635,-0.4831752,0.21053283,-0.0343787,799.41394,797.3993,813.5165,801.02563,687.8022,0.163330078125,0.09912109375,0.986328125,-20.83038330078125,13.56292724609375,2.213134765625,1,1.0,1.0,1.0,1.0,10.00
2024-10-11 20:44:36.446,0.7497386,0.4577727,0.34929904,0.68812966,0.32612565,-0.086337745,-0.014105307,0.056641687,0.75540566,0.13212265,0.25143686,0.47672197,0.45965979,-0.21480696,0.5221677,0.3245022,-0.09572635,-0.4831752,0.21053283,-0.0343787,811.0989,802.23444,803.0403,807.8755,693.0403,0.163330078125,0.09912109375,0.986328125,-20.83038330078125,13.56292724609375,2.213134765625,1,1.0,1.0,1.0,1.0,10.00
2024-10-11 20:44:36.473,0.7497386,0.4577727,0.34929904,0.68812966,0.32612565,-0.086337745,-0.014105307,0.056641687,0.75540566,0.13212265,0.25143686,0.47672197,0.45965979,-0.21480696,0.5221677,0.3245022,-0.09572635,-0.4831752,0.21053283,-0.0343787,815.5311,802.23444,799.41394,815.5311,813.5165,0.14288330078125,0.06378173828125,0.98370361328125,-21.570587158203125,14.647064208984375,0.059814453125,1,1.0,1.0,1.0,1.0,10.00
2024-10-11 20:44:36.474,0.7497386,0.4577727,0.34929904,0.68812966,0.32612565,-0.086337745,-0.014105307,0.056641687,0.75540566,0.13212265,0.25143686,0.47672197,0.45965979,-0.21480696,0.5221677,0.3245022,-0.09572635,-0.4831752,0.21053283,-0.0343787,826.8132,800.2198,794.9817,815.9341,811.50183,0.14288330078125,0.06378173828125,0.98370361328125,-21.570587158203125,14.647064208984375,0.059814453125,1,1.0,1.0,1.0,1.0,10.00
2024-10-11 20:44:36.475,0.7497386,0.4577727,0.34929904,0.68812966,0.32612565,-0.086337745,-0.014105307,0.056641687,0.75540566,0.13212265,0.25143686,0.47672197,0.45965979,-0.21480696,0.5221677,0.3245022,-0.09572635,-0.4831752,0.21053283,-0.0343787,828.022,801.4286,805.05493,810.293,682.96704,0.14288330078125,0.06378173828125,0.98370361328125,-21.570587158203125,14.647064208984375,0.059814453125,1,1.0,1.0,1.0,1.0,10.00
2024-10-11 20:44:36.476,0.7497386,0.4577727,0.34929904,0.68812966,0.32612565,-0.086337745,-0.014105307,0.056641687,0.75540566,0.13212265,0.25143686,0.47672197,0.45965979,-0.21480696,0.5221677,0.3245022,-0.09572635,-0.4831752,0.21053283,-0.0343787,824.3956,803.0403,816.7399,814.3223,662.01465,0.14288330078125,0.06378173828125,0.98370361328125,-21.570587158203125,14.647064208984375,0.059814453125,1,1.0,1.0,1.0,1.0,10.00
2024-10-11 20:44:36.477,0.7497386,0.4577727,0.34929904,0.68812966,0.32612565,-0.086337745,-0.014105307,0.056641687,0.75540566,0.13212265,0.25143686,0.47672197,0.45965979,-0.21480696,0.5221677,0.3245022,-0.09572635,-0.4831752,0.21053283,-0.0343787,821.5751,797.3993,798.60803,814.3223,880.0,0.14288330078125,0.06378173828125,0.98370361328125,-21.570587158203125,14.647064208984375,0.059814453125,1,1.0,1.0,1.0,1.0,10.00
2024-10-11 20:44:36.477,0.77804136,0.4669699,0.48524415,0.7249859,0.3759237,-0.08392044,0.07745402,0.12789418,0.7905363,0.107922465,0.30015743,1.0209644,0.45096725,-0.22844301,0.52235407,0.37584364,-0.082238235,-0.48172066,0.23211849,-0.039520647,816.337,790.9524,789.7436,805.4579,933.1868,0.14288330078125,0.06378173828125,0.98370361328125,-21.570587158203125,14.647064208984375,0.059814453125,1,1.0,1.0,1.0,1.0,10.00
2024-10-11 20:44:36.483,0.77804136,0.4669699,0.48524415,0.7249859,0.3759237,-0.08392044,0.07745402,0.12789418,0.7905363,0.107922465,0.30015743,1.0209644,0.45096725,-0.22844301,0.52235407,0.37584364,-0.082238235,-0.48172066,0.23211849,-0.039520647,817.9487,793.7729,805.8608,800.6227,818.3516,0.14288330078125,0.06378173828125,0.98370361328125,-21.570587158203125,14.647064208984375,0.059814453125,1,1.0,1.0,1.0,1.0,10.00
2024-10-11 20:44:36.484,0.77804136,0.4669699,0.48524415,0.7249859,0.3759237,-0.08392044,0.07745402,0.12789418,0.7905363,0.107922465,0.30015743,1.0209644,0.45096725,-0.22844301,0.52235407,0.37584364,-0.082238235,-0.48172066,0.23211849,-0.039520647,821.978,796.1905,808.68134,801.8315,748.24176,0.14288330078125,0.06378173828125,0.98370361328125,-21.570587158203125,14.647064208984375,0.059814453125,1,1.0,1.0,1.0,1.0,10.00
2024-10-11 20:44:36.485,0.77804136,0.4669699,0.48524415,0.7249859,0.3759237,-0.08392044,0.07745402,0.12789418,0.7905363,0.107922465,0.30015743,1.0209644,0.45096725,-0.22844301,0.52235407,0.37584364,-0.082238235,-0.48172066,0.23211849,-0.039520647,814.3223,794.9817,789.34064,801.8315,741.39197,0.14288330078125,0.06378173828125,0.98370361328125,-21.570587158203125,14.647064208984375,0.059814453125,1,1.0,1.0,1.0,1.0,10.00
2024-10-11 20:44:36.486,0.77804136,0.4669699,0.48524415,0.7249859,0.3759237,-0.08392044,0.07745402,0.12789418,0.7905363,0.107922465,0.30015743,1.0209644,0.45096725,-0.22844301,0.52235407,0.37584364,-0.082238235,-0.48172066,0.23211849,-0.039520647,810.696,798.60803,778.86444,800.2198,705.12823,0.14288330078125,0.06378173828125,0.98370361328125,-21.570587158203125,14.647064208984375,0.059814453125,1,1.0,1.0,1.0,1.0,10.00
2024-10-11 20:44:36.487,0.77804136,0.4669699,0.48524415,0.7249859,0.3759237,-0.08392044,0.07745402,0.12789418,0.7905363,0.107922465,0.30015743,1.0209644,0.45096725,-0.22844301,0.52235407,0.37584364,-0.082238235,-0.48172066,0.23211849,-0.039520647,823.9927,799.81683,781.685,810.293,737.3626,0.14288330078125,0.06378173828125,0.98370361328125,-21.570587158203125,14.647064208984375,0.059814453125,1,1.0,1.0,1.0,1.0,10.00
2024-10-11 20:44:36.488,0.77804136,0.4669699,0.48524415,0.7249859,0.3759237,-0.08392044,0.07745402,0.12789418,0.7905363,0.107922465,0.30015743,1.0209644,0.45096725,-0.22844301,0.52235407,0.37584364,-0.082238235,-0.48172066,0.23211849,-0.039520647,821.1722,799.011,796.5934,815.9341,763.1502,0.14288330078125,0.06378173828125,0.98370361328125,-21.570587158203125,14.647064208984375,0.059814453125,1,1.0,1.0,1.0,1.0,10.00
2024-10-11 20:44:36.489,0.77804136,0.4669699,0.48524415,0.7249859,0.3759237,-0.08392044,0.07745402,0.12789418,0.7905363,0.107922465,0.30015743,1.0209644,0.45096725,-0.22844301,0.52235407,0.37584364,-0.082238235,-0.48172066,0.23211849,-0.039520647,813.1135,796.1905,805.4579,811.0989,833.2601,0.1197509765625,0.03448486328125,0.9871826171875,-20.6658935546875,13.9068603515625,-0.366363525390625,1,1.0,1.0,1.0,1.0,10.00
2024-10-11 20:44:36.490,0.77804136,0.4669699,0.48524415,0.7249859,0.3759237,-0.08392044,0.07745402,0.12789418,0.7905363,0.107922465,0.30015743,1.0209644,0.45096725,-0.22844301,0.52235407,0.37584364,-0.082238235,-0.48172066,0.23211849,-0.039520647,817.5458,798.60803,809.89014,814.3223,709.5604,0.1197509765625,0.03448486328125,0.9871826171875,-20.6658935546875,13.9068603515625,-0.366363525390625,1,1.0,1.0,1.0,1.0,10.00
2024-10-11 20:44:36.490,0.77804136,0.4669699,0.48524415,0.7249859,0.3759237,-0.08392044,0.07745402,0.12789418,0.7905363,0.107922465,0.30015743,1.0209644,0.45096725,-0.22844301,0.52235407,0.37584364,-0.082238235,-0.48172066,0.23211849,-0.039520647,813.5165,801.02563,799.81683,821.978,577.3993,0.1197509765625,0.03448486328125,0.9871826171875,-20.6658935546875,13.9068603515625,-0.366363525390625,1,1.0,1.0,1.0,1.0,10.00
2024-10-11 20:44:36.491,0.77804136,0.4669699,0.48524415,0.7249859,0.3759237,-0.08392044,0.07745402,0.12789418,0.7905363,0.107922465,0.30015743,1.0209644,0.45096725,-0.22844301,0.52235407,0.37584364,-0.082238235,-0.48172066,0.23211849,-0.039520647,803.8461,799.81683,798.60803,809.89014,740.989,0.1197509765625,0.03448486328125,0.9871826171875,-20.6658935546875,13.9068603515625,-0.366363525390625,1,1.0,1.0,1.0,1.0,10.00
2024-10-11 20:44:36.492,0.77804136,0.4669699,0.48524415,0.7249859,0.3759237,-0.08392044,0.07745402,0.12789418,0.7905363,0.107922465,0.30015743,1.0209644,0.45096725,-0.22844301,0.52235407,0.37584364,-0.082238235,-0.48172066,0.23211849,-0.039520647,798.60803,799.41394,811.50183,801.8315,873.1502,0.1197509765625,0.03448486328125,0.9871826171875,-20.6658935546875,13.9068603515625,-0.366363525390625,1,1.0,1.0,1.0,1.0,10.00
2024-10-11 20:44:36.492,0.77804136,0.4669699,0.48524415,0.7249859,0.3759237,-0.08392044,0.07745402,0.12789418,0.7905363,0.107922465,0.30015743,1.0209644,0.45096725,-0.22844301,0.52235407,0.37584364,-0.082238235,-0.48172066,0.23211849,-0.039520647,803.8461,794.17584,804.65204,800.2198,820.3663,0.1197509765625,0.03448486328125,0.9871826171875,-20.6658935546875,13.9068603515625,-0.366363525390625,1,1.0,1.0,1.0,1.0,10.00
2024-10-11 20:44:36.493,0.77804136,0.4669699,0.48524415,0.7249859,0.3759237,-0.08392044,0.07745402,0.12789418,0.7905363,0.107922465,0.30015743,1.0209644,0.45096725,-0.22844301,0.52235407,0.37584364,-0.082238235,-0.48172066,0.23211849,-0.039520647,800.6227,796.1905,801.8315,799.41394,794.57874,0.1197509765625,0.03448486328125,0.9871826171875,-20.6658935546875,13.9068603515625,-0.366363525390625,1,1.0,1.0,1.0,1.0,10.00
2024-10-11 20:44:36.494,0.77804136,0.4669699,0.48524415,0.7249859,0.3759237,-0.08392044,0.07745402,0.12789418,0.7905363,0.107922465,0.30015743,1.0209644,0.45096725,-0.22844301,0.52235407,0.37584364,-0.082238235,-0.48172066,0.23211849,-0.039520647,796.1905,796.5934,796.5934,805.8608,757.50916,0.1197509765625,0.03448486328125,0.9871826171875,-20.6658935546875,13.9068603515625,-0.366363525390625,1,1.0,1.0,1.0,1.0,10.00
2024-10-11 20:44:36.494,0.77804136,0.4669699,0.48524415,0.7249859,0.3759237,-0.08392044,0.07745402,0.12789418,0.7905363,0.107922465,0.30015743,1.0209644,0.45096725,-0.22844301,0.52235407,0.37584364,-0.082238235,-0.48172066,0.23211849,-0.039520647,789.34064,791.75824,802.23444,807.8755,759.5238,0.1197509765625,0.03448486328125,0.9871826171875,-20.6658935546875,13.9068603515625,-0.366363525390625,1,1.0,1.0,1.0,1.0,10.00
2024-10-11 20:44:36.495,0.77804136,0.4669699,0.48524415,0.7249859,0.3759237,-0.08392044,0.07745402,0.12789418,0.7905363,0.107922465,0.30015743,1.0209644,0.45096725,-0.22844301,0.52235407,0.37584364,-0.082238235,-0.48172066,0.23211849,-0.039520647,782.0879,794.9817,806.6667,797.8022,638.24176,0.1197509765625,0.03448486328125,0.9871826171875,-20.6658935546875,13.9068603515625,-0.366363525390625,1,1.0,1.0,1.0,1.0,10.00
2024-10-11 20:44:36.496,0.77804136,0.4669699,0.48524415,0.7249859,0.3759237,-0.08392044,0.07745402,0.12789418,0.7905363,0.107922465,0.30015743,1.0209644,0.45096725,-0.22844301,0.52235407,0.37584364,-0.082238235,-0.48172066,0.23211849,-0.039520647,788.93774,797.8022,804.65204,789.7436,558.46155,0.1197509765625,0.03448486328125,0.9871826171875,-20.6658935546875,13.9068603515625,-0.366363525390625,1,1.0,1.0,1.0,1.0,10.00
2024-10-11 20:44:36.496,0.77804136,0.4669699,0.48524415,0.7249859,0.3759237,-0.08392044,0.07745402,0.12789418,0.7905363,0.107922465,0.30015743,1.0209644,0.45096725,-0.22844301,0.52235407,0.37584364,-0.082238235,-0.48172066,0.23211849,-0.039520647,797.3993,794.9817,810.293,792.96704,719.6337,0.1197509765625,0.03448486328125,0.9871826171875,-20.6658935546875,13.9068603515625,-0.366363525390625,1,1.0,1.0,1.0,1.0,10.00
2024-10-11 20:44:36.524,0.77804136,0.4669699,0.48524415,0.7249859,0.3759237,-0.08392044,0.07745402,0.12789418,0.7905363,0.107922465,0.30015743,1.0209644,0.45096725,-0.22844301,0.52235407,0.37584364,-0.082238235,-0.48172066,0.23211849,-0.039520647,802.23444,792.96704,799.81683,794.17584,782.8938,0.114013671875,0.00115966796875,0.9908447265625,-20.045318603515625,13.047027587890625,1.55517578125,1,1.0,1.0,1.0,1.0,10.00
2024-10-11 20:44:36.525,0.77804136,0.4669699,0.48524415,0.7249859,0.3759237,-0.08392044,0.07745402,0.12789418,0.7905363,0.107922465,0.30015743,1.0209644,0.45096725,-0.22844301,0.52235407,0.37584364,-0.082238235,-0.48172066,0.23211849,-0.039520647,799.011,795.38464,805.8608,784.10254,594.7253,0.114013671875,0.00115966796875,0.9908447265625,-20.045318603515625,13.047027587890625,1.55517578125,1,1.0,1.0,1.0,1.0,10.00
2024-10-11 20:44:36.526,0.77804136,0.4669699,0.48524415,0.7249859,0.3759237,-0.08392044,0.07745402,0.12789418,0.7905363,0.107922465,0.30015743,1.0209644,0.45096725,-0.22844301,0.52235407,0.37584364,-0.082238235,-0.48172066,0.23211849,-0.039520647,794.17584,796.5934,804.2491,774.43225,533.47986,0.114013671875,0.00115966796875,0.9908447265625,-20.045318603515625,13.047027587890625,1.55517578125,1,1.0,1.0,1.0,1.0,10.00
2024-10-11 20:44:36.527,0.77804136,0.4669699,0.48524415,0.7249859,0.3759237,-0.08392044,0.07745402,0.12789418,0.7905363,0.107922465,0.30015743,1.0209644,0.45096725,-0.22844301,0.52235407,0.37584364,-0.082238235,-0.48172066,0.23211849,-0.039520647,788.93774,792.5641,796.99634,778.86444,781.28204,0.114013671875,0.00115966796875,0.9908447265625,-20.045318603515625,13.047027587890625,1.55517578125,1,1.0,1.0,1.0,1.0,10.00
2024-10-11 20:44:36.528,0.77804136,0.4669699,0.48524415,0.7249859,0.3759237,-0.08392044,0.07745402,0.12789418,0.7905363,0.107922465,0.30015743,1.0209644,0.45096725,-0.22844301,0.52235407,0.37584364,-0.082238235,-0.48172066,0.23211849,-0.039520647,793.7729,793.7729,806.26373,776.4469,774.43225,0.114013671875,0.00115966796875,0.9908447265625,-20.045318603515625,13.047027587890625,1.55517578125,1,1.0,1.0,1.0,1.0,10.00
2024-10-11 20:44:36.528,0.77804136,0.4669699,0.48524415,0.7249859,0.3759237,-0.08392044,0.07745402,0.12789418,0.7905363,0.107922465,0.30015743,1.0209644,0.45096725,-0.22844301,0.52235407,0.37584364,-0.082238235,-0.48172066,0.23211849,-0.039520647,804.65204,793.36993,803.0403,780.4762,609.2308,0.114013671875,0.00115966796875,0.9908447265625,-20.045318603515625,13.047027587890625,1.55517578125,1,1.0,1.0,1.0,1.0,10.00
2024-10-11 20:44:36.529,0.77804136,0.4669699,0.48524415,0.7249859,0.3759237,-0.08392044,0.07745402,0.12789418,0.7905363,0.107922465,0.30015743,1.0209644,0.45096725,-0.22844301,0.52235407,0.37584364,-0.082238235,-0.48172066,0.23211849,-0.039520647,804.65204,794.17584,800.6227,796.99634,807.0696,0.114013671875,0.00115966796875,0.9908447265625,-20.045318603515625,13.047027587890625,1.55517578125,1,1.0,1.0,1.0,1.0,10.00
2024-10-11 20:44:36.530,0.8012261,0.46889693,0.535805,0.76838964,0.45198536,-0.07594249,0.1304856,0.22861703,0.94850653,0.15471461,0.35873252,1.1662965,0.43722537,-0.24354275,0.55073524,0.42436212,-0.0639234,-0.48599774,0.30299693,-0.037724912,803.8461,795.78754,792.96704,801.8315,968.6447,0.114013671875,0.00115966796875,0.9908447265625,-20.045318603515625,13.047027587890625,1.55517578125,1,1.0,1.0,1.0,1.0,10.00
2024-10-11 20:44:36.535,0.8012261,0.46889693,0.535805,0.76838964,0.45198536,-0.07594249,0.1304856,0.22861703,0.94850653,0.15471461,0.35873252,1.1662965,0.43722537,-0.24354275,0.55073524,0.42436212,-0.0639234,-0.48599774,0.30299693,-0.037724912,803.0403,795.78754,773.6264,794.9817,763.5531,0.114013671875,0.00115966796875,0.9908447265625,-20.045318603515625,13.047027587890625,1.55517578125,1,1.0,1.0,1.0,1.0,10.00
2024-10-11 20:44:36.536,0.8012261,0.46889693,0.535805,0.76838964,0.45198536,-0.07594249,0.1304856,0.22861703,0.94850653,0.15471461,0.35873252,1.1662965,0.43722537,-0.24354275,0.55073524,0.42436212,-0.0639234,-0.48599774,0.30299693,-0.037724912,799.81683,796.1905,791.3553,788.1319,584.65204,0.114013671875,0.00115966796875,0.9908447265625,-20.045318603515625,13.047027587890625,1.55517578125,1,1.0,1.0,1.0,1.0,10.00
2024-10-11 20:44:36.537,0.8012261,0.46889693,0.535805,0.76838964,0.45198536,-0.07594249,0.1304856,0.22861703,0.94850653,0.15471461,0.35873252,1.1662965,0.43722537,-0.24354275,0.55073524,0.42436212,-0.0639234,-0.48599774,0.30299693,-0.037724912,791.75824,791.75824,813.1135,794.57874,571.75824,0.114013671875,0.00115966796875,0.9908447265625,-20.045318603515625,13.047027587890625,1.55517578125,1,1.0,1.0,1.0,1.0,10.00
2024-10-11 20:44:36.538,0.8012261,0.46889693,0.535805,0.76838964,0.45198536,-0.07594249,0.1304856,0.22861703,0.94850653,0.15471461,0.35873252,1.1662965,0.43722537,-0.24354275,0.55073524,0.42436212,-0.0639234,-0.48599774,0.30299693,-0.037724912,786.9231,787.326,805.4579,803.8461,749.0476,0.114013671875,0.00115966796875,0.9908447265625,-20.045318603515625,13.047027587890625,1.55517578125,1,1.0,1.0,1.0,1.0,10.00
2024-10-11 20:44:36.539,0.8012261,0.46889693,0.535805,0.76838964,0.45198536,-0.07594249,0.1304856,0.22861703,0.94850653,0.15471461,0.35873252,1.1662965,0.43722537,-0.24354275,0.55073524,0.42436212,-0.0639234,-0.48599774,0.30299693,-0.037724912,790.14655,793.36993,798.60803,798.60803,647.1062,0.114013671875,0.00115966796875,0.9908447265625,-20.045318603515625,13.047027587890625,1.55517578125,1,1.0,1.0,1.0,1.0,10.00
2024-10-11 20:44:36.540,0.8012261,0.46889693,0.535805,0.76838964,0.45198536,-0.07594249,0.1304856,0.22861703,0.94850653,0.15471461,0.35873252,1.1662965,0.43722537,-0.24354275,0.55073524,0.42436212,-0.0639234,-0.48599774,0.30299693,-0.037724912,791.3553,792.96704,805.8608,792.96704,518.1685,0.114013671875,0.00115966796875,0.9908447265625,-20.045318603515625,13.047027587890625,1.55517578125,1,1.0,1.0,1.0,1.0,10.00
2024-10-11 20:44:36.541,0.8012261,0.46889693,0.535805,0.76838964,0.45198536,-0.07594249,0.1304856,0.22861703,0.94850653,0.15471461,0.35873252,1.1662965,0.43722537,-0.24354275,0.55073524,0.42436212,-0.0639234,-0.48599774,0.30299693,-0.037724912,792.1612,784.90845,810.293,795.38464,653.95605,0.114013671875,0.00115966796875,0.9908447265625,-20.045318603515625,13.047027587890625,1.55517578125,1,1.0,1.0,1.0,1.0,10.00
2024-10-11 20:44:36.541,0.8012261,0.46889693,0.535805,0.76838964,0.45198536,-0.07594249,0.1304856,0.22861703,0.94850653,0.15471461,0.35873252,1.1662965,0.43722537,-0.24354275,0.55073524,0.42436212,-0.0639234,-0.48599774,0.30299693,-0.037724912,792.1612,778.46155,800.6227,803.0403,809.4872,0.114013671875,0.00115966796875,0.9908447265625,-20.045318603515625,13.047027587890625,1.55517578125,1,1.0,1.0,1.0,1.0,10.00
2024-10-11 20:44:36.542,0.8012261,0.46889693,0.535805,0.76838964,0.45198536,-0.07594249,0.1304856,0.22861703,0.94850653,0.15471461,0.35873252,1.1662965,0.43722537,-0.24354275,0.55073524,0.42436212,-0.0639234,-0.48599774,0.30299693,-0.037724912,796.99634,780.07324,787.326,811.9048,694.2491,0.114013671875,0.00115966796875,0.9908447265625,-20.045318603515625,13.047027587890625,1.55517578125,1,1.0,1.0,1.0,1.0,10.00
2024-10-11 20:44:36.543,0.8012261,0.46889693,0.535805,0.76838964,0.45198536,-0.07594249,0.1304856,0.22861703,0.94850653,0.15471461,0.35873252,1.1662965,0.43722537,-0.24354275,0.55073524,0.42436212,-0.0639234,-0.48599774,0.30299693,-0.037724912,790.54944,781.685,796.99634,821.1722,656.3736,0.114013671875,0.00115966796875,0.9908447265625,-20.045318603515625,13.047027587890625,1.55517578125,1,1.0,1.0,1.0,1.0,10.00
2024-10-11 20:44:36.543,0.8012261,0.46889693,0.535805,0.76838964,0.45198536,-0.07594249,0.1304856,0.22861703,0.94850653,0.15471461,0.35873252,1.1662965,0.43722537,-0.24354275,0.55073524,0.42436212,-0.0639234,-0.48599774,0.30299693,-0.037724912,783.69965,779.67035,799.011,829.2308,770.40295,0.114013671875,0.00115966796875,0.9908447265625,-20.045318603515625,13.047027587890625,1.55517578125,1,1.0,1.0,1.0,1.0,10.00
2024-10-11 20:44:36.544,0.8012261,0.46889693,0.535805,0.76838964,0.45198536,-0.07594249,0.1304856,0.22861703,0.94850653,0.15471461,0.35873252,1.1662965,0.43722537,-0.24354275,0.55073524,0.42436212,-0.0639234,-0.48599774,0.30299693,-0.037724912,796.5934,782.0879,795.78754,823.9927,745.42126,0.114013671875,0.00115966796875,0.9908447265625,-20.045318603515625,13.047027587890625,1.55517578125,1,1.0,1.0,1.0,1.0,10.00
2024-10-11 20:44:36.545,0.8012261,0.46889693,0.535805,0.76838964,0.45198536,-0.07594249,0.1304856,0.22861703,0.94850653,0.15471461,0.35873252,1.1662965,0.43722537,-0.24354275,0.55073524,0.42436212,-0.0639234,-0.48599774,0.30299693,-0.037724912,816.7399,784.5055,801.8315,812.3077,592.71063,0.114013671875,0.00115966796875,0.9908447265625,-20.045318603515625,13.047027587890625,1.55517578125,1,1.0,1.0,1.0,1.0,10.00
2024-10-11 20:44:36.546,0.8012261,0.46889693,0.535805,0.76838964,0.45198536,-0.07594249,0.1304856,0.22861703,0.94850653,0.15471461,0.35873252,1.1662965,0.43722537,-0.24354275,0.55073524,0.42436212,-0.0639234,-0.48599774,0.30299693,-0.037724912,817.1429,786.9231,800.2198,812.3077,528.6447,0.114013671875,0.00115966796875,0.9908447265625,-20.045318603515625,13.047027587890625,1.55517578125,1,1.0,1.0,1.0,1.0,10.00
2024-10-11 20:44:36.546,0.8012261,0.46889693,0.535805,0.76838964,0.45198536,-0.07594249,0.1304856,0.22861703,0.94850653,0.15471461,0.35873252,1.1662965,0.43722537,-0.24354275,0.55073524,0.42436212,-0.0639234,-0.48599774,0.30299693,-0.037724912,808.68134,789.34064,797.3993,824.7985,666.04395,0.114013671875,0.00115966796875,0.9908447265625,-20.045318603515625,13.047027587890625,1.55517578125,1,1.0,1.0,1.0,1.0,10.00
2024-10-11 20:44:36.547,0.8012261,0.46889693,0.535805,0.76838964,0.45198536,-0.07594249,0.1304856,0.22861703,0.94850653,0.15471461,0.35873252,1.1662965,0.43722537,-0.24354275,0.55073524,0.42436212,-0.0639234,-0.48599774,0.30299693,-0.037724912,813.1135,790.54944,801.4286,826.0073,727.6923,0.114013671875,0.00115966796875,0.9908447265625,-20.045318603515625,13.047027587890625,1.55517578125,1,1.0,1.0,1.0,1.0,10.00
2024-10-11 20:44:36.577,0.8012261,0.46889693,0.535805,0.76838964,0.45198536,-0.07594249,0.1304856,0.22861703,0.94850653,0.15471461,0.35873252,1.1662965,0.43722537,-0.24354275,0.55073524,0.42436212,-0.0639234,-0.48599774,0.30299693,-0.037724912,813.5165,796.1905,801.02563,821.978,617.6923,0.10760498046875,-0.02392578125,0.99432373046875,-18.759307861328125,12.972259521484375,4.792633056640625,1,1.0,1.0,1.0,1.0,10.00
2024-10-11 20:44:36.578,0.8012261,0.46889693,0.535805,0.76838964,0.45198536,-0.07594249,0.1304856,0.22861703,0.94850653,0.15471461,0.35873252,1.1662965,0.43722537,-0.24354275,0.55073524,0.42436212,-0.0639234,-0.48599774,0.30299693,-0.037724912,811.9048,798.60803,805.8608,817.1429,627.76556,0.10760498046875,-0.02392578125,0.99432373046875,-18.759307861328125,12.972259521484375,4.792633056640625,1,1.0,1.0,1.0,1.0,10.00
2024-10-11 20:44:36.579,0.8012261,0.46889693,0.535805,0.76838964,0.45198536,-0.07594249,0.1304856,0.22861703,0.94850653,0.15471461,0.35873252,1.1662965,0.43722537,-0.24354275,0.55073524,0.42436212,-0.0639234,-0.48599774,0.30299693,-0.037724912,824.3956,795.38464,803.44324,809.89014,830.84247,0.10760498046875,-0.02392578125,0.99432373046875,-18.759307861328125,12.972259521484375,4.792633056640625,1,1.0,1.0,1.0,1.0,10.00
2024-10-11 20:44:36.579,0.8012261,0.46889693,0.535805,0.76838964,0.45198536,-0.07594249,0.1304856,0.22861703,0.94850653,0.15471461,0.35873252,1.1662965,0.43722537,-0.24354275,0.55073524,0.42436212,-0.0639234,-0.48599774,0.30299693,-0.037724912,821.1722,798.20514,803.44324,806.26373,745.0183,0.10760498046875,-0.02392578125,0.99432373046875,-18.759307861328125,12.972259521484375,4.792633056640625,1,1.0,1.0,1.0,1.0,10.00
2024-10-11 20:44:36.580,0.8012261,0.46889693,0.535805,0.76838964,0.45198536,-0.07594249,0.1304856,0.22861703,0.94850653,0.15471461,0.35873252,1.1662965,0.43722537,-0.24354275,0.55073524,0.42436212,-0.0639234,-0.48599774,0.30299693,-0.037724912,811.0989,802.6374,811.9048,795.78754,499.6337,0.10760498046875,-0.02392578125,0.99432373046875,-18.759307861328125,12.972259521484375,4.792633056640625,1,1.0,1.0,1.0,1.0,10.00
2024-10-11 20:44:36.581,0.8012261,0.46889693,0.535805,0.76838964,0.45198536,-0.07594249,0.1304856,0.22861703,0.94850653,0.15471461,0.35873252,1.1662965,0.43722537,-0.24354275,0.55073524,0.42436212,-0.0639234,-0.48599774,0.30299693,-0.037724912,813.5165,798.60803,809.4872,782.8938,679.7436,0.10760498046875,-0.02392578125,0.99432373046875,-18.759307861328125,12.972259521484375,4.792633056640625,1,1.0,1.0,1.0,1.0,10.00
2024-10-11 20:44:36.582,0.8012261,0.46889693,0.535805,0.76838964,0.45198536,-0.07594249,0.1304856,0.22861703,0.94850653,0.15471461,0.35873252,1.1662965,0.43722537,-0.24354275,0.55073524,0.42436212,-0.0639234,-0.48599774,0.30299693,-0.037724912,811.50183,800.6227,804.2491,782.0879,914.2491,0.10760498046875,-0.02392578125,0.99432373046875,-18.759307861328125,12.972259521484375,4.792633056640625,1,1.0,1.0,1.0,1.0,10.00
2024-10-11 20:44:36.583,0.8012261,0.46889693,0.535805,0.76838964,0.45198536,-0.07594249,0.1304856,0.22861703,0.94850653,0.15471461,0.35873252,1.1662965,0.43722537,-0.24354275,0.55073524,0.42436212,-0.0639234,-0.48599774,0.30299693,-0.037724912,802.6374,805.05493,791.75824,782.0879,847.3626,0.10760498046875,-0.02392578125,0.99432373046875,-18.759307861328125,12.972259521484375,4.792633056640625,1,1.0,1.0,1.0,1.0,10.00
2024-10-11 20:44:36.583,0.8012261,0.46889693,0.535805,0.76838964,0.45198536,-0.07594249,0.1304856,0.22861703,0.94850653,0.15471461,0.35873252,1.1662965,0.43722537,-0.24354275,0.55073524,0.42436212,-0.0639234,-0.48599774,0.30299693,-0.037724912,801.8315,805.05493,779.2674,781.28204,710.7692,0.10760498046875,-0.02392578125,0.99432373046875,-18.759307861328125,12.972259521484375,4.792633056640625,1,1.0,1.0,1.0,1.0,10.00
2024-10-11 20:44:36.584,0.81890327,0.4699236,0.5559147,0.8075019,0.56804705,-0.05592019,0.19525845,0.34449658,1.1962409,0.19583274,0.4219091,1.248157,0.41656798,-0.24578361,0.6022971,0.4592943,-0.043739554,-0.4908331,0.40958837,-0.016131265,807.8755,807.47253,784.5055,788.93774,733.3333,0.10760498046875,-0.02392578125,0.99432373046875,-18.759307861328125,12.972259521484375,4.792633056640625,1,1.0,1.0,1.0,1.0,10.00
2024-10-11 20:44:36.590,0.81890327,0.4699236,0.5559147,0.8075019,0.56804705,-0.05592019,0.19525845,0.34449658,1.1962409,0.19583274,0.4219091,1.248157,0.41656798,-0.24578361,0.6022971,0.4592943,-0.043739554,-0.4908331,0.40958837,-0.016131265,809.0842,803.8461,794.17584,790.14655,936.0073,0.10760498046875,-0.02392578125,0.99432373046875,-18.759307861328125,12.972259521484375,4.792633056640625,1,1.0,1.0,1.0,1.0,10.00
2024-10-11 20:44:36.591,0.81890327,0.4699236,0.5559147,0.8075019,0.56804705,-0.05592019,0.19525845,0.34449658,1.1962409,0.19583274,0.4219091,1.248157,0.41656798,-0.24578361,0.6022971,0.4592943,-0.043739554,-0.4908331,0.40958837,-0.016131265,809.0842,805.8608,799.81683,782.8938,755.4945,0.10760498046875,-0.02392578125,0.99432373046875,-18.759307861328125,12.972259521484375,4.792633056640625,1,1.0,1.0,1.0,1.0,10.00
2024-10-11 20:44:36.592,0.81890327,0.4699236,0.5559147,0.8075019,0.56804705,-0.05592019,0.19525845,0.34449658,1.1962409,0.19583274,0.4219091,1.248157,0.41656798,-0.24578361,0.6022971,0.4592943,-0.043739554,-0.4908331,0.40958837,-0.016131265,811.0989,807.8755,795.78754,779.2674,604.3956,0.08526611328125,-0.0556640625,0.99456787109375,-17.8546142578125,13.151702880859375,8.516082763671875,1,1.0,1.0,1.0,1.0,10.00
2024-10-11 20:44:36.593,0.81890327,0.4699236,0.5559147,0.8075019,0.56804705,-0.05592019,0.19525845,0.34449658,1.1962409,0.19583274,0.4219091,1.248157,0.41656798,-0.24578361,0.6022971,0.4592943,-0.043739554,-0.4908331,0.40958837,-0.016131265,811.0989,803.44324,782.8938,781.685,715.6044,0.08526611328125,-0.0556640625,0.99456787109375,-17.8546142578125,13.151702880859375,8.516082763671875,1,1.0,1.0,1.0,1.0,10.00
2024-10-11 20:44:36.594,0.81890327,0.4699236,0.5559147,0.8075019,0.56804705,-0.05592019,0.19525845,0.34449658,1.1962409,0.19583274,0.4219091,1.248157,0.41656798,-0.24578361,0.6022971,0.4592943,-0.043739554,-0.4908331,0.40958837,-0.016131265,805.4579,804.2491,781.685,784.5055,853.00366,0.08526611328125,-0.0556640625,0.99456787109375,-17.8546142578125,13.151702880859375,8.516082763671875,1,1.0,1.0,1.0,1.0,10.00
2024-10-11 20:44:36.594,0.81890327,0.4699236,0.5559147,0.8075019,0.56804705,-0.05592019,0.19525845,0.34449658,1.1962409,0.19583274,0.4219091,1.248157,0.41656798,-0.24578361,0.6022971,0.4592943,-0.043739554,-0.4908331,0.40958837,-0.016131265,803.0403,807.0696,789.7436,791.75824,739.3773,0.08526611328125,-0.0556640625,0.99456787109375,-17.8546142578125,13.151702880859375,8.516082763671875,1,1.0,1.0,1.0,1.0,10.00
2024-10-11 20:44:36.595,0.81890327,0.4699236,0.5559147,0.8075019,0.56804705,-0.05592019,0.19525845,0.34449658,1.1962409,0.19583274,0.4219091,1.248157,0.41656798,-0.24578361,0.6022971,0.4592943,-0.043739554,-0.4908331,0.40958837,-0.016131265,808.68134,809.89014,790.14655,796.5934,678.93774,0.08526611328125,-0.0556640625,0.99456787109375,-17.8546142578125,13.151702880859375,8.516082763671875,1,1.0,1.0,1.0,1.0,10.00
2024-10-11 20:44:36.596,0.81890327,0.4699236,0.5559147,0.8075019,0.56804705,-0.05592019,0.19525845,0.34449658,1.1962409,0.19583274,0.4219091,1.248157,0.41656798,-0.24578361,0.6022971,0.4592943,-0.043739554,-0.4908331,0.40958837,-0.016131265,801.02563,803.44324,790.9524,795.78754,943.2601,0.08526611328125,-0.0556640625,0.99456787109375,-17.8546142578125,13.151702880859375,8.516082763671875,1,1.0,1.0,1.0,1.0,10.00
2024-10-11 20:44:36.596,0.81890327,0.4699236,0.5559147,0.8075019,0.56804705,-0.05592019,0.19525845,0.34449658,1.1962409,0.19583274,0.4219091,1.248157,0.41656798,-0.24578361,0.6022971,0.4592943,-0.043739554,-0.4908331,0.40958837,-0.016131265,796.1905,799.41394,806.6667,792.5641,1046.0073,0.08526611328125,-0.0556640625,0.99456787109375,-17.8546142578125,13.151702880859375,8.516082763671875,1,1.0,1.0,1.0,1.0,10.00
2024-10-11 20:44:36.597,0.81890327,0.4699236,0.5559147,0.8075019,0.56804705,-0.05592019,0.19525845,0.34449658,1.1962409,0.19583274,0.4219091,1.248157,0.41656798,-0.24578361,0.6022971,0.4592943,-0.043739554,-0.4908331,0.40958837,-0.016131265,805.05493,799.81683,812.71063,796.99634,823.1868,0.08526611328125,-0.0556640625,0.99456787109375,-17.8546142578125,13.151702880859375,8.516082763671875,1,1.0,1.0,1.0,1.0,10.00
2024-10-11 20:44:36.598,0.81890327,0.4699236,0.5559147,0.8075019,0.56804705,-0.05592019,0.19525845,0.34449658,1.1962409,0.19583274,0.4219091,1.248157,0.41656798,-0.24578361,0.6022971,0.4592943,-0.043739554,-0.4908331,0.40958837,-0.016131265,805.05493,801.4286,784.90845,805.4579,539.5238,0.08526611328125,-0.0556640625,0.99456787109375,-17.8546142578125,13.151702880859375,8.516082763671875,1,1.0,1.0,1.0,1.0,10.00
2024-10-11 20:44:36.599,0.81890327,0.4699236,0.5559147,0.8075019,0.56804705,-0.05592019,0.19525845,0.34449658,1.1962409,0.19583274,0.4219091,1.248157,0.41656798,-0.24578361,0.6022971,0.4592943,-0.043739554,-0.4908331,0.40958837,-0.016131265,796.5934,805.05493,794.9817,805.4579,820.3663,0.08526611328125,-0.0556640625,0.99456787109375,-17.8546142578125,13.151702880859375,8.516082763671875,1,1.0,1.0,1.0,1.0,10.00
2024-10-11 20:44:36.600,0.81890327,0.4699236,0.5559147,0.8075019,0.56804705,-0.05592019,0.19525845,0.34449658,1.1962409,0.19583274,0.4219091,1.248157,0.41656798,-0.24578361,0.6022971,0.4592943,-0.043739554,-0.4908331,0.40958837,-0.016131265,794.17584,803.8461,813.91943,799.011,1128.2051,0.08526611328125,-0.0556640625,0.99456787109375,-17.8546142578125,13.151702880859375,8.516082763671875,1,1.0,1.0,1.0,1.0,10.00
2024-10-11 20:44:36.601,0.81890327,0.4699236,0.5559147,0.8075019,0.56804705,-0.05592019,0.19525845,0.34449658,1.1962409,0.19583274,0.4219091,1.248157,0.41656798,-0.24578361,0.6022971,0.4592943,-0.043739554,-0.4908331,0.40958837,-0.016131265,789.7436,803.0403,798.20514,791.3553,704.7253,0.08526611328125,-0.0556640625,0.99456787109375,-17.8546142578125,13.151702880859375,8.516082763671875,1,1.0,1.0,1.0,1.0,10.00
2024-10-11 20:44:36.632,0.81890327,0.4699236,0.5559147,0.8075019,0.56804705,-0.05592019,0.19525845,0.34449658,1.1962409,0.19583274,0.4219091,1.248157,0.41656798,-0.24578361,0.6022971,0.4592943,-0.043739554,-0.4908331,0.40958837,-0.016131265,791.75824,801.8315,805.8608,790.9524,580.6227,0.06463623046875,-0.081298828125,0.99444580078125,-14.273223876953125,13.286285400390625,11.9329833984375,1,1.0,1.0,1.0,1.0,10.00
2024-10-11 20:44:36.633,0.81890327,0.4699236,0.5559147,0.8075019,0.56804705,-0.05592019,0.19525845,0.34449658,1.1962409,0.19583274,0.4219091,1.248157,0.41656798,-0.24578361,0.6022971,0.4592943,-0.043739554,-0.4908331,0.40958837,-0.016131265,805.8608,800.2198,810.293,805.4579,895.7143,0.06463623046875,-0.081298828125,0.99444580078125,-14.273223876953125,13.286285400390625,11.9329833984375,1,1.0,1.0,1.0,1.0,10.00
2024-10-11 20:44:36.634,0.81890327,0.4699236,0.5559147,0.8075019,0.56804705,-0.05592019,0.19525845,0.34449658,1.1962409,0.19583274,0.4219091,1.248157,0.41656798,-0.24578361,0.6022971,0.4592943,-0.043739554,-0.4908331,0.40958837,-0.016131265,801.02563,798.60803,796.99634,807.47253,953.73627,0.06463623046875,-0.081298828125,0.99444580078125,-14.273223876953125,13.286285400390625,11.9329833984375,1,1.0,1.0,1.0,1.0,10.00
2024-10-11 20:44:36.635,0.81890327,0.4699236,0.5559147,0.8075019,0.56804705,-0.05592019,0.19525845,0.34449658,1.1962409,0.19583274,0.4219091,1.248157,0.41656798,-0.24578361,0.6022971,0.4592943,-0.043739554,-0.4908331,0.40958837,-0.016131265,796.1905,798.20514,794.9817,813.5165,722.4542,0.06463623046875,-0.081298828125,0.99444580078125,-14.273223876953125,13.286285400390625,11.9329833984375,1,1.0,1.0,1.0,1.0,10.00
2024-10-11 20:44:36.636,0.81890327,0.4699236,0.5559147,0.8075019,0.56804705,-0.05592019,0.19525845,0.34449658,1.1962409,0.19583274,0.4219091,1.248157,0.41656798,-0.24578361,0.6022971,0.4592943,-0.043739554,-0.4908331,0.40958837,-0.016131265,804.2491,799.011,801.02563,830.84247,720.84247,0.06463623046875,-0.081298828125,0.99444580078125,-14.273223876953125,13.286285400390625,11.9329833984375,1,1.0,1.0,1.0,1.0,10.00
2024-10-11 20:44:36.638,0.81890327,0.4699236,0.5559147,0.8075019,0.56804705,-0.05592019,0.19525845,0.34449658,1.1962409,0.19583274,0.4219091,1.248157,0.41656798,-0.24578361,0.6022971,0.4592943,-0.043739554,-0.4908331,0.40958837,-0.016131265,800.2198,795.78754,797.8022,818.7546,1150.7693,0.06463623046875,-0.081298828125,0.99444580078125,-14.273223876953125,13.286285400390625,11.9329833984375,1,1.0,1.0,1.0,1.0,10.00
2024-10-11 20:44:36.639,0.81890327,0.4699236,0.5559147,0.8075019,0.56804705,-0.05592019,0.19525845,0.34449658,1.1962409,0.19583274,0.4219091,1.248157,0.41656798,-0.24578361,0.6022971,0.4592943,-0.043739554,-0.4908331,0.40958837,-0.016131265,800.2198,794.57874,782.8938,801.4286,1396.5568,0.06463623046875,-0.081298828125,0.99444580078125,-14.273223876953125,13.286285400390625,11.9329833984375,1,1.0,1.0,1.0,1.0,10.00
2024-10-11 20:44:36.640,0.81890327,0.4699236,0.5559147,0.8075019,0.56804705,-0.05592019,0.19525845,0.34449658,1.1962409,0.19583274,0.4219091,1.248157,0.41656798,-0.24578361,0.6022971,0.4592943,-0.043739554,-0.4908331,0.40958837,-0.016131265,805.4579,799.011,786.52014,794.17584,841.31866,0.06463623046875,-0.081298828125,0.99444580078125,-14.273223876953125,13.286285400390625,11.9329833984375,1,1.0,1.0,1.0,1.0,10.00
2024-10-11 20:44:36.641,0.81890327,0.4699236,0.5559147,0.8075019,0.56804705,-0.05592019,0.19525845,0.34449658,1.1962409,0.19583274,0.4219091,1.248157,0.41656798,-0.24578361,0.6022971,0.4592943,-0.043739554,-0.4908331,0.40958837,-0.016131265,811.0989,798.60803,794.57874,799.81683,616.08057,0.06463623046875,-0.081298828125,0.99444580078125,-14.273223876953125,13.286285400390625,11.9329833984375,1,1.0,1.0,1.0,1.0,10.00
2024-10-11 20:44:36.642,0.81890327,0.4699236,0.5559147,0.8075019,0.56804705,-0.05592019,0.19525845,0.34449658,1.1962409,0.19583274,0.4219091,1.248157,0.41656798,-0.24578361,0.6022971,0.4592943,-0.043739554,-0.4908331,0.40958837,-0.016131265,817.5458,801.4286,787.326,805.4579,857.03296,0.06463623046875,-0.081298828125,0.99444580078125,-14.273223876953125,13.286285400390625,11.9329833984375,1,1.0,1.0,1.0,1.0,10.00
2024-10-11 20:44:36.643,0.81890327,0.4699236,0.5559147,0.8075019,0.56804705,-0.05592019,0.19525845,0.34449658,1.1962409,0.19583274,0.4219091,1.248157,0.41656798,-0.24578361,0.6022971,0.4592943,-0.043739554,-0.4908331,0.40958837,-0.016131265,821.1722,803.44324,803.0403,809.0842,662.4176,0.06463623046875,-0.081298828125,0.99444580078125,-14.273223876953125,13.286285400390625,11.9329833984375,1,1.0,1.0,1.0,1.0,10.00
2024-10-11 20:44:36.643,0.82262355,0.4698619,0.5643181,0.8278009,0.70294106,-0.02595355,0.27219558,0.46771207,1.436225,0.20689388,0.5008127,1.3220277,0.38998774,-0.22442776,0.6549015,0.48241234,-0.011047168,-0.4922509,0.51349825,0.024865404,828.4249,803.44324,793.36993,823.1868,547.98535,0.06463623046875,-0.081298828125,0.99444580078125,-14.273223876953125,13.286285400390625,11.9329833984375,1,1.0,1.0,1.0,1.0,10.00
2024-10-11 20:44:36.651,0.82262355,0.4698619,0.5643181,0.8278009,0.70294106,-0.02595355,0.27219558,0.46771207,1.436225,0.20689388,0.5008127,1.3220277,0.38998774,-0.22442776,0.6549015,0.48241234,-0.011047168,-0.4922509,0.51349825,0.024865404,829.6337,802.23444,779.2674,830.4396,743.4066,0.04595947265625,-0.0958251953125,0.9903564453125,-10.684356689453125,13.570404052734375,15.484466552734375,1,1.0,1.0,1.0,1.0,10.00
2024-10-11 20:44:36.652,0.82262355,0.4698619,0.5643181,0.8278009,0.70294106,-0.02595355,0.27219558,0.46771207,1.436225,0.20689388,0.5008127,1.3220277,0.38998774,-0.22442776,0.6549015,0.48241234,-0.011047168,-0.4922509,0.51349825,0.024865404,831.2454,801.8315,793.7729,828.022,716.0073,0.04595947265625,-0.0958251953125,0.9903564453125,-10.684356689453125,13.570404052734375,15.484466552734375,1,1.0,1.0,1.0,1.0,10.00
2024-10-11 20:44:36.653,0.82262355,0.4698619,0.5643181,0.8278009,0.70294106,-0.02595355,0.27219558,0.46771207,1.436225,0.20689388,0.5008127,1.3220277,0.38998774,-0.22442776,0.6549015,0.48241234,-0.011047168,-0.4922509,0.51349825,0.024865404,828.8278,806.6667,815.12823,832.0513,572.96704,0.04595947265625,-0.0958251953125,0.9903564453125,-10.684356689453125,13.570404052734375,15.484466552734375,1,1.0,1.0,1.0,1.0,10.00
2024-10-11 20:44:36.654,0.82262355,0.4698619,0.5643181,0.8278009,0.70294106,-0.02595355,0.27219558,0.46771207,1.436225,0.20689388,0.5008127,1.3220277,0.38998774,-0.22442776,0.6549015,0.48241234,-0.011047168,-0.4922509,0.51349825,0.024865404,817.9487,803.8461,835.2747,826.8132,518.1685,0.04595947265625,-0.0958251953125,0.9903564453125,-10.684356689453125,13.570404052734375,15.484466552734375,1,1.0,1.0,1.0,1.0,10.00
2024-10-11 20:44:36.655,0.82262355,0.4698619,0.5643181,0.8278009,0.70294106,-0.02595355,0.27219558,0.46771207,1.436225,0.20689388,0.5008127,1.3220277,0.38998774,-0.22442776,0.6549015,0.48241234,-0.011047168,-0.4922509,0.51349825,0.024865404,814.7253,801.02563,833.663,821.1722,587.8755,0.04595947265625,-0.0958251953125,0.9903564453125,-10.684356689453125,13.570404052734375,15.484466552734375,1,1.0,1.0,1.0,1.0,10.00
2024-10-11 20:44:36.656,0.82262355,0.4698619,0.5643181,0.8278009,0.70294106,-0.02595355,0.27219558,0.46771207,1.436225,0.20689388,0.5008127,1.3220277,0.38998774,-0.22442776,0.6549015,0.48241234,-0.011047168,-0.4922509,0.51349825,0.024865404,811.50183,796.1905,822.381,827.2161,1083.4799,0.04595947265625,-0.0958251953125,0.9903564453125,-10.684356689453125,13.570404052734375,15.484466552734375,1,1.0,1.0,1.0,1.0,10.00
2024-10-11 20:44:36.657,0.82262355,0.4698619,0.5643181,0.8278009,0.70294106,-0.02595355,0.27219558,0.46771207,1.436225,0.20689388,0.5008127,1.3220277,0.38998774,-0.22442776,0.6549015,0.48241234,-0.011047168,-0.4922509,0.51349825,0.024865404,804.65204,790.54944,811.50183,837.28937,1294.6154,0.04595947265625,-0.0958251953125,0.9903564453125,-10.684356689453125,13.570404052734375,15.484466552734375,1,1.0,1.0,1.0,1.0,10.00
2024-10-11 20:44:36.658,0.82262355,0.4698619,0.5643181,0.8278009,0.70294106,-0.02595355,0.27219558,0.46771207,1.436225,0.20689388,0.5008127,1.3220277,0.38998774,-0.22442776,0.6549015,0.48241234,-0.011047168,-0.4922509,0.51349825,0.024865404,799.011,794.17584,804.65204,812.71063,1126.9963,0.04595947265625,-0.0958251953125,0.9903564453125,-10.684356689453125,13.570404052734375,15.484466552734375,1,1.0,1.0,1.0,1.0,10.00
2024-10-11 20:44:36.658,0.82262355,0.4698619,0.5643181,0.8278009,0.70294106,-0.02595355,0.27219558,0.46771207,1.436225,0.20689388,0.5008127,1.3220277,0.38998774,-0.22442776,0.6549015,0.48241234,-0.011047168,-0.4922509,0.51349825,0.024865404,795.38464,796.1905,797.8022,778.0586,798.60803,0.04595947265625,-0.0958251953125,0.9903564453125,-10.684356689453125,13.570404052734375,15.484466552734375,1,1.0,1.0,1.0,1.0,10.00
2024-10-11 20:44:36.659,0.82262355,0.4698619,0.5643181,0.8278009,0.70294106,-0.02595355,0.27219558,0.46771207,1.436225,0.20689388,0.5008127,1.3220277,0.38998774,-0.22442776,0.6549015,0.48241234,-0.011047168,-0.4922509,0.51349825,0.024865404,802.6374,792.5641,799.41394,798.20514,1045.6044,0.04595947265625,-0.0958251953125,0.9903564453125,-10.684356689453125,13.570404052734375,15.484466552734375,1,1.0,1.0,1.0,1.0,10.00
