TimeStamp,Delta_TP9,Delta_AF7,Delta_AF8,Delta_TP10,Theta_TP9,Theta_AF7,Theta_AF8,Theta_TP10,Alpha_TP9,Alpha_AF7,Alpha_AF8,Alpha_TP10,Beta_TP9,Beta_AF7,Beta_AF8,Beta_TP10,Gamma_TP9,Gamma_AF7,Gamma_AF8,Gamma_TP10,RAW_TP9,RAW_AF7,RAW_AF8,RAW_TP10,AUX_RIGHT,Accelerometer_X,Accelerometer_Y,Accelerometer_Z,Gyro_X,Gyro_Y,Gyro_Z,HeadBandOn,HSI_TP9,HSI_AF7,HSI_AF8,HSI_TP10,Battery,Elements
2024-10-11 20:39:50.413,0.062047046,-0.06677102,0.39308488,0.27804053,0.090362266,-0.19231409,0.17390513,0.011777986,0.4410564,0.10706302,0.12620914,0.47079468,0.3575515,-0.14407623,0.1434865,0.25115988,-0.010017701,-0.26899773,-0.23656096,-0.021294042,810.293,803.44324,809.89014,807.8755,850.18317,-0.15716552734375,0.0946044921875,0.99383544921875,0.64300537109375,-1.652374267578125,1.8243408203125,1,1.0,1.0,1.0,1.0,10.00
2024-10-11 20:39:50.414,0.062047046,-0.06677102,0.39308488,0.27804053,0.090362266,-0.19231409,0.17390513,0.011777986,0.4410564,0.10706302,0.12620914,0.47079468,0.3575515,-0.14407623,0.1434865,0.25115988,-0.010017701,-0.26899773,-0.23656096,-0.021294042,810.696,801.02563,805.05493,802.6374,880.80585,-0.15716552734375,0.0946044921875,0.99383544921875,0.64300537109375,-1.652374267578125,1.8243408203125,1,1.0,1.0,1.0,1.0,10.00
2024-10-11 20:39:50.415,0.062047046,-0.06677102,0.39308488,0.27804053,0.090362266,-0.19231409,0.17390513,0.011777986,0.4410564,0.10706302,0.12620914,0.47079468,0.3575515,-0.14407623,0.1434865,0.25115988,-0.010017701,-0.26899773,-0.23656096,-0.021294042,812.71063,797.3993,805.4579,797.8022,634.61536,-0.15716552734375,0.0946044921875,0.99383544921875,0.64300537109375,-1.652374267578125,1.8243408203125,1,1.0,1.0,1.0,1.0,10.00
2024-10-11 20:39:50.415,0.062047046,-0.06677102,0.39308488,0.27804053,0.090362266,-0.19231409,0.17390513,0.011777986,0.4410564,0.10706302,0.12620914,0.47079468,0.3575515,-0.14407623,0.1434865,0.25115988,-0.010017701,-0.26899773,-0.23656096,-0.021294042,801.02563,801.02563,810.696,799.011,670.07324,-0.15716552734375,0.0946044921875,0.99383544921875,0.64300537109375,-1.652374267578125,1.8243408203125,1,1.0,1.0,1.0,1.0,10.00
2024-10-11 20:39:50.416,0.062047046,-0.06677102,0.39308488,0.27804053,0.090362266,-0.19231409,0.17390513,0.011777986,0.4410564,0.10706302,0.12620914,0.47079468,0.3575515,-0.14407623,0.1434865,0.25115988,-0.010017701,-0.26899773,-0.23656096,-0.021294042,793.36993,800.6227,811.50183,806.26373,863.8828,-0.15716552734375,0.0946044921875,0.99383544921875,0.64300537109375,-1.652374267578125,1.8243408203125,1,1.0,1.0,1.0,1.0,10.00
2024-10-11 20:39:50.416,0.062047046,-0.06677102,0.39308488,0.27804053,0.090362266,-0.19231409,0.17390513,0.011777986,0.4410564,0.10706302,0.12620914,0.47079468,0.3575515,-0.14407623,0.1434865,0.25115988,-0.010017701,-0.26899773,-0.23656096,-0.021294042,797.8022,795.78754,813.5165,804.2491,869.92676,-0.15716552734375,0.0946044921875,0.99383544921875,0.64300537109375,-1.652374267578125,1.8243408203125,1,1.0,1.0,1.0,1.0,10.00
2024-10-11 20:39:50.417,0.062047046,-0.06677102,0.39308488,0.27804053,0.090362266,-0.19231409,0.17390513,0.011777986,0.4410564,0.10706302,0.12620914,0.47079468,0.3575515,-0.14407623,0.1434865,0.25115988,-0.010017701,-0.26899773,-0.23656096,-0.021294042,794.9817,796.5934,808.68134,796.5934,669.2674,-0.15716552734375,0.0946044921875,0.99383544921875,0.64300537109375,-1.652374267578125,1.8243408203125,1,1.0,1.0,1.0,1.0,10.00
2024-10-11 20:39:50.418,0.062047046,-0.06677102,0.39308488,0.27804053,0.090362266,-0.19231409,0.17390513,0.011777986,0.4410564,0.10706302,0.12620914,0.47079468,0.3575515,-0.14407623,0.1434865,0.25115988,-0.010017701,-0.26899773,-0.23656096,-0.021294042,790.14655,795.78754,802.23444,797.3993,606.8132,-0.15716552734375,0.0946044921875,0.99383544921875,0.64300537109375,-1.652374267578125,1.8243408203125,1,1.0,1.0,1.0,1.0,10.00
2024-10-11 20:39:50.418,0.062047046,-0.06677102,0.39308488,0.27804053,0.090362266,-0.19231409,0.17390513,0.011777986,0.4410564,0.10706302,0.12620914,0.47079468,0.3575515,-0.14407623,0.1434865,0.25115988,-0.010017701,-0.26899773,-0.23656096,-0.021294042,787.326,791.3553,812.71063,799.81683,800.2198,-0.15716552734375,0.0946044921875,0.99383544921875,0.64300537109375,-1.652374267578125,1.8243408203125,1,1.0,1.0,1.0,1.0,10.00
2024-10-11 20:39:50.419,0.062047046,-0.06677102,0.39308488,0.27804053,0.090362266,-0.19231409,0.17390513,0.011777986,0.4410564,0.10706302,0.12620914,0.47079468,0.3575515,-0.14407623,0.1434865,0.25115988,-0.010017701,-0.26899773,-0.23656096,-0.021294042,788.93774,796.5934,805.4579,802.6374,812.71063,-0.15716552734375,0.0946044921875,0.99383544921875,0.64300537109375,-1.652374267578125,1.8243408203125,1,1.0,1.0,1.0,1.0,10.00
2024-10-11 20:39:50.419,0.062047046,-0.06677102,0.39308488,0.27804053,0.090362266,-0.19231409,0.17390513,0.011777986,0.4410564,0.10706302,0.12620914,0.47079468,0.3575515,-0.14407623,0.1434865,0.25115988,-0.010017701,-0.26899773,-0.23656096,-0.021294042,797.3993,799.81683,800.2198,801.8315,593.5165,-0.15716552734375,0.0946044921875,0.99383544921875,0.64300537109375,-1.652374267578125,1.8243408203125,1,1.0,1.0,1.0,1.0,10.00
2024-10-11 20:39:50.420,0.062047046,-0.06677102,0.39308488,0.27804053,0.090362266,-0.19231409,0.17390513,0.011777986,0.4410564,0.10706302,0.12620914,0.47079468,0.3575515,-0.14407623,0.1434865,0.25115988,-0.010017701,-0.26899773,-0.23656096,-0.021294042,800.6227,794.9817,809.0842,803.44324,664.0293,-0.15716552734375,0.0946044921875,0.99383544921875,0.64300537109375,-1.652374267578125,1.8243408203125,1,1.0,1.0,1.0,1.0,10.00
2024-10-11 20:39:50.481,0.062047046,-0.06677102,0.39308488,0.27804053,0.090362266,-0.19231409,0.17390513,0.011777986,0.4410564,0.10706302,0.12620914,0.47079468,0.3575515,-0.14407623,0.1434865,0.25115988,-0.010017701,-0.26899773,-0.23656096,-0.021294042,799.011,796.99634,806.26373,805.4579,865.89746,-0.15234375,0.0992431640625,1.000732421875,0.500946044921875,-1.532745361328125,2.87109375,1,1.0,1.0,1.0,1.0,10.00
2024-10-11 20:39:50.482,0.062047046,-0.06677102,0.39308488,0.27804053,0.090362266,-0.19231409,0.17390513,0.011777986,0.4410564,0.10706302,0.12620914,0.47079468,0.3575515,-0.14407623,0.1434865,0.25115988,-0.010017701,-0.26899773,-0.23656096,-0.021294042,799.81683,799.41394,805.05493,804.65204,811.9048,-0.15234375,0.0992431640625,1.000732421875,0.500946044921875,-1.532745361328125,2.87109375,1,1.0,1.0,1.0,1.0,10.00
2024-10-11 20:39:50.483,0.062047046,-0.06677102,0.39308488,0.27804053,0.090362266,-0.19231409,0.17390513,0.011777986,0.4410564,0.10706302,0.12620914,0.47079468,0.3575515,-0.14407623,0.1434865,0.25115988,-0.010017701,-0.26899773,-0.23656096,-0.021294042,797.3993,795.78754,809.89014,804.65204,591.0989,-0.15234375,0.0992431640625,1.000732421875,0.500946044921875,-1.532745361328125,2.87109375,1,1.0,1.0,1.0,1.0,10.00
2024-10-11 20:39:50.483,0.062047046,-0.06677102,0.39308488,0.27804053,0.090362266,-0.19231409,0.17390513,0.011777986,0.4410564,0.10706302,0.12620914,0.47079468,0.3575515,-0.14407623,0.1434865,0.25115988,-0.010017701,-0.26899773,-0.23656096,-0.021294042,795.78754,795.78754,809.0842,802.6374,657.1795,-0.15234375,0.0992431640625,1.000732421875,0.500946044921875,-1.532745361328125,2.87109375,1,1.0,1.0,1.0,1.0,10.00
2024-10-11 20:39:50.484,0.062047046,-0.06677102,0.39308488,0.27804053,0.090362266,-0.19231409,0.17390513,0.011777986,0.4410564,0.10706302,0.12620914,0.47079468,0.3575515,-0.14407623,0.1434865,0.25115988,-0.010017701,-0.26899773,-0.23656096,-0.021294042,799.41394,798.60803,801.02563,798.20514,848.5714,-0.15234375,0.0992431640625,1.000732421875,0.500946044921875,-1.532745361328125,2.87109375,1,1.0,1.0,1.0,1.0,10.00
2024-10-11 20:39:50.484,0.062047046,-0.06677102,0.39308488,0.27804053,0.090362266,-0.19231409,0.17390513,0.011777986,0.4410564,0.10706302,0.12620914,0.47079468,0.3575515,-0.14407623,0.1434865,0.25115988,-0.010017701,-0.26899773,-0.23656096,-0.021294042,802.23444,801.8315,792.1612,789.7436,797.8022,-0.15234375,0.0992431640625,1.000732421875,0.500946044921875,-1.532745361328125,2.87109375,1,1.0,1.0,1.0,1.0,10.00
2024-10-11 20:39:50.485,0.062047046,-0.06677102,0.39308488,0.27804053,0.090362266,-0.19231409,0.17390513,0.011777986,0.4410564,0.10706302,0.12620914,0.47079468,0.3575515,-0.14407623,0.1434865,0.25115988,-0.010017701,-0.26899773,-0.23656096,-0.021294042,799.41394,796.99634,793.36993,784.5055,718.4249,-0.15234375,0.0992431640625,1.000732421875,0.500946044921875,-1.532745361328125,2.87109375,1,1.0,1.0,1.0,1.0,10.00
2024-10-11 20:39:50.486,0.062047046,-0.06677102,0.39308488,0.27804053,0.090362266,-0.19231409,0.17390513,0.011777986,0.4410564,0.10706302,0.12620914,0.47079468,0.3575515,-0.14407623,0.1434865,0.25115988,-0.010017701,-0.26899773,-0.23656096,-0.021294042,801.8315,794.17584,799.81683,787.326,684.17584,-0.15234375,0.0992431640625,1.000732421875,0.500946044921875,-1.532745361328125,2.87109375,1,1.0,1.0,1.0,1.0,10.00
2024-10-11 20:39:50.486,0.062047046,-0.06677102,0.39308488,0.27804053,0.090362266,-0.19231409,0.17390513,0.011777986,0.4410564,0.10706302,0.12620914,0.47079468,0.3575515,-0.14407623,0.1434865,0.25115988,-0.010017701,-0.26899773,-0.23656096,-0.021294042,806.6667,801.4286,804.65204,793.7729,695.4579,-0.15234375,0.0992431640625,1.000732421875,0.500946044921875,-1.532745361328125,2.87109375,1,1.0,1.0,1.0,1.0,10.00
2024-10-11 20:39:50.487,0.062047046,-0.06677102,0.39308488,0.27804053,0.090362266,-0.19231409,0.17390513,0.011777986,0.4410564,0.10706302,0.12620914,0.47079468,0.3575515,-0.14407623,0.1434865,0.25115988,-0.010017701,-0.26899773,-0.23656096,-0.021294042,794.17584,799.41394,805.4579,796.5934,653.5531,-0.15234375,0.0992431640625,1.000732421875,0.500946044921875,-1.532745361328125,2.87109375,1,1.0,1.0,1.0,1.0,10.00
2024-10-11 20:39:50.487,0.062047046,-0.06677102,0.39308488,0.27804053,0.090362266,-0.19231409,0.17390513,0.011777986,0.4410564,0.10706302,0.12620914,0.47079468,0.3575515,-0.14407623,0.1434865,0.25115988,-0.010017701,-0.26899773,-0.23656096,-0.021294042,799.81683,796.1905,804.2491,803.44324,655.56775,-0.15234375,0.0992431640625,1.000732421875,0.500946044921875,-1.532745361328125,2.87109375,1,1.0,1.0,1.0,1.0,10.00
2024-10-11 20:39:50.488,0.062047046,-0.06677102,0.39308488,0.27804053,0.090362266,-0.19231409,0.17390513,0.011777986,0.4410564,0.10706302,0.12620914,0.47079468,0.3575515,-0.14407623,0.1434865,0.25115988,-0.010017701,-0.26899773,-0.23656096,-0.021294042,815.9341,797.8022,807.47253,818.7546,826.8132,-0.15234375,0.0992431640625,1.000732421875,0.500946044921875,-1.532745361328125,2.87109375,1,1.0,1.0,1.0,1.0,10.00
2024-10-11 20:39:50.514,0.062047046,-0.06677102,0.39308488,0.27804053,0.090362266,-0.19231409,0.17390513,0.011777986,0.4410564,0.10706302,0.12620914,0.47079468,0.3575515,-0.14407623,0.1434865,0.25115988,-0.010017701,-0.26899773,-0.23656096,-0.021294042,809.89014,795.38464,802.23444,820.7692,839.304,-0.15234375,0.0992431640625,1.000732421875,0.500946044921875,-1.532745361328125,2.87109375,1,1.0,1.0,1.0,1.0,10.00
2024-10-11 20:39:50.515,0.0801227,-0.09235818,0.35664213,0.28315073,0.16090022,-0.20058206,0.17914602,-0.012729141,0.4425323,0.10706302,0.120455496,0.48068142,0.35055193,-0.1514917,0.12690255,0.25323167,-0.012103351,-0.27486464,-0.22817096,-0.034860462,803.8461,795.78754,801.02563,813.91943,763.1502,-0.15234375,0.0992431640625,1.000732421875,0.500946044921875,-1.532745361328125,2.87109375,1,1.0,1.0,1.0,1.0,10.00
2024-10-11 20:39:50.520,0.0801227,-0.09235818,0.35664213,0.28315073,0.16090022,-0.20058206,0.17914602,-0.012729141,0.4425323,0.10706302,0.120455496,0.48068142,0.35055193,-0.1514917,0.12690255,0.25323167,-0.012103351,-0.27486464,-0.22817096,-0.034860462,811.0989,799.41394,805.4579,808.2784,763.5531,-0.15234375,0.0992431640625,1.000732421875,0.500946044921875,-1.532745361328125,2.87109375,1,1.0,1.0,1.0,1.0,10.00
2024-10-11 20:39:50.521,0.0801227,-0.09235818,0.35664213,0.28315073,0.16090022,-0.20058206,0.17914602,-0.012729141,0.4425323,0.10706302,0.120455496,0.48068142,0.35055193,-0.1514917,0.12690255,0.25323167,-0.012103351,-0.27486464,-0.22817096,-0.034860462,810.293,792.5641,804.2491,800.2198,854.61536,-0.15234375,0.0992431640625,1.000732421875,0.500946044921875,-1.532745361328125,2.87109375,1,1.0,1.0,1.0,1.0,10.00
2024-10-11 20:39:50.521,0.0801227,-0.09235818,0.35664213,0.28315073,0.16090022,-0.20058206,0.17914602,-0.012729141,0.4425323,0.10706302,0.120455496,0.48068142,0.35055193,-0.1514917,0.12690255,0.25323167,-0.012103351,-0.27486464,-0.22817096,-0.034860462,799.81683,792.1612,795.38464,794.17584,884.83514,-0.15234375,0.0992431640625,1.000732421875,0.500946044921875,-1.532745361328125,2.87109375,1,1.0,1.0,1.0,1.0,10.00
2024-10-11 20:39:50.522,0.0801227,-0.09235818,0.35664213,0.28315073,0.16090022,-0.20058206,0.17914602,-0.012729141,0.4425323,0.10706302,0.120455496,0.48068142,0.35055193,-0.1514917,0.12690255,0.25323167,-0.012103351,-0.27486464,-0.22817096,-0.034860462,792.5641,794.57874,795.78754,794.17584,872.3443,-0.15234375,0.0992431640625,1.000732421875,0.500946044921875,-1.532745361328125,2.87109375,1,1.0,1.0,1.0,1.0,10.00
2024-10-11 20:39:50.523,0.0801227,-0.09235818,0.35664213,0.28315073,0.16090022,-0.20058206,0.17914602,-0.012729141,0.4425323,0.10706302,0.120455496,0.48068142,0.35055193,-0.1514917,0.12690255,0.25323167,-0.012103351,-0.27486464,-0.22817096,-0.034860462,796.5934,788.1319,801.4286,792.96704,893.2967,-0.15234375,0.0992431640625,1.000732421875,0.500946044921875,-1.532745361328125,2.87109375,1,1.0,1.0,1.0,1.0,10.00
2024-10-11 20:39:50.523,0.0801227,-0.09235818,0.35664213,0.28315073,0.16090022,-0.20058206,0.17914602,-0.012729141,0.4425323,0.10706302,0.120455496,0.48068142,0.35055193,-0.1514917,0.12690255,0.25323167,-0.012103351,-0.27486464,-0.22817096,-0.034860462,800.6227,790.54944,802.6374,800.2198,772.01465,-0.15234375,0.0992431640625,1.000732421875,0.500946044921875,-1.532745361328125,2.87109375,1,1.0,1.0,1.0,1.0,10.00
2024-10-11 20:39:50.524,0.0801227,-0.09235818,0.35664213,0.28315073,0.16090022,-0.20058206,0.17914602,-0.012729141,0.4425323,0.10706302,0.120455496,0.48068142,0.35055193,-0.1514917,0.12690255,0.25323167,-0.012103351,-0.27486464,-0.22817096,-0.034860462,796.99634,794.57874,805.4579,808.2784,772.01465,-0.15234375,0.0992431640625,1.000732421875,0.500946044921875,-1.532745361328125,2.87109375,1,1.0,1.0,1.0,1.0,10.00
2024-10-11 20:39:50.525,0.0801227,-0.09235818,0.35664213,0.28315073,0.16090022,-0.20058206,0.17914602,-0.012729141,0.4425323,0.10706302,0.120455496,0.48068142,0.35055193,-0.1514917,0.12690255,0.25323167,-0.012103351,-0.27486464,-0.22817096,-0.034860462,790.9524,790.54944,800.6227,805.05493,743.4066,-0.15234375,0.0992431640625,1.000732421875,0.500946044921875,-1.532745361328125,2.87109375,1,1.0,1.0,1.0,1.0,10.00
2024-10-11 20:39:50.526,0.0801227,-0.09235818,0.35664213,0.28315073,0.16090022,-0.20058206,0.17914602,-0.012729141,0.4425323,0.10706302,0.120455496,0.48068142,0.35055193,-0.1514917,0.12690255,0.25323167,-0.012103351,-0.27486464,-0.22817096,-0.034860462,787.72894,788.1319,801.02563,800.6227,723.2601,-0.15234375,0.0992431640625,1.000732421875,0.500946044921875,-1.532745361328125,2.87109375,1,1.0,1.0,1.0,1.0,10.00
2024-10-11 20:39:50.527,0.0801227,-0.09235818,0.35664213,0.28315073,0.16090022,-0.20058206,0.17914602,-0.012729141,0.4425323,0.10706302,0.120455496,0.48068142,0.35055193,-0.1514917,0.12690255,0.25323167,-0.012103351,-0.27486464,-0.22817096,-0.034860462,792.1612,789.7436,801.02563,795.78754,815.12823,-0.15234375,0.0992431640625,1.000732421875,0.500946044921875,-1.532745361328125,2.87109375,1,1.0,1.0,1.0,1.0,10.00
2024-10-11 20:39:50.613,0.0801227,-0.09235818,0.35664213,0.28315073,0.16090022,-0.20058206,0.17914602,-0.012729141,0.4425323,0.10706302,0.120455496,0.48068142,0.35055193,-0.1514917,0.12690255,0.25323167,-0.012103351,-0.27486464,-0.22817096,-0.034860462,790.14655,790.14655,795.78754,797.8022,721.2454,-0.1429443359375,0.0975341796875,0.98736572265625,-0.01495361328125,-1.562652587890625,6.280517578125,1,1.0,1.0,1.0,1.0,10.00
2024-10-11 20:39:50.614,0.0801227,-0.09235818,0.35664213,0.28315073,0.16090022,-0.20058206,0.17914602,-0.012729141,0.4425323,0.10706302,0.120455496,0.48068142,0.35055193,-0.1514917,0.12690255,0.25323167,-0.012103351,-0.27486464,-0.22817096,-0.034860462,787.72894,789.7436,789.7436,797.8022,603.9927,-0.1429443359375,0.0975341796875,0.98736572265625,-0.01495361328125,-1.562652587890625,6.280517578125,1,1.0,1.0,1.0,1.0,10.00
2024-10-11 20:39:50.614,0.0801227,-0.09235818,0.35664213,0.28315073,0.16090022,-0.20058206,0.17914602,-0.012729141,0.4425323,0.10706302,0.120455496,0.48068142,0.35055193,-0.1514917,0.12690255,0.25323167,-0.012103351,-0.27486464,-0.22817096,-0.034860462,793.7729,791.3553,794.9817,797.3993,799.81683,-0.1429443359375,0.0975341796875,0.98736572265625,-0.01495361328125,-1.562652587890625,6.280517578125,1,1.0,1.0,1.0,1.0,10.00
2024-10-11 20:39:50.615,0.0801227,-0.09235818,0.35664213,0.28315073,0.16090022,-0.20058206,0.17914602,-0.012729141,0.4425323,0.10706302,0.120455496,0.48068142,0.35055193,-0.1514917,0.12690255,0.25323167,-0.012103351,-0.27486464,-0.22817096,-0.034860462,800.2198,791.3553,799.41394,803.0403,894.90845,-0.1429443359375,0.0975341796875,0.98736572265625,-0.01495361328125,-1.562652587890625,6.280517578125,1,1.0,1.0,1.0,1.0,10.00
2024-10-11 20:39:50.616,0.0801227,-0.09235818,0.35664213,0.28315073,0.16090022,-0.20058206,0.17914602,-0.012729141,0.4425323,0.10706302,0.120455496,0.48068142,0.35055193,-0.1514917,0.12690255,0.25323167,-0.012103351,-0.27486464,-0.22817096,-0.034860462,806.26373,792.1612,798.20514,799.41394,737.3626,-0.1429443359375,0.0975341796875,0.98736572265625,-0.01495361328125,-1.562652587890625,6.280517578125,1,1.0,1.0,1.0,1.0,10.00
2024-10-11 20:39:50.616,0.0801227,-0.09235818,0.35664213,0.28315073,0.16090022,-0.20058206,0.17914602,-0.012729141,0.4425323,0.10706302,0.120455496,0.48068142,0.35055193,-0.1514917,0.12690255,0.25323167,-0.012103351,-0.27486464,-0.22817096,-0.034860462,799.011,793.7729,797.3993,794.57874,646.7033,-0.1429443359375,0.0975341796875,0.98736572265625,-0.01495361328125,-1.562652587890625,6.280517578125,1,1.0,1.0,1.0,1.0,10.00
2024-10-11 20:39:50.617,0.0801227,-0.09235818,0.35664213,0.28315073,0.16090022,-0.20058206,0.17914602,-0.012729141,0.4425323,0.10706302,0.120455496,0.48068142,0.35055193,-0.1514917,0.12690255,0.25323167,-0.012103351,-0.27486464,-0.22817096,-0.034860462,794.17584,791.3553,796.99634,790.9524,883.22345,-0.1429443359375,0.0975341796875,0.98736572265625,-0.01495361328125,-1.562652587890625,6.280517578125,1,1.0,1.0,1.0,1.0,10.00
2024-10-11 20:39:50.617,0.0801227,-0.09235818,0.35664213,0.28315073,0.16090022,-0.20058206,0.17914602,-0.012729141,0.4425323,0.10706302,0.120455496,0.48068142,0.35055193,-0.1514917,0.12690255,0.25323167,-0.012103351,-0.27486464,-0.22817096,-0.034860462,798.20514,788.5348,797.8022,784.10254,974.68866,-0.1429443359375,0.0975341796875,0.98736572265625,-0.01495361328125,-1.562652587890625,6.280517578125,1,1.0,1.0,1.0,1.0,10.00
2024-10-11 20:39:50.618,0.0801227,-0.09235818,0.35664213,0.28315073,0.16090022,-0.20058206,0.17914602,-0.012729141,0.4425323,0.10706302,0.120455496,0.48068142,0.35055193,-0.1514917,0.12690255,0.25323167,-0.012103351,-0.27486464,-0.22817096,-0.034860462,802.6374,789.7436,800.2198,783.69965,660.40295,-0.1429443359375,0.0975341796875,0.98736572265625,-0.01495361328125,-1.562652587890625,6.280517578125,1,1.0,1.0,1.0,1.0,10.00
2024-10-11 20:39:50.619,0.0801227,-0.09235818,0.35664213,0.28315073,0.16090022,-0.20058206,0.17914602,-0.012729141,0.4425323,0.10706302,0.120455496,0.48068142,0.35055193,-0.1514917,0.12690255,0.25323167,-0.012103351,-0.27486464,-0.22817096,-0.034860462,806.6667,791.3553,799.011,784.10254,613.2601,-0.1429443359375,0.0975341796875,0.98736572265625,-0.01495361328125,-1.562652587890625,6.280517578125,1,1.0,1.0,1.0,1.0,10.00
2024-10-11 20:39:50.619,0.0801227,-0.09235818,0.35664213,0.28315073,0.16090022,-0.20058206,0.17914602,-0.012729141,0.4425323,0.10706302,0.120455496,0.48068142,0.35055193,-0.1514917,0.12690255,0.25323167,-0.012103351,-0.27486464,-0.22817096,-0.034860462,811.50183,792.1612,790.54944,788.1319,861.06226,-0.1429443359375,0.0975341796875,0.98736572265625,-0.01495361328125,-1.562652587890625,6.280517578125,1,1.0,1.0,1.0,1.0,10.00
2024-10-11 20:39:50.620,0.0801227,-0.09235818,0.35664213,0.28315073,0.16090022,-0.20058206,0.17914602,-0.012729141,0.4425323,0.10706302,0.120455496,0.48068142,0.35055193,-0.1514917,0.12690255,0.25323167,-0.012103351,-0.27486464,-0.22817096,-0.034860462,801.02563,791.75824,790.14655,790.14655,956.1539,-0.1429443359375,0.0975341796875,0.98736572265625,-0.01495361328125,-1.562652587890625,6.280517578125,1,1.0,1.0,1.0,1.0,10.00
2024-10-11 20:39:50.646,0.0801227,-0.09235818,0.35664213,0.28315073,0.16090022,-0.20058206,0.17914602,-0.012729141,0.4425323,0.10706302,0.120455496,0.48068142,0.35055193,-0.1514917,0.12690255,0.25323167,-0.012103351,-0.27486464,-0.22817096,-0.034860462,786.9231,789.7436,790.9524,782.0879,728.49817,-0.13836669921875,0.0943603515625,0.9990234375,-0.082244873046875,-1.502838134765625,12.142333984375,1,1.0,1.0,1.0,1.0,10.00
2024-10-11 20:39:50.647,0.0801227,-0.09235818,0.35664213,0.28315073,0.16090022,-0.20058206,0.17914602,-0.012729141,0.4425323,0.10706302,0.120455496,0.48068142,0.35055193,-0.1514917,0.12690255,0.25323167,-0.012103351,-0.27486464,-0.22817096,-0.034860462,787.326,786.52014,792.96704,778.0586,651.13556,-0.13836669921875,0.0943603515625,0.9990234375,-0.082244873046875,-1.502838134765625,12.142333984375,1,1.0,1.0,1.0,1.0,10.00
2024-10-11 20:39:50.648,0.0801227,-0.09235818,0.35664213,0.28315073,0.16090022,-0.20058206,0.17914602,-0.012729141,0.4425323,0.10706302,0.120455496,0.48068142,0.35055193,-0.1514917,0.12690255,0.25323167,-0.012103351,-0.27486464,-0.22817096,-0.034860462,782.0879,781.685,796.99634,785.7143,884.43225,-0.13836669921875,0.0943603515625,0.9990234375,-0.082244873046875,-1.502838134765625,12.142333984375,1,1.0,1.0,1.0,1.0,10.00
2024-10-11 20:39:50.648,0.088990524,-0.116044775,0.3560548,0.28909546,0.21515805,-0.20152679,0.18008235,-0.03601939,0.447329,0.10706302,0.16517524,0.49076703,0.3429617,-0.15986678,0.11115812,0.25707576,-0.01044667,-0.2852694,-0.22246863,-0.040133405,774.0293,779.2674,798.20514,793.7729,969.0476,-0.13836669921875,0.0943603515625,0.9990234375,-0.082244873046875,-1.502838134765625,12.142333984375,1,1.0,1.0,1.0,1.0,10.00
2024-10-11 20:39:50.654,0.088990524,-0.116044775,0.3560548,0.28909546,0.21515805,-0.20152679,0.18008235,-0.03601939,0.447329,0.10706302,0.16517524,0.49076703,0.3429617,-0.15986678,0.11115812,0.25707576,-0.01044667,-0.2852694,-0.22246863,-0.040133405,772.8205,780.07324,801.02563,794.57874,753.8828,-0.13836669921875,0.0943603515625,0.9990234375,-0.082244873046875,-1.502838134765625,12.142333984375,1,1.0,1.0,1.0,1.0,10.00
2024-10-11 20:39:50.654,0.088990524,-0.116044775,0.3560548,0.28909546,0.21515805,-0.20152679,0.18008235,-0.03601939,0.447329,0.10706302,0.16517524,0.49076703,0.3429617,-0.15986678,0.11115812,0.25707576,-0.01044667,-0.2852694,-0.22246863,-0.040133405,772.8205,784.5055,799.41394,797.8022,772.4176,-0.13836669921875,0.0943603515625,0.9990234375,-0.082244873046875,-1.502838134765625,12.142333984375,1,1.0,1.0,1.0,1.0,10.00
2024-10-11 20:39:50.655,0.088990524,-0.116044775,0.3560548,0.28909546,0.21515805,-0.20152679,0.18008235,-0.03601939,0.447329,0.10706302,0.16517524,0.49076703,0.3429617,-0.15986678,0.11115812,0.25707576,-0.01044667,-0.2852694,-0.22246863,-0.040133405,776.04395,783.2967,801.02563,806.26373,1023.0403,-0.13836669921875,0.0943603515625,0.9990234375,-0.082244873046875,-1.502838134765625,12.142333984375,1,1.0,1.0,1.0,1.0,10.00
2024-10-11 20:39:50.656,0.088990524,-0.116044775,0.3560548,0.28909546,0.21515805,-0.20152679,0.18008235,-0.03601939,0.447329,0.10706302,0.16517524,0.49076703,0.3429617,-0.15986678,0.11115812,0.25707576,-0.01044667,-0.2852694,-0.22246863,-0.040133405,776.8498,775.64105,804.2491,805.8608,1015.38464,-0.13836669921875,0.0943603515625,0.9990234375,-0.082244873046875,-1.502838134765625,12.142333984375,1,1.0,1.0,1.0,1.0,10.00
2024-10-11 20:39:50.656,0.088990524,-0.116044775,0.3560548,0.28909546,0.21515805,-0.20152679,0.18008235,-0.03601939,0.447329,0.10706302,0.16517524,0.49076703,0.3429617,-0.15986678,0.11115812,0.25707576,-0.01044667,-0.2852694,-0.22246863,-0.040133405,778.86444,775.64105,804.65204,793.36993,846.55676,-0.13836669921875,0.0943603515625,0.9990234375,-0.082244873046875,-1.502838134765625,12.142333984375,1,1.0,1.0,1.0,1.0,10.00
2024-10-11 20:39:50.657,0.088990524,-0.116044775,0.3560548,0.28909546,0.21515805,-0.20152679,0.18008235,-0.03601939,0.447329,0.10706302,0.16517524,0.49076703,0.3429617,-0.15986678,0.11115812,0.25707576,-0.01044667,-0.2852694,-0.22246863,-0.040133405,782.0879,779.67035,805.8608,788.5348,858.24176,-0.13836669921875,0.0943603515625,0.9990234375,-0.082244873046875,-1.502838134765625,12.142333984375,1,1.0,1.0,1.0,1.0,10.00
2024-10-11 20:39:50.657,0.088990524,-0.116044775,0.3560548,0.28909546,0.21515805,-0.20152679,0.18008235,-0.03601939,0.447329,0.10706302,0.16517524,0.49076703,0.3429617,-0.15986678,0.11115812,0.25707576,-0.01044667,-0.2852694,-0.22246863,-0.040133405,784.10254,788.5348,802.23444,796.5934,894.90845,-0.13836669921875,0.0943603515625,0.9990234375,-0.082244873046875,-1.502838134765625,12.142333984375,1,1.0,1.0,1.0,1.0,10.00
2024-10-11 20:39:50.658,0.088990524,-0.116044775,0.3560548,0.28909546,0.21515805,-0.20152679,0.18008235,-0.03601939,0.447329,0.10706302,0.16517524,0.49076703,0.3429617,-0.15986678,0.11115812,0.25707576,-0.01044667,-0.2852694,-0.22246863,-0.040133405,793.7729,792.5641,801.02563,805.05493,769.19415,-0.13836669921875,0.0943603515625,0.9990234375,-0.082244873046875,-1.502838134765625,12.142333984375,1,1.0,1.0,1.0,1.0,10.00
2024-10-11 20:39:50.659,0.088990524,-0.116044775,0.3560548,0.28909546,0.21515805,-0.20152679,0.18008235,-0.03601939,0.447329,0.10706302,0.16517524,0.49076703,0.3429617,-0.15986678,0.11115812,0.25707576,-0.01044667,-0.2852694,-0.22246863,-0.040133405,803.44324,792.5641,807.8755,805.8608,643.0769,-0.12158203125,0.095947265625,0.98876953125,0.16448974609375,-4.553375244140625,21.54815673828125,1,1.0,1.0,1.0,1.0,10.00
2024-10-11 20:39:50.660,0.088990524,-0.116044775,0.3560548,0.28909546,0.21515805,-0.20152679,0.18008235,-0.03601939,0.447329,0.10706302,0.16517524,0.49076703,0.3429617,-0.15986678,0.11115812,0.25707576,-0.01044667,-0.2852694,-0.22246863,-0.040133405,794.57874,800.6227,810.696,789.34064,786.52014,-0.12158203125,0.095947265625,0.98876953125,0.16448974609375,-4.553375244140625,21.54815673828125,1,1.0,1.0,1.0,1.0,10.00
2024-10-11 20:39:50.660,0.088990524,-0.116044775,0.3560548,0.28909546,0.21515805,-0.20152679,0.18008235,-0.03601939,0.447329,0.10706302,0.16517524,0.49076703,0.3429617,-0.15986678,0.11115812,0.25707576,-0.01044667,-0.2852694,-0.22246863,-0.040133405,780.4762,804.65204,807.47253,777.25275,937.2161,-0.12158203125,0.095947265625,0.98876953125,0.16448974609375,-4.553375244140625,21.54815673828125,1,1.0,1.0,1.0,1.0,10.00
2024-10-11 20:39:50.661,0.088990524,-0.116044775,0.3560548,0.28909546,0.21515805,-0.20152679,0.18008235,-0.03601939,0.447329,0.10706302,0.16517524,0.49076703,0.3429617,-0.15986678,0.11115812,0.25707576,-0.01044667,-0.2852694,-0.22246863,-0.040133405,786.52014,806.6667,805.4579,778.86444,840.9158,-0.12158203125,0.095947265625,0.98876953125,0.16448974609375,-4.553375244140625,21.54815673828125,1,1.0,1.0,1.0,1.0,10.00
2024-10-11 20:39:50.661,0.088990524,-0.116044775,0.3560548,0.28909546,0.21515805,-0.20152679,0.18008235,-0.03601939,0.447329,0.10706302,0.16517524,0.49076703,0.3429617,-0.15986678,0.11115812,0.25707576,-0.01044667,-0.2852694,-0.22246863,-0.040133405,784.90845,811.50183,809.4872,776.04395,773.22345,-0.12158203125,0.095947265625,0.98876953125,0.16448974609375,-4.553375244140625,21.54815673828125,1,1.0,1.0,1.0,1.0,10.00
2024-10-11 20:39:50.662,0.088990524,-0.116044775,0.3560548,0.28909546,0.21515805,-0.20152679,0.18008235,-0.03601939,0.447329,0.10706302,0.16517524,0.49076703,0.3429617,-0.15986678,0.11115812,0.25707576,-0.01044667,-0.2852694,-0.22246863,-0.040133405,779.2674,813.1135,819.15753,775.2381,909.81683,-0.12158203125,0.095947265625,0.98876953125,0.16448974609375,-4.553375244140625,21.54815673828125,1,1.0,1.0,1.0,1.0,10.00
2024-10-11 20:39:50.663,0.088990524,-0.116044775,0.3560548,0.28909546,0.21515805,-0.20152679,0.18008235,-0.03601939,0.447329,0.10706302,0.16517524,0.49076703,0.3429617,-0.15986678,0.11115812,0.25707576,-0.01044667,-0.2852694,-0.22246863,-0.040133405,766.77655,805.8608,821.978,775.2381,1052.4542,-0.12158203125,0.095947265625,0.98876953125,0.16448974609375,-4.553375244140625,21.54815673828125,1,1.0,1.0,1.0,1.0,10.00
2024-10-11 20:39:50.663,0.088990524,-0.116044775,0.3560548,0.28909546,0.21515805,-0.20152679,0.18008235,-0.03601939,0.447329,0.10706302,0.16517524,0.49076703,0.3429617,-0.15986678,0.11115812,0.25707576,-0.01044667,-0.2852694,-0.22246863,-0.040133405,757.9121,804.2491,828.8278,767.1795,822.7839,-0.12158203125,0.095947265625,0.98876953125,0.16448974609375,-4.553375244140625,21.54815673828125,1,1.0,1.0,1.0,1.0,10.00
2024-10-11 20:39:50.664,0.088990524,-0.116044775,0.3560548,0.28909546,0.21515805,-0.20152679,0.18008235,-0.03601939,0.447329,0.10706302,0.16517524,0.49076703,0.3429617,-0.15986678,0.11115812,0.25707576,-0.01044667,-0.2852694,-0.22246863,-0.040133405,760.7326,806.26373,833.2601,761.53845,641.4652,-0.12158203125,0.095947265625,0.98876953125,0.16448974609375,-4.553375244140625,21.54815673828125,1,1.0,1.0,1.0,1.0,10.00
2024-10-11 20:39:50.664,0.088990524,-0.116044775,0.3560548,0.28909546,0.21515805,-0.20152679,0.18008235,-0.03601939,0.447329,0.10706302,0.16517524,0.49076703,0.3429617,-0.15986678,0.11115812,0.25707576,-0.01044667,-0.2852694,-0.22246863,-0.040133405,750.2564,802.23444,834.87177,759.12085,819.5604,-0.12158203125,0.095947265625,0.98876953125,0.16448974609375,-4.553375244140625,21.54815673828125,1,1.0,1.0,1.0,1.0,10.00
2024-10-11 20:39:50.665,0.088990524,-0.116044775,0.3560548,0.28909546,0.21515805,-0.20152679,0.18008235,-0.03601939,0.447329,0.10706302,0.16517524,0.49076703,0.3429617,-0.15986678,0.11115812,0.25707576,-0.01044667,-0.2852694,-0.22246863,-0.040133405,740.18317,799.81683,838.49817,755.89746,881.6117,-0.12158203125,0.095947265625,0.98876953125,0.16448974609375,-4.553375244140625,21.54815673828125,1,1.0,1.0,1.0,1.0,10.00
2024-10-11 20:39:50.666,0.088990524,-0.116044775,0.3560548,0.28909546,0.21515805,-0.20152679,0.18008235,-0.03601939,0.447329,0.10706302,0.16517524,0.49076703,0.3429617,-0.15986678,0.11115812,0.25707576,-0.01044667,-0.2852694,-0.22246863,-0.040133405,734.1392,799.41394,843.3333,743.8095,772.4176,-0.12158203125,0.095947265625,0.98876953125,0.16448974609375,-4.553375244140625,21.54815673828125,1,1.0,1.0,1.0,1.0,10.00
2024-10-11 20:39:50.690,0.088990524,-0.116044775,0.3560548,0.28909546,0.21515805,-0.20152679,0.18008235,-0.03601939,0.447329,0.10706302,0.16517524,0.49076703,0.3429617,-0.15986678,0.11115812,0.25707576,-0.01044667,-0.2852694,-0.22246863,-0.040133405,720.0366,799.41394,848.97437,735.34796,704.7253,-0.1236572265625,0.10845947265625,0.9853515625,1.906585693359375,-5.241241455078125,32.07550048828125,1,1.0,1.0,1.0,1.0,10.00
2024-10-11 20:39:50.691,0.088990524,-0.116044775,0.3560548,0.28909546,0.21515805,-0.20152679,0.18008235,-0.03601939,0.447329,0.10706302,0.16517524,0.49076703,0.3429617,-0.15986678,0.11115812,0.25707576,-0.01044667,-0.2852694,-0.22246863,-0.040133405,711.978,796.1905,850.18317,736.55676,829.6337,-0.1236572265625,0.10845947265625,0.9853515625,1.906585693359375,-5.241241455078125,32.07550048828125,1,1.0,1.0,1.0,1.0,10.00
2024-10-11 20:39:50.692,0.088990524,-0.116044775,0.3560548,0.28909546,0.21515805,-0.20152679,0.18008235,-0.03601939,0.447329,0.10706302,0.16517524,0.49076703,0.3429617,-0.15986678,0.11115812,0.25707576,-0.01044667,-0.2852694,-0.22246863,-0.040133405,703.5165,790.14655,854.21246,734.5421,888.86444,-0.1236572265625,0.10845947265625,0.9853515625,1.906585693359375,-5.241241455078125,32.07550048828125,1,1.0,1.0,1.0,1.0,10.00
2024-10-11 20:39:50.692,0.088990524,-0.116044775,0.3560548,0.28909546,0.21515805,-0.20152679,0.18008235,-0.03601939,0.447329,0.10706302,0.16517524,0.49076703,0.3429617,-0.15986678,0.11115812,0.25707576,-0.01044667,-0.2852694,-0.22246863,-0.040133405,685.78754,785.7143,862.27106,737.76556,701.9048,-0.1236572265625,0.10845947265625,0.9853515625,1.906585693359375,-5.241241455078125,32.07550048828125,1,1.0,1.0,1.0,1.0,10.00
2024-10-11 20:39:50.693,0.088990524,-0.116044775,0.3560548,0.28909546,0.21515805,-0.20152679,0.18008235,-0.03601939,0.447329,0.10706302,0.16517524,0.49076703,0.3429617,-0.15986678,0.11115812,0.25707576,-0.01044667,-0.2852694,-0.22246863,-0.040133405,668.86444,782.8938,866.7033,744.61536,650.32965,-0.1236572265625,0.10845947265625,0.9853515625,1.906585693359375,-5.241241455078125,32.07550048828125,1,1.0,1.0,1.0,1.0,10.00
2024-10-11 20:39:50.694,0.088990524,-0.12825166,0.37785393,0.28909546,0.21515805,-0.20174327,0.17596318,-0.03601939,0.447329,0.11006407,0.2374979,0.49076703,0.3429617,-0.16887148,0.103568345,0.25707576,-0.01044667,-0.29950902,-0.21516235,-0.040133405,662.01465,778.86444,868.315,740.989,855.42126,-0.1236572265625,0.10845947265625,0.9853515625,1.906585693359375,-5.241241455078125,32.07550048828125,1,1.0,1.0,1.0,1.0,10.00
2024-10-11 20:39:50.699,0.088990524,-0.12825166,0.37785393,0.28909546,0.21515805,-0.20174327,0.17596318,-0.03601939,0.447329,0.11006407,0.2374979,0.49076703,0.3429617,-0.16887148,0.103568345,0.25707576,-0.01044667,-0.29950902,-0.21516235,-0.040133405,682.1612,778.86444,872.3443,738.5714,954.1392,-0.1236572265625,0.10845947265625,0.9853515625,1.906585693359375,-5.241241455078125,32.07550048828125,1,1.0,1.0,1.0,1.0,10.00
2024-10-11 20:39:50.700,0.088990524,-0.12825166,0.37785393,0.28909546,0.21515805,-0.20174327,0.17596318,-0.03601939,0.447329,0.11006407,0.2374979,0.49076703,0.3429617,-0.16887148,0.103568345,0.25707576,-0.01044667,-0.29950902,-0.21516235,-0.040133405,693.8461,776.04395,871.13556,743.8095,766.3736,-0.1236572265625,0.10845947265625,0.9853515625,1.906585693359375,-5.241241455078125,32.07550048828125,1,1.0,1.0,1.0,1.0,10.00
2024-10-11 20:39:50.700,0.088990524,-0.12825166,0.37785393,0.28909546,0.21515805,-0.20174327,0.17596318,-0.03601939,0.447329,0.11006407,0.2374979,0.49076703,0.3429617,-0.16887148,0.103568345,0.25707576,-0.01044667,-0.29950902,-0.21516235,-0.040133405,700.696,770.40295,868.71796,756.7033,693.44324,-0.1236572265625,0.10845947265625,0.9853515625,1.906585693359375,-5.241241455078125,32.07550048828125,1,1.0,1.0,1.0,1.0,10.00
2024-10-11 20:39:50.701,0.088990524,-0.12825166,0.37785393,0.28909546,0.21515805,-0.20174327,0.17596318,-0.03601939,0.447329,0.11006407,0.2374979,0.49076703,0.3429617,-0.16887148,0.103568345,0.25707576,-0.01044667,-0.29950902,-0.21516235,-0.040133405,712.7839,769.59705,869.12085,773.22345,783.69965,-0.1236572265625,0.10845947265625,0.9853515625,1.906585693359375,-5.241241455078125,32.07550048828125,1,1.0,1.0,1.0,1.0,10.00
2024-10-11 20:39:50.701,0.088990524,-0.12825166,0.37785393,0.28909546,0.21515805,-0.20174327,0.17596318,-0.03601939,0.447329,0.11006407,0.2374979,0.49076703,0.3429617,-0.16887148,0.103568345,0.25707576,-0.01044667,-0.29950902,-0.21516235,-0.040133405,722.0513,767.98535,868.71796,779.2674,707.1429,-0.1236572265625,0.10845947265625,0.9853515625,1.906585693359375,-5.241241455078125,32.07550048828125,1,1.0,1.0,1.0,1.0,10.00
2024-10-11 20:39:50.702,0.088990524,-0.12825166,0.37785393,0.28909546,0.21515805,-0.20174327,0.17596318,-0.03601939,0.447329,0.11006407,0.2374979,0.49076703,0.3429617,-0.16887148,0.103568345,0.25707576,-0.01044667,-0.29950902,-0.21516235,-0.040133405,740.58606,765.16486,875.56775,783.2967,579.41394,-0.1236572265625,0.10845947265625,0.9853515625,1.906585693359375,-5.241241455078125,32.07550048828125,1,1.0,1.0,1.0,1.0,10.00
2024-10-11 20:39:50.703,0.088990524,-0.12825166,0.37785393,0.28909546,0.21515805,-0.20174327,0.17596318,-0.03601939,0.447329,0.11006407,0.2374979,0.49076703,0.3429617,-0.16887148,0.103568345,0.25707576,-0.01044667,-0.29950902,-0.21516235,-0.040133405,754.2857,765.9707,875.9707,795.78754,702.3077,-0.1298828125,0.12493896484375,0.98870849609375,3.641204833984375,-1.51031494140625,37.144775390625,1,1.0,1.0,1.0,1.0,10.00
2024-10-11 20:39:50.703,0.088990524,-0.12825166,0.37785393,0.28909546,0.21515805,-0.20174327,0.17596318,-0.03601939,0.447329,0.11006407,0.2374979,0.49076703,0.3429617,-0.16887148,0.103568345,0.25707576,-0.01044667,-0.29950902,-0.21516235,-0.040133405,762.3443,764.35895,866.30035,807.8755,876.3736,-0.1298828125,0.12493896484375,0.98870849609375,3.641204833984375,-1.51031494140625,37.144775390625,1,1.0,1.0,1.0,1.0,10.00
2024-10-11 20:39:50.704,0.088990524,-0.12825166,0.37785393,0.28909546,0.21515805,-0.20174327,0.17596318,-0.03601939,0.447329,0.11006407,0.2374979,0.49076703,0.3429617,-0.16887148,0.103568345,0.25707576,-0.01044667,-0.29950902,-0.21516235,-0.040133405,773.6264,761.53845,869.12085,820.3663,813.1135,-0.1298828125,0.12493896484375,0.98870849609375,3.641204833984375,-1.51031494140625,37.144775390625,1,1.0,1.0,1.0,1.0,10.00
2024-10-11 20:39:50.705,0.088990524,-0.12825166,0.37785393,0.28909546,0.21515805,-0.20174327,0.17596318,-0.03601939,0.447329,0.11006407,0.2374979,0.49076703,0.3429617,-0.16887148,0.103568345,0.25707576,-0.01044667,-0.29950902,-0.21516235,-0.040133405,775.2381,760.7326,876.3736,820.3663,625.7509,-0.1298828125,0.12493896484375,0.98870849609375,3.641204833984375,-1.51031494140625,37.144775390625,1,1.0,1.0,1.0,1.0,10.00
2024-10-11 20:39:50.705,0.088990524,-0.12825166,0.37785393,0.28909546,0.21515805,-0.20174327,0.17596318,-0.03601939,0.447329,0.11006407,0.2374979,0.49076703,0.3429617,-0.16887148,0.103568345,0.25707576,-0.01044667,-0.29950902,-0.21516235,-0.040133405,791.3553,760.32965,877.98535,826.0073,815.12823,-0.1298828125,0.12493896484375,0.98870849609375,3.641204833984375,-1.51031494140625,37.144775390625,1,1.0,1.0,1.0,1.0,10.00
2024-10-11 20:39:50.706,0.088990524,-0.12825166,0.37785393,0.28909546,0.21515805,-0.20174327,0.17596318,-0.03601939,0.447329,0.11006407,0.2374979,0.49076703,0.3429617,-0.16887148,0.103568345,0.25707576,-0.01044667,-0.29950902,-0.21516235,-0.040133405,804.65204,758.315,878.7912,842.52747,1087.1062,-0.1298828125,0.12493896484375,0.98870849609375,3.641204833984375,-1.51031494140625,37.144775390625,1,1.0,1.0,1.0,1.0,10.00
2024-10-11 20:39:50.706,0.088990524,-0.12825166,0.37785393,0.28909546,0.21515805,-0.20174327,0.17596318,-0.03601939,0.447329,0.11006407,0.2374979,0.49076703,0.3429617,-0.16887148,0.103568345,0.25707576,-0.01044667,-0.29950902,-0.21516235,-0.040133405,794.9817,758.71796,875.56775,840.9158,899.34064,-0.1298828125,0.12493896484375,0.98870849609375,3.641204833984375,-1.51031494140625,37.144775390625,1,1.0,1.0,1.0,1.0,10.00
2024-10-11 20:39:50.707,0.088990524,-0.12825166,0.37785393,0.28909546,0.21515805,-0.20174327,0.17596318,-0.03601939,0.447329,0.11006407,0.2374979,0.49076703,0.3429617,-0.16887148,0.103568345,0.25707576,-0.01044667,-0.29950902,-0.21516235,-0.040133405,796.1905,763.1502,869.12085,830.4396,719.6337,-0.1298828125,0.12493896484375,0.98870849609375,3.641204833984375,-1.51031494140625,37.144775390625,1,1.0,1.0,1.0,1.0,10.00
2024-10-11 20:39:50.708,0.088990524,-0.12825166,0.37785393,0.28909546,0.21515805,-0.20174327,0.17596318,-0.03601939,0.447329,0.11006407,0.2374979,0.49076703,0.3429617,-0.16887148,0.103568345,0.25707576,-0.01044667,-0.29950902,-0.21516235,-0.040133405,801.8315,767.98535,863.0769,834.87177,892.49084,-0.1298828125,0.12493896484375,0.98870849609375,3.641204833984375,-1.51031494140625,37.144775390625,1,1.0,1.0,1.0,1.0,10.00
2024-10-11 20:39:50.708,0.088990524,-0.12825166,0.37785393,0.28909546,0.21515805,-0.20174327,0.17596318,-0.03601939,0.447329,0.11006407,0.2374979,0.49076703,0.3429617,-0.16887148,0.103568345,0.25707576,-0.01044667,-0.29950902,-0.21516235,-0.040133405,809.0842,774.83514,863.8828,835.6777,914.2491,-0.1298828125,0.12493896484375,0.98870849609375,3.641204833984375,-1.51031494140625,37.144775390625,1,1.0,1.0,1.0,1.0,10.00
2024-10-11 20:39:50.709,0.088990524,-0.12825166,0.37785393,0.28909546,0.21515805,-0.20174327,0.17596318,-0.03601939,0.447329,0.11006407,0.2374979,0.49076703,0.3429617,-0.16887148,0.103568345,0.25707576,-0.01044667,-0.29950902,-0.21516235,-0.040133405,819.9634,777.25275,859.85345,820.7692,705.12823,-0.1298828125,0.12493896484375,0.98870849609375,3.641204833984375,-1.51031494140625,37.144775390625,1,1.0,1.0,1.0,1.0,10.00
2024-10-11 20:39:50.710,0.088990524,-0.12825166,0.37785393,0.28909546,0.21515805,-0.20174327,0.17596318,-0.03601939,0.447329,0.11006407,0.2374979,0.49076703,0.3429617,-0.16887148,0.103568345,0.25707576,-0.01044667,-0.29950902,-0.21516235,-0.040133405,810.696,774.43225,851.39197,806.6667,610.84247,-0.1298828125,0.12493896484375,0.98870849609375,3.641204833984375,-1.51031494140625,37.144775390625,1,1.0,1.0,1.0,1.0,10.00
2024-10-11 20:39:50.710,0.088990524,-0.12825166,0.37785393,0.28909546,0.21515805,-0.20174327,0.17596318,-0.03601939,0.447329,0.11006407,0.2374979,0.49076703,0.3429617,-0.16887148,0.103568345,0.25707576,-0.01044667,-0.29950902,-0.21516235,-0.040133405,805.8608,773.22345,850.58606,812.3077,700.293,-0.1298828125,0.12493896484375,0.98870849609375,3.641204833984375,-1.51031494140625,37.144775390625,1,1.0,1.0,1.0,1.0,10.00
2024-10-11 20:39:50.711,0.088990524,-0.12825166,0.37785393,0.28909546,0.21515805,-0.20174327,0.17596318,-0.03601939,0.447329,0.11006407,0.2374979,0.49076703,0.3429617,-0.16887148,0.103568345,0.25707576,-0.01044667,-0.29950902,-0.21516235,-0.040133405,812.71063,780.4762,848.97437,824.3956,848.5714,-0.1298828125,0.12493896484375,0.98870849609375,3.641204833984375,-1.51031494140625,37.144775390625,1,1.0,1.0,1.0,1.0,10.00
2024-10-11 20:39:50.711,0.088990524,-0.12825166,0.37785393,0.28909546,0.21515805,-0.20174327,0.17596318,-0.03601939,0.447329,0.11006407,0.2374979,0.49076703,0.3429617,-0.16887148,0.103568345,0.25707576,-0.01044667,-0.29950902,-0.21516235,-0.040133405,807.8755,780.07324,844.5421,818.7546,740.989,-0.1298828125,0.12493896484375,0.98870849609375,3.641204833984375,-1.51031494140625,37.144775390625,1,1.0,1.0,1.0,1.0,10.00
2024-10-11 20:39:50.712,0.088990524,-0.12825166,0.37785393,0.28909546,0.21515805,-0.20174327,0.17596318,-0.03601939,0.447329,0.11006407,0.2374979,0.49076703,0.3429617,-0.16887148,0.103568345,0.25707576,-0.01044667,-0.29950902,-0.21516235,-0.040133405,798.60803,776.04395,836.08057,809.89014,599.9634,-0.1298828125,0.12493896484375,0.98870849609375,3.641204833984375,-1.51031494140625,37.144775390625,1,1.0,1.0,1.0,1.0,10.00
2024-10-11 20:39:50.713,0.088990524,-0.12825166,0.37785393,0.28909546,0.21515805,-0.20174327,0.17596318,-0.03601939,0.447329,0.11006407,0.2374979,0.49076703,0.3429617,-0.16887148,0.103568345,0.25707576,-0.01044667,-0.29950902,-0.21516235,-0.040133405,782.0879,772.8205,831.6484,811.9048,719.6337,-0.1298828125,0.12493896484375,0.98870849609375,3.641204833984375,-1.51031494140625,37.144775390625,1,1.0,1.0,1.0,1.0,10.00
2024-10-11 20:39:50.713,0.088990524,-0.12825166,0.37785393,0.28909546,0.21515805,-0.20174327,0.17596318,-0.03601939,0.447329,0.11006407,0.2374979,0.49076703,0.3429617,-0.16887148,0.103568345,0.25707576,-0.01044667,-0.29950902,-0.21516235,-0.040133405,782.8938,774.83514,828.022,819.9634,909.41394,-0.1298828125,0.12493896484375,0.98870849609375,3.641204833984375,-1.51031494140625,37.144775390625,1,1.0,1.0,1.0,1.0,10.00
2024-10-11 20:39:50.714,0.088990524,-0.12825166,0.37785393,0.28909546,0.21515805,-0.20174327,0.17596318,-0.03601939,0.447329,0.11006407,0.2374979,0.49076703,0.3429617,-0.16887148,0.103568345,0.25707576,-0.01044667,-0.29950902,-0.21516235,-0.040133405,780.87915,784.10254,822.7839,816.337,842.9304,-0.1298828125,0.12493896484375,0.98870849609375,3.641204833984375,-1.51031494140625,37.144775390625,1,1.0,1.0,1.0,1.0,10.00
2024-10-11 20:39:50.714,0.088990524,-0.13428555,0.4785493,0.28909546,0.21515805,-0.18308279,0.18331186,-0.03601939,0.447329,0.1787737,0.30843133,0.49076703,0.3429617,-0.1948877,0.10246421,0.25707576,-0.01044667,-0.3153183,-0.20606008,-0.040133405,780.4762,780.4762,827.2161,812.3077,730.5128,-0.1298828125,0.12493896484375,0.98870849609375,3.641204833984375,-1.51031494140625,37.144775390625,1,1.0,1.0,1.0,1.0,10.00
2024-10-11 20:39:50.720,0.088990524,-0.13428555,0.4785493,0.28909546,0.21515805,-0.18308279,0.18331186,-0.03601939,0.447329,0.1787737,0.30843133,0.49076703,0.3429617,-0.1948877,0.10246421,0.25707576,-0.01044667,-0.3153183,-0.20606008,-0.040133405,796.5934,776.4469,827.619,826.0073,728.0952,-0.1298828125,0.12493896484375,0.98870849609375,3.641204833984375,-1.51031494140625,37.144775390625,1,1.0,1.0,1.0,1.0,10.00
2024-10-11 20:39:50.720,0.088990524,-0.13428555,0.4785493,0.28909546,0.21515805,-0.18308279,0.18331186,-0.03601939,0.447329,0.1787737,0.30843133,0.49076703,0.3429617,-0.1948877,0.10246421,0.25707576,-0.01044667,-0.3153183,-0.20606008,-0.040133405,796.99634,778.0586,829.6337,829.6337,757.9121,-0.1298828125,0.12493896484375,0.98870849609375,3.641204833984375,-1.51031494140625,37.144775390625,1,1.0,1.0,1.0,1.0,10.00
2024-10-11 20:39:50.721,0.088990524,-0.13428555,0.4785493,0.28909546,0.21515805,-0.18308279,0.18331186,-0.03601939,0.447329,0.1787737,0.30843133,0.49076703,0.3429617,-0.1948877,0.10246421,0.25707576,-0.01044667,-0.3153183,-0.20606008,-0.040133405,797.3993,780.4762,830.0366,826.0073,770.0,-0.1298828125,0.12493896484375,0.98870849609375,3.641204833984375,-1.51031494140625,37.144775390625,1,1.0,1.0,1.0,1.0,10.00
2024-10-11 20:39:50.721,0.088990524,-0.13428555,0.4785493,0.28909546,0.21515805,-0.18308279,0.18331186,-0.03601939,0.447329,0.1787737,0.30843133,0.49076703,0.3429617,-0.1948877,0.10246421,0.25707576,-0.01044667,-0.3153183,-0.20606008,-0.040133405,798.20514,779.2674,825.6044,823.5897,708.3516,-0.1298828125,0.12493896484375,0.98870849609375,3.641204833984375,-1.51031494140625,37.144775390625,1,1.0,1.0,1.0,1.0,10.00
2024-10-11 20:39:50.722,0.088990524,-0.13428555,0.4785493,0.28909546,0.21515805,-0.18308279,0.18331186,-0.03601939,0.447329,0.1787737,0.30843133,0.49076703,0.3429617,-0.1948877,0.10246421,0.25707576,-0.01044667,-0.3153183,-0.20606008,-0.040133405,799.41394,777.6557,824.7985,825.6044,757.50916,-0.12738037109375,0.143310546875,0.99151611328125,4.366455078125,-3.581390380859375,39.76165771484375,1,1.0,1.0,1.0,1.0,10.00
2024-10-11 20:39:50.723,0.088990524,-0.13428555,0.4785493,0.28909546,0.21515805,-0.18308279,0.18331186,-0.03601939,0.447329,0.1787737,0.30843133,0.49076703,0.3429617,-0.1948877,0.10246421,0.25707576,-0.01044667,-0.3153183,-0.20606008,-0.040133405,807.8755,777.6557,830.4396,839.707,755.09155,-0.12738037109375,0.143310546875,0.99151611328125,4.366455078125,-3.581390380859375,39.76165771484375,1,1.0,1.0,1.0,1.0,10.00
2024-10-11 20:39:50.724,0.088990524,-0.13428555,0.4785493,0.28909546,0.21515805,-0.18308279,0.18331186,-0.03601939,0.447329,0.1787737,0.30843133,0.49076703,0.3429617,-0.1948877,0.10246421,0.25707576,-0.01044667,-0.3153183,-0.20606008,-0.040133405,806.6667,775.64105,835.6777,840.5128,626.1539,-0.12738037109375,0.143310546875,0.99151611328125,4.366455078125,-3.581390380859375,39.76165771484375,1,1.0,1.0,1.0,1.0,10.00
2024-10-11 20:39:50.724,0.088990524,-0.13428555,0.4785493,0.28909546,0.21515805,-0.18308279,0.18331186,-0.03601939,0.447329,0.1787737,0.30843133,0.49076703,0.3429617,-0.1948877,0.10246421,0.25707576,-0.01044667,-0.3153183,-0.20606008,-0.040133405,800.2198,772.01465,830.4396,834.4689,762.3443,-0.12738037109375,0.143310546875,0.99151611328125,4.366455078125,-3.581390380859375,39.76165771484375,1,1.0,1.0,1.0,1.0,10.00
2024-10-11 20:39:50.725,0.088990524,-0.13428555,0.4785493,0.28909546,0.21515805,-0.18308279,0.18331186,-0.03601939,0.447329,0.1787737,0.30843133,0.49076703,0.3429617,-0.1948877,0.10246421,0.25707576,-0.01044667,-0.3153183,-0.20606008,-0.040133405,805.4579,775.64105,828.8278,836.8865,885.64105,-0.12738037109375,0.143310546875,0.99151611328125,4.366455078125,-3.581390380859375,39.76165771484375,1,1.0,1.0,1.0,1.0,10.00
2024-10-11 20:39:50.725,0.088990524,-0.13428555,0.4785493,0.28909546,0.21515805,-0.18308279,0.18331186,-0.03601939,0.447329,0.1787737,0.30843133,0.49076703,0.3429617,-0.1948877,0.10246421,0.25707576,-0.01044667,-0.3153183,-0.20606008,-0.040133405,812.71063,782.49084,830.0366,835.6777,832.0513,-0.12738037109375,0.143310546875,0.99151611328125,4.366455078125,-3.581390380859375,39.76165771484375,1,1.0,1.0,1.0,1.0,10.00
2024-10-11 20:39:50.726,0.088990524,-0.13428555,0.4785493,0.28909546,0.21515805,-0.18308279,0.18331186,-0.03601939,0.447329,0.1787737,0.30843133,0.49076703,0.3429617,-0.1948877,0.10246421,0.25707576,-0.01044667,-0.3153183,-0.20606008,-0.040133405,813.5165,778.46155,834.4689,834.87177,748.24176,-0.12738037109375,0.143310546875,0.99151611328125,4.366455078125,-3.581390380859375,39.76165771484375,1,1.0,1.0,1.0,1.0,10.00
2024-10-11 20:39:50.726,0.088990524,-0.13428555,0.4785493,0.28909546,0.21515805,-0.18308279,0.18331186,-0.03601939,0.447329,0.1787737,0.30843133,0.49076703,0.3429617,-0.1948877,0.10246421,0.25707576,-0.01044667,-0.3153183,-0.20606008,-0.040133405,811.9048,765.56775,831.2454,838.0952,842.1245,-0.12738037109375,0.143310546875,0.99151611328125,4.366455078125,-3.581390380859375,39.76165771484375,1,1.0,1.0,1.0,1.0,10.00
2024-10-11 20:39:50.727,0.088990524,-0.13428555,0.4785493,0.28909546,0.21515805,-0.18308279,0.18331186,-0.03601939,0.447329,0.1787737,0.30843133,0.49076703,0.3429617,-0.1948877,0.10246421,0.25707576,-0.01044667,-0.3153183,-0.20606008,-0.040133405,815.9341,763.1502,826.8132,840.5128,1001.28204,-0.12738037109375,0.143310546875,0.99151611328125,4.366455078125,-3.581390380859375,39.76165771484375,1,1.0,1.0,1.0,1.0,10.00
2024-10-11 20:39:50.728,0.088990524,-0.13428555,0.4785493,0.28909546,0.21515805,-0.18308279,0.18331186,-0.03601939,0.447329,0.1787737,0.30843133,0.49076703,0.3429617,-0.1948877,0.10246421,0.25707576,-0.01044667,-0.3153183,-0.20606008,-0.040133405,812.71063,769.19415,821.1722,842.52747,729.304,-0.12738037109375,0.143310546875,0.99151611328125,4.366455078125,-3.581390380859375,39.76165771484375,1,1.0,1.0,1.0,1.0,10.00
2024-10-11 20:39:50.729,0.088990524,-0.13428555,0.4785493,0.28909546,0.21515805,-0.18308279,0.18331186,-0.03601939,0.447329,0.1787737,0.30843133,0.49076703,0.3429617,-0.1948877,0.10246421,0.25707576,-0.01044667,-0.3153183,-0.20606008,-0.040133405,797.8022,774.0293,814.7253,839.707,614.87177,-0.12738037109375,0.143310546875,0.99151611328125,4.366455078125,-3.581390380859375,39.76165771484375,1,1.0,1.0,1.0,1.0,10.00
2024-10-11 20:39:50.729,0.088990524,-0.13428555,0.4785493,0.28909546,0.21515805,-0.18308279,0.18331186,-0.03601939,0.447329,0.1787737,0.30843133,0.49076703,0.3429617,-0.1948877,0.10246421,0.25707576,-0.01044667,-0.3153183,-0.20606008,-0.040133405,800.2198,776.8498,819.15753,839.707,801.4286,-0.12738037109375,0.143310546875,0.99151611328125,4.366455078125,-3.581390380859375,39.76165771484375,1,1.0,1.0,1.0,1.0,10.00
2024-10-11 20:39:50.757,0.088990524,-0.13428555,0.4785493,0.28909546,0.21515805,-0.18308279,0.18331186,-0.03601939,0.447329,0.1787737,0.30843133,0.49076703,0.3429617,-0.1948877,0.10246421,0.25707576,-0.01044667,-0.3153183,-0.20606008,-0.040133405,817.9487,772.01465,820.3663,840.9158,825.2015,-0.12908935546875,0.152587890625,0.9940185546875,3.12530517578125,-5.316009521484375,37.735443115234375,1,1.0,1.0,1.0,1.0,10.00
2024-10-11 20:39:50.758,0.088990524,-0.13428555,0.4785493,0.28909546,0.21515805,-0.18308279,0.18331186,-0.03601939,0.447329,0.1787737,0.30843133,0.49076703,0.3429617,-0.1948877,0.10246421,0.25707576,-0.01044667,-0.3153183,-0.20606008,-0.040133405,821.978,774.83514,811.9048,834.4689,600.7692,-0.12908935546875,0.152587890625,0.9940185546875,3.12530517578125,-5.316009521484375,37.735443115234375,1,1.0,1.0,1.0,1.0,10.00
2024-10-11 20:39:50.759,0.088990524,-0.13428555,0.4785493,0.28909546,0.21515805,-0.18308279,0.18331186,-0.03601939,0.447329,0.1787737,0.30843133,0.49076703,0.3429617,-0.1948877,0.10246421,0.25707576,-0.01044667,-0.3153183,-0.20606008,-0.040133405,806.6667,784.90845,803.8461,826.8132,552.01465,-0.12908935546875,0.152587890625,0.9940185546875,3.12530517578125,-5.316009521484375,37.735443115234375,1,1.0,1.0,1.0,1.0,10.00
2024-10-11 20:39:50.759,0.088990524,-0.13428555,0.4785493,0.28909546,0.21515805,-0.18308279,0.18331186,-0.03601939,0.447329,0.1787737,0.30843133,0.49076703,0.3429617,-0.1948877,0.10246421,0.25707576,-0.01044667,-0.3153183,-0.20606008,-0.040133405,809.4872,779.67035,808.2784,832.8571,742.6007,-0.12908935546875,0.152587890625,0.9940185546875,3.12530517578125,-5.316009521484375,37.735443115234375,1,1.0,1.0,1.0,1.0,10.00
2024-10-11 20:39:50.760,0.088990524,-0.13428555,0.4785493,0.28909546,0.21515805,-0.18308279,0.18331186,-0.03601939,0.447329,0.1787737,0.30843133,0.49076703,0.3429617,-0.1948877,0.10246421,0.25707576,-0.01044667,-0.3153183,-0.20606008,-0.040133405,824.7985,778.86444,814.7253,840.10986,794.9817,-0.12908935546875,0.152587890625,0.9940185546875,3.12530517578125,-5.316009521484375,37.735443115234375,1,1.0,1.0,1.0,1.0,10.00
2024-10-11 20:39:50.761,0.088990524,-0.13428555,0.4785493,0.28909546,0.21515805,-0.18308279,0.18331186,-0.03601939,0.447329,0.1787737,0.30843133,0.49076703,0.3429617,-0.1948877,0.10246421,0.25707576,-0.01044667,-0.3153183,-0.20606008,-0.040133405,836.4835,784.5055,810.696,835.2747,705.12823,-0.12908935546875,0.152587890625,0.9940185546875,3.12530517578125,-5.316009521484375,37.735443115234375,1,1.0,1.0,1.0,1.0,10.00
2024-10-11 20:39:50.761,0.088990524,-0.13428555,0.4785493,0.28909546,0.21515805,-0.18308279,0.18331186,-0.03601939,0.447329,0.1787737,0.30843133,0.49076703,0.3429617,-0.1948877,0.10246421,0.25707576,-0.01044667,-0.3153183,-0.20606008,-0.040133405,836.08057,784.5055,804.65204,825.2015,785.7143,-0.12908935546875,0.152587890625,0.9940185546875,3.12530517578125,-5.316009521484375,37.735443115234375,1,1.0,1.0,1.0,1.0,10.00
2024-10-11 20:39:50.762,0.088990524,-0.13428555,0.4785493,0.28909546,0.21515805,-0.18308279,0.18331186,-0.03601939,0.447329,0.1787737,0.30843133,0.49076703,0.3429617,-0.1948877,0.10246421,0.25707576,-0.01044667,-0.3153183,-0.20606008,-0.040133405,834.0659,788.93774,810.696,825.6044,877.5824,-0.12908935546875,0.152587890625,0.9940185546875,3.12530517578125,-5.316009521484375,37.735443115234375,1,1.0,1.0,1.0,1.0,10.00
2024-10-11 20:39:50.763,0.088990524,-0.13428555,0.4785493,0.28909546,0.21515805,-0.18308279,0.18331186,-0.03601939,0.447329,0.1787737,0.30843133,0.49076703,0.3429617,-0.1948877,0.10246421,0.25707576,-0.01044667,-0.3153183,-0.20606008,-0.040133405,830.0366,786.52014,808.2784,830.4396,733.73627,-0.12908935546875,0.152587890625,0.9940185546875,3.12530517578125,-5.316009521484375,37.735443115234375,1,1.0,1.0,1.0,1.0,10.00
2024-10-11 20:39:50,,,,,,,,,,,,,,,,,,,,,,,,,,,,,,,,,,,,,,/muse/elements/blink
2024-10-11 20:39:50.763,0.088990524,-0.02892322,0.50252455,0.28909546,0.21515805,-0.102253765,0.19771156,-0.03601939,0.447329,0.35866928,0.30843133,0.49076703,0.3429617,-0.20939167,0.10227513,0.25707576,-0.01044667,-0.33589336,-0.19768827,-0.040133405,833.663,788.5348,804.2491,827.2161,549.19415,-0.12908935546875,0.152587890625,0.9940185546875,3.12530517578125,-5.316009521484375,37.735443115234375,1,1.0,1.0,1.0,1.0,10.00
2024-10-11 20:39:50.769,0.088990524,-0.02892322,0.50252455,0.28909546,0.21515805,-0.102253765,0.19771156,-0.03601939,0.447329,0.35866928,0.30843133,0.49076703,0.3429617,-0.20939167,0.10227513,0.25707576,-0.01044667,-0.33589336,-0.19768827,-0.040133405,834.4689,799.011,805.4579,817.1429,671.28204,-0.12908935546875,0.152587890625,0.9940185546875,3.12530517578125,-5.316009521484375,37.735443115234375,1,1.0,1.0,1.0,1.0,10.00
2024-10-11 20:39:50.770,0.088990524,-0.02892322,0.50252455,0.28909546,0.21515805,-0.102253765,0.19771156,-0.03601939,0.447329,0.35866928,0.30843133,0.49076703,0.3429617,-0.20939167,0.10227513,0.25707576,-0.01044667,-0.33589336,-0.19768827,-0.040133405,830.4396,800.2198,807.0696,821.5751,882.01465,-0.12908935546875,0.152587890625,0.9940185546875,3.12530517578125,-5.316009521484375,37.735443115234375,1,1.0,1.0,1.0,1.0,10.00
2024-10-11 20:39:50.799,0.088990524,-0.02892322,0.50252455,0.28909546,0.21515805,-0.102253765,0.19771156,-0.03601939,0.447329,0.35866928,0.30843133,0.49076703,0.3429617,-0.20939167,0.10227513,0.25707576,-0.01044667,-0.33589336,-0.19768827,-0.040133405,835.6777,797.8022,809.0842,821.1722,784.10254,-0.1341552734375,0.1536865234375,0.9947509765625,2.1234130859375,-4.598236083984375,31.096038818359375,1,1.0,1.0,1.0,1.0,10.00
2024-10-11 20:39:50.800,0.088990524,-0.02892322,0.50252455,0.28909546,0.21515805,-0.102253765,0.19771156,-0.03601939,0.447329,0.35866928,0.30843133,0.49076703,0.3429617,-0.20939167,0.10227513,0.25707576,-0.01044667,-0.33589336,-0.19768827,-0.040133405,825.6044,793.7729,797.3993,810.293,555.64105,-0.1341552734375,0.1536865234375,0.9947509765625,2.1234130859375,-4.598236083984375,31.096038818359375,1,1.0,1.0,1.0,1.0,10.00
2024-10-11 20:39:50.801,0.088990524,-0.02892322,0.50252455,0.28909546,0.21515805,-0.102253765,0.19771156,-0.03601939,0.447329,0.35866928,0.30843133,0.49076703,0.3429617,-0.20939167,0.10227513,0.25707576,-0.01044667,-0.33589336,-0.19768827,-0.040133405,814.7253,792.5641,796.1905,813.5165,550.0,-0.1341552734375,0.1536865234375,0.9947509765625,2.1234130859375,-4.598236083984375,31.096038818359375,1,1.0,1.0,1.0,1.0,10.00
2024-10-11 20:39:50.801,0.088990524,-0.02892322,0.50252455,0.28909546,0.21515805,-0.102253765,0.19771156,-0.03601939,0.447329,0.35866928,0.30843133,0.49076703,0.3429617,-0.20939167,0.10227513,0.25707576,-0.01044667,-0.33589336,-0.19768827,-0.040133405,817.9487,797.3993,805.8608,816.7399,726.08057,-0.1341552734375,0.1536865234375,0.9947509765625,2.1234130859375,-4.598236083984375,31.096038818359375,1,1.0,1.0,1.0,1.0,10.00
2024-10-11 20:39:50.802,0.088990524,-0.02892322,0.50252455,0.28909546,0.21515805,-0.102253765,0.19771156,-0.03601939,0.447329,0.35866928,0.30843133,0.49076703,0.3429617,-0.20939167,0.10227513,0.25707576,-0.01044667,-0.33589336,-0.19768827,-0.040133405,820.3663,799.41394,802.23444,817.1429,686.99634,-0.1341552734375,0.1536865234375,0.9947509765625,2.1234130859375,-4.598236083984375,31.096038818359375,1,1.0,1.0,1.0,1.0,10.00
2024-10-11 20:39:50.802,0.088990524,-0.02892322,0.50252455,0.28909546,0.21515805,-0.102253765,0.19771156,-0.03601939,0.447329,0.35866928,0.30843133,0.49076703,0.3429617,-0.20939167,0.10227513,0.25707576,-0.01044667,-0.33589336,-0.19768827,-0.040133405,819.9634,796.99634,801.4286,812.3077,703.91943,-0.1341552734375,0.1536865234375,0.9947509765625,2.1234130859375,-4.598236083984375,31.096038818359375,1,1.0,1.0,1.0,1.0,10.00
2024-10-11 20:39:50.803,0.088990524,-0.02892322,0.50252455,0.28909546,0.21515805,-0.102253765,0.19771156,-0.03601939,0.447329,0.35866928,0.30843133,0.49076703,0.3429617,-0.20939167,0.10227513,0.25707576,-0.01044667,-0.33589336,-0.19768827,-0.040133405,812.3077,794.9817,805.8608,809.0842,891.685,-0.1341552734375,0.1536865234375,0.9947509765625,2.1234130859375,-4.598236083984375,31.096038818359375,1,1.0,1.0,1.0,1.0,10.00
2024-10-11 20:39:50.804,0.088990524,-0.02892322,0.50252455,0.28909546,0.21515805,-0.102253765,0.19771156,-0.03601939,0.447329,0.35866928,0.30843133,0.49076703,0.3429617,-0.20939167,0.10227513,0.25707576,-0.01044667,-0.33589336,-0.19768827,-0.040133405,811.0989,791.75824,807.0696,817.9487,919.0842,-0.1341552734375,0.1536865234375,0.9947509765625,2.1234130859375,-4.598236083984375,31.096038818359375,1,1.0,1.0,1.0,1.0,10.00
2024-10-11 20:39:50.804,0.088990524,-0.02892322,0.50252455,0.28909546,0.21515805,-0.102253765,0.19771156,-0.03601939,0.447329,0.35866928,0.30843133,0.49076703,0.3429617,-0.20939167,0.10227513,0.25707576,-0.01044667,-0.33589336,-0.19768827,-0.040133405,815.5311,791.3553,807.8755,815.5311,646.7033,-0.1341552734375,0.1536865234375,0.9947509765625,2.1234130859375,-4.598236083984375,31.096038818359375,1,1.0,1.0,1.0,1.0,10.00
2024-10-11 20:39:50.805,0.088990524,-0.02892322,0.50252455,0.28909546,0.21515805,-0.102253765,0.19771156,-0.03601939,0.447329,0.35866928,0.30843133,0.49076703,0.3429617,-0.20939167,0.10227513,0.25707576,-0.01044667,-0.33589336,-0.19768827,-0.040133405,803.8461,790.54944,809.89014,813.1135,487.94873,-0.1341552734375,0.1536865234375,0.9947509765625,2.1234130859375,-4.598236083984375,31.096038818359375,1,1.0,1.0,1.0,1.0,10.00
2024-10-11 20:39:50.805,0.088990524,-0.02892322,0.50252455,0.28909546,0.21515805,-0.102253765,0.19771156,-0.03601939,0.447329,0.35866928,0.30843133,0.49076703,0.3429617,-0.20939167,0.10227513,0.25707576,-0.01044667,-0.33589336,-0.19768827,-0.040133405,790.54944,788.93774,804.65204,809.89014,644.2857,-0.1341552734375,0.1536865234375,0.9947509765625,2.1234130859375,-4.598236083984375,31.096038818359375,1,1.0,1.0,1.0,1.0,10.00
2024-10-11 20:39:50.806,0.088990524,-0.02892322,0.50252455,0.28909546,0.21515805,-0.102253765,0.19771156,-0.03601939,0.447329,0.35866928,0.30843133,0.49076703,0.3429617,-0.20939167,0.10227513,0.25707576,-0.01044667,-0.33589336,-0.19768827,-0.040133405,792.96704,785.7143,802.23444,809.4872,979.92676,-0.1341552734375,0.1536865234375,0.9947509765625,2.1234130859375,-4.598236083984375,31.096038818359375,1,1.0,1.0,1.0,1.0,10.00
2024-10-11 20:39:50.807,0.088990524,-0.02892322,0.50252455,0.28909546,0.21515805,-0.102253765,0.19771156,-0.03601939,0.447329,0.35866928,0.30843133,0.49076703,0.3429617,-0.20939167,0.10227513,0.25707576,-0.01044667,-0.33589336,-0.19768827,-0.040133405,798.60803,781.685,806.26373,814.3223,1122.1611,-0.1337890625,0.1549072265625,0.99652099609375,2.056121826171875,-2.743988037109375,22.77435302734375,1,1.0,1.0,1.0,1.0,10.00
2024-10-11 20:39:50.807,0.088990524,-0.02892322,0.50252455,0.28909546,0.21515805,-0.102253765,0.19771156,-0.03601939,0.447329,0.35866928,0.30843133,0.49076703,0.3429617,-0.20939167,0.10227513,0.25707576,-0.01044667,-0.33589336,-0.19768827,-0.040133405,803.44324,781.28204,806.6667,818.7546,982.3443,-0.1337890625,0.1549072265625,0.99652099609375,2.056121826171875,-2.743988037109375,22.77435302734375,1,1.0,1.0,1.0,1.0,10.00
2024-10-11 20:39:50.808,0.088990524,-0.02892322,0.50252455,0.28909546,0.21515805,-0.102253765,0.19771156,-0.03601939,0.447329,0.35866928,0.30843133,0.49076703,0.3429617,-0.20939167,0.10227513,0.25707576,-0.01044667,-0.33589336,-0.19768827,-0.040133405,802.6374,787.326,808.2784,811.0989,722.8571,-0.1337890625,0.1549072265625,0.99652099609375,2.056121826171875,-2.743988037109375,22.77435302734375,1,1.0,1.0,1.0,1.0,10.00
2024-10-11 20:39:50.809,0.088990524,-0.02892322,0.50252455,0.28909546,0.21515805,-0.102253765,0.19771156,-0.03601939,0.447329,0.35866928,0.30843133,0.49076703,0.3429617,-0.20939167,0.10227513,0.25707576,-0.01044667,-0.33589336,-0.19768827,-0.040133405,794.57874,791.75824,806.26373,807.47253,552.01465,-0.1337890625,0.1549072265625,0.99652099609375,2.056121826171875,-2.743988037109375,22.77435302734375,1,1.0,1.0,1.0,1.0,10.00
2024-10-11 20:39:50.809,0.088990524,-0.02892322,0.50252455,0.28909546,0.21515805,-0.102253765,0.19771156,-0.03601939,0.447329,0.35866928,0.30843133,0.49076703,0.3429617,-0.20939167,0.10227513,0.25707576,-0.01044667,-0.33589336,-0.19768827,-0.040133405,790.54944,792.1612,806.26373,810.696,430.32968,-0.1337890625,0.1549072265625,0.99652099609375,2.056121826171875,-2.743988037109375,22.77435302734375,1,1.0,1.0,1.0,1.0,10.00
2024-10-11 20:39:50.810,0.088990524,-0.02892322,0.50252455,0.28909546,0.21515805,-0.102253765,0.19771156,-0.03601939,0.447329,0.35866928,0.30843133,0.49076703,0.3429617,-0.20939167,0.10227513,0.25707576,-0.01044667,-0.33589336,-0.19768827,-0.040133405,801.02563,791.75824,805.4579,801.8315,466.99634,-0.1337890625,0.1549072265625,0.99652099609375,2.056121826171875,-2.743988037109375,22.77435302734375,1,1.0,1.0,1.0,1.0,10.00
2024-10-11 20:39:50.810,0.088990524,-0.02892322,0.50252455,0.28909546,0.21515805,-0.102253765,0.19771156,-0.03601939,0.447329,0.35866928,0.30843133,0.49076703,0.3429617,-0.20939167,0.10227513,0.25707576,-0.01044667,-0.33589336,-0.19768827,-0.040133405,803.8461,791.75824,802.23444,801.02563,729.707,-0.1337890625,0.1549072265625,0.99652099609375,2.056121826171875,-2.743988037109375,22.77435302734375,1,1.0,1.0,1.0,1.0,10.00
2024-10-11 20:39:50.811,0.088990524,-0.02892322,0.50252455,0.28909546,0.21515805,-0.102253765,0.19771156,-0.03601939,0.447329,0.35866928,0.30843133,0.49076703,0.3429617,-0.20939167,0.10227513,0.25707576,-0.01044667,-0.33589336,-0.19768827,-0.040133405,798.20514,790.14655,799.41394,806.6667,1000.87915,-0.1337890625,0.1549072265625,0.99652099609375,2.056121826171875,-2.743988037109375,22.77435302734375,1,1.0,1.0,1.0,1.0,10.00
2024-10-11 20:39:50.812,0.088990524,-0.02892322,0.50252455,0.28909546,0.21515805,-0.102253765,0.19771156,-0.03601939,0.447329,0.35866928,0.30843133,0.49076703,0.3429617,-0.20939167,0.10227513,0.25707576,-0.01044667,-0.33589336,-0.19768827,-0.040133405,795.38464,787.326,799.011,807.47253,1011.3553,-0.1337890625,0.1549072265625,0.99652099609375,2.056121826171875,-2.743988037109375,22.77435302734375,1,1.0,1.0,1.0,1.0,10.00
2024-10-11 20:39:50.812,0.088990524,-0.02892322,0.50252455,0.28909546,0.21515805,-0.102253765,0.19771156,-0.03601939,0.447329,0.35866928,0.30843133,0.49076703,0.3429617,-0.20939167,0.10227513,0.25707576,-0.01044667,-0.33589336,-0.19768827,-0.040133405,805.05493,792.1612,798.60803,805.05493,771.2088,-0.1337890625,0.1549072265625,0.99652099609375,2.056121826171875,-2.743988037109375,22.77435302734375,1,1.0,1.0,1.0,1.0,10.00
2024-10-11 20:39:50.813,0.088990524,-0.02892322,0.50252455,0.28909546,0.21515805,-0.102253765,0.19771156,-0.03601939,0.447329,0.35866928,0.30843133,0.49076703,0.3429617,-0.20939167,0.10227513,0.25707576,-0.01044667,-0.33589336,-0.19768827,-0.040133405,808.2784,792.96704,797.3993,797.3993,590.696,-0.1337890625,0.1549072265625,0.99652099609375,2.056121826171875,-2.743988037109375,22.77435302734375,1,1.0,1.0,1.0,1.0,10.00
2024-10-11 20:39:50.813,0.078482226,0.15207516,0.5217188,0.67801464,0.24109478,0.06703021,0.20849761,0.3840043,0.37529948,0.6357029,0.30843133,1.2307575,0.3346646,-0.20773591,0.09539236,0.29829234,-0.026539095,-0.3574959,-0.19286735,-0.028907375,815.12823,792.96704,799.81683,791.75824,539.92676,-0.1337890625,0.1549072265625,0.99652099609375,2.056121826171875,-2.743988037109375,22.77435302734375,1,1.0,1.0,1.0,1.0,10.00
2024-10-11 20:39:50.819,0.078482226,0.15207516,0.5217188,0.67801464,0.24109478,0.06703021,0.20849761,0.3840043,0.37529948,0.6357029,0.30843133,1.2307575,0.3346646,-0.20773591,0.09539236,0.29829234,-0.026539095,-0.3574959,-0.19286735,-0.028907375,823.1868,794.17584,795.78754,792.96704,426.7033,-0.1337890625,0.1549072265625,0.99652099609375,2.056121826171875,-2.743988037109375,22.77435302734375,1,1.0,1.0,1.0,1.0,10.00
2024-10-11 20:39:50.820,0.078482226,0.15207516,0.5217188,0.67801464,0.24109478,0.06703021,0.20849761,0.3840043,0.37529948,0.6357029,0.30843133,1.2307575,0.3346646,-0.20773591,0.09539236,0.29829234,-0.026539095,-0.3574959,-0.19286735,-0.028907375,821.978,791.75824,791.3553,796.1905,491.97803,-0.1337890625,0.1549072265625,0.99652099609375,2.056121826171875,-2.743988037109375,22.77435302734375,1,1.0,1.0,1.0,1.0,10.00
2024-10-11 20:39:50.820,0.078482226,0.15207516,0.5217188,0.67801464,0.24109478,0.06703021,0.20849761,0.3840043,0.37529948,0.6357029,0.30843133,1.2307575,0.3346646,-0.20773591,0.09539236,0.29829234,-0.026539095,-0.3574959,-0.19286735,-0.028907375,823.9927,789.34064,796.99634,797.3993,633.8095,-0.1337890625,0.1549072265625,0.99652099609375,2.056121826171875,-2.743988037109375,22.77435302734375,1,1.0,1.0,1.0,1.0,10.00
2024-10-11 20:39:50.821,0.078482226,0.15207516,0.5217188,0.67801464,0.24109478,0.06703021,0.20849761,0.3840043,0.37529948,0.6357029,0.30843133,1.2307575,0.3346646,-0.20773591,0.09539236,0.29829234,-0.026539095,-0.3574959,-0.19286735,-0.028907375,823.5897,795.78754,793.7729,802.23444,524.21246,-0.1337890625,0.1549072265625,0.99652099609375,2.056121826171875,-2.743988037109375,22.77435302734375,1,1.0,1.0,1.0,1.0,10.00
2024-10-11 20:39:50.822,0.078482226,0.15207516,0.5217188,0.67801464,0.24109478,0.06703021,0.20849761,0.3840043,0.37529948,0.6357029,0.30843133,1.2307575,0.3346646,-0.20773591,0.09539236,0.29829234,-0.026539095,-0.3574959,-0.19286735,-0.028907375,820.3663,799.011,788.5348,803.0403,433.95605,-0.1337890625,0.1549072265625,0.99652099609375,2.056121826171875,-2.743988037109375,22.77435302734375,1,1.0,1.0,1.0,1.0,10.00
2024-10-11 20:39:50.822,0.078482226,0.15207516,0.5217188,0.67801464,0.24109478,0.06703021,0.20849761,0.3840043,0.37529948,0.6357029,0.30843133,1.2307575,0.3346646,-0.20773591,0.09539236,0.29829234,-0.026539095,-0.3574959,-0.19286735,-0.028907375,820.3663,796.5934,794.9817,801.02563,734.5421,-0.1337890625,0.1549072265625,0.99652099609375,2.056121826171875,-2.743988037109375,22.77435302734375,1,1.0,1.0,1.0,1.0,10.00
2024-10-11 20:39:50.824,0.078482226,0.15207516,0.5217188,0.67801464,0.24109478,0.06703021,0.20849761,0.3840043,0.37529948,0.6357029,0.30843133,1.2307575,0.3346646,-0.20773591,0.09539236,0.29829234,-0.026539095,-0.3574959,-0.19286735,-0.028907375,818.3516,796.5934,793.7729,804.65204,792.1612,-0.1337890625,0.1549072265625,0.99652099609375,2.056121826171875,-2.743988037109375,22.77435302734375,1,1.0,1.0,1.0,1.0,10.00
2024-10-11 20:39:50.825,0.078482226,0.15207516,0.5217188,0.67801464,0.24109478,0.06703021,0.20849761,0.3840043,0.37529948,0.6357029,0.30843133,1.2307575,0.3346646,-0.20773591,0.09539236,0.29829234,-0.026539095,-0.3574959,-0.19286735,-0.028907375,810.293,798.60803,792.96704,808.2784,511.72162,-0.1337890625,0.1549072265625,0.99652099609375,2.056121826171875,-2.743988037109375,22.77435302734375,1,1.0,1.0,1.0,1.0,10.00
2024-10-11 20:39:50.826,0.078482226,0.15207516,0.5217188,0.67801464,0.24109478,0.06703021,0.20849761,0.3840043,0.37529948,0.6357029,0.30843133,1.2307575,0.3346646,-0.20773591,0.09539236,0.29829234,-0.026539095,-0.3574959,-0.19286735,-0.028907375,809.89014,798.60803,800.6227,812.71063,370.29303,-0.1337890625,0.1549072265625,0.99652099609375,2.056121826171875,-2.743988037109375,22.77435302734375,1,1.0,1.0,1.0,1.0,10.00
2024-10-11 20:39:50.827,0.078482226,0.15207516,0.5217188,0.67801464,0.24109478,0.06703021,0.20849761,0.3840043,0.37529948,0.6357029,0.30843133,1.2307575,0.3346646,-0.20773591,0.09539236,0.29829234,-0.026539095,-0.3574959,-0.19286735,-0.028907375,803.44324,789.34064,797.3993,809.0842,524.61536,-0.1337890625,0.1549072265625,0.99652099609375,2.056121826171875,-2.743988037109375,22.77435302734375,1,1.0,1.0,1.0,1.0,10.00
2024-10-11 20:39:50.828,0.078482226,0.15207516,0.5217188,0.67801464,0.24109478,0.06703021,0.20849761,0.3840043,0.37529948,0.6357029,0.30843133,1.2307575,0.3346646,-0.20773591,0.09539236,0.29829234,-0.026539095,-0.3574959,-0.19286735,-0.028907375,800.2198,789.34064,794.17584,806.6667,579.011,-0.1337890625,0.1549072265625,0.99652099609375,2.056121826171875,-2.743988037109375,22.77435302734375,1,1.0,1.0,1.0,1.0,10.00
2024-10-11 20:39:50.828,0.078482226,0.15207516,0.5217188,0.67801464,0.24109478,0.06703021,0.20849761,0.3840043,0.37529948,0.6357029,0.30843133,1.2307575,0.3346646,-0.20773591,0.09539236,0.29829234,-0.026539095,-0.3574959,-0.19286735,-0.028907375,809.4872,799.41394,799.81683,803.8461,459.7436,-0.1337890625,0.1549072265625,0.99652099609375,2.056121826171875,-2.743988037109375,22.77435302734375,1,1.0,1.0,1.0,1.0,10.00
2024-10-11 20:39:50.859,0.078482226,0.15207516,0.5217188,0.67801464,0.24109478,0.06703021,0.20849761,0.3840043,0.37529948,0.6357029,0.30843133,1.2307575,0.3346646,-0.20773591,0.09539236,0.29829234,-0.026539095,-0.3574959,-0.19286735,-0.028907375,807.0696,804.65204,797.8022,801.4286,427.10623,-0.14013671875,0.15325927734375,0.990234375,1.502838134765625,-0.351409912109375,14.273223876953125,1,1.0,1.0,1.0,1.0,10.00
2024-10-11 20:39:50.860,0.078482226,0.15207516,0.5217188,0.67801464,0.24109478,0.06703021,0.20849761,0.3840043,0.37529948,0.6357029,0.30843133,1.2307575,0.3346646,-0.20773591,0.09539236,0.29829234,-0.026539095,-0.3574959,-0.19286735,-0.028907375,800.2198,806.6667,798.20514,815.12823,610.4396,-0.14013671875,0.15325927734375,0.990234375,1.502838134765625,-0.351409912109375,14.273223876953125,1,1.0,1.0,1.0,1.0,10.00
2024-10-11 20:39:50.861,0.078482226,0.15207516,0.5217188,0.67801464,0.24109478,0.06703021,0.20849761,0.3840043,0.37529948,0.6357029,0.30843133,1.2307575,0.3346646,-0.20773591,0.09539236,0.29829234,-0.026539095,-0.3574959,-0.19286735,-0.028907375,798.60803,803.8461,799.41394,804.65204,734.1392,-0.14013671875,0.15325927734375,0.990234375,1.502838134765625,-0.351409912109375,14.273223876953125,1,1.0,1.0,1.0,1.0,10.00
2024-10-11 20:39:50.864,0.078482226,0.15207516,0.5217188,0.67801464,0.24109478,0.06703021,0.20849761,0.3840043,0.37529948,0.6357029,0.30843133,1.2307575,0.3346646,-0.20773591,0.09539236,0.29829234,-0.026539095,-0.3574959,-0.19286735,-0.028907375,794.9817,796.5934,793.7729,796.5934,493.99268,-0.14013671875,0.15325927734375,0.990234375,1.502838134765625,-0.351409912109375,14.273223876953125,1,1.0,1.0,1.0,1.0,10.00
2024-10-11 20:39:50.864,0.078482226,0.15207516,0.5217188,0.67801464,0.24109478,0.06703021,0.20849761,0.3840043,0.37529948,0.6357029,0.30843133,1.2307575,0.3346646,-0.20773591,0.09539236,0.29829234,-0.026539095,-0.3574959,-0.19286735,-0.028907375,793.7729,795.38464,792.96704,802.6374,412.1978,-0.14013671875,0.15325927734375,0.990234375,1.502838134765625,-0.351409912109375,14.273223876953125,1,1.0,1.0,1.0,1.0,10.00
2024-10-11 20:39:50.865,0.078482226,0.15207516,0.5217188,0.67801464,0.24109478,0.06703021,0.20849761,0.3840043,0.37529948,0.6357029,0.30843133,1.2307575,0.3346646,-0.20773591,0.09539236,0.29829234,-0.026539095,-0.3574959,-0.19286735,-0.028907375,791.75824,792.96704,793.36993,804.65204,724.4689,-0.14013671875,0.15325927734375,0.990234375,1.502838134765625,-0.351409912109375,14.273223876953125,1,1.0,1.0,1.0,1.0,10.00
2024-10-11 20:39:50.866,0.078482226,0.15207516,0.5217188,0.67801464,0.24109478,0.06703021,0.20849761,0.3840043,0.37529948,0.6357029,0.30843133,1.2307575,0.3346646,-0.20773591,0.09539236,0.29829234,-0.026539095,-0.3574959,-0.19286735,-0.028907375,790.14655,785.7143,794.17584,812.71063,1252.3077,-0.14013671875,0.15325927734375,0.990234375,1.502838134765625,-0.351409912109375,14.273223876953125,1,1.0,1.0,1.0,1.0,10.00
2024-10-11 20:39:50.866,0.078482226,0.15207516,0.5217188,0.67801464,0.24109478,0.06703021,0.20849761,0.3840043,0.37529948,0.6357029,0.30843133,1.2307575,0.3346646,-0.20773591,0.09539236,0.29829234,-0.026539095,-0.3574959,-0.19286735,-0.028907375,798.20514,790.14655,797.3993,805.8608,1170.5128,-0.14013671875,0.15325927734375,0.990234375,1.502838134765625,-0.351409912109375,14.273223876953125,1,1.0,1.0,1.0,1.0,10.00
2024-10-11 20:39:50.867,0.078482226,0.15207516,0.5217188,0.67801464,0.24109478,0.06703021,0.20849761,0.3840043,0.37529948,0.6357029,0.30843133,1.2307575,0.3346646,-0.20773591,0.09539236,0.29829234,-0.026539095,-0.3574959,-0.19286735,-0.028907375,807.47253,794.17584,798.60803,786.1172,645.89746,-0.14013671875,0.15325927734375,0.990234375,1.502838134765625,-0.351409912109375,14.273223876953125,1,1.0,1.0,1.0,1.0,10.00
2024-10-11 20:39:50.868,0.078482226,0.15207516,0.5217188,0.67801464,0.24109478,0.06703021,0.20849761,0.3840043,0.37529948,0.6357029,0.30843133,1.2307575,0.3346646,-0.20773591,0.09539236,0.29829234,-0.026539095,-0.3574959,-0.19286735,-0.028907375,810.293,792.5641,797.8022,791.3553,655.16486,-0.14013671875,0.15325927734375,0.990234375,1.502838134765625,-0.351409912109375,14.273223876953125,1,1.0,1.0,1.0,1.0,10.00
2024-10-11 20:39:50.869,0.078482226,0.15207516,0.5217188,0.67801464,0.24109478,0.06703021,0.20849761,0.3840043,0.37529948,0.6357029,0.30843133,1.2307575,0.3346646,-0.20773591,0.09539236,0.29829234,-0.026539095,-0.3574959,-0.19286735,-0.028907375,807.8755,792.96704,797.3993,798.60803,678.93774,-0.14013671875,0.15325927734375,0.990234375,1.502838134765625,-0.351409912109375,14.273223876953125,1,1.0,1.0,1.0,1.0,10.00
2024-10-11 20:39:50.869,0.078482226,0.15207516,0.5217188,0.67801464,0.24109478,0.06703021,0.20849761,0.3840043,0.37529948,0.6357029,0.30843133,1.2307575,0.3346646,-0.20773591,0.09539236,0.29829234,-0.026539095,-0.3574959,-0.19286735,-0.028907375,808.68134,796.5934,796.1905,794.9817,517.76556,-0.14013671875,0.15325927734375,0.990234375,1.502838134765625,-0.351409912109375,14.273223876953125,1,1.0,1.0,1.0,1.0,10.00
2024-10-11 20:39:50.870,0.078482226,0.15207516,0.5217188,0.67801464,0.24109478,0.06703021,0.20849761,0.3840043,0.37529948,0.6357029,0.30843133,1.2307575,0.3346646,-0.20773591,0.09539236,0.29829234,-0.026539095,-0.3574959,-0.19286735,-0.028907375,815.9341,799.81683,800.2198,797.3993,465.78754,-0.1356201171875,0.1553955078125,0.99041748046875,0.485992431640625,0.299072265625,8.351593017578125,1,1.0,1.0,1.0,1.0,10.00
2024-10-11 20:39:50.871,0.07972144,0.3594183,0.5326711,1.0178362,0.27219996,0.2550878,0.21374255,0.7012914,0.36290988,0.8249832,0.30843133,1.4327142,0.32331762,-0.19332732,0.082488656,0.3373906,-0.04195729,-0.37476954,-0.19214302,-0.01765709,819.9634,797.3993,795.78754,791.3553,709.5604,-0.1356201171875,0.1553955078125,0.99041748046875,0.485992431640625,0.299072265625,8.351593017578125,1,1.0,1.0,1.0,1.0,10.00
2024-10-11 20:39:50.877,0.07972144,0.3594183,0.5326711,1.0178362,0.27219996,0.2550878,0.21374255,0.7012914,0.36290988,0.8249832,0.30843133,1.4327142,0.32331762,-0.19332732,0.082488656,0.3373906,-0.04195729,-0.37476954,-0.19214302,-0.01765709,805.05493,799.81683,792.1612,793.36993,1101.6117,-0.1356201171875,0.1553955078125,0.99041748046875,0.485992431640625,0.299072265625,8.351593017578125,1,1.0,1.0,1.0,1.0,10.00
2024-10-11 20:39:50.878,0.07972144,0.3594183,0.5326711,1.0178362,0.27219996,0.2550878,0.21374255,0.7012914,0.36290988,0.8249832,0.30843133,1.4327142,0.32331762,-0.19332732,0.082488656,0.3373906,-0.04195729,-0.37476954,-0.19214302,-0.01765709,802.23444,807.8755,795.38464,800.6227,1031.9048,-0.1356201171875,0.1553955078125,0.99041748046875,0.485992431640625,0.299072265625,8.351593017578125,1,1.0,1.0,1.0,1.0,10.00
2024-10-11 20:39:50.879,0.07972144,0.3594183,0.5326711,1.0178362,0.27219996,0.2550878,0.21374255,0.7012914,0.36290988,0.8249832,0.30843133,1.4327142,0.32331762,-0.19332732,0.082488656,0.3373906,-0.04195729,-0.37476954,-0.19214302,-0.01765709,816.7399,804.65204,793.36993,799.81683,695.4579,-0.1356201171875,0.1553955078125,0.99041748046875,0.485992431640625,0.299072265625,8.351593017578125,1,1.0,1.0,1.0,1.0,10.00
2024-10-11 20:39:50.880,0.07972144,0.3594183,0.5326711,1.0178362,0.27219996,0.2550878,0.21374255,0.7012914,0.36290988,0.8249832,0.30843133,1.4327142,0.32331762,-0.19332732,0.082488656,0.3373906,-0.04195729,-0.37476954,-0.19214302,-0.01765709,817.9487,801.02563,793.36993,794.17584,662.4176,-0.1356201171875,0.1553955078125,0.99041748046875,0.485992431640625,0.299072265625,8.351593017578125,1,1.0,1.0,1.0,1.0,10.00
2024-10-11 20:39:50.881,0.07972144,0.3594183,0.5326711,1.0178362,0.27219996,0.2550878,0.21374255,0.7012914,0.36290988,0.8249832,0.30843133,1.4327142,0.32331762,-0.19332732,0.082488656,0.3373906,-0.04195729,-0.37476954,-0.19214302,-0.01765709,811.50183,800.2198,798.20514,794.17584,631.79486,-0.1356201171875,0.1553955078125,0.99041748046875,0.485992431640625,0.299072265625,8.351593017578125,1,1.0,1.0,1.0,1.0,10.00
2024-10-11 20:39:50.882,0.07972144,0.3594183,0.5326711,1.0178362,0.27219996,0.2550878,0.21374255,0.7012914,0.36290988,0.8249832,0.30843133,1.4327142,0.32331762,-0.19332732,0.082488656,0.3373906,-0.04195729,-0.37476954,-0.19214302,-0.01765709,807.0696,798.20514,794.57874,795.38464,436.37363,-0.1356201171875,0.1553955078125,0.99041748046875,0.485992431640625,0.299072265625,8.351593017578125,1,1.0,1.0,1.0,1.0,10.00
2024-10-11 20:39:50.883,0.07972144,0.3594183,0.5326711,1.0178362,0.27219996,0.2550878,0.21374255,0.7012914,0.36290988,0.8249832,0.30843133,1.4327142,0.32331762,-0.19332732,0.082488656,0.3373906,-0.04195729,-0.37476954,-0.19214302,-0.01765709,805.8608,800.2198,794.17584,799.81683,486.337,-0.1356201171875,0.1553955078125,0.99041748046875,0.485992431640625,0.299072265625,8.351593017578125,1,1.0,1.0,1.0,1.0,10.00
2024-10-11 20:39:50.886,0.07972144,0.3594183,0.5326711,1.0178362,0.27219996,0.2550878,0.21374255,0.7012914,0.36290988,0.8249832,0.30843133,1.4327142,0.32331762,-0.19332732,0.082488656,0.3373906,-0.04195729,-0.37476954,-0.19214302,-0.01765709,811.0989,799.41394,793.7729,799.81683,693.8461,-0.1356201171875,0.1553955078125,0.99041748046875,0.485992431640625,0.299072265625,8.351593017578125,1,1.0,1.0,1.0,1.0,10.00
2024-10-11 20:39:50.887,0.07972144,0.3594183,0.5326711,1.0178362,0.27219996,0.2550878,0.21374255,0.7012914,0.36290988,0.8249832,0.30843133,1.4327142,0.32331762,-0.19332732,0.082488656,0.3373906,-0.04195729,-0.37476954,-0.19214302,-0.01765709,810.696,798.20514,790.14655,796.99634,506.88644,-0.1356201171875,0.1553955078125,0.99041748046875,0.485992431640625,0.299072265625,8.351593017578125,1,1.0,1.0,1.0,1.0,10.00
2024-10-11 20:39:50.888,0.07972144,0.3594183,0.5326711,1.0178362,0.27219996,0.2550878,0.21374255,0.7012914,0.36290988,0.8249832,0.30843133,1.4327142,0.32331762,-0.19332732,0.082488656,0.3373906,-0.04195729,-0.37476954,-0.19214302,-0.01765709,801.4286,802.6374,790.54944,798.60803,331.61172,-0.1356201171875,0.1553955078125,0.99041748046875,0.485992431640625,0.299072265625,8.351593017578125,1,1.0,1.0,1.0,1.0,10.00
2024-10-11 20:39:50.987,0.07972144,0.3594183,0.5326711,1.0178362,0.27219996,0.2550878,0.21374255,0.7012914,0.36290988,0.8249832,0.30843133,1.4327142,0.32331762,-0.19332732,0.082488656,0.3373906,-0.04195729,-0.37476954,-0.19214302,-0.01765709,792.96704,804.2491,790.14655,802.23444,606.8132,-0.135498046875,0.15576171875,0.99591064453125,-1.375732421875,1.51031494140625,6.018829345703125,1,1.0,1.0,1.0,1.0,10.00
2024-10-11 20:39:50.989,0.07972144,0.3594183,0.5326711,1.0178362,0.27219996,0.2550878,0.21374255,0.7012914,0.36290988,0.8249832,0.30843133,1.4327142,0.32331762,-0.19332732,0.082488656,0.3373906,-0.04195729,-0.37476954,-0.19214302,-0.01765709,789.34064,804.2491,787.326,804.65204,875.9707,-0.135498046875,0.15576171875,0.99591064453125,-1.375732421875,1.51031494140625,6.018829345703125,1,1.0,1.0,1.0,1.0,10.00
2024-10-11 20:39:50.989,0.07972144,0.3594183,0.5326711,1.0178362,0.27219996,0.2550878,0.21374255,0.7012914,0.36290988,0.8249832,0.30843133,1.4327142,0.32331762,-0.19332732,0.082488656,0.3373906,-0.04195729,-0.37476954,-0.19214302,-0.01765709,790.54944,797.3993,787.72894,796.5934,572.1612,-0.135498046875,0.15576171875,0.99591064453125,-1.375732421875,1.51031494140625,6.018829345703125,1,1.0,1.0,1.0,1.0,10.00
2024-10-11 20:39:50.990,0.07972144,0.3594183,0.5326711,1.0178362,0.27219996,0.2550878,0.21374255,0.7012914,0.36290988,0.8249832,0.30843133,1.4327142,0.32331762,-0.19332732,0.082488656,0.3373906,-0.04195729,-0.37476954,-0.19214302,-0.01765709,796.99634,796.5934,792.96704,799.011,359.4139,-0.135498046875,0.15576171875,0.99591064453125,-1.375732421875,1.51031494140625,6.018829345703125,1,1.0,1.0,1.0,1.0,10.00
2024-10-11 20:39:50.991,0.07972144,0.3594183,0.5326711,1.0178362,0.27219996,0.2550878,0.21374255,0.7012914,0.36290988,0.8249832,0.30843133,1.4327142,0.32331762,-0.19332732,0.082488656,0.3373906,-0.04195729,-0.37476954,-0.19214302,-0.01765709,804.65204,799.41394,793.7729,807.47253,647.9121,-0.135498046875,0.15576171875,0.99591064453125,-1.375732421875,1.51031494140625,6.018829345703125,1,1.0,1.0,1.0,1.0,10.00
2024-10-11 20:39:50.991,0.07972144,0.3594183,0.5326711,1.0178362,0.27219996,0.2550878,0.21374255,0.7012914,0.36290988,0.8249832,0.30843133,1.4327142,0.32331762,-0.19332732,0.082488656,0.3373906,-0.04195729,-0.37476954,-0.19214302,-0.01765709,807.47253,800.6227,795.78754,805.8608,878.7912,-0.135498046875,0.15576171875,0.99591064453125,-1.375732421875,1.51031494140625,6.018829345703125,1,1.0,1.0,1.0,1.0,10.00
2024-10-11 20:39:50.992,0.07972144,0.3594183,0.5326711,1.0178362,0.27219996,0.2550878,0.21374255,0.7012914,0.36290988,0.8249832,0.30843133,1.4327142,0.32331762,-0.19332732,0.082488656,0.3373906,-0.04195729,-0.37476954,-0.19214302,-0.01765709,814.7253,805.4579,795.38464,805.4579,668.86444,-0.135498046875,0.15576171875,0.99591064453125,-1.375732421875,1.51031494140625,6.018829345703125,1,1.0,1.0,1.0,1.0,10.00
2024-10-11 20:39:50.993,0.07972144,0.3594183,0.5326711,1.0178362,0.27219996,0.2550878,0.21374255,0.7012914,0.36290988,0.8249832,0.30843133,1.4327142,0.32331762,-0.19332732,0.082488656,0.3373906,-0.04195729,-0.37476954,-0.19214302,-0.01765709,809.0842,796.99634,800.6227,813.5165,424.2857,-0.135498046875,0.15576171875,0.99591064453125,-1.375732421875,1.51031494140625,6.018829345703125,1,1.0,1.0,1.0,1.0,10.00
2024-10-11 20:39:50.993,0.07972144,0.3594183,0.5326711,1.0178362,0.27219996,0.2550878,0.21374255,0.7012914,0.36290988,0.8249832,0.30843133,1.4327142,0.32331762,-0.19332732,0.082488656,0.3373906,-0.04195729,-0.37476954,-0.19214302,-0.01765709,803.44324,789.7436,801.8315,816.337,684.9817,-0.135498046875,0.15576171875,0.99591064453125,-1.375732421875,1.51031494140625,6.018829345703125,1,1.0,1.0,1.0,1.0,10.00
2024-10-11 20:39:50.994,0.07972144,0.3594183,0.5326711,1.0178362,0.27219996,0.2550878,0.21374255,0.7012914,0.36290988,0.8249832,0.30843133,1.4327142,0.32331762,-0.19332732,0.082488656,0.3373906,-0.04195729,-0.37476954,-0.19214302,-0.01765709,797.8022,791.75824,796.99634,810.696,857.03296,-0.135498046875,0.15576171875,0.99591064453125,-1.375732421875,1.51031494140625,6.018829345703125,1,1.0,1.0,1.0,1.0,10.00
2024-10-11 20:39:50.995,0.07972144,0.3594183,0.5326711,1.0178362,0.27219996,0.2550878,0.21374255,0.7012914,0.36290988,0.8249832,0.30843133,1.4327142,0.32331762,-0.19332732,0.082488656,0.3373906,-0.04195729,-0.37476954,-0.19214302,-0.01765709,793.7729,792.5641,797.3993,803.8461,482.71063,-0.135498046875,0.15576171875,0.99591064453125,-1.375732421875,1.51031494140625,6.018829345703125,1,1.0,1.0,1.0,1.0,10.00
2024-10-11 20:39:50.995,0.07972144,0.3594183,0.5326711,1.0178362,0.27219996,0.2550878,0.21374255,0.7012914,0.36290988,0.8249832,0.30843133,1.4327142,0.32331762,-0.19332732,0.082488656,0.3373906,-0.04195729,-0.37476954,-0.19214302,-0.01765709,794.57874,792.5641,787.72894,800.6227,526.2271,-0.135498046875,0.15576171875,0.99591064453125,-1.375732421875,1.51031494140625,6.018829345703125,1,1.0,1.0,1.0,1.0,10.00
2024-10-11 20:39:50.996,0.07972144,0.3594183,0.5326711,1.0178362,0.27219996,0.2550878,0.21374255,0.7012914,0.36290988,0.8249832,0.30843133,1.4327142,0.32331762,-0.19332732,0.082488656,0.3373906,-0.04195729,-0.37476954,-0.19214302,-0.01765709,793.7729,795.38464,783.69965,803.44324,653.95605,-0.13446044921875,0.1453857421875,0.99151611328125,-4.1571044921875,-0.157012939453125,5.241241455078125,1,1.0,1.0,1.0,1.0,10.00
2024-10-11 20:39:50.997,0.07972144,0.3594183,0.5326711,1.0178362,0.27219996,0.2550878,0.21374255,0.7012914,0.36290988,0.8249832,0.30843133,1.4327142,0.32331762,-0.19332732,0.082488656,0.3373906,-0.04195729,-0.37476954,-0.19214302,-0.01765709,798.60803,799.41394,790.9524,809.4872,498.4249,-0.13446044921875,0.1453857421875,0.99151611328125,-4.1571044921875,-0.157012939453125,5.241241455078125,1,1.0,1.0,1.0,1.0,10.00
2024-10-11 20:39:50.998,0.07972144,0.3594183,0.5326711,1.0178362,0.27219996,0.2550878,0.21374255,0.7012914,0.36290988,0.8249832,0.30843133,1.4327142,0.32331762,-0.19332732,0.082488656,0.3373906,-0.04195729,-0.37476954,-0.19214302,-0.01765709,796.1905,799.81683,794.57874,810.696,369.08426,-0.13446044921875,0.1453857421875,0.99151611328125,-4.1571044921875,-0.157012939453125,5.241241455078125,1,1.0,1.0,1.0,1.0,10.00
2024-10-11 20:39:50.999,0.08912432,0.5449317,0.531906,1.0511636,0.3025452,0.39948747,0.21178578,0.7329101,0.36290988,0.91840017,0.30843133,1.4327142,0.3142204,-0.17454316,0.070318736,0.34233513,-0.053650856,-0.3869671,-0.19287872,-0.032123633,791.75824,798.60803,793.7729,806.26373,458.5348,-0.13446044921875,0.1453857421875,0.99151611328125,-4.1571044921875,-0.157012939453125,5.241241455078125,1,1.0,1.0,1.0,1.0,10.00
2024-10-11 20:39:51.005,0.08912432,0.5449317,0.531906,1.0511636,0.3025452,0.39948747,0.21178578,0.7329101,0.36290988,0.91840017,0.30843133,1.4327142,0.3142204,-0.17454316,0.070318736,0.34233513,-0.053650856,-0.3869671,-0.19287872,-0.032123633,800.2198,796.5934,796.99634,804.2491,601.5751,-0.13446044921875,0.1453857421875,0.99151611328125,-4.1571044921875,-0.157012939453125,5.241241455078125,1,1.0,1.0,1.0,1.0,10.00
2024-10-11 20:39:51.005,0.08912432,0.5449317,0.531906,1.0511636,0.3025452,0.39948747,0.21178578,0.7329101,0.36290988,0.91840017,0.30843133,1.4327142,0.3142204,-0.17454316,0.070318736,0.34233513,-0.053650856,-0.3869671,-0.19287872,-0.032123633,808.2784,799.011,794.17584,801.8315,655.16486,-0.13446044921875,0.1453857421875,0.99151611328125,-4.1571044921875,-0.157012939453125,5.241241455078125,1,1.0,1.0,1.0,1.0,10.00
2024-10-11 20:39:51.006,0.08912432,0.5449317,0.531906,1.0511636,0.3025452,0.39948747,0.21178578,0.7329101,0.36290988,0.91840017,0.30843133,1.4327142,0.3142204,-0.17454316,0.070318736,0.34233513,-0.053650856,-0.3869671,-0.19287872,-0.032123633,815.12823,797.8022,788.5348,791.75824,596.337,-0.13446044921875,0.1453857421875,0.99151611328125,-4.1571044921875,-0.157012939453125,5.241241455078125,1,1.0,1.0,1.0,1.0,10.00
2024-10-11 20:39:51.007,0.08912432,0.5449317,0.531906,1.0511636,0.3025452,0.39948747,0.21178578,0.7329101,0.36290988,0.91840017,0.30843133,1.4327142,0.3142204,-0.17454316,0.070318736,0.34233513,-0.053650856,-0.3869671,-0.19287872,-0.032123633,813.91943,796.99634,792.96704,794.57874,622.9304,-0.13446044921875,0.1453857421875,0.99151611328125,-4.1571044921875,-0.157012939453125,5.241241455078125,1,1.0,1.0,1.0,1.0,10.00
2024-10-11 20:39:51.008,0.08912432,0.5449317,0.531906,1.0511636,0.3025452,0.39948747,0.21178578,0.7329101,0.36290988,0.91840017,0.30843133,1.4327142,0.3142204,-0.17454316,0.070318736,0.34233513,-0.053650856,-0.3869671,-0.19287872,-0.032123633,806.6667,799.011,793.7729,807.0696,762.74725,-0.13446044921875,0.1453857421875,0.99151611328125,-4.1571044921875,-0.157012939453125,5.241241455078125,1,1.0,1.0,1.0,1.0,10.00
2024-10-11 20:39:51.008,0.08912432,0.5449317,0.531906,1.0511636,0.3025452,0.39948747,0.21178578,0.7329101,0.36290988,0.91840017,0.30843133,1.4327142,0.3142204,-0.17454316,0.070318736,0.34233513,-0.053650856,-0.3869671,-0.19287872,-0.032123633,802.23444,799.81683,798.20514,803.8461,547.1795,-0.13446044921875,0.1453857421875,0.99151611328125,-4.1571044921875,-0.157012939453125,5.241241455078125,1,1.0,1.0,1.0,1.0,10.00
2024-10-11 20:39:51.009,0.08912432,0.5449317,0.531906,1.0511636,0.3025452,0.39948747,0.21178578,0.7329101,0.36290988,0.91840017,0.30843133,1.4327142,0.3142204,-0.17454316,0.070318736,0.34233513,-0.053650856,-0.3869671,-0.19287872,-0.032123633,797.3993,796.5934,796.1905,794.17584,484.32236,-0.13446044921875,0.1453857421875,0.99151611328125,-4.1571044921875,-0.157012939453125,5.241241455078125,1,1.0,1.0,1.0,1.0,10.00
2024-10-11 20:39:51.010,0.08912432,0.5449317,0.531906,1.0511636,0.3025452,0.39948747,0.21178578,0.7329101,0.36290988,0.91840017,0.30843133,1.4327142,0.3142204,-0.17454316,0.070318736,0.34233513,-0.053650856,-0.3869671,-0.19287872,-0.032123633,797.8022,792.5641,791.75824,785.7143,641.4652,-0.13446044921875,0.1453857421875,0.99151611328125,-4.1571044921875,-0.157012939453125,5.241241455078125,1,1.0,1.0,1.0,1.0,10.00
2024-10-11 20:39:51.035,0.08912432,0.5449317,0.531906,1.0511636,0.3025452,0.39948747,0.21178578,0.7329101,0.36290988,0.91840017,0.30843133,1.4327142,0.3142204,-0.17454316,0.070318736,0.34233513,-0.053650856,-0.3869671,-0.19287872,-0.032123633,798.60803,795.78754,798.20514,780.07324,630.58606,-0.13446044921875,0.1453857421875,0.99151611328125,-4.1571044921875,-0.157012939453125,5.241241455078125,1,1.0,1.0,1.0,1.0,10.00
2024-10-11 20:39:51.036,0.08912432,0.5449317,0.531906,1.0511636,0.3025452,0.39948747,0.21178578,0.7329101,0.36290988,0.91840017,0.30843133,1.4327142,0.3142204,-0.17454316,0.070318736,0.34233513,-0.053650856,-0.3869671,-0.19287872,-0.032123633,796.99634,797.8022,799.41394,781.685,537.1062,-0.13446044921875,0.1453857421875,0.99151611328125,-4.1571044921875,-0.157012939453125,5.241241455078125,1,1.0,1.0,1.0,1.0,10.00
2024-10-11 20:39:51.036,0.08912432,0.5449317,0.531906,1.0511636,0.3025452,0.39948747,0.21178578,0.7329101,0.36290988,0.91840017,0.30843133,1.4327142,0.3142204,-0.17454316,0.070318736,0.34233513,-0.053650856,-0.3869671,-0.19287872,-0.032123633,798.60803,797.8022,795.38464,787.326,491.17215,-0.13446044921875,0.1453857421875,0.99151611328125,-4.1571044921875,-0.157012939453125,5.241241455078125,1,1.0,1.0,1.0,1.0,10.00
2024-10-11 20:39:51.037,0.08912432,0.5449317,0.531906,1.0511636,0.3025452,0.39948747,0.21178578,0.7329101,0.36290988,0.91840017,0.30843133,1.4327142,0.3142204,-0.17454316,0.070318736,0.34233513,-0.053650856,-0.3869671,-0.19287872,-0.032123633,800.6227,798.60803,796.5934,788.93774,720.4396,-0.13446044921875,0.1453857421875,0.99151611328125,-4.1571044921875,-0.157012939453125,5.241241455078125,1,1.0,1.0,1.0,1.0,10.00
2024-10-11 20:39:51.038,0.08912432,0.5449317,0.531906,1.0511636,0.3025452,0.39948747,0.21178578,0.7329101,0.36290988,0.91840017,0.30843133,1.4327142,0.3142204,-0.17454316,0.070318736,0.34233513,-0.053650856,-0.3869671,-0.19287872,-0.032123633,795.38464,801.4286,798.20514,784.5055,727.28937,-0.13446044921875,0.1453857421875,0.99151611328125,-4.1571044921875,-0.157012939453125,5.241241455078125,1,1.0,1.0,1.0,1.0,10.00
2024-10-11 20:39:51.038,0.08912432,0.5449317,0.531906,1.0511636,0.3025452,0.39948747,0.21178578,0.7329101,0.36290988,0.91840017,0.30843133,1.4327142,0.3142204,-0.17454316,0.070318736,0.34233513,-0.053650856,-0.3869671,-0.19287872,-0.032123633,786.9231,800.6227,799.011,787.326,483.11356,-0.13446044921875,0.1453857421875,0.99151611328125,-4.1571044921875,-0.157012939453125,5.241241455078125,1,1.0,1.0,1.0,1.0,10.00
2024-10-11 20:39:51.039,0.08912432,0.5449317,0.531906,1.0511636,0.3025452,0.39948747,0.21178578,0.7329101,0.36290988,0.91840017,0.30843133,1.4327142,0.3142204,-0.17454316,0.070318736,0.34233513,-0.053650856,-0.3869671,-0.19287872,-0.032123633,789.7436,794.17584,793.7729,796.99634,512.1245,-0.13446044921875,0.1453857421875,0.99151611328125,-4.1571044921875,-0.157012939453125,5.241241455078125,1,1.0,1.0,1.0,1.0,10.00
2024-10-11 20:39:51.040,0.08912432,0.5449317,0.531906,1.0511636,0.3025452,0.39948747,0.21178578,0.7329101,0.36290988,0.91840017,0.30843133,1.4327142,0.3142204,-0.17454316,0.070318736,0.34233513,-0.053650856,-0.3869671,-0.19287872,-0.032123633,793.36993,791.3553,793.7729,805.05493,704.7253,-0.13446044921875,0.1453857421875,0.99151611328125,-4.1571044921875,-0.157012939453125,5.241241455078125,1,1.0,1.0,1.0,1.0,10.00
2024-10-11 20:39:51.040,0.08912432,0.5449317,0.531906,1.0511636,0.3025452,0.39948747,0.21178578,0.7329101,0.36290988,0.91840017,0.30843133,1.4327142,0.3142204,-0.17454316,0.070318736,0.34233513,-0.053650856,-0.3869671,-0.19287872,-0.032123633,792.1612,792.96704,801.02563,807.47253,915.8608,-0.13446044921875,0.1453857421875,0.99151611328125,-4.1571044921875,-0.157012939453125,5.241241455078125,1,1.0,1.0,1.0,1.0,10.00
2024-10-11 20:39:51.041,0.08912432,0.5449317,0.531906,1.0511636,0.3025452,0.39948747,0.21178578,0.7329101,0.36290988,0.91840017,0.30843133,1.4327142,0.3142204,-0.17454316,0.070318736,0.34233513,-0.053650856,-0.3869671,-0.19287872,-0.032123633,799.81683,792.1612,803.8461,796.1905,608.4249,-0.13446044921875,0.1453857421875,0.99151611328125,-4.1571044921875,-0.157012939453125,5.241241455078125,1,1.0,1.0,1.0,1.0,10.00
2024-10-11 20:39:51.041,0.08912432,0.5449317,0.531906,1.0511636,0.3025452,0.39948747,0.21178578,0.7329101,0.36290988,0.91840017,0.30843133,1.4327142,0.3142204,-0.17454316,0.070318736,0.34233513,-0.053650856,-0.3869671,-0.19287872,-0.032123633,803.44324,794.9817,802.23444,793.7729,475.05493,-0.13446044921875,0.1453857421875,0.99151611328125,-4.1571044921875,-0.157012939453125,5.241241455078125,1,1.0,1.0,1.0,1.0,10.00
2024-10-11 20:39:51.042,0.08912432,0.5449317,0.531906,1.0511636,0.3025452,0.39948747,0.21178578,0.7329101,0.36290988,0.91840017,0.30843133,1.4327142,0.3142204,-0.17454316,0.070318736,0.34233513,-0.053650856,-0.3869671,-0.19287872,-0.032123633,798.60803,800.2198,800.6227,796.99634,553.22345,-0.13446044921875,0.1453857421875,0.99151611328125,-4.1571044921875,-0.157012939453125,5.241241455078125,1,1.0,1.0,1.0,1.0,10.00
2024-10-11 20:39:51.043,0.08912432,0.5449317,0.531906,1.0511636,0.3025452,0.39948747,0.21178578,0.7329101,0.36290988,0.91840017,0.30843133,1.4327142,0.3142204,-0.17454316,0.070318736,0.34233513,-0.053650856,-0.3869671,-0.19287872,-0.032123633,801.02563,801.02563,798.20514,793.36993,443.22345,-0.132568359375,0.1392822265625,0.9962158203125,-5.7421875,0.037384033203125,4.987030029296875,1,1.0,1.0,1.0,1.0,10.00
2024-10-11 20:39:51.043,0.08912432,0.5449317,0.531906,1.0511636,0.3025452,0.39948747,0.21178578,0.7329101,0.36290988,0.91840017,0.30843133,1.4327142,0.3142204,-0.17454316,0.070318736,0.34233513,-0.053650856,-0.3869671,-0.19287872,-0.032123633,808.2784,800.2198,800.2198,793.36993,458.13187,-0.132568359375,0.1392822265625,0.9962158203125,-5.7421875,0.037384033203125,4.987030029296875,1,1.0,1.0,1.0,1.0,10.00
2024-10-11 20:39:51.044,0.08912432,0.5449317,0.531906,1.0511636,0.3025452,0.39948747,0.21178578,0.7329101,0.36290988,0.91840017,0.30843133,1.4327142,0.3142204,-0.17454316,0.070318736,0.34233513,-0.053650856,-0.3869671,-0.19287872,-0.032123633,808.68134,796.1905,800.6227,798.20514,603.5897,-0.132568359375,0.1392822265625,0.9962158203125,-5.7421875,0.037384033203125,4.987030029296875,1,1.0,1.0,1.0,1.0,10.00
2024-10-11 20:39:51.045,0.08912432,0.5449317,0.531906,1.0511636,0.3025452,0.39948747,0.21178578,0.7329101,0.36290988,0.91840017,0.30843133,1.4327142,0.3142204,-0.17454316,0.070318736,0.34233513,-0.053650856,-0.3869671,-0.19287872,-0.032123633,803.8461,796.99634,798.20514,804.65204,614.87177,-0.132568359375,0.1392822265625,0.9962158203125,-5.7421875,0.037384033203125,4.987030029296875,1,1.0,1.0,1.0,1.0,10.00
2024-10-11 20:39:51.045,0.08912432,0.5449317,0.531906,1.0511636,0.3025452,0.39948747,0.21178578,0.7329101,0.36290988,0.91840017,0.30843133,1.4327142,0.3142204,-0.17454316,0.070318736,0.34233513,-0.053650856,-0.3869671,-0.19287872,-0.032123633,807.47253,802.6374,803.0403,812.71063,601.978,-0.132568359375,0.1392822265625,0.9962158203125,-5.7421875,0.037384033203125,4.987030029296875,1,1.0,1.0,1.0,1.0,10.00
2024-10-11 20:39:51.046,0.105885,0.6825053,0.5212294,1.0874282,0.33067816,0.4852977,0.19939396,0.7675247,0.36290988,0.92576694,0.30843133,1.4327142,0.30720058,-0.15683776,0.063789025,0.35306066,-0.06470273,-0.39568862,-0.1927213,-0.042220954,808.2784,796.99634,797.8022,808.2784,624.1392,-0.132568359375,0.1392822265625,0.9962158203125,-5.7421875,0.037384033203125,4.987030029296875,1,1.0,1.0,1.0,1.0,10.00
2024-10-11 20:39:51.051,0.105885,0.6825053,0.5212294,1.0874282,0.33067816,0.4852977,0.19939396,0.7675247,0.36290988,0.92576694,0.30843133,1.4327142,0.30720058,-0.15683776,0.063789025,0.35306066,-0.06470273,-0.39568862,-0.1927213,-0.042220954,802.23444,792.96704,792.5641,803.0403,765.56775,-0.132568359375,0.1392822265625,0.9962158203125,-5.7421875,0.037384033203125,4.987030029296875,1,1.0,1.0,1.0,1.0,10.00
2024-10-11 20:39:51.052,0.105885,0.6825053,0.5212294,1.0874282,0.33067816,0.4852977,0.19939396,0.7675247,0.36290988,0.92576694,0.30843133,1.4327142,0.30720058,-0.15683776,0.063789025,0.35306066,-0.06470273,-0.39568862,-0.1927213,-0.042220954,808.68134,797.3993,796.1905,807.0696,894.10254,-0.132568359375,0.1392822265625,0.9962158203125,-5.7421875,0.037384033203125,4.987030029296875,1,1.0,1.0,1.0,1.0,10.00
2024-10-11 20:39:51.052,0.105885,0.6825053,0.5212294,1.0874282,0.33067816,0.4852977,0.19939396,0.7675247,0.36290988,0.92576694,0.30843133,1.4327142,0.30720058,-0.15683776,0.063789025,0.35306066,-0.06470273,-0.39568862,-0.1927213,-0.042220954,813.1135,798.20514,791.75824,806.6667,635.82416,-0.132568359375,0.1392822265625,0.9962158203125,-5.7421875,0.037384033203125,4.987030029296875,1,1.0,1.0,1.0,1.0,10.00
2024-10-11 20:39:51.053,0.105885,0.6825053,0.5212294,1.0874282,0.33067816,0.4852977,0.19939396,0.7675247,0.36290988,0.92576694,0.30843133,1.4327142,0.30720058,-0.15683776,0.063789025,0.35306066,-0.06470273,-0.39568862,-0.1927213,-0.042220954,812.71063,802.6374,795.38464,804.65204,449.2674,-0.132568359375,0.1392822265625,0.9962158203125,-5.7421875,0.037384033203125,4.987030029296875,1,1.0,1.0,1.0,1.0,10.00
2024-10-11 20:39:51.053,0.105885,0.6825053,0.5212294,1.0874282,0.33067816,0.4852977,0.19939396,0.7675247,0.36290988,0.92576694,0.30843133,1.4327142,0.30720058,-0.15683776,0.063789025,0.35306066,-0.06470273,-0.39568862,-0.1927213,-0.042220954,812.3077,807.47253,803.0403,806.26373,642.674,-0.132568359375,0.1392822265625,0.9962158203125,-5.7421875,0.037384033203125,4.987030029296875,1,1.0,1.0,1.0,1.0,10.00
2024-10-11 20:39:51.054,0.105885,0.6825053,0.5212294,1.0874282,0.33067816,0.4852977,0.19939396,0.7675247,0.36290988,0.92576694,0.30843133,1.4327142,0.30720058,-0.15683776,0.063789025,0.35306066,-0.06470273,-0.39568862,-0.1927213,-0.042220954,809.0842,803.0403,797.3993,810.293,1094.762,-0.132568359375,0.1392822265625,0.9962158203125,-5.7421875,0.037384033203125,4.987030029296875,1,1.0,1.0,1.0,1.0,10.00
2024-10-11 20:39:51.119,0.105885,0.6825053,0.5212294,1.0874282,0.33067816,0.4852977,0.19939396,0.7675247,0.36290988,0.92576694,0.30843133,1.4327142,0.30720058,-0.15683776,0.063789025,0.35306066,-0.06470273,-0.39568862,-0.1927213,-0.042220954,802.23444,806.26373,798.20514,807.47253,888.46155,-0.12811279296875,0.12396240234375,0.99383544921875,-7.43194580078125,-1.2261962890625,6.033782958984375,1,1.0,1.0,1.0,1.0,10.00
2024-10-11 20:39:51.120,0.105885,0.6825053,0.5212294,1.0874282,0.33067816,0.4852977,0.19939396,0.7675247,0.36290988,0.92576694,0.30843133,1.4327142,0.30720058,-0.15683776,0.063789025,0.35306066,-0.06470273,-0.39568862,-0.1927213,-0.042220954,792.1612,804.2491,800.2198,802.23444,574.17584,-0.12811279296875,0.12396240234375,0.99383544921875,-7.43194580078125,-1.2261962890625,6.033782958984375,1,1.0,1.0,1.0,1.0,10.00
2024-10-11 20:39:51.120,0.105885,0.6825053,0.5212294,1.0874282,0.33067816,0.4852977,0.19939396,0.7675247,0.36290988,0.92576694,0.30843133,1.4327142,0.30720058,-0.15683776,0.063789025,0.35306066,-0.06470273,-0.39568862,-0.1927213,-0.042220954,791.75824,797.8022,796.5934,800.6227,574.57874,-0.12811279296875,0.12396240234375,0.99383544921875,-7.43194580078125,-1.2261962890625,6.033782958984375,1,1.0,1.0,1.0,1.0,10.00
2024-10-11 20:39:51.121,0.105885,0.6825053,0.5212294,1.0874282,0.33067816,0.4852977,0.19939396,0.7675247,0.36290988,0.92576694,0.30843133,1.4327142,0.30720058,-0.15683776,0.063789025,0.35306066,-0.06470273,-0.39568862,-0.1927213,-0.042220954,789.7436,794.9817,799.41394,799.41394,525.82416,-0.12811279296875,0.12396240234375,0.99383544921875,-7.43194580078125,-1.2261962890625,6.033782958984375,1,1.0,1.0,1.0,1.0,10.00
2024-10-11 20:39:51.121,0.105885,0.6825053,0.5212294,1.0874282,0.33067816,0.4852977,0.19939396,0.7675247,0.36290988,0.92576694,0.30843133,1.4327142,0.30720058,-0.15683776,0.063789025,0.35306066,-0.06470273,-0.39568862,-0.1927213,-0.042220954,788.1319,796.1905,799.011,797.3993,525.42126,-0.12811279296875,0.12396240234375,0.99383544921875,-7.43194580078125,-1.2261962890625,6.033782958984375,1,1.0,1.0,1.0,1.0,10.00
2024-10-11 20:39:51.122,0.105885,0.6825053,0.5212294,1.0874282,0.33067816,0.4852977,0.19939396,0.7675247,0.36290988,0.92576694,0.30843133,1.4327142,0.30720058,-0.15683776,0.063789025,0.35306066,-0.06470273,-0.39568862,-0.1927213,-0.042220954,797.8022,798.60803,794.17584,802.6374,620.5128,-0.12811279296875,0.12396240234375,0.99383544921875,-7.43194580078125,-1.2261962890625,6.033782958984375,1,1.0,1.0,1.0,1.0,10.00
2024-10-11 20:39:51.122,0.105885,0.6825053,0.5212294,1.0874282,0.33067816,0.4852977,0.19939396,0.7675247,0.36290988,0.92576694,0.30843133,1.4327142,0.30720058,-0.15683776,0.063789025,0.35306066,-0.06470273,-0.39568862,-0.1927213,-0.042220954,802.23444,796.99634,788.93774,821.5751,979.12085,-0.12811279296875,0.12396240234375,0.99383544921875,-7.43194580078125,-1.2261962890625,6.033782958984375,1,1.0,1.0,1.0,1.0,10.00
2024-10-11 20:39:51.123,0.105885,0.6825053,0.5212294,1.0874282,0.33067816,0.4852977,0.19939396,0.7675247,0.36290988,0.92576694,0.30843133,1.4327142,0.30720058,-0.15683776,0.063789025,0.35306066,-0.06470273,-0.39568862,-0.1927213,-0.042220954,803.8461,799.011,799.41394,820.7692,1003.2967,-0.12811279296875,0.12396240234375,0.99383544921875,-7.43194580078125,-1.2261962890625,6.033782958984375,1,1.0,1.0,1.0,1.0,10.00
2024-10-11 20:39:51.124,0.105885,0.6825053,0.5212294,1.0874282,0.33067816,0.4852977,0.19939396,0.7675247,0.36290988,0.92576694,0.30843133,1.4327142,0.30720058,-0.15683776,0.063789025,0.35306066,-0.06470273,-0.39568862,-0.1927213,-0.042220954,804.65204,796.99634,800.6227,794.9817,675.31134,-0.12811279296875,0.12396240234375,0.99383544921875,-7.43194580078125,-1.2261962890625,6.033782958984375,1,1.0,1.0,1.0,1.0,10.00
2024-10-11 20:39:51.124,0.105885,0.6825053,0.5212294,1.0874282,0.33067816,0.4852977,0.19939396,0.7675247,0.36290988,0.92576694,0.30843133,1.4327142,0.30720058,-0.15683776,0.063789025,0.35306066,-0.06470273,-0.39568862,-0.1927213,-0.042220954,807.47253,799.011,797.3993,789.34064,695.8608,-0.12811279296875,0.12396240234375,0.99383544921875,-7.43194580078125,-1.2261962890625,6.033782958984375,1,1.0,1.0,1.0,1.0,10.00
2024-10-11 20:39:51.125,0.105885,0.6825053,0.5212294,1.0874282,0.33067816,0.4852977,0.19939396,0.7675247,0.36290988,0.92576694,0.30843133,1.4327142,0.30720058,-0.15683776,0.063789025,0.35306066,-0.06470273,-0.39568862,-0.1927213,-0.042220954,807.47253,801.4286,801.02563,798.60803,717.2161,-0.12811279296875,0.12396240234375,0.99383544921875,-7.43194580078125,-1.2261962890625,6.033782958984375,1,1.0,1.0,1.0,1.0,10.00
2024-10-11 20:39:51.125,0.105885,0.6825053,0.5212294,1.0874282,0.33067816,0.4852977,0.19939396,0.7675247,0.36290988,0.92576694,0.30843133,1.4327142,0.30720058,-0.15683776,0.063789025,0.35306066,-0.06470273,-0.39568862,-0.1927213,-0.042220954,792.96704,792.96704,800.6227,803.8461,632.6007,-0.12811279296875,0.12396240234375,0.99383544921875,-7.43194580078125,-1.2261962890625,6.033782958984375,1,1.0,1.0,1.0,1.0,10.00
2024-10-11 20:39:51.150,0.105885,0.6825053,0.5212294,1.0874282,0.33067816,0.4852977,0.19939396,0.7675247,0.36290988,0.92576694,0.30843133,1.4327142,0.30720058,-0.15683776,0.063789025,0.35306066,-0.06470273,-0.39568862,-0.1927213,-0.042220954,783.69965,790.9524,806.26373,799.41394,540.7326,-0.12689208984375,0.10968017578125,0.99169921875,-6.332855224609375,-1.921539306640625,6.616973876953125,1,1.0,1.0,1.0,1.0,10.00
2024-10-11 20:39:51.151,0.105885,0.6825053,0.5212294,1.0874282,0.33067816,0.4852977,0.19939396,0.7675247,0.36290988,0.92576694,0.30843133,1.4327142,0.30720058,-0.15683776,0.063789025,0.35306066,-0.06470273,-0.39568862,-0.1927213,-0.042220954,790.14655,797.3993,805.4579,803.0403,624.1392,-0.12689208984375,0.10968017578125,0.99169921875,-6.332855224609375,-1.921539306640625,6.616973876953125,1,1.0,1.0,1.0,1.0,10.00
2024-10-11 20:39:51.152,0.105885,0.6825053,0.5212294,1.0874282,0.33067816,0.4852977,0.19939396,0.7675247,0.36290988,0.92576694,0.30843133,1.4327142,0.30720058,-0.15683776,0.063789025,0.35306066,-0.06470273,-0.39568862,-0.1927213,-0.042220954,797.3993,797.3993,804.2491,805.4579,618.9011,-0.12689208984375,0.10968017578125,0.99169921875,-6.332855224609375,-1.921539306640625,6.616973876953125,1,1.0,1.0,1.0,1.0,10.00
2024-10-11 20:39:51.153,0.105885,0.6825053,0.5212294,1.0874282,0.33067816,0.4852977,0.19939396,0.7675247,0.36290988,0.92576694,0.30843133,1.4327142,0.30720058,-0.15683776,0.063789025,0.35306066,-0.06470273,-0.39568862,-0.1927213,-0.042220954,794.9817,794.57874,805.8608,798.60803,627.76556,-0.12689208984375,0.10968017578125,0.99169921875,-6.332855224609375,-1.921539306640625,6.616973876953125,1,1.0,1.0,1.0,1.0,10.00
2024-10-11 20:39:51.153,0.105885,0.6825053,0.5212294,1.0874282,0.33067816,0.4852977,0.19939396,0.7675247,0.36290988,0.92576694,0.30843133,1.4327142,0.30720058,-0.15683776,0.063789025,0.35306066,-0.06470273,-0.39568862,-0.1927213,-0.042220954,805.4579,794.9817,801.02563,794.9817,719.2308,-0.12689208984375,0.10968017578125,0.99169921875,-6.332855224609375,-1.921539306640625,6.616973876953125,1,1.0,1.0,1.0,1.0,10.00
2024-10-11 20:39:51.154,0.105885,0.6825053,0.5212294,1.0874282,0.33067816,0.4852977,0.19939396,0.7675247,0.36290988,0.92576694,0.30843133,1.4327142,0.30720058,-0.15683776,0.063789025,0.35306066,-0.06470273,-0.39568862,-0.1927213,-0.042220954,813.1135,794.9817,800.6227,806.6667,909.41394,-0.12689208984375,0.10968017578125,0.99169921875,-6.332855224609375,-1.921539306640625,6.616973876953125,1,1.0,1.0,1.0,1.0,10.00
2024-10-11 20:39:51.154,0.105885,0.6825053,0.5212294,1.0874282,0.33067816,0.4852977,0.19939396,0.7675247,0.36290988,0.92576694,0.30843133,1.4327142,0.30720058,-0.15683776,0.063789025,0.35306066,-0.06470273,-0.39568862,-0.1927213,-0.042220954,811.0989,793.7729,805.4579,820.7692,1045.2014,-0.12689208984375,0.10968017578125,0.99169921875,-6.332855224609375,-1.921539306640625,6.616973876953125,1,1.0,1.0,1.0,1.0,10.00
2024-10-11 20:39:51.155,0.13148709,0.7686393,0.5091569,1.1263194,0.36039904,0.5237348,0.1774643,0.8056333,0.36234194,0.92576694,0.30843133,1.4327142,0.29736188,-0.13965945,0.059743542,0.36967173,-0.07798546,-0.39849088,-0.19215508,-0.04639228,808.68134,795.38464,804.65204,818.3516,785.31134,-0.12689208984375,0.10968017578125,0.99169921875,-6.332855224609375,-1.921539306640625,6.616973876953125,1,1.0,1.0,1.0,1.0,10.00
2024-10-11 20:39:51.160,0.13148709,0.7686393,0.5091569,1.1263194,0.36039904,0.5237348,0.1774643,0.8056333,0.36234194,0.92576694,0.30843133,1.4327142,0.29736188,-0.13965945,0.059743542,0.36967173,-0.07798546,-0.39849088,-0.19215508,-0.04639228,806.26373,803.44324,801.4286,814.3223,652.3443,-0.12689208984375,0.10968017578125,0.99169921875,-6.332855224609375,-1.921539306640625,6.616973876953125,1,1.0,1.0,1.0,1.0,10.00
2024-10-11 20:39:51.161,0.13148709,0.7686393,0.5091569,1.1263194,0.36039904,0.5237348,0.1774643,0.8056333,0.36234194,0.92576694,0.30843133,1.4327142,0.29736188,-0.13965945,0.059743542,0.36967173,-0.07798546,-0.39849088,-0.19215508,-0.04639228,807.0696,804.65204,793.7729,807.8755,881.2088,-0.12689208984375,0.10968017578125,0.99169921875,-6.332855224609375,-1.921539306640625,6.616973876953125,1,1.0,1.0,1.0,1.0,10.00
2024-10-11 20:39:51.161,0.13148709,0.7686393,0.5091569,1.1263194,0.36039904,0.5237348,0.1774643,0.8056333,0.36234194,0.92576694,0.30843133,1.4327142,0.29736188,-0.13965945,0.059743542,0.36967173,-0.07798546,-0.39849088,-0.19215508,-0.04639228,807.8755,800.2198,794.57874,805.05493,1029.8901,-0.12689208984375,0.10968017578125,0.99169921875,-6.332855224609375,-1.921539306640625,6.616973876953125,1,1.0,1.0,1.0,1.0,10.00
2024-10-11 20:39:51.162,0.13148709,0.7686393,0.5091569,1.1263194,0.36039904,0.5237348,0.1774643,0.8056333,0.36234194,0.92576694,0.30843133,1.4327142,0.29736188,-0.13965945,0.059743542,0.36967173,-0.07798546,-0.39849088,-0.19215508,-0.04639228,807.8755,799.011,796.99634,798.20514,883.22345,-0.12689208984375,0.10968017578125,0.99169921875,-6.332855224609375,-1.921539306640625,6.616973876953125,1,1.0,1.0,1.0,1.0,10.00
2024-10-11 20:39:51.251,0.13148709,0.7686393,0.5091569,1.1263194,0.36039904,0.5237348,0.1774643,0.8056333,0.36234194,0.92576694,0.30843133,1.4327142,0.29736188,-0.13965945,0.059743542,0.36967173,-0.07798546,-0.39849088,-0.19215508,-0.04639228,809.0842,796.1905,796.99634,788.93774,830.84247,-0.12738037109375,0.10260009765625,0.99114990234375,-5.510406494140625,-2.392578125,4.56085205078125,1,1.0,1.0,1.0,1.0,10.00
2024-10-11 20:39:51.252,0.13148709,0.7686393,0.5091569,1.1263194,0.36039904,0.5237348,0.1774643,0.8056333,0.36234194,0.92576694,0.30843133,1.4327142,0.29736188,-0.13965945,0.059743542,0.36967173,-0.07798546,-0.39849088,-0.19215508,-0.04639228,811.50183,799.011,796.1905,798.60803,973.8828,-0.12738037109375,0.10260009765625,0.99114990234375,-5.510406494140625,-2.392578125,4.56085205078125,1,1.0,1.0,1.0,1.0,10.00
2024-10-11 20:39:51.253,0.13148709,0.7686393,0.5091569,1.1263194,0.36039904,0.5237348,0.1774643,0.8056333,0.36234194,0.92576694,0.30843133,1.4327142,0.29736188,-0.13965945,0.059743542,0.36967173,-0.07798546,-0.39849088,-0.19215508,-0.04639228,809.4872,801.02563,795.78754,804.2491,980.7326,-0.12738037109375,0.10260009765625,0.99114990234375,-5.510406494140625,-2.392578125,4.56085205078125,1,1.0,1.0,1.0,1.0,10.00
2024-10-11 20:39:51.253,0.13148709,0.7686393,0.5091569,1.1263194,0.36039904,0.5237348,0.1774643,0.8056333,0.36234194,0.92576694,0.30843133,1.4327142,0.29736188,-0.13965945,0.059743542,0.36967173,-0.07798546,-0.39849088,-0.19215508,-0.04639228,802.6374,801.02563,794.17584,799.81683,811.0989,-0.12738037109375,0.10260009765625,0.99114990234375,-5.510406494140625,-2.392578125,4.56085205078125,1,1.0,1.0,1.0,1.0,10.00
2024-10-11 20:39:51.254,0.13148709,0.7686393,0.5091569,1.1263194,0.36039904,0.5237348,0.1774643,0.8056333,0.36234194,0.92576694,0.30843133,1.4327142,0.29736188,-0.13965945,0.059743542,0.36967173,-0.07798546,-0.39849088,-0.19215508,-0.04639228,808.2784,800.6227,795.78754,801.02563,806.6667,-0.12738037109375,0.10260009765625,0.99114990234375,-5.510406494140625,-2.392578125,4.56085205078125,1,1.0,1.0,1.0,1.0,10.00
2024-10-11 20:39:51.254,0.13148709,0.7686393,0.5091569,1.1263194,0.36039904,0.5237348,0.1774643,0.8056333,0.36234194,0.92576694,0.30843133,1.4327142,0.29736188,-0.13965945,0.059743542,0.36967173,-0.07798546,-0.39849088,-0.19215508,-0.04639228,815.12823,797.3993,795.38464,806.6667,1010.14655,-0.12738037109375,0.10260009765625,0.99114990234375,-5.510406494140625,-2.392578125,4.56085205078125,1,1.0,1.0,1.0,1.0,10.00
2024-10-11 20:39:51.255,0.13148709,0.7686393,0.5091569,1.1263194,0.36039904,0.5237348,0.1774643,0.8056333,0.36234194,0.92576694,0.30843133,1.4327142,0.29736188,-0.13965945,0.059743542,0.36967173,-0.07798546,-0.39849088,-0.19215508,-0.04639228,811.9048,798.20514,786.52014,809.0842,1043.1868,-0.12738037109375,0.10260009765625,0.99114990234375,-5.510406494140625,-2.392578125,4.56085205078125,1,1.0,1.0,1.0,1.0,10.00
2024-10-11 20:39:51.256,0.13148709,0.7686393,0.5091569,1.1263194,0.36039904,0.5237348,0.1774643,0.8056333,0.36234194,0.92576694,0.30843133,1.4327142,0.29736188,-0.13965945,0.059743542,0.36967173,-0.07798546,-0.39849088,-0.19215508,-0.04639228,808.68134,800.2198,786.9231,801.4286,776.8498,-0.12738037109375,0.10260009765625,0.99114990234375,-5.510406494140625,-2.392578125,4.56085205078125,1,1.0,1.0,1.0,1.0,10.00
2024-10-11 20:39:51.256,0.13148709,0.7686393,0.5091569,1.1263194,0.36039904,0.5237348,0.1774643,0.8056333,0.36234194,0.92576694,0.30843133,1.4327142,0.29736188,-0.13965945,0.059743542,0.36967173,-0.07798546,-0.39849088,-0.19215508,-0.04639228,799.81683,797.3993,788.1319,800.2198,704.7253,-0.12738037109375,0.10260009765625,0.99114990234375,-5.510406494140625,-2.392578125,4.56085205078125,1,1.0,1.0,1.0,1.0,10.00
2024-10-11 20:39:51.257,0.13148709,0.7686393,0.5091569,1.1263194,0.36039904,0.5237348,0.1774643,0.8056333,0.36234194,0.92576694,0.30843133,1.4327142,0.29736188,-0.13965945,0.059743542,0.36967173,-0.07798546,-0.39849088,-0.19215508,-0.04639228,796.99634,792.5641,790.14655,806.6667,858.6447,-0.12738037109375,0.10260009765625,0.99114990234375,-5.510406494140625,-2.392578125,4.56085205078125,1,1.0,1.0,1.0,1.0,10.00
2024-10-11 20:39:51.257,0.13148709,0.7686393,0.5091569,1.1263194,0.36039904,0.5237348,0.1774643,0.8056333,0.36234194,0.92576694,0.30843133,1.4327142,0.29736188,-0.13965945,0.059743542,0.36967173,-0.07798546,-0.39849088,-0.19215508,-0.04639228,794.17584,796.1905,794.9817,801.02563,874.35895,-0.12738037109375,0.10260009765625,0.99114990234375,-5.510406494140625,-2.392578125,4.56085205078125,1,1.0,1.0,1.0,1.0,10.00
2024-10-11 20:39:51.258,0.13148709,0.7686393,0.5091569,1.1263194,0.36039904,0.5237348,0.1774643,0.8056333,0.36234194,0.92576694,0.30843133,1.4327142,0.29736188,-0.13965945,0.059743542,0.36967173,-0.07798546,-0.39849088,-0.19215508,-0.04639228,786.1172,796.1905,796.1905,796.1905,745.82416,-0.12738037109375,0.10260009765625,0.99114990234375,-5.510406494140625,-2.392578125,4.56085205078125,1,1.0,1.0,1.0,1.0,10.00
2024-10-11 20:39:51.259,0.13148709,0.7686393,0.5091569,1.1263194,0.36039904,0.5237348,0.1774643,0.8056333,0.36234194,0.92576694,0.30843133,1.4327142,0.29736188,-0.13965945,0.059743542,0.36967173,-0.07798546,-0.39849088,-0.19215508,-0.04639228,785.31134,795.78754,796.1905,796.99634,787.72894,-0.108642578125,0.10003662109375,1.006103515625,-4.97955322265625,-4.11224365234375,2.086029052734375,1,1.0,1.0,1.0,1.0,10.00
2024-10-11 20:39:51.259,0.13148709,0.7686393,0.5091569,1.1263194,0.36039904,0.5237348,0.1774643,0.8056333,0.36234194,0.92576694,0.30843133,1.4327142,0.29736188,-0.13965945,0.059743542,0.36967173,-0.07798546,-0.39849088,-0.19215508,-0.04639228,787.72894,799.011,794.9817,793.7729,975.4945,-0.108642578125,0.10003662109375,1.006103515625,-4.97955322265625,-4.11224365234375,2.086029052734375,1,1.0,1.0,1.0,1.0,10.00
2024-10-11 20:39:51.260,0.13148709,0.7686393,0.5091569,1.1263194,0.36039904,0.5237348,0.1774643,0.8056333,0.36234194,0.92576694,0.30843133,1.4327142,0.29736188,-0.13965945,0.059743542,0.36967173,-0.07798546,-0.39849088,-0.19215508,-0.04639228,779.2674,795.78754,794.17584,787.326,953.3333,-0.108642578125,0.10003662109375,1.006103515625,-4.97955322265625,-4.11224365234375,2.086029052734375,1,1.0,1.0,1.0,1.0,10.00
2024-10-11 20:39:51.260,0.13148709,0.7686393,0.5091569,1.1263194,0.36039904,0.5237348,0.1774643,0.8056333,0.36234194,0.92576694,0.30843133,1.4327142,0.29736188,-0.13965945,0.059743542,0.36967173,-0.07798546,-0.39849088,-0.19215508,-0.04639228,780.87915,793.36993,796.1905,784.90845,753.47986,-0.108642578125,0.10003662109375,1.006103515625,-4.97955322265625,-4.11224365234375,2.086029052734375,1,1.0,1.0,1.0,1.0,10.00
2024-10-11 20:39:51.261,0.13148709,0.7686393,0.5091569,1.1263194,0.36039904,0.5237348,0.1774643,0.8056333,0.36234194,0.92576694,0.30843133,1.4327142,0.29736188,-0.13965945,0.059743542,0.36967173,-0.07798546,-0.39849088,-0.19215508,-0.04639228,790.9524,795.78754,795.78754,787.72894,845.34796,-0.108642578125,0.10003662109375,1.006103515625,-4.97955322265625,-4.11224365234375,2.086029052734375,1,1.0,1.0,1.0,1.0,10.00
2024-10-11 20:39:51.262,0.13148709,0.7686393,0.5091569,1.1263194,0.36039904,0.5237348,0.1774643,0.8056333,0.36234194,0.92576694,0.30843133,1.4327142,0.29736188,-0.13965945,0.059743542,0.36967173,-0.07798546,-0.39849088,-0.19215508,-0.04639228,798.60803,797.3993,792.96704,791.75824,1098.3883,-0.108642578125,0.10003662109375,1.006103515625,-4.97955322265625,-4.11224365234375,2.086029052734375,1,1.0,1.0,1.0,1.0,10.00
2024-10-11 20:39:51.263,0.13148709,0.7686393,0.5091569,1.1263194,0.36039904,0.5237348,0.1774643,0.8056333,0.36234194,0.92576694,0.30843133,1.4327142,0.29736188,-0.13965945,0.059743542,0.36967173,-0.07798546,-0.39849088,-0.19215508,-0.04639228,803.44324,802.23444,794.17584,797.8022,980.7326,-0.108642578125,0.10003662109375,1.006103515625,-4.97955322265625,-4.11224365234375,2.086029052734375,1,1.0,1.0,1.0,1.0,10.00
2024-10-11 20:39:51.263,0.13148709,0.7686393,0.5091569,1.1263194,0.36039904,0.5237348,0.1774643,0.8056333,0.36234194,0.92576694,0.30843133,1.4327142,0.29736188,-0.13965945,0.059743542,0.36967173,-0.07798546,-0.39849088,-0.19215508,-0.04639228,796.1905,807.0696,794.17584,806.26373,724.0659,-0.108642578125,0.10003662109375,1.006103515625,-4.97955322265625,-4.11224365234375,2.086029052734375,1,1.0,1.0,1.0,1.0,10.00
2024-10-11 20:39:51.264,0.13148709,0.7686393,0.5091569,1.1263194,0.36039904,0.5237348,0.1774643,0.8056333,0.36234194,0.92576694,0.30843133,1.4327142,0.29736188,-0.13965945,0.059743542,0.36967173,-0.07798546,-0.39849088,-0.19215508,-0.04639228,795.38464,806.26373,794.17584,807.0696,767.1795,-0.108642578125,0.10003662109375,1.006103515625,-4.97955322265625,-4.11224365234375,2.086029052734375,1,1.0,1.0,1.0,1.0,10.00
