TimeStamp,Delta_TP9,Delta_AF7,Delta_AF8,Delta_TP10,Theta_TP9,Theta_AF7,Theta_AF8,Theta_TP10,Alpha_TP9,Alpha_AF7,Alpha_AF8,Alpha_TP10,Beta_TP9,Beta_AF7,Beta_AF8,Beta_TP10,Gamma_TP9,Gamma_AF7,Gamma_AF8,Gamma_TP10,RAW_TP9,RAW_AF7,RAW_AF8,RAW_TP10,AUX_RIGHT,Accelerometer_X,Accelerometer_Y,Accelerometer_Z,Gyro_X,Gyro_Y,Gyro_Z,HeadBandOn,HSI_TP9,HSI_AF7,HSI_AF8,HSI_TP10,Battery,Elements
2024-10-11 20:42:21.079,0.33881363,-0.013306216,0.2532162,-0.13573387,0.39461696,-0.17024274,0.14543334,0.3416237,0.3601216,-0.29238456,0.087924466,0.4571484,0.62511796,-0.22990231,0.271502,0.5857917,0.1494227,-0.31129232,-0.26204494,-0.14266826,797.3993,795.78754,800.6227,801.8315,740.989,0.26019287109375,0.14678955078125,0.95819091796875,-0.456085205078125,-0.620574951171875,-4.0972900390625,1,1.0,1.0,1.0,1.0,10.00
2024-10-11 20:42:21.080,0.33881363,-0.013306216,0.2532162,-0.13573387,0.39461696,-0.17024274,0.14543334,0.3416237,0.3601216,-0.29238456,0.087924466,0.4571484,0.62511796,-0.22990231,0.271502,0.5857917,0.1494227,-0.31129232,-0.26204494,-0.14266826,796.1905,792.1612,800.2198,794.57874,642.27106,0.26019287109375,0.14678955078125,0.95819091796875,-0.456085205078125,-0.620574951171875,-4.0972900390625,1,1.0,1.0,1.0,1.0,10.00
2024-10-11 20:42:21.080,0.33881363,-0.013306216,0.2532162,-0.13573387,0.39461696,-0.17024274,0.14543334,0.3416237,0.3601216,-0.29238456,0.087924466,0.4571484,0.62511796,-0.22990231,0.271502,0.5857917,0.1494227,-0.31129232,-0.26204494,-0.14266826,801.4286,793.36993,785.7143,797.8022,796.1905,0.26019287109375,0.14678955078125,0.95819091796875,-0.456085205078125,-0.620574951171875,-4.0972900390625,1,1.0,1.0,1.0,1.0,10.00
2024-10-11 20:42:21.081,0.33881363,-0.013306216,0.2532162,-0.13573387,0.39461696,-0.17024274,0.14543334,0.3416237,0.3601216,-0.29238456,0.087924466,0.4571484,0.62511796,-0.22990231,0.271502,0.5857917,0.1494227,-0.31129232,-0.26204494,-0.14266826,797.3993,793.36993,795.38464,805.05493,892.8938,0.26019287109375,0.14678955078125,0.95819091796875,-0.456085205078125,-0.620574951171875,-4.0972900390625,1,1.0,1.0,1.0,1.0,10.00
2024-10-11 20:42:21.081,0.33881363,-0.013306216,0.2532162,-0.13573387,0.39461696,-0.17024274,0.14543334,0.3416237,0.3601216,-0.29238456,0.087924466,0.4571484,0.62511796,-0.22990231,0.271502,0.5857917,0.1494227,-0.31129232,-0.26204494,-0.14266826,797.3993,795.78754,805.4579,798.60803,744.21246,0.26019287109375,0.14678955078125,0.95819091796875,-0.456085205078125,-0.620574951171875,-4.0972900390625,1,1.0,1.0,1.0,1.0,10.00
2024-10-11 20:42:21.082,0.4067404,0.025682295,0.25003588,-0.13573387,0.43930736,-0.15095402,0.15429991,0.3416237,0.5018649,-0.24211884,0.10637071,0.4571484,0.6618703,-0.20366752,0.26966912,0.5857917,0.12425682,-0.33525342,-0.24956639,-0.14266826,796.99634,794.17584,803.44324,792.96704,765.9707,0.26019287109375,0.14678955078125,0.95819091796875,-0.456085205078125,-0.620574951171875,-4.0972900390625,1,1.0,1.0,1.0,1.0,10.00
2024-10-11 20:42:21.086,0.4067404,0.025682295,0.25003588,-0.13573387,0.43930736,-0.15095402,0.15429991,0.3416237,0.5018649,-0.24211884,0.10637071,0.4571484,0.6618703,-0.20366752,0.26966912,0.5857917,0.12425682,-0.33525342,-0.24956639,-0.14266826,794.9817,786.52014,802.6374,794.57874,969.0476,0.26019287109375,0.14678955078125,0.95819091796875,-0.456085205078125,-0.620574951171875,-4.0972900390625,1,1.0,1.0,1.0,1.0,10.00
2024-10-11 20:42:21.087,0.4067404,0.025682295,0.25003588,-0.13573387,0.43930736,-0.15095402,0.15429991,0.3416237,0.5018649,-0.24211884,0.10637071,0.4571484,0.6618703,-0.20366752,0.26966912,0.5857917,0.12425682,-0.33525342,-0.24956639,-0.14266826,803.44324,786.52014,803.8461,801.8315,837.28937,0.26019287109375,0.14678955078125,0.95819091796875,-0.456085205078125,-0.620574951171875,-4.0972900390625,1,1.0,1.0,1.0,1.0,10.00
2024-10-11 20:42:21.088,0.4067404,0.025682295,0.25003588,-0.13573387,0.43930736,-0.15095402,0.15429991,0.3416237,0.5018649,-0.24211884,0.10637071,0.4571484,0.6618703,-0.20366752,0.26966912,0.5857917,0.12425682,-0.33525342,-0.24956639,-0.14266826,801.4286,792.1612,800.2198,803.0403,699.0842,0.26019287109375,0.14678955078125,0.95819091796875,-0.456085205078125,-0.620574951171875,-4.0972900390625,1,1.0,1.0,1.0,1.0,10.00
2024-10-11 20:42:21.088,0.4067404,0.025682295,0.25003588,-0.13573387,0.43930736,-0.15095402,0.15429991,0.3416237,0.5018649,-0.24211884,0.10637071,0.4571484,0.6618703,-0.20366752,0.26966912,0.5857917,0.12425682,-0.33525342,-0.24956639,-0.14266826,800.6227,791.3553,801.8315,799.011,832.0513,0.26019287109375,0.14678955078125,0.95819091796875,-0.456085205078125,-0.620574951171875,-4.0972900390625,1,1.0,1.0,1.0,1.0,10.00
2024-10-11 20:42:21.089,0.4067404,0.025682295,0.25003588,-0.13573387,0.43930736,-0.15095402,0.15429991,0.3416237,0.5018649,-0.24211884,0.10637071,0.4571484,0.6618703,-0.20366752,0.26966912,0.5857917,0.12425682,-0.33525342,-0.24956639,-0.14266826,808.68134,794.57874,807.8755,801.8315,1013.36993,0.26019287109375,0.14678955078125,0.95819091796875,-0.456085205078125,-0.620574951171875,-4.0972900390625,1,1.0,1.0,1.0,1.0,10.00
2024-10-11 20:42:21.089,0.4067404,0.025682295,0.25003588,-0.13573387,0.43930736,-0.15095402,0.15429991,0.3416237,0.5018649,-0.24211884,0.10637071,0.4571484,0.6618703,-0.20366752,0.26966912,0.5857917,0.12425682,-0.33525342,-0.24956639,-0.14266826,809.89014,794.9817,805.8608,805.05493,877.5824,0.26019287109375,0.14678955078125,0.95819091796875,-0.456085205078125,-0.620574951171875,-4.0972900390625,1,1.0,1.0,1.0,1.0,10.00
2024-10-11 20:42:21.090,0.4067404,0.025682295,0.25003588,-0.13573387,0.43930736,-0.15095402,0.15429991,0.3416237,0.5018649,-0.24211884,0.10637071,0.4571484,0.6618703,-0.20366752,0.26966912,0.5857917,0.12425682,-0.33525342,-0.24956639,-0.14266826,804.2491,798.20514,801.4286,800.6227,706.337,0.26165771484375,0.14385986328125,0.9576416015625,-0.321502685546875,0.28411865234375,-3.93280029296875,1,1.0,1.0,1.0,1.0,10.00
2024-10-11 20:42:21.091,0.4067404,0.025682295,0.25003588,-0.13573387,0.43930736,-0.15095402,0.15429991,0.3416237,0.5018649,-0.24211884,0.10637071,0.4571484,0.6618703,-0.20366752,0.26966912,0.5857917,0.12425682,-0.33525342,-0.24956639,-0.14266826,797.8022,798.20514,794.9817,800.6227,723.2601,0.26165771484375,0.14385986328125,0.9576416015625,-0.321502685546875,0.28411865234375,-3.93280029296875,1,1.0,1.0,1.0,1.0,10.00
2024-10-11 20:42:21.091,0.4067404,0.025682295,0.25003588,-0.13573387,0.43930736,-0.15095402,0.15429991,0.3416237,0.5018649,-0.24211884,0.10637071,0.4571484,0.6618703,-0.20366752,0.26966912,0.5857917,0.12425682,-0.33525342,-0.24956639,-0.14266826,798.20514,794.57874,794.57874,807.47253,836.4835,0.26165771484375,0.14385986328125,0.9576416015625,-0.321502685546875,0.28411865234375,-3.93280029296875,1,1.0,1.0,1.0,1.0,10.00
2024-10-11 20:42:21.091,0.4067404,0.025682295,0.25003588,-0.13573387,0.43930736,-0.15095402,0.15429991,0.3416237,0.5018649,-0.24211884,0.10637071,0.4571484,0.6618703,-0.20366752,0.26966912,0.5857917,0.12425682,-0.33525342,-0.24956639,-0.14266826,805.05493,799.41394,806.26373,809.89014,817.5458,0.26165771484375,0.14385986328125,0.9576416015625,-0.321502685546875,0.28411865234375,-3.93280029296875,1,1.0,1.0,1.0,1.0,10.00
2024-10-11 20:42:21.092,0.4067404,0.025682295,0.25003588,-0.13573387,0.43930736,-0.15095402,0.15429991,0.3416237,0.5018649,-0.24211884,0.10637071,0.4571484,0.6618703,-0.20366752,0.26966912,0.5857917,0.12425682,-0.33525342,-0.24956639,-0.14266826,805.4579,798.60803,810.293,804.65204,685.78754,0.26165771484375,0.14385986328125,0.9576416015625,-0.321502685546875,0.28411865234375,-3.93280029296875,1,1.0,1.0,1.0,1.0,10.00
2024-10-11 20:42:21.093,0.4067404,0.025682295,0.25003588,-0.13573387,0.43930736,-0.15095402,0.15429991,0.3416237,0.5018649,-0.24211884,0.10637071,0.4571484,0.6618703,-0.20366752,0.26966912,0.5857917,0.12425682,-0.33525342,-0.24956639,-0.14266826,803.44324,797.8022,802.6374,807.0696,750.65936,0.26165771484375,0.14385986328125,0.9576416015625,-0.321502685546875,0.28411865234375,-3.93280029296875,1,1.0,1.0,1.0,1.0,10.00
2024-10-11 20:42:21.093,0.4067404,0.025682295,0.25003588,-0.13573387,0.43930736,-0.15095402,0.15429991,0.3416237,0.5018649,-0.24211884,0.10637071,0.4571484,0.6618703,-0.20366752,0.26966912,0.5857917,0.12425682,-0.33525342,-0.24956639,-0.14266826,801.02563,796.1905,799.41394,805.8608,964.61536,0.26165771484375,0.14385986328125,0.9576416015625,-0.321502685546875,0.28411865234375,-3.93280029296875,1,1.0,1.0,1.0,1.0,10.00
2024-10-11 20:42:21.093,0.4067404,0.025682295,0.25003588,-0.13573387,0.43930736,-0.15095402,0.15429991,0.3416237,0.5018649,-0.24211884,0.10637071,0.4571484,0.6618703,-0.20366752,0.26966912,0.5857917,0.12425682,-0.33525342,-0.24956639,-0.14266826,802.6374,792.96704,803.0403,799.011,727.6923,0.26165771484375,0.14385986328125,0.9576416015625,-0.321502685546875,0.28411865234375,-3.93280029296875,1,1.0,1.0,1.0,1.0,10.00
2024-10-11 20:42:21.094,0.4067404,0.025682295,0.25003588,-0.13573387,0.43930736,-0.15095402,0.15429991,0.3416237,0.5018649,-0.24211884,0.10637071,0.4571484,0.6618703,-0.20366752,0.26966912,0.5857917,0.12425682,-0.33525342,-0.24956639,-0.14266826,808.68134,799.011,806.26373,799.41394,602.381,0.26165771484375,0.14385986328125,0.9576416015625,-0.321502685546875,0.28411865234375,-3.93280029296875,1,1.0,1.0,1.0,1.0,10.00
2024-10-11 20:42:21.094,0.4067404,0.025682295,0.25003588,-0.13573387,0.43930736,-0.15095402,0.15429991,0.3416237,0.5018649,-0.24211884,0.10637071,0.4571484,0.6618703,-0.20366752,0.26966912,0.5857917,0.12425682,-0.33525342,-0.24956639,-0.14266826,807.8755,801.02563,799.011,805.05493,723.2601,0.26165771484375,0.14385986328125,0.9576416015625,-0.321502685546875,0.28411865234375,-3.93280029296875,1,1.0,1.0,1.0,1.0,10.00
2024-10-11 20:42:21.095,0.4067404,0.025682295,0.25003588,-0.13573387,0.43930736,-0.15095402,0.15429991,0.3416237,0.5018649,-0.24211884,0.10637071,0.4571484,0.6618703,-0.20366752,0.26966912,0.5857917,0.12425682,-0.33525342,-0.24956639,-0.14266826,799.81683,801.02563,799.81683,807.47253,763.95605,0.26165771484375,0.14385986328125,0.9576416015625,-0.321502685546875,0.28411865234375,-3.93280029296875,1,1.0,1.0,1.0,1.0,10.00
2024-10-11 20:42:21.095,0.4067404,0.025682295,0.25003588,-0.13573387,0.43930736,-0.15095402,0.15429991,0.3416237,0.5018649,-0.24211884,0.10637071,0.4571484,0.6618703,-0.20366752,0.26966912,0.5857917,0.12425682,-0.33525342,-0.24956639,-0.14266826,794.17584,801.8315,809.89014,802.23444,637.8388,0.26165771484375,0.14385986328125,0.9576416015625,-0.321502685546875,0.28411865234375,-3.93280029296875,1,1.0,1.0,1.0,1.0,10.00
2024-10-11 20:42:21.153,0.4067404,0.025682295,0.25003588,-0.13573387,0.43930736,-0.15095402,0.15429991,0.3416237,0.5018649,-0.24211884,0.10637071,0.4571484,0.6618703,-0.20366752,0.26966912,0.5857917,0.12425682,-0.33525342,-0.24956639,-0.14266826,793.7729,800.6227,812.3077,803.8461,599.5604,0.27069091796875,0.15142822265625,0.95281982421875,0.55328369140625,1.21124267578125,-3.491668701171875,1,1.0,1.0,1.0,1.0,10.00
2024-10-11 20:42:21.154,0.4067404,0.025682295,0.25003588,-0.13573387,0.43930736,-0.15095402,0.15429991,0.3416237,0.5018649,-0.24211884,0.10637071,0.4571484,0.6618703,-0.20366752,0.26966912,0.5857917,0.12425682,-0.33525342,-0.24956639,-0.14266826,793.36993,797.3993,807.47253,807.47253,726.08057,0.27069091796875,0.15142822265625,0.95281982421875,0.55328369140625,1.21124267578125,-3.491668701171875,1,1.0,1.0,1.0,1.0,10.00
2024-10-11 20:42:21.155,0.4067404,0.025682295,0.25003588,-0.13573387,0.43930736,-0.15095402,0.15429991,0.3416237,0.5018649,-0.24211884,0.10637071,0.4571484,0.6618703,-0.20366752,0.26966912,0.5857917,0.12425682,-0.33525342,-0.24956639,-0.14266826,804.2491,794.9817,808.2784,819.15753,779.67035,0.27069091796875,0.15142822265625,0.95281982421875,0.55328369140625,1.21124267578125,-3.491668701171875,1,1.0,1.0,1.0,1.0,10.00
2024-10-11 20:42:21.155,0.4067404,0.025682295,0.25003588,-0.13573387,0.43930736,-0.15095402,0.15429991,0.3416237,0.5018649,-0.24211884,0.10637071,0.4571484,0.6618703,-0.20366752,0.26966912,0.5857917,0.12425682,-0.33525342,-0.24956639,-0.14266826,820.7692,796.99634,816.7399,831.6484,644.68866,0.27069091796875,0.15142822265625,0.95281982421875,0.55328369140625,1.21124267578125,-3.491668701171875,1,1.0,1.0,1.0,1.0,10.00
2024-10-11 20:42:21.156,0.4067404,0.025682295,0.25003588,-0.13573387,0.43930736,-0.15095402,0.15429991,0.3416237,0.5018649,-0.24211884,0.10637071,0.4571484,0.6618703,-0.20366752,0.26966912,0.5857917,0.12425682,-0.33525342,-0.24956639,-0.14266826,793.36993,805.8608,815.12823,799.011,662.4176,0.27069091796875,0.15142822265625,0.95281982421875,0.55328369140625,1.21124267578125,-3.491668701171875,1,1.0,1.0,1.0,1.0,10.00
2024-10-11 20:42:21.156,0.4067404,0.025682295,0.25003588,-0.13573387,0.43930736,-0.15095402,0.15429991,0.3416237,0.5018649,-0.24211884,0.10637071,0.4571484,0.6618703,-0.20366752,0.26966912,0.5857917,0.12425682,-0.33525342,-0.24956639,-0.14266826,782.0879,806.26373,801.8315,782.8938,977.9121,0.27069091796875,0.15142822265625,0.95281982421875,0.55328369140625,1.21124267578125,-3.491668701171875,1,1.0,1.0,1.0,1.0,10.00
2024-10-11 20:42:21.157,0.4067404,0.025682295,0.25003588,-0.13573387,0.43930736,-0.15095402,0.15429991,0.3416237,0.5018649,-0.24211884,0.10637071,0.4571484,0.6618703,-0.20366752,0.26966912,0.5857917,0.12425682,-0.33525342,-0.24956639,-0.14266826,799.41394,802.23444,801.8315,792.1612,953.3333,0.27069091796875,0.15142822265625,0.95281982421875,0.55328369140625,1.21124267578125,-3.491668701171875,1,1.0,1.0,1.0,1.0,10.00
2024-10-11 20:42:21.158,0.57597786,0.11454833,0.28120717,-0.13573387,0.5358214,-0.12458667,0.1873783,0.3416237,0.7138532,-0.05580837,0.16300982,0.4571484,0.68576175,-0.17078018,0.27001506,0.5857917,0.10549599,-0.35183603,-0.24377057,-0.14266826,774.83514,801.4286,797.8022,768.3883,736.55676,0.27069091796875,0.15142822265625,0.95281982421875,0.55328369140625,1.21124267578125,-3.491668701171875,1,1.0,1.0,1.0,1.0,10.00
2024-10-11 20:42:21.162,0.57597786,0.11454833,0.28120717,-0.13573387,0.5358214,-0.12458667,0.1873783,0.3416237,0.7138532,-0.05580837,0.16300982,0.4571484,0.68576175,-0.17078018,0.27001506,0.5857917,0.10549599,-0.35183603,-0.24377057,-0.14266826,760.32965,801.02563,786.9231,757.50916,572.96704,0.27069091796875,0.15142822265625,0.95281982421875,0.55328369140625,1.21124267578125,-3.491668701171875,1,1.0,1.0,1.0,1.0,10.00
2024-10-11 20:42:21.162,0.57597786,0.11454833,0.28120717,-0.13573387,0.5358214,-0.12458667,0.1873783,0.3416237,0.7138532,-0.05580837,0.16300982,0.4571484,0.68576175,-0.17078018,0.27001506,0.5857917,0.10549599,-0.35183603,-0.24377057,-0.14266826,766.3736,798.20514,788.1319,767.5824,920.696,0.27069091796875,0.15142822265625,0.95281982421875,0.55328369140625,1.21124267578125,-3.491668701171875,1,1.0,1.0,1.0,1.0,10.00
2024-10-11 20:42:21.163,0.57597786,0.11454833,0.28120717,-0.13573387,0.5358214,-0.12458667,0.1873783,0.3416237,0.7138532,-0.05580837,0.16300982,0.4571484,0.68576175,-0.17078018,0.27001506,0.5857917,0.10549599,-0.35183603,-0.24377057,-0.14266826,748.24176,797.8022,786.1172,765.16486,1225.3114,0.27069091796875,0.15142822265625,0.95281982421875,0.55328369140625,1.21124267578125,-3.491668701171875,1,1.0,1.0,1.0,1.0,10.00
2024-10-11 20:42:21.163,0.57597786,0.11454833,0.28120717,-0.13573387,0.5358214,-0.12458667,0.1873783,0.3416237,0.7138532,-0.05580837,0.16300982,0.4571484,0.68576175,-0.17078018,0.27001506,0.5857917,0.10549599,-0.35183603,-0.24377057,-0.14266826,748.24176,800.6227,792.1612,763.5531,805.4579,0.27069091796875,0.15142822265625,0.95281982421875,0.55328369140625,1.21124267578125,-3.491668701171875,1,1.0,1.0,1.0,1.0,10.00
2024-10-11 20:42:21.222,0.57597786,0.11454833,0.28120717,-0.13573387,0.5358214,-0.12458667,0.1873783,0.3416237,0.7138532,-0.05580837,0.16300982,0.4571484,0.68576175,-0.17078018,0.27001506,0.5857917,0.10549599,-0.35183603,-0.24377057,-0.14266826,747.4359,797.8022,792.1612,749.45056,649.5238,0.27069091796875,0.15142822265625,0.95281982421875,0.55328369140625,1.21124267578125,-3.491668701171875,1,1.0,1.0,1.0,1.0,10.00
2024-10-11 20:42:21.223,0.57597786,0.11454833,0.28120717,-0.13573387,0.5358214,-0.12458667,0.1873783,0.3416237,0.7138532,-0.05580837,0.16300982,0.4571484,0.68576175,-0.17078018,0.27001506,0.5857917,0.10549599,-0.35183603,-0.24377057,-0.14266826,744.21246,795.38464,778.46155,748.6447,861.8681,0.27069091796875,0.15142822265625,0.95281982421875,0.55328369140625,1.21124267578125,-3.491668701171875,1,1.0,1.0,1.0,1.0,10.00
2024-10-11 20:42:21.224,0.57597786,0.11454833,0.28120717,-0.13573387,0.5358214,-0.12458667,0.1873783,0.3416237,0.7138532,-0.05580837,0.16300982,0.4571484,0.68576175,-0.17078018,0.27001506,0.5857917,0.10549599,-0.35183603,-0.24377057,-0.14266826,755.89746,794.9817,774.0293,758.315,880.40295,0.27069091796875,0.15142822265625,0.95281982421875,0.55328369140625,1.21124267578125,-3.491668701171875,1,1.0,1.0,1.0,1.0,10.00
2024-10-11 20:42:21.224,0.57597786,0.11454833,0.28120717,-0.13573387,0.5358214,-0.12458667,0.1873783,0.3416237,0.7138532,-0.05580837,0.16300982,0.4571484,0.68576175,-0.17078018,0.27001506,0.5857917,0.10549599,-0.35183603,-0.24377057,-0.14266826,761.53845,796.5934,773.22345,761.9414,806.6667,0.27069091796875,0.15142822265625,0.95281982421875,0.55328369140625,1.21124267578125,-3.491668701171875,1,1.0,1.0,1.0,1.0,10.00
2024-10-11 20:42:21.225,0.57597786,0.11454833,0.28120717,-0.13573387,0.5358214,-0.12458667,0.1873783,0.3416237,0.7138532,-0.05580837,0.16300982,0.4571484,0.68576175,-0.17078018,0.27001506,0.5857917,0.10549599,-0.35183603,-0.24377057,-0.14266826,770.40295,798.60803,776.8498,771.6117,722.4542,0.27069091796875,0.15142822265625,0.95281982421875,0.55328369140625,1.21124267578125,-3.491668701171875,1,1.0,1.0,1.0,1.0,10.00
2024-10-11 20:42:21.225,0.57597786,0.11454833,0.28120717,-0.13573387,0.5358214,-0.12458667,0.1873783,0.3416237,0.7138532,-0.05580837,0.16300982,0.4571484,0.68576175,-0.17078018,0.27001506,0.5857917,0.10549599,-0.35183603,-0.24377057,-0.14266826,774.0293,793.36993,778.86444,776.4469,969.0476,0.27069091796875,0.15142822265625,0.95281982421875,0.55328369140625,1.21124267578125,-3.491668701171875,1,1.0,1.0,1.0,1.0,10.00
2024-10-11 20:42:21.226,0.57597786,0.11454833,0.28120717,-0.13573387,0.5358214,-0.12458667,0.1873783,0.3416237,0.7138532,-0.05580837,0.16300982,0.4571484,0.68576175,-0.17078018,0.27001506,0.5857917,0.10549599,-0.35183603,-0.24377057,-0.14266826,767.98535,791.3553,779.2674,780.07324,952.9304,0.27069091796875,0.15142822265625,0.95281982421875,0.55328369140625,1.21124267578125,-3.491668701171875,1,1.0,1.0,1.0,1.0,10.00
2024-10-11 20:42:21.226,0.57597786,0.11454833,0.28120717,-0.13573387,0.5358214,-0.12458667,0.1873783,0.3416237,0.7138532,-0.05580837,0.16300982,0.4571484,0.68576175,-0.17078018,0.27001506,0.5857917,0.10549599,-0.35183603,-0.24377057,-0.14266826,770.80585,794.57874,789.34064,780.4762,657.1795,0.27069091796875,0.15142822265625,0.95281982421875,0.55328369140625,1.21124267578125,-3.491668701171875,1,1.0,1.0,1.0,1.0,10.00
2024-10-11 20:42:21.226,0.57597786,0.11454833,0.28120717,-0.13573387,0.5358214,-0.12458667,0.1873783,0.3416237,0.7138532,-0.05580837,0.16300982,0.4571484,0.68576175,-0.17078018,0.27001506,0.5857917,0.10549599,-0.35183603,-0.24377057,-0.14266826,777.6557,797.8022,796.1905,778.0586,599.5604,0.27069091796875,0.15142822265625,0.95281982421875,0.55328369140625,1.21124267578125,-3.491668701171875,1,1.0,1.0,1.0,1.0,10.00
2024-10-11 20:42:21.227,0.57597786,0.11454833,0.28120717,-0.13573387,0.5358214,-0.12458667,0.1873783,0.3416237,0.7138532,-0.05580837,0.16300982,0.4571484,0.68576175,-0.17078018,0.27001506,0.5857917,0.10549599,-0.35183603,-0.24377057,-0.14266826,778.0586,794.17584,798.20514,784.90845,772.4176,0.27069091796875,0.15142822265625,0.95281982421875,0.55328369140625,1.21124267578125,-3.491668701171875,1,1.0,1.0,1.0,1.0,10.00
2024-10-11 20:42:21.227,0.57597786,0.11454833,0.28120717,-0.13573387,0.5358214,-0.12458667,0.1873783,0.3416237,0.7138532,-0.05580837,0.16300982,0.4571484,0.68576175,-0.17078018,0.27001506,0.5857917,0.10549599,-0.35183603,-0.24377057,-0.14266826,771.2088,792.96704,797.3993,781.28204,738.1685,0.27069091796875,0.15142822265625,0.95281982421875,0.55328369140625,1.21124267578125,-3.491668701171875,1,1.0,1.0,1.0,1.0,10.00
2024-10-11 20:42:21.228,0.57597786,0.11454833,0.28120717,-0.13573387,0.5358214,-0.12458667,0.1873783,0.3416237,0.7138532,-0.05580837,0.16300982,0.4571484,0.68576175,-0.17078018,0.27001506,0.5857917,0.10549599,-0.35183603,-0.24377057,-0.14266826,771.2088,796.99634,788.93774,779.2674,620.5128,0.27069091796875,0.15142822265625,0.95281982421875,0.55328369140625,1.21124267578125,-3.491668701171875,1,1.0,1.0,1.0,1.0,10.00
2024-10-11 20:42:21.287,0.57597786,0.11454833,0.28120717,-0.13573387,0.5358214,-0.12458667,0.1873783,0.3416237,0.7138532,-0.05580837,0.16300982,0.4571484,0.68576175,-0.17078018,0.27001506,0.5857917,0.10549599,-0.35183603,-0.24377057,-0.14266826,780.07324,803.0403,784.10254,784.90845,710.7692,0.26580810546875,0.16131591796875,0.9639892578125,1.016845703125,2.6318359375,-2.4822998046875,1,1.0,1.0,1.0,1.0,10.00
2024-10-11 20:42:21.288,0.57597786,0.11454833,0.28120717,-0.13573387,0.5358214,-0.12458667,0.1873783,0.3416237,0.7138532,-0.05580837,0.16300982,0.4571484,0.68576175,-0.17078018,0.27001506,0.5857917,0.10549599,-0.35183603,-0.24377057,-0.14266826,788.5348,798.20514,792.96704,788.5348,756.30035,0.26580810546875,0.16131591796875,0.9639892578125,1.016845703125,2.6318359375,-2.4822998046875,1,1.0,1.0,1.0,1.0,10.00
2024-10-11 20:42:21.288,0.57597786,0.11454833,0.28120717,-0.13573387,0.5358214,-0.12458667,0.1873783,0.3416237,0.7138532,-0.05580837,0.16300982,0.4571484,0.68576175,-0.17078018,0.27001506,0.5857917,0.10549599,-0.35183603,-0.24377057,-0.14266826,794.57874,793.36993,797.8022,792.96704,713.1868,0.26580810546875,0.16131591796875,0.9639892578125,1.016845703125,2.6318359375,-2.4822998046875,1,1.0,1.0,1.0,1.0,10.00
2024-10-11 20:42:21.289,0.57597786,0.11454833,0.28120717,-0.13573387,0.5358214,-0.12458667,0.1873783,0.3416237,0.7138532,-0.05580837,0.16300982,0.4571484,0.68576175,-0.17078018,0.27001506,0.5857917,0.10549599,-0.35183603,-0.24377057,-0.14266826,795.38464,797.3993,787.72894,792.1612,696.26373,0.26580810546875,0.16131591796875,0.9639892578125,1.016845703125,2.6318359375,-2.4822998046875,1,1.0,1.0,1.0,1.0,10.00
2024-10-11 20:42:21.290,0.57597786,0.11454833,0.28120717,-0.13573387,0.5358214,-0.12458667,0.1873783,0.3416237,0.7138532,-0.05580837,0.16300982,0.4571484,0.68576175,-0.17078018,0.27001506,0.5857917,0.10549599,-0.35183603,-0.24377057,-0.14266826,790.54944,794.9817,786.9231,793.36993,833.2601,0.26580810546875,0.16131591796875,0.9639892578125,1.016845703125,2.6318359375,-2.4822998046875,1,1.0,1.0,1.0,1.0,10.00
2024-10-11 20:42:21.290,0.57597786,0.11454833,0.28120717,-0.13573387,0.5358214,-0.12458667,0.1873783,0.3416237,0.7138532,-0.05580837,0.16300982,0.4571484,0.68576175,-0.17078018,0.27001506,0.5857917,0.10549599,-0.35183603,-0.24377057,-0.14266826,781.685,794.17584,792.96704,790.54944,928.7546,0.26580810546875,0.16131591796875,0.9639892578125,1.016845703125,2.6318359375,-2.4822998046875,1,1.0,1.0,1.0,1.0,10.00
2024-10-11 20:42:21.290,0.57597786,0.11454833,0.28120717,-0.13573387,0.5358214,-0.12458667,0.1873783,0.3416237,0.7138532,-0.05580837,0.16300982,0.4571484,0.68576175,-0.17078018,0.27001506,0.5857917,0.10549599,-0.35183603,-0.24377057,-0.14266826,780.87915,792.1612,790.9524,786.9231,733.73627,0.26580810546875,0.16131591796875,0.9639892578125,1.016845703125,2.6318359375,-2.4822998046875,1,1.0,1.0,1.0,1.0,10.00
2024-10-11 20:42:21.291,0.57597786,0.11454833,0.28120717,-0.13573387,0.5358214,-0.12458667,0.1873783,0.3416237,0.7138532,-0.05580837,0.16300982,0.4571484,0.68576175,-0.17078018,0.27001506,0.5857917,0.10549599,-0.35183603,-0.24377057,-0.14266826,777.25275,790.14655,793.7729,791.3553,763.5531,0.26580810546875,0.16131591796875,0.9639892578125,1.016845703125,2.6318359375,-2.4822998046875,1,1.0,1.0,1.0,1.0,10.00
2024-10-11 20:42:21.291,0.57597786,0.11454833,0.28120717,-0.13573387,0.5358214,-0.12458667,0.1873783,0.3416237,0.7138532,-0.05580837,0.16300982,0.4571484,0.68576175,-0.17078018,0.27001506,0.5857917,0.10549599,-0.35183603,-0.24377057,-0.14266826,782.49084,793.7729,791.75824,793.36993,822.381,0.26580810546875,0.16131591796875,0.9639892578125,1.016845703125,2.6318359375,-2.4822998046875,1,1.0,1.0,1.0,1.0,10.00
2024-10-11 20:42:21.292,0.7617598,0.21396959,0.34671772,-0.13573387,0.64107484,-0.098532274,0.2341657,0.3416237,0.8518234,0.057331916,0.28272635,0.4571484,0.69872177,-0.13088554,0.27650365,0.5857917,0.09602673,-0.36418584,-0.23882388,-0.14266826,790.9524,796.99634,787.326,796.1905,680.54944,0.26580810546875,0.16131591796875,0.9639892578125,1.016845703125,2.6318359375,-2.4822998046875,1,1.0,1.0,1.0,1.0,10.00
2024-10-11 20:42:21.296,0.7617598,0.21396959,0.34671772,-0.13573387,0.64107484,-0.098532274,0.2341657,0.3416237,0.8518234,0.057331916,0.28272635,0.4571484,0.69872177,-0.13088554,0.27650365,0.5857917,0.09602673,-0.36418584,-0.23882388,-0.14266826,792.96704,797.8022,796.5934,798.20514,672.49084,0.26580810546875,0.16131591796875,0.9639892578125,1.016845703125,2.6318359375,-2.4822998046875,1,1.0,1.0,1.0,1.0,10.00
2024-10-11 20:42:21.297,0.7617598,0.21396959,0.34671772,-0.13573387,0.64107484,-0.098532274,0.2341657,0.3416237,0.8518234,0.057331916,0.28272635,0.4571484,0.69872177,-0.13088554,0.27650365,0.5857917,0.09602673,-0.36418584,-0.23882388,-0.14266826,795.38464,797.8022,803.0403,800.2198,853.00366,0.26580810546875,0.16131591796875,0.9639892578125,1.016845703125,2.6318359375,-2.4822998046875,1,1.0,1.0,1.0,1.0,10.00
2024-10-11 20:42:21.298,0.7617598,0.21396959,0.34671772,-0.13573387,0.64107484,-0.098532274,0.2341657,0.3416237,0.8518234,0.057331916,0.28272635,0.4571484,0.69872177,-0.13088554,0.27650365,0.5857917,0.09602673,-0.36418584,-0.23882388,-0.14266826,795.78754,799.011,801.4286,805.05493,1046.4103,0.2633056640625,0.17071533203125,0.96282958984375,1.016845703125,4.598236083984375,-1.79443359375,1,1.0,1.0,1.0,1.0,10.00
2024-10-11 20:42:21.298,0.7617598,0.21396959,0.34671772,-0.13573387,0.64107484,-0.098532274,0.2341657,0.3416237,0.8518234,0.057331916,0.28272635,0.4571484,0.69872177,-0.13088554,0.27650365,0.5857917,0.09602673,-0.36418584,-0.23882388,-0.14266826,799.41394,796.5934,807.8755,801.4286,846.55676,0.2633056640625,0.17071533203125,0.96282958984375,1.016845703125,4.598236083984375,-1.79443359375,1,1.0,1.0,1.0,1.0,10.00
2024-10-11 20:42:21.299,0.7617598,0.21396959,0.34671772,-0.13573387,0.64107484,-0.098532274,0.2341657,0.3416237,0.8518234,0.057331916,0.28272635,0.4571484,0.69872177,-0.13088554,0.27650365,0.5857917,0.09602673,-0.36418584,-0.23882388,-0.14266826,790.54944,791.75824,801.4286,796.1905,676.9231,0.2633056640625,0.17071533203125,0.96282958984375,1.016845703125,4.598236083984375,-1.79443359375,1,1.0,1.0,1.0,1.0,10.00
2024-10-11 20:42:21.299,0.7617598,0.21396959,0.34671772,-0.13573387,0.64107484,-0.098532274,0.2341657,0.3416237,0.8518234,0.057331916,0.28272635,0.4571484,0.69872177,-0.13088554,0.27650365,0.5857917,0.09602673,-0.36418584,-0.23882388,-0.14266826,788.93774,797.8022,795.78754,807.8755,880.0,0.2633056640625,0.17071533203125,0.96282958984375,1.016845703125,4.598236083984375,-1.79443359375,1,1.0,1.0,1.0,1.0,10.00
2024-10-11 20:42:21.299,0.7617598,0.21396959,0.34671772,-0.13573387,0.64107484,-0.098532274,0.2341657,0.3416237,0.8518234,0.057331916,0.28272635,0.4571484,0.69872177,-0.13088554,0.27650365,0.5857917,0.09602673,-0.36418584,-0.23882388,-0.14266826,796.99634,800.2198,794.57874,817.9487,1064.1392,0.2633056640625,0.17071533203125,0.96282958984375,1.016845703125,4.598236083984375,-1.79443359375,1,1.0,1.0,1.0,1.0,10.00
2024-10-11 20:42:21.300,0.7617598,0.21396959,0.34671772,-0.13573387,0.64107484,-0.098532274,0.2341657,0.3416237,0.8518234,0.057331916,0.28272635,0.4571484,0.69872177,-0.13088554,0.27650365,0.5857917,0.09602673,-0.36418584,-0.23882388,-0.14266826,796.5934,799.41394,794.9817,807.47253,842.9304,0.2633056640625,0.17071533203125,0.96282958984375,1.016845703125,4.598236083984375,-1.79443359375,1,1.0,1.0,1.0,1.0,10.00
2024-10-11 20:42:21.301,0.7617598,0.21396959,0.34671772,-0.13573387,0.64107484,-0.098532274,0.2341657,0.3416237,0.8518234,0.057331916,0.28272635,0.4571484,0.69872177,-0.13088554,0.27650365,0.5857917,0.09602673,-0.36418584,-0.23882388,-0.14266826,790.54944,798.20514,803.44324,801.02563,642.27106,0.2633056640625,0.17071533203125,0.96282958984375,1.016845703125,4.598236083984375,-1.79443359375,1,1.0,1.0,1.0,1.0,10.00
2024-10-11 20:42:21.301,0.7617598,0.21396959,0.34671772,-0.13573387,0.64107484,-0.098532274,0.2341657,0.3416237,0.8518234,0.057331916,0.28272635,0.4571484,0.69872177,-0.13088554,0.27650365,0.5857917,0.09602673,-0.36418584,-0.23882388,-0.14266826,800.6227,796.99634,800.2198,809.0842,703.1135,0.2633056640625,0.17071533203125,0.96282958984375,1.016845703125,4.598236083984375,-1.79443359375,1,1.0,1.0,1.0,1.0,10.00
2024-10-11 20:42:21.302,0.7617598,0.21396959,0.34671772,-0.13573387,0.64107484,-0.098532274,0.2341657,0.3416237,0.8518234,0.057331916,0.28272635,0.4571484,0.69872177,-0.13088554,0.27650365,0.5857917,0.09602673,-0.36418584,-0.23882388,-0.14266826,815.12823,797.3993,790.9524,809.0842,828.4249,0.2633056640625,0.17071533203125,0.96282958984375,1.016845703125,4.598236083984375,-1.79443359375,1,1.0,1.0,1.0,1.0,10.00
2024-10-11 20:42:21.302,0.7617598,0.21396959,0.34671772,-0.13573387,0.64107484,-0.098532274,0.2341657,0.3416237,0.8518234,0.057331916,0.28272635,0.4571484,0.69872177,-0.13088554,0.27650365,0.5857917,0.09602673,-0.36418584,-0.23882388,-0.14266826,806.26373,801.4286,792.5641,796.5934,685.78754,0.2633056640625,0.17071533203125,0.96282958984375,1.016845703125,4.598236083984375,-1.79443359375,1,1.0,1.0,1.0,1.0,10.00
2024-10-11 20:42:21.303,0.7617598,0.21396959,0.34671772,-0.13573387,0.64107484,-0.098532274,0.2341657,0.3416237,0.8518234,0.057331916,0.28272635,0.4571484,0.69872177,-0.13088554,0.27650365,0.5857917,0.09602673,-0.36418584,-0.23882388,-0.14266826,795.38464,803.0403,800.2198,794.9817,581.4286,0.2633056640625,0.17071533203125,0.96282958984375,1.016845703125,4.598236083984375,-1.79443359375,1,1.0,1.0,1.0,1.0,10.00
2024-10-11 20:42:21.304,0.7617598,0.21396959,0.34671772,-0.13573387,0.64107484,-0.098532274,0.2341657,0.3416237,0.8518234,0.057331916,0.28272635,0.4571484,0.69872177,-0.13088554,0.27650365,0.5857917,0.09602673,-0.36418584,-0.23882388,-0.14266826,794.17584,791.75824,801.02563,798.20514,795.78754,0.2633056640625,0.17071533203125,0.96282958984375,1.016845703125,4.598236083984375,-1.79443359375,1,1.0,1.0,1.0,1.0,10.00
2024-10-11 20:42:21.325,0.7617598,0.21396959,0.34671772,-0.13573387,0.64107484,-0.098532274,0.2341657,0.3416237,0.8518234,0.057331916,0.28272635,0.4571484,0.69872177,-0.13088554,0.27650365,0.5857917,0.09602673,-0.36418584,-0.23882388,-0.14266826,795.78754,786.1172,791.75824,796.1905,880.80585,0.2486572265625,0.1837158203125,0.9696044921875,0.67291259765625,7.40203857421875,-0.79254150390625,1,1.0,1.0,1.0,1.0,10.00
2024-10-11 20:42:21.326,0.7617598,0.21396959,0.34671772,-0.13573387,0.64107484,-0.098532274,0.2341657,0.3416237,0.8518234,0.057331916,0.28272635,0.4571484,0.69872177,-0.13088554,0.27650365,0.5857917,0.09602673,-0.36418584,-0.23882388,-0.14266826,801.4286,795.38464,796.99634,797.8022,601.978,0.2486572265625,0.1837158203125,0.9696044921875,0.67291259765625,7.40203857421875,-0.79254150390625,1,1.0,1.0,1.0,1.0,10.00
2024-10-11 20:42:21.326,0.7617598,0.21396959,0.34671772,-0.13573387,0.64107484,-0.098532274,0.2341657,0.3416237,0.8518234,0.057331916,0.28272635,0.4571484,0.69872177,-0.13088554,0.27650365,0.5857917,0.09602673,-0.36418584,-0.23882388,-0.14266826,809.89014,798.20514,800.2198,802.23444,535.09155,0.2486572265625,0.1837158203125,0.9696044921875,0.67291259765625,7.40203857421875,-0.79254150390625,1,1.0,1.0,1.0,1.0,10.00
2024-10-11 20:42:21.327,0.7617598,0.21396959,0.34671772,-0.13573387,0.64107484,-0.098532274,0.2341657,0.3416237,0.8518234,0.057331916,0.28272635,0.4571484,0.69872177,-0.13088554,0.27650365,0.5857917,0.09602673,-0.36418584,-0.23882388,-0.14266826,810.696,798.60803,795.78754,807.47253,767.98535,0.2486572265625,0.1837158203125,0.9696044921875,0.67291259765625,7.40203857421875,-0.79254150390625,1,1.0,1.0,1.0,1.0,10.00
2024-10-11 20:42:21.327,0.7617598,0.21396959,0.34671772,-0.13573387,0.64107484,-0.098532274,0.2341657,0.3416237,0.8518234,0.057331916,0.28272635,0.4571484,0.69872177,-0.13088554,0.27650365,0.5857917,0.09602673,-0.36418584,-0.23882388,-0.14266826,808.68134,803.44324,799.011,814.3223,862.27106,0.2486572265625,0.1837158203125,0.9696044921875,0.67291259765625,7.40203857421875,-0.79254150390625,1,1.0,1.0,1.0,1.0,10.00
2024-10-11 20:42:21.328,0.7617598,0.21396959,0.34671772,-0.13573387,0.64107484,-0.098532274,0.2341657,0.3416237,0.8518234,0.057331916,0.28272635,0.4571484,0.69872177,-0.13088554,0.27650365,0.5857917,0.09602673,-0.36418584,-0.23882388,-0.14266826,808.68134,802.23444,803.0403,806.6667,721.6484,0.2486572265625,0.1837158203125,0.9696044921875,0.67291259765625,7.40203857421875,-0.79254150390625,1,1.0,1.0,1.0,1.0,10.00
2024-10-11 20:42:21.328,0.7617598,0.21396959,0.34671772,-0.13573387,0.64107484,-0.098532274,0.2341657,0.3416237,0.8518234,0.057331916,0.28272635,0.4571484,0.69872177,-0.13088554,0.27650365,0.5857917,0.09602673,-0.36418584,-0.23882388,-0.14266826,807.0696,799.41394,803.8461,803.0403,764.35895,0.2486572265625,0.1837158203125,0.9696044921875,0.67291259765625,7.40203857421875,-0.79254150390625,1,1.0,1.0,1.0,1.0,10.00
2024-10-11 20:42:21.329,0.7617598,0.21396959,0.34671772,-0.13573387,0.64107484,-0.098532274,0.2341657,0.3416237,0.8518234,0.057331916,0.28272635,0.4571484,0.69872177,-0.13088554,0.27650365,0.5857917,0.09602673,-0.36418584,-0.23882388,-0.14266826,800.6227,799.011,802.6374,806.26373,954.1392,0.2486572265625,0.1837158203125,0.9696044921875,0.67291259765625,7.40203857421875,-0.79254150390625,1,1.0,1.0,1.0,1.0,10.00
2024-10-11 20:42:21.329,0.7617598,0.21396959,0.34671772,-0.13573387,0.64107484,-0.098532274,0.2341657,0.3416237,0.8518234,0.057331916,0.28272635,0.4571484,0.69872177,-0.13088554,0.27650365,0.5857917,0.09602673,-0.36418584,-0.23882388,-0.14266826,805.8608,799.011,798.60803,805.05493,820.7692,0.2486572265625,0.1837158203125,0.9696044921875,0.67291259765625,7.40203857421875,-0.79254150390625,1,1.0,1.0,1.0,1.0,10.00
2024-10-11 20:42:21.330,0.7617598,0.21396959,0.34671772,-0.13573387,0.64107484,-0.098532274,0.2341657,0.3416237,0.8518234,0.057331916,0.28272635,0.4571484,0.69872177,-0.13088554,0.27650365,0.5857917,0.09602673,-0.36418584,-0.23882388,-0.14266826,811.0989,799.41394,793.36993,811.9048,686.1905,0.2486572265625,0.1837158203125,0.9696044921875,0.67291259765625,7.40203857421875,-0.79254150390625,1,1.0,1.0,1.0,1.0,10.00
2024-10-11 20:42:21.330,0.7617598,0.21396959,0.34671772,-0.13573387,0.64107484,-0.098532274,0.2341657,0.3416237,0.8518234,0.057331916,0.28272635,0.4571484,0.69872177,-0.13088554,0.27650365,0.5857917,0.09602673,-0.36418584,-0.23882388,-0.14266826,809.0842,797.3993,801.02563,816.7399,828.4249,0.2486572265625,0.1837158203125,0.9696044921875,0.67291259765625,7.40203857421875,-0.79254150390625,1,1.0,1.0,1.0,1.0,10.00
2024-10-11 20:42:21.331,0.905969,0.28972563,0.4164188,-0.13573387,0.72077477,-0.076118864,0.2748102,0.3416237,0.9387246,0.06845526,0.38359895,0.4571484,0.70398456,-0.09133213,0.28892538,0.5857917,0.09549074,-0.37598243,-0.23077361,-0.14266826,808.2784,795.78754,787.72894,816.7399,1047.619,0.2486572265625,0.1837158203125,0.9696044921875,0.67291259765625,7.40203857421875,-0.79254150390625,1,1.0,1.0,1.0,1.0,10.00
2024-10-11 20:42:21.432,0.905969,0.28972563,0.4164188,-0.13573387,0.72077477,-0.076118864,0.2748102,0.3416237,0.9387246,0.06845526,0.38359895,0.4571484,0.70398456,-0.09133213,0.28892538,0.5857917,0.09549074,-0.37598243,-0.23077361,-0.14266826,802.6374,792.5641,791.75824,811.0989,979.12085,0.23675537109375,0.18072509765625,0.96990966796875,-1.80938720703125,9.1815185546875,0.994415283203125,1,1.0,1.0,1.0,1.0,10.00
2024-10-11 20:42:21.433,0.905969,0.28972563,0.4164188,-0.13573387,0.72077477,-0.076118864,0.2748102,0.3416237,0.9387246,0.06845526,0.38359895,0.4571484,0.70398456,-0.09133213,0.28892538,0.5857917,0.09549074,-0.37598243,-0.23077361,-0.14266826,801.4286,787.72894,812.3077,805.05493,796.99634,0.23675537109375,0.18072509765625,0.96990966796875,-1.80938720703125,9.1815185546875,0.994415283203125,1,1.0,1.0,1.0,1.0,10.00
2024-10-11 20:42:21.434,0.905969,0.28972563,0.4164188,-0.13573387,0.72077477,-0.076118864,0.2748102,0.3416237,0.9387246,0.06845526,0.38359895,0.4571484,0.70398456,-0.09133213,0.28892538,0.5857917,0.09549074,-0.37598243,-0.23077361,-0.14266826,805.05493,790.14655,809.89014,802.6374,810.696,0.23675537109375,0.18072509765625,0.96990966796875,-1.80938720703125,9.1815185546875,0.994415283203125,1,1.0,1.0,1.0,1.0,10.00
2024-10-11 20:42:21.435,0.905969,0.28972563,0.4164188,-0.13573387,0.72077477,-0.076118864,0.2748102,0.3416237,0.9387246,0.06845526,0.38359895,0.4571484,0.70398456,-0.09133213,0.28892538,0.5857917,0.09549074,-0.37598243,-0.23077361,-0.14266826,812.71063,795.78754,805.8608,807.0696,832.8571,0.23675537109375,0.18072509765625,0.96990966796875,-1.80938720703125,9.1815185546875,0.994415283203125,1,1.0,1.0,1.0,1.0,10.00
2024-10-11 20:42:21.436,0.905969,0.28972563,0.4164188,-0.13573387,0.72077477,-0.076118864,0.2748102,0.3416237,0.9387246,0.06845526,0.38359895,0.4571484,0.70398456,-0.09133213,0.28892538,0.5857917,0.09549074,-0.37598243,-0.23077361,-0.14266826,807.0696,797.3993,801.02563,809.4872,766.3736,0.23675537109375,0.18072509765625,0.96990966796875,-1.80938720703125,9.1815185546875,0.994415283203125,1,1.0,1.0,1.0,1.0,10.00
2024-10-11 20:42:21.438,0.905969,0.28972563,0.4164188,-0.13573387,0.72077477,-0.076118864,0.2748102,0.3416237,0.9387246,0.06845526,0.38359895,0.4571484,0.70398456,-0.09133213,0.28892538,0.5857917,0.09549074,-0.37598243,-0.23077361,-0.14266826,795.38464,792.5641,796.5934,805.4579,827.619,0.23675537109375,0.18072509765625,0.96990966796875,-1.80938720703125,9.1815185546875,0.994415283203125,1,1.0,1.0,1.0,1.0,10.00
2024-10-11 20:42:21.439,0.905969,0.28972563,0.4164188,-0.13573387,0.72077477,-0.076118864,0.2748102,0.3416237,0.9387246,0.06845526,0.38359895,0.4571484,0.70398456,-0.09133213,0.28892538,0.5857917,0.09549074,-0.37598243,-0.23077361,-0.14266826,797.3993,788.1319,801.02563,803.8461,980.32965,0.23675537109375,0.18072509765625,0.96990966796875,-1.80938720703125,9.1815185546875,0.994415283203125,1,1.0,1.0,1.0,1.0,10.00
2024-10-11 20:42:21.440,0.905969,0.28972563,0.4164188,-0.13573387,0.72077477,-0.076118864,0.2748102,0.3416237,0.9387246,0.06845526,0.38359895,0.4571484,0.70398456,-0.09133213,0.28892538,0.5857917,0.09549074,-0.37598243,-0.23077361,-0.14266826,795.38464,789.34064,799.41394,798.20514,930.7692,0.23675537109375,0.18072509765625,0.96990966796875,-1.80938720703125,9.1815185546875,0.994415283203125,1,1.0,1.0,1.0,1.0,10.00
2024-10-11 20:42:21.441,0.905969,0.28972563,0.4164188,-0.13573387,0.72077477,-0.076118864,0.2748102,0.3416237,0.9387246,0.06845526,0.38359895,0.4571484,0.70398456,-0.09133213,0.28892538,0.5857917,0.09549074,-0.37598243,-0.23077361,-0.14266826,794.9817,796.99634,795.38464,795.78754,763.1502,0.23675537109375,0.18072509765625,0.96990966796875,-1.80938720703125,9.1815185546875,0.994415283203125,1,1.0,1.0,1.0,1.0,10.00
2024-10-11 20:42:21.442,0.905969,0.28972563,0.4164188,-0.13573387,0.72077477,-0.076118864,0.2748102,0.3416237,0.9387246,0.06845526,0.38359895,0.4571484,0.70398456,-0.09133213,0.28892538,0.5857917,0.09549074,-0.37598243,-0.23077361,-0.14266826,804.65204,802.23444,803.8461,800.6227,728.49817,0.23675537109375,0.18072509765625,0.96990966796875,-1.80938720703125,9.1815185546875,0.994415283203125,1,1.0,1.0,1.0,1.0,10.00
2024-10-11 20:42:21.443,0.905969,0.28972563,0.4164188,-0.13573387,0.72077477,-0.076118864,0.2748102,0.3416237,0.9387246,0.06845526,0.38359895,0.4571484,0.70398456,-0.09133213,0.28892538,0.5857917,0.09549074,-0.37598243,-0.23077361,-0.14266826,813.1135,796.1905,802.6374,801.02563,755.09155,0.23675537109375,0.18072509765625,0.96990966796875,-1.80938720703125,9.1815185546875,0.994415283203125,1,1.0,1.0,1.0,1.0,10.00
2024-10-11 20:42:21.444,0.905969,0.28972563,0.4164188,-0.13573387,0.72077477,-0.076118864,0.2748102,0.3416237,0.9387246,0.06845526,0.38359895,0.4571484,0.70398456,-0.09133213,0.28892538,0.5857917,0.09549074,-0.37598243,-0.23077361,-0.14266826,810.696,791.3553,795.38464,808.2784,1174.1392,0.23675537109375,0.18072509765625,0.96990966796875,-1.80938720703125,9.1815185546875,0.994415283203125,1,1.0,1.0,1.0,1.0,10.00
2024-10-11 20:42:21.513,0.905969,0.28972563,0.4164188,-0.13573387,0.72077477,-0.076118864,0.2748102,0.3416237,0.9387246,0.06845526,0.38359895,0.4571484,0.70398456,-0.09133213,0.28892538,0.5857917,0.09549074,-0.37598243,-0.23077361,-0.14266826,805.8608,791.3553,802.23444,807.8755,1283.7362,0.22174072265625,0.17462158203125,0.9732666015625,-5.166473388671875,10.48248291015625,2.25799560546875,1,1.0,1.0,1.0,1.0,10.00
2024-10-11 20:42:21.514,0.905969,0.28972563,0.4164188,-0.13573387,0.72077477,-0.076118864,0.2748102,0.3416237,0.9387246,0.06845526,0.38359895,0.4571484,0.70398456,-0.09133213,0.28892538,0.5857917,0.09549074,-0.37598243,-0.23077361,-0.14266826,805.4579,793.36993,804.2491,800.6227,871.9414,0.22174072265625,0.17462158203125,0.9732666015625,-5.166473388671875,10.48248291015625,2.25799560546875,1,1.0,1.0,1.0,1.0,10.00
2024-10-11 20:42:21.515,0.905969,0.28972563,0.4164188,-0.13573387,0.72077477,-0.076118864,0.2748102,0.3416237,0.9387246,0.06845526,0.38359895,0.4571484,0.70398456,-0.09133213,0.28892538,0.5857917,0.09549074,-0.37598243,-0.23077361,-0.14266826,799.011,787.72894,802.23444,803.44324,798.60803,0.22174072265625,0.17462158203125,0.9732666015625,-5.166473388671875,10.48248291015625,2.25799560546875,1,1.0,1.0,1.0,1.0,10.00
2024-10-11 20:42:21.516,0.905969,0.28972563,0.4164188,-0.13573387,0.72077477,-0.076118864,0.2748102,0.3416237,0.9387246,0.06845526,0.38359895,0.4571484,0.70398456,-0.09133213,0.28892538,0.5857917,0.09549074,-0.37598243,-0.23077361,-0.14266826,794.17584,788.5348,799.81683,803.44324,686.5934,0.22174072265625,0.17462158203125,0.9732666015625,-5.166473388671875,10.48248291015625,2.25799560546875,1,1.0,1.0,1.0,1.0,10.00
2024-10-11 20:42:21.517,0.905969,0.28972563,0.4164188,-0.13573387,0.72077477,-0.076118864,0.2748102,0.3416237,0.9387246,0.06845526,0.38359895,0.4571484,0.70398456,-0.09133213,0.28892538,0.5857917,0.09549074,-0.37598243,-0.23077361,-0.14266826,801.02563,796.1905,801.4286,805.4579,487.54578,0.22174072265625,0.17462158203125,0.9732666015625,-5.166473388671875,10.48248291015625,2.25799560546875,1,1.0,1.0,1.0,1.0,10.00
2024-10-11 20:42:21.517,0.905969,0.28972563,0.4164188,-0.13573387,0.72077477,-0.076118864,0.2748102,0.3416237,0.9387246,0.06845526,0.38359895,0.4571484,0.70398456,-0.09133213,0.28892538,0.5857917,0.09549074,-0.37598243,-0.23077361,-0.14266826,800.2198,796.5934,807.47253,807.8755,645.4945,0.22174072265625,0.17462158203125,0.9732666015625,-5.166473388671875,10.48248291015625,2.25799560546875,1,1.0,1.0,1.0,1.0,10.00
2024-10-11 20:42:21.518,0.905969,0.28972563,0.4164188,-0.13573387,0.72077477,-0.076118864,0.2748102,0.3416237,0.9387246,0.06845526,0.38359895,0.4571484,0.70398456,-0.09133213,0.28892538,0.5857917,0.09549074,-0.37598243,-0.23077361,-0.14266826,795.38464,794.57874,802.23444,813.1135,905.78754,0.22174072265625,0.17462158203125,0.9732666015625,-5.166473388671875,10.48248291015625,2.25799560546875,1,1.0,1.0,1.0,1.0,10.00
2024-10-11 20:42:21.519,0.905969,0.28972563,0.4164188,-0.13573387,0.72077477,-0.076118864,0.2748102,0.3416237,0.9387246,0.06845526,0.38359895,0.4571484,0.70398456,-0.09133213,0.28892538,0.5857917,0.09549074,-0.37598243,-0.23077361,-0.14266826,796.1905,795.78754,798.60803,806.6667,801.8315,0.22174072265625,0.17462158203125,0.9732666015625,-5.166473388671875,10.48248291015625,2.25799560546875,1,1.0,1.0,1.0,1.0,10.00
2024-10-11 20:42:21.520,0.905969,0.28972563,0.4164188,-0.13573387,0.72077477,-0.076118864,0.2748102,0.3416237,0.9387246,0.06845526,0.38359895,0.4571484,0.70398456,-0.09133213,0.28892538,0.5857917,0.09549074,-0.37598243,-0.23077361,-0.14266826,800.2198,800.2198,803.0403,797.8022,586.26373,0.22174072265625,0.17462158203125,0.9732666015625,-5.166473388671875,10.48248291015625,2.25799560546875,1,1.0,1.0,1.0,1.0,10.00
2024-10-11 20:42:21.521,0.905969,0.28972563,0.4164188,-0.13573387,0.72077477,-0.076118864,0.2748102,0.3416237,0.9387246,0.06845526,0.38359895,0.4571484,0.70398456,-0.09133213,0.28892538,0.5857917,0.09549074,-0.37598243,-0.23077361,-0.14266826,808.68134,799.81683,796.99634,802.23444,641.4652,0.22174072265625,0.17462158203125,0.9732666015625,-5.166473388671875,10.48248291015625,2.25799560546875,1,1.0,1.0,1.0,1.0,10.00
2024-10-11 20:42:21.522,0.905969,0.28972563,0.4164188,-0.13573387,0.72077477,-0.076118864,0.2748102,0.3416237,0.9387246,0.06845526,0.38359895,0.4571484,0.70398456,-0.09133213,0.28892538,0.5857917,0.09549074,-0.37598243,-0.23077361,-0.14266826,805.8608,791.3553,796.99634,804.65204,843.3333,0.22174072265625,0.17462158203125,0.9732666015625,-5.166473388671875,10.48248291015625,2.25799560546875,1,1.0,1.0,1.0,1.0,10.00
2024-10-11 20:42:21.522,0.905969,0.28972563,0.4164188,-0.13573387,0.72077477,-0.076118864,0.2748102,0.3416237,0.9387246,0.06845526,0.38359895,0.4571484,0.70398456,-0.09133213,0.28892538,0.5857917,0.09549074,-0.37598243,-0.23077361,-0.14266826,793.36993,786.1172,799.41394,803.8461,690.2198,0.22174072265625,0.17462158203125,0.9732666015625,-5.166473388671875,10.48248291015625,2.25799560546875,1,1.0,1.0,1.0,1.0,10.00
2024-10-11 20:42:21.551,0.905969,0.28972563,0.4164188,-0.13573387,0.72077477,-0.076118864,0.2748102,0.3416237,0.9387246,0.06845526,0.38359895,0.4571484,0.70398456,-0.09133213,0.28892538,0.5857917,0.09549074,-0.37598243,-0.23077361,-0.14266826,795.38464,791.3553,792.5641,799.41394,496.41025,0.22174072265625,0.17462158203125,0.9732666015625,-5.166473388671875,10.48248291015625,2.25799560546875,1,1.0,1.0,1.0,1.0,10.00
2024-10-11 20:42:21.553,1.0044609,0.33056056,0.47197857,-0.13573387,0.7735229,-0.05813959,0.30369836,0.3416237,0.9998201,0.06845526,0.4365203,0.4571484,0.7062689,-0.062381517,0.3042272,0.5857917,0.10061794,-0.38779283,-0.21816775,-0.14266826,801.4286,798.20514,791.3553,799.011,651.53845,0.22174072265625,0.17462158203125,0.9732666015625,-5.166473388671875,10.48248291015625,2.25799560546875,1,1.0,1.0,1.0,1.0,10.00
2024-10-11 20:42:21.559,1.0044609,0.33056056,0.47197857,-0.13573387,0.7735229,-0.05813959,0.30369836,0.3416237,0.9998201,0.06845526,0.4365203,0.4571484,0.7062689,-0.062381517,0.3042272,0.5857917,0.10061794,-0.38779283,-0.21816775,-0.14266826,799.011,800.2198,797.3993,799.81683,898.5348,0.22174072265625,0.17462158203125,0.9732666015625,-5.166473388671875,10.48248291015625,2.25799560546875,1,1.0,1.0,1.0,1.0,10.00
2024-10-11 20:42:21.560,1.0044609,0.33056056,0.47197857,-0.13573387,0.7735229,-0.05813959,0.30369836,0.3416237,0.9998201,0.06845526,0.4365203,0.4571484,0.7062689,-0.062381517,0.3042272,0.5857917,0.10061794,-0.38779283,-0.21816775,-0.14266826,798.20514,799.011,797.3993,796.5934,775.2381,0.22174072265625,0.17462158203125,0.9732666015625,-5.166473388671875,10.48248291015625,2.25799560546875,1,1.0,1.0,1.0,1.0,10.00
2024-10-11 20:42:21.561,1.0044609,0.33056056,0.47197857,-0.13573387,0.7735229,-0.05813959,0.30369836,0.3416237,0.9998201,0.06845526,0.4365203,0.4571484,0.7062689,-0.062381517,0.3042272,0.5857917,0.10061794,-0.38779283,-0.21816775,-0.14266826,806.6667,795.78754,801.4286,799.41394,593.91943,0.22174072265625,0.17462158203125,0.9732666015625,-5.166473388671875,10.48248291015625,2.25799560546875,1,1.0,1.0,1.0,1.0,10.00
2024-10-11 20:42:21.562,1.0044609,0.33056056,0.47197857,-0.13573387,0.7735229,-0.05813959,0.30369836,0.3416237,0.9998201,0.06845526,0.4365203,0.4571484,0.7062689,-0.062381517,0.3042272,0.5857917,0.10061794,-0.38779283,-0.21816775,-0.14266826,807.8755,792.5641,805.05493,801.02563,850.18317,0.22174072265625,0.17462158203125,0.9732666015625,-5.166473388671875,10.48248291015625,2.25799560546875,1,1.0,1.0,1.0,1.0,10.00
2024-10-11 20:42:21.562,1.0044609,0.33056056,0.47197857,-0.13573387,0.7735229,-0.05813959,0.30369836,0.3416237,0.9998201,0.06845526,0.4365203,0.4571484,0.7062689,-0.062381517,0.3042272,0.5857917,0.10061794,-0.38779283,-0.21816775,-0.14266826,799.011,801.02563,799.81683,801.4286,1126.9963,0.22174072265625,0.17462158203125,0.9732666015625,-5.166473388671875,10.48248291015625,2.25799560546875,1,1.0,1.0,1.0,1.0,10.00
2024-10-11 20:42:21.563,1.0044609,0.33056056,0.47197857,-0.13573387,0.7735229,-0.05813959,0.30369836,0.3416237,0.9998201,0.06845526,0.4365203,0.4571484,0.7062689,-0.062381517,0.3042272,0.5857917,0.10061794,-0.38779283,-0.21816775,-0.14266826,809.0842,805.4579,794.17584,805.05493,890.4762,0.22174072265625,0.17462158203125,0.9732666015625,-5.166473388671875,10.48248291015625,2.25799560546875,1,1.0,1.0,1.0,1.0,10.00
2024-10-11 20:42:21.564,1.0044609,0.33056056,0.47197857,-0.13573387,0.7735229,-0.05813959,0.30369836,0.3416237,0.9998201,0.06845526,0.4365203,0.4571484,0.7062689,-0.062381517,0.3042272,0.5857917,0.10061794,-0.38779283,-0.21816775,-0.14266826,809.89014,805.4579,792.1612,802.6374,657.98535,0.22174072265625,0.17462158203125,0.9732666015625,-5.166473388671875,10.48248291015625,2.25799560546875,1,1.0,1.0,1.0,1.0,10.00
2024-10-11 20:42:21.565,1.0044609,0.33056056,0.47197857,-0.13573387,0.7735229,-0.05813959,0.30369836,0.3416237,0.9998201,0.06845526,0.4365203,0.4571484,0.7062689,-0.062381517,0.3042272,0.5857917,0.10061794,-0.38779283,-0.21816775,-0.14266826,794.17584,799.41394,784.10254,799.011,709.15753,0.22174072265625,0.17462158203125,0.9732666015625,-5.166473388671875,10.48248291015625,2.25799560546875,1,1.0,1.0,1.0,1.0,10.00
2024-10-11 20:42:21.565,1.0044609,0.33056056,0.47197857,-0.13573387,0.7735229,-0.05813959,0.30369836,0.3416237,0.9998201,0.06845526,0.4365203,0.4571484,0.7062689,-0.062381517,0.3042272,0.5857917,0.10061794,-0.38779283,-0.21816775,-0.14266826,797.8022,793.7729,787.72894,803.0403,822.381,0.22174072265625,0.17462158203125,0.9732666015625,-5.166473388671875,10.48248291015625,2.25799560546875,1,1.0,1.0,1.0,1.0,10.00
2024-10-11 20:42:21.566,1.0044609,0.33056056,0.47197857,-0.13573387,0.7735229,-0.05813959,0.30369836,0.3416237,0.9998201,0.06845526,0.4365203,0.4571484,0.7062689,-0.062381517,0.3042272,0.5857917,0.10061794,-0.38779283,-0.21816775,-0.14266826,800.6227,795.78754,796.1905,808.68134,802.6374,0.22174072265625,0.17462158203125,0.9732666015625,-5.166473388671875,10.48248291015625,2.25799560546875,1,1.0,1.0,1.0,1.0,10.00
2024-10-11 20:42:21.635,1.0044609,0.33056056,0.47197857,-0.13573387,0.7735229,-0.05813959,0.30369836,0.3416237,0.9998201,0.06845526,0.4365203,0.4571484,0.7062689,-0.062381517,0.3042272,0.5857917,0.10061794,-0.38779283,-0.21816775,-0.14266826,797.3993,798.20514,804.2491,805.8608,674.5055,0.2093505859375,0.154541015625,0.983642578125,-7.274932861328125,11.9329833984375,3.90289306640625,1,1.0,1.0,1.0,1.0,10.00
2024-10-11 20:42:21.636,1.0044609,0.33056056,0.47197857,-0.13573387,0.7735229,-0.05813959,0.30369836,0.3416237,0.9998201,0.06845526,0.4365203,0.4571484,0.7062689,-0.062381517,0.3042272,0.5857917,0.10061794,-0.38779283,-0.21816775,-0.14266826,798.20514,793.36993,807.0696,804.2491,715.6044,0.2093505859375,0.154541015625,0.983642578125,-7.274932861328125,11.9329833984375,3.90289306640625,1,1.0,1.0,1.0,1.0,10.00
2024-10-11 20:42:21.637,1.0044609,0.33056056,0.47197857,-0.13573387,0.7735229,-0.05813959,0.30369836,0.3416237,0.9998201,0.06845526,0.4365203,0.4571484,0.7062689,-0.062381517,0.3042272,0.5857917,0.10061794,-0.38779283,-0.21816775,-0.14266826,810.293,793.7729,802.23444,805.4579,864.2857,0.2093505859375,0.154541015625,0.983642578125,-7.274932861328125,11.9329833984375,3.90289306640625,1,1.0,1.0,1.0,1.0,10.00
2024-10-11 20:42:21.638,1.0044609,0.33056056,0.47197857,-0.13573387,0.7735229,-0.05813959,0.30369836,0.3416237,0.9998201,0.06845526,0.4365203,0.4571484,0.7062689,-0.062381517,0.3042272,0.5857917,0.10061794,-0.38779283,-0.21816775,-0.14266826,815.9341,797.8022,802.6374,803.44324,733.3333,0.2093505859375,0.154541015625,0.983642578125,-7.274932861328125,11.9329833984375,3.90289306640625,1,1.0,1.0,1.0,1.0,10.00
2024-10-11 20:42:21.638,1.0044609,0.33056056,0.47197857,-0.13573387,0.7735229,-0.05813959,0.30369836,0.3416237,0.9998201,0.06845526,0.4365203,0.4571484,0.7062689,-0.062381517,0.3042272,0.5857917,0.10061794,-0.38779283,-0.21816775,-0.14266826,811.0989,793.36993,799.81683,801.02563,655.56775,0.2093505859375,0.154541015625,0.983642578125,-7.274932861328125,11.9329833984375,3.90289306640625,1,1.0,1.0,1.0,1.0,10.00
2024-10-11 20:42:21.639,1.0044609,0.33056056,0.47197857,-0.13573387,0.7735229,-0.05813959,0.30369836,0.3416237,0.9998201,0.06845526,0.4365203,0.4571484,0.7062689,-0.062381517,0.3042272,0.5857917,0.10061794,-0.38779283,-0.21816775,-0.14266826,810.696,792.5641,791.75824,806.26373,959.7802,0.2093505859375,0.154541015625,0.983642578125,-7.274932861328125,11.9329833984375,3.90289306640625,1,1.0,1.0,1.0,1.0,10.00
2024-10-11 20:42:21.640,1.0044609,0.33056056,0.47197857,-0.13573387,0.7735229,-0.05813959,0.30369836,0.3416237,0.9998201,0.06845526,0.4365203,0.4571484,0.7062689,-0.062381517,0.3042272,0.5857917,0.10061794,-0.38779283,-0.21816775,-0.14266826,807.0696,799.81683,793.36993,812.3077,1020.2198,0.2093505859375,0.154541015625,0.983642578125,-7.274932861328125,11.9329833984375,3.90289306640625,1,1.0,1.0,1.0,1.0,10.00
2024-10-11 20:42:21.641,1.0044609,0.33056056,0.47197857,-0.13573387,0.7735229,-0.05813959,0.30369836,0.3416237,0.9998201,0.06845526,0.4365203,0.4571484,0.7062689,-0.062381517,0.3042272,0.5857917,0.10061794,-0.38779283,-0.21816775,-0.14266826,809.4872,797.8022,788.93774,813.1135,786.9231,0.2093505859375,0.154541015625,0.983642578125,-7.274932861328125,11.9329833984375,3.90289306640625,1,1.0,1.0,1.0,1.0,10.00
2024-10-11 20:42:21.642,1.0044609,0.33056056,0.47197857,-0.13573387,0.7735229,-0.05813959,0.30369836,0.3416237,0.9998201,0.06845526,0.4365203,0.4571484,0.7062689,-0.062381517,0.3042272,0.5857917,0.10061794,-0.38779283,-0.21816775,-0.14266826,813.91943,791.75824,787.72894,812.3077,795.78754,0.2093505859375,0.154541015625,0.983642578125,-7.274932861328125,11.9329833984375,3.90289306640625,1,1.0,1.0,1.0,1.0,10.00
2024-10-11 20:42:21.643,1.0044609,0.33056056,0.47197857,-0.13573387,0.7735229,-0.05813959,0.30369836,0.3416237,0.9998201,0.06845526,0.4365203,0.4571484,0.7062689,-0.062381517,0.3042272,0.5857917,0.10061794,-0.38779283,-0.21816775,-0.14266826,808.68134,790.54944,799.81683,813.91943,938.8278,0.2093505859375,0.154541015625,0.983642578125,-7.274932861328125,11.9329833984375,3.90289306640625,1,1.0,1.0,1.0,1.0,10.00
2024-10-11 20:42:21.644,1.0044609,0.33056056,0.47197857,-0.13573387,0.7735229,-0.05813959,0.30369836,0.3416237,0.9998201,0.06845526,0.4365203,0.4571484,0.7062689,-0.062381517,0.3042272,0.5857917,0.10061794,-0.38779283,-0.21816775,-0.14266826,814.3223,792.96704,799.81683,809.89014,805.05493,0.2093505859375,0.154541015625,0.983642578125,-7.274932861328125,11.9329833984375,3.90289306640625,1,1.0,1.0,1.0,1.0,10.00
2024-10-11 20:42:21.645,1.0044609,0.33056056,0.47197857,-0.13573387,0.7735229,-0.05813959,0.30369836,0.3416237,0.9998201,0.06845526,0.4365203,0.4571484,0.7062689,-0.062381517,0.3042272,0.5857917,0.10061794,-0.38779283,-0.21816775,-0.14266826,817.5458,797.8022,805.05493,805.4579,647.1062,0.2093505859375,0.154541015625,0.983642578125,-7.274932861328125,11.9329833984375,3.90289306640625,1,1.0,1.0,1.0,1.0,10.00
2024-10-11 20:42:21.646,1.0044609,0.33056056,0.47197857,-0.13573387,0.7735229,-0.05813959,0.30369836,0.3416237,0.9998201,0.06845526,0.4365203,0.4571484,0.7062689,-0.062381517,0.3042272,0.5857917,0.10061794,-0.38779283,-0.21816775,-0.14266826,812.3077,799.81683,807.8755,812.3077,739.3773,0.195556640625,0.15557861328125,0.983642578125,-7.768402099609375,12.882537841796875,8.32916259765625,1,1.0,1.0,1.0,1.0,10.00
2024-10-11 20:42:21.646,1.0044609,0.33056056,0.47197857,-0.13573387,0.7735229,-0.05813959,0.30369836,0.3416237,0.9998201,0.06845526,0.4365203,0.4571484,0.7062689,-0.062381517,0.3042272,0.5857917,0.10061794,-0.38779283,-0.21816775,-0.14266826,805.8608,800.2198,804.65204,818.3516,925.5311,0.195556640625,0.15557861328125,0.983642578125,-7.768402099609375,12.882537841796875,8.32916259765625,1,1.0,1.0,1.0,1.0,10.00
2024-10-11 20:42:21.647,1.0044609,0.33056056,0.47197857,-0.13573387,0.7735229,-0.05813959,0.30369836,0.3416237,0.9998201,0.06845526,0.4365203,0.4571484,0.7062689,-0.062381517,0.3042272,0.5857917,0.10061794,-0.38779283,-0.21816775,-0.14266826,811.0989,797.8022,805.4579,813.1135,776.04395,0.195556640625,0.15557861328125,0.983642578125,-7.768402099609375,12.882537841796875,8.32916259765625,1,1.0,1.0,1.0,1.0,10.00
2024-10-11 20:42:21.648,1.0688372,0.33887857,0.50402784,-0.13573387,0.8135935,-0.046766132,0.3272535,0.3416237,1.0226835,0.06845526,0.4470041,0.4571484,0.7085545,-0.048055746,0.31933653,0.5857917,0.10929445,-0.39720717,-0.20161931,-0.14266826,803.8461,796.99634,804.65204,808.68134,580.6227,0.195556640625,0.15557861328125,0.983642578125,-7.768402099609375,12.882537841796875,8.32916259765625,1,1.0,1.0,1.0,1.0,10.00
2024-10-11 20:42:21.654,1.0688372,0.33887857,0.50402784,-0.13573387,0.8135935,-0.046766132,0.3272535,0.3416237,1.0226835,0.06845526,0.4470041,0.4571484,0.7085545,-0.048055746,0.31933653,0.5857917,0.10929445,-0.39720717,-0.20161931,-0.14266826,811.50183,795.78754,791.75824,814.3223,721.2454,0.195556640625,0.15557861328125,0.983642578125,-7.768402099609375,12.882537841796875,8.32916259765625,1,1.0,1.0,1.0,1.0,10.00
2024-10-11 20:42:21.655,1.0688372,0.33887857,0.50402784,-0.13573387,0.8135935,-0.046766132,0.3272535,0.3416237,1.0226835,0.06845526,0.4470041,0.4571484,0.7085545,-0.048055746,0.31933653,0.5857917,0.10929445,-0.39720717,-0.20161931,-0.14266826,838.0952,792.1612,793.7729,834.0659,903.36993,0.195556640625,0.15557861328125,0.983642578125,-7.768402099609375,12.882537841796875,8.32916259765625,1,1.0,1.0,1.0,1.0,10.00
2024-10-11 20:42:21.656,1.0688372,0.33887857,0.50402784,-0.13573387,0.8135935,-0.046766132,0.3272535,0.3416237,1.0226835,0.06845526,0.4470041,0.4571484,0.7085545,-0.048055746,0.31933653,0.5857917,0.10929445,-0.39720717,-0.20161931,-0.14266826,817.1429,796.5934,811.9048,824.3956,805.05493,0.195556640625,0.15557861328125,0.983642578125,-7.768402099609375,12.882537841796875,8.32916259765625,1,1.0,1.0,1.0,1.0,10.00
2024-10-11 20:42:21.657,1.0688372,0.33887857,0.50402784,-0.13573387,0.8135935,-0.046766132,0.3272535,0.3416237,1.0226835,0.06845526,0.4470041,0.4571484,0.7085545,-0.048055746,0.31933653,0.5857917,0.10929445,-0.39720717,-0.20161931,-0.14266826,786.9231,792.96704,810.293,807.8755,767.5824,0.195556640625,0.15557861328125,0.983642578125,-7.768402099609375,12.882537841796875,8.32916259765625,1,1.0,1.0,1.0,1.0,10.00
2024-10-11 20:42:21.658,1.0688372,0.33887857,0.50402784,-0.13573387,0.8135935,-0.046766132,0.3272535,0.3416237,1.0226835,0.06845526,0.4470041,0.4571484,0.7085545,-0.048055746,0.31933653,0.5857917,0.10929445,-0.39720717,-0.20161931,-0.14266826,788.5348,789.7436,804.65204,811.0989,754.2857,0.195556640625,0.15557861328125,0.983642578125,-7.768402099609375,12.882537841796875,8.32916259765625,1,1.0,1.0,1.0,1.0,10.00
2024-10-11 20:42:21.659,1.0688372,0.33887857,0.50402784,-0.13573387,0.8135935,-0.046766132,0.3272535,0.3416237,1.0226835,0.06845526,0.4470041,0.4571484,0.7085545,-0.048055746,0.31933653,0.5857917,0.10929445,-0.39720717,-0.20161931,-0.14266826,798.60803,795.38464,809.0842,812.71063,775.2381,0.195556640625,0.15557861328125,0.983642578125,-7.768402099609375,12.882537841796875,8.32916259765625,1,1.0,1.0,1.0,1.0,10.00
2024-10-11 20:42:21.659,1.0688372,0.33887857,0.50402784,-0.13573387,0.8135935,-0.046766132,0.3272535,0.3416237,1.0226835,0.06845526,0.4470041,0.4571484,0.7085545,-0.048055746,0.31933653,0.5857917,0.10929445,-0.39720717,-0.20161931,-0.14266826,800.6227,790.54944,814.7253,815.5311,659.19415,0.195556640625,0.15557861328125,0.983642578125,-7.768402099609375,12.882537841796875,8.32916259765625,1,1.0,1.0,1.0,1.0,10.00
2024-10-11 20:42:21.660,1.0688372,0.33887857,0.50402784,-0.13573387,0.8135935,-0.046766132,0.3272535,0.3416237,1.0226835,0.06845526,0.4470041,0.4571484,0.7085545,-0.048055746,0.31933653,0.5857917,0.10929445,-0.39720717,-0.20161931,-0.14266826,794.17584,786.1172,817.5458,814.3223,536.30035,0.195556640625,0.15557861328125,0.983642578125,-7.768402099609375,12.882537841796875,8.32916259765625,1,1.0,1.0,1.0,1.0,10.00
2024-10-11 20:42:21.693,1.0688372,0.33887857,0.50402784,-0.13573387,0.8135935,-0.046766132,0.3272535,0.3416237,1.0226835,0.06845526,0.4470041,0.4571484,0.7085545,-0.048055746,0.31933653,0.5857917,0.10929445,-0.39720717,-0.20161931,-0.14266826,788.1319,785.31134,814.7253,807.0696,670.87915,0.20111083984375,0.14434814453125,0.98529052734375,-9.97406005859375,14.6246337890625,16.5087890625,1,1.0,1.0,1.0,1.0,10.00
2024-10-11 20:42:21.694,1.0688372,0.33887857,0.50402784,-0.13573387,0.8135935,-0.046766132,0.3272535,0.3416237,1.0226835,0.06845526,0.4470041,0.4571484,0.7085545,-0.048055746,0.31933653,0.5857917,0.10929445,-0.39720717,-0.20161931,-0.14266826,781.685,780.4762,816.337,807.8755,819.9634,0.20111083984375,0.14434814453125,0.98529052734375,-9.97406005859375,14.6246337890625,16.5087890625,1,1.0,1.0,1.0,1.0,10.00
2024-10-11 20:42:21.695,1.0688372,0.33887857,0.50402784,-0.13573387,0.8135935,-0.046766132,0.3272535,0.3416237,1.0226835,0.06845526,0.4470041,0.4571484,0.7085545,-0.048055746,0.31933653,0.5857917,0.10929445,-0.39720717,-0.20161931,-0.14266826,777.25275,780.4762,831.2454,807.47253,740.989,0.20111083984375,0.14434814453125,0.98529052734375,-9.97406005859375,14.6246337890625,16.5087890625,1,1.0,1.0,1.0,1.0,10.00
2024-10-11 20:42:21.696,1.0688372,0.33887857,0.50402784,-0.13573387,0.8135935,-0.046766132,0.3272535,0.3416237,1.0226835,0.06845526,0.4470041,0.4571484,0.7085545,-0.048055746,0.31933653,0.5857917,0.10929445,-0.39720717,-0.20161931,-0.14266826,773.22345,784.5055,837.6923,799.41394,690.2198,0.20111083984375,0.14434814453125,0.98529052734375,-9.97406005859375,14.6246337890625,16.5087890625,1,1.0,1.0,1.0,1.0,10.00
2024-10-11 20:42:21.696,1.0688372,0.33887857,0.50402784,-0.13573387,0.8135935,-0.046766132,0.3272535,0.3416237,1.0226835,0.06845526,0.4470041,0.4571484,0.7085545,-0.048055746,0.31933653,0.5857917,0.10929445,-0.39720717,-0.20161931,-0.14266826,778.46155,779.67035,832.8571,803.8461,881.6117,0.20111083984375,0.14434814453125,0.98529052734375,-9.97406005859375,14.6246337890625,16.5087890625,1,1.0,1.0,1.0,1.0,10.00
2024-10-11 20:42:21.697,1.0688372,0.33887857,0.50402784,-0.13573387,0.8135935,-0.046766132,0.3272535,0.3416237,1.0226835,0.06845526,0.4470041,0.4571484,0.7085545,-0.048055746,0.31933653,0.5857917,0.10929445,-0.39720717,-0.20161931,-0.14266826,782.49084,775.2381,833.2601,814.7253,1030.2931,0.20111083984375,0.14434814453125,0.98529052734375,-9.97406005859375,14.6246337890625,16.5087890625,1,1.0,1.0,1.0,1.0,10.00
2024-10-11 20:42:21.698,1.0688372,0.33887857,0.50402784,-0.13573387,0.8135935,-0.046766132,0.3272535,0.3416237,1.0226835,0.06845526,0.4470041,0.4571484,0.7085545,-0.048055746,0.31933653,0.5857917,0.10929445,-0.39720717,-0.20161931,-0.14266826,776.8498,774.83514,834.4689,812.3077,799.011,0.20111083984375,0.14434814453125,0.98529052734375,-9.97406005859375,14.6246337890625,16.5087890625,1,1.0,1.0,1.0,1.0,10.00
2024-10-11 20:42:21.698,1.0688372,0.33887857,0.50402784,-0.13573387,0.8135935,-0.046766132,0.3272535,0.3416237,1.0226835,0.06845526,0.4470041,0.4571484,0.7085545,-0.048055746,0.31933653,0.5857917,0.10929445,-0.39720717,-0.20161931,-0.14266826,770.40295,774.0293,831.2454,802.6374,647.9121,0.20111083984375,0.14434814453125,0.98529052734375,-9.97406005859375,14.6246337890625,16.5087890625,1,1.0,1.0,1.0,1.0,10.00
2024-10-11 20:42:21.699,1.0688372,0.33887857,0.50402784,-0.13573387,0.8135935,-0.046766132,0.3272535,0.3416237,1.0226835,0.06845526,0.4470041,0.4571484,0.7085545,-0.048055746,0.31933653,0.5857917,0.10929445,-0.39720717,-0.20161931,-0.14266826,774.0293,770.40295,835.2747,804.65204,753.8828,0.20111083984375,0.14434814453125,0.98529052734375,-9.97406005859375,14.6246337890625,16.5087890625,1,1.0,1.0,1.0,1.0,10.00
2024-10-11 20:42:21.700,1.0688372,0.33887857,0.50402784,-0.13573387,0.8135935,-0.046766132,0.3272535,0.3416237,1.0226835,0.06845526,0.4470041,0.4571484,0.7085545,-0.048055746,0.31933653,0.5857917,0.10929445,-0.39720717,-0.20161931,-0.14266826,775.2381,769.19415,839.304,804.2491,723.663,0.20111083984375,0.14434814453125,0.98529052734375,-9.97406005859375,14.6246337890625,16.5087890625,1,1.0,1.0,1.0,1.0,10.00
2024-10-11 20:42:21.700,1.0688372,0.33887857,0.50402784,-0.13573387,0.8135935,-0.046766132,0.3272535,0.3416237,1.0226835,0.06845526,0.4470041,0.4571484,0.7085545,-0.048055746,0.31933653,0.5857917,0.10929445,-0.39720717,-0.20161931,-0.14266826,780.4762,772.8205,843.73627,805.4579,556.04395,0.20111083984375,0.14434814453125,0.98529052734375,-9.97406005859375,14.6246337890625,16.5087890625,1,1.0,1.0,1.0,1.0,10.00
2024-10-11 20:42:21.701,1.0688372,0.33887857,0.50402784,-0.13573387,0.8135935,-0.046766132,0.3272535,0.3416237,1.0226835,0.06845526,0.4470041,0.4571484,0.7085545,-0.048055746,0.31933653,0.5857917,0.10929445,-0.39720717,-0.20161931,-0.14266826,780.07324,773.6264,850.989,811.0989,610.4396,0.20111083984375,0.14434814453125,0.98529052734375,-9.97406005859375,14.6246337890625,16.5087890625,1,1.0,1.0,1.0,1.0,10.00
2024-10-11 20:42:21.702,1.0688372,0.33887857,0.50402784,-0.13573387,0.8135935,-0.046766132,0.3272535,0.3416237,1.0226835,0.06845526,0.4470041,0.4571484,0.7085545,-0.048055746,0.31933653,0.5857917,0.10929445,-0.39720717,-0.20161931,-0.14266826,772.8205,767.5824,852.1978,813.1135,919.4872,0.17742919921875,0.122802734375,0.98443603515625,-12.000274658203125,15.738677978515625,27.267913818359375,1,1.0,1.0,1.0,1.0,10.00
2024-10-11 20:42:21.703,1.0688372,0.33887857,0.50402784,-0.13573387,0.8135935,-0.046766132,0.3272535,0.3416237,1.0226835,0.06845526,0.4470041,0.4571484,0.7085545,-0.048055746,0.31933653,0.5857917,0.10929445,-0.39720717,-0.20161931,-0.14266826,767.5824,767.1795,847.76556,806.6667,902.5641,0.17742919921875,0.122802734375,0.98443603515625,-12.000274658203125,15.738677978515625,27.267913818359375,1,1.0,1.0,1.0,1.0,10.00
2024-10-11 20:42:21.704,1.0688372,0.33887857,0.50402784,-0.13573387,0.8135935,-0.046766132,0.3272535,0.3416237,1.0226835,0.06845526,0.4470041,0.4571484,0.7085545,-0.048055746,0.31933653,0.5857917,0.10929445,-0.39720717,-0.20161931,-0.14266826,768.7912,769.19415,841.7216,801.8315,678.93774,0.17742919921875,0.122802734375,0.98443603515625,-12.000274658203125,15.738677978515625,27.267913818359375,1,1.0,1.0,1.0,1.0,10.00
2024-10-11 20:42:21.704,1.0688372,0.33887857,0.50402784,-0.13573387,0.8135935,-0.046766132,0.3272535,0.3416237,1.0226835,0.06845526,0.4470041,0.4571484,0.7085545,-0.048055746,0.31933653,0.5857917,0.10929445,-0.39720717,-0.20161931,-0.14266826,781.28204,771.6117,846.9597,809.0842,699.0842,0.17742919921875,0.122802734375,0.98443603515625,-12.000274658203125,15.738677978515625,27.267913818359375,1,1.0,1.0,1.0,1.0,10.00
2024-10-11 20:42:21.705,1.0688372,0.33887857,0.50402784,-0.13573387,0.8135935,-0.046766132,0.3272535,0.3416237,1.0226835,0.06845526,0.4470041,0.4571484,0.7085545,-0.048055746,0.31933653,0.5857917,0.10929445,-0.39720717,-0.20161931,-0.14266826,786.1172,773.6264,845.7509,819.15753,911.4286,0.17742919921875,0.122802734375,0.98443603515625,-12.000274658203125,15.738677978515625,27.267913818359375,1,1.0,1.0,1.0,1.0,10.00
2024-10-11 20:42:21.706,1.1105052,0.32544392,0.52557063,-0.13573387,0.84759337,-0.04406345,0.34829593,0.3416237,1.0250882,0.06845526,0.4485007,0.4571484,0.7106118,-0.043904364,0.33265117,0.5857917,0.12128959,-0.4008273,-0.18394987,-0.14266826,781.28204,771.6117,848.1685,817.9487,915.4579,0.17742919921875,0.122802734375,0.98443603515625,-12.000274658203125,15.738677978515625,27.267913818359375,1,1.0,1.0,1.0,1.0,10.00
2024-10-11 20:42:21.712,1.1105052,0.32544392,0.52557063,-0.13573387,0.84759337,-0.04406345,0.34829593,0.3416237,1.0250882,0.06845526,0.4485007,0.4571484,0.7106118,-0.043904364,0.33265117,0.5857917,0.12128959,-0.4008273,-0.18394987,-0.14266826,795.78754,771.2088,855.82416,821.1722,808.68134,0.17742919921875,0.122802734375,0.98443603515625,-12.000274658203125,15.738677978515625,27.267913818359375,1,1.0,1.0,1.0,1.0,10.00
2024-10-11 20:42:21.713,1.1105052,0.32544392,0.52557063,-0.13573387,0.84759337,-0.04406345,0.34829593,0.3416237,1.0250882,0.06845526,0.4485007,0.4571484,0.7106118,-0.043904364,0.33265117,0.5857917,0.12128959,-0.4008273,-0.18394987,-0.14266826,797.8022,772.01465,860.65936,822.7839,844.1392,0.17742919921875,0.122802734375,0.98443603515625,-12.000274658203125,15.738677978515625,27.267913818359375,1,1.0,1.0,1.0,1.0,10.00
2024-10-11 20:42:21.714,1.1105052,0.32544392,0.52557063,-0.13573387,0.84759337,-0.04406345,0.34829593,0.3416237,1.0250882,0.06845526,0.4485007,0.4571484,0.7106118,-0.043904364,0.33265117,0.5857917,0.12128959,-0.4008273,-0.18394987,-0.14266826,783.69965,767.98535,862.27106,829.6337,902.5641,0.17742919921875,0.122802734375,0.98443603515625,-12.000274658203125,15.738677978515625,27.267913818359375,1,1.0,1.0,1.0,1.0,10.00
2024-10-11 20:42:21.715,1.1105052,0.32544392,0.52557063,-0.13573387,0.84759337,-0.04406345,0.34829593,0.3416237,1.0250882,0.06845526,0.4485007,0.4571484,0.7106118,-0.043904364,0.33265117,0.5857917,0.12128959,-0.4008273,-0.18394987,-0.14266826,781.685,770.40295,857.03296,831.6484,737.76556,0.17742919921875,0.122802734375,0.98443603515625,-12.000274658203125,15.738677978515625,27.267913818359375,1,1.0,1.0,1.0,1.0,10.00
2024-10-11 20:42:21.715,1.1105052,0.32544392,0.52557063,-0.13573387,0.84759337,-0.04406345,0.34829593,0.3416237,1.0250882,0.06845526,0.4485007,0.4571484,0.7106118,-0.043904364,0.33265117,0.5857917,0.12128959,-0.4008273,-0.18394987,-0.14266826,780.87915,768.7912,857.03296,834.0659,670.87915,0.17742919921875,0.122802734375,0.98443603515625,-12.000274658203125,15.738677978515625,27.267913818359375,1,1.0,1.0,1.0,1.0,10.00
2024-10-11 20:42:21.716,1.1105052,0.32544392,0.52557063,-0.13573387,0.84759337,-0.04406345,0.34829593,0.3416237,1.0250882,0.06845526,0.4485007,0.4571484,0.7106118,-0.043904364,0.33265117,0.5857917,0.12128959,-0.4008273,-0.18394987,-0.14266826,780.07324,759.92676,859.85345,841.31866,800.6227,0.17742919921875,0.122802734375,0.98443603515625,-12.000274658203125,15.738677978515625,27.267913818359375,1,1.0,1.0,1.0,1.0,10.00
2024-10-11 20:42:21.717,1.1105052,0.32544392,0.52557063,-0.13573387,0.84759337,-0.04406345,0.34829593,0.3416237,1.0250882,0.06845526,0.4485007,0.4571484,0.7106118,-0.043904364,0.33265117,0.5857917,0.12128959,-0.4008273,-0.18394987,-0.14266826,778.86444,761.9414,862.27106,841.31866,910.2198,0.17742919921875,0.122802734375,0.98443603515625,-12.000274658203125,15.738677978515625,27.267913818359375,1,1.0,1.0,1.0,1.0,10.00
2024-10-11 20:42:21.718,1.1105052,0.32544392,0.52557063,-0.13573387,0.84759337,-0.04406345,0.34829593,0.3416237,1.0250882,0.06845526,0.4485007,0.4571484,0.7106118,-0.043904364,0.33265117,0.5857917,0.12128959,-0.4008273,-0.18394987,-0.14266826,776.04395,770.0,863.8828,836.08057,840.5128,0.17742919921875,0.122802734375,0.98443603515625,-12.000274658203125,15.738677978515625,27.267913818359375,1,1.0,1.0,1.0,1.0,10.00
2024-10-11 20:42:21.718,1.1105052,0.32544392,0.52557063,-0.13573387,0.84759337,-0.04406345,0.34829593,0.3416237,1.0250882,0.06845526,0.4485007,0.4571484,0.7106118,-0.043904364,0.33265117,0.5857917,0.12128959,-0.4008273,-0.18394987,-0.14266826,781.28204,772.8205,856.63007,817.1429,707.5458,0.17742919921875,0.122802734375,0.98443603515625,-12.000274658203125,15.738677978515625,27.267913818359375,1,1.0,1.0,1.0,1.0,10.00
2024-10-11 20:42:21.719,1.1105052,0.32544392,0.52557063,-0.13573387,0.84759337,-0.04406345,0.34829593,0.3416237,1.0250882,0.06845526,0.4485007,0.4571484,0.7106118,-0.043904364,0.33265117,0.5857917,0.12128959,-0.4008273,-0.18394987,-0.14266826,786.9231,765.16486,844.1392,796.99634,882.01465,0.17742919921875,0.122802734375,0.98443603515625,-12.000274658203125,15.738677978515625,27.267913818359375,1,1.0,1.0,1.0,1.0,10.00
2024-10-11 20:42:21.720,1.1105052,0.32544392,0.52557063,-0.13573387,0.84759337,-0.04406345,0.34829593,0.3416237,1.0250882,0.06845526,0.4485007,0.4571484,0.7106118,-0.043904364,0.33265117,0.5857917,0.12128959,-0.4008273,-0.18394987,-0.14266826,784.90845,764.7619,840.9158,795.38464,932.7839,0.17742919921875,0.122802734375,0.98443603515625,-12.000274658203125,15.738677978515625,27.267913818359375,1,1.0,1.0,1.0,1.0,10.00
2024-10-11 20:42:21.720,1.1105052,0.32544392,0.52557063,-0.13573387,0.84759337,-0.04406345,0.34829593,0.3416237,1.0250882,0.06845526,0.4485007,0.4571484,0.7106118,-0.043904364,0.33265117,0.5857917,0.12128959,-0.4008273,-0.18394987,-0.14266826,788.93774,770.80585,843.3333,804.2491,667.25275,0.17742919921875,0.122802734375,0.98443603515625,-12.000274658203125,15.738677978515625,27.267913818359375,1,1.0,1.0,1.0,1.0,10.00
2024-10-11 20:42:21.721,1.1105052,0.32544392,0.52557063,-0.13573387,0.84759337,-0.04406345,0.34829593,0.3416237,1.0250882,0.06845526,0.4485007,0.4571484,0.7106118,-0.043904364,0.33265117,0.5857917,0.12128959,-0.4008273,-0.18394987,-0.14266826,803.8461,769.59705,847.3626,811.9048,737.76556,0.17742919921875,0.122802734375,0.98443603515625,-12.000274658203125,15.738677978515625,27.267913818359375,1,1.0,1.0,1.0,1.0,10.00
2024-10-11 20:42:21.722,1.1105052,0.32544392,0.52557063,-0.13573387,0.84759337,-0.04406345,0.34829593,0.3416237,1.0250882,0.06845526,0.4485007,0.4571484,0.7106118,-0.043904364,0.33265117,0.5857917,0.12128959,-0.4008273,-0.18394987,-0.14266826,808.68134,768.7912,853.8095,823.9927,967.4359,0.17742919921875,0.122802734375,0.98443603515625,-12.000274658203125,15.738677978515625,27.267913818359375,1,1.0,1.0,1.0,1.0,10.00
2024-10-11 20:42:21.723,1.1105052,0.32544392,0.52557063,-0.13573387,0.84759337,-0.04406345,0.34829593,0.3416237,1.0250882,0.06845526,0.4485007,0.4571484,0.7106118,-0.043904364,0.33265117,0.5857917,0.12128959,-0.4008273,-0.18394987,-0.14266826,801.02563,768.3883,857.03296,821.5751,869.12085,0.17742919921875,0.122802734375,0.98443603515625,-12.000274658203125,15.738677978515625,27.267913818359375,1,1.0,1.0,1.0,1.0,10.00
2024-10-11 20:42:21.724,1.1105052,0.32544392,0.52557063,-0.13573387,0.84759337,-0.04406345,0.34829593,0.3416237,1.0250882,0.06845526,0.4485007,0.4571484,0.7106118,-0.043904364,0.33265117,0.5857917,0.12128959,-0.4008273,-0.18394987,-0.14266826,790.9524,765.9707,849.7802,827.2161,696.6667,0.17742919921875,0.122802734375,0.98443603515625,-12.000274658203125,15.738677978515625,27.267913818359375,1,1.0,1.0,1.0,1.0,10.00
2024-10-11 20:42:21.725,1.1105052,0.32544392,0.52557063,-0.13573387,0.84759337,-0.04406345,0.34829593,0.3416237,1.0250882,0.06845526,0.4485007,0.4571484,0.7106118,-0.043904364,0.33265117,0.5857917,0.12128959,-0.4008273,-0.18394987,-0.14266826,778.46155,765.9707,855.82416,841.31866,732.52747,0.17742919921875,0.122802734375,0.98443603515625,-12.000274658203125,15.738677978515625,27.267913818359375,1,1.0,1.0,1.0,1.0,10.00
2024-10-11 20:42:21.725,1.1105052,0.32544392,0.52557063,-0.13573387,0.84759337,-0.04406345,0.34829593,0.3416237,1.0250882,0.06845526,0.4485007,0.4571484,0.7106118,-0.043904364,0.33265117,0.5857917,0.12128959,-0.4008273,-0.18394987,-0.14266826,786.52014,765.56775,857.8388,833.2601,810.293,0.17742919921875,0.122802734375,0.98443603515625,-12.000274658203125,15.738677978515625,27.267913818359375,1,1.0,1.0,1.0,1.0,10.00
2024-10-11 20:42:21.758,1.1105052,0.32544392,0.52557063,-0.13573387,0.84759337,-0.04406345,0.34829593,0.3416237,1.0250882,0.06845526,0.4485007,0.4571484,0.7106118,-0.043904364,0.33265117,0.5857917,0.12128959,-0.4008273,-0.18394987,-0.14266826,798.20514,770.40295,849.3773,819.9634,690.6227,0.1341552734375,0.08038330078125,0.98876953125,-12.7105712890625,16.860198974609375,33.114776611328125,1,1.0,1.0,1.0,1.0,10.00
2024-10-11 20:42:21.759,1.1105052,0.32544392,0.52557063,-0.13573387,0.84759337,-0.04406345,0.34829593,0.3416237,1.0250882,0.06845526,0.4485007,0.4571484,0.7106118,-0.043904364,0.33265117,0.5857917,0.12128959,-0.4008273,-0.18394987,-0.14266826,817.5458,776.04395,853.00366,815.5311,533.47986,0.1341552734375,0.08038330078125,0.98876953125,-12.7105712890625,16.860198974609375,33.114776611328125,1,1.0,1.0,1.0,1.0,10.00
2024-10-11 20:42:21.760,1.1105052,0.32544392,0.52557063,-0.13573387,0.84759337,-0.04406345,0.34829593,0.3416237,1.0250882,0.06845526,0.4485007,0.4571484,0.7106118,-0.043904364,0.33265117,0.5857917,0.12128959,-0.4008273,-0.18394987,-0.14266826,829.2308,774.83514,853.00366,821.978,651.13556,0.1341552734375,0.08038330078125,0.98876953125,-12.7105712890625,16.860198974609375,33.114776611328125,1,1.0,1.0,1.0,1.0,10.00
2024-10-11 20:42:21.761,1.1105052,0.32544392,0.52557063,-0.13573387,0.84759337,-0.04406345,0.34829593,0.3416237,1.0250882,0.06845526,0.4485007,0.4571484,0.7106118,-0.043904364,0.33265117,0.5857917,0.12128959,-0.4008273,-0.18394987,-0.14266826,804.65204,774.83514,857.8388,836.4835,851.79486,0.1341552734375,0.08038330078125,0.98876953125,-12.7105712890625,16.860198974609375,33.114776611328125,1,1.0,1.0,1.0,1.0,10.00
2024-10-11 20:42:21.762,1.1105052,0.32544392,0.52557063,-0.13573387,0.84759337,-0.04406345,0.34829593,0.3416237,1.0250882,0.06845526,0.4485007,0.4571484,0.7106118,-0.043904364,0.33265117,0.5857917,0.12128959,-0.4008273,-0.18394987,-0.14266826,799.81683,784.5055,855.82416,829.6337,649.92676,0.1341552734375,0.08038330078125,0.98876953125,-12.7105712890625,16.860198974609375,33.114776611328125,1,1.0,1.0,1.0,1.0,10.00
2024-10-11 20:42:21.763,1.1105052,0.32544392,0.52557063,-0.13573387,0.84759337,-0.04406345,0.34829593,0.3416237,1.0250882,0.06845526,0.4485007,0.4571484,0.7106118,-0.043904364,0.33265117,0.5857917,0.12128959,-0.4008273,-0.18394987,-0.14266826,816.7399,786.52014,846.9597,808.68134,594.3223,0.1341552734375,0.08038330078125,0.98876953125,-12.7105712890625,16.860198974609375,33.114776611328125,1,1.0,1.0,1.0,1.0,10.00
2024-10-11 20:42:21.764,1.1105052,0.32544392,0.52557063,-0.13573387,0.84759337,-0.04406345,0.34829593,0.3416237,1.0250882,0.06845526,0.4485007,0.4571484,0.7106118,-0.043904364,0.33265117,0.5857917,0.12128959,-0.4008273,-0.18394987,-0.14266826,833.2601,778.46155,842.1245,809.0842,788.5348,0.1341552734375,0.08038330078125,0.98876953125,-12.7105712890625,16.860198974609375,33.114776611328125,1,1.0,1.0,1.0,1.0,10.00
2024-10-11 20:42:21.765,1.1372807,0.33071885,0.60434765,-0.16352515,0.8733963,-0.045790352,0.36975598,0.37692225,1.0250882,0.051542882,0.45225012,0.4365562,0.7089513,-0.038276747,0.33349267,0.57890105,0.13588348,-0.4132175,-0.16176227,-0.12736939,838.0952,773.6264,832.0513,819.9634,1207.5824,0.1341552734375,0.08038330078125,0.98876953125,-12.7105712890625,16.860198974609375,33.114776611328125,1,1.0,1.0,1.0,1.0,10.00
2024-10-11 20:42:21.772,1.1372807,0.33071885,0.60434765,-0.16352515,0.8733963,-0.045790352,0.36975598,0.37692225,1.0250882,0.051542882,0.45225012,0.4365562,0.7089513,-0.038276747,0.33349267,0.57890105,0.13588348,-0.4132175,-0.16176227,-0.12736939,814.3223,777.25275,832.8571,823.9927,1345.3846,0.1341552734375,0.08038330078125,0.98876953125,-12.7105712890625,16.860198974609375,33.114776611328125,1,1.0,1.0,1.0,1.0,10.00
2024-10-11 20:42:21.773,1.1372807,0.33071885,0.60434765,-0.16352515,0.8733963,-0.045790352,0.36975598,0.37692225,1.0250882,0.051542882,0.45225012,0.4365562,0.7089513,-0.038276747,0.33349267,0.57890105,0.13588348,-0.4132175,-0.16176227,-0.12736939,777.25275,776.8498,838.0952,823.1868,1117.7289,0.1341552734375,0.08038330078125,0.98876953125,-12.7105712890625,16.860198974609375,33.114776611328125,1,1.0,1.0,1.0,1.0,10.00
2024-10-11 20:42:21.774,1.1372807,0.33071885,0.60434765,-0.16352515,0.8733963,-0.045790352,0.36975598,0.37692225,1.0250882,0.051542882,0.45225012,0.4365562,0.7089513,-0.038276747,0.33349267,0.57890105,0.13588348,-0.4132175,-0.16176227,-0.12736939,769.59705,776.04395,830.0366,823.9927,882.4176,0.1341552734375,0.08038330078125,0.98876953125,-12.7105712890625,16.860198974609375,33.114776611328125,1,1.0,1.0,1.0,1.0,10.00
2024-10-11 20:42:21.774,1.1372807,0.33071885,0.60434765,-0.16352515,0.8733963,-0.045790352,0.36975598,0.37692225,1.0250882,0.051542882,0.45225012,0.4365562,0.7089513,-0.038276747,0.33349267,0.57890105,0.13588348,-0.4132175,-0.16176227,-0.12736939,769.59705,779.2674,835.2747,817.5458,770.0,0.1341552734375,0.08038330078125,0.98876953125,-12.7105712890625,16.860198974609375,33.114776611328125,1,1.0,1.0,1.0,1.0,10.00
2024-10-11 20:42:21.776,1.1372807,0.33071885,0.60434765,-0.16352515,0.8733963,-0.045790352,0.36975598,0.37692225,1.0250882,0.051542882,0.45225012,0.4365562,0.7089513,-0.038276747,0.33349267,0.57890105,0.13588348,-0.4132175,-0.16176227,-0.12736939,756.30035,778.86444,847.76556,820.7692,595.5311,0.108154296875,0.06207275390625,0.97900390625,-11.222686767578125,17.323760986328125,32.18017578125,1,1.0,1.0,1.0,1.0,10.00
2024-10-11 20:42:21.777,1.1372807,0.33071885,0.60434765,-0.16352515,0.8733963,-0.045790352,0.36975598,0.37692225,1.0250882,0.051542882,0.45225012,0.4365562,0.7089513,-0.038276747,0.33349267,0.57890105,0.13588348,-0.4132175,-0.16176227,-0.12736939,761.9414,778.86444,842.1245,824.7985,490.76923,0.108154296875,0.06207275390625,0.97900390625,-11.222686767578125,17.323760986328125,32.18017578125,1,1.0,1.0,1.0,1.0,10.00
2024-10-11 20:42:21.778,1.1372807,0.33071885,0.60434765,-0.16352515,0.8733963,-0.045790352,0.36975598,0.37692225,1.0250882,0.051542882,0.45225012,0.4365562,0.7089513,-0.038276747,0.33349267,0.57890105,0.13588348,-0.4132175,-0.16176227,-0.12736939,775.2381,782.8938,837.6923,818.3516,661.2088,0.108154296875,0.06207275390625,0.97900390625,-11.222686767578125,17.323760986328125,32.18017578125,1,1.0,1.0,1.0,1.0,10.00
2024-10-11 20:42:21.779,1.1372807,0.33071885,0.60434765,-0.16352515,0.8733963,-0.045790352,0.36975598,0.37692225,1.0250882,0.051542882,0.45225012,0.4365562,0.7089513,-0.038276747,0.33349267,0.57890105,0.13588348,-0.4132175,-0.16176227,-0.12736939,772.01465,784.5055,835.2747,833.2601,1074.6154,0.108154296875,0.06207275390625,0.97900390625,-11.222686767578125,17.323760986328125,32.18017578125,1,1.0,1.0,1.0,1.0,10.00
2024-10-11 20:42:21.780,1.1372807,0.33071885,0.60434765,-0.16352515,0.8733963,-0.045790352,0.36975598,0.37692225,1.0250882,0.051542882,0.45225012,0.4365562,0.7089513,-0.038276747,0.33349267,0.57890105,0.13588348,-0.4132175,-0.16176227,-0.12736939,772.8205,784.90845,830.84247,846.1539,1146.7399,0.108154296875,0.06207275390625,0.97900390625,-11.222686767578125,17.323760986328125,32.18017578125,1,1.0,1.0,1.0,1.0,10.00
2024-10-11 20:42:21.781,1.1372807,0.33071885,0.60434765,-0.16352515,0.8733963,-0.045790352,0.36975598,0.37692225,1.0250882,0.051542882,0.45225012,0.4365562,0.7089513,-0.038276747,0.33349267,0.57890105,0.13588348,-0.4132175,-0.16176227,-0.12736939,784.10254,783.69965,826.4103,839.304,850.18317,0.108154296875,0.06207275390625,0.97900390625,-11.222686767578125,17.323760986328125,32.18017578125,1,1.0,1.0,1.0,1.0,10.00
2024-10-11 20:42:21.781,1.1372807,0.33071885,0.60434765,-0.16352515,0.8733963,-0.045790352,0.36975598,0.37692225,1.0250882,0.051542882,0.45225012,0.4365562,0.7089513,-0.038276747,0.33349267,0.57890105,0.13588348,-0.4132175,-0.16176227,-0.12736939,793.7729,783.69965,832.0513,829.2308,837.6923,0.108154296875,0.06207275390625,0.97900390625,-11.222686767578125,17.323760986328125,32.18017578125,1,1.0,1.0,1.0,1.0,10.00
2024-10-11 20:42:21.782,1.1372807,0.33071885,0.60434765,-0.16352515,0.8733963,-0.045790352,0.36975598,0.37692225,1.0250882,0.051542882,0.45225012,0.4365562,0.7089513,-0.038276747,0.33349267,0.57890105,0.13588348,-0.4132175,-0.16176227,-0.12736939,807.0696,782.8938,839.707,840.5128,724.87177,0.108154296875,0.06207275390625,0.97900390625,-11.222686767578125,17.323760986328125,32.18017578125,1,1.0,1.0,1.0,1.0,10.00
2024-10-11 20:42:21.783,1.1372807,0.33071885,0.60434765,-0.16352515,0.8733963,-0.045790352,0.36975598,0.37692225,1.0250882,0.051542882,0.45225012,0.4365562,0.7089513,-0.038276747,0.33349267,0.57890105,0.13588348,-0.4132175,-0.16176227,-0.12736939,799.41394,781.685,832.4542,840.5128,502.45422,0.108154296875,0.06207275390625,0.97900390625,-11.222686767578125,17.323760986328125,32.18017578125,1,1.0,1.0,1.0,1.0,10.00
2024-10-11 20:42:21.784,1.1372807,0.33071885,0.60434765,-0.16352515,0.8733963,-0.045790352,0.36975598,0.37692225,1.0250882,0.051542882,0.45225012,0.4365562,0.7089513,-0.038276747,0.33349267,0.57890105,0.13588348,-0.4132175,-0.16176227,-0.12736939,786.9231,787.326,819.5604,828.022,600.3663,0.108154296875,0.06207275390625,0.97900390625,-11.222686767578125,17.323760986328125,32.18017578125,1,1.0,1.0,1.0,1.0,10.00
2024-10-11 20:42:21.785,1.1372807,0.33071885,0.60434765,-0.16352515,0.8733963,-0.045790352,0.36975598,0.37692225,1.0250882,0.051542882,0.45225012,0.4365562,0.7089513,-0.038276747,0.33349267,0.57890105,0.13588348,-0.4132175,-0.16176227,-0.12736939,795.38464,789.34064,821.5751,819.9634,632.6007,0.108154296875,0.06207275390625,0.97900390625,-11.222686767578125,17.323760986328125,32.18017578125,1,1.0,1.0,1.0,1.0,10.00
2024-10-11 20:42:21.785,1.1372807,0.33071885,0.60434765,-0.16352515,0.8733963,-0.045790352,0.36975598,0.37692225,1.0250882,0.051542882,0.45225012,0.4365562,0.7089513,-0.038276747,0.33349267,0.57890105,0.13588348,-0.4132175,-0.16176227,-0.12736939,796.99634,790.54944,830.0366,780.4762,491.5751,0.108154296875,0.06207275390625,0.97900390625,-11.222686767578125,17.323760986328125,32.18017578125,1,1.0,1.0,1.0,1.0,10.00
2024-10-11 20:42:21.823,1.1372807,0.33071885,0.60434765,-0.16352515,0.8733963,-0.045790352,0.36975598,0.37692225,1.0250882,0.051542882,0.45225012,0.4365562,0.7089513,-0.038276747,0.33349267,0.57890105,0.13588348,-0.4132175,-0.16176227,-0.12736939,800.2198,788.1319,831.6484,774.0293,462.16116,0.09130859375,0.0341796875,1.0040283203125,-8.61328125,20.135040283203125,34.729766845703125,1,1.0,1.0,1.0,1.0,10.00
2024-10-11 20:42:21.824,1.1372807,0.33071885,0.60434765,-0.16352515,0.8733963,-0.045790352,0.36975598,0.37692225,1.0250882,0.051542882,0.45225012,0.4365562,0.7089513,-0.038276747,0.33349267,0.57890105,0.13588348,-0.4132175,-0.16176227,-0.12736939,800.6227,789.34064,830.4396,788.5348,512.9304,0.09130859375,0.0341796875,1.0040283203125,-8.61328125,20.135040283203125,34.729766845703125,1,1.0,1.0,1.0,1.0,10.00
2024-10-11 20:42:21.826,1.1372807,0.33071885,0.60434765,-0.16352515,0.8733963,-0.045790352,0.36975598,0.37692225,1.0250882,0.051542882,0.45225012,0.4365562,0.7089513,-0.038276747,0.33349267,0.57890105,0.13588348,-0.4132175,-0.16176227,-0.12736939,794.9817,791.3553,827.619,790.54944,680.9524,0.09130859375,0.0341796875,1.0040283203125,-8.61328125,20.135040283203125,34.729766845703125,1,1.0,1.0,1.0,1.0,10.00
2024-10-11 20:42:21.827,1.1372807,0.33071885,0.60434765,-0.16352515,0.8733963,-0.045790352,0.36975598,0.37692225,1.0250882,0.051542882,0.45225012,0.4365562,0.7089513,-0.038276747,0.33349267,0.57890105,0.13588348,-0.4132175,-0.16176227,-0.12736939,794.57874,790.9524,823.9927,790.9524,654.35895,0.09130859375,0.0341796875,1.0040283203125,-8.61328125,20.135040283203125,34.729766845703125,1,1.0,1.0,1.0,1.0,10.00
2024-10-11 20:42:21.828,1.1372807,0.33071885,0.60434765,-0.16352515,0.8733963,-0.045790352,0.36975598,0.37692225,1.0250882,0.051542882,0.45225012,0.4365562,0.7089513,-0.038276747,0.33349267,0.57890105,0.13588348,-0.4132175,-0.16176227,-0.12736939,800.2198,789.7436,817.1429,786.52014,539.5238,0.09130859375,0.0341796875,1.0040283203125,-8.61328125,20.135040283203125,34.729766845703125,1,1.0,1.0,1.0,1.0,10.00
2024-10-11 20:42:21.829,1.1372807,0.33071885,0.60434765,-0.16352515,0.8733963,-0.045790352,0.36975598,0.37692225,1.0250882,0.051542882,0.45225012,0.4365562,0.7089513,-0.038276747,0.33349267,0.57890105,0.13588348,-0.4132175,-0.16176227,-0.12736939,812.3077,787.72894,813.1135,801.02563,621.31866,0.09130859375,0.0341796875,1.0040283203125,-8.61328125,20.135040283203125,34.729766845703125,1,1.0,1.0,1.0,1.0,10.00
2024-10-11 20:42:21.830,1.1372807,0.33071885,0.60434765,-0.16352515,0.8733963,-0.045790352,0.36975598,0.37692225,1.0250882,0.051542882,0.45225012,0.4365562,0.7089513,-0.038276747,0.33349267,0.57890105,0.13588348,-0.4132175,-0.16176227,-0.12736939,802.23444,785.7143,821.1722,818.7546,1012.1612,0.09130859375,0.0341796875,1.0040283203125,-8.61328125,20.135040283203125,34.729766845703125,1,1.0,1.0,1.0,1.0,10.00
2024-10-11 20:42:21.831,1.1372807,0.33071885,0.60434765,-0.16352515,0.8733963,-0.045790352,0.36975598,0.37692225,1.0250882,0.051542882,0.45225012,0.4365562,0.7089513,-0.038276747,0.33349267,0.57890105,0.13588348,-0.4132175,-0.16176227,-0.12736939,801.4286,787.72894,824.7985,812.3077,1012.1612,0.09130859375,0.0341796875,1.0040283203125,-8.61328125,20.135040283203125,34.729766845703125,1,1.0,1.0,1.0,1.0,10.00
2024-10-11 20:42:21.832,1.1372807,0.33071885,0.60434765,-0.16352515,0.8733963,-0.045790352,0.36975598,0.37692225,1.0250882,0.051542882,0.45225012,0.4365562,0.7089513,-0.038276747,0.33349267,0.57890105,0.13588348,-0.4132175,-0.16176227,-0.12736939,806.6667,793.7729,823.1868,805.4579,618.49817,0.09130859375,0.0341796875,1.0040283203125,-8.61328125,20.135040283203125,34.729766845703125,1,1.0,1.0,1.0,1.0,10.00
2024-10-11 20:42:21.834,1.175382,0.39074212,0.61871994,-0.1983719,0.9068505,-0.04095926,0.3801857,0.40286896,1.0250882,0.041606408,0.45225012,0.37475663,0.7128196,-0.031230824,0.329629,0.57639706,0.14484951,-0.43093464,-0.15002422,-0.10305572,796.99634,791.75824,819.9634,815.12823,529.85345,0.09130859375,0.0341796875,1.0040283203125,-8.61328125,20.135040283203125,34.729766845703125,1,1.0,1.0,1.0,1.0,10.00
2024-10-11 20:42:21.840,1.175382,0.39074212,0.61871994,-0.1983719,0.9068505,-0.04095926,0.3801857,0.40286896,1.0250882,0.041606408,0.45225012,0.37475663,0.7128196,-0.031230824,0.329629,0.57639706,0.14484951,-0.43093464,-0.15002422,-0.10305572,803.44324,794.57874,809.4872,815.12823,480.29303,0.09130859375,0.0341796875,1.0040283203125,-8.61328125,20.135040283203125,34.729766845703125,1,1.0,1.0,1.0,1.0,10.00
2024-10-11 20:42:21.841,1.175382,0.39074212,0.61871994,-0.1983719,0.9068505,-0.04095926,0.3801857,0.40286896,1.0250882,0.041606408,0.45225012,0.37475663,0.7128196,-0.031230824,0.329629,0.57639706,0.14484951,-0.43093464,-0.15002422,-0.10305572,806.6667,793.7729,801.4286,805.4579,545.9707,0.09130859375,0.0341796875,1.0040283203125,-8.61328125,20.135040283203125,34.729766845703125,1,1.0,1.0,1.0,1.0,10.00
2024-10-11 20:42:21.871,1.175382,0.39074212,0.61871994,-0.1983719,0.9068505,-0.04095926,0.3801857,0.40286896,1.0250882,0.041606408,0.45225012,0.37475663,0.7128196,-0.031230824,0.329629,0.57639706,0.14484951,-0.43093464,-0.15002422,-0.10305572,798.20514,787.72894,802.23444,799.011,743.4066,0.06103515625,0.02105712890625,0.9970703125,-9.01702880859375,20.030364990234375,37.6531982421875,1,1.0,1.0,1.0,1.0,10.00
2024-10-11 20:42:21.872,1.175382,0.39074212,0.61871994,-0.1983719,0.9068505,-0.04095926,0.3801857,0.40286896,1.0250882,0.041606408,0.45225012,0.37475663,0.7128196,-0.031230824,0.329629,0.57639706,0.14484951,-0.43093464,-0.15002422,-0.10305572,806.26373,792.1612,808.68134,803.0403,770.0,0.06103515625,0.02105712890625,0.9970703125,-9.01702880859375,20.030364990234375,37.6531982421875,1,1.0,1.0,1.0,1.0,10.00
2024-10-11 20:42:21.873,1.175382,0.39074212,0.61871994,-0.1983719,0.9068505,-0.04095926,0.3801857,0.40286896,1.0250882,0.041606408,0.45225012,0.37475663,0.7128196,-0.031230824,0.329629,0.57639706,0.14484951,-0.43093464,-0.15002422,-0.10305572,813.1135,799.011,810.293,803.8461,765.9707,0.06103515625,0.02105712890625,0.9970703125,-9.01702880859375,20.030364990234375,37.6531982421875,1,1.0,1.0,1.0,1.0,10.00
2024-10-11 20:42:21.874,1.175382,0.39074212,0.61871994,-0.1983719,0.9068505,-0.04095926,0.3801857,0.40286896,1.0250882,0.041606408,0.45225012,0.37475663,0.7128196,-0.031230824,0.329629,0.57639706,0.14484951,-0.43093464,-0.15002422,-0.10305572,807.8755,798.20514,803.8461,797.8022,693.8461,0.06103515625,0.02105712890625,0.9970703125,-9.01702880859375,20.030364990234375,37.6531982421875,1,1.0,1.0,1.0,1.0,10.00
2024-10-11 20:42:21.874,1.175382,0.39074212,0.61871994,-0.1983719,0.9068505,-0.04095926,0.3801857,0.40286896,1.0250882,0.041606408,0.45225012,0.37475663,0.7128196,-0.031230824,0.329629,0.57639706,0.14484951,-0.43093464,-0.15002422,-0.10305572,807.0696,794.9817,807.8755,805.8608,749.0476,0.06103515625,0.02105712890625,0.9970703125,-9.01702880859375,20.030364990234375,37.6531982421875,1,1.0,1.0,1.0,1.0,10.00
2024-10-11 20:42:21.875,1.175382,0.39074212,0.61871994,-0.1983719,0.9068505,-0.04095926,0.3801857,0.40286896,1.0250882,0.041606408,0.45225012,0.37475663,0.7128196,-0.031230824,0.329629,0.57639706,0.14484951,-0.43093464,-0.15002422,-0.10305572,807.47253,788.93774,803.8461,811.0989,1056.0806,0.06103515625,0.02105712890625,0.9970703125,-9.01702880859375,20.030364990234375,37.6531982421875,1,1.0,1.0,1.0,1.0,10.00
2024-10-11 20:42:21.876,1.175382,0.39074212,0.61871994,-0.1983719,0.9068505,-0.04095926,0.3801857,0.40286896,1.0250882,0.041606408,0.45225012,0.37475663,0.7128196,-0.031230824,0.329629,0.57639706,0.14484951,-0.43093464,-0.15002422,-0.10305572,796.5934,786.9231,795.78754,792.96704,990.80585,0.06103515625,0.02105712890625,0.9970703125,-9.01702880859375,20.030364990234375,37.6531982421875,1,1.0,1.0,1.0,1.0,10.00
2024-10-11 20:42:21.877,1.175382,0.39074212,0.61871994,-0.1983719,0.9068505,-0.04095926,0.3801857,0.40286896,1.0250882,0.041606408,0.45225012,0.37475663,0.7128196,-0.031230824,0.329629,0.57639706,0.14484951,-0.43093464,-0.15002422,-0.10305572,802.6374,793.7729,793.36993,785.31134,728.49817,0.06103515625,0.02105712890625,0.9970703125,-9.01702880859375,20.030364990234375,37.6531982421875,1,1.0,1.0,1.0,1.0,10.00
2024-10-11 20:42:21.878,1.175382,0.39074212,0.61871994,-0.1983719,0.9068505,-0.04095926,0.3801857,0.40286896,1.0250882,0.041606408,0.45225012,0.37475663,0.7128196,-0.031230824,0.329629,0.57639706,0.14484951,-0.43093464,-0.15002422,-0.10305572,801.8315,794.9817,792.1612,799.41394,636.63007,0.06103515625,0.02105712890625,0.9970703125,-9.01702880859375,20.030364990234375,37.6531982421875,1,1.0,1.0,1.0,1.0,10.00
2024-10-11 20:42:21.879,1.175382,0.39074212,0.61871994,-0.1983719,0.9068505,-0.04095926,0.3801857,0.40286896,1.0250882,0.041606408,0.45225012,0.37475663,0.7128196,-0.031230824,0.329629,0.57639706,0.14484951,-0.43093464,-0.15002422,-0.10305572,793.7729,791.75824,795.78754,814.7253,772.4176,0.06103515625,0.02105712890625,0.9970703125,-9.01702880859375,20.030364990234375,37.6531982421875,1,1.0,1.0,1.0,1.0,10.00
2024-10-11 20:42:21.880,1.175382,0.39074212,0.61871994,-0.1983719,0.9068505,-0.04095926,0.3801857,0.40286896,1.0250882,0.041606408,0.45225012,0.37475663,0.7128196,-0.031230824,0.329629,0.57639706,0.14484951,-0.43093464,-0.15002422,-0.10305572,807.0696,796.5934,799.81683,805.8608,708.7546,0.06103515625,0.02105712890625,0.9970703125,-9.01702880859375,20.030364990234375,37.6531982421875,1,1.0,1.0,1.0,1.0,10.00
2024-10-11 20:42:21.880,1.175382,0.39074212,0.61871994,-0.1983719,0.9068505,-0.04095926,0.3801857,0.40286896,1.0250882,0.041606408,0.45225012,0.37475663,0.7128196,-0.031230824,0.329629,0.57639706,0.14484951,-0.43093464,-0.15002422,-0.10305572,817.1429,801.02563,800.2198,789.7436,575.38464,0.06103515625,0.02105712890625,0.9970703125,-9.01702880859375,20.030364990234375,37.6531982421875,1,1.0,1.0,1.0,1.0,10.00
2024-10-11 20:42:21.910,1.175382,0.39074212,0.61871994,-0.1983719,0.9068505,-0.04095926,0.3801857,0.40286896,1.0250882,0.041606408,0.45225012,0.37475663,0.7128196,-0.031230824,0.329629,0.57639706,0.14484951,-0.43093464,-0.15002422,-0.10305572,797.3993,792.5641,800.6227,788.1319,684.57874,0.06103515625,0.02105712890625,0.9970703125,-9.01702880859375,20.030364990234375,37.6531982421875,1,1.0,1.0,1.0,1.0,10.00
2024-10-11 20:42:21.911,1.175382,0.39074212,0.61871994,-0.1983719,0.9068505,-0.04095926,0.3801857,0.40286896,1.0250882,0.041606408,0.45225012,0.37475663,0.7128196,-0.031230824,0.329629,0.57639706,0.14484951,-0.43093464,-0.15002422,-0.10305572,791.75824,788.93774,794.17584,795.38464,942.0513,0.06103515625,0.02105712890625,0.9970703125,-9.01702880859375,20.030364990234375,37.6531982421875,1,1.0,1.0,1.0,1.0,10.00
2024-10-11 20:42:21.912,1.175382,0.39074212,0.61871994,-0.1983719,0.9068505,-0.04095926,0.3801857,0.40286896,1.0250882,0.041606408,0.45225012,0.37475663,0.7128196,-0.031230824,0.329629,0.57639706,0.14484951,-0.43093464,-0.15002422,-0.10305572,796.99634,798.60803,797.3993,806.6667,909.41394,0.06103515625,0.02105712890625,0.9970703125,-9.01702880859375,20.030364990234375,37.6531982421875,1,1.0,1.0,1.0,1.0,10.00
2024-10-11 20:42:21.913,1.175382,0.39074212,0.61871994,-0.1983719,0.9068505,-0.04095926,0.3801857,0.40286896,1.0250882,0.041606408,0.45225012,0.37475663,0.7128196,-0.031230824,0.329629,0.57639706,0.14484951,-0.43093464,-0.15002422,-0.10305572,791.75824,799.011,801.02563,807.47253,771.6117,0.06103515625,0.02105712890625,0.9970703125,-9.01702880859375,20.030364990234375,37.6531982421875,1,1.0,1.0,1.0,1.0,10.00
2024-10-11 20:42:21.913,1.175382,0.39074212,0.61871994,-0.1983719,0.9068505,-0.04095926,0.3801857,0.40286896,1.0250882,0.041606408,0.45225012,0.37475663,0.7128196,-0.031230824,0.329629,0.57639706,0.14484951,-0.43093464,-0.15002422,-0.10305572,790.54944,789.34064,795.38464,802.6374,756.7033,0.06103515625,0.02105712890625,0.9970703125,-9.01702880859375,20.030364990234375,37.6531982421875,1,1.0,1.0,1.0,1.0,10.00
2024-10-11 20:42:21.914,1.175382,0.39074212,0.61871994,-0.1983719,0.9068505,-0.04095926,0.3801857,0.40286896,1.0250882,0.041606408,0.45225012,0.37475663,0.7128196,-0.031230824,0.329629,0.57639706,0.14484951,-0.43093464,-0.15002422,-0.10305572,795.38464,788.1319,792.5641,810.696,1131.0256,0.06103515625,0.02105712890625,0.9970703125,-9.01702880859375,20.030364990234375,37.6531982421875,1,1.0,1.0,1.0,1.0,10.00
2024-10-11 20:42:21.915,1.175382,0.39074212,0.61871994,-0.1983719,0.9068505,-0.04095926,0.3801857,0.40286896,1.0250882,0.041606408,0.45225012,0.37475663,0.7128196,-0.031230824,0.329629,0.57639706,0.14484951,-0.43093464,-0.15002422,-0.10305572,803.0403,799.41394,792.5641,815.12823,1114.5055,0.06103515625,0.02105712890625,0.9970703125,-9.01702880859375,20.030364990234375,37.6531982421875,1,1.0,1.0,1.0,1.0,10.00
2024-10-11 20:42:21.916,1.175382,0.39074212,0.61871994,-0.1983719,0.9068505,-0.04095926,0.3801857,0.40286896,1.0250882,0.041606408,0.45225012,0.37475663,0.7128196,-0.031230824,0.329629,0.57639706,0.14484951,-0.43093464,-0.15002422,-0.10305572,808.2784,803.44324,787.72894,812.3077,679.7436,0.06103515625,0.02105712890625,0.9970703125,-9.01702880859375,20.030364990234375,37.6531982421875,1,1.0,1.0,1.0,1.0,10.00
2024-10-11 20:42:21.916,1.175382,0.39074212,0.61871994,-0.1983719,0.9068505,-0.04095926,0.3801857,0.40286896,1.0250882,0.041606408,0.45225012,0.37475663,0.7128196,-0.031230824,0.329629,0.57639706,0.14484951,-0.43093464,-0.15002422,-0.10305572,798.20514,799.011,787.326,805.4579,693.0403,0.06103515625,0.02105712890625,0.9970703125,-9.01702880859375,20.030364990234375,37.6531982421875,1,1.0,1.0,1.0,1.0,10.00
2024-10-11 20:42:21.917,1.175382,0.39074212,0.61871994,-0.1983719,0.9068505,-0.04095926,0.3801857,0.40286896,1.0250882,0.041606408,0.45225012,0.37475663,0.7128196,-0.031230824,0.329629,0.57639706,0.14484951,-0.43093464,-0.15002422,-0.10305572,795.38464,798.20514,788.93774,798.20514,792.96704,0.06103515625,0.02105712890625,0.9970703125,-9.01702880859375,20.030364990234375,37.6531982421875,1,1.0,1.0,1.0,1.0,10.00
2024-10-11 20:42:21.918,1.175382,0.39074212,0.61871994,-0.1983719,0.9068505,-0.04095926,0.3801857,0.40286896,1.0250882,0.041606408,0.45225012,0.37475663,0.7128196,-0.031230824,0.329629,0.57639706,0.14484951,-0.43093464,-0.15002422,-0.10305572,799.81683,804.65204,785.31134,793.36993,685.78754,0.06103515625,0.02105712890625,0.9970703125,-9.01702880859375,20.030364990234375,37.6531982421875,1,1.0,1.0,1.0,1.0,10.00
2024-10-11 20:42:21.918,1.2003284,0.5238356,0.631981,-0.23045763,0.9376644,-0.016109416,0.39293393,0.4119951,1.0250882,0.06556336,0.45225012,0.31921697,0.7201877,-0.023688018,0.33330083,0.5855504,0.16615431,-0.45180112,-0.13587469,-0.079038866,798.60803,804.65204,783.69965,779.67035,613.2601,0.06103515625,0.02105712890625,0.9970703125,-9.01702880859375,20.030364990234375,37.6531982421875,1,1.0,1.0,1.0,1.0,10.00
2024-10-11 20:42:21.925,1.2003284,0.5238356,0.631981,-0.23045763,0.9376644,-0.016109416,0.39293393,0.4119951,1.0250882,0.06556336,0.45225012,0.31921697,0.7201877,-0.023688018,0.33330083,0.5855504,0.16615431,-0.45180112,-0.13587469,-0.079038866,803.8461,801.4286,789.34064,788.93774,666.8498,0.029296875,0.00445556640625,0.9990234375,-9.891815185546875,20.14251708984375,38.5205078125,1,1.0,1.0,1.0,1.0,10.00
2024-10-11 20:42:21.926,1.2003284,0.5238356,0.631981,-0.23045763,0.9376644,-0.016109416,0.39293393,0.4119951,1.0250882,0.06556336,0.45225012,0.31921697,0.7201877,-0.023688018,0.33330083,0.5855504,0.16615431,-0.45180112,-0.13587469,-0.079038866,801.02563,799.41394,794.57874,799.81683,726.8865,0.029296875,0.00445556640625,0.9990234375,-9.891815185546875,20.14251708984375,38.5205078125,1,1.0,1.0,1.0,1.0,10.00
2024-10-11 20:42:21.927,1.2003284,0.5238356,0.631981,-0.23045763,0.9376644,-0.016109416,0.39293393,0.4119951,1.0250882,0.06556336,0.45225012,0.31921697,0.7201877,-0.023688018,0.33330083,0.5855504,0.16615431,-0.45180112,-0.13587469,-0.079038866,799.81683,795.38464,799.011,801.8315,675.31134,0.029296875,0.00445556640625,0.9990234375,-9.891815185546875,20.14251708984375,38.5205078125,1,1.0,1.0,1.0,1.0,10.00
2024-10-11 20:42:21.927,1.2003284,0.5238356,0.631981,-0.23045763,0.9376644,-0.016109416,0.39293393,0.4119951,1.0250882,0.06556336,0.45225012,0.31921697,0.7201877,-0.023688018,0.33330083,0.5855504,0.16615431,-0.45180112,-0.13587469,-0.079038866,805.8608,796.5934,802.23444,795.38464,622.9304,0.029296875,0.00445556640625,0.9990234375,-9.891815185546875,20.14251708984375,38.5205078125,1,1.0,1.0,1.0,1.0,10.00
2024-10-11 20:42:21.928,1.2003284,0.5238356,0.631981,-0.23045763,0.9376644,-0.016109416,0.39293393,0.4119951,1.0250882,0.06556336,0.45225012,0.31921697,0.7201877,-0.023688018,0.33330083,0.5855504,0.16615431,-0.45180112,-0.13587469,-0.079038866,799.81683,802.23444,797.3993,784.10254,765.16486,0.029296875,0.00445556640625,0.9990234375,-9.891815185546875,20.14251708984375,38.5205078125,1,1.0,1.0,1.0,1.0,10.00
2024-10-11 20:42:21.929,1.2003284,0.5238356,0.631981,-0.23045763,0.9376644,-0.016109416,0.39293393,0.4119951,1.0250882,0.06556336,0.45225012,0.31921697,0.7201877,-0.023688018,0.33330083,0.5855504,0.16615431,-0.45180112,-0.13587469,-0.079038866,795.78754,801.02563,793.7729,799.81683,821.978,0.029296875,0.00445556640625,0.9990234375,-9.891815185546875,20.14251708984375,38.5205078125,1,1.0,1.0,1.0,1.0,10.00
2024-10-11 20:42:21.930,1.2003284,0.5238356,0.631981,-0.23045763,0.9376644,-0.016109416,0.39293393,0.4119951,1.0250882,0.06556336,0.45225012,0.31921697,0.7201877,-0.023688018,0.33330083,0.5855504,0.16615431,-0.45180112,-0.13587469,-0.079038866,790.14655,799.011,796.99634,815.5311,808.68134,0.029296875,0.00445556640625,0.9990234375,-9.891815185546875,20.14251708984375,38.5205078125,1,1.0,1.0,1.0,1.0,10.00
2024-10-11 20:42:21.931,1.2003284,0.5238356,0.631981,-0.23045763,0.9376644,-0.016109416,0.39293393,0.4119951,1.0250882,0.06556336,0.45225012,0.31921697,0.7201877,-0.023688018,0.33330083,0.5855504,0.16615431,-0.45180112,-0.13587469,-0.079038866,795.38464,800.6227,788.93774,801.8315,923.5165,0.029296875,0.00445556640625,0.9990234375,-9.891815185546875,20.14251708984375,38.5205078125,1,1.0,1.0,1.0,1.0,10.00
2024-10-11 20:42:21.932,1.2003284,0.5238356,0.631981,-0.23045763,0.9376644,-0.016109416,0.39293393,0.4119951,1.0250882,0.06556336,0.45225012,0.31921697,0.7201877,-0.023688018,0.33330083,0.5855504,0.16615431,-0.45180112,-0.13587469,-0.079038866,804.2491,797.8022,789.34064,786.52014,1018.20514,0.029296875,0.00445556640625,0.9990234375,-9.891815185546875,20.14251708984375,38.5205078125,1,1.0,1.0,1.0,1.0,10.00
2024-10-11 20:42:21.932,1.2003284,0.5238356,0.631981,-0.23045763,0.9376644,-0.016109416,0.39293393,0.4119951,1.0250882,0.06556336,0.45225012,0.31921697,0.7201877,-0.023688018,0.33330083,0.5855504,0.16615431,-0.45180112,-0.13587469,-0.079038866,807.8755,795.78754,794.17584,790.54944,772.01465,0.029296875,0.00445556640625,0.9990234375,-9.891815185546875,20.14251708984375,38.5205078125,1,1.0,1.0,1.0,1.0,10.00
2024-10-11 20:42:21.933,1.2003284,0.5238356,0.631981,-0.23045763,0.9376644,-0.016109416,0.39293393,0.4119951,1.0250882,0.06556336,0.45225012,0.31921697,0.7201877,-0.023688018,0.33330083,0.5855504,0.16615431,-0.45180112,-0.13587469,-0.079038866,821.978,792.1612,794.9817,812.71063,589.4872,0.029296875,0.00445556640625,0.9990234375,-9.891815185546875,20.14251708984375,38.5205078125,1,1.0,1.0,1.0,1.0,10.00
2024-10-11 20:42:21.934,1.2003284,0.5238356,0.631981,-0.23045763,0.9376644,-0.016109416,0.39293393,0.4119951,1.0250882,0.06556336,0.45225012,0.31921697,0.7201877,-0.023688018,0.33330083,0.5855504,0.16615431,-0.45180112,-0.13587469,-0.079038866,824.7985,797.3993,798.60803,821.5751,684.9817,0.029296875,0.00445556640625,0.9990234375,-9.891815185546875,20.14251708984375,38.5205078125,1,1.0,1.0,1.0,1.0,10.00
2024-10-11 20:42:22.003,1.2003284,0.5238356,0.631981,-0.23045763,0.9376644,-0.016109416,0.39293393,0.4119951,1.0250882,0.06556336,0.45225012,0.31921697,0.7201877,-0.023688018,0.33330083,0.5855504,0.16615431,-0.45180112,-0.13587469,-0.079038866,801.02563,803.8461,790.14655,807.0696,865.89746,0.01141357421875,-0.01434326171875,0.997314453125,-10.759124755859375,19.3499755859375,39.440155029296875,1,1.0,1.0,1.0,1.0,10.00
2024-10-11 20:42:22.004,1.2003284,0.5238356,0.631981,-0.23045763,0.9376644,-0.016109416,0.39293393,0.4119951,1.0250882,0.06556336,0.45225012,0.31921697,0.7201877,-0.023688018,0.33330083,0.5855504,0.16615431,-0.45180112,-0.13587469,-0.079038866,796.1905,798.60803,802.23444,825.6044,736.55676,0.01141357421875,-0.01434326171875,0.997314453125,-10.759124755859375,19.3499755859375,39.440155029296875,1,1.0,1.0,1.0,1.0,10.00
2024-10-11 20:42:22.005,1.2003284,0.5238356,0.631981,-0.23045763,0.9376644,-0.016109416,0.39293393,0.4119951,1.0250882,0.06556336,0.45225012,0.31921697,0.7201877,-0.023688018,0.33330083,0.5855504,0.16615431,-0.45180112,-0.13587469,-0.079038866,805.4579,799.81683,807.47253,825.2015,582.23444,0.01141357421875,-0.01434326171875,0.997314453125,-10.759124755859375,19.3499755859375,39.440155029296875,1,1.0,1.0,1.0,1.0,10.00
2024-10-11 20:42:22.005,1.2003284,0.5238356,0.631981,-0.23045763,0.9376644,-0.016109416,0.39293393,0.4119951,1.0250882,0.06556336,0.45225012,0.31921697,0.7201877,-0.023688018,0.33330083,0.5855504,0.16615431,-0.45180112,-0.13587469,-0.079038866,807.0696,803.8461,806.6667,808.68134,643.0769,0.01141357421875,-0.01434326171875,0.997314453125,-10.759124755859375,19.3499755859375,39.440155029296875,1,1.0,1.0,1.0,1.0,10.00
2024-10-11 20:42:22.006,1.2003284,0.5238356,0.631981,-0.23045763,0.9376644,-0.016109416,0.39293393,0.4119951,1.0250882,0.06556336,0.45225012,0.31921697,0.7201877,-0.023688018,0.33330083,0.5855504,0.16615431,-0.45180112,-0.13587469,-0.079038866,805.8608,803.44324,813.91943,799.41394,641.8681,0.01141357421875,-0.01434326171875,0.997314453125,-10.759124755859375,19.3499755859375,39.440155029296875,1,1.0,1.0,1.0,1.0,10.00
2024-10-11 20:42:22.007,1.2003284,0.5238356,0.631981,-0.23045763,0.9376644,-0.016109416,0.39293393,0.4119951,1.0250882,0.06556336,0.45225012,0.31921697,0.7201877,-0.023688018,0.33330083,0.5855504,0.16615431,-0.45180112,-0.13587469,-0.079038866,797.3993,801.02563,809.89014,788.93774,603.1868,0.01141357421875,-0.01434326171875,0.997314453125,-10.759124755859375,19.3499755859375,39.440155029296875,1,1.0,1.0,1.0,1.0,10.00
2024-10-11 20:42:22.008,1.2003284,0.5238356,0.631981,-0.23045763,0.9376644,-0.016109416,0.39293393,0.4119951,1.0250882,0.06556336,0.45225012,0.31921697,0.7201877,-0.023688018,0.33330083,0.5855504,0.16615431,-0.45180112,-0.13587469,-0.079038866,778.46155,796.1905,801.02563,793.36993,653.1502,0.01141357421875,-0.01434326171875,0.997314453125,-10.759124755859375,19.3499755859375,39.440155029296875,1,1.0,1.0,1.0,1.0,10.00
2024-10-11 20:42:22.009,1.2003284,0.5238356,0.631981,-0.23045763,0.9376644,-0.016109416,0.39293393,0.4119951,1.0250882,0.06556336,0.45225012,0.31921697,0.7201877,-0.023688018,0.33330083,0.5855504,0.16615431,-0.45180112,-0.13587469,-0.079038866,782.0879,796.99634,812.71063,804.2491,668.86444,0.01141357421875,-0.01434326171875,0.997314453125,-10.759124755859375,19.3499755859375,39.440155029296875,1,1.0,1.0,1.0,1.0,10.00
2024-10-11 20:42:22.010,1.2003284,0.5238356,0.631981,-0.23045763,0.9376644,-0.016109416,0.39293393,0.4119951,1.0250882,0.06556336,0.45225012,0.31921697,0.7201877,-0.023688018,0.33330083,0.5855504,0.16615431,-0.45180112,-0.13587469,-0.079038866,796.1905,794.17584,823.5897,817.5458,1045.2014,0.01141357421875,-0.01434326171875,0.997314453125,-10.759124755859375,19.3499755859375,39.440155029296875,1,1.0,1.0,1.0,1.0,10.00
2024-10-11 20:42:22.010,1.2003284,0.5238356,0.631981,-0.23045763,0.9376644,-0.016109416,0.39293393,0.4119951,1.0250882,0.06556336,0.45225012,0.31921697,0.7201877,-0.023688018,0.33330083,0.5855504,0.16615431,-0.45180112,-0.13587469,-0.079038866,774.43225,795.78754,817.1429,817.5458,1151.978,0.01141357421875,-0.01434326171875,0.997314453125,-10.759124755859375,19.3499755859375,39.440155029296875,1,1.0,1.0,1.0,1.0,10.00
2024-10-11 20:42:22.011,1.2003284,0.5238356,0.631981,-0.23045763,0.9376644,-0.016109416,0.39293393,0.4119951,1.0250882,0.06556336,0.45225012,0.31921697,0.7201877,-0.023688018,0.33330083,0.5855504,0.16615431,-0.45180112,-0.13587469,-0.079038866,770.40295,795.38464,815.12823,817.9487,741.79486,0.01141357421875,-0.01434326171875,0.997314453125,-10.759124755859375,19.3499755859375,39.440155029296875,1,1.0,1.0,1.0,1.0,10.00
2024-10-11 20:42:22.012,1.2003284,0.5238356,0.631981,-0.23045763,0.9376644,-0.016109416,0.39293393,0.4119951,1.0250882,0.06556336,0.45225012,0.31921697,0.7201877,-0.023688018,0.33330083,0.5855504,0.16615431,-0.45180112,-0.13587469,-0.079038866,783.2967,795.78754,819.15753,815.5311,600.7692,0.01141357421875,-0.01434326171875,0.997314453125,-10.759124755859375,19.3499755859375,39.440155029296875,1,1.0,1.0,1.0,1.0,10.00
2024-10-11 20:42:22.045,1.2003284,0.5238356,0.631981,-0.23045763,0.9376644,-0.016109416,0.39293393,0.4119951,1.0250882,0.06556336,0.45225012,0.31921697,0.7201877,-0.023688018,0.33330083,0.5855504,0.16615431,-0.45180112,-0.13587469,-0.079038866,786.9231,798.20514,820.7692,809.4872,694.65204,-0.0238037109375,-0.0361328125,0.99993896484375,-10.639495849609375,17.86956787109375,38.871917724609375,1,1.0,1.0,1.0,1.0,10.00
2024-10-11 20:42:22.046,1.2198968,0.68763316,0.6494614,-0.23045763,0.97181636,0.022559192,0.40907586,0.4119951,1.0314078,0.09907292,0.45142806,0.31921697,0.73906004,-0.016462374,0.34414893,0.5855504,0.20481326,-0.47232977,-0.12153277,-0.079038866,789.7436,800.2198,812.3077,809.4872,673.69965,-0.0238037109375,-0.0361328125,0.99993896484375,-10.639495849609375,17.86956787109375,38.871917724609375,1,1.0,1.0,1.0,1.0,10.00
2024-10-11 20:42:22.052,1.2198968,0.68763316,0.6494614,-0.23045763,0.97181636,0.022559192,0.40907586,0.4119951,1.0314078,0.09907292,0.45142806,0.31921697,0.73906004,-0.016462374,0.34414893,0.5855504,0.20481326,-0.47232977,-0.12153277,-0.079038866,781.685,800.2198,811.9048,793.7729,686.99634,-0.0238037109375,-0.0361328125,0.99993896484375,-10.639495849609375,17.86956787109375,38.871917724609375,1,1.0,1.0,1.0,1.0,10.00
2024-10-11 20:42:22.052,1.2198968,0.68763316,0.6494614,-0.23045763,0.97181636,0.022559192,0.40907586,0.4119951,1.0314078,0.09907292,0.45142806,0.31921697,0.73906004,-0.016462374,0.34414893,0.5855504,0.20481326,-0.47232977,-0.12153277,-0.079038866,788.5348,791.75824,811.9048,798.60803,758.71796,-0.0238037109375,-0.0361328125,0.99993896484375,-10.639495849609375,17.86956787109375,38.871917724609375,1,1.0,1.0,1.0,1.0,10.00
2024-10-11 20:42:22.053,1.2198968,0.68763316,0.6494614,-0.23045763,0.97181636,0.022559192,0.40907586,0.4119951,1.0314078,0.09907292,0.45142806,0.31921697,0.73906004,-0.016462374,0.34414893,0.5855504,0.20481326,-0.47232977,-0.12153277,-0.079038866,801.8315,794.9817,809.89014,804.65204,756.7033,-0.0238037109375,-0.0361328125,0.99993896484375,-10.639495849609375,17.86956787109375,38.871917724609375,1,1.0,1.0,1.0,1.0,10.00
2024-10-11 20:42:22.054,1.2198968,0.68763316,0.6494614,-0.23045763,0.97181636,0.022559192,0.40907586,0.4119951,1.0314078,0.09907292,0.45142806,0.31921697,0.73906004,-0.016462374,0.34414893,0.5855504,0.20481326,-0.47232977,-0.12153277,-0.079038866,791.3553,798.60803,813.91943,798.20514,791.75824,-0.0238037109375,-0.0361328125,0.99993896484375,-10.639495849609375,17.86956787109375,38.871917724609375,1,1.0,1.0,1.0,1.0,10.00
2024-10-11 20:42:22.054,1.2198968,0.68763316,0.6494614,-0.23045763,0.97181636,0.022559192,0.40907586,0.4119951,1.0314078,0.09907292,0.45142806,0.31921697,0.73906004,-0.016462374,0.34414893,0.5855504,0.20481326,-0.47232977,-0.12153277,-0.079038866,782.8938,794.9817,816.337,798.60803,853.00366,-0.0238037109375,-0.0361328125,0.99993896484375,-10.639495849609375,17.86956787109375,38.871917724609375,1,1.0,1.0,1.0,1.0,10.00
2024-10-11 20:42:22.055,1.2198968,0.68763316,0.6494614,-0.23045763,0.97181636,0.022559192,0.40907586,0.4119951,1.0314078,0.09907292,0.45142806,0.31921697,0.73906004,-0.016462374,0.34414893,0.5855504,0.20481326,-0.47232977,-0.12153277,-0.079038866,788.1319,796.1905,808.2784,803.0403,971.06226,-0.0238037109375,-0.0361328125,0.99993896484375,-10.639495849609375,17.86956787109375,38.871917724609375,1,1.0,1.0,1.0,1.0,10.00
2024-10-11 20:42:22.056,1.2198968,0.68763316,0.6494614,-0.23045763,0.97181636,0.022559192,0.40907586,0.4119951,1.0314078,0.09907292,0.45142806,0.31921697,0.73906004,-0.016462374,0.34414893,0.5855504,0.20481326,-0.47232977,-0.12153277,-0.079038866,779.2674,799.011,803.0403,799.41394,857.4359,-0.0238037109375,-0.0361328125,0.99993896484375,-10.639495849609375,17.86956787109375,38.871917724609375,1,1.0,1.0,1.0,1.0,10.00
2024-10-11 20:42:22.057,1.2198968,0.68763316,0.6494614,-0.23045763,0.97181636,0.022559192,0.40907586,0.4119951,1.0314078,0.09907292,0.45142806,0.31921697,0.73906004,-0.016462374,0.34414893,0.5855504,0.20481326,-0.47232977,-0.12153277,-0.079038866,779.67035,801.02563,814.7253,799.81683,611.6484,-0.0238037109375,-0.0361328125,0.99993896484375,-10.639495849609375,17.86956787109375,38.871917724609375,1,1.0,1.0,1.0,1.0,10.00
2024-10-11 20:42:22.058,1.2198968,0.68763316,0.6494614,-0.23045763,0.97181636,0.022559192,0.40907586,0.4119951,1.0314078,0.09907292,0.45142806,0.31921697,0.73906004,-0.016462374,0.34414893,0.5855504,0.20481326,-0.47232977,-0.12153277,-0.079038866,792.5641,803.0403,817.5458,794.9817,696.26373,-0.0238037109375,-0.0361328125,0.99993896484375,-10.639495849609375,17.86956787109375,38.871917724609375,1,1.0,1.0,1.0,1.0,10.00
2024-10-11 20:42:22.059,1.2198968,0.68763316,0.6494614,-0.23045763,0.97181636,0.022559192,0.40907586,0.4119951,1.0314078,0.09907292,0.45142806,0.31921697,0.73906004,-0.016462374,0.34414893,0.5855504,0.20481326,-0.47232977,-0.12153277,-0.079038866,786.52014,796.99634,810.696,790.9524,1126.1904,-0.0238037109375,-0.0361328125,0.99993896484375,-10.639495849609375,17.86956787109375,38.871917724609375,1,1.0,1.0,1.0,1.0,10.00
2024-10-11 20:42:22.088,1.2198968,0.68763316,0.6494614,-0.23045763,0.97181636,0.022559192,0.40907586,0.4119951,1.0314078,0.09907292,0.45142806,0.31921697,0.73906004,-0.016462374,0.34414893,0.5855504,0.20481326,-0.47232977,-0.12153277,-0.079038866,792.96704,796.5934,807.0696,800.2198,981.53845,-0.060546875,-0.0513916015625,1.00469970703125,-7.932891845703125,16.366729736328125,33.974609375,1,1.0,1.0,1.0,1.0,10.00
2024-10-11 20:42:22.089,1.2198968,0.68763316,0.6494614,-0.23045763,0.97181636,0.022559192,0.40907586,0.4119951,1.0314078,0.09907292,0.45142806,0.31921697,0.73906004,-0.016462374,0.34414893,0.5855504,0.20481326,-0.47232977,-0.12153277,-0.079038866,794.9817,797.8022,811.50183,792.1612,618.9011,-0.060546875,-0.0513916015625,1.00469970703125,-7.932891845703125,16.366729736328125,33.974609375,1,1.0,1.0,1.0,1.0,10.00
2024-10-11 20:42:22.090,1.2198968,0.68763316,0.6494614,-0.23045763,0.97181636,0.022559192,0.40907586,0.4119951,1.0314078,0.09907292,0.45142806,0.31921697,0.73906004,-0.016462374,0.34414893,0.5855504,0.20481326,-0.47232977,-0.12153277,-0.079038866,786.52014,794.57874,809.89014,785.31134,664.43225,-0.060546875,-0.0513916015625,1.00469970703125,-7.932891845703125,16.366729736328125,33.974609375,1,1.0,1.0,1.0,1.0,10.00
2024-10-11 20:42:22.091,1.2198968,0.68763316,0.6494614,-0.23045763,0.97181636,0.022559192,0.40907586,0.4119951,1.0314078,0.09907292,0.45142806,0.31921697,0.73906004,-0.016462374,0.34414893,0.5855504,0.20481326,-0.47232977,-0.12153277,-0.079038866,793.36993,795.78754,801.8315,798.20514,697.47253,-0.060546875,-0.0513916015625,1.00469970703125,-7.932891845703125,16.366729736328125,33.974609375,1,1.0,1.0,1.0,1.0,10.00
2024-10-11 20:42:22.091,1.2198968,0.68763316,0.6494614,-0.23045763,0.97181636,0.022559192,0.40907586,0.4119951,1.0314078,0.09907292,0.45142806,0.31921697,0.73906004,-0.016462374,0.34414893,0.5855504,0.20481326,-0.47232977,-0.12153277,-0.079038866,799.41394,790.9524,803.0403,803.8461,650.32965,-0.060546875,-0.0513916015625,1.00469970703125,-7.932891845703125,16.366729736328125,33.974609375,1,1.0,1.0,1.0,1.0,10.00
2024-10-11 20:42:22.092,1.2198968,0.68763316,0.6494614,-0.23045763,0.97181636,0.022559192,0.40907586,0.4119951,1.0314078,0.09907292,0.45142806,0.31921697,0.73906004,-0.016462374,0.34414893,0.5855504,0.20481326,-0.47232977,-0.12153277,-0.079038866,807.0696,791.75824,803.8461,798.60803,736.1539,-0.060546875,-0.0513916015625,1.00469970703125,-7.932891845703125,16.366729736328125,33.974609375,1,1.0,1.0,1.0,1.0,10.00
2024-10-11 20:42:22.093,1.2198968,0.68763316,0.6494614,-0.23045763,0.97181636,0.022559192,0.40907586,0.4119951,1.0314078,0.09907292,0.45142806,0.31921697,0.73906004,-0.016462374,0.34414893,0.5855504,0.20481326,-0.47232977,-0.12153277,-0.079038866,805.4579,793.36993,793.36993,788.1319,892.49084,-0.060546875,-0.0513916015625,1.00469970703125,-7.932891845703125,16.366729736328125,33.974609375,1,1.0,1.0,1.0,1.0,10.00
2024-10-11 20:42:22.094,1.2198968,0.68763316,0.6494614,-0.23045763,0.97181636,0.022559192,0.40907586,0.4119951,1.0314078,0.09907292,0.45142806,0.31921697,0.73906004,-0.016462374,0.34414893,0.5855504,0.20481326,-0.47232977,-0.12153277,-0.079038866,803.8461,791.75824,798.60803,800.2198,1108.4615,-0.060546875,-0.0513916015625,1.00469970703125,-7.932891845703125,16.366729736328125,33.974609375,1,1.0,1.0,1.0,1.0,10.00
2024-10-11 20:42:22.095,1.2198968,0.68763316,0.6494614,-0.23045763,0.97181636,0.022559192,0.40907586,0.4119951,1.0314078,0.09907292,0.45142806,0.31921697,0.73906004,-0.016462374,0.34414893,0.5855504,0.20481326,-0.47232977,-0.12153277,-0.079038866,791.75824,795.78754,811.9048,811.9048,859.85345,-0.060546875,-0.0513916015625,1.00469970703125,-7.932891845703125,16.366729736328125,33.974609375,1,1.0,1.0,1.0,1.0,10.00
2024-10-11 20:42:22.096,1.2198968,0.68763316,0.6494614,-0.23045763,0.97181636,0.022559192,0.40907586,0.4119951,1.0314078,0.09907292,0.45142806,0.31921697,0.73906004,-0.016462374,0.34414893,0.5855504,0.20481326,-0.47232977,-0.12153277,-0.079038866,789.7436,796.5934,808.68134,796.5934,571.75824,-0.060546875,-0.0513916015625,1.00469970703125,-7.932891845703125,16.366729736328125,33.974609375,1,1.0,1.0,1.0,1.0,10.00
2024-10-11 20:42:22.097,1.2198968,0.68763316,0.6494614,-0.23045763,0.97181636,0.022559192,0.40907586,0.4119951,1.0314078,0.09907292,0.45142806,0.31921697,0.73906004,-0.016462374,0.34414893,0.5855504,0.20481326,-0.47232977,-0.12153277,-0.079038866,799.41394,794.9817,800.6227,794.57874,622.52747,-0.060546875,-0.0513916015625,1.00469970703125,-7.932891845703125,16.366729736328125,33.974609375,1,1.0,1.0,1.0,1.0,10.00
