TimeStamp,Delta_TP9,Delta_AF7,Delta_AF8,Delta_TP10,Theta_TP9,Theta_AF7,Theta_AF8,Theta_TP10,Alpha_TP9,Alpha_AF7,Alpha_AF8,Alpha_TP10,Beta_TP9,Beta_AF7,Beta_AF8,Beta_TP10,Gamma_TP9,Gamma_AF7,Gamma_AF8,Gamma_TP10,RAW_TP9,RAW_AF7,RAW_AF8,RAW_TP10,AUX_RIGHT,Accelerometer_X,Accelerometer_Y,Accelerometer_Z,Gyro_X,Gyro_Y,Gyro_Z,HeadBandOn,HSI_TP9,HSI_AF7,HSI_AF8,HSI_TP10,Battery,Elements
2024-10-11 20:46:16.848,0.4997348,0.65925413,0.7714221,0.485549,0.8044265,0.15528062,0.37069833,0.75561166,0.9306435,0.45311165,0.5366571,0.6269289,0.59128845,-0.0029149328,0.6171058,0.58883613,0.28695714,-0.24832384,0.47348386,0.09076315,801.02563,802.23444,794.57874,797.8022,620.5128,0.270263671875,0.12200927734375,0.964599609375,1.18133544921875,-0.456085205078125,3.416900634765625,1,1.0,1.0,1.0,1.0,10.00
2024-10-11 20:46:16.849,0.4997348,0.65925413,0.7714221,0.485549,0.8044265,0.15528062,0.37069833,0.75561166,0.9306435,0.45311165,0.5366571,0.6269289,0.59128845,-0.0029149328,0.6171058,0.58883613,0.28695714,-0.24832384,0.47348386,0.09076315,803.0403,799.81683,811.9048,798.20514,541.9414,0.270263671875,0.12200927734375,0.964599609375,1.18133544921875,-0.456085205078125,3.416900634765625,1,1.0,1.0,1.0,1.0,10.00
2024-10-11 20:46:16.850,0.4997348,0.65925413,0.7714221,0.485549,0.8044265,0.15528062,0.37069833,0.75561166,0.9306435,0.45311165,0.5366571,0.6269289,0.59128845,-0.0029149328,0.6171058,0.58883613,0.28695714,-0.24832384,0.47348386,0.09076315,794.9817,794.9817,808.68134,796.5934,948.9011,0.270263671875,0.12200927734375,0.964599609375,1.18133544921875,-0.456085205078125,3.416900634765625,1,1.0,1.0,1.0,1.0,10.00
2024-10-11 20:46:16.850,0.4997348,0.65925413,0.7714221,0.485549,0.8044265,0.15528062,0.37069833,0.75561166,0.9306435,0.45311165,0.5366571,0.6269289,0.59128845,-0.0029149328,0.6171058,0.58883613,0.28695714,-0.24832384,0.47348386,0.09076315,792.5641,797.3993,806.26373,799.81683,1140.2931,0.270263671875,0.12200927734375,0.964599609375,1.18133544921875,-0.456085205078125,3.416900634765625,1,1.0,1.0,1.0,1.0,10.00
2024-10-11 20:46:16.851,0.4997348,0.65925413,0.7714221,0.485549,0.8044265,0.15528062,0.37069833,0.75561166,0.9306435,0.45311165,0.5366571,0.6269289,0.59128845,-0.0029149328,0.6171058,0.58883613,0.28695714,-0.24832384,0.47348386,0.09076315,796.5934,801.8315,803.0403,793.36993,709.15753,0.270263671875,0.12200927734375,0.964599609375,1.18133544921875,-0.456085205078125,3.416900634765625,1,1.0,1.0,1.0,1.0,10.00
2024-10-11 20:46:16.852,0.47372282,0.6360309,0.809739,0.46415606,0.7802354,0.18076515,0.4040236,0.72411346,0.9425447,0.45311165,0.53882605,0.6269289,0.5860185,-0.010355021,0.6577076,0.5453144,0.29958755,-0.2635104,0.4875417,0.07729986,803.8461,800.6227,797.3993,787.326,801.02563,0.270263671875,0.12200927734375,0.964599609375,1.18133544921875,-0.456085205078125,3.416900634765625,1,1.0,1.0,1.0,1.0,10.00
2024-10-11 20:46:16.856,0.47372282,0.6360309,0.809739,0.46415606,0.7802354,0.18076515,0.4040236,0.72411346,0.9425447,0.45311165,0.53882605,0.6269289,0.5860185,-0.010355021,0.6577076,0.5453144,0.29958755,-0.2635104,0.4875417,0.07729986,810.293,801.4286,783.2967,797.8022,1048.8279,0.270263671875,0.12200927734375,0.964599609375,1.18133544921875,-0.456085205078125,3.416900634765625,1,1.0,1.0,1.0,1.0,10.00
2024-10-11 20:46:16.857,0.47372282,0.6360309,0.809739,0.46415606,0.7802354,0.18076515,0.4040236,0.72411346,0.9425447,0.45311165,0.53882605,0.6269289,0.5860185,-0.010355021,0.6577076,0.5453144,0.29958755,-0.2635104,0.4875417,0.07729986,797.3993,802.23444,786.9231,798.20514,908.60803,0.270263671875,0.12200927734375,0.964599609375,1.18133544921875,-0.456085205078125,3.416900634765625,1,1.0,1.0,1.0,1.0,10.00
2024-10-11 20:46:16.857,0.47372282,0.6360309,0.809739,0.46415606,0.7802354,0.18076515,0.4040236,0.72411346,0.9425447,0.45311165,0.53882605,0.6269289,0.5860185,-0.010355021,0.6577076,0.5453144,0.29958755,-0.2635104,0.4875417,0.07729986,791.3553,801.02563,803.0403,786.9231,701.9048,0.270263671875,0.12200927734375,0.964599609375,1.18133544921875,-0.456085205078125,3.416900634765625,1,1.0,1.0,1.0,1.0,10.00
2024-10-11 20:46:16.858,0.47372282,0.6360309,0.809739,0.46415606,0.7802354,0.18076515,0.4040236,0.72411346,0.9425447,0.45311165,0.53882605,0.6269289,0.5860185,-0.010355021,0.6577076,0.5453144,0.29958755,-0.2635104,0.4875417,0.07729986,799.41394,801.4286,804.65204,794.17584,694.65204,0.270263671875,0.12200927734375,0.964599609375,1.18133544921875,-0.456085205078125,3.416900634765625,1,1.0,1.0,1.0,1.0,10.00
2024-10-11 20:46:16.859,0.47372282,0.6360309,0.809739,0.46415606,0.7802354,0.18076515,0.4040236,0.72411346,0.9425447,0.45311165,0.53882605,0.6269289,0.5860185,-0.010355021,0.6577076,0.5453144,0.29958755,-0.2635104,0.4875417,0.07729986,800.2198,801.02563,805.05493,803.0403,868.71796,0.270263671875,0.12200927734375,0.964599609375,1.18133544921875,-0.456085205078125,3.416900634765625,1,1.0,1.0,1.0,1.0,10.00
2024-10-11 20:46:16.859,0.47372282,0.6360309,0.809739,0.46415606,0.7802354,0.18076515,0.4040236,0.72411346,0.9425447,0.45311165,0.53882605,0.6269289,0.5860185,-0.010355021,0.6577076,0.5453144,0.29958755,-0.2635104,0.4875417,0.07729986,797.8022,799.81683,800.6227,797.8022,676.9231,0.270263671875,0.12200927734375,0.964599609375,1.18133544921875,-0.456085205078125,3.416900634765625,1,1.0,1.0,1.0,1.0,10.00
2024-10-11 20:46:16.910,0.47372282,0.6360309,0.809739,0.46415606,0.7802354,0.18076515,0.4040236,0.72411346,0.9425447,0.45311165,0.53882605,0.6269289,0.5860185,-0.010355021,0.6577076,0.5453144,0.29958755,-0.2635104,0.4875417,0.07729986,796.99634,796.1905,791.3553,797.8022,583.0403,0.289794921875,0.12939453125,0.96759033203125,1.55517578125,1.562652587890625,5.316009521484375,1,1.0,1.0,1.0,1.0,10.00
2024-10-11 20:46:16.911,0.47372282,0.6360309,0.809739,0.46415606,0.7802354,0.18076515,0.4040236,0.72411346,0.9425447,0.45311165,0.53882605,0.6269289,0.5860185,-0.010355021,0.6577076,0.5453144,0.29958755,-0.2635104,0.4875417,0.07729986,794.57874,792.96704,792.5641,806.26373,731.31866,0.289794921875,0.12939453125,0.96759033203125,1.55517578125,1.562652587890625,5.316009521484375,1,1.0,1.0,1.0,1.0,10.00
2024-10-11 20:46:16.913,0.47372282,0.6360309,0.809739,0.46415606,0.7802354,0.18076515,0.4040236,0.72411346,0.9425447,0.45311165,0.53882605,0.6269289,0.5860185,-0.010355021,0.6577076,0.5453144,0.29958755,-0.2635104,0.4875417,0.07729986,793.36993,793.7729,800.6227,802.23444,706.7399,0.289794921875,0.12939453125,0.96759033203125,1.55517578125,1.562652587890625,5.316009521484375,1,1.0,1.0,1.0,1.0,10.00
2024-10-11 20:46:16.914,0.47372282,0.6360309,0.809739,0.46415606,0.7802354,0.18076515,0.4040236,0.72411346,0.9425447,0.45311165,0.53882605,0.6269289,0.5860185,-0.010355021,0.6577076,0.5453144,0.29958755,-0.2635104,0.4875417,0.07729986,800.6227,794.57874,795.38464,789.7436,647.9121,0.289794921875,0.12939453125,0.96759033203125,1.55517578125,1.562652587890625,5.316009521484375,1,1.0,1.0,1.0,1.0,10.00
2024-10-11 20:46:16.915,0.47372282,0.6360309,0.809739,0.46415606,0.7802354,0.18076515,0.4040236,0.72411346,0.9425447,0.45311165,0.53882605,0.6269289,0.5860185,-0.010355021,0.6577076,0.5453144,0.29958755,-0.2635104,0.4875417,0.07729986,803.8461,799.41394,797.8022,797.3993,661.2088,0.289794921875,0.12939453125,0.96759033203125,1.55517578125,1.562652587890625,5.316009521484375,1,1.0,1.0,1.0,1.0,10.00
2024-10-11 20:46:16.915,0.47372282,0.6360309,0.809739,0.46415606,0.7802354,0.18076515,0.4040236,0.72411346,0.9425447,0.45311165,0.53882605,0.6269289,0.5860185,-0.010355021,0.6577076,0.5453144,0.29958755,-0.2635104,0.4875417,0.07729986,803.0403,796.1905,800.6227,799.41394,835.2747,0.289794921875,0.12939453125,0.96759033203125,1.55517578125,1.562652587890625,5.316009521484375,1,1.0,1.0,1.0,1.0,10.00
2024-10-11 20:46:16.916,0.47372282,0.6360309,0.809739,0.46415606,0.7802354,0.18076515,0.4040236,0.72411346,0.9425447,0.45311165,0.53882605,0.6269289,0.5860185,-0.010355021,0.6577076,0.5453144,0.29958755,-0.2635104,0.4875417,0.07729986,796.1905,790.54944,799.41394,796.1905,867.50916,0.289794921875,0.12939453125,0.96759033203125,1.55517578125,1.562652587890625,5.316009521484375,1,1.0,1.0,1.0,1.0,10.00
2024-10-11 20:46:16.916,0.47372282,0.6360309,0.809739,0.46415606,0.7802354,0.18076515,0.4040236,0.72411346,0.9425447,0.45311165,0.53882605,0.6269289,0.5860185,-0.010355021,0.6577076,0.5453144,0.29958755,-0.2635104,0.4875417,0.07729986,799.011,798.20514,797.3993,800.6227,637.8388,0.289794921875,0.12939453125,0.96759033203125,1.55517578125,1.562652587890625,5.316009521484375,1,1.0,1.0,1.0,1.0,10.00
2024-10-11 20:46:16.917,0.47372282,0.6360309,0.809739,0.46415606,0.7802354,0.18076515,0.4040236,0.72411346,0.9425447,0.45311165,0.53882605,0.6269289,0.5860185,-0.010355021,0.6577076,0.5453144,0.29958755,-0.2635104,0.4875417,0.07729986,803.44324,799.41394,789.34064,795.78754,715.6044,0.289794921875,0.12939453125,0.96759033203125,1.55517578125,1.562652587890625,5.316009521484375,1,1.0,1.0,1.0,1.0,10.00
2024-10-11 20:46:16.918,0.47372282,0.6360309,0.809739,0.46415606,0.7802354,0.18076515,0.4040236,0.72411346,0.9425447,0.45311165,0.53882605,0.6269289,0.5860185,-0.010355021,0.6577076,0.5453144,0.29958755,-0.2635104,0.4875417,0.07729986,807.8755,795.78754,790.9524,798.60803,1008.5348,0.289794921875,0.12939453125,0.96759033203125,1.55517578125,1.562652587890625,5.316009521484375,1,1.0,1.0,1.0,1.0,10.00
2024-10-11 20:46:16.918,0.47372282,0.6360309,0.809739,0.46415606,0.7802354,0.18076515,0.4040236,0.72411346,0.9425447,0.45311165,0.53882605,0.6269289,0.5860185,-0.010355021,0.6577076,0.5453144,0.29958755,-0.2635104,0.4875417,0.07729986,805.8608,794.17584,801.8315,796.1905,844.94507,0.289794921875,0.12939453125,0.96759033203125,1.55517578125,1.562652587890625,5.316009521484375,1,1.0,1.0,1.0,1.0,10.00
2024-10-11 20:46:16.919,0.47372282,0.6360309,0.809739,0.46415606,0.7802354,0.18076515,0.4040236,0.72411346,0.9425447,0.45311165,0.53882605,0.6269289,0.5860185,-0.010355021,0.6577076,0.5453144,0.29958755,-0.2635104,0.4875417,0.07729986,782.49084,788.1319,804.65204,791.75824,653.5531,0.289794921875,0.12939453125,0.96759033203125,1.55517578125,1.562652587890625,5.316009521484375,1,1.0,1.0,1.0,1.0,10.00
2024-10-11 20:46:16.945,0.47372282,0.6360309,0.809739,0.46415606,0.7802354,0.18076515,0.4040236,0.72411346,0.9425447,0.45311165,0.53882605,0.6269289,0.5860185,-0.010355021,0.6577076,0.5453144,0.29958755,-0.2635104,0.4875417,0.07729986,796.5934,786.9231,801.8315,808.68134,668.86444,0.28924560546875,0.1290283203125,0.96002197265625,1.024322509765625,5.7122802734375,6.766510009765625,1,1.0,1.0,1.0,1.0,10.00
2024-10-11 20:46:16.946,0.47372282,0.6360309,0.809739,0.46415606,0.7802354,0.18076515,0.4040236,0.72411346,0.9425447,0.45311165,0.53882605,0.6269289,0.5860185,-0.010355021,0.6577076,0.5453144,0.29958755,-0.2635104,0.4875417,0.07729986,807.0696,796.99634,798.60803,808.68134,906.1905,0.28924560546875,0.1290283203125,0.96002197265625,1.024322509765625,5.7122802734375,6.766510009765625,1,1.0,1.0,1.0,1.0,10.00
2024-10-11 20:46:16.947,0.47372282,0.6360309,0.809739,0.46415606,0.7802354,0.18076515,0.4040236,0.72411346,0.9425447,0.45311165,0.53882605,0.6269289,0.5860185,-0.010355021,0.6577076,0.5453144,0.29958755,-0.2635104,0.4875417,0.07729986,802.23444,805.4579,796.1905,796.99634,891.685,0.28924560546875,0.1290283203125,0.96002197265625,1.024322509765625,5.7122802734375,6.766510009765625,1,1.0,1.0,1.0,1.0,10.00
2024-10-11 20:46:16.948,0.47372282,0.6360309,0.809739,0.46415606,0.7802354,0.18076515,0.4040236,0.72411346,0.9425447,0.45311165,0.53882605,0.6269289,0.5860185,-0.010355021,0.6577076,0.5453144,0.29958755,-0.2635104,0.4875417,0.07729986,796.1905,803.8461,794.17584,782.0879,570.9524,0.28924560546875,0.1290283203125,0.96002197265625,1.024322509765625,5.7122802734375,6.766510009765625,1,1.0,1.0,1.0,1.0,10.00
2024-10-11 20:46:16.948,0.47372282,0.6360309,0.809739,0.46415606,0.7802354,0.18076515,0.4040236,0.72411346,0.9425447,0.45311165,0.53882605,0.6269289,0.5860185,-0.010355021,0.6577076,0.5453144,0.29958755,-0.2635104,0.4875417,0.07729986,782.8938,802.6374,786.9231,784.10254,695.05493,0.28924560546875,0.1290283203125,0.96002197265625,1.024322509765625,5.7122802734375,6.766510009765625,1,1.0,1.0,1.0,1.0,10.00
2024-10-11 20:46:16.949,0.47372282,0.6360309,0.809739,0.46415606,0.7802354,0.18076515,0.4040236,0.72411346,0.9425447,0.45311165,0.53882605,0.6269289,0.5860185,-0.010355021,0.6577076,0.5453144,0.29958755,-0.2635104,0.4875417,0.07729986,789.34064,802.23444,784.5055,798.60803,844.1392,0.28924560546875,0.1290283203125,0.96002197265625,1.024322509765625,5.7122802734375,6.766510009765625,1,1.0,1.0,1.0,1.0,10.00
2024-10-11 20:46:16.950,0.47372282,0.6360309,0.809739,0.46415606,0.7802354,0.18076515,0.4040236,0.72411346,0.9425447,0.45311165,0.53882605,0.6269289,0.5860185,-0.010355021,0.6577076,0.5453144,0.29958755,-0.2635104,0.4875417,0.07729986,794.17584,801.8315,792.1612,788.93774,745.0183,0.28924560546875,0.1290283203125,0.96002197265625,1.024322509765625,5.7122802734375,6.766510009765625,1,1.0,1.0,1.0,1.0,10.00
2024-10-11 20:46:16.951,0.44872,0.61529773,0.83284193,0.43649122,0.7551073,0.20317246,0.4046813,0.6893069,0.94641495,0.45311165,0.5388212,0.62749577,0.58980775,-0.016823918,0.6810839,0.5116032,0.29966316,-0.28106397,0.4810213,0.056747437,791.75824,806.26373,790.9524,782.0879,718.4249,0.28924560546875,0.1290283203125,0.96002197265625,1.024322509765625,5.7122802734375,6.766510009765625,1,1.0,1.0,1.0,1.0,10.00
2024-10-11 20:46:16.957,0.44872,0.61529773,0.83284193,0.43649122,0.7551073,0.20317246,0.4046813,0.6893069,0.94641495,0.45311165,0.5388212,0.62749577,0.58980775,-0.016823918,0.6810839,0.5116032,0.29966316,-0.28106397,0.4810213,0.056747437,791.3553,807.8755,784.10254,775.64105,798.20514,0.28924560546875,0.1290283203125,0.96002197265625,1.024322509765625,5.7122802734375,6.766510009765625,1,1.0,1.0,1.0,1.0,10.00
2024-10-11 20:46:16.958,0.44872,0.61529773,0.83284193,0.43649122,0.7551073,0.20317246,0.4046813,0.6893069,0.94641495,0.45311165,0.5388212,0.62749577,0.58980775,-0.016823918,0.6810839,0.5116032,0.29966316,-0.28106397,0.4810213,0.056747437,790.9524,807.8755,782.8938,783.2967,1069.7803,0.28924560546875,0.1290283203125,0.96002197265625,1.024322509765625,5.7122802734375,6.766510009765625,1,1.0,1.0,1.0,1.0,10.00
2024-10-11 20:46:16.959,0.44872,0.61529773,0.83284193,0.43649122,0.7551073,0.20317246,0.4046813,0.6893069,0.94641495,0.45311165,0.5388212,0.62749577,0.58980775,-0.016823918,0.6810839,0.5116032,0.29966316,-0.28106397,0.4810213,0.056747437,794.57874,807.47253,770.40295,790.9524,889.67035,0.28924560546875,0.1290283203125,0.96002197265625,1.024322509765625,5.7122802734375,6.766510009765625,1,1.0,1.0,1.0,1.0,10.00
2024-10-11 20:46:16.960,0.44872,0.61529773,0.83284193,0.43649122,0.7551073,0.20317246,0.4046813,0.6893069,0.94641495,0.45311165,0.5388212,0.62749577,0.58980775,-0.016823918,0.6810839,0.5116032,0.29966316,-0.28106397,0.4810213,0.056747437,788.5348,808.68134,771.6117,777.25275,672.49084,0.28924560546875,0.1290283203125,0.96002197265625,1.024322509765625,5.7122802734375,6.766510009765625,1,1.0,1.0,1.0,1.0,10.00
2024-10-11 20:46:17.066,0.44872,0.61529773,0.83284193,0.43649122,0.7551073,0.20317246,0.4046813,0.6893069,0.94641495,0.45311165,0.5388212,0.62749577,0.58980775,-0.016823918,0.6810839,0.5116032,0.29966316,-0.28106397,0.4810213,0.056747437,787.326,796.99634,781.685,787.326,878.3883,0.28607177734375,0.12847900390625,0.96331787109375,1.45050048828125,9.353485107421875,6.71417236328125,1,1.0,1.0,1.0,1.0,10.00
2024-10-11 20:46:17.067,0.44872,0.61529773,0.83284193,0.43649122,0.7551073,0.20317246,0.4046813,0.6893069,0.94641495,0.45311165,0.5388212,0.62749577,0.58980775,-0.016823918,0.6810839,0.5116032,0.29966316,-0.28106397,0.4810213,0.056747437,792.5641,792.5641,784.90845,796.99634,827.619,0.28607177734375,0.12847900390625,0.96331787109375,1.45050048828125,9.353485107421875,6.71417236328125,1,1.0,1.0,1.0,1.0,10.00
2024-10-11 20:46:17.068,0.44872,0.61529773,0.83284193,0.43649122,0.7551073,0.20317246,0.4046813,0.6893069,0.94641495,0.45311165,0.5388212,0.62749577,0.58980775,-0.016823918,0.6810839,0.5116032,0.29966316,-0.28106397,0.4810213,0.056747437,789.34064,807.8755,798.60803,781.685,670.4762,0.28607177734375,0.12847900390625,0.96331787109375,1.45050048828125,9.353485107421875,6.71417236328125,1,1.0,1.0,1.0,1.0,10.00
2024-10-11 20:46:17.069,0.44872,0.61529773,0.83284193,0.43649122,0.7551073,0.20317246,0.4046813,0.6893069,0.94641495,0.45311165,0.5388212,0.62749577,0.58980775,-0.016823918,0.6810839,0.5116032,0.29966316,-0.28106397,0.4810213,0.056747437,790.54944,797.3993,802.6374,783.69965,540.7326,0.28607177734375,0.12847900390625,0.96331787109375,1.45050048828125,9.353485107421875,6.71417236328125,1,1.0,1.0,1.0,1.0,10.00
2024-10-11 20:46:17.070,0.44872,0.61529773,0.83284193,0.43649122,0.7551073,0.20317246,0.4046813,0.6893069,0.94641495,0.45311165,0.5388212,0.62749577,0.58980775,-0.016823918,0.6810839,0.5116032,0.29966316,-0.28106397,0.4810213,0.056747437,800.6227,772.01465,794.17584,794.17584,583.0403,0.28607177734375,0.12847900390625,0.96331787109375,1.45050048828125,9.353485107421875,6.71417236328125,1,1.0,1.0,1.0,1.0,10.00
2024-10-11 20:46:17.071,0.44872,0.61529773,0.83284193,0.43649122,0.7551073,0.20317246,0.4046813,0.6893069,0.94641495,0.45311165,0.5388212,0.62749577,0.58980775,-0.016823918,0.6810839,0.5116032,0.29966316,-0.28106397,0.4810213,0.056747437,789.7436,792.5641,780.87915,795.78754,904.9817,0.28607177734375,0.12847900390625,0.96331787109375,1.45050048828125,9.353485107421875,6.71417236328125,1,1.0,1.0,1.0,1.0,10.00
2024-10-11 20:46:17.071,0.44872,0.61529773,0.83284193,0.43649122,0.7551073,0.20317246,0.4046813,0.6893069,0.94641495,0.45311165,0.5388212,0.62749577,0.58980775,-0.016823918,0.6810839,0.5116032,0.29966316,-0.28106397,0.4810213,0.056747437,778.46155,809.89014,791.75824,796.99634,993.22345,0.28607177734375,0.12847900390625,0.96331787109375,1.45050048828125,9.353485107421875,6.71417236328125,1,1.0,1.0,1.0,1.0,10.00
2024-10-11 20:46:17.072,0.44872,0.61529773,0.83284193,0.43649122,0.7551073,0.20317246,0.4046813,0.6893069,0.94641495,0.45311165,0.5388212,0.62749577,0.58980775,-0.016823918,0.6810839,0.5116032,0.29966316,-0.28106397,0.4810213,0.056747437,787.326,807.8755,794.17584,799.011,819.5604,0.28607177734375,0.12847900390625,0.96331787109375,1.45050048828125,9.353485107421875,6.71417236328125,1,1.0,1.0,1.0,1.0,10.00
2024-10-11 20:46:17.073,0.44872,0.61529773,0.83284193,0.43649122,0.7551073,0.20317246,0.4046813,0.6893069,0.94641495,0.45311165,0.5388212,0.62749577,0.58980775,-0.016823918,0.6810839,0.5116032,0.29966316,-0.28106397,0.4810213,0.056747437,788.5348,811.9048,783.69965,796.1905,825.2015,0.28607177734375,0.12847900390625,0.96331787109375,1.45050048828125,9.353485107421875,6.71417236328125,1,1.0,1.0,1.0,1.0,10.00
2024-10-11 20:46:17.074,0.44872,0.61529773,0.83284193,0.43649122,0.7551073,0.20317246,0.4046813,0.6893069,0.94641495,0.45311165,0.5388212,0.62749577,0.58980775,-0.016823918,0.6810839,0.5116032,0.29966316,-0.28106397,0.4810213,0.056747437,785.31134,809.4872,779.67035,786.9231,785.31134,0.28607177734375,0.12847900390625,0.96331787109375,1.45050048828125,9.353485107421875,6.71417236328125,1,1.0,1.0,1.0,1.0,10.00
2024-10-11 20:46:17.075,0.44872,0.61529773,0.83284193,0.43649122,0.7551073,0.20317246,0.4046813,0.6893069,0.94641495,0.45311165,0.5388212,0.62749577,0.58980775,-0.016823918,0.6810839,0.5116032,0.29966316,-0.28106397,0.4810213,0.056747437,788.93774,807.47253,778.0586,783.2967,617.28937,0.28607177734375,0.12847900390625,0.96331787109375,1.45050048828125,9.353485107421875,6.71417236328125,1,1.0,1.0,1.0,1.0,10.00
2024-10-11 20:46:17.077,0.44872,0.61529773,0.83284193,0.43649122,0.7551073,0.20317246,0.4046813,0.6893069,0.94641495,0.45311165,0.5388212,0.62749577,0.58980775,-0.016823918,0.6810839,0.5116032,0.29966316,-0.28106397,0.4810213,0.056747437,790.14655,806.6667,795.78754,784.10254,589.89014,0.28607177734375,0.12847900390625,0.96331787109375,1.45050048828125,9.353485107421875,6.71417236328125,1,1.0,1.0,1.0,1.0,10.00
2024-10-11 20:46:17.078,0.44872,0.61529773,0.83284193,0.43649122,0.7551073,0.20317246,0.4046813,0.6893069,0.94641495,0.45311165,0.5388212,0.62749577,0.58980775,-0.016823918,0.6810839,0.5116032,0.29966316,-0.28106397,0.4810213,0.056747437,787.326,805.05493,802.23444,781.685,788.5348,0.26275634765625,0.1282958984375,0.96368408203125,2.37762451171875,14.647064208984375,5.802001953125,1,1.0,1.0,1.0,1.0,10.00
2024-10-11 20:46:17.079,0.44872,0.61529773,0.83284193,0.43649122,0.7551073,0.20317246,0.4046813,0.6893069,0.94641495,0.45311165,0.5388212,0.62749577,0.58980775,-0.016823918,0.6810839,0.5116032,0.29966316,-0.28106397,0.4810213,0.056747437,790.14655,803.44324,797.3993,784.10254,764.35895,0.26275634765625,0.1282958984375,0.96368408203125,2.37762451171875,14.647064208984375,5.802001953125,1,1.0,1.0,1.0,1.0,10.00
2024-10-11 20:46:17.080,0.44872,0.61529773,0.83284193,0.43649122,0.7551073,0.20317246,0.4046813,0.6893069,0.94641495,0.45311165,0.5388212,0.62749577,0.58980775,-0.016823918,0.6810839,0.5116032,0.29966316,-0.28106397,0.4810213,0.056747437,786.9231,799.41394,799.011,780.4762,654.7619,0.26275634765625,0.1282958984375,0.96368408203125,2.37762451171875,14.647064208984375,5.802001953125,1,1.0,1.0,1.0,1.0,10.00
2024-10-11 20:46:17.081,0.44872,0.61529773,0.83284193,0.43649122,0.7551073,0.20317246,0.4046813,0.6893069,0.94641495,0.45311165,0.5388212,0.62749577,0.58980775,-0.016823918,0.6810839,0.5116032,0.29966316,-0.28106397,0.4810213,0.056747437,786.1172,794.17584,793.36993,780.87915,743.4066,0.26275634765625,0.1282958984375,0.96368408203125,2.37762451171875,14.647064208984375,5.802001953125,1,1.0,1.0,1.0,1.0,10.00
2024-10-11 20:46:17.082,0.44872,0.61529773,0.83284193,0.43649122,0.7551073,0.20317246,0.4046813,0.6893069,0.94641495,0.45311165,0.5388212,0.62749577,0.58980775,-0.016823918,0.6810839,0.5116032,0.29966316,-0.28106397,0.4810213,0.056747437,793.7729,796.99634,780.4762,783.2967,739.3773,0.26275634765625,0.1282958984375,0.96368408203125,2.37762451171875,14.647064208984375,5.802001953125,1,1.0,1.0,1.0,1.0,10.00
2024-10-11 20:46:17.083,0.44872,0.61529773,0.83284193,0.43649122,0.7551073,0.20317246,0.4046813,0.6893069,0.94641495,0.45311165,0.5388212,0.62749577,0.58980775,-0.016823918,0.6810839,0.5116032,0.29966316,-0.28106397,0.4810213,0.056747437,795.38464,801.02563,778.86444,779.2674,813.91943,0.26275634765625,0.1282958984375,0.96368408203125,2.37762451171875,14.647064208984375,5.802001953125,1,1.0,1.0,1.0,1.0,10.00
2024-10-11 20:46:17.084,0.44872,0.61529773,0.83284193,0.43649122,0.7551073,0.20317246,0.4046813,0.6893069,0.94641495,0.45311165,0.5388212,0.62749577,0.58980775,-0.016823918,0.6810839,0.5116032,0.29966316,-0.28106397,0.4810213,0.056747437,792.96704,801.8315,795.38464,780.87915,796.5934,0.26275634765625,0.1282958984375,0.96368408203125,2.37762451171875,14.647064208984375,5.802001953125,1,1.0,1.0,1.0,1.0,10.00
2024-10-11 20:46:17.085,0.44872,0.61529773,0.83284193,0.43649122,0.7551073,0.20317246,0.4046813,0.6893069,0.94641495,0.45311165,0.5388212,0.62749577,0.58980775,-0.016823918,0.6810839,0.5116032,0.29966316,-0.28106397,0.4810213,0.056747437,798.60803,799.81683,796.99634,784.90845,733.73627,0.26275634765625,0.1282958984375,0.96368408203125,2.37762451171875,14.647064208984375,5.802001953125,1,1.0,1.0,1.0,1.0,10.00
2024-10-11 20:46:17.085,0.44872,0.61529773,0.83284193,0.43649122,0.7551073,0.20317246,0.4046813,0.6893069,0.94641495,0.45311165,0.5388212,0.62749577,0.58980775,-0.016823918,0.6810839,0.5116032,0.29966316,-0.28106397,0.4810213,0.056747437,794.9817,801.02563,792.96704,785.7143,753.8828,0.26275634765625,0.1282958984375,0.96368408203125,2.37762451171875,14.647064208984375,5.802001953125,1,1.0,1.0,1.0,1.0,10.00
2024-10-11 20:46:17.086,0.42637938,0.6034954,0.8481098,0.4428911,0.73058105,0.2294989,0.3874438,0.65693146,0.94641495,0.45311165,0.53607434,0.6302541,0.59617054,-0.022691205,0.68515813,0.4930546,0.2903589,-0.29998836,0.46376935,0.03660536,796.99634,802.23444,791.75824,792.5641,616.4835,0.26275634765625,0.1282958984375,0.96368408203125,2.37762451171875,14.647064208984375,5.802001953125,1,1.0,1.0,1.0,1.0,10.00
2024-10-11 20:46:17.093,0.42637938,0.6034954,0.8481098,0.4428911,0.73058105,0.2294989,0.3874438,0.65693146,0.94641495,0.45311165,0.53607434,0.6302541,0.59617054,-0.022691205,0.68515813,0.4930546,0.2903589,-0.29998836,0.46376935,0.03660536,808.68134,805.4579,782.8938,793.36993,599.15753,0.26275634765625,0.1282958984375,0.96368408203125,2.37762451171875,14.647064208984375,5.802001953125,1,1.0,1.0,1.0,1.0,10.00
2024-10-11 20:46:17.093,0.42637938,0.6034954,0.8481098,0.4428911,0.73058105,0.2294989,0.3874438,0.65693146,0.94641495,0.45311165,0.53607434,0.6302541,0.59617054,-0.022691205,0.68515813,0.4930546,0.2903589,-0.29998836,0.46376935,0.03660536,800.6227,803.8461,786.52014,792.5641,796.1905,0.26275634765625,0.1282958984375,0.96368408203125,2.37762451171875,14.647064208984375,5.802001953125,1,1.0,1.0,1.0,1.0,10.00
2024-10-11 20:46:17.094,0.42637938,0.6034954,0.8481098,0.4428911,0.73058105,0.2294989,0.3874438,0.65693146,0.94641495,0.45311165,0.53607434,0.6302541,0.59617054,-0.022691205,0.68515813,0.4930546,0.2903589,-0.29998836,0.46376935,0.03660536,791.3553,798.20514,796.1905,798.60803,903.7729,0.26275634765625,0.1282958984375,0.96368408203125,2.37762451171875,14.647064208984375,5.802001953125,1,1.0,1.0,1.0,1.0,10.00
2024-10-11 20:46:17.095,0.42637938,0.6034954,0.8481098,0.4428911,0.73058105,0.2294989,0.3874438,0.65693146,0.94641495,0.45311165,0.53607434,0.6302541,0.59617054,-0.022691205,0.68515813,0.4930546,0.2903589,-0.29998836,0.46376935,0.03660536,784.10254,800.6227,792.96704,796.1905,703.91943,0.26275634765625,0.1282958984375,0.96368408203125,2.37762451171875,14.647064208984375,5.802001953125,1,1.0,1.0,1.0,1.0,10.00
2024-10-11 20:46:17.096,0.42637938,0.6034954,0.8481098,0.4428911,0.73058105,0.2294989,0.3874438,0.65693146,0.94641495,0.45311165,0.53607434,0.6302541,0.59617054,-0.022691205,0.68515813,0.4930546,0.2903589,-0.29998836,0.46376935,0.03660536,784.90845,805.05493,776.8498,792.5641,724.0659,0.26275634765625,0.1282958984375,0.96368408203125,2.37762451171875,14.647064208984375,5.802001953125,1,1.0,1.0,1.0,1.0,10.00
2024-10-11 20:46:17.097,0.42637938,0.6034954,0.8481098,0.4428911,0.73058105,0.2294989,0.3874438,0.65693146,0.94641495,0.45311165,0.53607434,0.6302541,0.59617054,-0.022691205,0.68515813,0.4930546,0.2903589,-0.29998836,0.46376935,0.03660536,795.38464,807.0696,766.3736,794.9817,983.5531,0.26275634765625,0.1282958984375,0.96368408203125,2.37762451171875,14.647064208984375,5.802001953125,1,1.0,1.0,1.0,1.0,10.00
2024-10-11 20:46:17.098,0.42637938,0.6034954,0.8481098,0.4428911,0.73058105,0.2294989,0.3874438,0.65693146,0.94641495,0.45311165,0.53607434,0.6302541,0.59617054,-0.022691205,0.68515813,0.4930546,0.2903589,-0.29998836,0.46376935,0.03660536,795.78754,803.0403,776.04395,793.36993,971.06226,0.26275634765625,0.1282958984375,0.96368408203125,2.37762451171875,14.647064208984375,5.802001953125,1,1.0,1.0,1.0,1.0,10.00
2024-10-11 20:46:17.099,0.42637938,0.6034954,0.8481098,0.4428911,0.73058105,0.2294989,0.3874438,0.65693146,0.94641495,0.45311165,0.53607434,0.6302541,0.59617054,-0.022691205,0.68515813,0.4930546,0.2903589,-0.29998836,0.46376935,0.03660536,799.81683,801.02563,794.57874,795.38464,823.1868,0.26275634765625,0.1282958984375,0.96368408203125,2.37762451171875,14.647064208984375,5.802001953125,1,1.0,1.0,1.0,1.0,10.00
2024-10-11 20:46:17.100,0.42637938,0.6034954,0.8481098,0.4428911,0.73058105,0.2294989,0.3874438,0.65693146,0.94641495,0.45311165,0.53607434,0.6302541,0.59617054,-0.022691205,0.68515813,0.4930546,0.2903589,-0.29998836,0.46376935,0.03660536,803.0403,801.02563,799.011,801.8315,852.6007,0.26275634765625,0.1282958984375,0.96368408203125,2.37762451171875,14.647064208984375,5.802001953125,1,1.0,1.0,1.0,1.0,10.00
2024-10-11 20:46:17.100,0.42637938,0.6034954,0.8481098,0.4428911,0.73058105,0.2294989,0.3874438,0.65693146,0.94641495,0.45311165,0.53607434,0.6302541,0.59617054,-0.022691205,0.68515813,0.4930546,0.2903589,-0.29998836,0.46376935,0.03660536,804.65204,798.60803,789.34064,802.6374,1009.34064,0.26275634765625,0.1282958984375,0.96368408203125,2.37762451171875,14.647064208984375,5.802001953125,1,1.0,1.0,1.0,1.0,10.00
2024-10-11 20:46:17.101,0.42637938,0.6034954,0.8481098,0.4428911,0.73058105,0.2294989,0.3874438,0.65693146,0.94641495,0.45311165,0.53607434,0.6302541,0.59617054,-0.022691205,0.68515813,0.4930546,0.2903589,-0.29998836,0.46376935,0.03660536,808.2784,801.8315,788.93774,795.38464,925.12823,0.26275634765625,0.1282958984375,0.96368408203125,2.37762451171875,14.647064208984375,5.802001953125,1,1.0,1.0,1.0,1.0,10.00
2024-10-11 20:46:17.102,0.42637938,0.6034954,0.8481098,0.4428911,0.73058105,0.2294989,0.3874438,0.65693146,0.94641495,0.45311165,0.53607434,0.6302541,0.59617054,-0.022691205,0.68515813,0.4930546,0.2903589,-0.29998836,0.46376935,0.03660536,806.6667,805.05493,792.96704,789.34064,623.3333,0.26275634765625,0.1282958984375,0.96368408203125,2.37762451171875,14.647064208984375,5.802001953125,1,1.0,1.0,1.0,1.0,10.00
2024-10-11 20:46:17.102,0.42637938,0.6034954,0.8481098,0.4428911,0.73058105,0.2294989,0.3874438,0.65693146,0.94641495,0.45311165,0.53607434,0.6302541,0.59617054,-0.022691205,0.68515813,0.4930546,0.2903589,-0.29998836,0.46376935,0.03660536,800.6227,799.41394,795.38464,792.5641,647.9121,0.26275634765625,0.1282958984375,0.96368408203125,2.37762451171875,14.647064208984375,5.802001953125,1,1.0,1.0,1.0,1.0,10.00
2024-10-11 20:46:17.103,0.42637938,0.6034954,0.8481098,0.4428911,0.73058105,0.2294989,0.3874438,0.65693146,0.94641495,0.45311165,0.53607434,0.6302541,0.59617054,-0.022691205,0.68515813,0.4930546,0.2903589,-0.29998836,0.46376935,0.03660536,796.1905,796.99634,796.5934,795.78754,784.10254,0.26275634765625,0.1282958984375,0.96368408203125,2.37762451171875,14.647064208984375,5.802001953125,1,1.0,1.0,1.0,1.0,10.00
2024-10-11 20:46:17.135,0.42637938,0.6034954,0.8481098,0.4428911,0.73058105,0.2294989,0.3874438,0.65693146,0.94641495,0.45311165,0.53607434,0.6302541,0.59617054,-0.022691205,0.68515813,0.4930546,0.2903589,-0.29998836,0.46376935,0.03660536,801.02563,802.23444,792.1612,799.011,770.0,0.23516845703125,0.1358642578125,0.9730224609375,2.564544677734375,18.97613525390625,4.837493896484375,1,1.0,1.0,1.0,1.0,10.00
2024-10-11 20:46:17.136,0.42637938,0.6034954,0.8481098,0.4428911,0.73058105,0.2294989,0.3874438,0.65693146,0.94641495,0.45311165,0.53607434,0.6302541,0.59617054,-0.022691205,0.68515813,0.4930546,0.2903589,-0.29998836,0.46376935,0.03660536,804.65204,800.2198,787.326,799.41394,650.32965,0.23516845703125,0.1358642578125,0.9730224609375,2.564544677734375,18.97613525390625,4.837493896484375,1,1.0,1.0,1.0,1.0,10.00
2024-10-11 20:46:17.137,0.42637938,0.6034954,0.8481098,0.4428911,0.73058105,0.2294989,0.3874438,0.65693146,0.94641495,0.45311165,0.53607434,0.6302541,0.59617054,-0.022691205,0.68515813,0.4930546,0.2903589,-0.29998836,0.46376935,0.03660536,815.12823,798.60803,792.96704,803.8461,693.8461,0.23516845703125,0.1358642578125,0.9730224609375,2.564544677734375,18.97613525390625,4.837493896484375,1,1.0,1.0,1.0,1.0,10.00
2024-10-11 20:46:17.137,0.42637938,0.6034954,0.8481098,0.4428911,0.73058105,0.2294989,0.3874438,0.65693146,0.94641495,0.45311165,0.53607434,0.6302541,0.59617054,-0.022691205,0.68515813,0.4930546,0.2903589,-0.29998836,0.46376935,0.03660536,815.9341,798.60803,799.011,812.71063,770.40295,0.23516845703125,0.1358642578125,0.9730224609375,2.564544677734375,18.97613525390625,4.837493896484375,1,1.0,1.0,1.0,1.0,10.00
2024-10-11 20:46:17.138,0.42637938,0.6034954,0.8481098,0.4428911,0.73058105,0.2294989,0.3874438,0.65693146,0.94641495,0.45311165,0.53607434,0.6302541,0.59617054,-0.022691205,0.68515813,0.4930546,0.2903589,-0.29998836,0.46376935,0.03660536,799.011,793.36993,807.8755,811.0989,730.9158,0.23516845703125,0.1358642578125,0.9730224609375,2.564544677734375,18.97613525390625,4.837493896484375,1,1.0,1.0,1.0,1.0,10.00
2024-10-11 20:46:17.139,0.42637938,0.6034954,0.8481098,0.4428911,0.73058105,0.2294989,0.3874438,0.65693146,0.94641495,0.45311165,0.53607434,0.6302541,0.59617054,-0.022691205,0.68515813,0.4930546,0.2903589,-0.29998836,0.46376935,0.03660536,798.60803,794.17584,805.4579,808.2784,738.1685,0.23516845703125,0.1358642578125,0.9730224609375,2.564544677734375,18.97613525390625,4.837493896484375,1,1.0,1.0,1.0,1.0,10.00
2024-10-11 20:46:17.140,0.42637938,0.6034954,0.8481098,0.4428911,0.73058105,0.2294989,0.3874438,0.65693146,0.94641495,0.45311165,0.53607434,0.6302541,0.59617054,-0.022691205,0.68515813,0.4930546,0.2903589,-0.29998836,0.46376935,0.03660536,799.81683,796.99634,795.78754,808.2784,741.39197,0.23516845703125,0.1358642578125,0.9730224609375,2.564544677734375,18.97613525390625,4.837493896484375,1,1.0,1.0,1.0,1.0,10.00
2024-10-11 20:46:17.141,0.42637938,0.6034954,0.8481098,0.4428911,0.73058105,0.2294989,0.3874438,0.65693146,0.94641495,0.45311165,0.53607434,0.6302541,0.59617054,-0.022691205,0.68515813,0.4930546,0.2903589,-0.29998836,0.46376935,0.03660536,799.41394,792.5641,793.36993,806.26373,1042.7839,0.23516845703125,0.1358642578125,0.9730224609375,2.564544677734375,18.97613525390625,4.837493896484375,1,1.0,1.0,1.0,1.0,10.00
2024-10-11 20:46:17.142,0.42637938,0.6034954,0.8481098,0.4428911,0.73058105,0.2294989,0.3874438,0.65693146,0.94641495,0.45311165,0.53607434,0.6302541,0.59617054,-0.022691205,0.68515813,0.4930546,0.2903589,-0.29998836,0.46376935,0.03660536,801.02563,792.96704,789.34064,807.47253,1292.6007,0.23516845703125,0.1358642578125,0.9730224609375,2.564544677734375,18.97613525390625,4.837493896484375,1,1.0,1.0,1.0,1.0,10.00
2024-10-11 20:46:17.143,0.42637938,0.6034954,0.8481098,0.4428911,0.73058105,0.2294989,0.3874438,0.65693146,0.94641495,0.45311165,0.53607434,0.6302541,0.59617054,-0.022691205,0.68515813,0.4930546,0.2903589,-0.29998836,0.46376935,0.03660536,798.60803,790.14655,794.57874,808.68134,832.0513,0.23516845703125,0.1358642578125,0.9730224609375,2.564544677734375,18.97613525390625,4.837493896484375,1,1.0,1.0,1.0,1.0,10.00
2024-10-11 20:46:17.144,0.42637938,0.6034954,0.8481098,0.4428911,0.73058105,0.2294989,0.3874438,0.65693146,0.94641495,0.45311165,0.53607434,0.6302541,0.59617054,-0.022691205,0.68515813,0.4930546,0.2903589,-0.29998836,0.46376935,0.03660536,806.6667,793.7729,798.60803,811.0989,596.7399,0.23516845703125,0.1358642578125,0.9730224609375,2.564544677734375,18.97613525390625,4.837493896484375,1,1.0,1.0,1.0,1.0,10.00
2024-10-11 20:46:17.144,0.41012648,0.5970297,0.85830814,0.47817874,0.70740557,0.25803792,0.35688362,0.6298034,0.94641495,0.45311165,0.54435223,0.6416029,0.5973338,-0.024221255,0.6737546,0.48266894,0.27582648,-0.31884068,0.4557023,0.026935006,810.696,804.65204,806.26373,817.5458,891.685,0.23516845703125,0.1358642578125,0.9730224609375,2.564544677734375,18.97613525390625,4.837493896484375,1,1.0,1.0,1.0,1.0,10.00
2024-10-11 20:46:17.151,0.41012648,0.5970297,0.85830814,0.47817874,0.70740557,0.25803792,0.35688362,0.6298034,0.94641495,0.45311165,0.54435223,0.6416029,0.5973338,-0.024221255,0.6737546,0.48266894,0.27582648,-0.31884068,0.4557023,0.026935006,808.68134,805.8608,813.1135,819.15753,649.12085,0.2052001953125,0.13726806640625,0.98529052734375,1.801910400390625,21.286468505859375,4.50103759765625,1,1.0,1.0,1.0,1.0,10.00
2024-10-11 20:46:17.152,0.41012648,0.5970297,0.85830814,0.47817874,0.70740557,0.25803792,0.35688362,0.6298034,0.94641495,0.45311165,0.54435223,0.6416029,0.5973338,-0.024221255,0.6737546,0.48266894,0.27582648,-0.31884068,0.4557023,0.026935006,807.0696,804.2491,795.38464,813.5165,431.9414,0.2052001953125,0.13726806640625,0.98529052734375,1.801910400390625,21.286468505859375,4.50103759765625,1,1.0,1.0,1.0,1.0,10.00
2024-10-11 20:46:17.153,0.41012648,0.5970297,0.85830814,0.47817874,0.70740557,0.25803792,0.35688362,0.6298034,0.94641495,0.45311165,0.54435223,0.6416029,0.5973338,-0.024221255,0.6737546,0.48266894,0.27582648,-0.31884068,0.4557023,0.026935006,805.4579,803.8461,793.7729,814.3223,544.7619,0.2052001953125,0.13726806640625,0.98529052734375,1.801910400390625,21.286468505859375,4.50103759765625,1,1.0,1.0,1.0,1.0,10.00
2024-10-11 20:46:17.153,0.41012648,0.5970297,0.85830814,0.47817874,0.70740557,0.25803792,0.35688362,0.6298034,0.94641495,0.45311165,0.54435223,0.6416029,0.5973338,-0.024221255,0.6737546,0.48266894,0.27582648,-0.31884068,0.4557023,0.026935006,805.4579,800.6227,813.91943,812.71063,564.10254,0.2052001953125,0.13726806640625,0.98529052734375,1.801910400390625,21.286468505859375,4.50103759765625,1,1.0,1.0,1.0,1.0,10.00
2024-10-11 20:46:17.154,0.41012648,0.5970297,0.85830814,0.47817874,0.70740557,0.25803792,0.35688362,0.6298034,0.94641495,0.45311165,0.54435223,0.6416029,0.5973338,-0.024221255,0.6737546,0.48266894,0.27582648,-0.31884068,0.4557023,0.026935006,808.2784,801.4286,815.5311,805.4579,530.2564,0.2052001953125,0.13726806640625,0.98529052734375,1.801910400390625,21.286468505859375,4.50103759765625,1,1.0,1.0,1.0,1.0,10.00
2024-10-11 20:46:17.155,0.41012648,0.5970297,0.85830814,0.47817874,0.70740557,0.25803792,0.35688362,0.6298034,0.94641495,0.45311165,0.54435223,0.6416029,0.5973338,-0.024221255,0.6737546,0.48266894,0.27582648,-0.31884068,0.4557023,0.026935006,818.7546,788.93774,809.89014,800.2198,567.326,0.2052001953125,0.13726806640625,0.98529052734375,1.801910400390625,21.286468505859375,4.50103759765625,1,1.0,1.0,1.0,1.0,10.00
2024-10-11 20:46:17.156,0.41012648,0.5970297,0.85830814,0.47817874,0.70740557,0.25803792,0.35688362,0.6298034,0.94641495,0.45311165,0.54435223,0.6416029,0.5973338,-0.024221255,0.6737546,0.48266894,0.27582648,-0.31884068,0.4557023,0.026935006,814.3223,787.326,799.011,797.3993,880.0,0.2052001953125,0.13726806640625,0.98529052734375,1.801910400390625,21.286468505859375,4.50103759765625,1,1.0,1.0,1.0,1.0,10.00
2024-10-11 20:46:17.156,0.41012648,0.5970297,0.85830814,0.47817874,0.70740557,0.25803792,0.35688362,0.6298034,0.94641495,0.45311165,0.54435223,0.6416029,0.5973338,-0.024221255,0.6737546,0.48266894,0.27582648,-0.31884068,0.4557023,0.026935006,800.6227,805.4579,797.8022,803.8461,994.43225,0.2052001953125,0.13726806640625,0.98529052734375,1.801910400390625,21.286468505859375,4.50103759765625,1,1.0,1.0,1.0,1.0,10.00
2024-10-11 20:46:17.157,0.41012648,0.5970297,0.85830814,0.47817874,0.70740557,0.25803792,0.35688362,0.6298034,0.94641495,0.45311165,0.54435223,0.6416029,0.5973338,-0.024221255,0.6737546,0.48266894,0.27582648,-0.31884068,0.4557023,0.026935006,801.8315,802.23444,796.1905,807.47253,590.696,0.2052001953125,0.13726806640625,0.98529052734375,1.801910400390625,21.286468505859375,4.50103759765625,1,1.0,1.0,1.0,1.0,10.00
2024-10-11 20:46:17.158,0.41012648,0.5970297,0.85830814,0.47817874,0.70740557,0.25803792,0.35688362,0.6298034,0.94641495,0.45311165,0.54435223,0.6416029,0.5973338,-0.024221255,0.6737546,0.48266894,0.27582648,-0.31884068,0.4557023,0.026935006,814.7253,802.6374,787.326,811.0989,531.4652,0.2052001953125,0.13726806640625,0.98529052734375,1.801910400390625,21.286468505859375,4.50103759765625,1,1.0,1.0,1.0,1.0,10.00
2024-10-11 20:46:17.159,0.41012648,0.5970297,0.85830814,0.47817874,0.70740557,0.25803792,0.35688362,0.6298034,0.94641495,0.45311165,0.54435223,0.6416029,0.5973338,-0.024221255,0.6737546,0.48266894,0.27582648,-0.31884068,0.4557023,0.026935006,820.3663,805.8608,792.96704,810.696,646.7033,0.2052001953125,0.13726806640625,0.98529052734375,1.801910400390625,21.286468505859375,4.50103759765625,1,1.0,1.0,1.0,1.0,10.00
2024-10-11 20:46:17.160,0.41012648,0.5970297,0.85830814,0.47817874,0.70740557,0.25803792,0.35688362,0.6298034,0.94641495,0.45311165,0.54435223,0.6416029,0.5973338,-0.024221255,0.6737546,0.48266894,0.27582648,-0.31884068,0.4557023,0.026935006,810.696,798.60803,807.8755,808.2784,627.76556,0.2052001953125,0.13726806640625,0.98529052734375,1.801910400390625,21.286468505859375,4.50103759765625,1,1.0,1.0,1.0,1.0,10.00
2024-10-11 20:46:17.190,0.41012648,0.5970297,0.85830814,0.47817874,0.70740557,0.25803792,0.35688362,0.6298034,0.94641495,0.45311165,0.54435223,0.6416029,0.5973338,-0.024221255,0.6737546,0.48266894,0.27582648,-0.31884068,0.4557023,0.026935006,804.2491,796.5934,813.5165,808.68134,504.06595,0.174072265625,0.12799072265625,0.98687744140625,-0.291595458984375,24.292144775390625,3.45428466796875,1,1.0,1.0,1.0,1.0,10.00
2024-10-11 20:46:17.191,0.41012648,0.5970297,0.85830814,0.47817874,0.70740557,0.25803792,0.35688362,0.6298034,0.94641495,0.45311165,0.54435223,0.6416029,0.5973338,-0.024221255,0.6737546,0.48266894,0.27582648,-0.31884068,0.4557023,0.026935006,810.696,798.20514,804.2491,807.47253,531.06226,0.174072265625,0.12799072265625,0.98687744140625,-0.291595458984375,24.292144775390625,3.45428466796875,1,1.0,1.0,1.0,1.0,10.00
2024-10-11 20:46:17.192,0.41012648,0.5970297,0.85830814,0.47817874,0.70740557,0.25803792,0.35688362,0.6298034,0.94641495,0.45311165,0.54435223,0.6416029,0.5973338,-0.024221255,0.6737546,0.48266894,0.27582648,-0.31884068,0.4557023,0.026935006,809.89014,795.78754,801.02563,800.2198,626.9597,0.174072265625,0.12799072265625,0.98687744140625,-0.291595458984375,24.292144775390625,3.45428466796875,1,1.0,1.0,1.0,1.0,10.00
2024-10-11 20:46:17.193,0.41012648,0.5970297,0.85830814,0.47817874,0.70740557,0.25803792,0.35688362,0.6298034,0.94641495,0.45311165,0.54435223,0.6416029,0.5973338,-0.024221255,0.6737546,0.48266894,0.27582648,-0.31884068,0.4557023,0.026935006,805.4579,796.99634,803.44324,790.9524,610.4396,0.174072265625,0.12799072265625,0.98687744140625,-0.291595458984375,24.292144775390625,3.45428466796875,1,1.0,1.0,1.0,1.0,10.00
2024-10-11 20:46:17.194,0.41012648,0.5970297,0.85830814,0.47817874,0.70740557,0.25803792,0.35688362,0.6298034,0.94641495,0.45311165,0.54435223,0.6416029,0.5973338,-0.024221255,0.6737546,0.48266894,0.27582648,-0.31884068,0.4557023,0.026935006,813.5165,801.4286,788.93774,790.54944,514.1392,0.174072265625,0.12799072265625,0.98687744140625,-0.291595458984375,24.292144775390625,3.45428466796875,1,1.0,1.0,1.0,1.0,10.00
2024-10-11 20:46:17.195,0.41012648,0.5970297,0.85830814,0.47817874,0.70740557,0.25803792,0.35688362,0.6298034,0.94641495,0.45311165,0.54435223,0.6416029,0.5973338,-0.024221255,0.6737546,0.48266894,0.27582648,-0.31884068,0.4557023,0.026935006,821.978,800.2198,786.9231,803.0403,636.63007,0.174072265625,0.12799072265625,0.98687744140625,-0.291595458984375,24.292144775390625,3.45428466796875,1,1.0,1.0,1.0,1.0,10.00
2024-10-11 20:46:17.196,0.41012648,0.5970297,0.85830814,0.47817874,0.70740557,0.25803792,0.35688362,0.6298034,0.94641495,0.45311165,0.54435223,0.6416029,0.5973338,-0.024221255,0.6737546,0.48266894,0.27582648,-0.31884068,0.4557023,0.026935006,819.9634,799.81683,799.81683,811.50183,900.14655,0.174072265625,0.12799072265625,0.98687744140625,-0.291595458984375,24.292144775390625,3.45428466796875,1,1.0,1.0,1.0,1.0,10.00
2024-10-11 20:46:17.197,0.41012648,0.5970297,0.85830814,0.47817874,0.70740557,0.25803792,0.35688362,0.6298034,0.94641495,0.45311165,0.54435223,0.6416029,0.5973338,-0.024221255,0.6737546,0.48266894,0.27582648,-0.31884068,0.4557023,0.026935006,815.5311,799.41394,797.3993,810.696,729.304,0.174072265625,0.12799072265625,0.98687744140625,-0.291595458984375,24.292144775390625,3.45428466796875,1,1.0,1.0,1.0,1.0,10.00
2024-10-11 20:46:17.198,0.41012648,0.5970297,0.85830814,0.47817874,0.70740557,0.25803792,0.35688362,0.6298034,0.94641495,0.45311165,0.54435223,0.6416029,0.5973338,-0.024221255,0.6737546,0.48266894,0.27582648,-0.31884068,0.4557023,0.026935006,809.89014,799.011,794.57874,810.293,531.8681,0.174072265625,0.12799072265625,0.98687744140625,-0.291595458984375,24.292144775390625,3.45428466796875,1,1.0,1.0,1.0,1.0,10.00
2024-10-11 20:46:17.198,0.41012648,0.5970297,0.85830814,0.47817874,0.70740557,0.25803792,0.35688362,0.6298034,0.94641495,0.45311165,0.54435223,0.6416029,0.5973338,-0.024221255,0.6737546,0.48266894,0.27582648,-0.31884068,0.4557023,0.026935006,818.3516,803.44324,794.17584,808.68134,673.2967,0.174072265625,0.12799072265625,0.98687744140625,-0.291595458984375,24.292144775390625,3.45428466796875,1,1.0,1.0,1.0,1.0,10.00
2024-10-11 20:46:17.199,0.41012648,0.5970297,0.85830814,0.47817874,0.70740557,0.25803792,0.35688362,0.6298034,0.94641495,0.45311165,0.54435223,0.6416029,0.5973338,-0.024221255,0.6737546,0.48266894,0.27582648,-0.31884068,0.4557023,0.026935006,816.337,803.44324,795.38464,807.47253,683.36993,0.174072265625,0.12799072265625,0.98687744140625,-0.291595458984375,24.292144775390625,3.45428466796875,1,1.0,1.0,1.0,1.0,10.00
2024-10-11 20:46:17.200,0.41012648,0.5970297,0.85830814,0.47817874,0.70740557,0.25803792,0.35688362,0.6298034,0.94641495,0.45311165,0.54435223,0.6416029,0.5973338,-0.024221255,0.6737546,0.48266894,0.27582648,-0.31884068,0.4557023,0.026935006,807.8755,803.0403,800.6227,812.3077,482.30768,0.174072265625,0.12799072265625,0.98687744140625,-0.291595458984375,24.292144775390625,3.45428466796875,1,1.0,1.0,1.0,1.0,10.00
2024-10-11 20:46:17.235,0.41012648,0.5970297,0.85830814,0.47817874,0.70740557,0.25803792,0.35688362,0.6298034,0.94641495,0.45311165,0.54435223,0.6416029,0.5973338,-0.024221255,0.6737546,0.48266894,0.27582648,-0.31884068,0.4557023,0.026935006,803.8461,802.6374,803.44324,806.6667,572.5641,0.13763427734375,0.12200927734375,0.98602294921875,-0.456085205078125,25.82489013671875,2.549591064453125,1,1.0,1.0,1.0,1.0,10.00
2024-10-11 20:46:17.236,0.40759423,0.5872723,0.84770983,0.5325621,0.686233,0.2778507,0.3052057,0.6070255,0.94641495,0.45220807,0.55551195,0.64583194,0.5910123,-0.012434859,0.6508585,0.47433716,0.26004723,-0.33391187,0.4692318,0.02940523,790.54944,790.14655,809.0842,796.99634,927.5458,0.13763427734375,0.12200927734375,0.98602294921875,-0.456085205078125,25.82489013671875,2.549591064453125,1,1.0,1.0,1.0,1.0,10.00
2024-10-11 20:46:17.243,0.40759423,0.5872723,0.84770983,0.5325621,0.686233,0.2778507,0.3052057,0.6070255,0.94641495,0.45220807,0.55551195,0.64583194,0.5910123,-0.012434859,0.6508585,0.47433716,0.26004723,-0.33391187,0.4692318,0.02940523,813.5165,784.90845,814.3223,815.5311,913.0403,0.13763427734375,0.12200927734375,0.98602294921875,-0.456085205078125,25.82489013671875,2.549591064453125,1,1.0,1.0,1.0,1.0,10.00
2024-10-11 20:46:17.244,0.40759423,0.5872723,0.84770983,0.5325621,0.686233,0.2778507,0.3052057,0.6070255,0.94641495,0.45220807,0.55551195,0.64583194,0.5910123,-0.012434859,0.6508585,0.47433716,0.26004723,-0.33391187,0.4692318,0.02940523,823.5897,801.02563,799.011,821.5751,701.9048,0.13763427734375,0.12200927734375,0.98602294921875,-0.456085205078125,25.82489013671875,2.549591064453125,1,1.0,1.0,1.0,1.0,10.00
2024-10-11 20:46:17.245,0.40759423,0.5872723,0.84770983,0.5325621,0.686233,0.2778507,0.3052057,0.6070255,0.94641495,0.45220807,0.55551195,0.64583194,0.5910123,-0.012434859,0.6508585,0.47433716,0.26004723,-0.33391187,0.4692318,0.02940523,803.0403,811.50183,782.0879,802.23444,618.0952,0.13763427734375,0.12200927734375,0.98602294921875,-0.456085205078125,25.82489013671875,2.549591064453125,1,1.0,1.0,1.0,1.0,10.00
2024-10-11 20:46:17.246,0.40759423,0.5872723,0.84770983,0.5325621,0.686233,0.2778507,0.3052057,0.6070255,0.94641495,0.45220807,0.55551195,0.64583194,0.5910123,-0.012434859,0.6508585,0.47433716,0.26004723,-0.33391187,0.4692318,0.02940523,796.5934,807.8755,787.326,807.0696,968.24176,0.13763427734375,0.12200927734375,0.98602294921875,-0.456085205078125,25.82489013671875,2.549591064453125,1,1.0,1.0,1.0,1.0,10.00
2024-10-11 20:46:17.247,0.40759423,0.5872723,0.84770983,0.5325621,0.686233,0.2778507,0.3052057,0.6070255,0.94641495,0.45220807,0.55551195,0.64583194,0.5910123,-0.012434859,0.6508585,0.47433716,0.26004723,-0.33391187,0.4692318,0.02940523,801.4286,805.4579,794.57874,815.12823,1158.022,0.13763427734375,0.12200927734375,0.98602294921875,-0.456085205078125,25.82489013671875,2.549591064453125,1,1.0,1.0,1.0,1.0,10.00
2024-10-11 20:46:17.248,0.40759423,0.5872723,0.84770983,0.5325621,0.686233,0.2778507,0.3052057,0.6070255,0.94641495,0.45220807,0.55551195,0.64583194,0.5910123,-0.012434859,0.6508585,0.47433716,0.26004723,-0.33391187,0.4692318,0.02940523,810.696,806.6667,788.93774,800.6227,686.99634,0.13763427734375,0.12200927734375,0.98602294921875,-0.456085205078125,25.82489013671875,2.549591064453125,1,1.0,1.0,1.0,1.0,10.00
2024-10-11 20:46:17.249,0.40759423,0.5872723,0.84770983,0.5325621,0.686233,0.2778507,0.3052057,0.6070255,0.94641495,0.45220807,0.55551195,0.64583194,0.5910123,-0.012434859,0.6508585,0.47433716,0.26004723,-0.33391187,0.4692318,0.02940523,802.6374,805.8608,780.4762,787.326,516.9597,0.13763427734375,0.12200927734375,0.98602294921875,-0.456085205078125,25.82489013671875,2.549591064453125,1,1.0,1.0,1.0,1.0,10.00
2024-10-11 20:46:17.249,0.40759423,0.5872723,0.84770983,0.5325621,0.686233,0.2778507,0.3052057,0.6070255,0.94641495,0.45220807,0.55551195,0.64583194,0.5910123,-0.012434859,0.6508585,0.47433716,0.26004723,-0.33391187,0.4692318,0.02940523,804.2491,806.6667,785.7143,798.60803,683.7729,0.13763427734375,0.12200927734375,0.98602294921875,-0.456085205078125,25.82489013671875,2.549591064453125,1,1.0,1.0,1.0,1.0,10.00
2024-10-11 20:46:17.250,0.40759423,0.5872723,0.84770983,0.5325621,0.686233,0.2778507,0.3052057,0.6070255,0.94641495,0.45220807,0.55551195,0.64583194,0.5910123,-0.012434859,0.6508585,0.47433716,0.26004723,-0.33391187,0.4692318,0.02940523,802.23444,807.47253,782.8938,811.9048,750.65936,0.13763427734375,0.12200927734375,0.98602294921875,-0.456085205078125,25.82489013671875,2.549591064453125,1,1.0,1.0,1.0,1.0,10.00
2024-10-11 20:46:17.251,0.40759423,0.5872723,0.84770983,0.5325621,0.686233,0.2778507,0.3052057,0.6070255,0.94641495,0.45220807,0.55551195,0.64583194,0.5910123,-0.012434859,0.6508585,0.47433716,0.26004723,-0.33391187,0.4692318,0.02940523,808.68134,804.65204,778.86444,806.26373,587.0696,0.13763427734375,0.12200927734375,0.98602294921875,-0.456085205078125,25.82489013671875,2.549591064453125,1,1.0,1.0,1.0,1.0,10.00
2024-10-11 20:46:17.318,0.40759423,0.5872723,0.84770983,0.5325621,0.686233,0.2778507,0.3052057,0.6070255,0.94641495,0.45220807,0.55551195,0.64583194,0.5910123,-0.012434859,0.6508585,0.47433716,0.26004723,-0.33391187,0.4692318,0.02940523,815.12823,803.0403,776.8498,803.44324,575.38464,0.13763427734375,0.12200927734375,0.98602294921875,-0.456085205078125,25.82489013671875,2.549591064453125,1,1.0,1.0,1.0,1.0,10.00
2024-10-11 20:46:17.319,0.40759423,0.5872723,0.84770983,0.5325621,0.686233,0.2778507,0.3052057,0.6070255,0.94641495,0.45220807,0.55551195,0.64583194,0.5910123,-0.012434859,0.6508585,0.47433716,0.26004723,-0.33391187,0.4692318,0.02940523,805.8608,798.60803,787.326,803.8461,662.8205,0.13763427734375,0.12200927734375,0.98602294921875,-0.456085205078125,25.82489013671875,2.549591064453125,1,1.0,1.0,1.0,1.0,10.00
2024-10-11 20:46:17.320,0.40759423,0.5872723,0.84770983,0.5325621,0.686233,0.2778507,0.3052057,0.6070255,0.94641495,0.45220807,0.55551195,0.64583194,0.5910123,-0.012434859,0.6508585,0.47433716,0.26004723,-0.33391187,0.4692318,0.02940523,801.8315,798.60803,801.4286,797.8022,637.03296,0.13763427734375,0.12200927734375,0.98602294921875,-0.456085205078125,25.82489013671875,2.549591064453125,1,1.0,1.0,1.0,1.0,10.00
2024-10-11 20:46:17.321,0.40759423,0.5872723,0.84770983,0.5325621,0.686233,0.2778507,0.3052057,0.6070255,0.94641495,0.45220807,0.55551195,0.64583194,0.5910123,-0.012434859,0.6508585,0.47433716,0.26004723,-0.33391187,0.4692318,0.02940523,807.0696,801.02563,801.8315,800.6227,547.5824,0.13763427734375,0.12200927734375,0.98602294921875,-0.456085205078125,25.82489013671875,2.549591064453125,1,1.0,1.0,1.0,1.0,10.00
2024-10-11 20:46:17.322,0.40759423,0.5872723,0.84770983,0.5325621,0.686233,0.2778507,0.3052057,0.6070255,0.94641495,0.45220807,0.55551195,0.64583194,0.5910123,-0.012434859,0.6508585,0.47433716,0.26004723,-0.33391187,0.4692318,0.02940523,807.8755,796.99634,798.60803,807.0696,713.1868,0.13763427734375,0.12200927734375,0.98602294921875,-0.456085205078125,25.82489013671875,2.549591064453125,1,1.0,1.0,1.0,1.0,10.00
2024-10-11 20:46:17.322,0.40759423,0.5872723,0.84770983,0.5325621,0.686233,0.2778507,0.3052057,0.6070255,0.94641495,0.45220807,0.55551195,0.64583194,0.5910123,-0.012434859,0.6508585,0.47433716,0.26004723,-0.33391187,0.4692318,0.02940523,805.05493,796.99634,790.14655,810.696,986.77655,0.13763427734375,0.12200927734375,0.98602294921875,-0.456085205078125,25.82489013671875,2.549591064453125,1,1.0,1.0,1.0,1.0,10.00
2024-10-11 20:46:17.323,0.40759423,0.5872723,0.84770983,0.5325621,0.686233,0.2778507,0.3052057,0.6070255,0.94641495,0.45220807,0.55551195,0.64583194,0.5910123,-0.012434859,0.6508585,0.47433716,0.26004723,-0.33391187,0.4692318,0.02940523,805.8608,797.8022,783.69965,807.0696,908.20514,0.13763427734375,0.12200927734375,0.98602294921875,-0.456085205078125,25.82489013671875,2.549591064453125,1,1.0,1.0,1.0,1.0,10.00
2024-10-11 20:46:17.324,0.40759423,0.5872723,0.84770983,0.5325621,0.686233,0.2778507,0.3052057,0.6070255,0.94641495,0.45220807,0.55551195,0.64583194,0.5910123,-0.012434859,0.6508585,0.47433716,0.26004723,-0.33391187,0.4692318,0.02940523,811.0989,796.5934,785.7143,803.0403,679.7436,0.13763427734375,0.12200927734375,0.98602294921875,-0.456085205078125,25.82489013671875,2.549591064453125,1,1.0,1.0,1.0,1.0,10.00
2024-10-11 20:46:17.325,0.40759423,0.5872723,0.84770983,0.5325621,0.686233,0.2778507,0.3052057,0.6070255,0.94641495,0.45220807,0.55551195,0.64583194,0.5910123,-0.012434859,0.6508585,0.47433716,0.26004723,-0.33391187,0.4692318,0.02940523,811.9048,796.1905,791.75824,806.26373,646.30035,0.13763427734375,0.12200927734375,0.98602294921875,-0.456085205078125,25.82489013671875,2.549591064453125,1,1.0,1.0,1.0,1.0,10.00
2024-10-11 20:46:17.326,0.40759423,0.5872723,0.84770983,0.5325621,0.686233,0.2778507,0.3052057,0.6070255,0.94641495,0.45220807,0.55551195,0.64583194,0.5910123,-0.012434859,0.6508585,0.47433716,0.26004723,-0.33391187,0.4692318,0.02940523,815.12823,796.99634,786.9231,812.3077,1075.8242,0.13763427734375,0.12200927734375,0.98602294921875,-0.456085205078125,25.82489013671875,2.549591064453125,1,1.0,1.0,1.0,1.0,10.00
2024-10-11 20:46:17.326,0.40759423,0.5872723,0.84770983,0.5325621,0.686233,0.2778507,0.3052057,0.6070255,0.94641495,0.45220807,0.55551195,0.64583194,0.5910123,-0.012434859,0.6508585,0.47433716,0.26004723,-0.33391187,0.4692318,0.02940523,817.1429,801.02563,793.7729,816.7399,1003.2967,0.13763427734375,0.12200927734375,0.98602294921875,-0.456085205078125,25.82489013671875,2.549591064453125,1,1.0,1.0,1.0,1.0,10.00
2024-10-11 20:46:17.327,0.40759423,0.5872723,0.84770983,0.5325621,0.686233,0.2778507,0.3052057,0.6070255,0.94641495,0.45220807,0.55551195,0.64583194,0.5910123,-0.012434859,0.6508585,0.47433716,0.26004723,-0.33391187,0.4692318,0.02940523,808.2784,802.23444,800.6227,810.293,546.3736,0.13763427734375,0.12200927734375,0.98602294921875,-0.456085205078125,25.82489013671875,2.549591064453125,1,1.0,1.0,1.0,1.0,10.00
2024-10-11 20:46:17.358,0.40759423,0.5872723,0.84770983,0.5325621,0.686233,0.2778507,0.3052057,0.6070255,0.94641495,0.45220807,0.55551195,0.64583194,0.5910123,-0.012434859,0.6508585,0.47433716,0.26004723,-0.33391187,0.4692318,0.02940523,804.2491,795.78754,795.78754,799.41394,651.9414,0.0980224609375,0.11639404296875,0.99267578125,0.022430419921875,27.20062255859375,2.40753173828125,1,1.0,1.0,1.0,1.0,10.00
2024-10-11 20:46:17.359,0.40759423,0.5872723,0.84770983,0.5325621,0.686233,0.2778507,0.3052057,0.6070255,0.94641495,0.45220807,0.55551195,0.64583194,0.5910123,-0.012434859,0.6508585,0.47433716,0.26004723,-0.33391187,0.4692318,0.02940523,807.0696,795.38464,790.54944,799.011,747.03296,0.0980224609375,0.11639404296875,0.99267578125,0.022430419921875,27.20062255859375,2.40753173828125,1,1.0,1.0,1.0,1.0,10.00
2024-10-11 20:46:17.360,0.40759423,0.5872723,0.84770983,0.5325621,0.686233,0.2778507,0.3052057,0.6070255,0.94641495,0.45220807,0.55551195,0.64583194,0.5910123,-0.012434859,0.6508585,0.47433716,0.26004723,-0.33391187,0.4692318,0.02940523,807.8755,799.81683,795.38464,803.8461,610.84247,0.0980224609375,0.11639404296875,0.99267578125,0.022430419921875,27.20062255859375,2.40753173828125,1,1.0,1.0,1.0,1.0,10.00
2024-10-11 20:46:17.361,0.41404644,0.56876504,0.81539214,0.60655326,0.66102356,0.2766425,0.21882522,0.58681554,0.9201451,0.45150504,0.56962395,0.64583194,0.56666744,0.016911592,0.6208172,0.46663976,0.24821126,-0.34319693,0.49550837,0.037124023,804.65204,798.60803,795.38464,797.8022,556.04395,0.0980224609375,0.11639404296875,0.99267578125,0.022430419921875,27.20062255859375,2.40753173828125,1,1.0,1.0,1.0,1.0,10.00
2024-10-11 20:46:17.367,0.41404644,0.56876504,0.81539214,0.60655326,0.66102356,0.2766425,0.21882522,0.58681554,0.9201451,0.45150504,0.56962395,0.64583194,0.56666744,0.016911592,0.6208172,0.46663976,0.24821126,-0.34319693,0.49550837,0.037124023,805.05493,799.41394,792.1612,799.011,654.35895,0.0980224609375,0.11639404296875,0.99267578125,0.022430419921875,27.20062255859375,2.40753173828125,1,1.0,1.0,1.0,1.0,10.00
2024-10-11 20:46:17.368,0.41404644,0.56876504,0.81539214,0.60655326,0.66102356,0.2766425,0.21882522,0.58681554,0.9201451,0.45150504,0.56962395,0.64583194,0.56666744,0.016911592,0.6208172,0.46663976,0.24821126,-0.34319693,0.49550837,0.037124023,810.696,800.2198,786.1172,806.26373,807.47253,0.0980224609375,0.11639404296875,0.99267578125,0.022430419921875,27.20062255859375,2.40753173828125,1,1.0,1.0,1.0,1.0,10.00
2024-10-11 20:46:17.369,0.41404644,0.56876504,0.81539214,0.60655326,0.66102356,0.2766425,0.21882522,0.58681554,0.9201451,0.45150504,0.56962395,0.64583194,0.56666744,0.016911592,0.6208172,0.46663976,0.24821126,-0.34319693,0.49550837,0.037124023,813.5165,803.44324,786.9231,807.0696,729.304,0.0980224609375,0.11639404296875,0.99267578125,0.022430419921875,27.20062255859375,2.40753173828125,1,1.0,1.0,1.0,1.0,10.00
2024-10-11 20:46:17.370,0.41404644,0.56876504,0.81539214,0.60655326,0.66102356,0.2766425,0.21882522,0.58681554,0.9201451,0.45150504,0.56962395,0.64583194,0.56666744,0.016911592,0.6208172,0.46663976,0.24821126,-0.34319693,0.49550837,0.037124023,821.5751,804.65204,796.99634,807.8755,722.4542,0.0980224609375,0.11639404296875,0.99267578125,0.022430419921875,27.20062255859375,2.40753173828125,1,1.0,1.0,1.0,1.0,10.00
2024-10-11 20:46:17.371,0.41404644,0.56876504,0.81539214,0.60655326,0.66102356,0.2766425,0.21882522,0.58681554,0.9201451,0.45150504,0.56962395,0.64583194,0.56666744,0.016911592,0.6208172,0.46663976,0.24821126,-0.34319693,0.49550837,0.037124023,820.3663,799.41394,799.41394,807.47253,833.2601,0.0980224609375,0.11639404296875,0.99267578125,0.022430419921875,27.20062255859375,2.40753173828125,1,1.0,1.0,1.0,1.0,10.00
2024-10-11 20:46:17.373,0.41404644,0.56876504,0.81539214,0.60655326,0.66102356,0.2766425,0.21882522,0.58681554,0.9201451,0.45150504,0.56962395,0.64583194,0.56666744,0.016911592,0.6208172,0.46663976,0.24821126,-0.34319693,0.49550837,0.037124023,810.696,799.41394,795.38464,811.9048,735.7509,0.0980224609375,0.11639404296875,0.99267578125,0.022430419921875,27.20062255859375,2.40753173828125,1,1.0,1.0,1.0,1.0,10.00
2024-10-11 20:46:17.375,0.41404644,0.56876504,0.81539214,0.60655326,0.66102356,0.2766425,0.21882522,0.58681554,0.9201451,0.45150504,0.56962395,0.64583194,0.56666744,0.016911592,0.6208172,0.46663976,0.24821126,-0.34319693,0.49550837,0.037124023,804.65204,800.2198,789.7436,810.696,620.9158,0.0980224609375,0.11639404296875,0.99267578125,0.022430419921875,27.20062255859375,2.40753173828125,1,1.0,1.0,1.0,1.0,10.00
2024-10-11 20:46:17.376,0.41404644,0.56876504,0.81539214,0.60655326,0.66102356,0.2766425,0.21882522,0.58681554,0.9201451,0.45150504,0.56962395,0.64583194,0.56666744,0.016911592,0.6208172,0.46663976,0.24821126,-0.34319693,0.49550837,0.037124023,809.0842,801.4286,795.78754,805.8608,578.20514,0.0980224609375,0.11639404296875,0.99267578125,0.022430419921875,27.20062255859375,2.40753173828125,1,1.0,1.0,1.0,1.0,10.00
2024-10-11 20:46:17.405,0.41404644,0.56876504,0.81539214,0.60655326,0.66102356,0.2766425,0.21882522,0.58681554,0.9201451,0.45150504,0.56962395,0.64583194,0.56666744,0.016911592,0.6208172,0.46663976,0.24821126,-0.34319693,0.49550837,0.037124023,812.71063,798.20514,807.8755,812.71063,855.0183,0.056884765625,0.11773681640625,0.99462890625,0.40374755859375,25.6304931640625,1.33087158203125,1,1.0,1.0,1.0,1.0,10.00
2024-10-11 20:46:17.407,0.41404644,0.56876504,0.81539214,0.60655326,0.66102356,0.2766425,0.21882522,0.58681554,0.9201451,0.45150504,0.56962395,0.64583194,0.56666744,0.016911592,0.6208172,0.46663976,0.24821126,-0.34319693,0.49550837,0.037124023,814.3223,801.02563,811.0989,817.1429,924.7253,0.056884765625,0.11773681640625,0.99462890625,0.40374755859375,25.6304931640625,1.33087158203125,1,1.0,1.0,1.0,1.0,10.00
2024-10-11 20:46:17.408,0.41404644,0.56876504,0.81539214,0.60655326,0.66102356,0.2766425,0.21882522,0.58681554,0.9201451,0.45150504,0.56962395,0.64583194,0.56666744,0.016911592,0.6208172,0.46663976,0.24821126,-0.34319693,0.49550837,0.037124023,815.5311,807.8755,800.6227,809.4872,536.30035,0.056884765625,0.11773681640625,0.99462890625,0.40374755859375,25.6304931640625,1.33087158203125,1,1.0,1.0,1.0,1.0,10.00
2024-10-11 20:46:17.409,0.41404644,0.56876504,0.81539214,0.60655326,0.66102356,0.2766425,0.21882522,0.58681554,0.9201451,0.45150504,0.56962395,0.64583194,0.56666744,0.016911592,0.6208172,0.46663976,0.24821126,-0.34319693,0.49550837,0.037124023,813.1135,799.41394,793.36993,807.47253,586.26373,0.056884765625,0.11773681640625,0.99462890625,0.40374755859375,25.6304931640625,1.33087158203125,1,1.0,1.0,1.0,1.0,10.00
2024-10-11 20:46:17.410,0.41404644,0.56876504,0.81539214,0.60655326,0.66102356,0.2766425,0.21882522,0.58681554,0.9201451,0.45150504,0.56962395,0.64583194,0.56666744,0.016911592,0.6208172,0.46663976,0.24821126,-0.34319693,0.49550837,0.037124023,815.12823,800.2198,795.78754,809.0842,690.6227,0.056884765625,0.11773681640625,0.99462890625,0.40374755859375,25.6304931640625,1.33087158203125,1,1.0,1.0,1.0,1.0,10.00
2024-10-11 20:46:17.411,0.41404644,0.56876504,0.81539214,0.60655326,0.66102356,0.2766425,0.21882522,0.58681554,0.9201451,0.45150504,0.56962395,0.64583194,0.56666744,0.016911592,0.6208172,0.46663976,0.24821126,-0.34319693,0.49550837,0.037124023,805.05493,802.23444,799.41394,802.6374,760.7326,0.056884765625,0.11773681640625,0.99462890625,0.40374755859375,25.6304931640625,1.33087158203125,1,1.0,1.0,1.0,1.0,10.00
2024-10-11 20:46:17.412,0.41404644,0.56876504,0.81539214,0.60655326,0.66102356,0.2766425,0.21882522,0.58681554,0.9201451,0.45150504,0.56962395,0.64583194,0.56666744,0.016911592,0.6208172,0.46663976,0.24821126,-0.34319693,0.49550837,0.037124023,800.6227,807.0696,800.2198,802.23444,736.1539,0.056884765625,0.11773681640625,0.99462890625,0.40374755859375,25.6304931640625,1.33087158203125,1,1.0,1.0,1.0,1.0,10.00
2024-10-11 20:46:17.413,0.41404644,0.56876504,0.81539214,0.60655326,0.66102356,0.2766425,0.21882522,0.58681554,0.9201451,0.45150504,0.56962395,0.64583194,0.56666744,0.016911592,0.6208172,0.46663976,0.24821126,-0.34319693,0.49550837,0.037124023,811.9048,807.47253,788.93774,807.8755,756.30035,0.056884765625,0.11773681640625,0.99462890625,0.40374755859375,25.6304931640625,1.33087158203125,1,1.0,1.0,1.0,1.0,10.00
2024-10-11 20:46:17.414,0.41404644,0.56876504,0.81539214,0.60655326,0.66102356,0.2766425,0.21882522,0.58681554,0.9201451,0.45150504,0.56962395,0.64583194,0.56666744,0.016911592,0.6208172,0.46663976,0.24821126,-0.34319693,0.49550837,0.037124023,814.3223,801.4286,783.69965,809.0842,841.31866,0.056884765625,0.11773681640625,0.99462890625,0.40374755859375,25.6304931640625,1.33087158203125,1,1.0,1.0,1.0,1.0,10.00
2024-10-11 20:46:17.415,0.41404644,0.56876504,0.81539214,0.60655326,0.66102356,0.2766425,0.21882522,0.58681554,0.9201451,0.45150504,0.56962395,0.64583194,0.56666744,0.016911592,0.6208172,0.46663976,0.24821126,-0.34319693,0.49550837,0.037124023,803.8461,803.0403,789.7436,804.2491,786.52014,0.056884765625,0.11773681640625,0.99462890625,0.40374755859375,25.6304931640625,1.33087158203125,1,1.0,1.0,1.0,1.0,10.00
2024-10-11 20:46:17.416,0.41404644,0.56876504,0.81539214,0.60655326,0.66102356,0.2766425,0.21882522,0.58681554,0.9201451,0.45150504,0.56962395,0.64583194,0.56666744,0.016911592,0.6208172,0.46663976,0.24821126,-0.34319693,0.49550837,0.037124023,798.60803,801.8315,802.23444,801.02563,682.5641,0.056884765625,0.11773681640625,0.99462890625,0.40374755859375,25.6304931640625,1.33087158203125,1,1.0,1.0,1.0,1.0,10.00
2024-10-11 20:46:17.417,0.41404644,0.56876504,0.81539214,0.60655326,0.66102356,0.2766425,0.21882522,0.58681554,0.9201451,0.45150504,0.56962395,0.64583194,0.56666744,0.016911592,0.6208172,0.46663976,0.24821126,-0.34319693,0.49550837,0.037124023,805.05493,798.20514,814.3223,805.05493,722.8571,0.056884765625,0.11773681640625,0.99462890625,0.40374755859375,25.6304931640625,1.33087158203125,1,1.0,1.0,1.0,1.0,10.00
2024-10-11 20:46:17.447,0.41404644,0.56876504,0.81539214,0.60655326,0.66102356,0.2766425,0.21882522,0.58681554,0.9201451,0.45150504,0.56962395,0.64583194,0.56666744,0.016911592,0.6208172,0.46663976,0.24821126,-0.34319693,0.49550837,0.037124023,804.65204,798.60803,808.68134,809.89014,791.75824,0.024169921875,0.11505126953125,0.99176025390625,1.099090576171875,27.39501953125,0.575714111328125,1,1.0,1.0,1.0,1.0,10.00
2024-10-11 20:46:17.448,0.41404644,0.56876504,0.81539214,0.60655326,0.66102356,0.2766425,0.21882522,0.58681554,0.9201451,0.45150504,0.56962395,0.64583194,0.56666744,0.016911592,0.6208172,0.46663976,0.24821126,-0.34319693,0.49550837,0.037124023,799.81683,800.2198,807.47253,806.6667,582.23444,0.024169921875,0.11505126953125,0.99176025390625,1.099090576171875,27.39501953125,0.575714111328125,1,1.0,1.0,1.0,1.0,10.00
2024-10-11 20:46:17.449,0.41404644,0.56876504,0.81539214,0.60655326,0.66102356,0.2766425,0.21882522,0.58681554,0.9201451,0.45150504,0.56962395,0.64583194,0.56666744,0.016911592,0.6208172,0.46663976,0.24821126,-0.34319693,0.49550837,0.037124023,798.20514,799.81683,801.8315,792.1612,480.29303,0.024169921875,0.11505126953125,0.99176025390625,1.099090576171875,27.39501953125,0.575714111328125,1,1.0,1.0,1.0,1.0,10.00
2024-10-11 20:46:17.450,0.41404644,0.56876504,0.81539214,0.60655326,0.66102356,0.2766425,0.21882522,0.58681554,0.9201451,0.45150504,0.56962395,0.64583194,0.56666744,0.016911592,0.6208172,0.46663976,0.24821126,-0.34319693,0.49550837,0.037124023,807.8755,800.6227,791.3553,794.57874,742.6007,0.024169921875,0.11505126953125,0.99176025390625,1.099090576171875,27.39501953125,0.575714111328125,1,1.0,1.0,1.0,1.0,10.00
2024-10-11 20:46:17.451,0.41404644,0.56876504,0.81539214,0.60655326,0.66102356,0.2766425,0.21882522,0.58681554,0.9201451,0.45150504,0.56962395,0.64583194,0.56666744,0.016911592,0.6208172,0.46663976,0.24821126,-0.34319693,0.49550837,0.037124023,810.293,799.41394,789.7436,805.05493,950.9158,0.024169921875,0.11505126953125,0.99176025390625,1.099090576171875,27.39501953125,0.575714111328125,1,1.0,1.0,1.0,1.0,10.00
2024-10-11 20:46:17.452,0.44090703,0.53735036,0.8168835,0.6828662,0.61807865,0.24964139,0.19498806,0.5686028,0.9062123,0.4510276,0.57944083,0.64583194,0.5361884,0.05483313,0.6088927,0.4617355,0.23722856,-0.34466538,0.49767715,0.041459173,803.44324,799.81683,784.10254,798.20514,756.7033,0.024169921875,0.11505126953125,0.99176025390625,1.099090576171875,27.39501953125,0.575714111328125,1,1.0,1.0,1.0,1.0,10.00
2024-10-11 20:46:17.458,0.44090703,0.53735036,0.8168835,0.6828662,0.61807865,0.24964139,0.19498806,0.5686028,0.9062123,0.4510276,0.57944083,0.64583194,0.5361884,0.05483313,0.6088927,0.4617355,0.23722856,-0.34466538,0.49767715,0.041459173,811.0989,800.6227,788.5348,795.38464,649.92676,0.024169921875,0.11505126953125,0.99176025390625,1.099090576171875,27.39501953125,0.575714111328125,1,1.0,1.0,1.0,1.0,10.00
2024-10-11 20:46:17.459,0.44090703,0.53735036,0.8168835,0.6828662,0.61807865,0.24964139,0.19498806,0.5686028,0.9062123,0.4510276,0.57944083,0.64583194,0.5361884,0.05483313,0.6088927,0.4617355,0.23722856,-0.34466538,0.49767715,0.041459173,810.696,799.011,792.96704,788.1319,723.2601,0.024169921875,0.11505126953125,0.99176025390625,1.099090576171875,27.39501953125,0.575714111328125,1,1.0,1.0,1.0,1.0,10.00
2024-10-11 20:46:17.461,0.44090703,0.53735036,0.8168835,0.6828662,0.61807865,0.24964139,0.19498806,0.5686028,0.9062123,0.4510276,0.57944083,0.64583194,0.5361884,0.05483313,0.6088927,0.4617355,0.23722856,-0.34466538,0.49767715,0.041459173,801.8315,799.011,783.69965,780.87915,739.3773,0.024169921875,0.11505126953125,0.99176025390625,1.099090576171875,27.39501953125,0.575714111328125,1,1.0,1.0,1.0,1.0,10.00
2024-10-11 20:46:17.462,0.44090703,0.53735036,0.8168835,0.6828662,0.61807865,0.24964139,0.19498806,0.5686028,0.9062123,0.4510276,0.57944083,0.64583194,0.5361884,0.05483313,0.6088927,0.4617355,0.23722856,-0.34466538,0.49767715,0.041459173,793.36993,800.6227,792.1612,784.10254,596.7399,0.024169921875,0.11505126953125,0.99176025390625,1.099090576171875,27.39501953125,0.575714111328125,1,1.0,1.0,1.0,1.0,10.00
2024-10-11 20:46:17.463,0.44090703,0.53735036,0.8168835,0.6828662,0.61807865,0.24964139,0.19498806,0.5686028,0.9062123,0.4510276,0.57944083,0.64583194,0.5361884,0.05483313,0.6088927,0.4617355,0.23722856,-0.34466538,0.49767715,0.041459173,790.9524,801.02563,804.65204,789.34064,570.14655,0.024169921875,0.11505126953125,0.99176025390625,1.099090576171875,27.39501953125,0.575714111328125,1,1.0,1.0,1.0,1.0,10.00
2024-10-11 20:46:17.464,0.44090703,0.53735036,0.8168835,0.6828662,0.61807865,0.24964139,0.19498806,0.5686028,0.9062123,0.4510276,0.57944083,0.64583194,0.5361884,0.05483313,0.6088927,0.4617355,0.23722856,-0.34466538,0.49767715,0.041459173,799.41394,801.4286,808.2784,794.9817,853.00366,0.024169921875,0.11505126953125,0.99176025390625,1.099090576171875,27.39501953125,0.575714111328125,1,1.0,1.0,1.0,1.0,10.00
2024-10-11 20:46:17.497,0.44090703,0.53735036,0.8168835,0.6828662,0.61807865,0.24964139,0.19498806,0.5686028,0.9062123,0.4510276,0.57944083,0.64583194,0.5361884,0.05483313,0.6088927,0.4617355,0.23722856,-0.34466538,0.49767715,0.041459173,794.9817,803.44324,807.8755,795.38464,1085.8975,-0.02130126953125,0.11651611328125,0.9931640625,2.07855224609375,29.481048583984375,-1.323394775390625,1,1.0,1.0,1.0,1.0,10.00
2024-10-11 20:46:17.498,0.44090703,0.53735036,0.8168835,0.6828662,0.61807865,0.24964139,0.19498806,0.5686028,0.9062123,0.4510276,0.57944083,0.64583194,0.5361884,0.05483313,0.6088927,0.4617355,0.23722856,-0.34466538,0.49767715,0.041459173,794.9817,803.0403,801.4286,791.3553,798.60803,-0.02130126953125,0.11651611328125,0.9931640625,2.07855224609375,29.481048583984375,-1.323394775390625,1,1.0,1.0,1.0,1.0,10.00
2024-10-11 20:46:17.499,0.44090703,0.53735036,0.8168835,0.6828662,0.61807865,0.24964139,0.19498806,0.5686028,0.9062123,0.4510276,0.57944083,0.64583194,0.5361884,0.05483313,0.6088927,0.4617355,0.23722856,-0.34466538,0.49767715,0.041459173,800.2198,799.011,796.99634,792.96704,647.9121,-0.02130126953125,0.11651611328125,0.9931640625,2.07855224609375,29.481048583984375,-1.323394775390625,1,1.0,1.0,1.0,1.0,10.00
2024-10-11 20:46:17.500,0.44090703,0.53735036,0.8168835,0.6828662,0.61807865,0.24964139,0.19498806,0.5686028,0.9062123,0.4510276,0.57944083,0.64583194,0.5361884,0.05483313,0.6088927,0.4617355,0.23722856,-0.34466538,0.49767715,0.041459173,804.2491,803.0403,803.8461,799.41394,704.7253,-0.02130126953125,0.11651611328125,0.9931640625,2.07855224609375,29.481048583984375,-1.323394775390625,1,1.0,1.0,1.0,1.0,10.00
2024-10-11 20:46:17.501,0.44090703,0.53735036,0.8168835,0.6828662,0.61807865,0.24964139,0.19498806,0.5686028,0.9062123,0.4510276,0.57944083,0.64583194,0.5361884,0.05483313,0.6088927,0.4617355,0.23722856,-0.34466538,0.49767715,0.041459173,805.05493,803.0403,800.6227,800.6227,698.68134,-0.02130126953125,0.11651611328125,0.9931640625,2.07855224609375,29.481048583984375,-1.323394775390625,1,1.0,1.0,1.0,1.0,10.00
2024-10-11 20:46:17.502,0.44090703,0.53735036,0.8168835,0.6828662,0.61807865,0.24964139,0.19498806,0.5686028,0.9062123,0.4510276,0.57944083,0.64583194,0.5361884,0.05483313,0.6088927,0.4617355,0.23722856,-0.34466538,0.49767715,0.041459173,797.3993,802.23444,796.99634,792.96704,684.9817,-0.02130126953125,0.11651611328125,0.9931640625,2.07855224609375,29.481048583984375,-1.323394775390625,1,1.0,1.0,1.0,1.0,10.00
2024-10-11 20:46:17.502,0.44090703,0.53735036,0.8168835,0.6828662,0.61807865,0.24964139,0.19498806,0.5686028,0.9062123,0.4510276,0.57944083,0.64583194,0.5361884,0.05483313,0.6088927,0.4617355,0.23722856,-0.34466538,0.49767715,0.041459173,796.99634,804.65204,787.326,790.14655,835.6777,-0.02130126953125,0.11651611328125,0.9931640625,2.07855224609375,29.481048583984375,-1.323394775390625,1,1.0,1.0,1.0,1.0,10.00
2024-10-11 20:46:17.503,0.44090703,0.53735036,0.8168835,0.6828662,0.61807865,0.24964139,0.19498806,0.5686028,0.9062123,0.4510276,0.57944083,0.64583194,0.5361884,0.05483313,0.6088927,0.4617355,0.23722856,-0.34466538,0.49767715,0.041459173,803.8461,802.23444,789.34064,787.326,881.2088,-0.02130126953125,0.11651611328125,0.9931640625,2.07855224609375,29.481048583984375,-1.323394775390625,1,1.0,1.0,1.0,1.0,10.00
2024-10-11 20:46:17.504,0.44090703,0.53735036,0.8168835,0.6828662,0.61807865,0.24964139,0.19498806,0.5686028,0.9062123,0.4510276,0.57944083,0.64583194,0.5361884,0.05483313,0.6088927,0.4617355,0.23722856,-0.34466538,0.49767715,0.041459173,799.011,801.02563,804.2491,781.28204,606.0073,-0.02130126953125,0.11651611328125,0.9931640625,2.07855224609375,29.481048583984375,-1.323394775390625,1,1.0,1.0,1.0,1.0,10.00
2024-10-11 20:46:17.504,0.44090703,0.53735036,0.8168835,0.6828662,0.61807865,0.24964139,0.19498806,0.5686028,0.9062123,0.4510276,0.57944083,0.64583194,0.5361884,0.05483313,0.6088927,0.4617355,0.23722856,-0.34466538,0.49767715,0.041459173,790.54944,803.8461,803.0403,783.2967,471.02563,-0.02130126953125,0.11651611328125,0.9931640625,2.07855224609375,29.481048583984375,-1.323394775390625,1,1.0,1.0,1.0,1.0,10.00
2024-10-11 20:46:17.505,0.44090703,0.53735036,0.8168835,0.6828662,0.61807865,0.24964139,0.19498806,0.5686028,0.9062123,0.4510276,0.57944083,0.64583194,0.5361884,0.05483313,0.6088927,0.4617355,0.23722856,-0.34466538,0.49767715,0.041459173,796.5934,807.8755,793.36993,791.75824,693.0403,-0.02130126953125,0.11651611328125,0.9931640625,2.07855224609375,29.481048583984375,-1.323394775390625,1,1.0,1.0,1.0,1.0,10.00
2024-10-11 20:46:17.506,0.44090703,0.53735036,0.8168835,0.6828662,0.61807865,0.24964139,0.19498806,0.5686028,0.9062123,0.4510276,0.57944083,0.64583194,0.5361884,0.05483313,0.6088927,0.4617355,0.23722856,-0.34466538,0.49767715,0.041459173,803.0403,806.26373,793.36993,794.57874,1021.4286,-0.02130126953125,0.11651611328125,0.9931640625,2.07855224609375,29.481048583984375,-1.323394775390625,1,1.0,1.0,1.0,1.0,10.00
2024-10-11 20:46:17.533,0.44090703,0.53735036,0.8168835,0.6828662,0.61807865,0.24964139,0.19498806,0.5686028,0.9062123,0.4510276,0.57944083,0.64583194,0.5361884,0.05483313,0.6088927,0.4617355,0.23722856,-0.34466538,0.49767715,0.041459173,807.47253,805.8608,804.2491,785.7143,856.63007,-0.02130126953125,0.11651611328125,0.9931640625,2.07855224609375,29.481048583984375,-1.323394775390625,1,1.0,1.0,1.0,1.0,10.00
2024-10-11 20:46:17.534,0.44090703,0.53735036,0.8168835,0.6828662,0.61807865,0.24964139,0.19498806,0.5686028,0.9062123,0.4510276,0.57944083,0.64583194,0.5361884,0.05483313,0.6088927,0.4617355,0.23722856,-0.34466538,0.49767715,0.041459173,804.65204,803.44324,808.68134,783.2967,623.73627,-0.02130126953125,0.11651611328125,0.9931640625,2.07855224609375,29.481048583984375,-1.323394775390625,1,1.0,1.0,1.0,1.0,10.00
2024-10-11 20:46:17.535,0.44090703,0.53735036,0.8168835,0.6828662,0.61807865,0.24964139,0.19498806,0.5686028,0.9062123,0.4510276,0.57944083,0.64583194,0.5361884,0.05483313,0.6088927,0.4617355,0.23722856,-0.34466538,0.49767715,0.041459173,794.17584,794.57874,796.99634,793.36993,867.1062,-0.02130126953125,0.11651611328125,0.9931640625,2.07855224609375,29.481048583984375,-1.323394775390625,1,1.0,1.0,1.0,1.0,10.00
2024-10-11 20:46:17.536,0.44090703,0.53735036,0.8168835,0.6828662,0.61807865,0.24964139,0.19498806,0.5686028,0.9062123,0.4510276,0.57944083,0.64583194,0.5361884,0.05483313,0.6088927,0.4617355,0.23722856,-0.34466538,0.49767715,0.041459173,788.5348,795.38464,795.38464,799.81683,1182.6007,-0.02130126953125,0.11651611328125,0.9931640625,2.07855224609375,29.481048583984375,-1.323394775390625,1,1.0,1.0,1.0,1.0,10.00
2024-10-11 20:46:17.536,0.44090703,0.53735036,0.8168835,0.6828662,0.61807865,0.24964139,0.19498806,0.5686028,0.9062123,0.4510276,0.57944083,0.64583194,0.5361884,0.05483313,0.6088927,0.4617355,0.23722856,-0.34466538,0.49767715,0.041459173,799.011,801.8315,795.78754,802.6374,816.337,-0.02130126953125,0.11651611328125,0.9931640625,2.07855224609375,29.481048583984375,-1.323394775390625,1,1.0,1.0,1.0,1.0,10.00
2024-10-11 20:46:17.537,0.44090703,0.53735036,0.8168835,0.6828662,0.61807865,0.24964139,0.19498806,0.5686028,0.9062123,0.4510276,0.57944083,0.64583194,0.5361884,0.05483313,0.6088927,0.4617355,0.23722856,-0.34466538,0.49767715,0.041459173,802.23444,797.3993,788.5348,801.8315,690.2198,-0.02130126953125,0.11651611328125,0.9931640625,2.07855224609375,29.481048583984375,-1.323394775390625,1,1.0,1.0,1.0,1.0,10.00
2024-10-11 20:46:17.538,0.44090703,0.53735036,0.8168835,0.6828662,0.61807865,0.24964139,0.19498806,0.5686028,0.9062123,0.4510276,0.57944083,0.64583194,0.5361884,0.05483313,0.6088927,0.4617355,0.23722856,-0.34466538,0.49767715,0.041459173,789.7436,792.96704,803.0403,794.57874,1089.1208,-0.02130126953125,0.11651611328125,0.9931640625,2.07855224609375,29.481048583984375,-1.323394775390625,1,1.0,1.0,1.0,1.0,10.00
2024-10-11 20:46:17.538,0.40896666,0.4947661,0.8121288,0.73713756,0.586866,0.20470366,0.18620367,0.5532928,0.9035531,0.43835476,0.5836803,0.6516419,0.5183541,0.086878054,0.60574335,0.4602619,0.24027924,-0.33433402,0.4957283,0.040139098,787.326,793.7729,815.9341,799.41394,1122.1611,-0.02130126953125,0.11651611328125,0.9931640625,2.07855224609375,29.481048583984375,-1.323394775390625,1,1.0,1.0,1.0,1.0,10.00
2024-10-11 20:46:17.545,0.40896666,0.4947661,0.8121288,0.73713756,0.586866,0.20470366,0.18620367,0.5532928,0.9035531,0.43835476,0.5836803,0.6516419,0.5183541,0.086878054,0.60574335,0.4602619,0.24027924,-0.33433402,0.4957283,0.040139098,789.7436,797.8022,816.337,794.17584,630.989,-0.02130126953125,0.11651611328125,0.9931640625,2.07855224609375,29.481048583984375,-1.323394775390625,1,1.0,1.0,1.0,1.0,10.00
2024-10-11 20:46:17.545,0.40896666,0.4947661,0.8121288,0.73713756,0.586866,0.20470366,0.18620367,0.5532928,0.9035531,0.43835476,0.5836803,0.6516419,0.5183541,0.086878054,0.60574335,0.4602619,0.24027924,-0.33433402,0.4957283,0.040139098,789.34064,799.011,799.41394,787.72894,471.02563,-0.02130126953125,0.11651611328125,0.9931640625,2.07855224609375,29.481048583984375,-1.323394775390625,1,1.0,1.0,1.0,1.0,10.00
2024-10-11 20:46:17.546,0.40896666,0.4947661,0.8121288,0.73713756,0.586866,0.20470366,0.18620367,0.5532928,0.9035531,0.43835476,0.5836803,0.6516419,0.5183541,0.086878054,0.60574335,0.4602619,0.24027924,-0.33433402,0.4957283,0.040139098,798.60803,794.9817,796.1905,798.60803,662.4176,-0.02130126953125,0.11651611328125,0.9931640625,2.07855224609375,29.481048583984375,-1.323394775390625,1,1.0,1.0,1.0,1.0,10.00
2024-10-11 20:46:17.547,0.40896666,0.4947661,0.8121288,0.73713756,0.586866,0.20470366,0.18620367,0.5532928,0.9035531,0.43835476,0.5836803,0.6516419,0.5183541,0.086878054,0.60574335,0.4602619,0.24027924,-0.33433402,0.4957283,0.040139098,789.7436,792.96704,807.0696,799.011,653.95605,-0.02130126953125,0.11651611328125,0.9931640625,2.07855224609375,29.481048583984375,-1.323394775390625,1,1.0,1.0,1.0,1.0,10.00
2024-10-11 20:46:17.574,0.40896666,0.4947661,0.8121288,0.73713756,0.586866,0.20470366,0.18620367,0.5532928,0.9035531,0.43835476,0.5836803,0.6516419,0.5183541,0.086878054,0.60574335,0.4602619,0.24027924,-0.33433402,0.4957283,0.040139098,781.685,795.38464,794.9817,794.17584,481.50183,-0.0626220703125,0.11541748046875,0.9954833984375,2.041168212890625,30.3558349609375,-2.4224853515625,1,1.0,1.0,1.0,1.0,10.00
2024-10-11 20:46:17.576,0.40896666,0.4947661,0.8121288,0.73713756,0.586866,0.20470366,0.18620367,0.5532928,0.9035531,0.43835476,0.5836803,0.6516419,0.5183541,0.086878054,0.60574335,0.4602619,0.24027924,-0.33433402,0.4957283,0.040139098,798.20514,790.14655,792.96704,797.8022,584.2491,-0.0626220703125,0.11541748046875,0.9954833984375,2.041168212890625,30.3558349609375,-2.4224853515625,1,1.0,1.0,1.0,1.0,10.00
2024-10-11 20:46:17.577,0.40896666,0.4947661,0.8121288,0.73713756,0.586866,0.20470366,0.18620367,0.5532928,0.9035531,0.43835476,0.5836803,0.6516419,0.5183541,0.086878054,0.60574335,0.4602619,0.24027924,-0.33433402,0.4957283,0.040139098,799.41394,777.6557,798.60803,802.23444,830.84247,-0.0626220703125,0.11541748046875,0.9954833984375,2.041168212890625,30.3558349609375,-2.4224853515625,1,1.0,1.0,1.0,1.0,10.00
2024-10-11 20:46:17.578,0.40896666,0.4947661,0.8121288,0.73713756,0.586866,0.20470366,0.18620367,0.5532928,0.9035531,0.43835476,0.5836803,0.6516419,0.5183541,0.086878054,0.60574335,0.4602619,0.24027924,-0.33433402,0.4957283,0.040139098,793.7729,791.75824,796.5934,801.4286,693.0403,-0.0626220703125,0.11541748046875,0.9954833984375,2.041168212890625,30.3558349609375,-2.4224853515625,1,1.0,1.0,1.0,1.0,10.00
2024-10-11 20:46:17.578,0.40896666,0.4947661,0.8121288,0.73713756,0.586866,0.20470366,0.18620367,0.5532928,0.9035531,0.43835476,0.5836803,0.6516419,0.5183541,0.086878054,0.60574335,0.4602619,0.24027924,-0.33433402,0.4957283,0.040139098,792.5641,806.6667,789.7436,801.4286,591.50183,-0.0626220703125,0.11541748046875,0.9954833984375,2.041168212890625,30.3558349609375,-2.4224853515625,1,1.0,1.0,1.0,1.0,10.00
2024-10-11 20:46:17.579,0.40896666,0.4947661,0.8121288,0.73713756,0.586866,0.20470366,0.18620367,0.5532928,0.9035531,0.43835476,0.5836803,0.6516419,0.5183541,0.086878054,0.60574335,0.4602619,0.24027924,-0.33433402,0.4957283,0.040139098,796.1905,799.81683,776.8498,798.60803,828.8278,-0.0626220703125,0.11541748046875,0.9954833984375,2.041168212890625,30.3558349609375,-2.4224853515625,1,1.0,1.0,1.0,1.0,10.00
2024-10-11 20:46:17.580,0.40896666,0.4947661,0.8121288,0.73713756,0.586866,0.20470366,0.18620367,0.5532928,0.9035531,0.43835476,0.5836803,0.6516419,0.5183541,0.086878054,0.60574335,0.4602619,0.24027924,-0.33433402,0.4957283,0.040139098,803.8461,797.3993,795.78754,792.5641,971.06226,-0.0626220703125,0.11541748046875,0.9954833984375,2.041168212890625,30.3558349609375,-2.4224853515625,1,1.0,1.0,1.0,1.0,10.00
2024-10-11 20:46:17.581,0.40896666,0.4947661,0.8121288,0.73713756,0.586866,0.20470366,0.18620367,0.5532928,0.9035531,0.43835476,0.5836803,0.6516419,0.5183541,0.086878054,0.60574335,0.4602619,0.24027924,-0.33433402,0.4957283,0.040139098,807.47253,796.99634,815.5311,792.96704,803.8461,-0.0626220703125,0.11541748046875,0.9954833984375,2.041168212890625,30.3558349609375,-2.4224853515625,1,1.0,1.0,1.0,1.0,10.00
2024-10-11 20:46:17.582,0.40896666,0.4947661,0.8121288,0.73713756,0.586866,0.20470366,0.18620367,0.5532928,0.9035531,0.43835476,0.5836803,0.6516419,0.5183541,0.086878054,0.60574335,0.4602619,0.24027924,-0.33433402,0.4957283,0.040139098,803.44324,795.38464,784.90845,792.5641,541.53845,-0.0626220703125,0.11541748046875,0.9954833984375,2.041168212890625,30.3558349609375,-2.4224853515625,1,1.0,1.0,1.0,1.0,10.00
2024-10-11 20:46:17.583,0.40896666,0.4947661,0.8121288,0.73713756,0.586866,0.20470366,0.18620367,0.5532928,0.9035531,0.43835476,0.5836803,0.6516419,0.5183541,0.086878054,0.60574335,0.4602619,0.24027924,-0.33433402,0.4957283,0.040139098,793.36993,799.011,788.5348,790.54944,626.55676,-0.0626220703125,0.11541748046875,0.9954833984375,2.041168212890625,30.3558349609375,-2.4224853515625,1,1.0,1.0,1.0,1.0,10.00
2024-10-11 20:46:17.583,0.40896666,0.4947661,0.8121288,0.73713756,0.586866,0.20470366,0.18620367,0.5532928,0.9035531,0.43835476,0.5836803,0.6516419,0.5183541,0.086878054,0.60574335,0.4602619,0.24027924,-0.33433402,0.4957283,0.040139098,784.5055,797.3993,824.7985,794.9817,785.31134,-0.0626220703125,0.11541748046875,0.9954833984375,2.041168212890625,30.3558349609375,-2.4224853515625,1,1.0,1.0,1.0,1.0,10.00
2024-10-11 20:46:17.584,0.40896666,0.4947661,0.8121288,0.73713756,0.586866,0.20470366,0.18620367,0.5532928,0.9035531,0.43835476,0.5836803,0.6516419,0.5183541,0.086878054,0.60574335,0.4602619,0.24027924,-0.33433402,0.4957283,0.040139098,794.57874,805.4579,778.86444,795.38464,674.90845,-0.0626220703125,0.11541748046875,0.9954833984375,2.041168212890625,30.3558349609375,-2.4224853515625,1,1.0,1.0,1.0,1.0,10.00
2024-10-11 20:46:17.651,0.40896666,0.4947661,0.8121288,0.73713756,0.586866,0.20470366,0.18620367,0.5532928,0.9035531,0.43835476,0.5836803,0.6516419,0.5183541,0.086878054,0.60574335,0.4602619,0.24027924,-0.33433402,0.4957283,0.040139098,800.2198,807.8755,776.04395,787.326,568.1319,-0.07672119140625,0.124267578125,0.9967041015625,-0.127105712890625,33.339080810546875,0.897216796875,1,1.0,1.0,1.0,1.0,10.00
2024-10-11 20:46:17.652,0.40896666,0.4947661,0.8121288,0.73713756,0.586866,0.20470366,0.18620367,0.5532928,0.9035531,0.43835476,0.5836803,0.6516419,0.5183541,0.086878054,0.60574335,0.4602619,0.24027924,-0.33433402,0.4957283,0.040139098,786.9231,797.8022,840.10986,788.93774,660.0,-0.07672119140625,0.124267578125,0.9967041015625,-0.127105712890625,33.339080810546875,0.897216796875,1,1.0,1.0,1.0,1.0,10.00
2024-10-11 20:46:17.653,0.40896666,0.4947661,0.8121288,0.73713756,0.586866,0.20470366,0.18620367,0.5532928,0.9035531,0.43835476,0.5836803,0.6516419,0.5183541,0.086878054,0.60574335,0.4602619,0.24027924,-0.33433402,0.4957283,0.040139098,780.07324,796.1905,838.49817,795.78754,667.6557,-0.07672119140625,0.124267578125,0.9967041015625,-0.127105712890625,33.339080810546875,0.897216796875,1,1.0,1.0,1.0,1.0,10.00
2024-10-11 20:46:17.654,0.40896666,0.4947661,0.8121288,0.73713756,0.586866,0.20470366,0.18620367,0.5532928,0.9035531,0.43835476,0.5836803,0.6516419,0.5183541,0.086878054,0.60574335,0.4602619,0.24027924,-0.33433402,0.4957283,0.040139098,778.0586,801.02563,809.4872,799.81683,508.9011,-0.07672119140625,0.124267578125,0.9967041015625,-0.127105712890625,33.339080810546875,0.897216796875,1,1.0,1.0,1.0,1.0,10.00
2024-10-11 20:46:17.655,0.40896666,0.4947661,0.8121288,0.73713756,0.586866,0.20470366,0.18620367,0.5532928,0.9035531,0.43835476,0.5836803,0.6516419,0.5183541,0.086878054,0.60574335,0.4602619,0.24027924,-0.33433402,0.4957283,0.040139098,788.5348,800.2198,797.3993,800.2198,455.7143,-0.07672119140625,0.124267578125,0.9967041015625,-0.127105712890625,33.339080810546875,0.897216796875,1,1.0,1.0,1.0,1.0,10.00
2024-10-11 20:46:17.655,0.40896666,0.4947661,0.8121288,0.73713756,0.586866,0.20470366,0.18620367,0.5532928,0.9035531,0.43835476,0.5836803,0.6516419,0.5183541,0.086878054,0.60574335,0.4602619,0.24027924,-0.33433402,0.4957283,0.040139098,786.1172,796.99634,802.23444,790.9524,592.3077,-0.07672119140625,0.124267578125,0.9967041015625,-0.127105712890625,33.339080810546875,0.897216796875,1,1.0,1.0,1.0,1.0,10.00
2024-10-11 20:46:17.656,0.40896666,0.4947661,0.8121288,0.73713756,0.586866,0.20470366,0.18620367,0.5532928,0.9035531,0.43835476,0.5836803,0.6516419,0.5183541,0.086878054,0.60574335,0.4602619,0.24027924,-0.33433402,0.4957283,0.040139098,786.52014,795.78754,810.293,783.2967,669.67035,-0.07672119140625,0.124267578125,0.9967041015625,-0.127105712890625,33.339080810546875,0.897216796875,1,1.0,1.0,1.0,1.0,10.00
2024-10-11 20:46:17.657,0.40896666,0.4947661,0.8121288,0.73713756,0.586866,0.20470366,0.18620367,0.5532928,0.9035531,0.43835476,0.5836803,0.6516419,0.5183541,0.086878054,0.60574335,0.4602619,0.24027924,-0.33433402,0.4957283,0.040139098,790.9524,796.1905,807.47253,785.31134,544.7619,-0.07672119140625,0.124267578125,0.9967041015625,-0.127105712890625,33.339080810546875,0.897216796875,1,1.0,1.0,1.0,1.0,10.00
2024-10-11 20:46:17.657,0.40896666,0.4947661,0.8121288,0.73713756,0.586866,0.20470366,0.18620367,0.5532928,0.9035531,0.43835476,0.5836803,0.6516419,0.5183541,0.086878054,0.60574335,0.4602619,0.24027924,-0.33433402,0.4957283,0.040139098,790.9524,797.8022,813.1135,792.96704,488.35165,-0.07672119140625,0.124267578125,0.9967041015625,-0.127105712890625,33.339080810546875,0.897216796875,1,1.0,1.0,1.0,1.0,10.00
2024-10-11 20:46:17.658,0.37672457,0.44023246,0.79930973,0.7688541,0.56296885,0.16137244,0.1886796,0.5408831,0.9035531,0.43835476,0.5836803,0.65805507,0.50614613,0.103924714,0.6083069,0.45999873,0.2476676,-0.3130186,0.4921419,0.03624938,798.60803,799.41394,814.7253,799.41394,806.26373,-0.07672119140625,0.124267578125,0.9967041015625,-0.127105712890625,33.339080810546875,0.897216796875,1,1.0,1.0,1.0,1.0,10.00
2024-10-11 20:46:17.664,0.37672457,0.44023246,0.79930973,0.7688541,0.56296885,0.16137244,0.1886796,0.5408831,0.9035531,0.43835476,0.5836803,0.65805507,0.50614613,0.103924714,0.6083069,0.45999873,0.2476676,-0.3130186,0.4921419,0.03624938,805.8608,798.20514,789.34064,800.2198,985.56775,-0.07672119140625,0.124267578125,0.9967041015625,-0.127105712890625,33.339080810546875,0.897216796875,1,1.0,1.0,1.0,1.0,10.00
2024-10-11 20:46:17.665,0.37672457,0.44023246,0.79930973,0.7688541,0.56296885,0.16137244,0.1886796,0.5408831,0.9035531,0.43835476,0.5836803,0.65805507,0.50614613,0.103924714,0.6083069,0.45999873,0.2476676,-0.3130186,0.4921419,0.03624938,801.8315,801.4286,791.3553,791.3553,565.7143,-0.07672119140625,0.124267578125,0.9967041015625,-0.127105712890625,33.339080810546875,0.897216796875,1,1.0,1.0,1.0,1.0,10.00
2024-10-11 20:46:17.692,0.37672457,0.44023246,0.79930973,0.7688541,0.56296885,0.16137244,0.1886796,0.5408831,0.9035531,0.43835476,0.5836803,0.65805507,0.50614613,0.103924714,0.6083069,0.45999873,0.2476676,-0.3130186,0.4921419,0.03624938,796.99634,805.4579,804.2491,791.75824,476.26373,-0.1405029296875,0.1175537109375,0.9871826171875,-1.77947998046875,33.234405517578125,4.844970703125,1,1.0,1.0,1.0,1.0,10.00
2024-10-11 20:46:17.693,0.37672457,0.44023246,0.79930973,0.7688541,0.56296885,0.16137244,0.1886796,0.5408831,0.9035531,0.43835476,0.5836803,0.65805507,0.50614613,0.103924714,0.6083069,0.45999873,0.2476676,-0.3130186,0.4921419,0.03624938,801.8315,804.2491,799.81683,789.34064,583.44324,-0.1405029296875,0.1175537109375,0.9871826171875,-1.77947998046875,33.234405517578125,4.844970703125,1,1.0,1.0,1.0,1.0,10.00
2024-10-11 20:46:17.694,0.37672457,0.44023246,0.79930973,0.7688541,0.56296885,0.16137244,0.1886796,0.5408831,0.9035531,0.43835476,0.5836803,0.65805507,0.50614613,0.103924714,0.6083069,0.45999873,0.2476676,-0.3130186,0.4921419,0.03624938,800.6227,805.4579,786.9231,788.5348,545.56775,-0.1405029296875,0.1175537109375,0.9871826171875,-1.77947998046875,33.234405517578125,4.844970703125,1,1.0,1.0,1.0,1.0,10.00
2024-10-11 20:46:17.694,0.37672457,0.44023246,0.79930973,0.7688541,0.56296885,0.16137244,0.1886796,0.5408831,0.9035531,0.43835476,0.5836803,0.65805507,0.50614613,0.103924714,0.6083069,0.45999873,0.2476676,-0.3130186,0.4921419,0.03624938,804.2491,809.0842,777.25275,796.5934,487.94873,-0.1405029296875,0.1175537109375,0.9871826171875,-1.77947998046875,33.234405517578125,4.844970703125,1,1.0,1.0,1.0,1.0,10.00
2024-10-11 20:46:17.695,0.37672457,0.44023246,0.79930973,0.7688541,0.56296885,0.16137244,0.1886796,0.5408831,0.9035531,0.43835476,0.5836803,0.65805507,0.50614613,0.103924714,0.6083069,0.45999873,0.2476676,-0.3130186,0.4921419,0.03624938,809.0842,808.2784,789.34064,800.6227,583.8461,-0.1405029296875,0.1175537109375,0.9871826171875,-1.77947998046875,33.234405517578125,4.844970703125,1,1.0,1.0,1.0,1.0,10.00
2024-10-11 20:46:17.696,0.37672457,0.44023246,0.79930973,0.7688541,0.56296885,0.16137244,0.1886796,0.5408831,0.9035531,0.43835476,0.5836803,0.65805507,0.50614613,0.103924714,0.6083069,0.45999873,0.2476676,-0.3130186,0.4921419,0.03624938,787.72894,804.2491,799.81683,789.34064,698.2784,-0.1405029296875,0.1175537109375,0.9871826171875,-1.77947998046875,33.234405517578125,4.844970703125,1,1.0,1.0,1.0,1.0,10.00
2024-10-11 20:46:17.697,0.37672457,0.44023246,0.79930973,0.7688541,0.56296885,0.16137244,0.1886796,0.5408831,0.9035531,0.43835476,0.5836803,0.65805507,0.50614613,0.103924714,0.6083069,0.45999873,0.2476676,-0.3130186,0.4921419,0.03624938,775.64105,800.2198,793.36993,781.685,648.315,-0.1405029296875,0.1175537109375,0.9871826171875,-1.77947998046875,33.234405517578125,4.844970703125,1,1.0,1.0,1.0,1.0,10.00
2024-10-11 20:46:17.698,0.37672457,0.44023246,0.79930973,0.7688541,0.56296885,0.16137244,0.1886796,0.5408831,0.9035531,0.43835476,0.5836803,0.65805507,0.50614613,0.103924714,0.6083069,0.45999873,0.2476676,-0.3130186,0.4921419,0.03624938,787.326,799.011,796.99634,787.326,547.1795,-0.1405029296875,0.1175537109375,0.9871826171875,-1.77947998046875,33.234405517578125,4.844970703125,1,1.0,1.0,1.0,1.0,10.00
2024-10-11 20:46:17.699,0.37672457,0.44023246,0.79930973,0.7688541,0.56296885,0.16137244,0.1886796,0.5408831,0.9035531,0.43835476,0.5836803,0.65805507,0.50614613,0.103924714,0.6083069,0.45999873,0.2476676,-0.3130186,0.4921419,0.03624938,793.36993,799.81683,811.0989,793.7729,701.50183,-0.1405029296875,0.1175537109375,0.9871826171875,-1.77947998046875,33.234405517578125,4.844970703125,1,1.0,1.0,1.0,1.0,10.00
2024-10-11 20:46:17.700,0.37672457,0.44023246,0.79930973,0.7688541,0.56296885,0.16137244,0.1886796,0.5408831,0.9035531,0.43835476,0.5836803,0.65805507,0.50614613,0.103924714,0.6083069,0.45999873,0.2476676,-0.3130186,0.4921419,0.03624938,796.1905,798.60803,804.65204,796.5934,857.03296,-0.1405029296875,0.1175537109375,0.9871826171875,-1.77947998046875,33.234405517578125,4.844970703125,1,1.0,1.0,1.0,1.0,10.00
2024-10-11 20:46:17.700,0.37672457,0.44023246,0.79930973,0.7688541,0.56296885,0.16137244,0.1886796,0.5408831,0.9035531,0.43835476,0.5836803,0.65805507,0.50614613,0.103924714,0.6083069,0.45999873,0.2476676,-0.3130186,0.4921419,0.03624938,799.41394,800.6227,797.8022,790.9524,651.9414,-0.1405029296875,0.1175537109375,0.9871826171875,-1.77947998046875,33.234405517578125,4.844970703125,1,1.0,1.0,1.0,1.0,10.00
2024-10-11 20:46:17.701,0.37672457,0.44023246,0.79930973,0.7688541,0.56296885,0.16137244,0.1886796,0.5408831,0.9035531,0.43835476,0.5836803,0.65805507,0.50614613,0.103924714,0.6083069,0.45999873,0.2476676,-0.3130186,0.4921419,0.03624938,790.54944,800.2198,788.1319,793.7729,570.14655,-0.1405029296875,0.1175537109375,0.9871826171875,-1.77947998046875,33.234405517578125,4.844970703125,1,1.0,1.0,1.0,1.0,10.00
2024-10-11 20:46:17.728,0.37672457,0.44023246,0.79930973,0.7688541,0.56296885,0.16137244,0.1886796,0.5408831,0.9035531,0.43835476,0.5836803,0.65805507,0.50614613,0.103924714,0.6083069,0.45999873,0.2476676,-0.3130186,0.4921419,0.03624938,791.75824,798.20514,794.17584,801.4286,749.0476,-0.19390869140625,0.1068115234375,0.973876953125,-1.4056396484375,30.393218994140625,4.5159912109375,1,1.0,1.0,1.0,1.0,10.00
2024-10-11 20:46:17.729,0.37672457,0.44023246,0.79930973,0.7688541,0.56296885,0.16137244,0.1886796,0.5408831,0.9035531,0.43835476,0.5836803,0.65805507,0.50614613,0.103924714,0.6083069,0.45999873,0.2476676,-0.3130186,0.4921419,0.03624938,797.3993,797.3993,804.2491,800.2198,980.7326,-0.19390869140625,0.1068115234375,0.973876953125,-1.4056396484375,30.393218994140625,4.5159912109375,1,1.0,1.0,1.0,1.0,10.00
2024-10-11 20:46:17.730,0.37672457,0.44023246,0.79930973,0.7688541,0.56296885,0.16137244,0.1886796,0.5408831,0.9035531,0.43835476,0.5836803,0.65805507,0.50614613,0.103924714,0.6083069,0.45999873,0.2476676,-0.3130186,0.4921419,0.03624938,788.1319,800.2198,804.65204,792.96704,773.6264,-0.19390869140625,0.1068115234375,0.973876953125,-1.4056396484375,30.393218994140625,4.5159912109375,1,1.0,1.0,1.0,1.0,10.00
2024-10-11 20:46:17.731,0.37672457,0.44023246,0.79930973,0.7688541,0.56296885,0.16137244,0.1886796,0.5408831,0.9035531,0.43835476,0.5836803,0.65805507,0.50614613,0.103924714,0.6083069,0.45999873,0.2476676,-0.3130186,0.4921419,0.03624938,802.23444,803.0403,809.4872,792.5641,529.0476,-0.19390869140625,0.1068115234375,0.973876953125,-1.4056396484375,30.393218994140625,4.5159912109375,1,1.0,1.0,1.0,1.0,10.00
2024-10-11 20:46:17.732,0.37672457,0.44023246,0.79930973,0.7688541,0.56296885,0.16137244,0.1886796,0.5408831,0.9035531,0.43835476,0.5836803,0.65805507,0.50614613,0.103924714,0.6083069,0.45999873,0.2476676,-0.3130186,0.4921419,0.03624938,801.02563,806.6667,800.2198,797.3993,604.3956,-0.19390869140625,0.1068115234375,0.973876953125,-1.4056396484375,30.393218994140625,4.5159912109375,1,1.0,1.0,1.0,1.0,10.00
2024-10-11 20:46:17.733,0.37672457,0.44023246,0.79930973,0.7688541,0.56296885,0.16137244,0.1886796,0.5408831,0.9035531,0.43835476,0.5836803,0.65805507,0.50614613,0.103924714,0.6083069,0.45999873,0.2476676,-0.3130186,0.4921419,0.03624938,784.5055,794.57874,786.52014,801.02563,660.80585,-0.19390869140625,0.1068115234375,0.973876953125,-1.4056396484375,30.393218994140625,4.5159912109375,1,1.0,1.0,1.0,1.0,10.00
2024-10-11 20:46:17.733,0.37672457,0.44023246,0.79930973,0.7688541,0.56296885,0.16137244,0.1886796,0.5408831,0.9035531,0.43835476,0.5836803,0.65805507,0.50614613,0.103924714,0.6083069,0.45999873,0.2476676,-0.3130186,0.4921419,0.03624938,793.36993,791.75824,793.7729,802.6374,653.1502,-0.19390869140625,0.1068115234375,0.973876953125,-1.4056396484375,30.393218994140625,4.5159912109375,1,1.0,1.0,1.0,1.0,10.00
2024-10-11 20:46:17.734,0.37672457,0.44023246,0.79930973,0.7688541,0.56296885,0.16137244,0.1886796,0.5408831,0.9035531,0.43835476,0.5836803,0.65805507,0.50614613,0.103924714,0.6083069,0.45999873,0.2476676,-0.3130186,0.4921419,0.03624938,798.60803,807.0696,805.05493,799.41394,626.9597,-0.19390869140625,0.1068115234375,0.973876953125,-1.4056396484375,30.393218994140625,4.5159912109375,1,1.0,1.0,1.0,1.0,10.00
2024-10-11 20:46:17.735,0.37672457,0.44023246,0.79930973,0.7688541,0.56296885,0.16137244,0.1886796,0.5408831,0.9035531,0.43835476,0.5836803,0.65805507,0.50614613,0.103924714,0.6083069,0.45999873,0.2476676,-0.3130186,0.4921419,0.03624938,793.7729,806.26373,794.9817,805.05493,844.5421,-0.19390869140625,0.1068115234375,0.973876953125,-1.4056396484375,30.393218994140625,4.5159912109375,1,1.0,1.0,1.0,1.0,10.00
2024-10-11 20:46:17.736,0.37672457,0.44023246,0.79930973,0.7688541,0.56296885,0.16137244,0.1886796,0.5408831,0.9035531,0.43835476,0.5836803,0.65805507,0.50614613,0.103924714,0.6083069,0.45999873,0.2476676,-0.3130186,0.4921419,0.03624938,794.17584,803.44324,803.0403,811.50183,900.9524,-0.19390869140625,0.1068115234375,0.973876953125,-1.4056396484375,30.393218994140625,4.5159912109375,1,1.0,1.0,1.0,1.0,10.00
2024-10-11 20:46:17.737,0.37672457,0.44023246,0.79930973,0.7688541,0.56296885,0.16137244,0.1886796,0.5408831,0.9035531,0.43835476,0.5836803,0.65805507,0.50614613,0.103924714,0.6083069,0.45999873,0.2476676,-0.3130186,0.4921419,0.03624938,792.5641,801.8315,799.011,803.44324,668.0586,-0.19390869140625,0.1068115234375,0.973876953125,-1.4056396484375,30.393218994140625,4.5159912109375,1,1.0,1.0,1.0,1.0,10.00
2024-10-11 20:46:17.737,0.3619437,0.36991426,0.77974355,0.7866407,0.5480679,0.1363941,0.19157109,0.5309554,0.8977047,0.43128094,0.5836803,0.65805507,0.501531,0.10662876,0.614386,0.45778757,0.25799274,-0.29019353,0.48775497,0.033588845,792.5641,798.60803,798.60803,789.34064,731.31866,-0.19390869140625,0.1068115234375,0.973876953125,-1.4056396484375,30.393218994140625,4.5159912109375,1,1.0,1.0,1.0,1.0,10.00
2024-10-11 20:46:17.801,0.3619437,0.36991426,0.77974355,0.7866407,0.5480679,0.1363941,0.19157109,0.5309554,0.8977047,0.43128094,0.5836803,0.65805507,0.501531,0.10662876,0.614386,0.45778757,0.25799274,-0.29019353,0.48775497,0.033588845,797.8022,799.011,816.7399,780.87915,753.47986,-0.19390869140625,0.1068115234375,0.973876953125,-1.4056396484375,30.393218994140625,4.5159912109375,1,1.0,1.0,1.0,1.0,10.00
2024-10-11 20:46:17.802,0.3619437,0.36991426,0.77974355,0.7866407,0.5480679,0.1363941,0.19157109,0.5309554,0.8977047,0.43128094,0.5836803,0.65805507,0.501531,0.10662876,0.614386,0.45778757,0.25799274,-0.29019353,0.48775497,0.033588845,796.99634,793.36993,812.3077,788.93774,672.0879,-0.19390869140625,0.1068115234375,0.973876953125,-1.4056396484375,30.393218994140625,4.5159912109375,1,1.0,1.0,1.0,1.0,10.00
2024-10-11 20:46:17.803,0.3619437,0.36991426,0.77974355,0.7866407,0.5480679,0.1363941,0.19157109,0.5309554,0.8977047,0.43128094,0.5836803,0.65805507,0.501531,0.10662876,0.614386,0.45778757,0.25799274,-0.29019353,0.48775497,0.033588845,795.38464,795.78754,801.02563,786.52014,663.22345,-0.19390869140625,0.1068115234375,0.973876953125,-1.4056396484375,30.393218994140625,4.5159912109375,1,1.0,1.0,1.0,1.0,10.00
2024-10-11 20:46:17.804,0.3619437,0.36991426,0.77974355,0.7866407,0.5480679,0.1363941,0.19157109,0.5309554,0.8977047,0.43128094,0.5836803,0.65805507,0.501531,0.10662876,0.614386,0.45778757,0.25799274,-0.29019353,0.48775497,0.033588845,794.17584,805.4579,798.20514,784.5055,645.09155,-0.19390869140625,0.1068115234375,0.973876953125,-1.4056396484375,30.393218994140625,4.5159912109375,1,1.0,1.0,1.0,1.0,10.00
2024-10-11 20:46:17.805,0.3619437,0.36991426,0.77974355,0.7866407,0.5480679,0.1363941,0.19157109,0.5309554,0.8977047,0.43128094,0.5836803,0.65805507,0.501531,0.10662876,0.614386,0.45778757,0.25799274,-0.29019353,0.48775497,0.033588845,797.8022,801.02563,800.2198,784.10254,734.5421,-0.19390869140625,0.1068115234375,0.973876953125,-1.4056396484375,30.393218994140625,4.5159912109375,1,1.0,1.0,1.0,1.0,10.00
2024-10-11 20:46:17.805,0.3619437,0.36991426,0.77974355,0.7866407,0.5480679,0.1363941,0.19157109,0.5309554,0.8977047,0.43128094,0.5836803,0.65805507,0.501531,0.10662876,0.614386,0.45778757,0.25799274,-0.29019353,0.48775497,0.033588845,797.8022,788.5348,791.3553,780.07324,864.68866,-0.19390869140625,0.1068115234375,0.973876953125,-1.4056396484375,30.393218994140625,4.5159912109375,1,1.0,1.0,1.0,1.0,10.00
2024-10-11 20:46:17.806,0.3619437,0.36991426,0.77974355,0.7866407,0.5480679,0.1363941,0.19157109,0.5309554,0.8977047,0.43128094,0.5836803,0.65805507,0.501531,0.10662876,0.614386,0.45778757,0.25799274,-0.29019353,0.48775497,0.033588845,787.326,790.9524,784.10254,780.07324,767.98535,-0.19390869140625,0.1068115234375,0.973876953125,-1.4056396484375,30.393218994140625,4.5159912109375,1,1.0,1.0,1.0,1.0,10.00
2024-10-11 20:46:17.807,0.3619437,0.36991426,0.77974355,0.7866407,0.5480679,0.1363941,0.19157109,0.5309554,0.8977047,0.43128094,0.5836803,0.65805507,0.501531,0.10662876,0.614386,0.45778757,0.25799274,-0.29019353,0.48775497,0.033588845,784.90845,807.47253,788.5348,785.7143,871.13556,-0.19390869140625,0.1068115234375,0.973876953125,-1.4056396484375,30.393218994140625,4.5159912109375,1,1.0,1.0,1.0,1.0,10.00
2024-10-11 20:46:17.807,0.3619437,0.36991426,0.77974355,0.7866407,0.5480679,0.1363941,0.19157109,0.5309554,0.8977047,0.43128094,0.5836803,0.65805507,0.501531,0.10662876,0.614386,0.45778757,0.25799274,-0.29019353,0.48775497,0.033588845,804.65204,812.71063,797.8022,787.326,921.50183,-0.19390869140625,0.1068115234375,0.973876953125,-1.4056396484375,30.393218994140625,4.5159912109375,1,1.0,1.0,1.0,1.0,10.00
2024-10-11 20:46:17.808,0.3619437,0.36991426,0.77974355,0.7866407,0.5480679,0.1363941,0.19157109,0.5309554,0.8977047,0.43128094,0.5836803,0.65805507,0.501531,0.10662876,0.614386,0.45778757,0.25799274,-0.29019353,0.48775497,0.033588845,814.7253,809.4872,800.2198,782.49084,701.50183,-0.19390869140625,0.1068115234375,0.973876953125,-1.4056396484375,30.393218994140625,4.5159912109375,1,1.0,1.0,1.0,1.0,10.00
2024-10-11 20:46:17.809,0.3619437,0.36991426,0.77974355,0.7866407,0.5480679,0.1363941,0.19157109,0.5309554,0.8977047,0.43128094,0.5836803,0.65805507,0.501531,0.10662876,0.614386,0.45778757,0.25799274,-0.29019353,0.48775497,0.033588845,801.8315,813.1135,799.41394,790.9524,630.58606,-0.19390869140625,0.1068115234375,0.973876953125,-1.4056396484375,30.393218994140625,4.5159912109375,1,1.0,1.0,1.0,1.0,10.00
2024-10-11 20:46:17.809,0.3619437,0.36991426,0.77974355,0.7866407,0.5480679,0.1363941,0.19157109,0.5309554,0.8977047,0.43128094,0.5836803,0.65805507,0.501531,0.10662876,0.614386,0.45778757,0.25799274,-0.29019353,0.48775497,0.033588845,797.3993,809.89014,803.44324,791.3553,675.31134,-0.19390869140625,0.1068115234375,0.973876953125,-1.4056396484375,30.393218994140625,4.5159912109375,1,1.0,1.0,1.0,1.0,10.00
2024-10-11 20:46:17.836,0.3619437,0.36991426,0.77974355,0.7866407,0.5480679,0.1363941,0.19157109,0.5309554,0.8977047,0.43128094,0.5836803,0.65805507,0.501531,0.10662876,0.614386,0.45778757,0.25799274,-0.29019353,0.48775497,0.033588845,801.02563,805.05493,807.8755,790.54944,666.4469,-0.22576904296875,0.10467529296875,0.9630126953125,0.829925537109375,24.9725341796875,3.33465576171875,1,1.0,1.0,1.0,1.0,10.00
2024-10-11 20:46:17.837,0.3619437,0.36991426,0.77974355,0.7866407,0.5480679,0.1363941,0.19157109,0.5309554,0.8977047,0.43128094,0.5836803,0.65805507,0.501531,0.10662876,0.614386,0.45778757,0.25799274,-0.29019353,0.48775497,0.033588845,799.41394,811.0989,801.02563,793.36993,539.12085,-0.22576904296875,0.10467529296875,0.9630126953125,0.829925537109375,24.9725341796875,3.33465576171875,1,1.0,1.0,1.0,1.0,10.00
2024-10-11 20:46:17.838,0.3619437,0.36991426,0.77974355,0.7866407,0.5480679,0.1363941,0.19157109,0.5309554,0.8977047,0.43128094,0.5836803,0.65805507,0.501531,0.10662876,0.614386,0.45778757,0.25799274,-0.29019353,0.48775497,0.033588845,801.4286,807.8755,799.41394,792.5641,491.17215,-0.22576904296875,0.10467529296875,0.9630126953125,0.829925537109375,24.9725341796875,3.33465576171875,1,1.0,1.0,1.0,1.0,10.00
2024-10-11 20:46:17.839,0.3619437,0.36991426,0.77974355,0.7866407,0.5480679,0.1363941,0.19157109,0.5309554,0.8977047,0.43128094,0.5836803,0.65805507,0.501531,0.10662876,0.614386,0.45778757,0.25799274,-0.29019353,0.48775497,0.033588845,801.4286,801.4286,803.0403,799.81683,770.0,-0.22576904296875,0.10467529296875,0.9630126953125,0.829925537109375,24.9725341796875,3.33465576171875,1,1.0,1.0,1.0,1.0,10.00
2024-10-11 20:46:17.839,0.3619437,0.36991426,0.77974355,0.7866407,0.5480679,0.1363941,0.19157109,0.5309554,0.8977047,0.43128094,0.5836803,0.65805507,0.501531,0.10662876,0.614386,0.45778757,0.25799274,-0.29019353,0.48775497,0.033588845,799.011,804.2491,804.2491,803.44324,942.8571,-0.22576904296875,0.10467529296875,0.9630126953125,0.829925537109375,24.9725341796875,3.33465576171875,1,1.0,1.0,1.0,1.0,10.00
2024-10-11 20:46:17.840,0.3619437,0.36991426,0.77974355,0.7866407,0.5480679,0.1363941,0.19157109,0.5309554,0.8977047,0.43128094,0.5836803,0.65805507,0.501531,0.10662876,0.614386,0.45778757,0.25799274,-0.29019353,0.48775497,0.033588845,799.41394,808.68134,780.87915,798.20514,662.01465,-0.22576904296875,0.10467529296875,0.9630126953125,0.829925537109375,24.9725341796875,3.33465576171875,1,1.0,1.0,1.0,1.0,10.00
2024-10-11 20:46:17.841,0.3619437,0.36991426,0.77974355,0.7866407,0.5480679,0.1363941,0.19157109,0.5309554,0.8977047,0.43128094,0.5836803,0.65805507,0.501531,0.10662876,0.614386,0.45778757,0.25799274,-0.29019353,0.48775497,0.033588845,792.5641,808.2784,778.46155,794.9817,643.0769,-0.22576904296875,0.10467529296875,0.9630126953125,0.829925537109375,24.9725341796875,3.33465576171875,1,1.0,1.0,1.0,1.0,10.00
2024-10-11 20:46:17.841,0.3619437,0.36991426,0.77974355,0.7866407,0.5480679,0.1363941,0.19157109,0.5309554,0.8977047,0.43128094,0.5836803,0.65805507,0.501531,0.10662876,0.614386,0.45778757,0.25799274,-0.29019353,0.48775497,0.033588845,784.90845,805.4579,809.89014,791.75824,813.91943,-0.22576904296875,0.10467529296875,0.9630126953125,0.829925537109375,24.9725341796875,3.33465576171875,1,1.0,1.0,1.0,1.0,10.00
2024-10-11 20:46:17.842,0.3619437,0.36991426,0.77974355,0.7866407,0.5480679,0.1363941,0.19157109,0.5309554,0.8977047,0.43128094,0.5836803,0.65805507,0.501531,0.10662876,0.614386,0.45778757,0.25799274,-0.29019353,0.48775497,0.033588845,782.8938,804.2491,812.71063,787.72894,773.6264,-0.22576904296875,0.10467529296875,0.9630126953125,0.829925537109375,24.9725341796875,3.33465576171875,1,1.0,1.0,1.0,1.0,10.00
2024-10-11 20:46:17.843,0.3619437,0.36991426,0.77974355,0.7866407,0.5480679,0.1363941,0.19157109,0.5309554,0.8977047,0.43128094,0.5836803,0.65805507,0.501531,0.10662876,0.614386,0.45778757,0.25799274,-0.29019353,0.48775497,0.033588845,794.17584,808.68134,809.0842,790.9524,530.2564,-0.22576904296875,0.10467529296875,0.9630126953125,0.829925537109375,24.9725341796875,3.33465576171875,1,1.0,1.0,1.0,1.0,10.00
2024-10-11 20:46:17.843,0.3619437,0.36991426,0.77974355,0.7866407,0.5480679,0.1363941,0.19157109,0.5309554,0.8977047,0.43128094,0.5836803,0.65805507,0.501531,0.10662876,0.614386,0.45778757,0.25799274,-0.29019353,0.48775497,0.033588845,799.41394,807.0696,797.8022,799.011,476.66666,-0.22576904296875,0.10467529296875,0.9630126953125,0.829925537109375,24.9725341796875,3.33465576171875,1,1.0,1.0,1.0,1.0,10.00
2024-10-11 20:46:17.844,0.3619437,0.36991426,0.77974355,0.7866407,0.5480679,0.1363941,0.19157109,0.5309554,0.8977047,0.43128094,0.5836803,0.65805507,0.501531,0.10662876,0.614386,0.45778757,0.25799274,-0.29019353,0.48775497,0.033588845,789.34064,805.8608,790.54944,790.54944,699.0842,-0.22576904296875,0.10467529296875,0.9630126953125,0.829925537109375,24.9725341796875,3.33465576171875,1,1.0,1.0,1.0,1.0,10.00
2024-10-11 20:46:17.871,0.3619437,0.36991426,0.77974355,0.7866407,0.5480679,0.1363941,0.19157109,0.5309554,0.8977047,0.43128094,0.5836803,0.65805507,0.501531,0.10662876,0.614386,0.45778757,0.25799274,-0.29019353,0.48775497,0.033588845,791.3553,806.6667,803.0403,783.2967,717.2161,-0.248291015625,0.1090087890625,0.9583740234375,3.925323486328125,19.910736083984375,2.46734619140625,1,1.0,1.0,1.0,1.0,10.00
2024-10-11 20:46:17.872,0.45513147,0.3000104,0.75704765,0.79611856,0.49637327,0.12688239,0.18868686,0.52256024,0.8801323,0.41737223,0.59568775,0.65805507,0.49217996,0.10076586,0.62233394,0.45239595,0.24541177,-0.27656153,0.48419315,0.03401003,803.0403,805.4579,803.8461,786.52014,524.21246,-0.248291015625,0.1090087890625,0.9583740234375,3.925323486328125,19.910736083984375,2.46734619140625,1,1.0,1.0,1.0,1.0,10.00
2024-10-11 20:46:17.878,0.45513147,0.3000104,0.75704765,0.79611856,0.49637327,0.12688239,0.18868686,0.52256024,0.8801323,0.41737223,0.59568775,0.65805507,0.49217996,0.10076586,0.62233394,0.45239595,0.24541177,-0.27656153,0.48419315,0.03401003,804.2491,807.8755,796.1905,792.96704,616.4835,-0.248291015625,0.1090087890625,0.9583740234375,3.925323486328125,19.910736083984375,2.46734619140625,1,1.0,1.0,1.0,1.0,10.00
2024-10-11 20:46:17.879,0.45513147,0.3000104,0.75704765,0.79611856,0.49637327,0.12688239,0.18868686,0.52256024,0.8801323,0.41737223,0.59568775,0.65805507,0.49217996,0.10076586,0.62233394,0.45239595,0.24541177,-0.27656153,0.48419315,0.03401003,809.4872,799.81683,799.41394,796.5934,841.31866,-0.248291015625,0.1090087890625,0.9583740234375,3.925323486328125,19.910736083984375,2.46734619140625,1,1.0,1.0,1.0,1.0,10.00
2024-10-11 20:46:17.880,0.45513147,0.3000104,0.75704765,0.79611856,0.49637327,0.12688239,0.18868686,0.52256024,0.8801323,0.41737223,0.59568775,0.65805507,0.49217996,0.10076586,0.62233394,0.45239595,0.24541177,-0.27656153,0.48419315,0.03401003,814.3223,796.1905,796.99634,792.1612,715.2015,-0.248291015625,0.1090087890625,0.9583740234375,3.925323486328125,19.910736083984375,2.46734619140625,1,1.0,1.0,1.0,1.0,10.00
2024-10-11 20:46:17.881,0.45513147,0.3000104,0.75704765,0.79611856,0.49637327,0.12688239,0.18868686,0.52256024,0.8801323,0.41737223,0.59568775,0.65805507,0.49217996,0.10076586,0.62233394,0.45239595,0.24541177,-0.27656153,0.48419315,0.03401003,802.6374,811.9048,783.2967,788.5348,572.5641,-0.248291015625,0.1090087890625,0.9583740234375,3.925323486328125,19.910736083984375,2.46734619140625,1,1.0,1.0,1.0,1.0,10.00
2024-10-11 20:46:17.881,0.45513147,0.3000104,0.75704765,0.79611856,0.49637327,0.12688239,0.18868686,0.52256024,0.8801323,0.41737223,0.59568775,0.65805507,0.49217996,0.10076586,0.62233394,0.45239595,0.24541177,-0.27656153,0.48419315,0.03401003,799.81683,815.12823,785.31134,793.7729,791.3553,-0.248291015625,0.1090087890625,0.9583740234375,3.925323486328125,19.910736083984375,2.46734619140625,1,1.0,1.0,1.0,1.0,10.00
2024-10-11 20:46:17.882,0.45513147,0.3000104,0.75704765,0.79611856,0.49637327,0.12688239,0.18868686,0.52256024,0.8801323,0.41737223,0.59568775,0.65805507,0.49217996,0.10076586,0.62233394,0.45239595,0.24541177,-0.27656153,0.48419315,0.03401003,807.8755,813.5165,809.89014,802.23444,863.47986,-0.248291015625,0.1090087890625,0.9583740234375,3.925323486328125,19.910736083984375,2.46734619140625,1,1.0,1.0,1.0,1.0,10.00
2024-10-11 20:46:17.883,0.45513147,0.3000104,0.75704765,0.79611856,0.49637327,0.12688239,0.18868686,0.52256024,0.8801323,0.41737223,0.59568775,0.65805507,0.49217996,0.10076586,0.62233394,0.45239595,0.24541177,-0.27656153,0.48419315,0.03401003,804.2491,808.68134,818.3516,798.20514,678.5348,-0.248291015625,0.1090087890625,0.9583740234375,3.925323486328125,19.910736083984375,2.46734619140625,1,1.0,1.0,1.0,1.0,10.00
2024-10-11 20:46:17.884,0.45513147,0.3000104,0.75704765,0.79611856,0.49637327,0.12688239,0.18868686,0.52256024,0.8801323,0.41737223,0.59568775,0.65805507,0.49217996,0.10076586,0.62233394,0.45239595,0.24541177,-0.27656153,0.48419315,0.03401003,796.99634,807.8755,803.0403,787.72894,530.2564,-0.248291015625,0.1090087890625,0.9583740234375,3.925323486328125,19.910736083984375,2.46734619140625,1,1.0,1.0,1.0,1.0,10.00
2024-10-11 20:46:17.885,0.45513147,0.3000104,0.75704765,0.79611856,0.49637327,0.12688239,0.18868686,0.52256024,0.8801323,0.41737223,0.59568775,0.65805507,0.49217996,0.10076586,0.62233394,0.45239595,0.24541177,-0.27656153,0.48419315,0.03401003,793.36993,808.68134,793.36993,792.5641,652.3443,-0.248291015625,0.1090087890625,0.9583740234375,3.925323486328125,19.910736083984375,2.46734619140625,1,1.0,1.0,1.0,1.0,10.00
2024-10-11 20:46:17.886,0.45513147,0.3000104,0.75704765,0.79611856,0.49637327,0.12688239,0.18868686,0.52256024,0.8801323,0.41737223,0.59568775,0.65805507,0.49217996,0.10076586,0.62233394,0.45239595,0.24541177,-0.27656153,0.48419315,0.03401003,788.1319,806.26373,791.75824,799.011,788.5348,-0.248291015625,0.1090087890625,0.9583740234375,3.925323486328125,19.910736083984375,2.46734619140625,1,1.0,1.0,1.0,1.0,10.00
2024-10-11 20:46:17.986,0.45513147,0.3000104,0.75704765,0.79611856,0.49637327,0.12688239,0.18868686,0.52256024,0.8801323,0.41737223,0.59568775,0.65805507,0.49217996,0.10076586,0.62233394,0.45239595,0.24541177,-0.27656153,0.48419315,0.03401003,794.17584,802.23444,803.44324,795.78754,652.74725,-0.26708984375,0.12677001953125,0.96197509765625,5.136566162109375,15.7012939453125,0.85235595703125,1,1.0,1.0,1.0,1.0,10.00
2024-10-11 20:46:17.987,0.45513147,0.3000104,0.75704765,0.79611856,0.49637327,0.12688239,0.18868686,0.52256024,0.8801323,0.41737223,0.59568775,0.65805507,0.49217996,0.10076586,0.62233394,0.45239595,0.24541177,-0.27656153,0.48419315,0.03401003,800.2198,800.6227,803.44324,788.1319,602.7839,-0.26708984375,0.12677001953125,0.96197509765625,5.136566162109375,15.7012939453125,0.85235595703125,1,1.0,1.0,1.0,1.0,10.00
2024-10-11 20:46:17.988,0.45513147,0.3000104,0.75704765,0.79611856,0.49637327,0.12688239,0.18868686,0.52256024,0.8801323,0.41737223,0.59568775,0.65805507,0.49217996,0.10076586,0.62233394,0.45239595,0.24541177,-0.27656153,0.48419315,0.03401003,790.54944,799.81683,796.1905,782.49084,822.381,-0.26708984375,0.12677001953125,0.96197509765625,5.136566162109375,15.7012939453125,0.85235595703125,1,1.0,1.0,1.0,1.0,10.00
2024-10-11 20:46:17.989,0.45513147,0.3000104,0.75704765,0.79611856,0.49637327,0.12688239,0.18868686,0.52256024,0.8801323,0.41737223,0.59568775,0.65805507,0.49217996,0.10076586,0.62233394,0.45239595,0.24541177,-0.27656153,0.48419315,0.03401003,788.5348,798.60803,797.3993,784.90845,1068.9744,-0.26708984375,0.12677001953125,0.96197509765625,5.136566162109375,15.7012939453125,0.85235595703125,1,1.0,1.0,1.0,1.0,10.00
2024-10-11 20:46:17.990,0.45513147,0.3000104,0.75704765,0.79611856,0.49637327,0.12688239,0.18868686,0.52256024,0.8801323,0.41737223,0.59568775,0.65805507,0.49217996,0.10076586,0.62233394,0.45239595,0.24541177,-0.27656153,0.48419315,0.03401003,788.5348,801.02563,796.5934,783.2967,850.58606,-0.26708984375,0.12677001953125,0.96197509765625,5.136566162109375,15.7012939453125,0.85235595703125,1,1.0,1.0,1.0,1.0,10.00
2024-10-11 20:46:17.990,0.45513147,0.3000104,0.75704765,0.79611856,0.49637327,0.12688239,0.18868686,0.52256024,0.8801323,0.41737223,0.59568775,0.65805507,0.49217996,0.10076586,0.62233394,0.45239595,0.24541177,-0.27656153,0.48419315,0.03401003,785.7143,799.011,792.5641,779.2674,681.75824,-0.26708984375,0.12677001953125,0.96197509765625,5.136566162109375,15.7012939453125,0.85235595703125,1,1.0,1.0,1.0,1.0,10.00
2024-10-11 20:46:17.991,0.45513147,0.3000104,0.75704765,0.79611856,0.49637327,0.12688239,0.18868686,0.52256024,0.8801323,0.41737223,0.59568775,0.65805507,0.49217996,0.10076586,0.62233394,0.45239595,0.24541177,-0.27656153,0.48419315,0.03401003,782.49084,796.99634,780.07324,787.72894,1017.8022,-0.26708984375,0.12677001953125,0.96197509765625,5.136566162109375,15.7012939453125,0.85235595703125,1,1.0,1.0,1.0,1.0,10.00
2024-10-11 20:46:17.992,0.45513147,0.3000104,0.75704765,0.79611856,0.49637327,0.12688239,0.18868686,0.52256024,0.8801323,0.41737223,0.59568775,0.65805507,0.49217996,0.10076586,0.62233394,0.45239595,0.24541177,-0.27656153,0.48419315,0.03401003,780.87915,798.20514,780.87915,792.1612,1120.1465,-0.26708984375,0.12677001953125,0.96197509765625,5.136566162109375,15.7012939453125,0.85235595703125,1,1.0,1.0,1.0,1.0,10.00
2024-10-11 20:46:17.992,0.45513147,0.3000104,0.75704765,0.79611856,0.49637327,0.12688239,0.18868686,0.52256024,0.8801323,0.41737223,0.59568775,0.65805507,0.49217996,0.10076586,0.62233394,0.45239595,0.24541177,-0.27656153,0.48419315,0.03401003,773.6264,800.6227,796.1905,790.14655,747.8388,-0.26708984375,0.12677001953125,0.96197509765625,5.136566162109375,15.7012939453125,0.85235595703125,1,1.0,1.0,1.0,1.0,10.00
2024-10-11 20:46:17.993,0.45513147,0.3000104,0.75704765,0.79611856,0.49637327,0.12688239,0.18868686,0.52256024,0.8801323,0.41737223,0.59568775,0.65805507,0.49217996,0.10076586,0.62233394,0.45239595,0.24541177,-0.27656153,0.48419315,0.03401003,777.25275,798.60803,807.8755,795.78754,677.72894,-0.26708984375,0.12677001953125,0.96197509765625,5.136566162109375,15.7012939453125,0.85235595703125,1,1.0,1.0,1.0,1.0,10.00
2024-10-11 20:46:17.994,0.45513147,0.3000104,0.75704765,0.79611856,0.49637327,0.12688239,0.18868686,0.52256024,0.8801323,0.41737223,0.59568775,0.65805507,0.49217996,0.10076586,0.62233394,0.45239595,0.24541177,-0.27656153,0.48419315,0.03401003,788.93774,789.7436,801.02563,793.7729,784.10254,-0.26708984375,0.12677001953125,0.96197509765625,5.136566162109375,15.7012939453125,0.85235595703125,1,1.0,1.0,1.0,1.0,10.00
2024-10-11 20:46:17.994,0.45513147,0.3000104,0.75704765,0.79611856,0.49637327,0.12688239,0.18868686,0.52256024,0.8801323,0.41737223,0.59568775,0.65805507,0.49217996,0.10076586,0.62233394,0.45239595,0.24541177,-0.27656153,0.48419315,0.03401003,785.31134,792.5641,792.5641,788.5348,778.46155,-0.26708984375,0.12677001953125,0.96197509765625,5.136566162109375,15.7012939453125,0.85235595703125,1,1.0,1.0,1.0,1.0,10.00
2024-10-11 20:46:18.022,0.45513147,0.3000104,0.75704765,0.79611856,0.49637327,0.12688239,0.18868686,0.52256024,0.8801323,0.41737223,0.59568775,0.65805507,0.49217996,0.10076586,0.62233394,0.45239595,0.24541177,-0.27656153,0.48419315,0.03401003,776.8498,797.3993,802.23444,781.685,620.9158,-0.28350830078125,0.1339111328125,0.961181640625,5.659942626953125,10.101165771484375,-0.351409912109375,1,1.0,1.0,1.0,1.0,10.00
2024-10-11 20:46:18.023,0.45513147,0.3000104,0.75704765,0.79611856,0.49637327,0.12688239,0.18868686,0.52256024,0.8801323,0.41737223,0.59568775,0.65805507,0.49217996,0.10076586,0.62233394,0.45239595,0.24541177,-0.27656153,0.48419315,0.03401003,781.28204,792.5641,804.2491,784.90845,613.663,-0.28350830078125,0.1339111328125,0.961181640625,5.659942626953125,10.101165771484375,-0.351409912109375,1,1.0,1.0,1.0,1.0,10.00
