TimeStamp,Delta_TP9,Delta_AF7,Delta_AF8,Delta_TP10,Theta_TP9,Theta_AF7,Theta_AF8,Theta_TP10,Alpha_TP9,Alpha_AF7,Alpha_AF8,Alpha_TP10,Beta_TP9,Beta_AF7,Beta_AF8,Beta_TP10,Gamma_TP9,Gamma_AF7,Gamma_AF8,Gamma_TP10,RAW_TP9,RAW_AF7,RAW_AF8,RAW_TP10,AUX_RIGHT,Accelerometer_X,Accelerometer_Y,Accelerometer_Z,Gyro_X,Gyro_Y,Gyro_Z,HeadBandOn,HSI_TP9,HSI_AF7,HSI_AF8,HSI_TP10,Battery,Elements
2024-10-11 20:38:56.347,0.24130788,0.65534866,0.773225,0.45382604,0.43427035,0.32915512,0.49146402,0.31845957,0.7214653,0.08474877,0.56531554,-0.02776567,0.6161855,-0.14833647,0.18287855,0.4694512,0.07823422,-0.35312116,-0.22107619,-0.018752081,794.9817,792.1612,800.2198,799.81683,649.92676,-0.2303466796875,0.1029052734375,0.9801025390625,1.60003662109375,-0.246734619140625,-1.158905029296875,1,1.0,1.0,1.0,1.0,10.00
2024-10-11 20:38:56.349,0.24130788,0.65534866,0.773225,0.45382604,0.43427035,0.32915512,0.49146402,0.31845957,0.7214653,0.08474877,0.56531554,-0.02776567,0.6161855,-0.14833647,0.18287855,0.4694512,0.07823422,-0.35312116,-0.22107619,-0.018752081,788.5348,786.9231,798.60803,807.0696,1148.7546,-0.2303466796875,0.1029052734375,0.9801025390625,1.60003662109375,-0.246734619140625,-1.158905029296875,1,1.0,1.0,1.0,1.0,10.00
2024-10-11 20:38:56.349,0.24130788,0.65534866,0.773225,0.45382604,0.43427035,0.32915512,0.49146402,0.31845957,0.7214653,0.08474877,0.56531554,-0.02776567,0.6161855,-0.14833647,0.18287855,0.4694512,0.07823422,-0.35312116,-0.22107619,-0.018752081,796.99634,790.54944,801.02563,803.44324,1156.4103,-0.2303466796875,0.1029052734375,0.9801025390625,1.60003662109375,-0.246734619140625,-1.158905029296875,1,1.0,1.0,1.0,1.0,10.00
2024-10-11 20:38:56.350,0.24130788,0.65534866,0.773225,0.45382604,0.43427035,0.32915512,0.49146402,0.31845957,0.7214653,0.08474877,0.56531554,-0.02776567,0.6161855,-0.14833647,0.18287855,0.4694512,0.07823422,-0.35312116,-0.22107619,-0.018752081,803.0403,788.93774,803.0403,796.1905,722.8571,-0.2303466796875,0.1029052734375,0.9801025390625,1.60003662109375,-0.246734619140625,-1.158905029296875,1,1.0,1.0,1.0,1.0,10.00
2024-10-11 20:38:56.351,0.24130788,0.65534866,0.773225,0.45382604,0.43427035,0.32915512,0.49146402,0.31845957,0.7214653,0.08474877,0.56531554,-0.02776567,0.6161855,-0.14833647,0.18287855,0.4694512,0.07823422,-0.35312116,-0.22107619,-0.018752081,801.8315,787.326,800.2198,794.57874,668.46155,-0.2303466796875,0.1029052734375,0.9801025390625,1.60003662109375,-0.246734619140625,-1.158905029296875,1,1.0,1.0,1.0,1.0,10.00
2024-10-11 20:38:56.352,0.23346324,0.70190185,0.77243507,0.40159723,0.4592324,0.36644766,0.509838,0.32053056,0.71613157,0.070372574,0.56531554,-0.15728354,0.65236026,-0.13387297,0.18951522,0.4694135,0.066423774,-0.3228671,-0.21067244,-0.049611922,792.96704,790.54944,805.4579,796.1905,790.9524,-0.2303466796875,0.1029052734375,0.9801025390625,1.60003662109375,-0.246734619140625,-1.158905029296875,1,1.0,1.0,1.0,1.0,10.00
2024-10-11 20:38:56.357,0.23346324,0.70190185,0.77243507,0.40159723,0.4592324,0.36644766,0.509838,0.32053056,0.71613157,0.070372574,0.56531554,-0.15728354,0.65236026,-0.13387297,0.18951522,0.4694135,0.066423774,-0.3228671,-0.21067244,-0.049611922,790.54944,792.5641,811.50183,799.011,855.0183,-0.2303466796875,0.1029052734375,0.9801025390625,1.60003662109375,-0.246734619140625,-1.158905029296875,1,1.0,1.0,1.0,1.0,10.00
2024-10-11 20:38:56.359,0.23346324,0.70190185,0.77243507,0.40159723,0.4592324,0.36644766,0.509838,0.32053056,0.71613157,0.070372574,0.56531554,-0.15728354,0.65236026,-0.13387297,0.18951522,0.4694135,0.066423774,-0.3228671,-0.21067244,-0.049611922,792.1612,795.38464,809.4872,801.02563,747.4359,-0.2303466796875,0.1029052734375,0.9801025390625,1.60003662109375,-0.246734619140625,-1.158905029296875,1,1.0,1.0,1.0,1.0,10.00
2024-10-11 20:38:56.360,0.23346324,0.70190185,0.77243507,0.40159723,0.4592324,0.36644766,0.509838,0.32053056,0.71613157,0.070372574,0.56531554,-0.15728354,0.65236026,-0.13387297,0.18951522,0.4694135,0.066423774,-0.3228671,-0.21067244,-0.049611922,797.3993,796.99634,814.7253,809.4872,764.35895,-0.2303466796875,0.1029052734375,0.9801025390625,1.60003662109375,-0.246734619140625,-1.158905029296875,1,1.0,1.0,1.0,1.0,10.00
2024-10-11 20:38:56.362,0.23346324,0.70190185,0.77243507,0.40159723,0.4592324,0.36644766,0.509838,0.32053056,0.71613157,0.070372574,0.56531554,-0.15728354,0.65236026,-0.13387297,0.18951522,0.4694135,0.066423774,-0.3228671,-0.21067244,-0.049611922,805.8608,794.17584,812.71063,820.3663,1030.2931,-0.2303466796875,0.1029052734375,0.9801025390625,1.60003662109375,-0.246734619140625,-1.158905029296875,1,1.0,1.0,1.0,1.0,10.00
2024-10-11 20:38:56.363,0.23346324,0.70190185,0.77243507,0.40159723,0.4592324,0.36644766,0.509838,0.32053056,0.71613157,0.070372574,0.56531554,-0.15728354,0.65236026,-0.13387297,0.18951522,0.4694135,0.066423774,-0.3228671,-0.21067244,-0.049611922,803.8461,790.54944,800.6227,814.3223,829.6337,-0.2303466796875,0.1029052734375,0.9801025390625,1.60003662109375,-0.246734619140625,-1.158905029296875,1,1.0,1.0,1.0,1.0,10.00
2024-10-11 20:38:56.365,0.23346324,0.70190185,0.77243507,0.40159723,0.4592324,0.36644766,0.509838,0.32053056,0.71613157,0.070372574,0.56531554,-0.15728354,0.65236026,-0.13387297,0.18951522,0.4694135,0.066423774,-0.3228671,-0.21067244,-0.049611922,812.71063,787.326,807.47253,823.5897,749.45056,-0.2303466796875,0.1029052734375,0.9801025390625,1.60003662109375,-0.246734619140625,-1.158905029296875,1,1.0,1.0,1.0,1.0,10.00
2024-10-11 20:38:56.366,0.23346324,0.70190185,0.77243507,0.40159723,0.4592324,0.36644766,0.509838,0.32053056,0.71613157,0.070372574,0.56531554,-0.15728354,0.65236026,-0.13387297,0.18951522,0.4694135,0.066423774,-0.3228671,-0.21067244,-0.049611922,820.3663,795.78754,813.5165,826.8132,860.65936,-0.22357177734375,0.10443115234375,0.97869873046875,-0.70281982421875,-2.519683837890625,1.89910888671875,1,1.0,1.0,1.0,1.0,10.00
2024-10-11 20:38:56.368,0.23346324,0.70190185,0.77243507,0.40159723,0.4592324,0.36644766,0.509838,0.32053056,0.71613157,0.070372574,0.56531554,-0.15728354,0.65236026,-0.13387297,0.18951522,0.4694135,0.066423774,-0.3228671,-0.21067244,-0.049611922,807.0696,805.4579,801.02563,809.4872,720.4396,-0.22357177734375,0.10443115234375,0.97869873046875,-0.70281982421875,-2.519683837890625,1.89910888671875,1,1.0,1.0,1.0,1.0,10.00
2024-10-11 20:38:56.370,0.23346324,0.70190185,0.77243507,0.40159723,0.4592324,0.36644766,0.509838,0.32053056,0.71613157,0.070372574,0.56531554,-0.15728354,0.65236026,-0.13387297,0.18951522,0.4694135,0.066423774,-0.3228671,-0.21067244,-0.049611922,810.696,800.2198,799.011,803.8461,639.0476,-0.22357177734375,0.10443115234375,0.97869873046875,-0.70281982421875,-2.519683837890625,1.89910888671875,1,1.0,1.0,1.0,1.0,10.00
2024-10-11 20:38:56.371,0.23346324,0.70190185,0.77243507,0.40159723,0.4592324,0.36644766,0.509838,0.32053056,0.71613157,0.070372574,0.56531554,-0.15728354,0.65236026,-0.13387297,0.18951522,0.4694135,0.066423774,-0.3228671,-0.21067244,-0.049611922,816.337,794.17584,799.81683,805.05493,727.28937,-0.22357177734375,0.10443115234375,0.97869873046875,-0.70281982421875,-2.519683837890625,1.89910888671875,1,1.0,1.0,1.0,1.0,10.00
2024-10-11 20:38:56.372,0.23346324,0.70190185,0.77243507,0.40159723,0.4592324,0.36644766,0.509838,0.32053056,0.71613157,0.070372574,0.56531554,-0.15728354,0.65236026,-0.13387297,0.18951522,0.4694135,0.066423774,-0.3228671,-0.21067244,-0.049611922,814.7253,791.3553,793.7729,801.8315,859.0476,-0.22357177734375,0.10443115234375,0.97869873046875,-0.70281982421875,-2.519683837890625,1.89910888671875,1,1.0,1.0,1.0,1.0,10.00
2024-10-11 20:38:56.373,0.23346324,0.70190185,0.77243507,0.40159723,0.4592324,0.36644766,0.509838,0.32053056,0.71613157,0.070372574,0.56531554,-0.15728354,0.65236026,-0.13387297,0.18951522,0.4694135,0.066423774,-0.3228671,-0.21067244,-0.049611922,810.293,792.5641,798.60803,799.81683,864.68866,-0.22357177734375,0.10443115234375,0.97869873046875,-0.70281982421875,-2.519683837890625,1.89910888671875,1,1.0,1.0,1.0,1.0,10.00
2024-10-11 20:38:56.374,0.23346324,0.70190185,0.77243507,0.40159723,0.4592324,0.36644766,0.509838,0.32053056,0.71613157,0.070372574,0.56531554,-0.15728354,0.65236026,-0.13387297,0.18951522,0.4694135,0.066423774,-0.3228671,-0.21067244,-0.049611922,807.8755,797.3993,805.05493,806.6667,774.83514,-0.22357177734375,0.10443115234375,0.97869873046875,-0.70281982421875,-2.519683837890625,1.89910888671875,1,1.0,1.0,1.0,1.0,10.00
2024-10-11 20:38:56.376,0.23346324,0.70190185,0.77243507,0.40159723,0.4592324,0.36644766,0.509838,0.32053056,0.71613157,0.070372574,0.56531554,-0.15728354,0.65236026,-0.13387297,0.18951522,0.4694135,0.066423774,-0.3228671,-0.21067244,-0.049611922,816.337,797.3993,802.6374,811.9048,756.30035,-0.22357177734375,0.10443115234375,0.97869873046875,-0.70281982421875,-2.519683837890625,1.89910888671875,1,1.0,1.0,1.0,1.0,10.00
2024-10-11 20:38:56.377,0.23346324,0.70190185,0.77243507,0.40159723,0.4592324,0.36644766,0.509838,0.32053056,0.71613157,0.070372574,0.56531554,-0.15728354,0.65236026,-0.13387297,0.18951522,0.4694135,0.066423774,-0.3228671,-0.21067244,-0.049611922,821.978,792.1612,796.5934,814.3223,1000.07324,-0.22357177734375,0.10443115234375,0.97869873046875,-0.70281982421875,-2.519683837890625,1.89910888671875,1,1.0,1.0,1.0,1.0,10.00
2024-10-11 20:38:56.379,0.23346324,0.70190185,0.77243507,0.40159723,0.4592324,0.36644766,0.509838,0.32053056,0.71613157,0.070372574,0.56531554,-0.15728354,0.65236026,-0.13387297,0.18951522,0.4694135,0.066423774,-0.3228671,-0.21067244,-0.049611922,806.6667,796.5934,792.1612,813.5165,951.31866,-0.22357177734375,0.10443115234375,0.97869873046875,-0.70281982421875,-2.519683837890625,1.89910888671875,1,1.0,1.0,1.0,1.0,10.00
2024-10-11 20:38:56.380,0.23346324,0.70190185,0.77243507,0.40159723,0.4592324,0.36644766,0.509838,0.32053056,0.71613157,0.070372574,0.56531554,-0.15728354,0.65236026,-0.13387297,0.18951522,0.4694135,0.066423774,-0.3228671,-0.21067244,-0.049611922,793.7729,794.57874,796.5934,813.1135,693.44324,-0.22357177734375,0.10443115234375,0.97869873046875,-0.70281982421875,-2.519683837890625,1.89910888671875,1,1.0,1.0,1.0,1.0,10.00
2024-10-11 20:38:56.381,0.23346324,0.70190185,0.77243507,0.40159723,0.4592324,0.36644766,0.509838,0.32053056,0.71613157,0.070372574,0.56531554,-0.15728354,0.65236026,-0.13387297,0.18951522,0.4694135,0.066423774,-0.3228671,-0.21067244,-0.049611922,800.6227,793.36993,798.60803,813.91943,782.0879,-0.22357177734375,0.10443115234375,0.97869873046875,-0.70281982421875,-2.519683837890625,1.89910888671875,1,1.0,1.0,1.0,1.0,10.00
2024-10-11 20:38:56.427,0.23346324,0.70190185,0.77243507,0.40159723,0.4592324,0.36644766,0.509838,0.32053056,0.71613157,0.070372574,0.56531554,-0.15728354,0.65236026,-0.13387297,0.18951522,0.4694135,0.066423774,-0.3228671,-0.21067244,-0.049611922,813.91943,801.4286,791.75824,815.12823,1005.7143,-0.234375,0.10150146484375,0.98150634765625,-1.712188720703125,-0.76263427734375,0.897216796875,1,1.0,1.0,1.0,1.0,10.00
2024-10-11 20:38:56.428,0.23346324,0.70190185,0.77243507,0.40159723,0.4592324,0.36644766,0.509838,0.32053056,0.71613157,0.070372574,0.56531554,-0.15728354,0.65236026,-0.13387297,0.18951522,0.4694135,0.066423774,-0.3228671,-0.21067244,-0.049611922,821.978,802.6374,792.96704,811.0989,829.6337,-0.234375,0.10150146484375,0.98150634765625,-1.712188720703125,-0.76263427734375,0.897216796875,1,1.0,1.0,1.0,1.0,10.00
2024-10-11 20:38:56.430,0.23346324,0.70190185,0.77243507,0.40159723,0.4592324,0.36644766,0.509838,0.32053056,0.71613157,0.070372574,0.56531554,-0.15728354,0.65236026,-0.13387297,0.18951522,0.4694135,0.066423774,-0.3228671,-0.21067244,-0.049611922,819.9634,798.60803,794.9817,811.0989,616.8865,-0.234375,0.10150146484375,0.98150634765625,-1.712188720703125,-0.76263427734375,0.897216796875,1,1.0,1.0,1.0,1.0,10.00
2024-10-11 20:38:56.432,0.23346324,0.70190185,0.77243507,0.40159723,0.4592324,0.36644766,0.509838,0.32053056,0.71613157,0.070372574,0.56531554,-0.15728354,0.65236026,-0.13387297,0.18951522,0.4694135,0.066423774,-0.3228671,-0.21067244,-0.049611922,812.71063,797.3993,790.9524,811.0989,711.978,-0.234375,0.10150146484375,0.98150634765625,-1.712188720703125,-0.76263427734375,0.897216796875,1,1.0,1.0,1.0,1.0,10.00
2024-10-11 20:38:56.434,0.23346324,0.70190185,0.77243507,0.40159723,0.4592324,0.36644766,0.509838,0.32053056,0.71613157,0.070372574,0.56531554,-0.15728354,0.65236026,-0.13387297,0.18951522,0.4694135,0.066423774,-0.3228671,-0.21067244,-0.049611922,810.696,798.20514,790.54944,809.0842,1057.6923,-0.234375,0.10150146484375,0.98150634765625,-1.712188720703125,-0.76263427734375,0.897216796875,1,1.0,1.0,1.0,1.0,10.00
2024-10-11 20:38:56.435,0.23346324,0.70190185,0.77243507,0.40159723,0.4592324,0.36644766,0.509838,0.32053056,0.71613157,0.070372574,0.56531554,-0.15728354,0.65236026,-0.13387297,0.18951522,0.4694135,0.066423774,-0.3228671,-0.21067244,-0.049611922,803.44324,801.4286,792.96704,801.02563,927.1429,-0.234375,0.10150146484375,0.98150634765625,-1.712188720703125,-0.76263427734375,0.897216796875,1,1.0,1.0,1.0,1.0,10.00
2024-10-11 20:38:56.436,0.23346324,0.70190185,0.77243507,0.40159723,0.4592324,0.36644766,0.509838,0.32053056,0.71613157,0.070372574,0.56531554,-0.15728354,0.65236026,-0.13387297,0.18951522,0.4694135,0.066423774,-0.3228671,-0.21067244,-0.049611922,795.78754,803.8461,792.96704,792.1612,694.2491,-0.234375,0.10150146484375,0.98150634765625,-1.712188720703125,-0.76263427734375,0.897216796875,1,1.0,1.0,1.0,1.0,10.00
2024-10-11 20:38:56.437,0.23346324,0.7180472,0.77039987,0.40159723,0.4592324,0.38007966,0.5267063,0.32053056,0.71613157,0.2055173,0.56531554,-0.15728354,0.65236026,-0.10969089,0.18951285,0.4694135,0.066423774,-0.27815792,-0.20404342,-0.049611922,796.5934,796.99634,794.57874,796.5934,752.674,-0.234375,0.10150146484375,0.98150634765625,-1.712188720703125,-0.76263427734375,0.897216796875,1,1.0,1.0,1.0,1.0,10.00
2024-10-11 20:38:56.442,0.23346324,0.7180472,0.77039987,0.40159723,0.4592324,0.38007966,0.5267063,0.32053056,0.71613157,0.2055173,0.56531554,-0.15728354,0.65236026,-0.10969089,0.18951285,0.4694135,0.066423774,-0.27815792,-0.20404342,-0.049611922,799.011,797.3993,794.57874,799.011,842.1245,-0.234375,0.10150146484375,0.98150634765625,-1.712188720703125,-0.76263427734375,0.897216796875,1,1.0,1.0,1.0,1.0,10.00
2024-10-11 20:38:56.443,0.23346324,0.7180472,0.77039987,0.40159723,0.4592324,0.38007966,0.5267063,0.32053056,0.71613157,0.2055173,0.56531554,-0.15728354,0.65236026,-0.10969089,0.18951285,0.4694135,0.066423774,-0.27815792,-0.20404342,-0.049611922,805.05493,807.47253,794.9817,794.9817,676.52014,-0.234375,0.10150146484375,0.98150634765625,-1.712188720703125,-0.76263427734375,0.897216796875,1,1.0,1.0,1.0,1.0,10.00
2024-10-11 20:38:56.444,0.23346324,0.7180472,0.77039987,0.40159723,0.4592324,0.38007966,0.5267063,0.32053056,0.71613157,0.2055173,0.56531554,-0.15728354,0.65236026,-0.10969089,0.18951285,0.4694135,0.066423774,-0.27815792,-0.20404342,-0.049611922,806.26373,805.4579,792.5641,791.3553,550.80585,-0.234375,0.10150146484375,0.98150634765625,-1.712188720703125,-0.76263427734375,0.897216796875,1,1.0,1.0,1.0,1.0,10.00
2024-10-11 20:38:56.445,0.23346324,0.7180472,0.77039987,0.40159723,0.4592324,0.38007966,0.5267063,0.32053056,0.71613157,0.2055173,0.56531554,-0.15728354,0.65236026,-0.10969089,0.18951285,0.4694135,0.066423774,-0.27815792,-0.20404342,-0.049611922,803.44324,802.23444,794.57874,797.8022,693.0403,-0.234375,0.10150146484375,0.98150634765625,-1.712188720703125,-0.76263427734375,0.897216796875,1,1.0,1.0,1.0,1.0,10.00
2024-10-11 20:38:56.446,0.23346324,0.7180472,0.77039987,0.40159723,0.4592324,0.38007966,0.5267063,0.32053056,0.71613157,0.2055173,0.56531554,-0.15728354,0.65236026,-0.10969089,0.18951285,0.4694135,0.066423774,-0.27815792,-0.20404342,-0.049611922,805.4579,806.26373,799.011,811.0989,901.75824,-0.234375,0.10150146484375,0.98150634765625,-1.712188720703125,-0.76263427734375,0.897216796875,1,1.0,1.0,1.0,1.0,10.00
2024-10-11 20:38:56.447,0.23346324,0.7180472,0.77039987,0.40159723,0.4592324,0.38007966,0.5267063,0.32053056,0.71613157,0.2055173,0.56531554,-0.15728354,0.65236026,-0.10969089,0.18951285,0.4694135,0.066423774,-0.27815792,-0.20404342,-0.049611922,807.47253,804.2491,794.17584,801.02563,767.98535,-0.234375,0.10150146484375,0.98150634765625,-1.712188720703125,-0.76263427734375,0.897216796875,1,1.0,1.0,1.0,1.0,10.00
2024-10-11 20:38:56.448,0.23346324,0.7180472,0.77039987,0.40159723,0.4592324,0.38007966,0.5267063,0.32053056,0.71613157,0.2055173,0.56531554,-0.15728354,0.65236026,-0.10969089,0.18951285,0.4694135,0.066423774,-0.27815792,-0.20404342,-0.049611922,810.696,800.6227,792.96704,790.54944,663.22345,-0.234375,0.10150146484375,0.98150634765625,-1.712188720703125,-0.76263427734375,0.897216796875,1,1.0,1.0,1.0,1.0,10.00
2024-10-11 20:38:56.449,0.23346324,0.7180472,0.77039987,0.40159723,0.4592324,0.38007966,0.5267063,0.32053056,0.71613157,0.2055173,0.56531554,-0.15728354,0.65236026,-0.10969089,0.18951285,0.4694135,0.066423774,-0.27815792,-0.20404342,-0.049611922,811.0989,805.05493,795.78754,801.4286,794.9817,-0.234375,0.10150146484375,0.98150634765625,-1.712188720703125,-0.76263427734375,0.897216796875,1,1.0,1.0,1.0,1.0,10.00
2024-10-11 20:38:56.450,0.23346324,0.7180472,0.77039987,0.40159723,0.4592324,0.38007966,0.5267063,0.32053056,0.71613157,0.2055173,0.56531554,-0.15728354,0.65236026,-0.10969089,0.18951285,0.4694135,0.066423774,-0.27815792,-0.20404342,-0.049611922,809.4872,805.05493,791.3553,806.6667,821.1722,-0.234375,0.10150146484375,0.98150634765625,-1.712188720703125,-0.76263427734375,0.897216796875,1,1.0,1.0,1.0,1.0,10.00
2024-10-11 20:38:56.450,0.23346324,0.7180472,0.77039987,0.40159723,0.4592324,0.38007966,0.5267063,0.32053056,0.71613157,0.2055173,0.56531554,-0.15728354,0.65236026,-0.10969089,0.18951285,0.4694135,0.066423774,-0.27815792,-0.20404342,-0.049611922,809.4872,803.0403,791.75824,805.05493,770.0,-0.234375,0.10150146484375,0.98150634765625,-1.712188720703125,-0.76263427734375,0.897216796875,1,1.0,1.0,1.0,1.0,10.00
2024-10-11 20:38:56.451,0.23346324,0.7180472,0.77039987,0.40159723,0.4592324,0.38007966,0.5267063,0.32053056,0.71613157,0.2055173,0.56531554,-0.15728354,0.65236026,-0.10969089,0.18951285,0.4694135,0.066423774,-0.27815792,-0.20404342,-0.049611922,807.47253,805.4579,800.2198,798.20514,758.315,-0.234375,0.10150146484375,0.98150634765625,-1.712188720703125,-0.76263427734375,0.897216796875,1,1.0,1.0,1.0,1.0,10.00
2024-10-11 20:38:56.452,0.23346324,0.7180472,0.77039987,0.40159723,0.4592324,0.38007966,0.5267063,0.32053056,0.71613157,0.2055173,0.56531554,-0.15728354,0.65236026,-0.10969089,0.18951285,0.4694135,0.066423774,-0.27815792,-0.20404342,-0.049611922,803.8461,801.4286,796.5934,797.3993,973.0769,-0.234375,0.10150146484375,0.98150634765625,-1.712188720703125,-0.76263427734375,0.897216796875,1,1.0,1.0,1.0,1.0,10.00
2024-10-11 20:38:56.453,0.23346324,0.7180472,0.77039987,0.40159723,0.4592324,0.38007966,0.5267063,0.32053056,0.71613157,0.2055173,0.56531554,-0.15728354,0.65236026,-0.10969089,0.18951285,0.4694135,0.066423774,-0.27815792,-0.20404342,-0.049611922,811.0989,796.1905,796.5934,817.5458,979.5238,-0.234375,0.10150146484375,0.98150634765625,-1.712188720703125,-0.76263427734375,0.897216796875,1,1.0,1.0,1.0,1.0,10.00
2024-10-11 20:38:56.454,0.23346324,0.7180472,0.77039987,0.40159723,0.4592324,0.38007966,0.5267063,0.32053056,0.71613157,0.2055173,0.56531554,-0.15728354,0.65236026,-0.10969089,0.18951285,0.4694135,0.066423774,-0.27815792,-0.20404342,-0.049611922,805.05493,795.78754,808.68134,818.7546,680.14655,-0.234375,0.10150146484375,0.98150634765625,-1.712188720703125,-0.76263427734375,0.897216796875,1,1.0,1.0,1.0,1.0,10.00
2024-10-11 20:38:56.455,0.23346324,0.7180472,0.77039987,0.40159723,0.4592324,0.38007966,0.5267063,0.32053056,0.71613157,0.2055173,0.56531554,-0.15728354,0.65236026,-0.10969089,0.18951285,0.4694135,0.066423774,-0.27815792,-0.20404342,-0.049611922,786.52014,796.1905,811.50183,798.60803,653.1502,-0.234375,0.10150146484375,0.98150634765625,-1.712188720703125,-0.76263427734375,0.897216796875,1,1.0,1.0,1.0,1.0,10.00
2024-10-11 20:38:56.456,0.23346324,0.7180472,0.77039987,0.40159723,0.4592324,0.38007966,0.5267063,0.32053056,0.71613157,0.2055173,0.56531554,-0.15728354,0.65236026,-0.10969089,0.18951285,0.4694135,0.066423774,-0.27815792,-0.20404342,-0.049611922,786.9231,789.7436,809.0842,803.8461,822.381,-0.234375,0.10150146484375,0.98150634765625,-1.712188720703125,-0.76263427734375,0.897216796875,1,1.0,1.0,1.0,1.0,10.00
2024-10-11 20:38:56.457,0.23346324,0.7180472,0.77039987,0.40159723,0.4592324,0.38007966,0.5267063,0.32053056,0.71613157,0.2055173,0.56531554,-0.15728354,0.65236026,-0.10969089,0.18951285,0.4694135,0.066423774,-0.27815792,-0.20404342,-0.049611922,792.1612,792.5641,807.0696,809.89014,779.2674,-0.24102783203125,0.093017578125,0.98345947265625,-2.519683837890625,-0.874786376953125,-1.1962890625,1,1.0,1.0,1.0,1.0,10.00
2024-10-11 20:38:56.458,0.23346324,0.7180472,0.77039987,0.40159723,0.4592324,0.38007966,0.5267063,0.32053056,0.71613157,0.2055173,0.56531554,-0.15728354,0.65236026,-0.10969089,0.18951285,0.4694135,0.066423774,-0.27815792,-0.20404342,-0.049611922,794.57874,803.8461,809.89014,802.23444,661.2088,-0.24102783203125,0.093017578125,0.98345947265625,-2.519683837890625,-0.874786376953125,-1.1962890625,1,1.0,1.0,1.0,1.0,10.00
2024-10-11 20:38:56.459,0.23346324,0.7180472,0.77039987,0.40159723,0.4592324,0.38007966,0.5267063,0.32053056,0.71613157,0.2055173,0.56531554,-0.15728354,0.65236026,-0.10969089,0.18951285,0.4694135,0.066423774,-0.27815792,-0.20404342,-0.049611922,799.011,804.65204,810.696,810.293,664.83514,-0.24102783203125,0.093017578125,0.98345947265625,-2.519683837890625,-0.874786376953125,-1.1962890625,1,1.0,1.0,1.0,1.0,10.00
2024-10-11 20:38:56.460,0.23346324,0.7180472,0.77039987,0.40159723,0.4592324,0.38007966,0.5267063,0.32053056,0.71613157,0.2055173,0.56531554,-0.15728354,0.65236026,-0.10969089,0.18951285,0.4694135,0.066423774,-0.27815792,-0.20404342,-0.049611922,796.1905,795.38464,808.2784,814.3223,773.6264,-0.24102783203125,0.093017578125,0.98345947265625,-2.519683837890625,-0.874786376953125,-1.1962890625,1,1.0,1.0,1.0,1.0,10.00
2024-10-11 20:38:56.461,0.23346324,0.7180472,0.77039987,0.40159723,0.4592324,0.38007966,0.5267063,0.32053056,0.71613157,0.2055173,0.56531554,-0.15728354,0.65236026,-0.10969089,0.18951285,0.4694135,0.066423774,-0.27815792,-0.20404342,-0.049611922,793.36993,794.9817,805.4579,807.8755,714.7985,-0.24102783203125,0.093017578125,0.98345947265625,-2.519683837890625,-0.874786376953125,-1.1962890625,1,1.0,1.0,1.0,1.0,10.00
2024-10-11 20:38:56.462,0.23346324,0.7180472,0.77039987,0.40159723,0.4592324,0.38007966,0.5267063,0.32053056,0.71613157,0.2055173,0.56531554,-0.15728354,0.65236026,-0.10969089,0.18951285,0.4694135,0.066423774,-0.27815792,-0.20404342,-0.049611922,797.3993,796.5934,803.8461,811.50183,722.4542,-0.24102783203125,0.093017578125,0.98345947265625,-2.519683837890625,-0.874786376953125,-1.1962890625,1,1.0,1.0,1.0,1.0,10.00
2024-10-11 20:38:56.463,0.23346324,0.7180472,0.77039987,0.40159723,0.4592324,0.38007966,0.5267063,0.32053056,0.71613157,0.2055173,0.56531554,-0.15728354,0.65236026,-0.10969089,0.18951285,0.4694135,0.066423774,-0.27815792,-0.20404342,-0.049611922,804.65204,801.4286,807.47253,813.5165,872.3443,-0.24102783203125,0.093017578125,0.98345947265625,-2.519683837890625,-0.874786376953125,-1.1962890625,1,1.0,1.0,1.0,1.0,10.00
2024-10-11 20:38:56.464,0.23346324,0.7180472,0.77039987,0.40159723,0.4592324,0.38007966,0.5267063,0.32053056,0.71613157,0.2055173,0.56531554,-0.15728354,0.65236026,-0.10969089,0.18951285,0.4694135,0.066423774,-0.27815792,-0.20404342,-0.049611922,800.6227,802.6374,810.696,810.696,932.7839,-0.24102783203125,0.093017578125,0.98345947265625,-2.519683837890625,-0.874786376953125,-1.1962890625,1,1.0,1.0,1.0,1.0,10.00
2024-10-11 20:38:56.465,0.23346324,0.7180472,0.77039987,0.40159723,0.4592324,0.38007966,0.5267063,0.32053056,0.71613157,0.2055173,0.56531554,-0.15728354,0.65236026,-0.10969089,0.18951285,0.4694135,0.066423774,-0.27815792,-0.20404342,-0.049611922,798.20514,796.5934,808.2784,807.8755,719.2308,-0.24102783203125,0.093017578125,0.98345947265625,-2.519683837890625,-0.874786376953125,-1.1962890625,1,1.0,1.0,1.0,1.0,10.00
2024-10-11 20:38:56.466,0.23346324,0.7291267,0.7671207,0.40159723,0.4592324,0.39601266,0.5377187,0.32053056,0.71613157,0.21533938,0.56531554,-0.15728354,0.65236026,-0.09235623,0.18401286,0.4694135,0.066423774,-0.22617829,-0.19589145,-0.049611922,803.44324,798.60803,807.8755,805.8608,612.4542,-0.24102783203125,0.093017578125,0.98345947265625,-2.519683837890625,-0.874786376953125,-1.1962890625,1,1.0,1.0,1.0,1.0,10.00
2024-10-11 20:38:56.471,0.23346324,0.7291267,0.7671207,0.40159723,0.4592324,0.39601266,0.5377187,0.32053056,0.71613157,0.21533938,0.56531554,-0.15728354,0.65236026,-0.09235623,0.18401286,0.4694135,0.066423774,-0.22617829,-0.19589145,-0.049611922,809.4872,801.8315,809.4872,811.0989,751.8681,-0.24102783203125,0.093017578125,0.98345947265625,-2.519683837890625,-0.874786376953125,-1.1962890625,1,1.0,1.0,1.0,1.0,10.00
2024-10-11 20:38:56.472,0.23346324,0.7291267,0.7671207,0.40159723,0.4592324,0.39601266,0.5377187,0.32053056,0.71613157,0.21533938,0.56531554,-0.15728354,0.65236026,-0.09235623,0.18401286,0.4694135,0.066423774,-0.22617829,-0.19589145,-0.049611922,812.3077,799.41394,805.05493,808.2784,790.9524,-0.24102783203125,0.093017578125,0.98345947265625,-2.519683837890625,-0.874786376953125,-1.1962890625,1,1.0,1.0,1.0,1.0,10.00
2024-10-11 20:38:56.532,0.23346324,0.7291267,0.7671207,0.40159723,0.4592324,0.39601266,0.5377187,0.32053056,0.71613157,0.21533938,0.56531554,-0.15728354,0.65236026,-0.09235623,0.18401286,0.4694135,0.066423774,-0.22617829,-0.19589145,-0.049611922,808.2784,798.20514,806.26373,796.99634,616.4835,-0.2244873046875,0.08294677734375,0.98809814453125,-3.282318115234375,-3.267364501953125,-0.650482177734375,1,1.0,1.0,1.0,1.0,10.00
2024-10-11 20:38:56.533,0.23346324,0.7291267,0.7671207,0.40159723,0.4592324,0.39601266,0.5377187,0.32053056,0.71613157,0.21533938,0.56531554,-0.15728354,0.65236026,-0.09235623,0.18401286,0.4694135,0.066423774,-0.22617829,-0.19589145,-0.049611922,811.0989,796.99634,805.4579,796.5934,541.13556,-0.2244873046875,0.08294677734375,0.98809814453125,-3.282318115234375,-3.267364501953125,-0.650482177734375,1,1.0,1.0,1.0,1.0,10.00
2024-10-11 20:38:56.534,0.23346324,0.7291267,0.7671207,0.40159723,0.4592324,0.39601266,0.5377187,0.32053056,0.71613157,0.21533938,0.56531554,-0.15728354,0.65236026,-0.09235623,0.18401286,0.4694135,0.066423774,-0.22617829,-0.19589145,-0.049611922,808.2784,795.78754,796.1905,799.81683,796.1905,-0.2244873046875,0.08294677734375,0.98809814453125,-3.282318115234375,-3.267364501953125,-0.650482177734375,1,1.0,1.0,1.0,1.0,10.00
2024-10-11 20:38:56.534,0.23346324,0.7291267,0.7671207,0.40159723,0.4592324,0.39601266,0.5377187,0.32053056,0.71613157,0.21533938,0.56531554,-0.15728354,0.65236026,-0.09235623,0.18401286,0.4694135,0.066423774,-0.22617829,-0.19589145,-0.049611922,799.011,801.02563,795.38464,796.99634,859.85345,-0.2244873046875,0.08294677734375,0.98809814453125,-3.282318115234375,-3.267364501953125,-0.650482177734375,1,1.0,1.0,1.0,1.0,10.00
2024-10-11 20:38:56.535,0.23346324,0.7291267,0.7671207,0.40159723,0.4592324,0.39601266,0.5377187,0.32053056,0.71613157,0.21533938,0.56531554,-0.15728354,0.65236026,-0.09235623,0.18401286,0.4694135,0.066423774,-0.22617829,-0.19589145,-0.049611922,798.20514,800.6227,800.2198,798.20514,665.64105,-0.2244873046875,0.08294677734375,0.98809814453125,-3.282318115234375,-3.267364501953125,-0.650482177734375,1,1.0,1.0,1.0,1.0,10.00
2024-10-11 20:38:56.535,0.23346324,0.7291267,0.7671207,0.40159723,0.4592324,0.39601266,0.5377187,0.32053056,0.71613157,0.21533938,0.56531554,-0.15728354,0.65236026,-0.09235623,0.18401286,0.4694135,0.066423774,-0.22617829,-0.19589145,-0.049611922,791.3553,792.5641,800.6227,791.3553,718.022,-0.2244873046875,0.08294677734375,0.98809814453125,-3.282318115234375,-3.267364501953125,-0.650482177734375,1,1.0,1.0,1.0,1.0,10.00
2024-10-11 20:38:56.536,0.23346324,0.7291267,0.7671207,0.40159723,0.4592324,0.39601266,0.5377187,0.32053056,0.71613157,0.21533938,0.56531554,-0.15728354,0.65236026,-0.09235623,0.18401286,0.4694135,0.066423774,-0.22617829,-0.19589145,-0.049611922,793.36993,790.14655,801.02563,789.34064,1033.1135,-0.2244873046875,0.08294677734375,0.98809814453125,-3.282318115234375,-3.267364501953125,-0.650482177734375,1,1.0,1.0,1.0,1.0,10.00
2024-10-11 20:38:56.536,0.23346324,0.7291267,0.7671207,0.40159723,0.4592324,0.39601266,0.5377187,0.32053056,0.71613157,0.21533938,0.56531554,-0.15728354,0.65236026,-0.09235623,0.18401286,0.4694135,0.066423774,-0.22617829,-0.19589145,-0.049611922,802.6374,794.17584,804.2491,801.8315,1307.5092,-0.2244873046875,0.08294677734375,0.98809814453125,-3.282318115234375,-3.267364501953125,-0.650482177734375,1,1.0,1.0,1.0,1.0,10.00
2024-10-11 20:38:56.537,0.23346324,0.7291267,0.7671207,0.40159723,0.4592324,0.39601266,0.5377187,0.32053056,0.71613157,0.21533938,0.56531554,-0.15728354,0.65236026,-0.09235623,0.18401286,0.4694135,0.066423774,-0.22617829,-0.19589145,-0.049611922,805.4579,797.3993,802.23444,794.57874,819.5604,-0.2244873046875,0.08294677734375,0.98809814453125,-3.282318115234375,-3.267364501953125,-0.650482177734375,1,1.0,1.0,1.0,1.0,10.00
2024-10-11 20:38:56.537,0.23346324,0.7291267,0.7671207,0.40159723,0.4592324,0.39601266,0.5377187,0.32053056,0.71613157,0.21533938,0.56531554,-0.15728354,0.65236026,-0.09235623,0.18401286,0.4694135,0.066423774,-0.22617829,-0.19589145,-0.049611922,803.8461,796.99634,796.99634,788.5348,666.04395,-0.2244873046875,0.08294677734375,0.98809814453125,-3.282318115234375,-3.267364501953125,-0.650482177734375,1,1.0,1.0,1.0,1.0,10.00
2024-10-11 20:38:56.538,0.23346324,0.7291267,0.7671207,0.40159723,0.4592324,0.39601266,0.5377187,0.32053056,0.71613157,0.21533938,0.56531554,-0.15728354,0.65236026,-0.09235623,0.18401286,0.4694135,0.066423774,-0.22617829,-0.19589145,-0.049611922,805.8608,799.81683,795.78754,802.23444,942.8571,-0.2244873046875,0.08294677734375,0.98809814453125,-3.282318115234375,-3.267364501953125,-0.650482177734375,1,1.0,1.0,1.0,1.0,10.00
2024-10-11 20:38:56.538,0.23346324,0.7291267,0.7671207,0.40159723,0.4592324,0.39601266,0.5377187,0.32053056,0.71613157,0.21533938,0.56531554,-0.15728354,0.65236026,-0.09235623,0.18401286,0.4694135,0.066423774,-0.22617829,-0.19589145,-0.049611922,812.71063,804.65204,800.6227,808.68134,733.73627,-0.2244873046875,0.08294677734375,0.98809814453125,-3.282318115234375,-3.267364501953125,-0.650482177734375,1,1.0,1.0,1.0,1.0,10.00
2024-10-11 20:38:56.539,0.23346324,0.7291267,0.7671207,0.40159723,0.4592324,0.39601266,0.5377187,0.32053056,0.71613157,0.21533938,0.56531554,-0.15728354,0.65236026,-0.09235623,0.18401286,0.4694135,0.066423774,-0.22617829,-0.19589145,-0.049611922,808.68134,799.011,803.8461,800.2198,530.2564,-0.215087890625,0.07562255859375,0.977783203125,-3.9178466796875,-3.730926513671875,0.740203857421875,1,1.0,1.0,1.0,1.0,10.00
2024-10-11 20:38:56.539,0.23346324,0.7291267,0.7671207,0.40159723,0.4592324,0.39601266,0.5377187,0.32053056,0.71613157,0.21533938,0.56531554,-0.15728354,0.65236026,-0.09235623,0.18401286,0.4694135,0.066423774,-0.22617829,-0.19589145,-0.049611922,800.2198,796.99634,807.0696,799.41394,572.96704,-0.215087890625,0.07562255859375,0.977783203125,-3.9178466796875,-3.730926513671875,0.740203857421875,1,1.0,1.0,1.0,1.0,10.00
2024-10-11 20:38:56.540,0.23346324,0.7291267,0.7671207,0.40159723,0.4592324,0.39601266,0.5377187,0.32053056,0.71613157,0.21533938,0.56531554,-0.15728354,0.65236026,-0.09235623,0.18401286,0.4694135,0.066423774,-0.22617829,-0.19589145,-0.049611922,799.41394,799.41394,805.4579,800.6227,649.5238,-0.215087890625,0.07562255859375,0.977783203125,-3.9178466796875,-3.730926513671875,0.740203857421875,1,1.0,1.0,1.0,1.0,10.00
2024-10-11 20:38:56.540,0.23346324,0.7291267,0.7671207,0.40159723,0.4592324,0.39601266,0.5377187,0.32053056,0.71613157,0.21533938,0.56531554,-0.15728354,0.65236026,-0.09235623,0.18401286,0.4694135,0.066423774,-0.22617829,-0.19589145,-0.049611922,801.8315,796.1905,801.8315,797.8022,501.24542,-0.215087890625,0.07562255859375,0.977783203125,-3.9178466796875,-3.730926513671875,0.740203857421875,1,1.0,1.0,1.0,1.0,10.00
2024-10-11 20:38:56.541,0.23346324,0.7291267,0.7671207,0.40159723,0.4592324,0.39601266,0.5377187,0.32053056,0.71613157,0.21533938,0.56531554,-0.15728354,0.65236026,-0.09235623,0.18401286,0.4694135,0.066423774,-0.22617829,-0.19589145,-0.049611922,797.8022,795.78754,802.23444,800.2198,407.76556,-0.215087890625,0.07562255859375,0.977783203125,-3.9178466796875,-3.730926513671875,0.740203857421875,1,1.0,1.0,1.0,1.0,10.00
2024-10-11 20:38:56.541,0.23346324,0.7291267,0.7671207,0.40159723,0.4592324,0.39601266,0.5377187,0.32053056,0.71613157,0.21533938,0.56531554,-0.15728354,0.65236026,-0.09235623,0.18401286,0.4694135,0.066423774,-0.22617829,-0.19589145,-0.049611922,794.57874,797.3993,800.2198,799.011,796.1905,-0.215087890625,0.07562255859375,0.977783203125,-3.9178466796875,-3.730926513671875,0.740203857421875,1,1.0,1.0,1.0,1.0,10.00
2024-10-11 20:38:56.542,0.23346324,0.7291267,0.7671207,0.40159723,0.4592324,0.39601266,0.5377187,0.32053056,0.71613157,0.21533938,0.56531554,-0.15728354,0.65236026,-0.09235623,0.18401286,0.4694135,0.066423774,-0.22617829,-0.19589145,-0.049611922,788.93774,794.57874,798.20514,797.8022,1092.7472,-0.215087890625,0.07562255859375,0.977783203125,-3.9178466796875,-3.730926513671875,0.740203857421875,1,1.0,1.0,1.0,1.0,10.00
2024-10-11 20:38:56.543,0.23346324,0.7291267,0.7671207,0.40159723,0.4592324,0.39601266,0.5377187,0.32053056,0.71613157,0.21533938,0.56531554,-0.15728354,0.65236026,-0.09235623,0.18401286,0.4694135,0.066423774,-0.22617829,-0.19589145,-0.049611922,779.2674,789.7436,793.7729,791.3553,770.0,-0.215087890625,0.07562255859375,0.977783203125,-3.9178466796875,-3.730926513671875,0.740203857421875,1,1.0,1.0,1.0,1.0,10.00
2024-10-11 20:38:56.543,0.23346324,0.7291267,0.7671207,0.40159723,0.4592324,0.39601266,0.5377187,0.32053056,0.71613157,0.21533938,0.56531554,-0.15728354,0.65236026,-0.09235623,0.18401286,0.4694135,0.066423774,-0.22617829,-0.19589145,-0.049611922,786.52014,794.9817,793.7729,794.17584,469.4139,-0.215087890625,0.07562255859375,0.977783203125,-3.9178466796875,-3.730926513671875,0.740203857421875,1,1.0,1.0,1.0,1.0,10.00
2024-10-11 20:38:56.544,0.23346324,0.7291267,0.7671207,0.40159723,0.4592324,0.39601266,0.5377187,0.32053056,0.71613157,0.21533938,0.56531554,-0.15728354,0.65236026,-0.09235623,0.18401286,0.4694135,0.066423774,-0.22617829,-0.19589145,-0.049611922,798.60803,798.60803,798.60803,797.3993,500.8425,-0.215087890625,0.07562255859375,0.977783203125,-3.9178466796875,-3.730926513671875,0.740203857421875,1,1.0,1.0,1.0,1.0,10.00
2024-10-11 20:38:56.544,0.23346324,0.7291267,0.7671207,0.40159723,0.4592324,0.39601266,0.5377187,0.32053056,0.71613157,0.21533938,0.56531554,-0.15728354,0.65236026,-0.09235623,0.18401286,0.4694135,0.066423774,-0.22617829,-0.19589145,-0.049611922,789.34064,793.36993,803.0403,791.3553,714.7985,-0.215087890625,0.07562255859375,0.977783203125,-3.9178466796875,-3.730926513671875,0.740203857421875,1,1.0,1.0,1.0,1.0,10.00
2024-10-11 20:38:56.545,0.23346324,0.7331342,0.7630091,0.40159723,0.4592324,0.4108204,0.5436392,0.32053056,0.71613157,0.22256452,0.56531554,-0.15728354,0.65236026,-0.079451434,0.17613114,0.4694135,0.066423774,-0.17475317,-0.18172705,-0.049611922,784.10254,791.75824,802.23444,786.1172,633.4066,-0.215087890625,0.07562255859375,0.977783203125,-3.9178466796875,-3.730926513671875,0.740203857421875,1,1.0,1.0,1.0,1.0,10.00
2024-10-11 20:38:56.580,0.23346324,0.7331342,0.7630091,0.40159723,0.4592324,0.4108204,0.5436392,0.32053056,0.71613157,0.22256452,0.56531554,-0.15728354,0.65236026,-0.079451434,0.17613114,0.4694135,0.066423774,-0.17475317,-0.18172705,-0.049611922,792.5641,795.78754,801.02563,787.72894,594.7253,-0.22265625,0.07000732421875,0.97991943359375,-4.269256591796875,-2.474822998046875,3.222503662109375,1,1.0,1.0,1.0,1.0,10.00
2024-10-11 20:38:56.581,0.23346324,0.7331342,0.7630091,0.40159723,0.4592324,0.4108204,0.5436392,0.32053056,0.71613157,0.22256452,0.56531554,-0.15728354,0.65236026,-0.079451434,0.17613114,0.4694135,0.066423774,-0.17475317,-0.18172705,-0.049611922,800.6227,797.8022,802.23444,793.7729,782.49084,-0.22265625,0.07000732421875,0.97991943359375,-4.269256591796875,-2.474822998046875,3.222503662109375,1,1.0,1.0,1.0,1.0,10.00
2024-10-11 20:38:56.583,0.23346324,0.7331342,0.7630091,0.40159723,0.4592324,0.4108204,0.5436392,0.32053056,0.71613157,0.22256452,0.56531554,-0.15728354,0.65236026,-0.079451434,0.17613114,0.4694135,0.066423774,-0.17475317,-0.18172705,-0.049611922,803.44324,796.1905,801.02563,793.7729,766.77655,-0.22265625,0.07000732421875,0.97991943359375,-4.269256591796875,-2.474822998046875,3.222503662109375,1,1.0,1.0,1.0,1.0,10.00
2024-10-11 20:38:56.584,0.23346324,0.7331342,0.7630091,0.40159723,0.4592324,0.4108204,0.5436392,0.32053056,0.71613157,0.22256452,0.56531554,-0.15728354,0.65236026,-0.079451434,0.17613114,0.4694135,0.066423774,-0.17475317,-0.18172705,-0.049611922,805.4579,801.8315,802.6374,794.9817,551.6117,-0.22265625,0.07000732421875,0.97991943359375,-4.269256591796875,-2.474822998046875,3.222503662109375,1,1.0,1.0,1.0,1.0,10.00
2024-10-11 20:38:56.586,0.23346324,0.7331342,0.7630091,0.40159723,0.4592324,0.4108204,0.5436392,0.32053056,0.71613157,0.22256452,0.56531554,-0.15728354,0.65236026,-0.079451434,0.17613114,0.4694135,0.066423774,-0.17475317,-0.18172705,-0.049611922,809.4872,801.02563,804.2491,795.38464,624.94507,-0.22265625,0.07000732421875,0.97991943359375,-4.269256591796875,-2.474822998046875,3.222503662109375,1,1.0,1.0,1.0,1.0,10.00
2024-10-11 20:38:56.586,0.23346324,0.7331342,0.7630091,0.40159723,0.4592324,0.4108204,0.5436392,0.32053056,0.71613157,0.22256452,0.56531554,-0.15728354,0.65236026,-0.079451434,0.17613114,0.4694135,0.066423774,-0.17475317,-0.18172705,-0.049611922,800.6227,794.9817,800.6227,799.011,799.011,-0.22265625,0.07000732421875,0.97991943359375,-4.269256591796875,-2.474822998046875,3.222503662109375,1,1.0,1.0,1.0,1.0,10.00
2024-10-11 20:38:56.587,0.23346324,0.7331342,0.7630091,0.40159723,0.4592324,0.4108204,0.5436392,0.32053056,0.71613157,0.22256452,0.56531554,-0.15728354,0.65236026,-0.079451434,0.17613114,0.4694135,0.066423774,-0.17475317,-0.18172705,-0.049611922,797.3993,793.36993,793.36993,800.2198,747.03296,-0.22265625,0.07000732421875,0.97991943359375,-4.269256591796875,-2.474822998046875,3.222503662109375,1,1.0,1.0,1.0,1.0,10.00
2024-10-11 20:38:56.588,0.23346324,0.7331342,0.7630091,0.40159723,0.4592324,0.4108204,0.5436392,0.32053056,0.71613157,0.22256452,0.56531554,-0.15728354,0.65236026,-0.079451434,0.17613114,0.4694135,0.066423774,-0.17475317,-0.18172705,-0.049611922,806.6667,801.4286,798.60803,792.5641,643.47986,-0.22265625,0.07000732421875,0.97991943359375,-4.269256591796875,-2.474822998046875,3.222503662109375,1,1.0,1.0,1.0,1.0,10.00
2024-10-11 20:38:56.589,0.23346324,0.7331342,0.7630091,0.40159723,0.4592324,0.4108204,0.5436392,0.32053056,0.71613157,0.22256452,0.56531554,-0.15728354,0.65236026,-0.079451434,0.17613114,0.4694135,0.066423774,-0.17475317,-0.18172705,-0.049611922,817.1429,804.2491,805.4579,788.5348,625.7509,-0.22265625,0.07000732421875,0.97991943359375,-4.269256591796875,-2.474822998046875,3.222503662109375,1,1.0,1.0,1.0,1.0,10.00
2024-10-11 20:38:56.589,0.23346324,0.7331342,0.7630091,0.40159723,0.4592324,0.4108204,0.5436392,0.32053056,0.71613157,0.22256452,0.56531554,-0.15728354,0.65236026,-0.079451434,0.17613114,0.4694135,0.066423774,-0.17475317,-0.18172705,-0.049611922,809.89014,792.5641,798.60803,791.3553,767.98535,-0.22265625,0.07000732421875,0.97991943359375,-4.269256591796875,-2.474822998046875,3.222503662109375,1,1.0,1.0,1.0,1.0,10.00
2024-10-11 20:38:56.590,0.23346324,0.7331342,0.7630091,0.40159723,0.4592324,0.4108204,0.5436392,0.32053056,0.71613157,0.22256452,0.56531554,-0.15728354,0.65236026,-0.079451434,0.17613114,0.4694135,0.066423774,-0.17475317,-0.18172705,-0.049611922,791.3553,794.17584,794.57874,786.9231,682.96704,-0.22265625,0.07000732421875,0.97991943359375,-4.269256591796875,-2.474822998046875,3.222503662109375,1,1.0,1.0,1.0,1.0,10.00
2024-10-11 20:38:56.591,0.23346324,0.7331342,0.7630091,0.40159723,0.4592324,0.4108204,0.5436392,0.32053056,0.71613157,0.22256452,0.56531554,-0.15728354,0.65236026,-0.079451434,0.17613114,0.4694135,0.066423774,-0.17475317,-0.18172705,-0.049611922,801.02563,799.81683,800.2198,790.14655,479.8901,-0.22265625,0.07000732421875,0.97991943359375,-4.269256591796875,-2.474822998046875,3.222503662109375,1,1.0,1.0,1.0,1.0,10.00
2024-10-11 20:38:56.628,0.23346324,0.7331342,0.7630091,0.40159723,0.4592324,0.4108204,0.5436392,0.32053056,0.71613157,0.22256452,0.56531554,-0.15728354,0.65236026,-0.079451434,0.17613114,0.4694135,0.066423774,-0.17475317,-0.18172705,-0.049611922,808.68134,803.8461,807.8755,800.2198,512.52747,-0.22265625,0.07000732421875,0.97991943359375,-4.269256591796875,-2.474822998046875,3.222503662109375,1,1.0,1.0,1.0,1.0,10.00
2024-10-11 20:38:56.629,0.23346324,0.7331342,0.7630091,0.40159723,0.4592324,0.4108204,0.5436392,0.32053056,0.71613157,0.22256452,0.56531554,-0.15728354,0.65236026,-0.079451434,0.17613114,0.4694135,0.066423774,-0.17475317,-0.18172705,-0.049611922,796.99634,799.41394,804.65204,796.5934,512.9304,-0.22265625,0.07000732421875,0.97991943359375,-4.269256591796875,-2.474822998046875,3.222503662109375,1,1.0,1.0,1.0,1.0,10.00
2024-10-11 20:38:56.630,0.23346324,0.7331342,0.7630091,0.40159723,0.4592324,0.4108204,0.5436392,0.32053056,0.71613157,0.22256452,0.56531554,-0.15728354,0.65236026,-0.079451434,0.17613114,0.4694135,0.066423774,-0.17475317,-0.18172705,-0.049611922,799.41394,792.5641,803.8461,794.57874,477.47253,-0.22265625,0.07000732421875,0.97991943359375,-4.269256591796875,-2.474822998046875,3.222503662109375,1,1.0,1.0,1.0,1.0,10.00
2024-10-11 20:38:56.631,0.23346324,0.7331342,0.7630091,0.40159723,0.4592324,0.4108204,0.5436392,0.32053056,0.71613157,0.22256452,0.56531554,-0.15728354,0.65236026,-0.079451434,0.17613114,0.4694135,0.066423774,-0.17475317,-0.18172705,-0.049611922,801.8315,793.7729,800.6227,796.99634,551.6117,-0.22265625,0.07000732421875,0.97991943359375,-4.269256591796875,-2.474822998046875,3.222503662109375,1,1.0,1.0,1.0,1.0,10.00
2024-10-11 20:38:56.632,0.23346324,0.7331342,0.7630091,0.40159723,0.4592324,0.4108204,0.5436392,0.32053056,0.71613157,0.22256452,0.56531554,-0.15728354,0.65236026,-0.079451434,0.17613114,0.4694135,0.066423774,-0.17475317,-0.18172705,-0.049611922,799.011,796.1905,799.41394,797.3993,571.75824,-0.22265625,0.07000732421875,0.97991943359375,-4.269256591796875,-2.474822998046875,3.222503662109375,1,1.0,1.0,1.0,1.0,10.00
2024-10-11 20:38:56.632,0.23346324,0.7331342,0.7630091,0.40159723,0.4592324,0.4108204,0.5436392,0.32053056,0.71613157,0.22256452,0.56531554,-0.15728354,0.65236026,-0.079451434,0.17613114,0.4694135,0.066423774,-0.17475317,-0.18172705,-0.049611922,802.6374,791.75824,802.6374,799.41394,611.2454,-0.22265625,0.07000732421875,0.97991943359375,-4.269256591796875,-2.474822998046875,3.222503662109375,1,1.0,1.0,1.0,1.0,10.00
2024-10-11 20:38:56.633,0.23346324,0.7331342,0.7630091,0.40159723,0.4592324,0.4108204,0.5436392,0.32053056,0.71613157,0.22256452,0.56531554,-0.15728354,0.65236026,-0.079451434,0.17613114,0.4694135,0.066423774,-0.17475317,-0.18172705,-0.049611922,794.17584,792.5641,803.0403,797.8022,701.0989,-0.22265625,0.07000732421875,0.97991943359375,-4.269256591796875,-2.474822998046875,3.222503662109375,1,1.0,1.0,1.0,1.0,10.00
2024-10-11 20:38:56.633,0.23346324,0.7331342,0.7630091,0.40159723,0.4592324,0.4108204,0.5436392,0.32053056,0.71613157,0.22256452,0.56531554,-0.15728354,0.65236026,-0.079451434,0.17613114,0.4694135,0.066423774,-0.17475317,-0.18172705,-0.049611922,788.93774,798.20514,802.23444,801.8315,553.6264,-0.22265625,0.07000732421875,0.97991943359375,-4.269256591796875,-2.474822998046875,3.222503662109375,1,1.0,1.0,1.0,1.0,10.00
2024-10-11 20:38:56.633,0.23346324,0.7331342,0.7630091,0.40159723,0.4592324,0.4108204,0.5436392,0.32053056,0.71613157,0.22256452,0.56531554,-0.15728354,0.65236026,-0.079451434,0.17613114,0.4694135,0.066423774,-0.17475317,-0.18172705,-0.049611922,788.1319,791.75824,801.02563,803.8461,465.78754,-0.22265625,0.07000732421875,0.97991943359375,-4.269256591796875,-2.474822998046875,3.222503662109375,1,1.0,1.0,1.0,1.0,10.00
2024-10-11 20:38:56.634,0.23346324,0.7331342,0.7630091,0.40159723,0.4592324,0.4108204,0.5436392,0.32053056,0.71613157,0.22256452,0.56531554,-0.15728354,0.65236026,-0.079451434,0.17613114,0.4694135,0.066423774,-0.17475317,-0.18172705,-0.049611922,782.8938,791.3553,794.17584,796.99634,718.4249,-0.22265625,0.07000732421875,0.97991943359375,-4.269256591796875,-2.474822998046875,3.222503662109375,1,1.0,1.0,1.0,1.0,10.00
2024-10-11 20:38:56.634,0.23346324,0.7331342,0.7630091,0.40159723,0.4592324,0.4108204,0.5436392,0.32053056,0.71613157,0.22256452,0.56531554,-0.15728354,0.65236026,-0.079451434,0.17613114,0.4694135,0.066423774,-0.17475317,-0.18172705,-0.049611922,791.75824,795.78754,798.20514,797.3993,457.72894,-0.22265625,0.07000732421875,0.97991943359375,-4.269256591796875,-2.474822998046875,3.222503662109375,1,1.0,1.0,1.0,1.0,10.00
2024-10-11 20:38:56.635,0.23346324,0.7331342,0.7630091,0.40159723,0.4592324,0.4108204,0.5436392,0.32053056,0.71613157,0.22256452,0.56531554,-0.15728354,0.65236026,-0.079451434,0.17613114,0.4694135,0.066423774,-0.17475317,-0.18172705,-0.049611922,805.8608,795.38464,803.44324,799.41394,295.348,-0.22265625,0.07000732421875,0.97991943359375,-4.269256591796875,-2.474822998046875,3.222503662109375,1,1.0,1.0,1.0,1.0,10.00
2024-10-11 20:38:56.660,0.23346324,0.7331342,0.7630091,0.40159723,0.4592324,0.4108204,0.5436392,0.32053056,0.71613157,0.22256452,0.56531554,-0.15728354,0.65236026,-0.079451434,0.17613114,0.4694135,0.066423774,-0.17475317,-0.18172705,-0.049611922,800.6227,791.75824,800.6227,798.20514,567.72894,-0.2379150390625,0.0565185546875,0.98583984375,-5.084228515625,-1.697235107421875,2.235565185546875,1,1.0,1.0,1.0,1.0,10.00
2024-10-11 20:38:56.661,0.23346324,0.7336146,0.758851,0.40159723,0.4592324,0.42439625,0.5508303,0.32053056,0.71613157,0.22931117,0.56531554,-0.15728354,0.65236026,-0.07221965,0.17071159,0.4694135,0.066423774,-0.1361397,-0.1655512,-0.049611922,793.36993,794.17584,801.4286,798.20514,593.5165,-0.2379150390625,0.0565185546875,0.98583984375,-5.084228515625,-1.697235107421875,2.235565185546875,1,1.0,1.0,1.0,1.0,10.00
2024-10-11 20:38:56.665,0.23346324,0.7336146,0.758851,0.40159723,0.4592324,0.42439625,0.5508303,0.32053056,0.71613157,0.22931117,0.56531554,-0.15728354,0.65236026,-0.07221965,0.17071159,0.4694135,0.066423774,-0.1361397,-0.1655512,-0.049611922,792.1612,796.5934,806.26373,793.7729,449.2674,-0.2379150390625,0.0565185546875,0.98583984375,-5.084228515625,-1.697235107421875,2.235565185546875,1,1.0,1.0,1.0,1.0,10.00
2024-10-11 20:38:56.666,0.23346324,0.7336146,0.758851,0.40159723,0.4592324,0.42439625,0.5508303,0.32053056,0.71613157,0.22931117,0.56531554,-0.15728354,0.65236026,-0.07221965,0.17071159,0.4694135,0.066423774,-0.1361397,-0.1655512,-0.049611922,796.99634,798.60803,803.0403,799.81683,371.90475,-0.2379150390625,0.0565185546875,0.98583984375,-5.084228515625,-1.697235107421875,2.235565185546875,1,1.0,1.0,1.0,1.0,10.00
2024-10-11 20:38:56.666,0.23346324,0.7336146,0.758851,0.40159723,0.4592324,0.42439625,0.5508303,0.32053056,0.71613157,0.22931117,0.56531554,-0.15728354,0.65236026,-0.07221965,0.17071159,0.4694135,0.066423774,-0.1361397,-0.1655512,-0.049611922,794.9817,793.7729,798.60803,804.65204,574.57874,-0.2379150390625,0.0565185546875,0.98583984375,-5.084228515625,-1.697235107421875,2.235565185546875,1,1.0,1.0,1.0,1.0,10.00
2024-10-11 20:38:56.666,0.23346324,0.7336146,0.758851,0.40159723,0.4592324,0.42439625,0.5508303,0.32053056,0.71613157,0.22931117,0.56531554,-0.15728354,0.65236026,-0.07221965,0.17071159,0.4694135,0.066423774,-0.1361397,-0.1655512,-0.049611922,788.5348,788.5348,792.1612,799.011,642.27106,-0.2379150390625,0.0565185546875,0.98583984375,-5.084228515625,-1.697235107421875,2.235565185546875,1,1.0,1.0,1.0,1.0,10.00
2024-10-11 20:38:56.667,0.23346324,0.7336146,0.758851,0.40159723,0.4592324,0.42439625,0.5508303,0.32053056,0.71613157,0.22931117,0.56531554,-0.15728354,0.65236026,-0.07221965,0.17071159,0.4694135,0.066423774,-0.1361397,-0.1655512,-0.049611922,793.7729,788.93774,791.75824,792.5641,505.67764,-0.2379150390625,0.0565185546875,0.98583984375,-5.084228515625,-1.697235107421875,2.235565185546875,1,1.0,1.0,1.0,1.0,10.00
2024-10-11 20:38:56.667,0.23346324,0.7336146,0.758851,0.40159723,0.4592324,0.42439625,0.5508303,0.32053056,0.71613157,0.22931117,0.56531554,-0.15728354,0.65236026,-0.07221965,0.17071159,0.4694135,0.066423774,-0.1361397,-0.1655512,-0.049611922,793.36993,789.34064,802.23444,796.1905,581.02563,-0.2379150390625,0.0565185546875,0.98583984375,-5.084228515625,-1.697235107421875,2.235565185546875,1,1.0,1.0,1.0,1.0,10.00
2024-10-11 20:38:56.668,0.23346324,0.7336146,0.758851,0.40159723,0.4592324,0.42439625,0.5508303,0.32053056,0.71613157,0.22931117,0.56531554,-0.15728354,0.65236026,-0.07221965,0.17071159,0.4694135,0.066423774,-0.1361397,-0.1655512,-0.049611922,785.7143,788.5348,800.6227,801.8315,740.989,-0.2379150390625,0.0565185546875,0.98583984375,-5.084228515625,-1.697235107421875,2.235565185546875,1,1.0,1.0,1.0,1.0,10.00
2024-10-11 20:38:56.668,0.23346324,0.7336146,0.758851,0.40159723,0.4592324,0.42439625,0.5508303,0.32053056,0.71613157,0.22931117,0.56531554,-0.15728354,0.65236026,-0.07221965,0.17071159,0.4694135,0.066423774,-0.1361397,-0.1655512,-0.049611922,787.326,786.9231,794.57874,799.81683,703.1135,-0.2379150390625,0.0565185546875,0.98583984375,-5.084228515625,-1.697235107421875,2.235565185546875,1,1.0,1.0,1.0,1.0,10.00
2024-10-11 20:38:56.669,0.23346324,0.7336146,0.758851,0.40159723,0.4592324,0.42439625,0.5508303,0.32053056,0.71613157,0.22931117,0.56531554,-0.15728354,0.65236026,-0.07221965,0.17071159,0.4694135,0.066423774,-0.1361397,-0.1655512,-0.049611922,790.9524,792.1612,799.81683,799.011,535.4945,-0.2379150390625,0.0565185546875,0.98583984375,-5.084228515625,-1.697235107421875,2.235565185546875,1,1.0,1.0,1.0,1.0,10.00
2024-10-11 20:38:56.670,0.23346324,0.7336146,0.758851,0.40159723,0.4592324,0.42439625,0.5508303,0.32053056,0.71613157,0.22931117,0.56531554,-0.15728354,0.65236026,-0.07221965,0.17071159,0.4694135,0.066423774,-0.1361397,-0.1655512,-0.049611922,788.1319,792.96704,796.1905,794.57874,589.89014,-0.2379150390625,0.0565185546875,0.98583984375,-5.084228515625,-1.697235107421875,2.235565185546875,1,1.0,1.0,1.0,1.0,10.00
2024-10-11 20:38:56.763,0.23346324,0.7336146,0.758851,0.40159723,0.4592324,0.42439625,0.5508303,0.32053056,0.71613157,0.22931117,0.56531554,-0.15728354,0.65236026,-0.07221965,0.17071159,0.4694135,0.066423774,-0.1361397,-0.1655512,-0.049611922,785.7143,793.7729,797.3993,802.6374,805.8608,-0.22821044921875,0.04669189453125,0.98431396484375,-4.964599609375,-2.355194091796875,0.142059326171875,1,1.0,1.0,1.0,1.0,10.00
2024-10-11 20:38:56.764,0.23346324,0.7336146,0.758851,0.40159723,0.4592324,0.42439625,0.5508303,0.32053056,0.71613157,0.22931117,0.56531554,-0.15728354,0.65236026,-0.07221965,0.17071159,0.4694135,0.066423774,-0.1361397,-0.1655512,-0.049611922,790.54944,795.78754,801.4286,805.05493,653.1502,-0.22821044921875,0.04669189453125,0.98431396484375,-4.964599609375,-2.355194091796875,0.142059326171875,1,1.0,1.0,1.0,1.0,10.00
2024-10-11 20:38:56.764,0.23346324,0.7336146,0.758851,0.40159723,0.4592324,0.42439625,0.5508303,0.32053056,0.71613157,0.22931117,0.56531554,-0.15728354,0.65236026,-0.07221965,0.17071159,0.4694135,0.066423774,-0.1361397,-0.1655512,-0.049611922,795.78754,793.36993,796.5934,796.99634,429.5238,-0.22821044921875,0.04669189453125,0.98431396484375,-4.964599609375,-2.355194091796875,0.142059326171875,1,1.0,1.0,1.0,1.0,10.00
2024-10-11 20:38:56.765,0.23346324,0.7336146,0.758851,0.40159723,0.4592324,0.42439625,0.5508303,0.32053056,0.71613157,0.22931117,0.56531554,-0.15728354,0.65236026,-0.07221965,0.17071159,0.4694135,0.066423774,-0.1361397,-0.1655512,-0.049611922,801.02563,796.5934,796.1905,797.8022,497.61905,-0.22821044921875,0.04669189453125,0.98431396484375,-4.964599609375,-2.355194091796875,0.142059326171875,1,1.0,1.0,1.0,1.0,10.00
2024-10-11 20:38:56.766,0.23346324,0.7336146,0.758851,0.40159723,0.4592324,0.42439625,0.5508303,0.32053056,0.71613157,0.22931117,0.56531554,-0.15728354,0.65236026,-0.07221965,0.17071159,0.4694135,0.066423774,-0.1361397,-0.1655512,-0.049611922,802.6374,796.5934,791.75824,804.2491,812.3077,-0.22821044921875,0.04669189453125,0.98431396484375,-4.964599609375,-2.355194091796875,0.142059326171875,1,1.0,1.0,1.0,1.0,10.00
2024-10-11 20:38:56.766,0.23346324,0.7336146,0.758851,0.40159723,0.4592324,0.42439625,0.5508303,0.32053056,0.71613157,0.22931117,0.56531554,-0.15728354,0.65236026,-0.07221965,0.17071159,0.4694135,0.066423774,-0.1361397,-0.1655512,-0.049611922,803.0403,798.20514,794.9817,810.696,753.8828,-0.22821044921875,0.04669189453125,0.98431396484375,-4.964599609375,-2.355194091796875,0.142059326171875,1,1.0,1.0,1.0,1.0,10.00
2024-10-11 20:38:56.767,0.23346324,0.7336146,0.758851,0.40159723,0.4592324,0.42439625,0.5508303,0.32053056,0.71613157,0.22931117,0.56531554,-0.15728354,0.65236026,-0.07221965,0.17071159,0.4694135,0.066423774,-0.1361397,-0.1655512,-0.049611922,805.8608,798.20514,798.60803,804.2491,523.00366,-0.22821044921875,0.04669189453125,0.98431396484375,-4.964599609375,-2.355194091796875,0.142059326171875,1,1.0,1.0,1.0,1.0,10.00
2024-10-11 20:38:56.767,0.23346324,0.7336146,0.758851,0.40159723,0.4592324,0.42439625,0.5508303,0.32053056,0.71613157,0.22931117,0.56531554,-0.15728354,0.65236026,-0.07221965,0.17071159,0.4694135,0.066423774,-0.1361397,-0.1655512,-0.049611922,803.44324,802.6374,795.78754,798.20514,502.45422,-0.22821044921875,0.04669189453125,0.98431396484375,-4.964599609375,-2.355194091796875,0.142059326171875,1,1.0,1.0,1.0,1.0,10.00
2024-10-11 20:38:56.768,0.23346324,0.7336146,0.758851,0.40159723,0.4592324,0.42439625,0.5508303,0.32053056,0.71613157,0.22931117,0.56531554,-0.15728354,0.65236026,-0.07221965,0.17071159,0.4694135,0.066423774,-0.1361397,-0.1655512,-0.049611922,796.5934,805.8608,792.1612,801.4286,569.7436,-0.22821044921875,0.04669189453125,0.98431396484375,-4.964599609375,-2.355194091796875,0.142059326171875,1,1.0,1.0,1.0,1.0,10.00
2024-10-11 20:38:56.769,0.23346324,0.7336146,0.758851,0.40159723,0.4592324,0.42439625,0.5508303,0.32053056,0.71613157,0.22931117,0.56531554,-0.15728354,0.65236026,-0.07221965,0.17071159,0.4694135,0.066423774,-0.1361397,-0.1655512,-0.049611922,795.38464,797.8022,788.5348,804.65204,595.5311,-0.22821044921875,0.04669189453125,0.98431396484375,-4.964599609375,-2.355194091796875,0.142059326171875,1,1.0,1.0,1.0,1.0,10.00
2024-10-11 20:38:56.769,0.23346324,0.7336146,0.758851,0.40159723,0.4592324,0.42439625,0.5508303,0.32053056,0.71613157,0.22931117,0.56531554,-0.15728354,0.65236026,-0.07221965,0.17071159,0.4694135,0.066423774,-0.1361397,-0.1655512,-0.049611922,796.1905,798.20514,797.8022,804.65204,450.4762,-0.22821044921875,0.04669189453125,0.98431396484375,-4.964599609375,-2.355194091796875,0.142059326171875,1,1.0,1.0,1.0,1.0,10.00
2024-10-11 20:38:56.770,0.23346324,0.7336146,0.758851,0.40159723,0.4592324,0.42439625,0.5508303,0.32053056,0.71613157,0.22931117,0.56531554,-0.15728354,0.65236026,-0.07221965,0.17071159,0.4694135,0.066423774,-0.1361397,-0.1655512,-0.049611922,801.02563,799.81683,803.0403,803.44324,460.1465,-0.22821044921875,0.04669189453125,0.98431396484375,-4.964599609375,-2.355194091796875,0.142059326171875,1,1.0,1.0,1.0,1.0,10.00
2024-10-11 20:38:56.832,0.23346324,0.7336146,0.758851,0.40159723,0.4592324,0.42439625,0.5508303,0.32053056,0.71613157,0.22931117,0.56531554,-0.15728354,0.65236026,-0.07221965,0.17071159,0.4694135,0.066423774,-0.1361397,-0.1655512,-0.049611922,800.6227,796.1905,798.60803,806.6667,571.3553,-0.234619140625,0.02838134765625,0.9881591796875,-6.02630615234375,-2.6318359375,-1.06170654296875,1,1.0,1.0,1.0,1.0,10.00
2024-10-11 20:38:56.833,0.23346324,0.7336146,0.758851,0.40159723,0.4592324,0.42439625,0.5508303,0.32053056,0.71613157,0.22931117,0.56531554,-0.15728354,0.65236026,-0.07221965,0.17071159,0.4694135,0.066423774,-0.1361397,-0.1655512,-0.049611922,798.20514,799.011,798.20514,809.0842,529.45056,-0.234619140625,0.02838134765625,0.9881591796875,-6.02630615234375,-2.6318359375,-1.06170654296875,1,1.0,1.0,1.0,1.0,10.00
2024-10-11 20:38:56.833,0.23346324,0.7336146,0.758851,0.40159723,0.4592324,0.42439625,0.5508303,0.32053056,0.71613157,0.22931117,0.56531554,-0.15728354,0.65236026,-0.07221965,0.17071159,0.4694135,0.066423774,-0.1361397,-0.1655512,-0.049611922,807.8755,803.44324,795.78754,809.0842,489.56042,-0.234619140625,0.02838134765625,0.9881591796875,-6.02630615234375,-2.6318359375,-1.06170654296875,1,1.0,1.0,1.0,1.0,10.00
2024-10-11 20:38:56.834,0.23346324,0.72605556,0.75299335,0.40159723,0.4592324,0.4341806,0.5643063,0.32053056,0.71613157,0.23249929,0.56531554,-0.15728354,0.65236026,-0.07576313,0.17092083,0.4694135,0.066423774,-0.121251106,-0.15480772,-0.049611922,811.9048,803.44324,799.81683,803.0403,641.8681,-0.234619140625,0.02838134765625,0.9881591796875,-6.02630615234375,-2.6318359375,-1.06170654296875,1,1.0,1.0,1.0,1.0,10.00
2024-10-11 20:38:56.838,0.23346324,0.72605556,0.75299335,0.40159723,0.4592324,0.4341806,0.5643063,0.32053056,0.71613157,0.23249929,0.56531554,-0.15728354,0.65236026,-0.07576313,0.17092083,0.4694135,0.066423774,-0.121251106,-0.15480772,-0.049611922,804.65204,801.4286,806.6667,801.8315,576.5934,-0.234619140625,0.02838134765625,0.9881591796875,-6.02630615234375,-2.6318359375,-1.06170654296875,1,1.0,1.0,1.0,1.0,10.00
2024-10-11 20:38:56.839,0.23346324,0.72605556,0.75299335,0.40159723,0.4592324,0.4341806,0.5643063,0.32053056,0.71613157,0.23249929,0.56531554,-0.15728354,0.65236026,-0.07576313,0.17092083,0.4694135,0.066423774,-0.121251106,-0.15480772,-0.049611922,798.60803,803.0403,807.47253,807.8755,514.1392,-0.234619140625,0.02838134765625,0.9881591796875,-6.02630615234375,-2.6318359375,-1.06170654296875,1,1.0,1.0,1.0,1.0,10.00
2024-10-11 20:38:56.840,0.23346324,0.72605556,0.75299335,0.40159723,0.4592324,0.4341806,0.5643063,0.32053056,0.71613157,0.23249929,0.56531554,-0.15728354,0.65236026,-0.07576313,0.17092083,0.4694135,0.066423774,-0.121251106,-0.15480772,-0.049611922,803.0403,805.8608,808.2784,808.2784,705.9341,-0.234619140625,0.02838134765625,0.9881591796875,-6.02630615234375,-2.6318359375,-1.06170654296875,1,1.0,1.0,1.0,1.0,10.00
2024-10-11 20:38:56.840,0.23346324,0.72605556,0.75299335,0.40159723,0.4592324,0.4341806,0.5643063,0.32053056,0.71613157,0.23249929,0.56531554,-0.15728354,0.65236026,-0.07576313,0.17092083,0.4694135,0.066423774,-0.121251106,-0.15480772,-0.049611922,797.8022,798.60803,806.26373,805.05493,819.5604,-0.234619140625,0.02838134765625,0.9881591796875,-6.02630615234375,-2.6318359375,-1.06170654296875,1,1.0,1.0,1.0,1.0,10.00
2024-10-11 20:38:56.841,0.23346324,0.72605556,0.75299335,0.40159723,0.4592324,0.4341806,0.5643063,0.32053056,0.71613157,0.23249929,0.56531554,-0.15728354,0.65236026,-0.07576313,0.17092083,0.4694135,0.066423774,-0.121251106,-0.15480772,-0.049611922,796.1905,797.3993,796.5934,801.4286,658.3883,-0.234619140625,0.02838134765625,0.9881591796875,-6.02630615234375,-2.6318359375,-1.06170654296875,1,1.0,1.0,1.0,1.0,10.00
2024-10-11 20:38:56.841,0.23346324,0.72605556,0.75299335,0.40159723,0.4592324,0.4341806,0.5643063,0.32053056,0.71613157,0.23249929,0.56531554,-0.15728354,0.65236026,-0.07576313,0.17092083,0.4694135,0.066423774,-0.121251106,-0.15480772,-0.049611922,792.96704,798.60803,798.60803,799.011,434.35898,-0.234619140625,0.02838134765625,0.9881591796875,-6.02630615234375,-2.6318359375,-1.06170654296875,1,1.0,1.0,1.0,1.0,10.00
2024-10-11 20:38:56.842,0.23346324,0.72605556,0.75299335,0.40159723,0.4592324,0.4341806,0.5643063,0.32053056,0.71613157,0.23249929,0.56531554,-0.15728354,0.65236026,-0.07576313,0.17092083,0.4694135,0.066423774,-0.121251106,-0.15480772,-0.049611922,796.99634,797.8022,805.8608,798.60803,485.53113,-0.234619140625,0.02838134765625,0.9881591796875,-6.02630615234375,-2.6318359375,-1.06170654296875,1,1.0,1.0,1.0,1.0,10.00
2024-10-11 20:38:56.842,0.23346324,0.72605556,0.75299335,0.40159723,0.4592324,0.4341806,0.5643063,0.32053056,0.71613157,0.23249929,0.56531554,-0.15728354,0.65236026,-0.07576313,0.17092083,0.4694135,0.066423774,-0.121251106,-0.15480772,-0.049611922,807.47253,799.41394,801.8315,795.78754,804.2491,-0.234619140625,0.02838134765625,0.9881591796875,-6.02630615234375,-2.6318359375,-1.06170654296875,1,1.0,1.0,1.0,1.0,10.00
2024-10-11 20:38:56.932,0.23346324,0.72605556,0.75299335,0.40159723,0.4592324,0.4341806,0.5643063,0.32053056,0.71613157,0.23249929,0.56531554,-0.15728354,0.65236026,-0.07576313,0.17092083,0.4694135,0.066423774,-0.121251106,-0.15480772,-0.049611922,796.1905,797.3993,801.4286,789.7436,736.9597,-0.22052001953125,0.0164794921875,0.98822021484375,-4.35150146484375,-4.059906005859375,-1.667327880859375,1,1.0,1.0,1.0,1.0,10.00
2024-10-11 20:38:56.934,0.23346324,0.72605556,0.75299335,0.40159723,0.4592324,0.4341806,0.5643063,0.32053056,0.71613157,0.23249929,0.56531554,-0.15728354,0.65236026,-0.07576313,0.17092083,0.4694135,0.066423774,-0.121251106,-0.15480772,-0.049611922,788.1319,797.8022,803.8461,792.1612,496.41025,-0.22052001953125,0.0164794921875,0.98822021484375,-4.35150146484375,-4.059906005859375,-1.667327880859375,1,1.0,1.0,1.0,1.0,10.00
2024-10-11 20:38:56.934,0.23346324,0.72605556,0.75299335,0.40159723,0.4592324,0.4341806,0.5643063,0.32053056,0.71613157,0.23249929,0.56531554,-0.15728354,0.65236026,-0.07576313,0.17092083,0.4694135,0.066423774,-0.121251106,-0.15480772,-0.049611922,796.5934,802.23444,805.4579,799.011,577.8022,-0.22052001953125,0.0164794921875,0.98822021484375,-4.35150146484375,-4.059906005859375,-1.667327880859375,1,1.0,1.0,1.0,1.0,10.00
2024-10-11 20:38:56.935,0.23346324,0.72605556,0.75299335,0.40159723,0.4592324,0.4341806,0.5643063,0.32053056,0.71613157,0.23249929,0.56531554,-0.15728354,0.65236026,-0.07576313,0.17092083,0.4694135,0.066423774,-0.121251106,-0.15480772,-0.049611922,794.9817,801.02563,799.81683,795.38464,678.5348,-0.22052001953125,0.0164794921875,0.98822021484375,-4.35150146484375,-4.059906005859375,-1.667327880859375,1,1.0,1.0,1.0,1.0,10.00
2024-10-11 20:38:56.935,0.23346324,0.72605556,0.75299335,0.40159723,0.4592324,0.4341806,0.5643063,0.32053056,0.71613157,0.23249929,0.56531554,-0.15728354,0.65236026,-0.07576313,0.17092083,0.4694135,0.066423774,-0.121251106,-0.15480772,-0.049611922,796.1905,803.0403,795.38464,788.93774,552.4176,-0.22052001953125,0.0164794921875,0.98822021484375,-4.35150146484375,-4.059906005859375,-1.667327880859375,1,1.0,1.0,1.0,1.0,10.00
2024-10-11 20:38:56.936,0.23346324,0.72605556,0.75299335,0.40159723,0.4592324,0.4341806,0.5643063,0.32053056,0.71613157,0.23249929,0.56531554,-0.15728354,0.65236026,-0.07576313,0.17092083,0.4694135,0.066423774,-0.121251106,-0.15480772,-0.049611922,799.41394,801.8315,794.17584,790.54944,545.9707,-0.22052001953125,0.0164794921875,0.98822021484375,-4.35150146484375,-4.059906005859375,-1.667327880859375,1,1.0,1.0,1.0,1.0,10.00
2024-10-11 20:38:56.937,0.23346324,0.72605556,0.75299335,0.40159723,0.4592324,0.4341806,0.5643063,0.32053056,0.71613157,0.23249929,0.56531554,-0.15728354,0.65236026,-0.07576313,0.17092083,0.4694135,0.066423774,-0.121251106,-0.15480772,-0.049611922,796.99634,799.011,791.75824,797.8022,642.27106,-0.22052001953125,0.0164794921875,0.98822021484375,-4.35150146484375,-4.059906005859375,-1.667327880859375,1,1.0,1.0,1.0,1.0,10.00
2024-10-11 20:38:56.937,0.23346324,0.72605556,0.75299335,0.40159723,0.4592324,0.4341806,0.5643063,0.32053056,0.71613157,0.23249929,0.56531554,-0.15728354,0.65236026,-0.07576313,0.17092083,0.4694135,0.066423774,-0.121251106,-0.15480772,-0.049611922,797.8022,796.99634,797.8022,791.3553,764.35895,-0.22052001953125,0.0164794921875,0.98822021484375,-4.35150146484375,-4.059906005859375,-1.667327880859375,1,1.0,1.0,1.0,1.0,10.00
2024-10-11 20:38:56.938,0.23346324,0.72605556,0.75299335,0.40159723,0.4592324,0.4341806,0.5643063,0.32053056,0.71613157,0.23249929,0.56531554,-0.15728354,0.65236026,-0.07576313,0.17092083,0.4694135,0.066423774,-0.121251106,-0.15480772,-0.049611922,797.8022,794.9817,798.20514,786.52014,719.2308,-0.22052001953125,0.0164794921875,0.98822021484375,-4.35150146484375,-4.059906005859375,-1.667327880859375,1,1.0,1.0,1.0,1.0,10.00
2024-10-11 20:38:56.938,0.23346324,0.72605556,0.75299335,0.40159723,0.4592324,0.4341806,0.5643063,0.32053056,0.71613157,0.23249929,0.56531554,-0.15728354,0.65236026,-0.07576313,0.17092083,0.4694135,0.066423774,-0.121251106,-0.15480772,-0.049611922,795.38464,795.38464,795.38464,789.34064,610.0366,-0.22052001953125,0.0164794921875,0.98822021484375,-4.35150146484375,-4.059906005859375,-1.667327880859375,1,1.0,1.0,1.0,1.0,10.00
2024-10-11 20:38:56.939,0.23346324,0.72605556,0.75299335,0.40159723,0.4592324,0.4341806,0.5643063,0.32053056,0.71613157,0.23249929,0.56531554,-0.15728354,0.65236026,-0.07576313,0.17092083,0.4694135,0.066423774,-0.121251106,-0.15480772,-0.049611922,804.65204,792.5641,793.7729,794.17584,698.68134,-0.22052001953125,0.0164794921875,0.98822021484375,-4.35150146484375,-4.059906005859375,-1.667327880859375,1,1.0,1.0,1.0,1.0,10.00
2024-10-11 20:38:56.939,0.23346324,0.72605556,0.75299335,0.40159723,0.4592324,0.4341806,0.5643063,0.32053056,0.71613157,0.23249929,0.56531554,-0.15728354,0.65236026,-0.07576313,0.17092083,0.4694135,0.066423774,-0.121251106,-0.15480772,-0.049611922,812.3077,792.96704,794.57874,806.6667,817.5458,-0.22052001953125,0.0164794921875,0.98822021484375,-4.35150146484375,-4.059906005859375,-1.667327880859375,1,1.0,1.0,1.0,1.0,10.00
2024-10-11 20:38:56.970,0.23346324,0.72605556,0.75299335,0.40159723,0.4592324,0.4341806,0.5643063,0.32053056,0.71613157,0.23249929,0.56531554,-0.15728354,0.65236026,-0.07576313,0.17092083,0.4694135,0.066423774,-0.121251106,-0.15480772,-0.049611922,813.91943,798.20514,794.17584,811.50183,678.1319,-0.22052001953125,0.0164794921875,0.98822021484375,-4.35150146484375,-4.059906005859375,-1.667327880859375,1,1.0,1.0,1.0,1.0,10.00
2024-10-11 20:38:56.971,0.23346324,0.72605556,0.75299335,0.40159723,0.4592324,0.4341806,0.5643063,0.32053056,0.71613157,0.23249929,0.56531554,-0.15728354,0.65236026,-0.07576313,0.17092083,0.4694135,0.066423774,-0.121251106,-0.15480772,-0.049611922,812.3077,796.1905,796.5934,808.68134,565.31134,-0.22052001953125,0.0164794921875,0.98822021484375,-4.35150146484375,-4.059906005859375,-1.667327880859375,1,1.0,1.0,1.0,1.0,10.00
2024-10-11 20:38:56.971,0.23346324,0.72605556,0.75299335,0.40159723,0.4592324,0.4341806,0.5643063,0.32053056,0.71613157,0.23249929,0.56531554,-0.15728354,0.65236026,-0.07576313,0.17092083,0.4694135,0.066423774,-0.121251106,-0.15480772,-0.049611922,809.0842,790.9524,801.4286,806.6667,861.4652,-0.22052001953125,0.0164794921875,0.98822021484375,-4.35150146484375,-4.059906005859375,-1.667327880859375,1,1.0,1.0,1.0,1.0,10.00
2024-10-11 20:38:56.972,0.23346324,0.72605556,0.75299335,0.40159723,0.4592324,0.4341806,0.5643063,0.32053056,0.71613157,0.23249929,0.56531554,-0.15728354,0.65236026,-0.07576313,0.17092083,0.4694135,0.066423774,-0.121251106,-0.15480772,-0.049611922,806.26373,792.96704,799.81683,806.26373,834.4689,-0.22052001953125,0.0164794921875,0.98822021484375,-4.35150146484375,-4.059906005859375,-1.667327880859375,1,1.0,1.0,1.0,1.0,10.00
2024-10-11 20:38:56.973,0.23346324,0.72605556,0.75299335,0.40159723,0.4592324,0.4341806,0.5643063,0.32053056,0.71613157,0.23249929,0.56531554,-0.15728354,0.65236026,-0.07576313,0.17092083,0.4694135,0.066423774,-0.121251106,-0.15480772,-0.049611922,799.81683,796.99634,797.3993,805.8608,570.54944,-0.22052001953125,0.0164794921875,0.98822021484375,-4.35150146484375,-4.059906005859375,-1.667327880859375,1,1.0,1.0,1.0,1.0,10.00
2024-10-11 20:38:56.973,0.5344519,0.6987377,0.7456545,0.5919205,0.5780638,0.42808387,0.5811241,0.20522696,0.74161506,0.23249929,0.56531554,0.6077417,0.4347548,-0.08835386,0.1753981,0.47411287,0.25993043,-0.13563386,-0.15279952,-0.033561554,800.2198,796.1905,796.99634,803.8461,647.50916,-0.22052001953125,0.0164794921875,0.98822021484375,-4.35150146484375,-4.059906005859375,-1.667327880859375,1,1.0,1.0,1.0,1.0,10.00
2024-10-11 20:38:56.979,0.5344519,0.6987377,0.7456545,0.5919205,0.5780638,0.42808387,0.5811241,0.20522696,0.74161506,0.23249929,0.56531554,0.6077417,0.4347548,-0.08835386,0.1753981,0.47411287,0.25993043,-0.13563386,-0.15279952,-0.033561554,801.8315,792.96704,799.011,798.60803,933.9927,-0.22052001953125,0.0164794921875,0.98822021484375,-4.35150146484375,-4.059906005859375,-1.667327880859375,1,1.0,1.0,1.0,1.0,10.00
2024-10-11 20:38:56.979,0.5344519,0.6987377,0.7456545,0.5919205,0.5780638,0.42808387,0.5811241,0.20522696,0.74161506,0.23249929,0.56531554,0.6077417,0.4347548,-0.08835386,0.1753981,0.47411287,0.25993043,-0.13563386,-0.15279952,-0.033561554,802.6374,790.9524,804.2491,800.2198,859.85345,-0.22052001953125,0.0164794921875,0.98822021484375,-4.35150146484375,-4.059906005859375,-1.667327880859375,1,1.0,1.0,1.0,1.0,10.00
2024-10-11 20:38:56.980,0.5344519,0.6987377,0.7456545,0.5919205,0.5780638,0.42808387,0.5811241,0.20522696,0.74161506,0.23249929,0.56531554,0.6077417,0.4347548,-0.08835386,0.1753981,0.47411287,0.25993043,-0.13563386,-0.15279952,-0.033561554,801.02563,796.1905,801.4286,803.44324,535.4945,-0.22052001953125,0.0164794921875,0.98822021484375,-4.35150146484375,-4.059906005859375,-1.667327880859375,1,1.0,1.0,1.0,1.0,10.00
2024-10-11 20:38:56.980,0.5344519,0.6987377,0.7456545,0.5919205,0.5780638,0.42808387,0.5811241,0.20522696,0.74161506,0.23249929,0.56531554,0.6077417,0.4347548,-0.08835386,0.1753981,0.47411287,0.25993043,-0.13563386,-0.15279952,-0.033561554,790.9524,798.20514,794.17584,792.1612,540.32965,-0.22052001953125,0.0164794921875,0.98822021484375,-4.35150146484375,-4.059906005859375,-1.667327880859375,1,1.0,1.0,1.0,1.0,10.00
2024-10-11 20:38:56.981,0.5344519,0.6987377,0.7456545,0.5919205,0.5780638,0.42808387,0.5811241,0.20522696,0.74161506,0.23249929,0.56531554,0.6077417,0.4347548,-0.08835386,0.1753981,0.47411287,0.25993043,-0.13563386,-0.15279952,-0.033561554,787.326,795.78754,794.57874,786.52014,726.08057,-0.22052001953125,0.0164794921875,0.98822021484375,-4.35150146484375,-4.059906005859375,-1.667327880859375,1,1.0,1.0,1.0,1.0,10.00
2024-10-11 20:38:56.982,0.5344519,0.6987377,0.7456545,0.5919205,0.5780638,0.42808387,0.5811241,0.20522696,0.74161506,0.23249929,0.56531554,0.6077417,0.4347548,-0.08835386,0.1753981,0.47411287,0.25993043,-0.13563386,-0.15279952,-0.033561554,791.75824,801.02563,794.9817,785.7143,609.6337,-0.22052001953125,0.0164794921875,0.98822021484375,-4.35150146484375,-4.059906005859375,-1.667327880859375,1,1.0,1.0,1.0,1.0,10.00
2024-10-11 20:38:57.011,0.5344519,0.6987377,0.7456545,0.5919205,0.5780638,0.42808387,0.5811241,0.20522696,0.74161506,0.23249929,0.56531554,0.6077417,0.4347548,-0.08835386,0.1753981,0.47411287,0.25993043,-0.13563386,-0.15279952,-0.033561554,797.3993,809.4872,794.9817,787.72894,533.0769,-0.213134765625,0.0150146484375,0.98388671875,-1.9439697265625,-2.9010009765625,-0.844879150390625,1,1.0,1.0,1.0,1.0,10.00
2024-10-11 20:38:57.012,0.5344519,0.6987377,0.7456545,0.5919205,0.5780638,0.42808387,0.5811241,0.20522696,0.74161506,0.23249929,0.56531554,0.6077417,0.4347548,-0.08835386,0.1753981,0.47411287,0.25993043,-0.13563386,-0.15279952,-0.033561554,797.3993,808.2784,795.38464,792.5641,591.9048,-0.213134765625,0.0150146484375,0.98388671875,-1.9439697265625,-2.9010009765625,-0.844879150390625,1,1.0,1.0,1.0,1.0,10.00
2024-10-11 20:38:57.013,0.5344519,0.6987377,0.7456545,0.5919205,0.5780638,0.42808387,0.5811241,0.20522696,0.74161506,0.23249929,0.56531554,0.6077417,0.4347548,-0.08835386,0.1753981,0.47411287,0.25993043,-0.13563386,-0.15279952,-0.033561554,795.38464,797.3993,801.4286,792.1612,550.40295,-0.213134765625,0.0150146484375,0.98388671875,-1.9439697265625,-2.9010009765625,-0.844879150390625,1,1.0,1.0,1.0,1.0,10.00
2024-10-11 20:38:57.014,0.5344519,0.6987377,0.7456545,0.5919205,0.5780638,0.42808387,0.5811241,0.20522696,0.74161506,0.23249929,0.56531554,0.6077417,0.4347548,-0.08835386,0.1753981,0.47411287,0.25993043,-0.13563386,-0.15279952,-0.033561554,798.20514,795.38464,798.60803,792.96704,487.54578,-0.213134765625,0.0150146484375,0.98388671875,-1.9439697265625,-2.9010009765625,-0.844879150390625,1,1.0,1.0,1.0,1.0,10.00
2024-10-11 20:38:57.014,0.5344519,0.6987377,0.7456545,0.5919205,0.5780638,0.42808387,0.5811241,0.20522696,0.74161506,0.23249929,0.56531554,0.6077417,0.4347548,-0.08835386,0.1753981,0.47411287,0.25993043,-0.13563386,-0.15279952,-0.033561554,795.38464,795.78754,796.99634,791.3553,514.1392,-0.213134765625,0.0150146484375,0.98388671875,-1.9439697265625,-2.9010009765625,-0.844879150390625,1,1.0,1.0,1.0,1.0,10.00
2024-10-11 20:38:57.015,0.5344519,0.6987377,0.7456545,0.5919205,0.5780638,0.42808387,0.5811241,0.20522696,0.74161506,0.23249929,0.56531554,0.6077417,0.4347548,-0.08835386,0.1753981,0.47411287,0.25993043,-0.13563386,-0.15279952,-0.033561554,794.17584,791.75824,797.8022,787.326,735.7509,-0.213134765625,0.0150146484375,0.98388671875,-1.9439697265625,-2.9010009765625,-0.844879150390625,1,1.0,1.0,1.0,1.0,10.00
2024-10-11 20:38:57.015,0.5344519,0.6987377,0.7456545,0.5919205,0.5780638,0.42808387,0.5811241,0.20522696,0.74161506,0.23249929,0.56531554,0.6077417,0.4347548,-0.08835386,0.1753981,0.47411287,0.25993043,-0.13563386,-0.15279952,-0.033561554,793.36993,790.54944,790.54944,791.75824,929.9634,-0.213134765625,0.0150146484375,0.98388671875,-1.9439697265625,-2.9010009765625,-0.844879150390625,1,1.0,1.0,1.0,1.0,10.00
2024-10-11 20:38:57.016,0.5344519,0.6987377,0.7456545,0.5919205,0.5780638,0.42808387,0.5811241,0.20522696,0.74161506,0.23249929,0.56531554,0.6077417,0.4347548,-0.08835386,0.1753981,0.47411287,0.25993043,-0.13563386,-0.15279952,-0.033561554,782.8938,790.54944,793.7729,791.75824,821.5751,-0.213134765625,0.0150146484375,0.98388671875,-1.9439697265625,-2.9010009765625,-0.844879150390625,1,1.0,1.0,1.0,1.0,10.00
2024-10-11 20:38:57.016,0.5344519,0.6987377,0.7456545,0.5919205,0.5780638,0.42808387,0.5811241,0.20522696,0.74161506,0.23249929,0.56531554,0.6077417,0.4347548,-0.08835386,0.1753981,0.47411287,0.25993043,-0.13563386,-0.15279952,-0.033561554,780.87915,792.1612,802.6374,786.1172,586.6667,-0.213134765625,0.0150146484375,0.98388671875,-1.9439697265625,-2.9010009765625,-0.844879150390625,1,1.0,1.0,1.0,1.0,10.00
2024-10-11 20:38:57.017,0.5344519,0.6987377,0.7456545,0.5919205,0.5780638,0.42808387,0.5811241,0.20522696,0.74161506,0.23249929,0.56531554,0.6077417,0.4347548,-0.08835386,0.1753981,0.47411287,0.25993043,-0.13563386,-0.15279952,-0.033561554,782.8938,794.57874,800.6227,788.1319,530.2564,-0.213134765625,0.0150146484375,0.98388671875,-1.9439697265625,-2.9010009765625,-0.844879150390625,1,1.0,1.0,1.0,1.0,10.00
2024-10-11 20:38:57.018,0.5344519,0.6987377,0.7456545,0.5919205,0.5780638,0.42808387,0.5811241,0.20522696,0.74161506,0.23249929,0.56531554,0.6077417,0.4347548,-0.08835386,0.1753981,0.47411287,0.25993043,-0.13563386,-0.15279952,-0.033561554,793.36993,796.5934,798.60803,791.3553,586.6667,-0.213134765625,0.0150146484375,0.98388671875,-1.9439697265625,-2.9010009765625,-0.844879150390625,1,1.0,1.0,1.0,1.0,10.00
2024-10-11 20:38:57.018,0.5344519,0.6987377,0.7456545,0.5919205,0.5780638,0.42808387,0.5811241,0.20522696,0.74161506,0.23249929,0.56531554,0.6077417,0.4347548,-0.08835386,0.1753981,0.47411287,0.25993043,-0.13563386,-0.15279952,-0.033561554,791.75824,791.3553,798.60803,792.96704,407.76556,-0.213134765625,0.0150146484375,0.98388671875,-1.9439697265625,-2.9010009765625,-0.844879150390625,1,1.0,1.0,1.0,1.0,10.00
2024-10-11 20:38:57.019,0.5344519,0.6987377,0.7456545,0.5919205,0.5780638,0.42808387,0.5811241,0.20522696,0.74161506,0.23249929,0.56531554,0.6077417,0.4347548,-0.08835386,0.1753981,0.47411287,0.25993043,-0.13563386,-0.15279952,-0.033561554,788.93774,790.54944,794.57874,796.1905,494.79852,-0.214111328125,0.00762939453125,0.981689453125,-0.994415283203125,-2.115936279296875,-1.03179931640625,1,1.0,1.0,1.0,1.0,10.00
2024-10-11 20:38:57.020,0.5344519,0.6987377,0.7456545,0.5919205,0.5780638,0.42808387,0.5811241,0.20522696,0.74161506,0.23249929,0.56531554,0.6077417,0.4347548,-0.08835386,0.1753981,0.47411287,0.25993043,-0.13563386,-0.15279952,-0.033561554,792.96704,793.36993,793.36993,798.20514,750.65936,-0.214111328125,0.00762939453125,0.981689453125,-0.994415283203125,-2.115936279296875,-1.03179931640625,1,1.0,1.0,1.0,1.0,10.00
2024-10-11 20:38:57.020,0.5344519,0.6987377,0.7456545,0.5919205,0.5780638,0.42808387,0.5811241,0.20522696,0.74161506,0.23249929,0.56531554,0.6077417,0.4347548,-0.08835386,0.1753981,0.47411287,0.25993043,-0.13563386,-0.15279952,-0.033561554,788.5348,791.3553,795.78754,791.3553,730.5128,-0.214111328125,0.00762939453125,0.981689453125,-0.994415283203125,-2.115936279296875,-1.03179931640625,1,1.0,1.0,1.0,1.0,10.00
2024-10-11 20:38:57.021,0.5344519,0.6987377,0.7456545,0.5919205,0.5780638,0.42808387,0.5811241,0.20522696,0.74161506,0.23249929,0.56531554,0.6077417,0.4347548,-0.08835386,0.1753981,0.47411287,0.25993043,-0.13563386,-0.15279952,-0.033561554,786.1172,791.75824,796.5934,785.7143,561.685,-0.214111328125,0.00762939453125,0.981689453125,-0.994415283203125,-2.115936279296875,-1.03179931640625,1,1.0,1.0,1.0,1.0,10.00
2024-10-11 20:38:57.021,0.5344519,0.6987377,0.7456545,0.5919205,0.5780638,0.42808387,0.5811241,0.20522696,0.74161506,0.23249929,0.56531554,0.6077417,0.4347548,-0.08835386,0.1753981,0.47411287,0.25993043,-0.13563386,-0.15279952,-0.033561554,788.5348,787.72894,796.5934,792.96704,565.7143,-0.214111328125,0.00762939453125,0.981689453125,-0.994415283203125,-2.115936279296875,-1.03179931640625,1,1.0,1.0,1.0,1.0,10.00
2024-10-11 20:38:57.022,0.5344519,0.6987377,0.7456545,0.5919205,0.5780638,0.42808387,0.5811241,0.20522696,0.74161506,0.23249929,0.56531554,0.6077417,0.4347548,-0.08835386,0.1753981,0.47411287,0.25993043,-0.13563386,-0.15279952,-0.033561554,794.17584,788.93774,790.9524,797.3993,890.4762,-0.214111328125,0.00762939453125,0.981689453125,-0.994415283203125,-2.115936279296875,-1.03179931640625,1,1.0,1.0,1.0,1.0,10.00
2024-10-11 20:38:57.022,0.5344519,0.6987377,0.7456545,0.5919205,0.5780638,0.42808387,0.5811241,0.20522696,0.74161506,0.23249929,0.56531554,0.6077417,0.4347548,-0.08835386,0.1753981,0.47411287,0.25993043,-0.13563386,-0.15279952,-0.033561554,791.3553,790.14655,784.10254,784.90845,939.2308,-0.214111328125,0.00762939453125,0.981689453125,-0.994415283203125,-2.115936279296875,-1.03179931640625,1,1.0,1.0,1.0,1.0,10.00
2024-10-11 20:38:57.023,0.52559656,0.59534174,0.73081493,0.58934593,0.55967724,0.35253212,0.5897887,0.21223906,0.74161506,0.23249929,0.56531554,0.6125296,0.46875197,-0.10936268,0.18025543,0.45144156,0.2510767,-0.17667416,-0.15684383,-0.06541206,783.69965,793.7729,792.1612,774.0293,600.3663,-0.214111328125,0.00762939453125,0.981689453125,-0.994415283203125,-2.115936279296875,-1.03179931640625,1,1.0,1.0,1.0,1.0,10.00
2024-10-11 20:38:57.028,0.52559656,0.59534174,0.73081493,0.58934593,0.55967724,0.35253212,0.5897887,0.21223906,0.74161506,0.23249929,0.56531554,0.6125296,0.46875197,-0.10936268,0.18025543,0.45144156,0.2510767,-0.17667416,-0.15684383,-0.06541206,792.5641,792.96704,795.78754,778.46155,622.9304,-0.214111328125,0.00762939453125,0.981689453125,-0.994415283203125,-2.115936279296875,-1.03179931640625,1,1.0,1.0,1.0,1.0,10.00
2024-10-11 20:38:57.029,0.52559656,0.59534174,0.73081493,0.58934593,0.55967724,0.35253212,0.5897887,0.21223906,0.74161506,0.23249929,0.56531554,0.6125296,0.46875197,-0.10936268,0.18025543,0.45144156,0.2510767,-0.17667416,-0.15684383,-0.06541206,792.96704,790.9524,795.78754,783.2967,873.1502,-0.214111328125,0.00762939453125,0.981689453125,-0.994415283203125,-2.115936279296875,-1.03179931640625,1,1.0,1.0,1.0,1.0,10.00
2024-10-11 20:38:57.030,0.52559656,0.59534174,0.73081493,0.58934593,0.55967724,0.35253212,0.5897887,0.21223906,0.74161506,0.23249929,0.56531554,0.6125296,0.46875197,-0.10936268,0.18025543,0.45144156,0.2510767,-0.17667416,-0.15684383,-0.06541206,788.93774,793.36993,793.7729,780.87915,763.5531,-0.214111328125,0.00762939453125,0.981689453125,-0.994415283203125,-2.115936279296875,-1.03179931640625,1,1.0,1.0,1.0,1.0,10.00
2024-10-11 20:38:57.030,0.52559656,0.59534174,0.73081493,0.58934593,0.55967724,0.35253212,0.5897887,0.21223906,0.74161506,0.23249929,0.56531554,0.6125296,0.46875197,-0.10936268,0.18025543,0.45144156,0.2510767,-0.17667416,-0.15684383,-0.06541206,791.3553,795.38464,796.5934,776.8498,501.64835,-0.214111328125,0.00762939453125,0.981689453125,-0.994415283203125,-2.115936279296875,-1.03179931640625,1,1.0,1.0,1.0,1.0,10.00
2024-10-11 20:38:57.031,0.52559656,0.59534174,0.73081493,0.58934593,0.55967724,0.35253212,0.5897887,0.21223906,0.74161506,0.23249929,0.56531554,0.6125296,0.46875197,-0.10936268,0.18025543,0.45144156,0.2510767,-0.17667416,-0.15684383,-0.06541206,796.99634,797.8022,802.6374,781.685,593.1135,-0.20709228515625,0.00958251953125,0.98052978515625,1.413116455078125,-2.691650390625,-0.411224365234375,1,1.0,1.0,1.0,1.0,10.00
2024-10-11 20:38:57.032,0.52559656,0.59534174,0.73081493,0.58934593,0.55967724,0.35253212,0.5897887,0.21223906,0.74161506,0.23249929,0.56531554,0.6125296,0.46875197,-0.10936268,0.18025543,0.45144156,0.2510767,-0.17667416,-0.15684383,-0.06541206,806.26373,796.99634,792.1612,789.7436,846.55676,-0.20709228515625,0.00958251953125,0.98052978515625,1.413116455078125,-2.691650390625,-0.411224365234375,1,1.0,1.0,1.0,1.0,10.00
2024-10-11 20:38:57.032,0.52559656,0.59534174,0.73081493,0.58934593,0.55967724,0.35253212,0.5897887,0.21223906,0.74161506,0.23249929,0.56531554,0.6125296,0.46875197,-0.10936268,0.18025543,0.45144156,0.2510767,-0.17667416,-0.15684383,-0.06541206,798.20514,795.78754,797.8022,788.1319,699.89014,-0.20709228515625,0.00958251953125,0.98052978515625,1.413116455078125,-2.691650390625,-0.411224365234375,1,1.0,1.0,1.0,1.0,10.00
2024-10-11 20:38:57.033,0.52559656,0.59534174,0.73081493,0.58934593,0.55967724,0.35253212,0.5897887,0.21223906,0.74161506,0.23249929,0.56531554,0.6125296,0.46875197,-0.10936268,0.18025543,0.45144156,0.2510767,-0.17667416,-0.15684383,-0.06541206,788.5348,799.41394,803.44324,789.34064,461.35532,-0.20709228515625,0.00958251953125,0.98052978515625,1.413116455078125,-2.691650390625,-0.411224365234375,1,1.0,1.0,1.0,1.0,10.00
2024-10-11 20:38:57.033,0.52559656,0.59534174,0.73081493,0.58934593,0.55967724,0.35253212,0.5897887,0.21223906,0.74161506,0.23249929,0.56531554,0.6125296,0.46875197,-0.10936268,0.18025543,0.45144156,0.2510767,-0.17667416,-0.15684383,-0.06541206,796.1905,803.44324,799.41394,802.23444,464.9817,-0.20709228515625,0.00958251953125,0.98052978515625,1.413116455078125,-2.691650390625,-0.411224365234375,1,1.0,1.0,1.0,1.0,10.00
2024-10-11 20:38:57.034,0.52559656,0.59534174,0.73081493,0.58934593,0.55967724,0.35253212,0.5897887,0.21223906,0.74161506,0.23249929,0.56531554,0.6125296,0.46875197,-0.10936268,0.18025543,0.45144156,0.2510767,-0.17667416,-0.15684383,-0.06541206,792.96704,799.011,802.23444,805.8608,656.77655,-0.20709228515625,0.00958251953125,0.98052978515625,1.413116455078125,-2.691650390625,-0.411224365234375,1,1.0,1.0,1.0,1.0,10.00
2024-10-11 20:38:57.035,0.52559656,0.59534174,0.73081493,0.58934593,0.55967724,0.35253212,0.5897887,0.21223906,0.74161506,0.23249929,0.56531554,0.6125296,0.46875197,-0.10936268,0.18025543,0.45144156,0.2510767,-0.17667416,-0.15684383,-0.06541206,787.72894,795.38464,804.2491,794.57874,637.03296,-0.20709228515625,0.00958251953125,0.98052978515625,1.413116455078125,-2.691650390625,-0.411224365234375,1,1.0,1.0,1.0,1.0,10.00
2024-10-11 20:38:57.035,0.52559656,0.59534174,0.73081493,0.58934593,0.55967724,0.35253212,0.5897887,0.21223906,0.74161506,0.23249929,0.56531554,0.6125296,0.46875197,-0.10936268,0.18025543,0.45144156,0.2510767,-0.17667416,-0.15684383,-0.06541206,788.1319,795.78754,804.2491,791.3553,552.01465,-0.20709228515625,0.00958251953125,0.98052978515625,1.413116455078125,-2.691650390625,-0.411224365234375,1,1.0,1.0,1.0,1.0,10.00
2024-10-11 20:38:57.036,0.52559656,0.59534174,0.73081493,0.58934593,0.55967724,0.35253212,0.5897887,0.21223906,0.74161506,0.23249929,0.56531554,0.6125296,0.46875197,-0.10936268,0.18025543,0.45144156,0.2510767,-0.17667416,-0.15684383,-0.06541206,786.1172,795.78754,803.44324,793.7729,561.28204,-0.20709228515625,0.00958251953125,0.98052978515625,1.413116455078125,-2.691650390625,-0.411224365234375,1,1.0,1.0,1.0,1.0,10.00
2024-10-11 20:38:57.036,0.52559656,0.59534174,0.73081493,0.58934593,0.55967724,0.35253212,0.5897887,0.21223906,0.74161506,0.23249929,0.56531554,0.6125296,0.46875197,-0.10936268,0.18025543,0.45144156,0.2510767,-0.17667416,-0.15684383,-0.06541206,784.90845,795.38464,801.02563,797.8022,642.674,-0.20709228515625,0.00958251953125,0.98052978515625,1.413116455078125,-2.691650390625,-0.411224365234375,1,1.0,1.0,1.0,1.0,10.00
2024-10-11 20:38:57.037,0.52559656,0.59534174,0.73081493,0.58934593,0.55967724,0.35253212,0.5897887,0.21223906,0.74161506,0.23249929,0.56531554,0.6125296,0.46875197,-0.10936268,0.18025543,0.45144156,0.2510767,-0.17667416,-0.15684383,-0.06541206,796.1905,796.1905,800.2198,804.65204,682.1612,-0.20709228515625,0.00958251953125,0.98052978515625,1.413116455078125,-2.691650390625,-0.411224365234375,1,1.0,1.0,1.0,1.0,10.00
2024-10-11 20:38:57.038,0.52559656,0.59534174,0.73081493,0.58934593,0.55967724,0.35253212,0.5897887,0.21223906,0.74161506,0.23249929,0.56531554,0.6125296,0.46875197,-0.10936268,0.18025543,0.45144156,0.2510767,-0.17667416,-0.15684383,-0.06541206,805.8608,796.1905,798.20514,799.011,755.4945,-0.20709228515625,0.00958251953125,0.98052978515625,1.413116455078125,-2.691650390625,-0.411224365234375,1,1.0,1.0,1.0,1.0,10.00
2024-10-11 20:38:57.038,0.52559656,0.59534174,0.73081493,0.58934593,0.55967724,0.35253212,0.5897887,0.21223906,0.74161506,0.23249929,0.56531554,0.6125296,0.46875197,-0.10936268,0.18025543,0.45144156,0.2510767,-0.17667416,-0.15684383,-0.06541206,794.57874,792.96704,790.14655,794.57874,717.619,-0.19976806640625,0.02362060546875,0.9776611328125,3.401947021484375,-1.757049560546875,1.03179931640625,1,1.0,1.0,1.0,1.0,10.00
2024-10-11 20:38:57.039,0.52559656,0.59534174,0.73081493,0.58934593,0.55967724,0.35253212,0.5897887,0.21223906,0.74161506,0.23249929,0.56531554,0.6125296,0.46875197,-0.10936268,0.18025543,0.45144156,0.2510767,-0.17667416,-0.15684383,-0.06541206,789.7436,792.96704,792.1612,799.41394,684.9817,-0.19976806640625,0.02362060546875,0.9776611328125,3.401947021484375,-1.757049560546875,1.03179931640625,1,1.0,1.0,1.0,1.0,10.00
2024-10-11 20:38:57.040,0.52559656,0.59534174,0.73081493,0.58934593,0.55967724,0.35253212,0.5897887,0.21223906,0.74161506,0.23249929,0.56531554,0.6125296,0.46875197,-0.10936268,0.18025543,0.45144156,0.2510767,-0.17667416,-0.15684383,-0.06541206,793.7729,795.78754,801.02563,799.011,585.05493,-0.19976806640625,0.02362060546875,0.9776611328125,3.401947021484375,-1.757049560546875,1.03179931640625,1,1.0,1.0,1.0,1.0,10.00
2024-10-11 20:38:57.040,0.52559656,0.59534174,0.73081493,0.58934593,0.55967724,0.35253212,0.5897887,0.21223906,0.74161506,0.23249929,0.56531554,0.6125296,0.46875197,-0.10936268,0.18025543,0.45144156,0.2510767,-0.17667416,-0.15684383,-0.06541206,784.10254,794.17584,803.0403,795.78754,582.23444,-0.19976806640625,0.02362060546875,0.9776611328125,3.401947021484375,-1.757049560546875,1.03179931640625,1,1.0,1.0,1.0,1.0,10.00
2024-10-11 20:38:57.041,0.52559656,0.59534174,0.73081493,0.58934593,0.55967724,0.35253212,0.5897887,0.21223906,0.74161506,0.23249929,0.56531554,0.6125296,0.46875197,-0.10936268,0.18025543,0.45144156,0.2510767,-0.17667416,-0.15684383,-0.06541206,785.7143,790.14655,803.44324,796.5934,771.2088,-0.19976806640625,0.02362060546875,0.9776611328125,3.401947021484375,-1.757049560546875,1.03179931640625,1,1.0,1.0,1.0,1.0,10.00
2024-10-11 20:38:57.041,0.52559656,0.59534174,0.73081493,0.58934593,0.55967724,0.35253212,0.5897887,0.21223906,0.74161506,0.23249929,0.56531554,0.6125296,0.46875197,-0.10936268,0.18025543,0.45144156,0.2510767,-0.17667416,-0.15684383,-0.06541206,795.78754,789.7436,797.8022,795.38464,803.8461,-0.19976806640625,0.02362060546875,0.9776611328125,3.401947021484375,-1.757049560546875,1.03179931640625,1,1.0,1.0,1.0,1.0,10.00
2024-10-11 20:38:57.042,0.52559656,0.59534174,0.73081493,0.58934593,0.55967724,0.35253212,0.5897887,0.21223906,0.74161506,0.23249929,0.56531554,0.6125296,0.46875197,-0.10936268,0.18025543,0.45144156,0.2510767,-0.17667416,-0.15684383,-0.06541206,795.38464,796.99634,797.8022,792.96704,740.58606,-0.19976806640625,0.02362060546875,0.9776611328125,3.401947021484375,-1.757049560546875,1.03179931640625,1,1.0,1.0,1.0,1.0,10.00
2024-10-11 20:38:57.042,0.52559656,0.59534174,0.73081493,0.58934593,0.55967724,0.35253212,0.5897887,0.21223906,0.74161506,0.23249929,0.56531554,0.6125296,0.46875197,-0.10936268,0.18025543,0.45144156,0.2510767,-0.17667416,-0.15684383,-0.06541206,795.78754,799.41394,803.8461,799.011,731.7216,-0.19976806640625,0.02362060546875,0.9776611328125,3.401947021484375,-1.757049560546875,1.03179931640625,1,1.0,1.0,1.0,1.0,10.00
2024-10-11 20:38:57.043,0.52559656,0.59534174,0.73081493,0.58934593,0.55967724,0.35253212,0.5897887,0.21223906,0.74161506,0.23249929,0.56531554,0.6125296,0.46875197,-0.10936268,0.18025543,0.45144156,0.2510767,-0.17667416,-0.15684383,-0.06541206,802.6374,798.20514,809.4872,809.89014,776.04395,-0.19976806640625,0.02362060546875,0.9776611328125,3.401947021484375,-1.757049560546875,1.03179931640625,1,1.0,1.0,1.0,1.0,10.00
2024-10-11 20:38:57.043,0.497833,0.036662236,0.6881343,0.5750838,0.5338254,0.01006757,0.57284904,0.18905906,0.7465308,0.17464639,0.5621462,0.6165242,0.48226762,-0.13853262,0.1803518,0.41581717,0.22864264,-0.2344611,-0.16318785,-0.09606298,803.8461,801.8315,802.6374,807.8755,611.6484,-0.19976806640625,0.02362060546875,0.9776611328125,3.401947021484375,-1.757049560546875,1.03179931640625,1,1.0,1.0,1.0,1.0,10.00
2024-10-11 20:38:57.049,0.497833,0.036662236,0.6881343,0.5750838,0.5338254,0.01006757,0.57284904,0.18905906,0.7465308,0.17464639,0.5621462,0.6165242,0.48226762,-0.13853262,0.1803518,0.41581717,0.22864264,-0.2344611,-0.16318785,-0.09606298,795.38464,802.6374,799.41394,799.41394,459.7436,-0.19976806640625,0.02362060546875,0.9776611328125,3.401947021484375,-1.757049560546875,1.03179931640625,1,1.0,1.0,1.0,1.0,10.00
2024-10-11 20:38:57.050,0.497833,0.036662236,0.6881343,0.5750838,0.5338254,0.01006757,0.57284904,0.18905906,0.7465308,0.17464639,0.5621462,0.6165242,0.48226762,-0.13853262,0.1803518,0.41581717,0.22864264,-0.2344611,-0.16318785,-0.09606298,791.75824,794.9817,805.05493,801.02563,536.30035,-0.19976806640625,0.02362060546875,0.9776611328125,3.401947021484375,-1.757049560546875,1.03179931640625,1,1.0,1.0,1.0,1.0,10.00
2024-10-11 20:38:57.076,0.497833,0.036662236,0.6881343,0.5750838,0.5338254,0.01006757,0.57284904,0.18905906,0.7465308,0.17464639,0.5621462,0.6165242,0.48226762,-0.13853262,0.1803518,0.41581717,0.22864264,-0.2344611,-0.16318785,-0.09606298,794.57874,788.1319,804.2491,791.75824,724.4689,-0.216552734375,0.0333251953125,0.9852294921875,4.613189697265625,-0.94207763671875,1.42059326171875,1,1.0,1.0,1.0,1.0,10.00
2024-10-11 20:38:57.077,0.497833,0.036662236,0.6881343,0.5750838,0.5338254,0.01006757,0.57284904,0.18905906,0.7465308,0.17464639,0.5621462,0.6165242,0.48226762,-0.13853262,0.1803518,0.41581717,0.22864264,-0.2344611,-0.16318785,-0.09606298,796.5934,794.9817,807.0696,791.75824,647.1062,-0.216552734375,0.0333251953125,0.9852294921875,4.613189697265625,-0.94207763671875,1.42059326171875,1,1.0,1.0,1.0,1.0,10.00
2024-10-11 20:38:57.078,0.497833,0.036662236,0.6881343,0.5750838,0.5338254,0.01006757,0.57284904,0.18905906,0.7465308,0.17464639,0.5621462,0.6165242,0.48226762,-0.13853262,0.1803518,0.41581717,0.22864264,-0.2344611,-0.16318785,-0.09606298,795.78754,800.6227,807.8755,800.6227,583.8461,-0.216552734375,0.0333251953125,0.9852294921875,4.613189697265625,-0.94207763671875,1.42059326171875,1,1.0,1.0,1.0,1.0,10.00
2024-10-11 20:38:57.079,0.497833,0.036662236,0.6881343,0.5750838,0.5338254,0.01006757,0.57284904,0.18905906,0.7465308,0.17464639,0.5621462,0.6165242,0.48226762,-0.13853262,0.1803518,0.41581717,0.22864264,-0.2344611,-0.16318785,-0.09606298,793.36993,795.78754,801.4286,799.81683,720.0366,-0.216552734375,0.0333251953125,0.9852294921875,4.613189697265625,-0.94207763671875,1.42059326171875,1,1.0,1.0,1.0,1.0,10.00
2024-10-11 20:38:57.079,0.497833,0.036662236,0.6881343,0.5750838,0.5338254,0.01006757,0.57284904,0.18905906,0.7465308,0.17464639,0.5621462,0.6165242,0.48226762,-0.13853262,0.1803518,0.41581717,0.22864264,-0.2344611,-0.16318785,-0.09606298,794.17584,797.8022,801.02563,804.2491,823.5897,-0.216552734375,0.0333251953125,0.9852294921875,4.613189697265625,-0.94207763671875,1.42059326171875,1,1.0,1.0,1.0,1.0,10.00
2024-10-11 20:38:57.080,0.497833,0.036662236,0.6881343,0.5750838,0.5338254,0.01006757,0.57284904,0.18905906,0.7465308,0.17464639,0.5621462,0.6165242,0.48226762,-0.13853262,0.1803518,0.41581717,0.22864264,-0.2344611,-0.16318785,-0.09606298,796.99634,800.2198,798.20514,799.81683,708.7546,-0.216552734375,0.0333251953125,0.9852294921875,4.613189697265625,-0.94207763671875,1.42059326171875,1,1.0,1.0,1.0,1.0,10.00
2024-10-11 20:38:57.080,0.497833,0.036662236,0.6881343,0.5750838,0.5338254,0.01006757,0.57284904,0.18905906,0.7465308,0.17464639,0.5621462,0.6165242,0.48226762,-0.13853262,0.1803518,0.41581717,0.22864264,-0.2344611,-0.16318785,-0.09606298,804.2491,796.5934,799.011,794.17584,690.6227,-0.216552734375,0.0333251953125,0.9852294921875,4.613189697265625,-0.94207763671875,1.42059326171875,1,1.0,1.0,1.0,1.0,10.00
2024-10-11 20:38:57.081,0.497833,0.036662236,0.6881343,0.5750838,0.5338254,0.01006757,0.57284904,0.18905906,0.7465308,0.17464639,0.5621462,0.6165242,0.48226762,-0.13853262,0.1803518,0.41581717,0.22864264,-0.2344611,-0.16318785,-0.09606298,800.2198,797.3993,801.8315,802.6374,721.6484,-0.216552734375,0.0333251953125,0.9852294921875,4.613189697265625,-0.94207763671875,1.42059326171875,1,1.0,1.0,1.0,1.0,10.00
2024-10-11 20:38:57.082,0.497833,0.036662236,0.6881343,0.5750838,0.5338254,0.01006757,0.57284904,0.18905906,0.7465308,0.17464639,0.5621462,0.6165242,0.48226762,-0.13853262,0.1803518,0.41581717,0.22864264,-0.2344611,-0.16318785,-0.09606298,792.5641,794.9817,801.8315,809.4872,1048.8279,-0.216552734375,0.0333251953125,0.9852294921875,4.613189697265625,-0.94207763671875,1.42059326171875,1,1.0,1.0,1.0,1.0,10.00
2024-10-11 20:38:57.082,0.497833,0.036662236,0.6881343,0.5750838,0.5338254,0.01006757,0.57284904,0.18905906,0.7465308,0.17464639,0.5621462,0.6165242,0.48226762,-0.13853262,0.1803518,0.41581717,0.22864264,-0.2344611,-0.16318785,-0.09606298,792.1612,798.60803,803.8461,811.50183,1327.2528,-0.216552734375,0.0333251953125,0.9852294921875,4.613189697265625,-0.94207763671875,1.42059326171875,1,1.0,1.0,1.0,1.0,10.00
2024-10-11 20:38:57.083,0.497833,0.036662236,0.6881343,0.5750838,0.5338254,0.01006757,0.57284904,0.18905906,0.7465308,0.17464639,0.5621462,0.6165242,0.48226762,-0.13853262,0.1803518,0.41581717,0.22864264,-0.2344611,-0.16318785,-0.09606298,796.99634,803.44324,804.2491,813.5165,1181.7949,-0.216552734375,0.0333251953125,0.9852294921875,4.613189697265625,-0.94207763671875,1.42059326171875,1,1.0,1.0,1.0,1.0,10.00
2024-10-11 20:38:57.083,0.497833,0.036662236,0.6881343,0.5750838,0.5338254,0.01006757,0.57284904,0.18905906,0.7465308,0.17464639,0.5621462,0.6165242,0.48226762,-0.13853262,0.1803518,0.41581717,0.22864264,-0.2344611,-0.16318785,-0.09606298,792.1612,800.2198,799.41394,805.05493,854.61536,-0.216552734375,0.0333251953125,0.9852294921875,4.613189697265625,-0.94207763671875,1.42059326171875,1,1.0,1.0,1.0,1.0,10.00
2024-10-11 20:38:57.110,0.497833,0.036662236,0.6881343,0.5750838,0.5338254,0.01006757,0.57284904,0.18905906,0.7465308,0.17464639,0.5621462,0.6165242,0.48226762,-0.13853262,0.1803518,0.41581717,0.22864264,-0.2344611,-0.16318785,-0.09606298,785.31134,794.9817,801.02563,806.26373,1046.8132,-0.216552734375,0.0333251953125,0.9852294921875,4.613189697265625,-0.94207763671875,1.42059326171875,1,1.0,1.0,1.0,1.0,10.00
2024-10-11 20:38:57.111,0.497833,0.036662236,0.6881343,0.5750838,0.5338254,0.01006757,0.57284904,0.18905906,0.7465308,0.17464639,0.5621462,0.6165242,0.48226762,-0.13853262,0.1803518,0.41581717,0.22864264,-0.2344611,-0.16318785,-0.09606298,786.52014,791.75824,801.8315,811.0989,1081.0623,-0.216552734375,0.0333251953125,0.9852294921875,4.613189697265625,-0.94207763671875,1.42059326171875,1,1.0,1.0,1.0,1.0,10.00
2024-10-11 20:38:57.112,0.497833,0.036662236,0.6881343,0.5750838,0.5338254,0.01006757,0.57284904,0.18905906,0.7465308,0.17464639,0.5621462,0.6165242,0.48226762,-0.13853262,0.1803518,0.41581717,0.22864264,-0.2344611,-0.16318785,-0.09606298,782.49084,794.9817,800.2198,799.41394,562.8938,-0.216552734375,0.0333251953125,0.9852294921875,4.613189697265625,-0.94207763671875,1.42059326171875,1,1.0,1.0,1.0,1.0,10.00
2024-10-11 20:38:57.112,0.497833,0.036662236,0.6881343,0.5750838,0.5338254,0.01006757,0.57284904,0.18905906,0.7465308,0.17464639,0.5621462,0.6165242,0.48226762,-0.13853262,0.1803518,0.41581717,0.22864264,-0.2344611,-0.16318785,-0.09606298,792.96704,797.3993,802.6374,792.96704,410.989,-0.216552734375,0.0333251953125,0.9852294921875,4.613189697265625,-0.94207763671875,1.42059326171875,1,1.0,1.0,1.0,1.0,10.00
2024-10-11 20:38:57.113,0.497833,0.036662236,0.6881343,0.5750838,0.5338254,0.01006757,0.57284904,0.18905906,0.7465308,0.17464639,0.5621462,0.6165242,0.48226762,-0.13853262,0.1803518,0.41581717,0.22864264,-0.2344611,-0.16318785,-0.09606298,807.47253,799.41394,805.05493,792.5641,498.4249,-0.216552734375,0.0333251953125,0.9852294921875,4.613189697265625,-0.94207763671875,1.42059326171875,1,1.0,1.0,1.0,1.0,10.00
2024-10-11 20:38:57.114,0.497833,0.036662236,0.6881343,0.5750838,0.5338254,0.01006757,0.57284904,0.18905906,0.7465308,0.17464639,0.5621462,0.6165242,0.48226762,-0.13853262,0.1803518,0.41581717,0.22864264,-0.2344611,-0.16318785,-0.09606298,801.8315,803.8461,807.47253,790.54944,483.9194,-0.216552734375,0.0333251953125,0.9852294921875,4.613189697265625,-0.94207763671875,1.42059326171875,1,1.0,1.0,1.0,1.0,10.00
2024-10-11 20:38:57.114,0.497833,0.036662236,0.6881343,0.5750838,0.5338254,0.01006757,0.57284904,0.18905906,0.7465308,0.17464639,0.5621462,0.6165242,0.48226762,-0.13853262,0.1803518,0.41581717,0.22864264,-0.2344611,-0.16318785,-0.09606298,797.8022,803.8461,811.0989,794.9817,510.51282,-0.216552734375,0.0333251953125,0.9852294921875,4.613189697265625,-0.94207763671875,1.42059326171875,1,1.0,1.0,1.0,1.0,10.00
2024-10-11 20:38:57.115,0.497833,0.036662236,0.6881343,0.5750838,0.5338254,0.01006757,0.57284904,0.18905906,0.7465308,0.17464639,0.5621462,0.6165242,0.48226762,-0.13853262,0.1803518,0.41581717,0.22864264,-0.2344611,-0.16318785,-0.09606298,801.8315,804.2491,806.6667,799.81683,679.34064,-0.216552734375,0.0333251953125,0.9852294921875,4.613189697265625,-0.94207763671875,1.42059326171875,1,1.0,1.0,1.0,1.0,10.00
2024-10-11 20:38:57.115,0.497833,0.036662236,0.6881343,0.5750838,0.5338254,0.01006757,0.57284904,0.18905906,0.7465308,0.17464639,0.5621462,0.6165242,0.48226762,-0.13853262,0.1803518,0.41581717,0.22864264,-0.2344611,-0.16318785,-0.09606298,805.05493,805.05493,802.6374,797.3993,595.9341,-0.216552734375,0.0333251953125,0.9852294921875,4.613189697265625,-0.94207763671875,1.42059326171875,1,1.0,1.0,1.0,1.0,10.00
2024-10-11 20:38:57.116,0.497833,0.036662236,0.6881343,0.5750838,0.5338254,0.01006757,0.57284904,0.18905906,0.7465308,0.17464639,0.5621462,0.6165242,0.48226762,-0.13853262,0.1803518,0.41581717,0.22864264,-0.2344611,-0.16318785,-0.09606298,807.8755,800.6227,799.41394,786.9231,401.3187,-0.216552734375,0.0333251953125,0.9852294921875,4.613189697265625,-0.94207763671875,1.42059326171875,1,1.0,1.0,1.0,1.0,10.00
2024-10-11 20:38:57.116,0.497833,0.036662236,0.6881343,0.5750838,0.5338254,0.01006757,0.57284904,0.18905906,0.7465308,0.17464639,0.5621462,0.6165242,0.48226762,-0.13853262,0.1803518,0.41581717,0.22864264,-0.2344611,-0.16318785,-0.09606298,799.011,800.2198,798.60803,779.2674,382.78387,-0.216552734375,0.0333251953125,0.9852294921875,4.613189697265625,-0.94207763671875,1.42059326171875,1,1.0,1.0,1.0,1.0,10.00
2024-10-11 20:38:57.117,0.4667489,0.017296007,0.5960637,0.55886996,0.51109684,0.0045348387,0.51773155,0.15636967,0.75891066,0.18807578,0.5621462,0.62924117,0.4789725,-0.13502172,0.17155549,0.38141838,0.20545168,-0.261527,-0.16862416,-0.11581444,786.9231,796.99634,801.8315,792.1612,749.45056,-0.216552734375,0.0333251953125,0.9852294921875,4.613189697265625,-0.94207763671875,1.42059326171875,1,1.0,1.0,1.0,1.0,10.00
2024-10-11 20:38:57.150,0.4667489,0.017296007,0.5960637,0.55886996,0.51109684,0.0045348387,0.51773155,0.15636967,0.75891066,0.18807578,0.5621462,0.62924117,0.4789725,-0.13502172,0.17155549,0.38141838,0.20545168,-0.261527,-0.16862416,-0.11581444,793.7729,796.1905,800.2198,801.4286,783.69965,-0.21917724609375,0.03802490234375,0.98309326171875,6.29547119140625,0.5084228515625,0.052337646484375,1,1.0,1.0,1.0,1.0,10.00
2024-10-11 20:38:57.151,0.4667489,0.017296007,0.5960637,0.55886996,0.51109684,0.0045348387,0.51773155,0.15636967,0.75891066,0.18807578,0.5621462,0.62924117,0.4789725,-0.13502172,0.17155549,0.38141838,0.20545168,-0.261527,-0.16862416,-0.11581444,801.4286,798.20514,798.20514,799.011,512.1245,-0.21917724609375,0.03802490234375,0.98309326171875,6.29547119140625,0.5084228515625,0.052337646484375,1,1.0,1.0,1.0,1.0,10.00
2024-10-11 20:38:57.151,0.4667489,0.017296007,0.5960637,0.55886996,0.51109684,0.0045348387,0.51773155,0.15636967,0.75891066,0.18807578,0.5621462,0.62924117,0.4789725,-0.13502172,0.17155549,0.38141838,0.20545168,-0.261527,-0.16862416,-0.11581444,792.96704,795.38464,795.38464,804.2491,568.5348,-0.21917724609375,0.03802490234375,0.98309326171875,6.29547119140625,0.5084228515625,0.052337646484375,1,1.0,1.0,1.0,1.0,10.00
2024-10-11 20:38:57.152,0.4667489,0.017296007,0.5960637,0.55886996,0.51109684,0.0045348387,0.51773155,0.15636967,0.75891066,0.18807578,0.5621462,0.62924117,0.4789725,-0.13502172,0.17155549,0.38141838,0.20545168,-0.261527,-0.16862416,-0.11581444,784.10254,794.17584,799.81683,805.4579,595.12823,-0.21917724609375,0.03802490234375,0.98309326171875,6.29547119140625,0.5084228515625,0.052337646484375,1,1.0,1.0,1.0,1.0,10.00
2024-10-11 20:38:57.152,0.4667489,0.017296007,0.5960637,0.55886996,0.51109684,0.0045348387,0.51773155,0.15636967,0.75891066,0.18807578,0.5621462,0.62924117,0.4789725,-0.13502172,0.17155549,0.38141838,0.20545168,-0.261527,-0.16862416,-0.11581444,785.7143,795.38464,799.011,799.41394,536.7033,-0.21917724609375,0.03802490234375,0.98309326171875,6.29547119140625,0.5084228515625,0.052337646484375,1,1.0,1.0,1.0,1.0,10.00
2024-10-11 20:38:57.153,0.4667489,0.017296007,0.5960637,0.55886996,0.51109684,0.0045348387,0.51773155,0.15636967,0.75891066,0.18807578,0.5621462,0.62924117,0.4789725,-0.13502172,0.17155549,0.38141838,0.20545168,-0.261527,-0.16862416,-0.11581444,790.14655,794.9817,796.1905,800.2198,593.5165,-0.21917724609375,0.03802490234375,0.98309326171875,6.29547119140625,0.5084228515625,0.052337646484375,1,1.0,1.0,1.0,1.0,10.00
2024-10-11 20:38:57.154,0.4667489,0.017296007,0.5960637,0.55886996,0.51109684,0.0045348387,0.51773155,0.15636967,0.75891066,0.18807578,0.5621462,0.62924117,0.4789725,-0.13502172,0.17155549,0.38141838,0.20545168,-0.261527,-0.16862416,-0.11581444,802.6374,799.41394,800.2198,803.8461,752.674,-0.21917724609375,0.03802490234375,0.98309326171875,6.29547119140625,0.5084228515625,0.052337646484375,1,1.0,1.0,1.0,1.0,10.00
2024-10-11 20:38:57.154,0.4667489,0.017296007,0.5960637,0.55886996,0.51109684,0.0045348387,0.51773155,0.15636967,0.75891066,0.18807578,0.5621462,0.62924117,0.4789725,-0.13502172,0.17155549,0.38141838,0.20545168,-0.261527,-0.16862416,-0.11581444,809.0842,799.011,799.011,802.23444,849.3773,-0.21917724609375,0.03802490234375,0.98309326171875,6.29547119140625,0.5084228515625,0.052337646484375,1,1.0,1.0,1.0,1.0,10.00
2024-10-11 20:38:57.155,0.4667489,0.017296007,0.5960637,0.55886996,0.51109684,0.0045348387,0.51773155,0.15636967,0.75891066,0.18807578,0.5621462,0.62924117,0.4789725,-0.13502172,0.17155549,0.38141838,0.20545168,-0.261527,-0.16862416,-0.11581444,804.2491,794.9817,802.23444,803.0403,700.696,-0.21917724609375,0.03802490234375,0.98309326171875,6.29547119140625,0.5084228515625,0.052337646484375,1,1.0,1.0,1.0,1.0,10.00
2024-10-11 20:38:57.155,0.4667489,0.017296007,0.5960637,0.55886996,0.51109684,0.0045348387,0.51773155,0.15636967,0.75891066,0.18807578,0.5621462,0.62924117,0.4789725,-0.13502172,0.17155549,0.38141838,0.20545168,-0.261527,-0.16862416,-0.11581444,801.8315,796.5934,805.05493,801.4286,534.2857,-0.21917724609375,0.03802490234375,0.98309326171875,6.29547119140625,0.5084228515625,0.052337646484375,1,1.0,1.0,1.0,1.0,10.00
2024-10-11 20:38:57.156,0.4667489,0.017296007,0.5960637,0.55886996,0.51109684,0.0045348387,0.51773155,0.15636967,0.75891066,0.18807578,0.5621462,0.62924117,0.4789725,-0.13502172,0.17155549,0.38141838,0.20545168,-0.261527,-0.16862416,-0.11581444,809.0842,795.78754,806.26373,793.7729,616.08057,-0.21917724609375,0.03802490234375,0.98309326171875,6.29547119140625,0.5084228515625,0.052337646484375,1,1.0,1.0,1.0,1.0,10.00
2024-10-11 20:38:57.156,0.4667489,0.017296007,0.5960637,0.55886996,0.51109684,0.0045348387,0.51773155,0.15636967,0.75891066,0.18807578,0.5621462,0.62924117,0.4789725,-0.13502172,0.17155549,0.38141838,0.20545168,-0.261527,-0.16862416,-0.11581444,806.26373,794.9817,805.05493,790.9524,730.9158,-0.21917724609375,0.03802490234375,0.98309326171875,6.29547119140625,0.5084228515625,0.052337646484375,1,1.0,1.0,1.0,1.0,10.00
2024-10-11 20:38:57.186,0.4667489,0.017296007,0.5960637,0.55886996,0.51109684,0.0045348387,0.51773155,0.15636967,0.75891066,0.18807578,0.5621462,0.62924117,0.4789725,-0.13502172,0.17155549,0.38141838,0.20545168,-0.261527,-0.16862416,-0.11581444,802.6374,794.17584,797.8022,796.5934,639.0476,-0.20257568359375,0.05340576171875,0.98681640625,7.357177734375,0.859832763671875,-0.201873779296875,1,1.0,1.0,1.0,1.0,10.00
2024-10-11 20:38:57.187,0.4667489,0.017296007,0.5960637,0.55886996,0.51109684,0.0045348387,0.51773155,0.15636967,0.75891066,0.18807578,0.5621462,0.62924117,0.4789725,-0.13502172,0.17155549,0.38141838,0.20545168,-0.261527,-0.16862416,-0.11581444,811.0989,796.5934,799.81683,799.81683,524.61536,-0.20257568359375,0.05340576171875,0.98681640625,7.357177734375,0.859832763671875,-0.201873779296875,1,1.0,1.0,1.0,1.0,10.00
2024-10-11 20:38:57.187,0.4667489,0.017296007,0.5960637,0.55886996,0.51109684,0.0045348387,0.51773155,0.15636967,0.75891066,0.18807578,0.5621462,0.62924117,0.4789725,-0.13502172,0.17155549,0.38141838,0.20545168,-0.261527,-0.16862416,-0.11581444,817.9487,796.1905,796.99634,803.0403,737.76556,-0.20257568359375,0.05340576171875,0.98681640625,7.357177734375,0.859832763671875,-0.201873779296875,1,1.0,1.0,1.0,1.0,10.00
2024-10-11 20:38:57.188,0.4667489,0.017296007,0.5960637,0.55886996,0.51109684,0.0045348387,0.51773155,0.15636967,0.75891066,0.18807578,0.5621462,0.62924117,0.4789725,-0.13502172,0.17155549,0.38141838,0.20545168,-0.261527,-0.16862416,-0.11581444,805.05493,791.75824,786.52014,809.4872,1082.674,-0.20257568359375,0.05340576171875,0.98681640625,7.357177734375,0.859832763671875,-0.201873779296875,1,1.0,1.0,1.0,1.0,10.00
2024-10-11 20:38:57.189,0.4667489,0.017296007,0.5960637,0.55886996,0.51109684,0.0045348387,0.51773155,0.15636967,0.75891066,0.18807578,0.5621462,0.62924117,0.4789725,-0.13502172,0.17155549,0.38141838,0.20545168,-0.261527,-0.16862416,-0.11581444,796.5934,795.38464,790.9524,810.696,713.9927,-0.20257568359375,0.05340576171875,0.98681640625,7.357177734375,0.859832763671875,-0.201873779296875,1,1.0,1.0,1.0,1.0,10.00
2024-10-11 20:38:57.189,0.4667489,0.017296007,0.5960637,0.55886996,0.51109684,0.0045348387,0.51773155,0.15636967,0.75891066,0.18807578,0.5621462,0.62924117,0.4789725,-0.13502172,0.17155549,0.38141838,0.20545168,-0.261527,-0.16862416,-0.11581444,805.4579,803.0403,802.6374,811.0989,630.989,-0.20257568359375,0.05340576171875,0.98681640625,7.357177734375,0.859832763671875,-0.201873779296875,1,1.0,1.0,1.0,1.0,10.00
2024-10-11 20:38:57.190,0.4667489,0.017296007,0.5960637,0.55886996,0.51109684,0.0045348387,0.51773155,0.15636967,0.75891066,0.18807578,0.5621462,0.62924117,0.4789725,-0.13502172,0.17155549,0.38141838,0.20545168,-0.261527,-0.16862416,-0.11581444,800.2198,799.011,808.2784,809.89014,941.6484,-0.20257568359375,0.05340576171875,0.98681640625,7.357177734375,0.859832763671875,-0.201873779296875,1,1.0,1.0,1.0,1.0,10.00
2024-10-11 20:38:57.190,0.4667489,0.017296007,0.5960637,0.55886996,0.51109684,0.0045348387,0.51773155,0.15636967,0.75891066,0.18807578,0.5621462,0.62924117,0.4789725,-0.13502172,0.17155549,0.38141838,0.20545168,-0.261527,-0.16862416,-0.11581444,795.78754,796.1905,808.2784,805.4579,775.64105,-0.20257568359375,0.05340576171875,0.98681640625,7.357177734375,0.859832763671875,-0.201873779296875,1,1.0,1.0,1.0,1.0,10.00
2024-10-11 20:38:57.191,0.4667489,0.017296007,0.5960637,0.55886996,0.51109684,0.0045348387,0.51773155,0.15636967,0.75891066,0.18807578,0.5621462,0.62924117,0.4789725,-0.13502172,0.17155549,0.38141838,0.20545168,-0.261527,-0.16862416,-0.11581444,796.5934,795.78754,800.6227,805.4579,563.2967,-0.20257568359375,0.05340576171875,0.98681640625,7.357177734375,0.859832763671875,-0.201873779296875,1,1.0,1.0,1.0,1.0,10.00
2024-10-11 20:38:57.191,0.4667489,0.017296007,0.5960637,0.55886996,0.51109684,0.0045348387,0.51773155,0.15636967,0.75891066,0.18807578,0.5621462,0.62924117,0.4789725,-0.13502172,0.17155549,0.38141838,0.20545168,-0.261527,-0.16862416,-0.11581444,798.60803,795.78754,801.02563,807.0696,636.2271,-0.20257568359375,0.05340576171875,0.98681640625,7.357177734375,0.859832763671875,-0.201873779296875,1,1.0,1.0,1.0,1.0,10.00
2024-10-11 20:38:57.192,0.4667489,0.017296007,0.5960637,0.55886996,0.51109684,0.0045348387,0.51773155,0.15636967,0.75891066,0.18807578,0.5621462,0.62924117,0.4789725,-0.13502172,0.17155549,0.38141838,0.20545168,-0.261527,-0.16862416,-0.11581444,803.44324,793.7729,808.2784,813.1135,1023.44324,-0.20257568359375,0.05340576171875,0.98681640625,7.357177734375,0.859832763671875,-0.201873779296875,1,1.0,1.0,1.0,1.0,10.00
2024-10-11 20:38:57.193,0.4667489,0.017296007,0.5960637,0.55886996,0.51109684,0.0045348387,0.51773155,0.15636967,0.75891066,0.18807578,0.5621462,0.62924117,0.4789725,-0.13502172,0.17155549,0.38141838,0.20545168,-0.261527,-0.16862416,-0.11581444,801.02563,794.57874,808.68134,806.26373,948.0952,-0.20257568359375,0.05340576171875,0.98681640625,7.357177734375,0.859832763671875,-0.201873779296875,1,1.0,1.0,1.0,1.0,10.00
2024-10-11 20:38:57.252,0.4667489,0.017296007,0.5960637,0.55886996,0.51109684,0.0045348387,0.51773155,0.15636967,0.75891066,0.18807578,0.5621462,0.62924117,0.4789725,-0.13502172,0.17155549,0.38141838,0.20545168,-0.261527,-0.16862416,-0.11581444,805.05493,799.41394,801.4286,799.011,641.06226,-0.217041015625,0.0672607421875,0.98858642578125,8.074951171875,3.282318115234375,1.48040771484375,1,1.0,1.0,1.0,1.0,10.00
2024-10-11 20:38:57.253,0.45087636,0.0051121907,0.4446236,0.5558728,0.49029818,-8.796507E-4,0.42674518,0.1360567,0.75891066,0.19382252,0.5370032,0.65656936,0.46752238,-0.12849788,0.15164232,0.35761485,0.18746908,-0.28489015,-0.17015487,-0.123118095,813.91943,801.02563,797.8022,805.8608,755.89746,-0.217041015625,0.0672607421875,0.98858642578125,8.074951171875,3.282318115234375,1.48040771484375,1,1.0,1.0,1.0,1.0,10.00
2024-10-11 20:38:57.258,0.45087636,0.0051121907,0.4446236,0.5558728,0.49029818,-8.796507E-4,0.42674518,0.1360567,0.75891066,0.19382252,0.5370032,0.65656936,0.46752238,-0.12849788,0.15164232,0.35761485,0.18746908,-0.28489015,-0.17015487,-0.123118095,801.8315,797.3993,805.05493,803.8461,850.989,-0.217041015625,0.0672607421875,0.98858642578125,8.074951171875,3.282318115234375,1.48040771484375,1,1.0,1.0,1.0,1.0,10.00
2024-10-11 20:38:57.259,0.45087636,0.0051121907,0.4446236,0.5558728,0.49029818,-8.796507E-4,0.42674518,0.1360567,0.75891066,0.19382252,0.5370032,0.65656936,0.46752238,-0.12849788,0.15164232,0.35761485,0.18746908,-0.28489015,-0.17015487,-0.123118095,800.2198,801.02563,807.8755,804.2491,712.381,-0.217041015625,0.0672607421875,0.98858642578125,8.074951171875,3.282318115234375,1.48040771484375,1,1.0,1.0,1.0,1.0,10.00
2024-10-11 20:38:57.260,0.45087636,0.0051121907,0.4446236,0.5558728,0.49029818,-8.796507E-4,0.42674518,0.1360567,0.75891066,0.19382252,0.5370032,0.65656936,0.46752238,-0.12849788,0.15164232,0.35761485,0.18746908,-0.28489015,-0.17015487,-0.123118095,810.696,808.2784,802.6374,804.65204,686.5934,-0.217041015625,0.0672607421875,0.98858642578125,8.074951171875,3.282318115234375,1.48040771484375,1,1.0,1.0,1.0,1.0,10.00
2024-10-11 20:38:57.260,0.45087636,0.0051121907,0.4446236,0.5558728,0.49029818,-8.796507E-4,0.42674518,0.1360567,0.75891066,0.19382252,0.5370032,0.65656936,0.46752238,-0.12849788,0.15164232,0.35761485,0.18746908,-0.28489015,-0.17015487,-0.123118095,813.5165,804.65204,796.1905,801.02563,940.4396,-0.217041015625,0.0672607421875,0.98858642578125,8.074951171875,3.282318115234375,1.48040771484375,1,1.0,1.0,1.0,1.0,10.00
2024-10-11 20:38:57.261,0.45087636,0.0051121907,0.4446236,0.5558728,0.49029818,-8.796507E-4,0.42674518,0.1360567,0.75891066,0.19382252,0.5370032,0.65656936,0.46752238,-0.12849788,0.15164232,0.35761485,0.18746908,-0.28489015,-0.17015487,-0.123118095,809.4872,796.99634,794.57874,800.2198,1049.6337,-0.217041015625,0.0672607421875,0.98858642578125,8.074951171875,3.282318115234375,1.48040771484375,1,1.0,1.0,1.0,1.0,10.00
2024-10-11 20:38:57.261,0.45087636,0.0051121907,0.4446236,0.5558728,0.49029818,-8.796507E-4,0.42674518,0.1360567,0.75891066,0.19382252,0.5370032,0.65656936,0.46752238,-0.12849788,0.15164232,0.35761485,0.18746908,-0.28489015,-0.17015487,-0.123118095,802.6374,795.38464,798.20514,799.011,793.36993,-0.217041015625,0.0672607421875,0.98858642578125,8.074951171875,3.282318115234375,1.48040771484375,1,1.0,1.0,1.0,1.0,10.00
2024-10-11 20:38:57.262,0.45087636,0.0051121907,0.4446236,0.5558728,0.49029818,-8.796507E-4,0.42674518,0.1360567,0.75891066,0.19382252,0.5370032,0.65656936,0.46752238,-0.12849788,0.15164232,0.35761485,0.18746908,-0.28489015,-0.17015487,-0.123118095,805.4579,799.011,798.60803,799.81683,644.68866,-0.217041015625,0.0672607421875,0.98858642578125,8.074951171875,3.282318115234375,1.48040771484375,1,1.0,1.0,1.0,1.0,10.00
2024-10-11 20:38:57.262,0.45087636,0.0051121907,0.4446236,0.5558728,0.49029818,-8.796507E-4,0.42674518,0.1360567,0.75891066,0.19382252,0.5370032,0.65656936,0.46752238,-0.12849788,0.15164232,0.35761485,0.18746908,-0.28489015,-0.17015487,-0.123118095,804.2491,797.3993,796.5934,796.99634,705.5311,-0.217041015625,0.0672607421875,0.98858642578125,8.074951171875,3.282318115234375,1.48040771484375,1,1.0,1.0,1.0,1.0,10.00
2024-10-11 20:38:57.263,0.45087636,0.0051121907,0.4446236,0.5558728,0.49029818,-8.796507E-4,0.42674518,0.1360567,0.75891066,0.19382252,0.5370032,0.65656936,0.46752238,-0.12849788,0.15164232,0.35761485,0.18746908,-0.28489015,-0.17015487,-0.123118095,805.05493,795.78754,800.6227,794.57874,792.5641,-0.217041015625,0.0672607421875,0.98858642578125,8.074951171875,3.282318115234375,1.48040771484375,1,1.0,1.0,1.0,1.0,10.00
2024-10-11 20:38:57.264,0.45087636,0.0051121907,0.4446236,0.5558728,0.49029818,-8.796507E-4,0.42674518,0.1360567,0.75891066,0.19382252,0.5370032,0.65656936,0.46752238,-0.12849788,0.15164232,0.35761485,0.18746908,-0.28489015,-0.17015487,-0.123118095,800.2198,794.57874,806.6667,794.57874,675.31134,-0.217041015625,0.0672607421875,0.98858642578125,8.074951171875,3.282318115234375,1.48040771484375,1,1.0,1.0,1.0,1.0,10.00
2024-10-11 20:38:57.291,0.45087636,0.0051121907,0.4446236,0.5558728,0.49029818,-8.796507E-4,0.42674518,0.1360567,0.75891066,0.19382252,0.5370032,0.65656936,0.46752238,-0.12849788,0.15164232,0.35761485,0.18746908,-0.28489015,-0.17015487,-0.123118095,806.26373,792.5641,801.4286,790.54944,753.0769,-0.217041015625,0.1025390625,0.9754638671875,7.140350341796875,0.859832763671875,1.495361328125,1,1.0,1.0,1.0,1.0,10.00
2024-10-11 20:38:57.292,0.45087636,0.0051121907,0.4446236,0.5558728,0.49029818,-8.796507E-4,0.42674518,0.1360567,0.75891066,0.19382252,0.5370032,0.65656936,0.46752238,-0.12849788,0.15164232,0.35761485,0.18746908,-0.28489015,-0.17015487,-0.123118095,803.0403,796.5934,794.57874,793.36993,982.3443,-0.217041015625,0.1025390625,0.9754638671875,7.140350341796875,0.859832763671875,1.495361328125,1,1.0,1.0,1.0,1.0,10.00
2024-10-11 20:38:57.292,0.45087636,0.0051121907,0.4446236,0.5558728,0.49029818,-8.796507E-4,0.42674518,0.1360567,0.75891066,0.19382252,0.5370032,0.65656936,0.46752238,-0.12849788,0.15164232,0.35761485,0.18746908,-0.28489015,-0.17015487,-0.123118095,787.72894,795.38464,793.36993,803.0403,922.71063,-0.217041015625,0.1025390625,0.9754638671875,7.140350341796875,0.859832763671875,1.495361328125,1,1.0,1.0,1.0,1.0,10.00
2024-10-11 20:38:57.293,0.45087636,0.0051121907,0.4446236,0.5558728,0.49029818,-8.796507E-4,0.42674518,0.1360567,0.75891066,0.19382252,0.5370032,0.65656936,0.46752238,-0.12849788,0.15164232,0.35761485,0.18746908,-0.28489015,-0.17015487,-0.123118095,780.87915,790.54944,795.78754,805.4579,830.0366,-0.217041015625,0.1025390625,0.9754638671875,7.140350341796875,0.859832763671875,1.495361328125,1,1.0,1.0,1.0,1.0,10.00
2024-10-11 20:38:57.294,0.45087636,0.0051121907,0.4446236,0.5558728,0.49029818,-8.796507E-4,0.42674518,0.1360567,0.75891066,0.19382252,0.5370032,0.65656936,0.46752238,-0.12849788,0.15164232,0.35761485,0.18746908,-0.28489015,-0.17015487,-0.123118095,785.7143,792.96704,796.5934,804.2491,776.8498,-0.217041015625,0.1025390625,0.9754638671875,7.140350341796875,0.859832763671875,1.495361328125,1,1.0,1.0,1.0,1.0,10.00
2024-10-11 20:38:57.294,0.45087636,0.0051121907,0.4446236,0.5558728,0.49029818,-8.796507E-4,0.42674518,0.1360567,0.75891066,0.19382252,0.5370032,0.65656936,0.46752238,-0.12849788,0.15164232,0.35761485,0.18746908,-0.28489015,-0.17015487,-0.123118095,780.87915,793.7729,792.5641,800.6227,940.4396,-0.217041015625,0.1025390625,0.9754638671875,7.140350341796875,0.859832763671875,1.495361328125,1,1.0,1.0,1.0,1.0,10.00
2024-10-11 20:38:57.295,0.45087636,0.0051121907,0.4446236,0.5558728,0.49029818,-8.796507E-4,0.42674518,0.1360567,0.75891066,0.19382252,0.5370032,0.65656936,0.46752238,-0.12849788,0.15164232,0.35761485,0.18746908,-0.28489015,-0.17015487,-0.123118095,779.67035,788.5348,790.9524,802.23444,954.5421,-0.217041015625,0.1025390625,0.9754638671875,7.140350341796875,0.859832763671875,1.495361328125,1,1.0,1.0,1.0,1.0,10.00
2024-10-11 20:38:57.295,0.45087636,0.0051121907,0.4446236,0.5558728,0.49029818,-8.796507E-4,0.42674518,0.1360567,0.75891066,0.19382252,0.5370032,0.65656936,0.46752238,-0.12849788,0.15164232,0.35761485,0.18746908,-0.28489015,-0.17015487,-0.123118095,786.52014,789.7436,795.78754,809.4872,796.5934,-0.217041015625,0.1025390625,0.9754638671875,7.140350341796875,0.859832763671875,1.495361328125,1,1.0,1.0,1.0,1.0,10.00
2024-10-11 20:38:57.296,0.45087636,0.0051121907,0.4446236,0.5558728,0.49029818,-8.796507E-4,0.42674518,0.1360567,0.75891066,0.19382252,0.5370032,0.65656936,0.46752238,-0.12849788,0.15164232,0.35761485,0.18746908,-0.28489015,-0.17015487,-0.123118095,792.96704,799.81683,803.0403,812.3077,657.1795,-0.217041015625,0.1025390625,0.9754638671875,7.140350341796875,0.859832763671875,1.495361328125,1,1.0,1.0,1.0,1.0,10.00
2024-10-11 20:38:57.296,0.45087636,0.0051121907,0.4446236,0.5558728,0.49029818,-8.796507E-4,0.42674518,0.1360567,0.75891066,0.19382252,0.5370032,0.65656936,0.46752238,-0.12849788,0.15164232,0.35761485,0.18746908,-0.28489015,-0.17015487,-0.123118095,793.7729,798.20514,804.2491,812.3077,793.36993,-0.217041015625,0.1025390625,0.9754638671875,7.140350341796875,0.859832763671875,1.495361328125,1,1.0,1.0,1.0,1.0,10.00
