TimeStamp,Delta_TP9,Delta_AF7,Delta_AF8,Delta_TP10,Theta_TP9,Theta_AF7,Theta_AF8,Theta_TP10,Alpha_TP9,Alpha_AF7,Alpha_AF8,Alpha_TP10,Beta_TP9,Beta_AF7,Beta_AF8,Beta_TP10,Gamma_TP9,Gamma_AF7,Gamma_AF8,Gamma_TP10,RAW_TP9,RAW_AF7,RAW_AF8,RAW_TP10,AUX_RIGHT,Accelerometer_X,Accelerometer_Y,Accelerometer_Z,Gyro_X,Gyro_Y,Gyro_Z,HeadBandOn,HSI_TP9,HSI_AF7,HSI_AF8,HSI_TP10,Battery,Elements
2024-10-11 20:39:55.033,0.44153392,-0.39774075,0.46284908,0.5183666,0.32827228,-0.46792006,0.07996636,0.08949077,0.676844,-0.13629694,0.26201016,0.6698248,0.67366207,-0.061264202,0.08208827,0.5136496,0.1620831,-0.35582379,-0.24435312,-0.11732459,793.7729,796.99634,792.5641,791.3553,801.8315,-0.18475341796875,0.0855712890625,0.99151611328125,0.85235595703125,-1.024322509765625,-1.323394775390625,1,1.0,1.0,1.0,1.0,10.00
2024-10-11 20:39:55.034,0.44153392,-0.39774075,0.46284908,0.5183666,0.32827228,-0.46792006,0.07996636,0.08949077,0.676844,-0.13629694,0.26201016,0.6698248,0.67366207,-0.061264202,0.08208827,0.5136496,0.1620831,-0.35582379,-0.24435312,-0.11732459,795.78754,794.17584,793.7729,793.7729,859.45056,-0.18475341796875,0.0855712890625,0.99151611328125,0.85235595703125,-1.024322509765625,-1.323394775390625,1,1.0,1.0,1.0,1.0,10.00
2024-10-11 20:39:55.036,0.44153392,-0.39774075,0.46284908,0.5183666,0.32827228,-0.46792006,0.07996636,0.08949077,0.676844,-0.13629694,0.26201016,0.6698248,0.67366207,-0.061264202,0.08208827,0.5136496,0.1620831,-0.35582379,-0.24435312,-0.11732459,792.5641,800.2198,789.7436,792.5641,843.3333,-0.18475341796875,0.0855712890625,0.99151611328125,0.85235595703125,-1.024322509765625,-1.323394775390625,1,1.0,1.0,1.0,1.0,10.00
2024-10-11 20:39:55.037,0.44153392,-0.39774075,0.46284908,0.5183666,0.32827228,-0.46792006,0.07996636,0.08949077,0.676844,-0.13629694,0.26201016,0.6698248,0.67366207,-0.061264202,0.08208827,0.5136496,0.1620831,-0.35582379,-0.24435312,-0.11732459,799.41394,804.2491,788.93774,789.7436,750.65936,-0.18475341796875,0.0855712890625,0.99151611328125,0.85235595703125,-1.024322509765625,-1.323394775390625,1,1.0,1.0,1.0,1.0,10.00
2024-10-11 20:39:55.038,0.44153392,-0.39774075,0.46284908,0.5183666,0.32827228,-0.46792006,0.07996636,0.08949077,0.676844,-0.13629694,0.26201016,0.6698248,0.67366207,-0.061264202,0.08208827,0.5136496,0.1620831,-0.35582379,-0.24435312,-0.11732459,798.20514,794.9817,792.1612,791.3553,799.011,-0.18475341796875,0.0855712890625,0.99151611328125,0.85235595703125,-1.024322509765625,-1.323394775390625,1,1.0,1.0,1.0,1.0,10.00
2024-10-11 20:39:55.038,0.44153392,-0.39774075,0.46284908,0.5183666,0.32827228,-0.46792006,0.07996636,0.08949077,0.676844,-0.13629694,0.26201016,0.6698248,0.67366207,-0.061264202,0.08208827,0.5136496,0.1620831,-0.35582379,-0.24435312,-0.11732459,794.9817,793.36993,789.34064,794.57874,980.7326,-0.18475341796875,0.0855712890625,0.99151611328125,0.85235595703125,-1.024322509765625,-1.323394775390625,1,1.0,1.0,1.0,1.0,10.00
2024-10-11 20:39:55.039,0.44153392,-0.39774075,0.46284908,0.5183666,0.32827228,-0.46792006,0.07996636,0.08949077,0.676844,-0.13629694,0.26201016,0.6698248,0.67366207,-0.061264202,0.08208827,0.5136496,0.1620831,-0.35582379,-0.24435312,-0.11732459,797.8022,794.17584,792.1612,788.1319,821.5751,-0.18475341796875,0.0855712890625,0.99151611328125,0.85235595703125,-1.024322509765625,-1.323394775390625,1,1.0,1.0,1.0,1.0,10.00
2024-10-11 20:39:55.040,0.44153392,-0.39774075,0.46284908,0.5183666,0.32827228,-0.46792006,0.07996636,0.08949077,0.676844,-0.13629694,0.26201016,0.6698248,0.67366207,-0.061264202,0.08208827,0.5136496,0.1620831,-0.35582379,-0.24435312,-0.11732459,794.9817,791.75824,791.3553,788.5348,574.17584,-0.18475341796875,0.0855712890625,0.99151611328125,0.85235595703125,-1.024322509765625,-1.323394775390625,1,1.0,1.0,1.0,1.0,10.00
2024-10-11 20:39:55.041,0.44153392,-0.39774075,0.46284908,0.5183666,0.32827228,-0.46792006,0.07996636,0.08949077,0.676844,-0.13629694,0.26201016,0.6698248,0.67366207,-0.061264202,0.08208827,0.5136496,0.1620831,-0.35582379,-0.24435312,-0.11732459,796.1905,795.78754,794.17584,799.81683,692.23444,-0.18475341796875,0.0855712890625,0.99151611328125,0.85235595703125,-1.024322509765625,-1.323394775390625,1,1.0,1.0,1.0,1.0,10.00
2024-10-11 20:39:55.041,0.44153392,-0.39774075,0.46284908,0.5183666,0.32827228,-0.46792006,0.07996636,0.08949077,0.676844,-0.13629694,0.26201016,0.6698248,0.67366207,-0.061264202,0.08208827,0.5136496,0.1620831,-0.35582379,-0.24435312,-0.11732459,805.8608,797.8022,794.9817,803.8461,841.7216,-0.18475341796875,0.0855712890625,0.99151611328125,0.85235595703125,-1.024322509765625,-1.323394775390625,1,1.0,1.0,1.0,1.0,10.00
2024-10-11 20:39:55.042,0.44153392,-0.39774075,0.46284908,0.5183666,0.32827228,-0.46792006,0.07996636,0.08949077,0.676844,-0.13629694,0.26201016,0.6698248,0.67366207,-0.061264202,0.08208827,0.5136496,0.1620831,-0.35582379,-0.24435312,-0.11732459,805.05493,798.20514,797.8022,805.05493,705.9341,-0.18475341796875,0.0855712890625,0.99151611328125,0.85235595703125,-1.024322509765625,-1.323394775390625,1,1.0,1.0,1.0,1.0,10.00
2024-10-11 20:39:55.043,0.40902007,-0.38521308,0.46237686,0.50403166,0.33932763,-0.47370768,0.06518601,0.093077764,0.67867374,-0.1338126,0.26201016,0.6509691,0.6690234,-0.06144576,0.08806986,0.5138139,0.17225732,-0.3537864,-0.2149211,-0.12527254,798.60803,803.0403,802.6374,808.2784,627.76556,-0.18475341796875,0.0855712890625,0.99151611328125,0.85235595703125,-1.024322509765625,-1.323394775390625,1,1.0,1.0,1.0,1.0,10.00
2024-10-11 20:39:55.084,0.40902007,-0.38521308,0.46237686,0.50403166,0.33932763,-0.47370768,0.06518601,0.093077764,0.67867374,-0.1338126,0.26201016,0.6509691,0.6690234,-0.06144576,0.08806986,0.5138139,0.17225732,-0.3537864,-0.2149211,-0.12527254,803.8461,795.78754,807.8755,813.1135,762.3443,-0.18145751953125,0.08795166015625,0.98809814453125,1.114044189453125,-1.069183349609375,-1.136474609375,1,1.0,1.0,1.0,1.0,10.00
2024-10-11 20:39:55.085,0.40902007,-0.38521308,0.46237686,0.50403166,0.33932763,-0.47370768,0.06518601,0.093077764,0.67867374,-0.1338126,0.26201016,0.6509691,0.6690234,-0.06144576,0.08806986,0.5138139,0.17225732,-0.3537864,-0.2149211,-0.12527254,805.05493,797.8022,807.47253,818.7546,988.7912,-0.18145751953125,0.08795166015625,0.98809814453125,1.114044189453125,-1.069183349609375,-1.136474609375,1,1.0,1.0,1.0,1.0,10.00
2024-10-11 20:39:55.086,0.40902007,-0.38521308,0.46237686,0.50403166,0.33932763,-0.47370768,0.06518601,0.093077764,0.67867374,-0.1338126,0.26201016,0.6509691,0.6690234,-0.06144576,0.08806986,0.5138139,0.17225732,-0.3537864,-0.2149211,-0.12527254,802.6374,809.0842,805.4579,813.91943,784.10254,-0.18145751953125,0.08795166015625,0.98809814453125,1.114044189453125,-1.069183349609375,-1.136474609375,1,1.0,1.0,1.0,1.0,10.00
2024-10-11 20:39:55.086,0.40902007,-0.38521308,0.46237686,0.50403166,0.33932763,-0.47370768,0.06518601,0.093077764,0.67867374,-0.1338126,0.26201016,0.6509691,0.6690234,-0.06144576,0.08806986,0.5138139,0.17225732,-0.3537864,-0.2149211,-0.12527254,803.44324,799.81683,805.05493,809.0842,597.1429,-0.18145751953125,0.08795166015625,0.98809814453125,1.114044189453125,-1.069183349609375,-1.136474609375,1,1.0,1.0,1.0,1.0,10.00
2024-10-11 20:39:55.087,0.40902007,-0.38521308,0.46237686,0.50403166,0.33932763,-0.47370768,0.06518601,0.093077764,0.67867374,-0.1338126,0.26201016,0.6509691,0.6690234,-0.06144576,0.08806986,0.5138139,0.17225732,-0.3537864,-0.2149211,-0.12527254,805.8608,792.5641,808.2784,807.0696,703.91943,-0.18145751953125,0.08795166015625,0.98809814453125,1.114044189453125,-1.069183349609375,-1.136474609375,1,1.0,1.0,1.0,1.0,10.00
2024-10-11 20:39:55.087,0.40902007,-0.38521308,0.46237686,0.50403166,0.33932763,-0.47370768,0.06518601,0.093077764,0.67867374,-0.1338126,0.26201016,0.6509691,0.6690234,-0.06144576,0.08806986,0.5138139,0.17225732,-0.3537864,-0.2149211,-0.12527254,810.696,798.60803,803.0403,805.4579,767.98535,-0.18145751953125,0.08795166015625,0.98809814453125,1.114044189453125,-1.069183349609375,-1.136474609375,1,1.0,1.0,1.0,1.0,10.00
2024-10-11 20:39:55.088,0.40902007,-0.38521308,0.46237686,0.50403166,0.33932763,-0.47370768,0.06518601,0.093077764,0.67867374,-0.1338126,0.26201016,0.6509691,0.6690234,-0.06144576,0.08806986,0.5138139,0.17225732,-0.3537864,-0.2149211,-0.12527254,807.0696,803.8461,800.2198,804.2491,785.31134,-0.18145751953125,0.08795166015625,0.98809814453125,1.114044189453125,-1.069183349609375,-1.136474609375,1,1.0,1.0,1.0,1.0,10.00
2024-10-11 20:39:55.089,0.40902007,-0.38521308,0.46237686,0.50403166,0.33932763,-0.47370768,0.06518601,0.093077764,0.67867374,-0.1338126,0.26201016,0.6509691,0.6690234,-0.06144576,0.08806986,0.5138139,0.17225732,-0.3537864,-0.2149211,-0.12527254,806.6667,804.2491,810.293,802.23444,770.80585,-0.18145751953125,0.08795166015625,0.98809814453125,1.114044189453125,-1.069183349609375,-1.136474609375,1,1.0,1.0,1.0,1.0,10.00
2024-10-11 20:39:55.089,0.40902007,-0.38521308,0.46237686,0.50403166,0.33932763,-0.47370768,0.06518601,0.093077764,0.67867374,-0.1338126,0.26201016,0.6509691,0.6690234,-0.06144576,0.08806986,0.5138139,0.17225732,-0.3537864,-0.2149211,-0.12527254,809.4872,800.6227,809.89014,803.44324,766.3736,-0.18145751953125,0.08795166015625,0.98809814453125,1.114044189453125,-1.069183349609375,-1.136474609375,1,1.0,1.0,1.0,1.0,10.00
2024-10-11 20:39:55.090,0.40902007,-0.38521308,0.46237686,0.50403166,0.33932763,-0.47370768,0.06518601,0.093077764,0.67867374,-0.1338126,0.26201016,0.6509691,0.6690234,-0.06144576,0.08806986,0.5138139,0.17225732,-0.3537864,-0.2149211,-0.12527254,807.8755,796.1905,804.2491,800.6227,707.1429,-0.18145751953125,0.08795166015625,0.98809814453125,1.114044189453125,-1.069183349609375,-1.136474609375,1,1.0,1.0,1.0,1.0,10.00
2024-10-11 20:39:55.091,0.40902007,-0.38521308,0.46237686,0.50403166,0.33932763,-0.47370768,0.06518601,0.093077764,0.67867374,-0.1338126,0.26201016,0.6509691,0.6690234,-0.06144576,0.08806986,0.5138139,0.17225732,-0.3537864,-0.2149211,-0.12527254,805.05493,801.02563,805.4579,799.81683,550.40295,-0.18145751953125,0.08795166015625,0.98809814453125,1.114044189453125,-1.069183349609375,-1.136474609375,1,1.0,1.0,1.0,1.0,10.00
2024-10-11 20:39:55.091,0.40902007,-0.38521308,0.46237686,0.50403166,0.33932763,-0.47370768,0.06518601,0.093077764,0.67867374,-0.1338126,0.26201016,0.6509691,0.6690234,-0.06144576,0.08806986,0.5138139,0.17225732,-0.3537864,-0.2149211,-0.12527254,807.0696,801.8315,803.8461,802.23444,493.99268,-0.18145751953125,0.08795166015625,0.98809814453125,1.114044189453125,-1.069183349609375,-1.136474609375,1,1.0,1.0,1.0,1.0,10.00
2024-10-11 20:39:55.177,0.40902007,-0.38521308,0.46237686,0.50403166,0.33932763,-0.47370768,0.06518601,0.093077764,0.67867374,-0.1338126,0.26201016,0.6509691,0.6690234,-0.06144576,0.08806986,0.5138139,0.17225732,-0.3537864,-0.2149211,-0.12527254,806.26373,794.17584,804.65204,802.6374,767.1795,-0.1842041015625,0.08697509765625,0.98883056640625,0.95703125,-1.308441162109375,-0.79254150390625,1,1.0,1.0,1.0,1.0,10.00
2024-10-11 20:39:55.178,0.40902007,-0.38521308,0.46237686,0.50403166,0.33932763,-0.47370768,0.06518601,0.093077764,0.67867374,-0.1338126,0.26201016,0.6509691,0.6690234,-0.06144576,0.08806986,0.5138139,0.17225732,-0.3537864,-0.2149211,-0.12527254,800.2198,795.78754,803.0403,801.8315,829.2308,-0.1842041015625,0.08697509765625,0.98883056640625,0.95703125,-1.308441162109375,-0.79254150390625,1,1.0,1.0,1.0,1.0,10.00
2024-10-11 20:39:55.179,0.40902007,-0.38521308,0.46237686,0.50403166,0.33932763,-0.47370768,0.06518601,0.093077764,0.67867374,-0.1338126,0.26201016,0.6509691,0.6690234,-0.06144576,0.08806986,0.5138139,0.17225732,-0.3537864,-0.2149211,-0.12527254,807.47253,803.8461,797.3993,801.4286,695.4579,-0.1842041015625,0.08697509765625,0.98883056640625,0.95703125,-1.308441162109375,-0.79254150390625,1,1.0,1.0,1.0,1.0,10.00
2024-10-11 20:39:55.180,0.40902007,-0.38521308,0.46237686,0.50403166,0.33932763,-0.47370768,0.06518601,0.093077764,0.67867374,-0.1338126,0.26201016,0.6509691,0.6690234,-0.06144576,0.08806986,0.5138139,0.17225732,-0.3537864,-0.2149211,-0.12527254,811.9048,802.6374,803.44324,807.0696,734.1392,-0.1842041015625,0.08697509765625,0.98883056640625,0.95703125,-1.308441162109375,-0.79254150390625,1,1.0,1.0,1.0,1.0,10.00
2024-10-11 20:39:55.180,0.40902007,-0.38521308,0.46237686,0.50403166,0.33932763,-0.47370768,0.06518601,0.093077764,0.67867374,-0.1338126,0.26201016,0.6509691,0.6690234,-0.06144576,0.08806986,0.5138139,0.17225732,-0.3537864,-0.2149211,-0.12527254,803.44324,796.1905,811.50183,808.2784,779.2674,-0.1842041015625,0.08697509765625,0.98883056640625,0.95703125,-1.308441162109375,-0.79254150390625,1,1.0,1.0,1.0,1.0,10.00
2024-10-11 20:39:55.181,0.40902007,-0.38521308,0.46237686,0.50403166,0.33932763,-0.47370768,0.06518601,0.093077764,0.67867374,-0.1338126,0.26201016,0.6509691,0.6690234,-0.06144576,0.08806986,0.5138139,0.17225732,-0.3537864,-0.2149211,-0.12527254,804.2491,797.3993,807.0696,805.05493,803.0403,-0.1842041015625,0.08697509765625,0.98883056640625,0.95703125,-1.308441162109375,-0.79254150390625,1,1.0,1.0,1.0,1.0,10.00
2024-10-11 20:39:55.181,0.40902007,-0.38521308,0.46237686,0.50403166,0.33932763,-0.47370768,0.06518601,0.093077764,0.67867374,-0.1338126,0.26201016,0.6509691,0.6690234,-0.06144576,0.08806986,0.5138139,0.17225732,-0.3537864,-0.2149211,-0.12527254,807.0696,796.5934,800.2198,803.8461,724.0659,-0.1842041015625,0.08697509765625,0.98883056640625,0.95703125,-1.308441162109375,-0.79254150390625,1,1.0,1.0,1.0,1.0,10.00
2024-10-11 20:39:55.182,0.40902007,-0.38521308,0.46237686,0.50403166,0.33932763,-0.47370768,0.06518601,0.093077764,0.67867374,-0.1338126,0.26201016,0.6509691,0.6690234,-0.06144576,0.08806986,0.5138139,0.17225732,-0.3537864,-0.2149211,-0.12527254,803.8461,791.75824,801.4286,806.6667,795.38464,-0.1842041015625,0.08697509765625,0.98883056640625,0.95703125,-1.308441162109375,-0.79254150390625,1,1.0,1.0,1.0,1.0,10.00
2024-10-11 20:39:55.183,0.40902007,-0.38521308,0.46237686,0.50403166,0.33932763,-0.47370768,0.06518601,0.093077764,0.67867374,-0.1338126,0.26201016,0.6509691,0.6690234,-0.06144576,0.08806986,0.5138139,0.17225732,-0.3537864,-0.2149211,-0.12527254,807.47253,795.78754,807.0696,817.1429,867.9121,-0.1842041015625,0.08697509765625,0.98883056640625,0.95703125,-1.308441162109375,-0.79254150390625,1,1.0,1.0,1.0,1.0,10.00
2024-10-11 20:39:55.184,0.40902007,-0.38521308,0.46237686,0.50403166,0.33932763,-0.47370768,0.06518601,0.093077764,0.67867374,-0.1338126,0.26201016,0.6509691,0.6690234,-0.06144576,0.08806986,0.5138139,0.17225732,-0.3537864,-0.2149211,-0.12527254,807.8755,804.2491,809.4872,824.3956,669.2674,-0.1842041015625,0.08697509765625,0.98883056640625,0.95703125,-1.308441162109375,-0.79254150390625,1,1.0,1.0,1.0,1.0,10.00
2024-10-11 20:39:55.185,0.40902007,-0.38521308,0.46237686,0.50403166,0.33932763,-0.47370768,0.06518601,0.093077764,0.67867374,-0.1338126,0.26201016,0.6509691,0.6690234,-0.06144576,0.08806986,0.5138139,0.17225732,-0.3537864,-0.2149211,-0.12527254,808.2784,799.41394,803.0403,821.5751,620.5128,-0.1842041015625,0.08697509765625,0.98883056640625,0.95703125,-1.308441162109375,-0.79254150390625,1,1.0,1.0,1.0,1.0,10.00
2024-10-11 20:39:55.185,0.40902007,-0.38521308,0.46237686,0.50403166,0.33932763,-0.47370768,0.06518601,0.093077764,0.67867374,-0.1338126,0.26201016,0.6509691,0.6690234,-0.06144576,0.08806986,0.5138139,0.17225732,-0.3537864,-0.2149211,-0.12527254,802.6374,793.36993,802.6374,819.9634,763.5531,-0.1842041015625,0.08697509765625,0.98883056640625,0.95703125,-1.308441162109375,-0.79254150390625,1,1.0,1.0,1.0,1.0,10.00
2024-10-11 20:39:55.243,0.40902007,-0.38521308,0.46237686,0.50403166,0.33932763,-0.47370768,0.06518601,0.093077764,0.67867374,-0.1338126,0.26201016,0.6509691,0.6690234,-0.06144576,0.08806986,0.5138139,0.17225732,-0.3537864,-0.2149211,-0.12527254,795.78754,792.1612,807.47253,814.3223,796.99634,-0.18243408203125,0.08734130859375,0.99029541015625,1.03179931640625,-1.502838134765625,-0.171966552734375,1,1.0,1.0,1.0,1.0,10.00
2024-10-11 20:39:55.244,0.36278003,-0.3662779,0.45989835,0.49258885,0.33795264,-0.4695892,0.051847853,0.087778315,0.6627926,-0.16132174,0.26201016,0.62144357,0.6604369,-0.05365283,0.08438238,0.50771195,0.17612696,-0.34908408,-0.19371216,-0.12623939,805.4579,794.17584,810.696,805.8608,627.3626,-0.18243408203125,0.08734130859375,0.99029541015625,1.03179931640625,-1.502838134765625,-0.171966552734375,1,1.0,1.0,1.0,1.0,10.00
2024-10-11 20:39:55.248,0.36278003,-0.3662779,0.45989835,0.49258885,0.33795264,-0.4695892,0.051847853,0.087778315,0.6627926,-0.16132174,0.26201016,0.62144357,0.6604369,-0.05365283,0.08438238,0.50771195,0.17612696,-0.34908408,-0.19371216,-0.12623939,809.4872,798.60803,810.293,805.8608,616.8865,-0.18243408203125,0.08734130859375,0.99029541015625,1.03179931640625,-1.502838134765625,-0.171966552734375,1,1.0,1.0,1.0,1.0,10.00
2024-10-11 20:39:55.248,0.36278003,-0.3662779,0.45989835,0.49258885,0.33795264,-0.4695892,0.051847853,0.087778315,0.6627926,-0.16132174,0.26201016,0.62144357,0.6604369,-0.05365283,0.08438238,0.50771195,0.17612696,-0.34908408,-0.19371216,-0.12623939,807.0696,798.60803,806.26373,807.0696,825.2015,-0.18243408203125,0.08734130859375,0.99029541015625,1.03179931640625,-1.502838134765625,-0.171966552734375,1,1.0,1.0,1.0,1.0,10.00
2024-10-11 20:39:55.249,0.36278003,-0.3662779,0.45989835,0.49258885,0.33795264,-0.4695892,0.051847853,0.087778315,0.6627926,-0.16132174,0.26201016,0.62144357,0.6604369,-0.05365283,0.08438238,0.50771195,0.17612696,-0.34908408,-0.19371216,-0.12623939,811.0989,802.6374,807.0696,802.6374,894.5055,-0.18243408203125,0.08734130859375,0.99029541015625,1.03179931640625,-1.502838134765625,-0.171966552734375,1,1.0,1.0,1.0,1.0,10.00
2024-10-11 20:39:55.249,0.36278003,-0.3662779,0.45989835,0.49258885,0.33795264,-0.4695892,0.051847853,0.087778315,0.6627926,-0.16132174,0.26201016,0.62144357,0.6604369,-0.05365283,0.08438238,0.50771195,0.17612696,-0.34908408,-0.19371216,-0.12623939,813.91943,809.89014,806.6667,796.1905,773.22345,-0.18243408203125,0.08734130859375,0.99029541015625,1.03179931640625,-1.502838134765625,-0.171966552734375,1,1.0,1.0,1.0,1.0,10.00
2024-10-11 20:39:55.250,0.36278003,-0.3662779,0.45989835,0.49258885,0.33795264,-0.4695892,0.051847853,0.087778315,0.6627926,-0.16132174,0.26201016,0.62144357,0.6604369,-0.05365283,0.08438238,0.50771195,0.17612696,-0.34908408,-0.19371216,-0.12623939,804.2491,806.6667,799.81683,794.57874,823.5897,-0.18243408203125,0.08734130859375,0.99029541015625,1.03179931640625,-1.502838134765625,-0.171966552734375,1,1.0,1.0,1.0,1.0,10.00
2024-10-11 20:39:55.250,0.36278003,-0.3662779,0.45989835,0.49258885,0.33795264,-0.4695892,0.051847853,0.087778315,0.6627926,-0.16132174,0.26201016,0.62144357,0.6604369,-0.05365283,0.08438238,0.50771195,0.17612696,-0.34908408,-0.19371216,-0.12623939,805.8608,801.4286,790.54944,800.2198,926.337,-0.18243408203125,0.08734130859375,0.99029541015625,1.03179931640625,-1.502838134765625,-0.171966552734375,1,1.0,1.0,1.0,1.0,10.00
2024-10-11 20:39:55.251,0.36278003,-0.3662779,0.45989835,0.49258885,0.33795264,-0.4695892,0.051847853,0.087778315,0.6627926,-0.16132174,0.26201016,0.62144357,0.6604369,-0.05365283,0.08438238,0.50771195,0.17612696,-0.34908408,-0.19371216,-0.12623939,815.12823,804.65204,797.8022,804.2491,826.0073,-0.18243408203125,0.08734130859375,0.99029541015625,1.03179931640625,-1.502838134765625,-0.171966552734375,1,1.0,1.0,1.0,1.0,10.00
2024-10-11 20:39:55.251,0.36278003,-0.3662779,0.45989835,0.49258885,0.33795264,-0.4695892,0.051847853,0.087778315,0.6627926,-0.16132174,0.26201016,0.62144357,0.6604369,-0.05365283,0.08438238,0.50771195,0.17612696,-0.34908408,-0.19371216,-0.12623939,813.1135,806.26373,804.65204,797.3993,573.36993,-0.18243408203125,0.08734130859375,0.99029541015625,1.03179931640625,-1.502838134765625,-0.171966552734375,1,1.0,1.0,1.0,1.0,10.00
2024-10-11 20:39:55.252,0.36278003,-0.3662779,0.45989835,0.49258885,0.33795264,-0.4695892,0.051847853,0.087778315,0.6627926,-0.16132174,0.26201016,0.62144357,0.6604369,-0.05365283,0.08438238,0.50771195,0.17612696,-0.34908408,-0.19371216,-0.12623939,817.1429,803.44324,801.02563,794.57874,635.0183,-0.18243408203125,0.08734130859375,0.99029541015625,1.03179931640625,-1.502838134765625,-0.171966552734375,1,1.0,1.0,1.0,1.0,10.00
2024-10-11 20:39:55.252,0.36278003,-0.3662779,0.45989835,0.49258885,0.33795264,-0.4695892,0.051847853,0.087778315,0.6627926,-0.16132174,0.26201016,0.62144357,0.6604369,-0.05365283,0.08438238,0.50771195,0.17612696,-0.34908408,-0.19371216,-0.12623939,809.0842,800.6227,801.8315,792.5641,988.3883,-0.18243408203125,0.08734130859375,0.99029541015625,1.03179931640625,-1.502838134765625,-0.171966552734375,1,1.0,1.0,1.0,1.0,10.00
2024-10-11 20:39:55.281,0.36278003,-0.3662779,0.45989835,0.49258885,0.33795264,-0.4695892,0.051847853,0.087778315,0.6627926,-0.16132174,0.26201016,0.62144357,0.6604369,-0.05365283,0.08438238,0.50771195,0.17612696,-0.34908408,-0.19371216,-0.12623939,795.38464,801.8315,798.60803,789.7436,875.16486,-0.1849365234375,0.0885009765625,0.98760986328125,1.24114990234375,-1.3458251953125,0.3887939453125,1,1.0,1.0,1.0,1.0,10.00
2024-10-11 20:39:55.282,0.36278003,-0.3662779,0.45989835,0.49258885,0.33795264,-0.4695892,0.051847853,0.087778315,0.6627926,-0.16132174,0.26201016,0.62144357,0.6604369,-0.05365283,0.08438238,0.50771195,0.17612696,-0.34908408,-0.19371216,-0.12623939,800.6227,801.8315,796.99634,788.1319,607.619,-0.1849365234375,0.0885009765625,0.98760986328125,1.24114990234375,-1.3458251953125,0.3887939453125,1,1.0,1.0,1.0,1.0,10.00
2024-10-11 20:39:55.283,0.36278003,-0.3662779,0.45989835,0.49258885,0.33795264,-0.4695892,0.051847853,0.087778315,0.6627926,-0.16132174,0.26201016,0.62144357,0.6604369,-0.05365283,0.08438238,0.50771195,0.17612696,-0.34908408,-0.19371216,-0.12623939,800.6227,797.8022,798.20514,790.9524,602.7839,-0.1849365234375,0.0885009765625,0.98760986328125,1.24114990234375,-1.3458251953125,0.3887939453125,1,1.0,1.0,1.0,1.0,10.00
2024-10-11 20:39:55.283,0.36278003,-0.3662779,0.45989835,0.49258885,0.33795264,-0.4695892,0.051847853,0.087778315,0.6627926,-0.16132174,0.26201016,0.62144357,0.6604369,-0.05365283,0.08438238,0.50771195,0.17612696,-0.34908408,-0.19371216,-0.12623939,794.17584,801.4286,799.81683,793.7729,809.89014,-0.1849365234375,0.0885009765625,0.98760986328125,1.24114990234375,-1.3458251953125,0.3887939453125,1,1.0,1.0,1.0,1.0,10.00
2024-10-11 20:39:55.284,0.36278003,-0.3662779,0.45989835,0.49258885,0.33795264,-0.4695892,0.051847853,0.087778315,0.6627926,-0.16132174,0.26201016,0.62144357,0.6604369,-0.05365283,0.08438238,0.50771195,0.17612696,-0.34908408,-0.19371216,-0.12623939,796.99634,803.0403,799.81683,791.3553,848.97437,-0.1849365234375,0.0885009765625,0.98760986328125,1.24114990234375,-1.3458251953125,0.3887939453125,1,1.0,1.0,1.0,1.0,10.00
2024-10-11 20:39:55.285,0.36278003,-0.3662779,0.45989835,0.49258885,0.33795264,-0.4695892,0.051847853,0.087778315,0.6627926,-0.16132174,0.26201016,0.62144357,0.6604369,-0.05365283,0.08438238,0.50771195,0.17612696,-0.34908408,-0.19371216,-0.12623939,803.0403,798.20514,798.60803,787.326,749.85345,-0.1849365234375,0.0885009765625,0.98760986328125,1.24114990234375,-1.3458251953125,0.3887939453125,1,1.0,1.0,1.0,1.0,10.00
2024-10-11 20:39:55.285,0.36278003,-0.3662779,0.45989835,0.49258885,0.33795264,-0.4695892,0.051847853,0.087778315,0.6627926,-0.16132174,0.26201016,0.62144357,0.6604369,-0.05365283,0.08438238,0.50771195,0.17612696,-0.34908408,-0.19371216,-0.12623939,801.02563,796.99634,803.0403,785.7143,897.72894,-0.1849365234375,0.0885009765625,0.98760986328125,1.24114990234375,-1.3458251953125,0.3887939453125,1,1.0,1.0,1.0,1.0,10.00
2024-10-11 20:39:55.286,0.36278003,-0.3662779,0.45989835,0.49258885,0.33795264,-0.4695892,0.051847853,0.087778315,0.6627926,-0.16132174,0.26201016,0.62144357,0.6604369,-0.05365283,0.08438238,0.50771195,0.17612696,-0.34908408,-0.19371216,-0.12623939,790.14655,796.5934,802.23444,785.31134,907.3993,-0.1849365234375,0.0885009765625,0.98760986328125,1.24114990234375,-1.3458251953125,0.3887939453125,1,1.0,1.0,1.0,1.0,10.00
2024-10-11 20:39:55.286,0.36278003,-0.3662779,0.45989835,0.49258885,0.33795264,-0.4695892,0.051847853,0.087778315,0.6627926,-0.16132174,0.26201016,0.62144357,0.6604369,-0.05365283,0.08438238,0.50771195,0.17612696,-0.34908408,-0.19371216,-0.12623939,790.54944,801.02563,799.011,792.1612,723.2601,-0.1849365234375,0.0885009765625,0.98760986328125,1.24114990234375,-1.3458251953125,0.3887939453125,1,1.0,1.0,1.0,1.0,10.00
2024-10-11 20:39:55.287,0.36278003,-0.3662779,0.45989835,0.49258885,0.33795264,-0.4695892,0.051847853,0.087778315,0.6627926,-0.16132174,0.26201016,0.62144357,0.6604369,-0.05365283,0.08438238,0.50771195,0.17612696,-0.34908408,-0.19371216,-0.12623939,798.20514,806.26373,797.3993,794.17584,635.82416,-0.1849365234375,0.0885009765625,0.98760986328125,1.24114990234375,-1.3458251953125,0.3887939453125,1,1.0,1.0,1.0,1.0,10.00
2024-10-11 20:39:55.288,0.36278003,-0.3662779,0.45989835,0.49258885,0.33795264,-0.4695892,0.051847853,0.087778315,0.6627926,-0.16132174,0.26201016,0.62144357,0.6604369,-0.05365283,0.08438238,0.50771195,0.17612696,-0.34908408,-0.19371216,-0.12623939,799.41394,796.99634,798.60803,803.0403,732.52747,-0.1849365234375,0.0885009765625,0.98760986328125,1.24114990234375,-1.3458251953125,0.3887939453125,1,1.0,1.0,1.0,1.0,10.00
2024-10-11 20:39:55.288,0.36278003,-0.3662779,0.45989835,0.49258885,0.33795264,-0.4695892,0.051847853,0.087778315,0.6627926,-0.16132174,0.26201016,0.62144357,0.6604369,-0.05365283,0.08438238,0.50771195,0.17612696,-0.34908408,-0.19371216,-0.12623939,799.41394,793.36993,806.26373,814.3223,858.6447,-0.1849365234375,0.0885009765625,0.98760986328125,1.24114990234375,-1.3458251953125,0.3887939453125,1,1.0,1.0,1.0,1.0,10.00
2024-10-11 20:39:55.348,0.36278003,-0.3662779,0.45989835,0.49258885,0.33795264,-0.4695892,0.051847853,0.087778315,0.6627926,-0.16132174,0.26201016,0.62144357,0.6604369,-0.05365283,0.08438238,0.50771195,0.17612696,-0.34908408,-0.19371216,-0.12623939,788.1319,804.2491,805.05493,798.20514,670.87915,-0.17681884765625,0.09735107421875,0.99371337890625,1.772003173828125,-1.57012939453125,0.515899658203125,1,1.0,1.0,1.0,1.0,10.00
2024-10-11 20:39:55.349,0.36278003,-0.3662779,0.45989835,0.49258885,0.33795264,-0.4695892,0.051847853,0.087778315,0.6627926,-0.16132174,0.26201016,0.62144357,0.6604369,-0.05365283,0.08438238,0.50771195,0.17612696,-0.34908408,-0.19371216,-0.12623939,792.1612,807.8755,800.6227,787.326,639.0476,-0.17681884765625,0.09735107421875,0.99371337890625,1.772003173828125,-1.57012939453125,0.515899658203125,1,1.0,1.0,1.0,1.0,10.00
2024-10-11 20:39:55.349,0.36278003,-0.3662779,0.45989835,0.49258885,0.33795264,-0.4695892,0.051847853,0.087778315,0.6627926,-0.16132174,0.26201016,0.62144357,0.6604369,-0.05365283,0.08438238,0.50771195,0.17612696,-0.34908408,-0.19371216,-0.12623939,790.54944,796.99634,799.011,797.8022,938.022,-0.17681884765625,0.09735107421875,0.99371337890625,1.772003173828125,-1.57012939453125,0.515899658203125,1,1.0,1.0,1.0,1.0,10.00
2024-10-11 20:39:55.350,0.30531603,-0.34510556,0.46055594,0.47975653,0.33532003,-0.4445086,0.04239862,0.086254954,0.6686729,-0.16870151,0.26201016,0.6262009,0.6500318,-0.046260305,0.07209039,0.4972301,0.17438062,-0.34786028,-0.18397096,-0.114761144,788.1319,790.54944,798.20514,807.8755,1011.75824,-0.17681884765625,0.09735107421875,0.99371337890625,1.772003173828125,-1.57012939453125,0.515899658203125,1,1.0,1.0,1.0,1.0,10.00
2024-10-11 20:39:55.355,0.30531603,-0.34510556,0.46055594,0.47975653,0.33532003,-0.4445086,0.04239862,0.086254954,0.6686729,-0.16870151,0.26201016,0.6262009,0.6500318,-0.046260305,0.07209039,0.4972301,0.17438062,-0.34786028,-0.18397096,-0.114761144,785.7143,805.05493,796.5934,794.17584,835.2747,-0.17681884765625,0.09735107421875,0.99371337890625,1.772003173828125,-1.57012939453125,0.515899658203125,1,1.0,1.0,1.0,1.0,10.00
2024-10-11 20:39:55.356,0.30531603,-0.34510556,0.46055594,0.47975653,0.33532003,-0.4445086,0.04239862,0.086254954,0.6686729,-0.16870151,0.26201016,0.6262009,0.6500318,-0.046260305,0.07209039,0.4972301,0.17438062,-0.34786028,-0.18397096,-0.114761144,778.46155,803.44324,792.1612,778.86444,909.81683,-0.17681884765625,0.09735107421875,0.99371337890625,1.772003173828125,-1.57012939453125,0.515899658203125,1,1.0,1.0,1.0,1.0,10.00
2024-10-11 20:39:55.356,0.30531603,-0.34510556,0.46055594,0.47975653,0.33532003,-0.4445086,0.04239862,0.086254954,0.6686729,-0.16870151,0.26201016,0.6262009,0.6500318,-0.046260305,0.07209039,0.4972301,0.17438062,-0.34786028,-0.18397096,-0.114761144,773.22345,795.38464,790.14655,776.8498,1104.0293,-0.17681884765625,0.09735107421875,0.99371337890625,1.772003173828125,-1.57012939453125,0.515899658203125,1,1.0,1.0,1.0,1.0,10.00
2024-10-11 20:39:55.357,0.30531603,-0.34510556,0.46055594,0.47975653,0.33532003,-0.4445086,0.04239862,0.086254954,0.6686729,-0.16870151,0.26201016,0.6262009,0.6500318,-0.046260305,0.07209039,0.4972301,0.17438062,-0.34786028,-0.18397096,-0.114761144,766.77655,797.8022,789.34064,776.04395,991.2088,-0.17681884765625,0.09735107421875,0.99371337890625,1.772003173828125,-1.57012939453125,0.515899658203125,1,1.0,1.0,1.0,1.0,10.00
2024-10-11 20:39:55.358,0.30531603,-0.34510556,0.46055594,0.47975653,0.33532003,-0.4445086,0.04239862,0.086254954,0.6686729,-0.16870151,0.26201016,0.6262009,0.6500318,-0.046260305,0.07209039,0.4972301,0.17438062,-0.34786028,-0.18397096,-0.114761144,777.6557,799.81683,782.49084,779.67035,711.1722,-0.17681884765625,0.09735107421875,0.99371337890625,1.772003173828125,-1.57012939453125,0.515899658203125,1,1.0,1.0,1.0,1.0,10.00
2024-10-11 20:39:55.358,0.30531603,-0.34510556,0.46055594,0.47975653,0.33532003,-0.4445086,0.04239862,0.086254954,0.6686729,-0.16870151,0.26201016,0.6262009,0.6500318,-0.046260305,0.07209039,0.4972301,0.17438062,-0.34786028,-0.18397096,-0.114761144,787.326,796.1905,783.69965,784.10254,657.98535,-0.17681884765625,0.09735107421875,0.99371337890625,1.772003173828125,-1.57012939453125,0.515899658203125,1,1.0,1.0,1.0,1.0,10.00
2024-10-11 20:39:55.359,0.30531603,-0.34510556,0.46055594,0.47975653,0.33532003,-0.4445086,0.04239862,0.086254954,0.6686729,-0.16870151,0.26201016,0.6262009,0.6500318,-0.046260305,0.07209039,0.4972301,0.17438062,-0.34786028,-0.18397096,-0.114761144,782.49084,795.78754,794.57874,786.52014,828.8278,-0.17681884765625,0.09735107421875,0.99371337890625,1.772003173828125,-1.57012939453125,0.515899658203125,1,1.0,1.0,1.0,1.0,10.00
2024-10-11 20:39:55.359,0.30531603,-0.34510556,0.46055594,0.47975653,0.33532003,-0.4445086,0.04239862,0.086254954,0.6686729,-0.16870151,0.26201016,0.6262009,0.6500318,-0.046260305,0.07209039,0.4972301,0.17438062,-0.34786028,-0.18397096,-0.114761144,786.9231,805.05493,801.4286,791.3553,800.6227,-0.17681884765625,0.09735107421875,0.99371337890625,1.772003173828125,-1.57012939453125,0.515899658203125,1,1.0,1.0,1.0,1.0,10.00
2024-10-11 20:39:55.449,0.30531603,-0.34510556,0.46055594,0.47975653,0.33532003,-0.4445086,0.04239862,0.086254954,0.6686729,-0.16870151,0.26201016,0.6262009,0.6500318,-0.046260305,0.07209039,0.4972301,0.17438062,-0.34786028,-0.18397096,-0.114761144,793.36993,801.8315,801.8315,797.8022,647.9121,-0.17681884765625,0.09735107421875,0.99371337890625,1.772003173828125,-1.57012939453125,0.515899658203125,1,1.0,1.0,1.0,1.0,10.00
2024-10-11 20:39:55.450,0.30531603,-0.34510556,0.46055594,0.47975653,0.33532003,-0.4445086,0.04239862,0.086254954,0.6686729,-0.16870151,0.26201016,0.6262009,0.6500318,-0.046260305,0.07209039,0.4972301,0.17438062,-0.34786028,-0.18397096,-0.114761144,798.60803,795.78754,800.6227,799.81683,727.6923,-0.17681884765625,0.09735107421875,0.99371337890625,1.772003173828125,-1.57012939453125,0.515899658203125,1,1.0,1.0,1.0,1.0,10.00
2024-10-11 20:39:55.451,0.30531603,-0.34510556,0.46055594,0.47975653,0.33532003,-0.4445086,0.04239862,0.086254954,0.6686729,-0.16870151,0.26201016,0.6262009,0.6500318,-0.046260305,0.07209039,0.4972301,0.17438062,-0.34786028,-0.18397096,-0.114761144,801.8315,802.6374,794.57874,801.02563,830.0366,-0.17681884765625,0.09735107421875,0.99371337890625,1.772003173828125,-1.57012939453125,0.515899658203125,1,1.0,1.0,1.0,1.0,10.00
2024-10-11 20:39:55.451,0.30531603,-0.34510556,0.46055594,0.47975653,0.33532003,-0.4445086,0.04239862,0.086254954,0.6686729,-0.16870151,0.26201016,0.6262009,0.6500318,-0.046260305,0.07209039,0.4972301,0.17438062,-0.34786028,-0.18397096,-0.114761144,800.6227,802.23444,790.54944,798.20514,772.8205,-0.17681884765625,0.09735107421875,0.99371337890625,1.772003173828125,-1.57012939453125,0.515899658203125,1,1.0,1.0,1.0,1.0,10.00
2024-10-11 20:39:55.452,0.30531603,-0.34510556,0.46055594,0.47975653,0.33532003,-0.4445086,0.04239862,0.086254954,0.6686729,-0.16870151,0.26201016,0.6262009,0.6500318,-0.046260305,0.07209039,0.4972301,0.17438062,-0.34786028,-0.18397096,-0.114761144,809.0842,794.9817,792.5641,800.2198,769.19415,-0.17681884765625,0.09735107421875,0.99371337890625,1.772003173828125,-1.57012939453125,0.515899658203125,1,1.0,1.0,1.0,1.0,10.00
2024-10-11 20:39:55.452,0.30531603,-0.34510556,0.46055594,0.47975653,0.33532003,-0.4445086,0.04239862,0.086254954,0.6686729,-0.16870151,0.26201016,0.6262009,0.6500318,-0.046260305,0.07209039,0.4972301,0.17438062,-0.34786028,-0.18397096,-0.114761144,808.68134,797.8022,789.7436,806.26373,955.34796,-0.17681884765625,0.09735107421875,0.99371337890625,1.772003173828125,-1.57012939453125,0.515899658203125,1,1.0,1.0,1.0,1.0,10.00
2024-10-11 20:39:55.453,0.30531603,-0.34510556,0.46055594,0.47975653,0.33532003,-0.4445086,0.04239862,0.086254954,0.6686729,-0.16870151,0.26201016,0.6262009,0.6500318,-0.046260305,0.07209039,0.4972301,0.17438062,-0.34786028,-0.18397096,-0.114761144,798.60803,803.0403,794.17584,809.89014,1073.4066,-0.17681884765625,0.09735107421875,0.99371337890625,1.772003173828125,-1.57012939453125,0.515899658203125,1,1.0,1.0,1.0,1.0,10.00
2024-10-11 20:39:55.453,0.30531603,-0.34510556,0.46055594,0.47975653,0.33532003,-0.4445086,0.04239862,0.086254954,0.6686729,-0.16870151,0.26201016,0.6262009,0.6500318,-0.046260305,0.07209039,0.4972301,0.17438062,-0.34786028,-0.18397096,-0.114761144,790.14655,806.26373,805.05493,808.68134,895.7143,-0.17681884765625,0.09735107421875,0.99371337890625,1.772003173828125,-1.57012939453125,0.515899658203125,1,1.0,1.0,1.0,1.0,10.00
2024-10-11 20:39:55.454,0.30531603,-0.34510556,0.46055594,0.47975653,0.33532003,-0.4445086,0.04239862,0.086254954,0.6686729,-0.16870151,0.26201016,0.6262009,0.6500318,-0.046260305,0.07209039,0.4972301,0.17438062,-0.34786028,-0.18397096,-0.114761144,790.14655,805.4579,800.2198,803.8461,676.52014,-0.17681884765625,0.09735107421875,0.99371337890625,1.772003173828125,-1.57012939453125,0.515899658203125,1,1.0,1.0,1.0,1.0,10.00
2024-10-11 20:39:55.455,0.30531603,-0.34510556,0.46055594,0.47975653,0.33532003,-0.4445086,0.04239862,0.086254954,0.6686729,-0.16870151,0.26201016,0.6262009,0.6500318,-0.046260305,0.07209039,0.4972301,0.17438062,-0.34786028,-0.18397096,-0.114761144,802.23444,799.41394,796.5934,807.8755,743.00366,-0.17681884765625,0.09735107421875,0.99371337890625,1.772003173828125,-1.57012939453125,0.515899658203125,1,1.0,1.0,1.0,1.0,10.00
2024-10-11 20:39:55.455,0.30531603,-0.34510556,0.46055594,0.47975653,0.33532003,-0.4445086,0.04239862,0.086254954,0.6686729,-0.16870151,0.26201016,0.6262009,0.6500318,-0.046260305,0.07209039,0.4972301,0.17438062,-0.34786028,-0.18397096,-0.114761144,804.2491,800.6227,795.78754,810.293,906.99634,-0.17681884765625,0.09735107421875,0.99371337890625,1.772003173828125,-1.57012939453125,0.515899658203125,1,1.0,1.0,1.0,1.0,10.00
2024-10-11 20:39:55.456,0.30531603,-0.34510556,0.46055594,0.47975653,0.33532003,-0.4445086,0.04239862,0.086254954,0.6686729,-0.16870151,0.26201016,0.6262009,0.6500318,-0.046260305,0.07209039,0.4972301,0.17438062,-0.34786028,-0.18397096,-0.114761144,799.011,800.2198,792.96704,801.02563,765.16486,-0.17681884765625,0.09735107421875,0.99371337890625,1.772003173828125,-1.57012939453125,0.515899658203125,1,1.0,1.0,1.0,1.0,10.00
2024-10-11 20:39:55.457,0.30531603,-0.34510556,0.46055594,0.47975653,0.33532003,-0.4445086,0.04239862,0.086254954,0.6686729,-0.16870151,0.26201016,0.6262009,0.6500318,-0.046260305,0.07209039,0.4972301,0.17438062,-0.34786028,-0.18397096,-0.114761144,802.23444,798.60803,807.47253,803.44324,534.2857,-0.16546630859375,0.09857177734375,0.9974365234375,0.83740234375,-1.55517578125,0.49346923828125,1,1.0,1.0,1.0,1.0,10.00
2024-10-11 20:39:55.457,0.30531603,-0.34510556,0.46055594,0.47975653,0.33532003,-0.4445086,0.04239862,0.086254954,0.6686729,-0.16870151,0.26201016,0.6262009,0.6500318,-0.046260305,0.07209039,0.4972301,0.17438062,-0.34786028,-0.18397096,-0.114761144,799.41394,794.57874,805.8608,799.41394,726.8865,-0.16546630859375,0.09857177734375,0.9974365234375,0.83740234375,-1.55517578125,0.49346923828125,1,1.0,1.0,1.0,1.0,10.00
2024-10-11 20:39:55.458,0.30531603,-0.34510556,0.46055594,0.47975653,0.33532003,-0.4445086,0.04239862,0.086254954,0.6686729,-0.16870151,0.26201016,0.6262009,0.6500318,-0.046260305,0.07209039,0.4972301,0.17438062,-0.34786028,-0.18397096,-0.114761144,800.6227,792.96704,794.17584,795.38464,890.4762,-0.16546630859375,0.09857177734375,0.9974365234375,0.83740234375,-1.55517578125,0.49346923828125,1,1.0,1.0,1.0,1.0,10.00
2024-10-11 20:39:55.458,0.30531603,-0.34510556,0.46055594,0.47975653,0.33532003,-0.4445086,0.04239862,0.086254954,0.6686729,-0.16870151,0.26201016,0.6262009,0.6500318,-0.046260305,0.07209039,0.4972301,0.17438062,-0.34786028,-0.18397096,-0.114761144,805.8608,797.3993,800.2198,799.41394,720.0366,-0.16546630859375,0.09857177734375,0.9974365234375,0.83740234375,-1.55517578125,0.49346923828125,1,1.0,1.0,1.0,1.0,10.00
2024-10-11 20:39:55.459,0.30531603,-0.34510556,0.46055594,0.47975653,0.33532003,-0.4445086,0.04239862,0.086254954,0.6686729,-0.16870151,0.26201016,0.6262009,0.6500318,-0.046260305,0.07209039,0.4972301,0.17438062,-0.34786028,-0.18397096,-0.114761144,811.0989,802.23444,806.6667,798.60803,620.10986,-0.16546630859375,0.09857177734375,0.9974365234375,0.83740234375,-1.55517578125,0.49346923828125,1,1.0,1.0,1.0,1.0,10.00
2024-10-11 20:39:55.460,0.25883105,-0.324112,0.46202663,0.46636185,0.34110823,-0.40356532,0.04324722,0.11217434,0.68174666,-0.14996628,0.26201016,0.63168865,0.6394287,-0.046662677,0.058627155,0.4858757,0.16732033,-0.35211638,-0.18397515,-0.09540845,808.2784,801.4286,801.8315,803.44324,923.5165,-0.16546630859375,0.09857177734375,0.9974365234375,0.83740234375,-1.55517578125,0.49346923828125,1,1.0,1.0,1.0,1.0,10.00
2024-10-11 20:39:55.465,0.25883105,-0.324112,0.46202663,0.46636185,0.34110823,-0.40356532,0.04324722,0.11217434,0.68174666,-0.14996628,0.26201016,0.63168865,0.6394287,-0.046662677,0.058627155,0.4858757,0.16732033,-0.35211638,-0.18397515,-0.09540845,797.3993,796.99634,792.96704,801.8315,1128.2051,-0.16546630859375,0.09857177734375,0.9974365234375,0.83740234375,-1.55517578125,0.49346923828125,1,1.0,1.0,1.0,1.0,10.00
2024-10-11 20:39:55.465,0.25883105,-0.324112,0.46202663,0.46636185,0.34110823,-0.40356532,0.04324722,0.11217434,0.68174666,-0.14996628,0.26201016,0.63168865,0.6394287,-0.046662677,0.058627155,0.4858757,0.16732033,-0.35211638,-0.18397515,-0.09540845,793.7729,800.2198,796.5934,797.3993,855.0183,-0.16546630859375,0.09857177734375,0.9974365234375,0.83740234375,-1.55517578125,0.49346923828125,1,1.0,1.0,1.0,1.0,10.00
2024-10-11 20:39:55.466,0.25883105,-0.324112,0.46202663,0.46636185,0.34110823,-0.40356532,0.04324722,0.11217434,0.68174666,-0.14996628,0.26201016,0.63168865,0.6394287,-0.046662677,0.058627155,0.4858757,0.16732033,-0.35211638,-0.18397515,-0.09540845,797.8022,793.7729,799.81683,799.011,679.34064,-0.16546630859375,0.09857177734375,0.9974365234375,0.83740234375,-1.55517578125,0.49346923828125,1,1.0,1.0,1.0,1.0,10.00
2024-10-11 20:39:55.466,0.25883105,-0.324112,0.46202663,0.46636185,0.34110823,-0.40356532,0.04324722,0.11217434,0.68174666,-0.14996628,0.26201016,0.63168865,0.6394287,-0.046662677,0.058627155,0.4858757,0.16732033,-0.35211638,-0.18397515,-0.09540845,799.81683,784.90845,794.17584,801.8315,796.99634,-0.16546630859375,0.09857177734375,0.9974365234375,0.83740234375,-1.55517578125,0.49346923828125,1,1.0,1.0,1.0,1.0,10.00
2024-10-11 20:39:55.467,0.25883105,-0.324112,0.46202663,0.46636185,0.34110823,-0.40356532,0.04324722,0.11217434,0.68174666,-0.14996628,0.26201016,0.63168865,0.6394287,-0.046662677,0.058627155,0.4858757,0.16732033,-0.35211638,-0.18397515,-0.09540845,790.9524,795.38464,798.20514,799.41394,860.2564,-0.16546630859375,0.09857177734375,0.9974365234375,0.83740234375,-1.55517578125,0.49346923828125,1,1.0,1.0,1.0,1.0,10.00
2024-10-11 20:39:55.468,0.25883105,-0.324112,0.46202663,0.46636185,0.34110823,-0.40356532,0.04324722,0.11217434,0.68174666,-0.14996628,0.26201016,0.63168865,0.6394287,-0.046662677,0.058627155,0.4858757,0.16732033,-0.35211638,-0.18397515,-0.09540845,789.7436,802.23444,798.20514,802.23444,710.7692,-0.16546630859375,0.09857177734375,0.9974365234375,0.83740234375,-1.55517578125,0.49346923828125,1,1.0,1.0,1.0,1.0,10.00
2024-10-11 20:39:55.469,0.25883105,-0.324112,0.46202663,0.46636185,0.34110823,-0.40356532,0.04324722,0.11217434,0.68174666,-0.14996628,0.26201016,0.63168865,0.6394287,-0.046662677,0.058627155,0.4858757,0.16732033,-0.35211638,-0.18397515,-0.09540845,789.7436,801.4286,796.1905,794.9817,772.4176,-0.15765380859375,0.1009521484375,0.99945068359375,-0.82244873046875,-0.55328369140625,0.34393310546875,1,1.0,1.0,1.0,1.0,10.00
2024-10-11 20:39:55.469,0.25883105,-0.324112,0.46202663,0.46636185,0.34110823,-0.40356532,0.04324722,0.11217434,0.68174666,-0.14996628,0.26201016,0.63168865,0.6394287,-0.046662677,0.058627155,0.4858757,0.16732033,-0.35211638,-0.18397515,-0.09540845,791.3553,801.8315,800.6227,789.7436,900.54944,-0.15765380859375,0.1009521484375,0.99945068359375,-0.82244873046875,-0.55328369140625,0.34393310546875,1,1.0,1.0,1.0,1.0,10.00
2024-10-11 20:39:55.470,0.25883105,-0.324112,0.46202663,0.46636185,0.34110823,-0.40356532,0.04324722,0.11217434,0.68174666,-0.14996628,0.26201016,0.63168865,0.6394287,-0.046662677,0.058627155,0.4858757,0.16732033,-0.35211638,-0.18397515,-0.09540845,794.17584,797.8022,795.78754,788.93774,916.26373,-0.15765380859375,0.1009521484375,0.99945068359375,-0.82244873046875,-0.55328369140625,0.34393310546875,1,1.0,1.0,1.0,1.0,10.00
2024-10-11 20:39:55.470,0.25883105,-0.324112,0.46202663,0.46636185,0.34110823,-0.40356532,0.04324722,0.11217434,0.68174666,-0.14996628,0.26201016,0.63168865,0.6394287,-0.046662677,0.058627155,0.4858757,0.16732033,-0.35211638,-0.18397515,-0.09540845,802.23444,793.36993,791.3553,787.72894,831.6484,-0.15765380859375,0.1009521484375,0.99945068359375,-0.82244873046875,-0.55328369140625,0.34393310546875,1,1.0,1.0,1.0,1.0,10.00
2024-10-11 20:39:55.471,0.25883105,-0.324112,0.46202663,0.46636185,0.34110823,-0.40356532,0.04324722,0.11217434,0.68174666,-0.14996628,0.26201016,0.63168865,0.6394287,-0.046662677,0.058627155,0.4858757,0.16732033,-0.35211638,-0.18397515,-0.09540845,809.0842,795.38464,793.7729,795.78754,815.5311,-0.15765380859375,0.1009521484375,0.99945068359375,-0.82244873046875,-0.55328369140625,0.34393310546875,1,1.0,1.0,1.0,1.0,10.00
2024-10-11 20:39:55.471,0.25883105,-0.324112,0.46202663,0.46636185,0.34110823,-0.40356532,0.04324722,0.11217434,0.68174666,-0.14996628,0.26201016,0.63168865,0.6394287,-0.046662677,0.058627155,0.4858757,0.16732033,-0.35211638,-0.18397515,-0.09540845,807.47253,797.3993,797.3993,795.78754,1085.8975,-0.15765380859375,0.1009521484375,0.99945068359375,-0.82244873046875,-0.55328369140625,0.34393310546875,1,1.0,1.0,1.0,1.0,10.00
2024-10-11 20:39:55.472,0.25883105,-0.324112,0.46202663,0.46636185,0.34110823,-0.40356532,0.04324722,0.11217434,0.68174666,-0.14996628,0.26201016,0.63168865,0.6394287,-0.046662677,0.058627155,0.4858757,0.16732033,-0.35211638,-0.18397515,-0.09540845,813.5165,794.9817,803.44324,815.12823,1138.6813,-0.15765380859375,0.1009521484375,0.99945068359375,-0.82244873046875,-0.55328369140625,0.34393310546875,1,1.0,1.0,1.0,1.0,10.00
2024-10-11 20:39:55.473,0.25883105,-0.324112,0.46202663,0.46636185,0.34110823,-0.40356532,0.04324722,0.11217434,0.68174666,-0.14996628,0.26201016,0.63168865,0.6394287,-0.046662677,0.058627155,0.4858757,0.16732033,-0.35211638,-0.18397515,-0.09540845,805.4579,801.02563,803.44324,810.696,942.0513,-0.15765380859375,0.1009521484375,0.99945068359375,-0.82244873046875,-0.55328369140625,0.34393310546875,1,1.0,1.0,1.0,1.0,10.00
2024-10-11 20:39:55.473,0.25883105,-0.324112,0.46202663,0.46636185,0.34110823,-0.40356532,0.04324722,0.11217434,0.68174666,-0.14996628,0.26201016,0.63168865,0.6394287,-0.046662677,0.058627155,0.4858757,0.16732033,-0.35211638,-0.18397515,-0.09540845,782.49084,799.41394,790.14655,781.685,950.10986,-0.15765380859375,0.1009521484375,0.99945068359375,-0.82244873046875,-0.55328369140625,0.34393310546875,1,1.0,1.0,1.0,1.0,10.00
2024-10-11 20:39:55.474,0.25883105,-0.324112,0.46202663,0.46636185,0.34110823,-0.40356532,0.04324722,0.11217434,0.68174666,-0.14996628,0.26201016,0.63168865,0.6394287,-0.046662677,0.058627155,0.4858757,0.16732033,-0.35211638,-0.18397515,-0.09540845,791.3553,794.17584,783.2967,784.5055,1019.81683,-0.15765380859375,0.1009521484375,0.99945068359375,-0.82244873046875,-0.55328369140625,0.34393310546875,1,1.0,1.0,1.0,1.0,10.00
2024-10-11 20:39:55.474,0.25883105,-0.324112,0.46202663,0.46636185,0.34110823,-0.40356532,0.04324722,0.11217434,0.68174666,-0.14996628,0.26201016,0.63168865,0.6394287,-0.046662677,0.058627155,0.4858757,0.16732033,-0.35211638,-0.18397515,-0.09540845,786.9231,797.3993,792.5641,776.04395,974.2857,-0.15765380859375,0.1009521484375,0.99945068359375,-0.82244873046875,-0.55328369140625,0.34393310546875,1,1.0,1.0,1.0,1.0,10.00
2024-10-11 20:39:55.475,0.25883105,-0.324112,0.46202663,0.46636185,0.34110823,-0.40356532,0.04324722,0.11217434,0.68174666,-0.14996628,0.26201016,0.63168865,0.6394287,-0.046662677,0.058627155,0.4858757,0.16732033,-0.35211638,-0.18397515,-0.09540845,768.3883,791.3553,799.011,764.35895,741.39197,-0.15765380859375,0.1009521484375,0.99945068359375,-0.82244873046875,-0.55328369140625,0.34393310546875,1,1.0,1.0,1.0,1.0,10.00
2024-10-11 20:39:55.503,0.25883105,-0.324112,0.46202663,0.46636185,0.34110823,-0.40356532,0.04324722,0.11217434,0.68174666,-0.14996628,0.26201016,0.63168865,0.6394287,-0.046662677,0.058627155,0.4858757,0.16732033,-0.35211638,-0.18397515,-0.09540845,768.3883,788.1319,796.5934,773.6264,742.6007,-0.15899658203125,0.09405517578125,0.98992919921875,-3.132781982421875,1.846771240234375,1.60003662109375,1,1.0,1.0,1.0,1.0,10.00
2024-10-11 20:39:55.503,0.25883105,-0.324112,0.46202663,0.46636185,0.34110823,-0.40356532,0.04324722,0.11217434,0.68174666,-0.14996628,0.26201016,0.63168865,0.6394287,-0.046662677,0.058627155,0.4858757,0.16732033,-0.35211638,-0.18397515,-0.09540845,770.80585,797.3993,796.1905,780.07324,890.87915,-0.15899658203125,0.09405517578125,0.98992919921875,-3.132781982421875,1.846771240234375,1.60003662109375,1,1.0,1.0,1.0,1.0,10.00
2024-10-11 20:39:55.504,0.25883105,-0.324112,0.46202663,0.46636185,0.34110823,-0.40356532,0.04324722,0.11217434,0.68174666,-0.14996628,0.26201016,0.63168865,0.6394287,-0.046662677,0.058627155,0.4858757,0.16732033,-0.35211638,-0.18397515,-0.09540845,765.9707,798.60803,793.7729,769.19415,655.56775,-0.15899658203125,0.09405517578125,0.98992919921875,-3.132781982421875,1.846771240234375,1.60003662109375,1,1.0,1.0,1.0,1.0,10.00
2024-10-11 20:39:55.505,0.25883105,-0.324112,0.46202663,0.46636185,0.34110823,-0.40356532,0.04324722,0.11217434,0.68174666,-0.14996628,0.26201016,0.63168865,0.6394287,-0.046662677,0.058627155,0.4858757,0.16732033,-0.35211638,-0.18397515,-0.09540845,766.77655,795.38464,794.17584,765.16486,587.47253,-0.15899658203125,0.09405517578125,0.98992919921875,-3.132781982421875,1.846771240234375,1.60003662109375,1,1.0,1.0,1.0,1.0,10.00
2024-10-11 20:39:55.505,0.25883105,-0.324112,0.46202663,0.46636185,0.34110823,-0.40356532,0.04324722,0.11217434,0.68174666,-0.14996628,0.26201016,0.63168865,0.6394287,-0.046662677,0.058627155,0.4858757,0.16732033,-0.35211638,-0.18397515,-0.09540845,776.04395,788.5348,797.3993,770.40295,749.45056,-0.15899658203125,0.09405517578125,0.98992919921875,-3.132781982421875,1.846771240234375,1.60003662109375,1,1.0,1.0,1.0,1.0,10.00
2024-10-11 20:39:55.506,0.25883105,-0.324112,0.46202663,0.46636185,0.34110823,-0.40356532,0.04324722,0.11217434,0.68174666,-0.14996628,0.26201016,0.63168865,0.6394287,-0.046662677,0.058627155,0.4858757,0.16732033,-0.35211638,-0.18397515,-0.09540845,775.2381,786.9231,798.20514,775.64105,889.2674,-0.15899658203125,0.09405517578125,0.98992919921875,-3.132781982421875,1.846771240234375,1.60003662109375,1,1.0,1.0,1.0,1.0,10.00
2024-10-11 20:39:55.506,0.25883105,-0.324112,0.46202663,0.46636185,0.34110823,-0.40356532,0.04324722,0.11217434,0.68174666,-0.14996628,0.26201016,0.63168865,0.6394287,-0.046662677,0.058627155,0.4858757,0.16732033,-0.35211638,-0.18397515,-0.09540845,774.0293,793.36993,792.96704,777.6557,863.0769,-0.15899658203125,0.09405517578125,0.98992919921875,-3.132781982421875,1.846771240234375,1.60003662109375,1,1.0,1.0,1.0,1.0,10.00
2024-10-11 20:39:55.507,0.25822517,-0.30738398,0.456158,0.4505127,0.35523146,-0.36808333,0.05047237,0.17453234,0.686054,-0.13634019,0.26201016,0.67502224,0.62881297,-0.058329575,0.049298197,0.4741784,0.15346438,-0.3582725,-0.18855925,-0.07695783,779.67035,794.57874,799.81683,784.90845,763.5531,-0.15899658203125,0.09405517578125,0.98992919921875,-3.132781982421875,1.846771240234375,1.60003662109375,1,1.0,1.0,1.0,1.0,10.00
2024-10-11 20:39:55.512,0.25822517,-0.30738398,0.456158,0.4505127,0.35523146,-0.36808333,0.05047237,0.17453234,0.686054,-0.13634019,0.26201016,0.67502224,0.62881297,-0.058329575,0.049298197,0.4741784,0.15346438,-0.3582725,-0.18855925,-0.07695783,788.93774,788.93774,806.26373,795.38464,901.75824,-0.15899658203125,0.09405517578125,0.98992919921875,-3.132781982421875,1.846771240234375,1.60003662109375,1,1.0,1.0,1.0,1.0,10.00
2024-10-11 20:39:55.513,0.25822517,-0.30738398,0.456158,0.4505127,0.35523146,-0.36808333,0.05047237,0.17453234,0.686054,-0.13634019,0.26201016,0.67502224,0.62881297,-0.058329575,0.049298197,0.4741784,0.15346438,-0.3582725,-0.18855925,-0.07695783,785.31134,789.34064,800.2198,791.75824,892.8938,-0.15899658203125,0.09405517578125,0.98992919921875,-3.132781982421875,1.846771240234375,1.60003662109375,1,1.0,1.0,1.0,1.0,10.00
2024-10-11 20:39:55.514,0.25822517,-0.30738398,0.456158,0.4505127,0.35523146,-0.36808333,0.05047237,0.17453234,0.686054,-0.13634019,0.26201016,0.67502224,0.62881297,-0.058329575,0.049298197,0.4741784,0.15346438,-0.3582725,-0.18855925,-0.07695783,780.07324,794.17584,802.6374,788.93774,771.2088,-0.15899658203125,0.09405517578125,0.98992919921875,-3.132781982421875,1.846771240234375,1.60003662109375,1,1.0,1.0,1.0,1.0,10.00
2024-10-11 20:39:55.514,0.25822517,-0.30738398,0.456158,0.4505127,0.35523146,-0.36808333,0.05047237,0.17453234,0.686054,-0.13634019,0.26201016,0.67502224,0.62881297,-0.058329575,0.049298197,0.4741784,0.15346438,-0.3582725,-0.18855925,-0.07695783,787.72894,788.5348,800.2198,791.75824,772.4176,-0.15899658203125,0.09405517578125,0.98992919921875,-3.132781982421875,1.846771240234375,1.60003662109375,1,1.0,1.0,1.0,1.0,10.00
2024-10-11 20:39:55.515,0.25822517,-0.30738398,0.456158,0.4505127,0.35523146,-0.36808333,0.05047237,0.17453234,0.686054,-0.13634019,0.26201016,0.67502224,0.62881297,-0.058329575,0.049298197,0.4741784,0.15346438,-0.3582725,-0.18855925,-0.07695783,790.14655,790.9524,797.8022,797.8022,921.0989,-0.16357421875,0.0804443359375,0.98455810546875,-4.17205810546875,0.785064697265625,3.551483154296875,1,1.0,1.0,1.0,1.0,10.00
2024-10-11 20:39:55.516,0.25822517,-0.30738398,0.456158,0.4505127,0.35523146,-0.36808333,0.05047237,0.17453234,0.686054,-0.13634019,0.26201016,0.67502224,0.62881297,-0.058329575,0.049298197,0.4741784,0.15346438,-0.3582725,-0.18855925,-0.07695783,792.5641,795.38464,804.65204,803.0403,948.49817,-0.16357421875,0.0804443359375,0.98455810546875,-4.17205810546875,0.785064697265625,3.551483154296875,1,1.0,1.0,1.0,1.0,10.00
2024-10-11 20:39:55.516,0.25822517,-0.30738398,0.456158,0.4505127,0.35523146,-0.36808333,0.05047237,0.17453234,0.686054,-0.13634019,0.26201016,0.67502224,0.62881297,-0.058329575,0.049298197,0.4741784,0.15346438,-0.3582725,-0.18855925,-0.07695783,794.17584,796.99634,803.8461,799.011,679.34064,-0.16357421875,0.0804443359375,0.98455810546875,-4.17205810546875,0.785064697265625,3.551483154296875,1,1.0,1.0,1.0,1.0,10.00
2024-10-11 20:39:55.517,0.25822517,-0.30738398,0.456158,0.4505127,0.35523146,-0.36808333,0.05047237,0.17453234,0.686054,-0.13634019,0.26201016,0.67502224,0.62881297,-0.058329575,0.049298197,0.4741784,0.15346438,-0.3582725,-0.18855925,-0.07695783,796.1905,794.17584,793.7729,787.72894,693.8461,-0.16357421875,0.0804443359375,0.98455810546875,-4.17205810546875,0.785064697265625,3.551483154296875,1,1.0,1.0,1.0,1.0,10.00
2024-10-11 20:39:55.518,0.25822517,-0.30738398,0.456158,0.4505127,0.35523146,-0.36808333,0.05047237,0.17453234,0.686054,-0.13634019,0.26201016,0.67502224,0.62881297,-0.058329575,0.049298197,0.4741784,0.15346438,-0.3582725,-0.18855925,-0.07695783,798.20514,788.93774,793.7729,790.14655,885.64105,-0.16357421875,0.0804443359375,0.98455810546875,-4.17205810546875,0.785064697265625,3.551483154296875,1,1.0,1.0,1.0,1.0,10.00
2024-10-11 20:39:55.518,0.25822517,-0.30738398,0.456158,0.4505127,0.35523146,-0.36808333,0.05047237,0.17453234,0.686054,-0.13634019,0.26201016,0.67502224,0.62881297,-0.058329575,0.049298197,0.4741784,0.15346438,-0.3582725,-0.18855925,-0.07695783,794.17584,792.1612,801.02563,793.7729,809.4872,-0.16357421875,0.0804443359375,0.98455810546875,-4.17205810546875,0.785064697265625,3.551483154296875,1,1.0,1.0,1.0,1.0,10.00
2024-10-11 20:39:55.519,0.25822517,-0.30738398,0.456158,0.4505127,0.35523146,-0.36808333,0.05047237,0.17453234,0.686054,-0.13634019,0.26201016,0.67502224,0.62881297,-0.058329575,0.049298197,0.4741784,0.15346438,-0.3582725,-0.18855925,-0.07695783,798.60803,789.7436,803.0403,795.38464,743.00366,-0.16357421875,0.0804443359375,0.98455810546875,-4.17205810546875,0.785064697265625,3.551483154296875,1,1.0,1.0,1.0,1.0,10.00
2024-10-11 20:39:55.519,0.25822517,-0.30738398,0.456158,0.4505127,0.35523146,-0.36808333,0.05047237,0.17453234,0.686054,-0.13634019,0.26201016,0.67502224,0.62881297,-0.058329575,0.049298197,0.4741784,0.15346438,-0.3582725,-0.18855925,-0.07695783,801.02563,790.9524,803.0403,805.4579,863.0769,-0.16357421875,0.0804443359375,0.98455810546875,-4.17205810546875,0.785064697265625,3.551483154296875,1,1.0,1.0,1.0,1.0,10.00
2024-10-11 20:39:55.520,0.25822517,-0.30738398,0.456158,0.4505127,0.35523146,-0.36808333,0.05047237,0.17453234,0.686054,-0.13634019,0.26201016,0.67502224,0.62881297,-0.058329575,0.049298197,0.4741784,0.15346438,-0.3582725,-0.18855925,-0.07695783,804.2491,796.1905,801.8315,808.2784,947.28937,-0.16357421875,0.0804443359375,0.98455810546875,-4.17205810546875,0.785064697265625,3.551483154296875,1,1.0,1.0,1.0,1.0,10.00
2024-10-11 20:39:55.520,0.25822517,-0.30738398,0.456158,0.4505127,0.35523146,-0.36808333,0.05047237,0.17453234,0.686054,-0.13634019,0.26201016,0.67502224,0.62881297,-0.058329575,0.049298197,0.4741784,0.15346438,-0.3582725,-0.18855925,-0.07695783,813.91943,801.8315,802.6374,803.0403,799.011,-0.16357421875,0.0804443359375,0.98455810546875,-4.17205810546875,0.785064697265625,3.551483154296875,1,1.0,1.0,1.0,1.0,10.00
2024-10-11 20:39:55.521,0.25822517,-0.30738398,0.456158,0.4505127,0.35523146,-0.36808333,0.05047237,0.17453234,0.686054,-0.13634019,0.26201016,0.67502224,0.62881297,-0.058329575,0.049298197,0.4741784,0.15346438,-0.3582725,-0.18855925,-0.07695783,805.8608,801.8315,803.44324,796.1905,597.1429,-0.16357421875,0.0804443359375,0.98455810546875,-4.17205810546875,0.785064697265625,3.551483154296875,1,1.0,1.0,1.0,1.0,10.00
2024-10-11 20:39:55.521,0.25822517,-0.30738398,0.456158,0.4505127,0.35523146,-0.36808333,0.05047237,0.17453234,0.686054,-0.13634019,0.26201016,0.67502224,0.62881297,-0.058329575,0.049298197,0.4741784,0.15346438,-0.3582725,-0.18855925,-0.07695783,807.0696,801.8315,804.65204,796.99634,709.9634,-0.16357421875,0.0804443359375,0.98455810546875,-4.17205810546875,0.785064697265625,3.551483154296875,1,1.0,1.0,1.0,1.0,10.00
2024-10-11 20:39:55.551,0.25822517,-0.30738398,0.456158,0.4505127,0.35523146,-0.36808333,0.05047237,0.17453234,0.686054,-0.13634019,0.26201016,0.67502224,0.62881297,-0.058329575,0.049298197,0.4741784,0.15346438,-0.3582725,-0.18855925,-0.07695783,807.0696,798.60803,807.0696,810.696,1068.5714,-0.16357421875,0.0804443359375,0.98455810546875,-4.17205810546875,0.785064697265625,3.551483154296875,1,1.0,1.0,1.0,1.0,10.00
2024-10-11 20:39:55.551,0.25822517,-0.30738398,0.456158,0.4505127,0.35523146,-0.36808333,0.05047237,0.17453234,0.686054,-0.13634019,0.26201016,0.67502224,0.62881297,-0.058329575,0.049298197,0.4741784,0.15346438,-0.3582725,-0.18855925,-0.07695783,799.81683,790.14655,801.8315,812.3077,1270.4396,-0.16357421875,0.0804443359375,0.98455810546875,-4.17205810546875,0.785064697265625,3.551483154296875,1,1.0,1.0,1.0,1.0,10.00
2024-10-11 20:39:55.552,0.25822517,-0.30738398,0.456158,0.4505127,0.35523146,-0.36808333,0.05047237,0.17453234,0.686054,-0.13634019,0.26201016,0.67502224,0.62881297,-0.058329575,0.049298197,0.4741784,0.15346438,-0.3582725,-0.18855925,-0.07695783,791.75824,791.3553,803.44324,804.65204,994.83514,-0.16357421875,0.0804443359375,0.98455810546875,-4.17205810546875,0.785064697265625,3.551483154296875,1,1.0,1.0,1.0,1.0,10.00
2024-10-11 20:39:55.553,0.25822517,-0.30738398,0.456158,0.4505127,0.35523146,-0.36808333,0.05047237,0.17453234,0.686054,-0.13634019,0.26201016,0.67502224,0.62881297,-0.058329575,0.049298197,0.4741784,0.15346438,-0.3582725,-0.18855925,-0.07695783,790.54944,794.17584,807.47253,801.8315,842.1245,-0.16357421875,0.0804443359375,0.98455810546875,-4.17205810546875,0.785064697265625,3.551483154296875,1,1.0,1.0,1.0,1.0,10.00
2024-10-11 20:39:55.553,0.25822517,-0.30738398,0.456158,0.4505127,0.35523146,-0.36808333,0.05047237,0.17453234,0.686054,-0.13634019,0.26201016,0.67502224,0.62881297,-0.058329575,0.049298197,0.4741784,0.15346438,-0.3582725,-0.18855925,-0.07695783,792.96704,793.7729,803.8461,803.0403,915.4579,-0.16357421875,0.0804443359375,0.98455810546875,-4.17205810546875,0.785064697265625,3.551483154296875,1,1.0,1.0,1.0,1.0,10.00
2024-10-11 20:39:55.554,0.25822517,-0.30738398,0.456158,0.4505127,0.35523146,-0.36808333,0.05047237,0.17453234,0.686054,-0.13634019,0.26201016,0.67502224,0.62881297,-0.058329575,0.049298197,0.4741784,0.15346438,-0.3582725,-0.18855925,-0.07695783,801.4286,798.20514,805.8608,805.05493,821.1722,-0.16357421875,0.0804443359375,0.98455810546875,-4.17205810546875,0.785064697265625,3.551483154296875,1,1.0,1.0,1.0,1.0,10.00
2024-10-11 20:39:55.554,0.25822517,-0.30738398,0.456158,0.4505127,0.35523146,-0.36808333,0.05047237,0.17453234,0.686054,-0.13634019,0.26201016,0.67502224,0.62881297,-0.058329575,0.049298197,0.4741784,0.15346438,-0.3582725,-0.18855925,-0.07695783,806.6667,804.2491,812.3077,797.8022,800.6227,-0.16357421875,0.0804443359375,0.98455810546875,-4.17205810546875,0.785064697265625,3.551483154296875,1,1.0,1.0,1.0,1.0,10.00
2024-10-11 20:39:55.555,0.25822517,-0.30738398,0.456158,0.4505127,0.35523146,-0.36808333,0.05047237,0.17453234,0.686054,-0.13634019,0.26201016,0.67502224,0.62881297,-0.058329575,0.049298197,0.4741784,0.15346438,-0.3582725,-0.18855925,-0.07695783,796.1905,799.41394,809.89014,796.99634,906.5934,-0.16357421875,0.0804443359375,0.98455810546875,-4.17205810546875,0.785064697265625,3.551483154296875,1,1.0,1.0,1.0,1.0,10.00
2024-10-11 20:39:55.555,0.25822517,-0.30738398,0.456158,0.4505127,0.35523146,-0.36808333,0.05047237,0.17453234,0.686054,-0.13634019,0.26201016,0.67502224,0.62881297,-0.058329575,0.049298197,0.4741784,0.15346438,-0.3582725,-0.18855925,-0.07695783,792.96704,793.36993,803.0403,807.0696,1199.1208,-0.16357421875,0.0804443359375,0.98455810546875,-4.17205810546875,0.785064697265625,3.551483154296875,1,1.0,1.0,1.0,1.0,10.00
2024-10-11 20:39:55.556,0.30674234,-0.2942134,0.43375027,0.43453708,0.37851068,-0.35657036,0.04530843,0.257251,0.686054,-0.13783966,0.26201016,0.7361099,0.61855406,-0.079547286,0.043333955,0.46250865,0.13146187,-0.36308786,-0.18823323,-0.06332041,797.3993,795.38464,801.02563,801.8315,1249.0842,-0.16357421875,0.0804443359375,0.98455810546875,-4.17205810546875,0.785064697265625,3.551483154296875,1,1.0,1.0,1.0,1.0,10.00
2024-10-11 20:39:55.561,0.30674234,-0.2942134,0.43375027,0.43453708,0.37851068,-0.35657036,0.04530843,0.257251,0.686054,-0.13783966,0.26201016,0.7361099,0.61855406,-0.079547286,0.043333955,0.46250865,0.13146187,-0.36308786,-0.18823323,-0.06332041,793.7729,797.8022,799.41394,794.57874,892.0879,-0.16357421875,0.0804443359375,0.98455810546875,-4.17205810546875,0.785064697265625,3.551483154296875,1,1.0,1.0,1.0,1.0,10.00
2024-10-11 20:39:55.562,0.30674234,-0.2942134,0.43375027,0.43453708,0.37851068,-0.35657036,0.04530843,0.257251,0.686054,-0.13783966,0.26201016,0.7361099,0.61855406,-0.079547286,0.043333955,0.46250865,0.13146187,-0.36308786,-0.18823323,-0.06332041,797.3993,798.20514,795.38464,795.38464,552.4176,-0.16357421875,0.0804443359375,0.98455810546875,-4.17205810546875,0.785064697265625,3.551483154296875,1,1.0,1.0,1.0,1.0,10.00
2024-10-11 20:39:55.563,0.30674234,-0.2942134,0.43375027,0.43453708,0.37851068,-0.35657036,0.04530843,0.257251,0.686054,-0.13783966,0.26201016,0.7361099,0.61855406,-0.079547286,0.043333955,0.46250865,0.13146187,-0.36308786,-0.18823323,-0.06332041,797.8022,796.5934,794.17584,791.75824,556.4469,-0.17755126953125,0.06878662109375,0.98138427734375,-2.459869384765625,-0.2691650390625,5.8319091796875,1,1.0,1.0,1.0,1.0,10.00
2024-10-11 20:39:55.564,0.30674234,-0.2942134,0.43375027,0.43453708,0.37851068,-0.35657036,0.04530843,0.257251,0.686054,-0.13783966,0.26201016,0.7361099,0.61855406,-0.079547286,0.043333955,0.46250865,0.13146187,-0.36308786,-0.18823323,-0.06332041,796.5934,797.8022,800.6227,789.7436,593.1135,-0.17755126953125,0.06878662109375,0.98138427734375,-2.459869384765625,-0.2691650390625,5.8319091796875,1,1.0,1.0,1.0,1.0,10.00
2024-10-11 20:39:55.564,0.30674234,-0.2942134,0.43375027,0.43453708,0.37851068,-0.35657036,0.04530843,0.257251,0.686054,-0.13783966,0.26201016,0.7361099,0.61855406,-0.079547286,0.043333955,0.46250865,0.13146187,-0.36308786,-0.18823323,-0.06332041,801.8315,795.78754,800.6227,792.96704,572.1612,-0.17755126953125,0.06878662109375,0.98138427734375,-2.459869384765625,-0.2691650390625,5.8319091796875,1,1.0,1.0,1.0,1.0,10.00
2024-10-11 20:39:55.565,0.30674234,-0.2942134,0.43375027,0.43453708,0.37851068,-0.35657036,0.04530843,0.257251,0.686054,-0.13783966,0.26201016,0.7361099,0.61855406,-0.079547286,0.043333955,0.46250865,0.13146187,-0.36308786,-0.18823323,-0.06332041,803.0403,794.9817,801.02563,800.2198,511.72162,-0.17755126953125,0.06878662109375,0.98138427734375,-2.459869384765625,-0.2691650390625,5.8319091796875,1,1.0,1.0,1.0,1.0,10.00
2024-10-11 20:39:55.565,0.30674234,-0.2942134,0.43375027,0.43453708,0.37851068,-0.35657036,0.04530843,0.257251,0.686054,-0.13783966,0.26201016,0.7361099,0.61855406,-0.079547286,0.043333955,0.46250865,0.13146187,-0.36308786,-0.18823323,-0.06332041,801.8315,799.011,807.0696,797.3993,518.5714,-0.17755126953125,0.06878662109375,0.98138427734375,-2.459869384765625,-0.2691650390625,5.8319091796875,1,1.0,1.0,1.0,1.0,10.00
2024-10-11 20:39:55.566,0.30674234,-0.2942134,0.43375027,0.43453708,0.37851068,-0.35657036,0.04530843,0.257251,0.686054,-0.13783966,0.26201016,0.7361099,0.61855406,-0.079547286,0.043333955,0.46250865,0.13146187,-0.36308786,-0.18823323,-0.06332041,800.2198,794.57874,802.6374,790.9524,650.7326,-0.17755126953125,0.06878662109375,0.98138427734375,-2.459869384765625,-0.2691650390625,5.8319091796875,1,1.0,1.0,1.0,1.0,10.00
2024-10-11 20:39:55.567,0.30674234,-0.2942134,0.43375027,0.43453708,0.37851068,-0.35657036,0.04530843,0.257251,0.686054,-0.13783966,0.26201016,0.7361099,0.61855406,-0.079547286,0.043333955,0.46250865,0.13146187,-0.36308786,-0.18823323,-0.06332041,799.41394,791.75824,798.60803,791.75824,838.0952,-0.17755126953125,0.06878662109375,0.98138427734375,-2.459869384765625,-0.2691650390625,5.8319091796875,1,1.0,1.0,1.0,1.0,10.00
2024-10-11 20:39:55.567,0.30674234,-0.2942134,0.43375027,0.43453708,0.37851068,-0.35657036,0.04530843,0.257251,0.686054,-0.13783966,0.26201016,0.7361099,0.61855406,-0.079547286,0.043333955,0.46250865,0.13146187,-0.36308786,-0.18823323,-0.06332041,801.02563,794.9817,802.23444,793.36993,878.7912,-0.17755126953125,0.06878662109375,0.98138427734375,-2.459869384765625,-0.2691650390625,5.8319091796875,1,1.0,1.0,1.0,1.0,10.00
2024-10-11 20:39:55.568,0.30674234,-0.2942134,0.43375027,0.43453708,0.37851068,-0.35657036,0.04530843,0.257251,0.686054,-0.13783966,0.26201016,0.7361099,0.61855406,-0.079547286,0.043333955,0.46250865,0.13146187,-0.36308786,-0.18823323,-0.06332041,804.2491,799.011,799.41394,794.9817,657.98535,-0.17755126953125,0.06878662109375,0.98138427734375,-2.459869384765625,-0.2691650390625,5.8319091796875,1,1.0,1.0,1.0,1.0,10.00
2024-10-11 20:39:55.568,0.30674234,-0.2942134,0.43375027,0.43453708,0.37851068,-0.35657036,0.04530843,0.257251,0.686054,-0.13783966,0.26201016,0.7361099,0.61855406,-0.079547286,0.043333955,0.46250865,0.13146187,-0.36308786,-0.18823323,-0.06332041,805.8608,800.6227,796.1905,794.17584,491.5751,-0.17755126953125,0.06878662109375,0.98138427734375,-2.459869384765625,-0.2691650390625,5.8319091796875,1,1.0,1.0,1.0,1.0,10.00
2024-10-11 20:39:55.569,0.30674234,-0.2942134,0.43375027,0.43453708,0.37851068,-0.35657036,0.04530843,0.257251,0.686054,-0.13783966,0.26201016,0.7361099,0.61855406,-0.079547286,0.043333955,0.46250865,0.13146187,-0.36308786,-0.18823323,-0.06332041,805.4579,799.41394,799.81683,797.3993,672.49084,-0.17755126953125,0.06878662109375,0.98138427734375,-2.459869384765625,-0.2691650390625,5.8319091796875,1,1.0,1.0,1.0,1.0,10.00
2024-10-11 20:39:55.570,0.30674234,-0.2942134,0.43375027,0.43453708,0.37851068,-0.35657036,0.04530843,0.257251,0.686054,-0.13783966,0.26201016,0.7361099,0.61855406,-0.079547286,0.043333955,0.46250865,0.13146187,-0.36308786,-0.18823323,-0.06332041,807.8755,805.05493,807.0696,805.05493,762.3443,-0.17755126953125,0.06878662109375,0.98138427734375,-2.459869384765625,-0.2691650390625,5.8319091796875,1,1.0,1.0,1.0,1.0,10.00
2024-10-11 20:39:55.598,0.30674234,-0.2942134,0.43375027,0.43453708,0.37851068,-0.35657036,0.04530843,0.257251,0.686054,-0.13783966,0.26201016,0.7361099,0.61855406,-0.079547286,0.043333955,0.46250865,0.13146187,-0.36308786,-0.18823323,-0.06332041,802.6374,803.44324,807.8755,795.38464,607.2161,-0.197998046875,0.07232666015625,0.98248291015625,-0.485992431640625,0.306549072265625,5.226287841796875,1,1.0,1.0,1.0,1.0,10.00
2024-10-11 20:39:55.599,0.30674234,-0.2942134,0.43375027,0.43453708,0.37851068,-0.35657036,0.04530843,0.257251,0.686054,-0.13783966,0.26201016,0.7361099,0.61855406,-0.079547286,0.043333955,0.46250865,0.13146187,-0.36308786,-0.18823323,-0.06332041,798.60803,796.5934,803.0403,794.57874,616.8865,-0.197998046875,0.07232666015625,0.98248291015625,-0.485992431640625,0.306549072265625,5.226287841796875,1,1.0,1.0,1.0,1.0,10.00
2024-10-11 20:39:55.599,0.30674234,-0.2942134,0.43375027,0.43453708,0.37851068,-0.35657036,0.04530843,0.257251,0.686054,-0.13783966,0.26201016,0.7361099,0.61855406,-0.079547286,0.043333955,0.46250865,0.13146187,-0.36308786,-0.18823323,-0.06332041,798.20514,794.9817,801.4286,805.05493,794.17584,-0.197998046875,0.07232666015625,0.98248291015625,-0.485992431640625,0.306549072265625,5.226287841796875,1,1.0,1.0,1.0,1.0,10.00
2024-10-11 20:39:55.600,0.30674234,-0.2942134,0.43375027,0.43453708,0.37851068,-0.35657036,0.04530843,0.257251,0.686054,-0.13783966,0.26201016,0.7361099,0.61855406,-0.079547286,0.043333955,0.46250865,0.13146187,-0.36308786,-0.18823323,-0.06332041,796.1905,795.78754,798.60803,793.7729,870.32965,-0.197998046875,0.07232666015625,0.98248291015625,-0.485992431640625,0.306549072265625,5.226287841796875,1,1.0,1.0,1.0,1.0,10.00
2024-10-11 20:39:55.601,0.30674234,-0.2942134,0.43375027,0.43453708,0.37851068,-0.35657036,0.04530843,0.257251,0.686054,-0.13783966,0.26201016,0.7361099,0.61855406,-0.079547286,0.043333955,0.46250865,0.13146187,-0.36308786,-0.18823323,-0.06332041,797.8022,797.8022,796.5934,786.1172,620.5128,-0.197998046875,0.07232666015625,0.98248291015625,-0.485992431640625,0.306549072265625,5.226287841796875,1,1.0,1.0,1.0,1.0,10.00
2024-10-11 20:39:55.601,0.30674234,-0.2942134,0.43375027,0.43453708,0.37851068,-0.35657036,0.04530843,0.257251,0.686054,-0.13783966,0.26201016,0.7361099,0.61855406,-0.079547286,0.043333955,0.46250865,0.13146187,-0.36308786,-0.18823323,-0.06332041,794.9817,794.17584,791.3553,790.54944,661.2088,-0.197998046875,0.07232666015625,0.98248291015625,-0.485992431640625,0.306549072265625,5.226287841796875,1,1.0,1.0,1.0,1.0,10.00
2024-10-11 20:39:55.602,0.30674234,-0.2942134,0.43375027,0.43453708,0.37851068,-0.35657036,0.04530843,0.257251,0.686054,-0.13783966,0.26201016,0.7361099,0.61855406,-0.079547286,0.043333955,0.46250865,0.13146187,-0.36308786,-0.18823323,-0.06332041,797.8022,794.9817,793.7729,794.9817,959.3773,-0.197998046875,0.07232666015625,0.98248291015625,-0.485992431640625,0.306549072265625,5.226287841796875,1,1.0,1.0,1.0,1.0,10.00
2024-10-11 20:39:55.602,0.30674234,-0.2942134,0.43375027,0.43453708,0.37851068,-0.35657036,0.04530843,0.257251,0.686054,-0.13783966,0.26201016,0.7361099,0.61855406,-0.079547286,0.043333955,0.46250865,0.13146187,-0.36308786,-0.18823323,-0.06332041,801.02563,793.36993,796.99634,803.44324,1225.3114,-0.197998046875,0.07232666015625,0.98248291015625,-0.485992431640625,0.306549072265625,5.226287841796875,1,1.0,1.0,1.0,1.0,10.00
2024-10-11 20:39:55.603,0.30674234,-0.2942134,0.43375027,0.43453708,0.37851068,-0.35657036,0.04530843,0.257251,0.686054,-0.13783966,0.26201016,0.7361099,0.61855406,-0.079547286,0.043333955,0.46250865,0.13146187,-0.36308786,-0.18823323,-0.06332041,798.20514,801.8315,797.8022,802.23444,934.3956,-0.197998046875,0.07232666015625,0.98248291015625,-0.485992431640625,0.306549072265625,5.226287841796875,1,1.0,1.0,1.0,1.0,10.00
2024-10-11 20:39:55.603,0.30674234,-0.2942134,0.43375027,0.43453708,0.37851068,-0.35657036,0.04530843,0.257251,0.686054,-0.13783966,0.26201016,0.7361099,0.61855406,-0.079547286,0.043333955,0.46250865,0.13146187,-0.36308786,-0.18823323,-0.06332041,791.75824,804.2491,796.1905,791.3553,652.74725,-0.197998046875,0.07232666015625,0.98248291015625,-0.485992431640625,0.306549072265625,5.226287841796875,1,1.0,1.0,1.0,1.0,10.00
2024-10-11 20:39:55.604,0.30674234,-0.2942134,0.43375027,0.43453708,0.37851068,-0.35657036,0.04530843,0.257251,0.686054,-0.13783966,0.26201016,0.7361099,0.61855406,-0.079547286,0.043333955,0.46250865,0.13146187,-0.36308786,-0.18823323,-0.06332041,794.17584,801.4286,795.78754,787.72894,744.61536,-0.197998046875,0.07232666015625,0.98248291015625,-0.485992431640625,0.306549072265625,5.226287841796875,1,1.0,1.0,1.0,1.0,10.00
2024-10-11 20:39:55.604,0.36668792,-0.28092048,0.39201722,0.42492557,0.42170313,-0.37267178,0.013196419,0.34575492,0.686054,-0.13639595,0.24904831,0.78563356,0.61129475,-0.10446333,0.03586648,0.45484227,0.104431294,-0.36422887,-0.17623644,-0.04666523,803.8461,808.2784,797.8022,791.75824,660.0,-0.197998046875,0.07232666015625,0.98248291015625,-0.485992431640625,0.306549072265625,5.226287841796875,1,1.0,1.0,1.0,1.0,10.00
2024-10-11 20:39:55.702,0.36668792,-0.28092048,0.39201722,0.42492557,0.42170313,-0.37267178,0.013196419,0.34575492,0.686054,-0.13639595,0.24904831,0.78563356,0.61129475,-0.10446333,0.03586648,0.45484227,0.104431294,-0.36422887,-0.17623644,-0.04666523,793.36993,803.8461,801.02563,794.17584,504.46887,-0.20318603515625,0.07720947265625,0.9849853515625,0.441131591796875,-0.59814453125,1.876678466796875,1,1.0,1.0,1.0,1.0,10.00
2024-10-11 20:39:55.703,0.36668792,-0.28092048,0.39201722,0.42492557,0.42170313,-0.37267178,0.013196419,0.34575492,0.686054,-0.13639595,0.24904831,0.78563356,0.61129475,-0.10446333,0.03586648,0.45484227,0.104431294,-0.36422887,-0.17623644,-0.04666523,789.7436,798.20514,805.4579,805.8608,485.53113,-0.20318603515625,0.07720947265625,0.9849853515625,0.441131591796875,-0.59814453125,1.876678466796875,1,1.0,1.0,1.0,1.0,10.00
2024-10-11 20:39:55.704,0.36668792,-0.28092048,0.39201722,0.42492557,0.42170313,-0.37267178,0.013196419,0.34575492,0.686054,-0.13639595,0.24904831,0.78563356,0.61129475,-0.10446333,0.03586648,0.45484227,0.104431294,-0.36422887,-0.17623644,-0.04666523,794.57874,803.8461,799.41394,802.6374,688.20514,-0.20318603515625,0.07720947265625,0.9849853515625,0.441131591796875,-0.59814453125,1.876678466796875,1,1.0,1.0,1.0,1.0,10.00
2024-10-11 20:39:55.704,0.36668792,-0.28092048,0.39201722,0.42492557,0.42170313,-0.37267178,0.013196419,0.34575492,0.686054,-0.13639595,0.24904831,0.78563356,0.61129475,-0.10446333,0.03586648,0.45484227,0.104431294,-0.36422887,-0.17623644,-0.04666523,790.54944,807.47253,794.17584,776.04395,713.5897,-0.20318603515625,0.07720947265625,0.9849853515625,0.441131591796875,-0.59814453125,1.876678466796875,1,1.0,1.0,1.0,1.0,10.00
2024-10-11 20:39:55.705,0.36668792,-0.28092048,0.39201722,0.42492557,0.42170313,-0.37267178,0.013196419,0.34575492,0.686054,-0.13639595,0.24904831,0.78563356,0.61129475,-0.10446333,0.03586648,0.45484227,0.104431294,-0.36422887,-0.17623644,-0.04666523,803.0403,808.68134,788.5348,777.6557,665.64105,-0.20318603515625,0.07720947265625,0.9849853515625,0.441131591796875,-0.59814453125,1.876678466796875,1,1.0,1.0,1.0,1.0,10.00
2024-10-11 20:39:55.706,0.36668792,-0.28092048,0.39201722,0.42492557,0.42170313,-0.37267178,0.013196419,0.34575492,0.686054,-0.13639595,0.24904831,0.78563356,0.61129475,-0.10446333,0.03586648,0.45484227,0.104431294,-0.36422887,-0.17623644,-0.04666523,794.57874,805.05493,788.5348,788.93774,836.08057,-0.20318603515625,0.07720947265625,0.9849853515625,0.441131591796875,-0.59814453125,1.876678466796875,1,1.0,1.0,1.0,1.0,10.00
2024-10-11 20:39:55.706,0.36668792,-0.28092048,0.39201722,0.42492557,0.42170313,-0.37267178,0.013196419,0.34575492,0.686054,-0.13639595,0.24904831,0.78563356,0.61129475,-0.10446333,0.03586648,0.45484227,0.104431294,-0.36422887,-0.17623644,-0.04666523,781.685,803.44324,794.9817,794.57874,909.81683,-0.20318603515625,0.07720947265625,0.9849853515625,0.441131591796875,-0.59814453125,1.876678466796875,1,1.0,1.0,1.0,1.0,10.00
2024-10-11 20:39:55.707,0.36668792,-0.28092048,0.39201722,0.42492557,0.42170313,-0.37267178,0.013196419,0.34575492,0.686054,-0.13639595,0.24904831,0.78563356,0.61129475,-0.10446333,0.03586648,0.45484227,0.104431294,-0.36422887,-0.17623644,-0.04666523,783.2967,803.0403,792.1612,792.1612,727.6923,-0.20318603515625,0.07720947265625,0.9849853515625,0.441131591796875,-0.59814453125,1.876678466796875,1,1.0,1.0,1.0,1.0,10.00
2024-10-11 20:39:55.707,0.36668792,-0.28092048,0.39201722,0.42492557,0.42170313,-0.37267178,0.013196419,0.34575492,0.686054,-0.13639595,0.24904831,0.78563356,0.61129475,-0.10446333,0.03586648,0.45484227,0.104431294,-0.36422887,-0.17623644,-0.04666523,785.7143,803.0403,787.326,790.14655,608.8278,-0.20318603515625,0.07720947265625,0.9849853515625,0.441131591796875,-0.59814453125,1.876678466796875,1,1.0,1.0,1.0,1.0,10.00
2024-10-11 20:39:55.708,0.36668792,-0.28092048,0.39201722,0.42492557,0.42170313,-0.37267178,0.013196419,0.34575492,0.686054,-0.13639595,0.24904831,0.78563356,0.61129475,-0.10446333,0.03586648,0.45484227,0.104431294,-0.36422887,-0.17623644,-0.04666523,800.2198,807.47253,793.36993,792.1612,639.0476,-0.20318603515625,0.07720947265625,0.9849853515625,0.441131591796875,-0.59814453125,1.876678466796875,1,1.0,1.0,1.0,1.0,10.00
2024-10-11 20:39:55.709,0.36668792,-0.28092048,0.39201722,0.42492557,0.42170313,-0.37267178,0.013196419,0.34575492,0.686054,-0.13639595,0.24904831,0.78563356,0.61129475,-0.10446333,0.03586648,0.45484227,0.104431294,-0.36422887,-0.17623644,-0.04666523,799.41394,802.23444,796.99634,801.8315,975.89746,-0.20318603515625,0.07720947265625,0.9849853515625,0.441131591796875,-0.59814453125,1.876678466796875,1,1.0,1.0,1.0,1.0,10.00
2024-10-11 20:39:55.709,0.36668792,-0.28092048,0.39201722,0.42492557,0.42170313,-0.37267178,0.013196419,0.34575492,0.686054,-0.13639595,0.24904831,0.78563356,0.61129475,-0.10446333,0.03586648,0.45484227,0.104431294,-0.36422887,-0.17623644,-0.04666523,797.8022,794.9817,790.14655,805.05493,968.6447,-0.20318603515625,0.07720947265625,0.9849853515625,0.441131591796875,-0.59814453125,1.876678466796875,1,1.0,1.0,1.0,1.0,10.00
2024-10-11 20:39:55.710,0.36668792,-0.28092048,0.39201722,0.42492557,0.42170313,-0.37267178,0.013196419,0.34575492,0.686054,-0.13639595,0.24904831,0.78563356,0.61129475,-0.10446333,0.03586648,0.45484227,0.104431294,-0.36422887,-0.17623644,-0.04666523,804.65204,798.60803,791.3553,796.5934,724.0659,-0.19342041015625,0.08453369140625,0.9891357421875,-0.13458251953125,-1.622467041015625,-1.016845703125,1,1.0,1.0,1.0,1.0,10.00
2024-10-11 20:39:55.711,0.36668792,-0.28092048,0.39201722,0.42492557,0.42170313,-0.37267178,0.013196419,0.34575492,0.686054,-0.13639595,0.24904831,0.78563356,0.61129475,-0.10446333,0.03586648,0.45484227,0.104431294,-0.36422887,-0.17623644,-0.04666523,802.23444,796.99634,794.57874,797.8022,783.2967,-0.19342041015625,0.08453369140625,0.9891357421875,-0.13458251953125,-1.622467041015625,-1.016845703125,1,1.0,1.0,1.0,1.0,10.00
2024-10-11 20:39:55.711,0.36668792,-0.28092048,0.39201722,0.42492557,0.42170313,-0.37267178,0.013196419,0.34575492,0.686054,-0.13639595,0.24904831,0.78563356,0.61129475,-0.10446333,0.03586648,0.45484227,0.104431294,-0.36422887,-0.17623644,-0.04666523,802.6374,801.4286,793.7729,801.8315,787.72894,-0.19342041015625,0.08453369140625,0.9891357421875,-0.13458251953125,-1.622467041015625,-1.016845703125,1,1.0,1.0,1.0,1.0,10.00
2024-10-11 20:39:55.712,0.36668792,-0.28092048,0.39201722,0.42492557,0.42170313,-0.37267178,0.013196419,0.34575492,0.686054,-0.13639595,0.24904831,0.78563356,0.61129475,-0.10446333,0.03586648,0.45484227,0.104431294,-0.36422887,-0.17623644,-0.04666523,795.78754,807.47253,793.7729,803.44324,643.0769,-0.19342041015625,0.08453369140625,0.9891357421875,-0.13458251953125,-1.622467041015625,-1.016845703125,1,1.0,1.0,1.0,1.0,10.00
2024-10-11 20:39:55.712,0.36668792,-0.28092048,0.39201722,0.42492557,0.42170313,-0.37267178,0.013196419,0.34575492,0.686054,-0.13639595,0.24904831,0.78563356,0.61129475,-0.10446333,0.03586648,0.45484227,0.104431294,-0.36422887,-0.17623644,-0.04666523,790.54944,800.6227,792.5641,803.44324,593.5165,-0.19342041015625,0.08453369140625,0.9891357421875,-0.13458251953125,-1.622467041015625,-1.016845703125,1,1.0,1.0,1.0,1.0,10.00
2024-10-11 20:39:55.713,0.36668792,-0.28092048,0.39201722,0.42492557,0.42170313,-0.37267178,0.013196419,0.34575492,0.686054,-0.13639595,0.24904831,0.78563356,0.61129475,-0.10446333,0.03586648,0.45484227,0.104431294,-0.36422887,-0.17623644,-0.04666523,804.65204,794.9817,790.54944,800.2198,725.6777,-0.19342041015625,0.08453369140625,0.9891357421875,-0.13458251953125,-1.622467041015625,-1.016845703125,1,1.0,1.0,1.0,1.0,10.00
2024-10-11 20:39:55.714,0.36668792,-0.28092048,0.39201722,0.42492557,0.42170313,-0.37267178,0.013196419,0.34575492,0.686054,-0.13639595,0.24904831,0.78563356,0.61129475,-0.10446333,0.03586648,0.45484227,0.104431294,-0.36422887,-0.17623644,-0.04666523,809.89014,796.99634,795.78754,799.41394,799.81683,-0.19342041015625,0.08453369140625,0.9891357421875,-0.13458251953125,-1.622467041015625,-1.016845703125,1,1.0,1.0,1.0,1.0,10.00
2024-10-11 20:39:55.714,0.36668792,-0.28092048,0.39201722,0.42492557,0.42170313,-0.37267178,0.013196419,0.34575492,0.686054,-0.13639595,0.24904831,0.78563356,0.61129475,-0.10446333,0.03586648,0.45484227,0.104431294,-0.36422887,-0.17623644,-0.04666523,800.6227,801.4286,796.5934,801.4286,716.8132,-0.19342041015625,0.08453369140625,0.9891357421875,-0.13458251953125,-1.622467041015625,-1.016845703125,1,1.0,1.0,1.0,1.0,10.00
2024-10-11 20:39:55.715,0.36668792,-0.28092048,0.39201722,0.42492557,0.42170313,-0.37267178,0.013196419,0.34575492,0.686054,-0.13639595,0.24904831,0.78563356,0.61129475,-0.10446333,0.03586648,0.45484227,0.104431294,-0.36422887,-0.17623644,-0.04666523,803.44324,803.0403,800.2198,810.696,676.1172,-0.19342041015625,0.08453369140625,0.9891357421875,-0.13458251953125,-1.622467041015625,-1.016845703125,1,1.0,1.0,1.0,1.0,10.00
2024-10-11 20:39:55.715,0.36668792,-0.28092048,0.39201722,0.42492557,0.42170313,-0.37267178,0.013196419,0.34575492,0.686054,-0.13639595,0.24904831,0.78563356,0.61129475,-0.10446333,0.03586648,0.45484227,0.104431294,-0.36422887,-0.17623644,-0.04666523,809.0842,801.8315,804.2491,811.9048,793.36993,-0.19342041015625,0.08453369140625,0.9891357421875,-0.13458251953125,-1.622467041015625,-1.016845703125,1,1.0,1.0,1.0,1.0,10.00
2024-10-11 20:39:55.716,0.36668792,-0.28092048,0.39201722,0.42492557,0.42170313,-0.37267178,0.013196419,0.34575492,0.686054,-0.13639595,0.24904831,0.78563356,0.61129475,-0.10446333,0.03586648,0.45484227,0.104431294,-0.36422887,-0.17623644,-0.04666523,798.60803,799.81683,803.44324,803.8461,845.34796,-0.19342041015625,0.08453369140625,0.9891357421875,-0.13458251953125,-1.622467041015625,-1.016845703125,1,1.0,1.0,1.0,1.0,10.00
2024-10-11 20:39:55.716,0.36668792,-0.28092048,0.39201722,0.42492557,0.42170313,-0.37267178,0.013196419,0.34575492,0.686054,-0.13639595,0.24904831,0.78563356,0.61129475,-0.10446333,0.03586648,0.45484227,0.104431294,-0.36422887,-0.17623644,-0.04666523,792.1612,798.20514,796.5934,805.8608,776.8498,-0.19342041015625,0.08453369140625,0.9891357421875,-0.13458251953125,-1.622467041015625,-1.016845703125,1,1.0,1.0,1.0,1.0,10.00
2024-10-11 20:39:55.743,0.36668792,-0.28092048,0.39201722,0.42492557,0.42170313,-0.37267178,0.013196419,0.34575492,0.686054,-0.13639595,0.24904831,0.78563356,0.61129475,-0.10446333,0.03586648,0.45484227,0.104431294,-0.36422887,-0.17623644,-0.04666523,806.26373,795.78754,793.36993,813.5165,796.99634,-0.19342041015625,0.08453369140625,0.9891357421875,-0.13458251953125,-1.622467041015625,-1.016845703125,1,1.0,1.0,1.0,1.0,10.00
2024-10-11 20:39:55.744,0.41492453,-0.2614789,0.34089896,0.4278506,0.4872307,-0.40462545,-0.039297666,0.43533096,0.69046766,-0.14137782,0.20519876,0.80144155,0.60851246,-0.12631765,0.024269389,0.45658907,0.07956664,-0.35632542,-0.15444368,-0.015815629,801.02563,794.9817,795.78754,813.5165,821.5751,-0.19342041015625,0.08453369140625,0.9891357421875,-0.13458251953125,-1.622467041015625,-1.016845703125,1,1.0,1.0,1.0,1.0,10.00
2024-10-11 20:39:55.749,0.41492453,-0.2614789,0.34089896,0.4278506,0.4872307,-0.40462545,-0.039297666,0.43533096,0.69046766,-0.14137782,0.20519876,0.80144155,0.60851246,-0.12631765,0.024269389,0.45658907,0.07956664,-0.35632542,-0.15444368,-0.015815629,793.36993,796.1905,794.9817,809.89014,782.8938,-0.19342041015625,0.08453369140625,0.9891357421875,-0.13458251953125,-1.622467041015625,-1.016845703125,1,1.0,1.0,1.0,1.0,10.00
2024-10-11 20:39:55.750,0.41492453,-0.2614789,0.34089896,0.4278506,0.4872307,-0.40462545,-0.039297666,0.43533096,0.69046766,-0.14137782,0.20519876,0.80144155,0.60851246,-0.12631765,0.024269389,0.45658907,0.07956664,-0.35632542,-0.15444368,-0.015815629,797.8022,801.8315,803.8461,813.91943,690.6227,-0.19342041015625,0.08453369140625,0.9891357421875,-0.13458251953125,-1.622467041015625,-1.016845703125,1,1.0,1.0,1.0,1.0,10.00
2024-10-11 20:39:55.751,0.41492453,-0.2614789,0.34089896,0.4278506,0.4872307,-0.40462545,-0.039297666,0.43533096,0.69046766,-0.14137782,0.20519876,0.80144155,0.60851246,-0.12631765,0.024269389,0.45658907,0.07956664,-0.35632542,-0.15444368,-0.015815629,795.78754,804.65204,802.6374,818.7546,678.1319,-0.19342041015625,0.08453369140625,0.9891357421875,-0.13458251953125,-1.622467041015625,-1.016845703125,1,1.0,1.0,1.0,1.0,10.00
2024-10-11 20:39:55.751,0.41492453,-0.2614789,0.34089896,0.4278506,0.4872307,-0.40462545,-0.039297666,0.43533096,0.69046766,-0.14137782,0.20519876,0.80144155,0.60851246,-0.12631765,0.024269389,0.45658907,0.07956664,-0.35632542,-0.15444368,-0.015815629,794.9817,801.02563,795.78754,813.1135,922.3077,-0.19342041015625,0.08453369140625,0.9891357421875,-0.13458251953125,-1.622467041015625,-1.016845703125,1,1.0,1.0,1.0,1.0,10.00
2024-10-11 20:39:55.752,0.41492453,-0.2614789,0.34089896,0.4278506,0.4872307,-0.40462545,-0.039297666,0.43533096,0.69046766,-0.14137782,0.20519876,0.80144155,0.60851246,-0.12631765,0.024269389,0.45658907,0.07956664,-0.35632542,-0.15444368,-0.015815629,799.81683,799.81683,803.0403,804.65204,923.5165,-0.19342041015625,0.08453369140625,0.9891357421875,-0.13458251953125,-1.622467041015625,-1.016845703125,1,1.0,1.0,1.0,1.0,10.00
2024-10-11 20:39:55.753,0.41492453,-0.2614789,0.34089896,0.4278506,0.4872307,-0.40462545,-0.039297666,0.43533096,0.69046766,-0.14137782,0.20519876,0.80144155,0.60851246,-0.12631765,0.024269389,0.45658907,0.07956664,-0.35632542,-0.15444368,-0.015815629,810.696,797.8022,810.293,805.4579,713.5897,-0.19342041015625,0.08453369140625,0.9891357421875,-0.13458251953125,-1.622467041015625,-1.016845703125,1,1.0,1.0,1.0,1.0,10.00
2024-10-11 20:39:55.753,0.41492453,-0.2614789,0.34089896,0.4278506,0.4872307,-0.40462545,-0.039297666,0.43533096,0.69046766,-0.14137782,0.20519876,0.80144155,0.60851246,-0.12631765,0.024269389,0.45658907,0.07956664,-0.35632542,-0.15444368,-0.015815629,802.6374,796.99634,809.0842,808.68134,781.685,-0.19342041015625,0.08453369140625,0.9891357421875,-0.13458251953125,-1.622467041015625,-1.016845703125,1,1.0,1.0,1.0,1.0,10.00
2024-10-11 20:39:55.754,0.41492453,-0.2614789,0.34089896,0.4278506,0.4872307,-0.40462545,-0.039297666,0.43533096,0.69046766,-0.14137782,0.20519876,0.80144155,0.60851246,-0.12631765,0.024269389,0.45658907,0.07956664,-0.35632542,-0.15444368,-0.015815629,789.34064,799.011,805.4579,816.337,1041.978,-0.19342041015625,0.08453369140625,0.9891357421875,-0.13458251953125,-1.622467041015625,-1.016845703125,1,1.0,1.0,1.0,1.0,10.00
2024-10-11 20:39:55.754,0.41492453,-0.2614789,0.34089896,0.4278506,0.4872307,-0.40462545,-0.039297666,0.43533096,0.69046766,-0.14137782,0.20519876,0.80144155,0.60851246,-0.12631765,0.024269389,0.45658907,0.07956664,-0.35632542,-0.15444368,-0.015815629,792.1612,802.6374,801.02563,807.0696,821.1722,-0.19342041015625,0.08453369140625,0.9891357421875,-0.13458251953125,-1.622467041015625,-1.016845703125,1,1.0,1.0,1.0,1.0,10.00
2024-10-11 20:39:55.755,0.41492453,-0.2614789,0.34089896,0.4278506,0.4872307,-0.40462545,-0.039297666,0.43533096,0.69046766,-0.14137782,0.20519876,0.80144155,0.60851246,-0.12631765,0.024269389,0.45658907,0.07956664,-0.35632542,-0.15444368,-0.015815629,794.57874,804.65204,796.5934,800.6227,532.27106,-0.19342041015625,0.08453369140625,0.9891357421875,-0.13458251953125,-1.622467041015625,-1.016845703125,1,1.0,1.0,1.0,1.0,10.00
2024-10-11 20:39:55.780,0.41492453,-0.2614789,0.34089896,0.4278506,0.4872307,-0.40462545,-0.039297666,0.43533096,0.69046766,-0.14137782,0.20519876,0.80144155,0.60851246,-0.12631765,0.024269389,0.45658907,0.07956664,-0.35632542,-0.15444368,-0.015815629,799.41394,803.8461,796.1905,804.65204,659.19415,-0.19439697265625,0.07757568359375,0.9859619140625,-0.874786376953125,-2.811279296875,-0.530853271484375,1,1.0,1.0,1.0,1.0,10.00
2024-10-11 20:39:55.781,0.41492453,-0.2614789,0.34089896,0.4278506,0.4872307,-0.40462545,-0.039297666,0.43533096,0.69046766,-0.14137782,0.20519876,0.80144155,0.60851246,-0.12631765,0.024269389,0.45658907,0.07956664,-0.35632542,-0.15444368,-0.015815629,803.44324,803.8461,801.4286,796.99634,726.08057,-0.19439697265625,0.07757568359375,0.9859619140625,-0.874786376953125,-2.811279296875,-0.530853271484375,1,1.0,1.0,1.0,1.0,10.00
2024-10-11 20:39:55.781,0.41492453,-0.2614789,0.34089896,0.4278506,0.4872307,-0.40462545,-0.039297666,0.43533096,0.69046766,-0.14137782,0.20519876,0.80144155,0.60851246,-0.12631765,0.024269389,0.45658907,0.07956664,-0.35632542,-0.15444368,-0.015815629,807.8755,804.65204,803.44324,798.20514,688.20514,-0.19439697265625,0.07757568359375,0.9859619140625,-0.874786376953125,-2.811279296875,-0.530853271484375,1,1.0,1.0,1.0,1.0,10.00
2024-10-11 20:39:55.782,0.41492453,-0.2614789,0.34089896,0.4278506,0.4872307,-0.40462545,-0.039297666,0.43533096,0.69046766,-0.14137782,0.20519876,0.80144155,0.60851246,-0.12631765,0.024269389,0.45658907,0.07956664,-0.35632542,-0.15444368,-0.015815629,807.0696,803.8461,801.8315,795.38464,634.61536,-0.19439697265625,0.07757568359375,0.9859619140625,-0.874786376953125,-2.811279296875,-0.530853271484375,1,1.0,1.0,1.0,1.0,10.00
2024-10-11 20:39:55.783,0.41492453,-0.2614789,0.34089896,0.4278506,0.4872307,-0.40462545,-0.039297666,0.43533096,0.69046766,-0.14137782,0.20519876,0.80144155,0.60851246,-0.12631765,0.024269389,0.45658907,0.07956664,-0.35632542,-0.15444368,-0.015815629,804.65204,799.41394,803.8461,799.011,731.31866,-0.19439697265625,0.07757568359375,0.9859619140625,-0.874786376953125,-2.811279296875,-0.530853271484375,1,1.0,1.0,1.0,1.0,10.00
2024-10-11 20:39:55.783,0.41492453,-0.2614789,0.34089896,0.4278506,0.4872307,-0.40462545,-0.039297666,0.43533096,0.69046766,-0.14137782,0.20519876,0.80144155,0.60851246,-0.12631765,0.024269389,0.45658907,0.07956664,-0.35632542,-0.15444368,-0.015815629,805.8608,796.1905,807.47253,805.8608,890.87915,-0.19439697265625,0.07757568359375,0.9859619140625,-0.874786376953125,-2.811279296875,-0.530853271484375,1,1.0,1.0,1.0,1.0,10.00
2024-10-11 20:39:55.784,0.41492453,-0.2614789,0.34089896,0.4278506,0.4872307,-0.40462545,-0.039297666,0.43533096,0.69046766,-0.14137782,0.20519876,0.80144155,0.60851246,-0.12631765,0.024269389,0.45658907,0.07956664,-0.35632542,-0.15444368,-0.015815629,799.41394,794.17584,805.8608,801.4286,945.2747,-0.19439697265625,0.07757568359375,0.9859619140625,-0.874786376953125,-2.811279296875,-0.530853271484375,1,1.0,1.0,1.0,1.0,10.00
2024-10-11 20:39:55.784,0.41492453,-0.2614789,0.34089896,0.4278506,0.4872307,-0.40462545,-0.039297666,0.43533096,0.69046766,-0.14137782,0.20519876,0.80144155,0.60851246,-0.12631765,0.024269389,0.45658907,0.07956664,-0.35632542,-0.15444368,-0.015815629,794.9817,793.7729,794.9817,795.38464,963.4066,-0.19439697265625,0.07757568359375,0.9859619140625,-0.874786376953125,-2.811279296875,-0.530853271484375,1,1.0,1.0,1.0,1.0,10.00
2024-10-11 20:39:55.785,0.41492453,-0.2614789,0.34089896,0.4278506,0.4872307,-0.40462545,-0.039297666,0.43533096,0.69046766,-0.14137782,0.20519876,0.80144155,0.60851246,-0.12631765,0.024269389,0.45658907,0.07956664,-0.35632542,-0.15444368,-0.015815629,798.60803,796.1905,789.7436,791.75824,998.0586,-0.19439697265625,0.07757568359375,0.9859619140625,-0.874786376953125,-2.811279296875,-0.530853271484375,1,1.0,1.0,1.0,1.0,10.00
2024-10-11 20:39:55.785,0.41492453,-0.2614789,0.34089896,0.4278506,0.4872307,-0.40462545,-0.039297666,0.43533096,0.69046766,-0.14137782,0.20519876,0.80144155,0.60851246,-0.12631765,0.024269389,0.45658907,0.07956664,-0.35632542,-0.15444368,-0.015815629,798.60803,802.23444,799.81683,797.3993,939.2308,-0.19439697265625,0.07757568359375,0.9859619140625,-0.874786376953125,-2.811279296875,-0.530853271484375,1,1.0,1.0,1.0,1.0,10.00
2024-10-11 20:39:55.786,0.41492453,-0.2614789,0.34089896,0.4278506,0.4872307,-0.40462545,-0.039297666,0.43533096,0.69046766,-0.14137782,0.20519876,0.80144155,0.60851246,-0.12631765,0.024269389,0.45658907,0.07956664,-0.35632542,-0.15444368,-0.015815629,795.38464,809.4872,801.4286,799.81683,819.5604,-0.19439697265625,0.07757568359375,0.9859619140625,-0.874786376953125,-2.811279296875,-0.530853271484375,1,1.0,1.0,1.0,1.0,10.00
2024-10-11 20:39:55.787,0.41492453,-0.2614789,0.34089896,0.4278506,0.4872307,-0.40462545,-0.039297666,0.43533096,0.69046766,-0.14137782,0.20519876,0.80144155,0.60851246,-0.12631765,0.024269389,0.45658907,0.07956664,-0.35632542,-0.15444368,-0.015815629,794.57874,802.6374,800.6227,801.02563,784.10254,-0.19439697265625,0.07757568359375,0.9859619140625,-0.874786376953125,-2.811279296875,-0.530853271484375,1,1.0,1.0,1.0,1.0,10.00
2024-10-11 20:39:55.851,0.41492453,-0.2614789,0.34089896,0.4278506,0.4872307,-0.40462545,-0.039297666,0.43533096,0.69046766,-0.14137782,0.20519876,0.80144155,0.60851246,-0.12631765,0.024269389,0.45658907,0.07956664,-0.35632542,-0.15444368,-0.015815629,794.17584,793.36993,805.4579,804.2491,987.1795,-0.2044677734375,0.08056640625,0.97467041015625,0.904693603515625,-3.0804443359375,-0.657958984375,1,1.0,1.0,1.0,1.0,10.00
2024-10-11 20:39:55.852,0.41492453,-0.2614789,0.34089896,0.4278506,0.4872307,-0.40462545,-0.039297666,0.43533096,0.69046766,-0.14137782,0.20519876,0.80144155,0.60851246,-0.12631765,0.024269389,0.45658907,0.07956664,-0.35632542,-0.15444368,-0.015815629,792.96704,795.38464,802.23444,805.05493,1041.978,-0.2044677734375,0.08056640625,0.97467041015625,0.904693603515625,-3.0804443359375,-0.657958984375,1,1.0,1.0,1.0,1.0,10.00
2024-10-11 20:39:55.853,0.41492453,-0.2614789,0.34089896,0.4278506,0.4872307,-0.40462545,-0.039297666,0.43533096,0.69046766,-0.14137782,0.20519876,0.80144155,0.60851246,-0.12631765,0.024269389,0.45658907,0.07956664,-0.35632542,-0.15444368,-0.015815629,798.20514,801.4286,807.8755,808.2784,764.7619,-0.2044677734375,0.08056640625,0.97467041015625,0.904693603515625,-3.0804443359375,-0.657958984375,1,1.0,1.0,1.0,1.0,10.00
2024-10-11 20:39:55.853,0.44656187,-0.22367483,0.29740703,0.44263387,0.5585847,-0.4322277,-0.08393469,0.5199837,0.71234083,-0.17164294,0.15157211,0.78715616,0.60600704,-0.13900264,0.013009241,0.46636567,0.06284087,-0.3346139,-0.13241027,0.029484427,799.81683,800.6227,806.6667,806.26373,718.4249,-0.2044677734375,0.08056640625,0.97467041015625,0.904693603515625,-3.0804443359375,-0.657958984375,1,1.0,1.0,1.0,1.0,10.00
2024-10-11 20:39:55.859,0.44656187,-0.22367483,0.29740703,0.44263387,0.5585847,-0.4322277,-0.08393469,0.5199837,0.71234083,-0.17164294,0.15157211,0.78715616,0.60600704,-0.13900264,0.013009241,0.46636567,0.06284087,-0.3346139,-0.13241027,0.029484427,797.3993,800.2198,799.41394,801.4286,672.0879,-0.2044677734375,0.08056640625,0.97467041015625,0.904693603515625,-3.0804443359375,-0.657958984375,1,1.0,1.0,1.0,1.0,10.00
2024-10-11 20:39:55.859,0.44656187,-0.22367483,0.29740703,0.44263387,0.5585847,-0.4322277,-0.08393469,0.5199837,0.71234083,-0.17164294,0.15157211,0.78715616,0.60600704,-0.13900264,0.013009241,0.46636567,0.06284087,-0.3346139,-0.13241027,0.029484427,802.23444,803.44324,801.02563,801.4286,701.50183,-0.2044677734375,0.08056640625,0.97467041015625,0.904693603515625,-3.0804443359375,-0.657958984375,1,1.0,1.0,1.0,1.0,10.00
2024-10-11 20:39:55.860,0.44656187,-0.22367483,0.29740703,0.44263387,0.5585847,-0.4322277,-0.08393469,0.5199837,0.71234083,-0.17164294,0.15157211,0.78715616,0.60600704,-0.13900264,0.013009241,0.46636567,0.06284087,-0.3346139,-0.13241027,0.029484427,808.2784,804.65204,801.8315,802.23444,739.3773,-0.2044677734375,0.08056640625,0.97467041015625,0.904693603515625,-3.0804443359375,-0.657958984375,1,1.0,1.0,1.0,1.0,10.00
2024-10-11 20:39:55.860,0.44656187,-0.22367483,0.29740703,0.44263387,0.5585847,-0.4322277,-0.08393469,0.5199837,0.71234083,-0.17164294,0.15157211,0.78715616,0.60600704,-0.13900264,0.013009241,0.46636567,0.06284087,-0.3346139,-0.13241027,0.029484427,806.6667,800.6227,799.81683,797.8022,730.10986,-0.2044677734375,0.08056640625,0.97467041015625,0.904693603515625,-3.0804443359375,-0.657958984375,1,1.0,1.0,1.0,1.0,10.00
2024-10-11 20:39:55.861,0.44656187,-0.22367483,0.29740703,0.44263387,0.5585847,-0.4322277,-0.08393469,0.5199837,0.71234083,-0.17164294,0.15157211,0.78715616,0.60600704,-0.13900264,0.013009241,0.46636567,0.06284087,-0.3346139,-0.13241027,0.029484427,794.17584,793.36993,797.3993,799.41394,1100.0,-0.2044677734375,0.08056640625,0.97467041015625,0.904693603515625,-3.0804443359375,-0.657958984375,1,1.0,1.0,1.0,1.0,10.00
2024-10-11 20:39:55.862,0.44656187,-0.22367483,0.29740703,0.44263387,0.5585847,-0.4322277,-0.08393469,0.5199837,0.71234083,-0.17164294,0.15157211,0.78715616,0.60600704,-0.13900264,0.013009241,0.46636567,0.06284087,-0.3346139,-0.13241027,0.029484427,792.1612,792.5641,794.17584,803.44324,960.18317,-0.2044677734375,0.08056640625,0.97467041015625,0.904693603515625,-3.0804443359375,-0.657958984375,1,1.0,1.0,1.0,1.0,10.00
2024-10-11 20:39:55.862,0.44656187,-0.22367483,0.29740703,0.44263387,0.5585847,-0.4322277,-0.08393469,0.5199837,0.71234083,-0.17164294,0.15157211,0.78715616,0.60600704,-0.13900264,0.013009241,0.46636567,0.06284087,-0.3346139,-0.13241027,0.029484427,795.78754,797.3993,797.3993,796.99634,555.64105,-0.2044677734375,0.08056640625,0.97467041015625,0.904693603515625,-3.0804443359375,-0.657958984375,1,1.0,1.0,1.0,1.0,10.00
2024-10-11 20:39:55.863,0.44656187,-0.22367483,0.29740703,0.44263387,0.5585847,-0.4322277,-0.08393469,0.5199837,0.71234083,-0.17164294,0.15157211,0.78715616,0.60600704,-0.13900264,0.013009241,0.46636567,0.06284087,-0.3346139,-0.13241027,0.029484427,798.60803,792.5641,802.6374,790.9524,640.65936,-0.2044677734375,0.08056640625,0.97467041015625,0.904693603515625,-3.0804443359375,-0.657958984375,1,1.0,1.0,1.0,1.0,10.00
2024-10-11 20:39:55.888,0.44656187,-0.22367483,0.29740703,0.44263387,0.5585847,-0.4322277,-0.08393469,0.5199837,0.71234083,-0.17164294,0.15157211,0.78715616,0.60600704,-0.13900264,0.013009241,0.46636567,0.06284087,-0.3346139,-0.13241027,0.029484427,794.57874,793.7729,799.81683,786.52014,626.55676,-0.198974609375,0.08819580078125,0.99176025390625,1.891632080078125,-2.3626708984375,-2.071075439453125,1,1.0,1.0,1.0,1.0,10.00
2024-10-11 20:39:55.889,0.44656187,-0.22367483,0.29740703,0.44263387,0.5585847,-0.4322277,-0.08393469,0.5199837,0.71234083,-0.17164294,0.15157211,0.78715616,0.60600704,-0.13900264,0.013009241,0.46636567,0.06284087,-0.3346139,-0.13241027,0.029484427,792.96704,804.65204,803.44324,786.52014,598.3516,-0.198974609375,0.08819580078125,0.99176025390625,1.891632080078125,-2.3626708984375,-2.071075439453125,1,1.0,1.0,1.0,1.0,10.00
2024-10-11 20:39:55.889,0.44656187,-0.22367483,0.29740703,0.44263387,0.5585847,-0.4322277,-0.08393469,0.5199837,0.71234083,-0.17164294,0.15157211,0.78715616,0.60600704,-0.13900264,0.013009241,0.46636567,0.06284087,-0.3346139,-0.13241027,0.029484427,798.20514,805.4579,807.0696,796.1905,617.28937,-0.198974609375,0.08819580078125,0.99176025390625,1.891632080078125,-2.3626708984375,-2.071075439453125,1,1.0,1.0,1.0,1.0,10.00
2024-10-11 20:39:55.890,0.44656187,-0.22367483,0.29740703,0.44263387,0.5585847,-0.4322277,-0.08393469,0.5199837,0.71234083,-0.17164294,0.15157211,0.78715616,0.60600704,-0.13900264,0.013009241,0.46636567,0.06284087,-0.3346139,-0.13241027,0.029484427,804.2491,797.3993,799.81683,798.20514,684.9817,-0.198974609375,0.08819580078125,0.99176025390625,1.891632080078125,-2.3626708984375,-2.071075439453125,1,1.0,1.0,1.0,1.0,10.00
2024-10-11 20:39:55.891,0.44656187,-0.22367483,0.29740703,0.44263387,0.5585847,-0.4322277,-0.08393469,0.5199837,0.71234083,-0.17164294,0.15157211,0.78715616,0.60600704,-0.13900264,0.013009241,0.46636567,0.06284087,-0.3346139,-0.13241027,0.029484427,804.2491,798.60803,799.41394,790.54944,709.9634,-0.198974609375,0.08819580078125,0.99176025390625,1.891632080078125,-2.3626708984375,-2.071075439453125,1,1.0,1.0,1.0,1.0,10.00
2024-10-11 20:39:55.891,0.44656187,-0.22367483,0.29740703,0.44263387,0.5585847,-0.4322277,-0.08393469,0.5199837,0.71234083,-0.17164294,0.15157211,0.78715616,0.60600704,-0.13900264,0.013009241,0.46636567,0.06284087,-0.3346139,-0.13241027,0.029484427,807.47253,799.011,805.8608,790.54944,643.0769,-0.198974609375,0.08819580078125,0.99176025390625,1.891632080078125,-2.3626708984375,-2.071075439453125,1,1.0,1.0,1.0,1.0,10.00
2024-10-11 20:39:55.892,0.44656187,-0.22367483,0.29740703,0.44263387,0.5585847,-0.4322277,-0.08393469,0.5199837,0.71234083,-0.17164294,0.15157211,0.78715616,0.60600704,-0.13900264,0.013009241,0.46636567,0.06284087,-0.3346139,-0.13241027,0.029484427,807.0696,792.1612,797.8022,790.54944,740.989,-0.198974609375,0.08819580078125,0.99176025390625,1.891632080078125,-2.3626708984375,-2.071075439453125,1,1.0,1.0,1.0,1.0,10.00
2024-10-11 20:39:55.892,0.44656187,-0.22367483,0.29740703,0.44263387,0.5585847,-0.4322277,-0.08393469,0.5199837,0.71234083,-0.17164294,0.15157211,0.78715616,0.60600704,-0.13900264,0.013009241,0.46636567,0.06284087,-0.3346139,-0.13241027,0.029484427,788.93774,788.5348,795.78754,788.5348,937.619,-0.198974609375,0.08819580078125,0.99176025390625,1.891632080078125,-2.3626708984375,-2.071075439453125,1,1.0,1.0,1.0,1.0,10.00
2024-10-11 20:39:55.893,0.44656187,-0.22367483,0.29740703,0.44263387,0.5585847,-0.4322277,-0.08393469,0.5199837,0.71234083,-0.17164294,0.15157211,0.78715616,0.60600704,-0.13900264,0.013009241,0.46636567,0.06284087,-0.3346139,-0.13241027,0.029484427,788.5348,790.14655,798.20514,787.72894,878.7912,-0.198974609375,0.08819580078125,0.99176025390625,1.891632080078125,-2.3626708984375,-2.071075439453125,1,1.0,1.0,1.0,1.0,10.00
2024-10-11 20:39:55.893,0.44656187,-0.22367483,0.29740703,0.44263387,0.5585847,-0.4322277,-0.08393469,0.5199837,0.71234083,-0.17164294,0.15157211,0.78715616,0.60600704,-0.13900264,0.013009241,0.46636567,0.06284087,-0.3346139,-0.13241027,0.029484427,800.2198,793.7729,798.60803,793.36993,705.5311,-0.198974609375,0.08819580078125,0.99176025390625,1.891632080078125,-2.3626708984375,-2.071075439453125,1,1.0,1.0,1.0,1.0,10.00
2024-10-11 20:39:55.894,0.44656187,-0.22367483,0.29740703,0.44263387,0.5585847,-0.4322277,-0.08393469,0.5199837,0.71234083,-0.17164294,0.15157211,0.78715616,0.60600704,-0.13900264,0.013009241,0.46636567,0.06284087,-0.3346139,-0.13241027,0.029484427,797.8022,796.99634,806.6667,792.96704,641.06226,-0.198974609375,0.08819580078125,0.99176025390625,1.891632080078125,-2.3626708984375,-2.071075439453125,1,1.0,1.0,1.0,1.0,10.00
2024-10-11 20:39:55.896,0.44656187,-0.22367483,0.29740703,0.44263387,0.5585847,-0.4322277,-0.08393469,0.5199837,0.71234083,-0.17164294,0.15157211,0.78715616,0.60600704,-0.13900264,0.013009241,0.46636567,0.06284087,-0.3346139,-0.13241027,0.029484427,796.5934,796.5934,811.9048,804.65204,1012.1612,-0.198974609375,0.08819580078125,0.99176025390625,1.891632080078125,-2.3626708984375,-2.071075439453125,1,1.0,1.0,1.0,1.0,10.00
2024-10-11 20:39:55.987,0.44656187,-0.22367483,0.29740703,0.44263387,0.5585847,-0.4322277,-0.08393469,0.5199837,0.71234083,-0.17164294,0.15157211,0.78715616,0.60600704,-0.13900264,0.013009241,0.46636567,0.06284087,-0.3346139,-0.13241027,0.029484427,791.75824,794.57874,804.65204,808.68134,1074.2124,-0.19305419921875,0.08880615234375,0.98980712890625,1.637420654296875,-2.9010009765625,-2.071075439453125,1,1.0,1.0,1.0,1.0,10.00
2024-10-11 20:39:55.988,0.44656187,-0.22367483,0.29740703,0.44263387,0.5585847,-0.4322277,-0.08393469,0.5199837,0.71234083,-0.17164294,0.15157211,0.78715616,0.60600704,-0.13900264,0.013009241,0.46636567,0.06284087,-0.3346139,-0.13241027,0.029484427,791.3553,796.1905,800.2198,794.9817,624.5421,-0.19305419921875,0.08880615234375,0.98980712890625,1.637420654296875,-2.9010009765625,-2.071075439453125,1,1.0,1.0,1.0,1.0,10.00
2024-10-11 20:39:55.988,0.44656187,-0.22367483,0.29740703,0.44263387,0.5585847,-0.4322277,-0.08393469,0.5199837,0.71234083,-0.17164294,0.15157211,0.78715616,0.60600704,-0.13900264,0.013009241,0.46636567,0.06284087,-0.3346139,-0.13241027,0.029484427,797.8022,796.5934,800.6227,794.17584,539.92676,-0.19305419921875,0.08880615234375,0.98980712890625,1.637420654296875,-2.9010009765625,-2.071075439453125,1,1.0,1.0,1.0,1.0,10.00
2024-10-11 20:39:55.989,0.44656187,-0.22367483,0.29740703,0.44263387,0.5585847,-0.4322277,-0.08393469,0.5199837,0.71234083,-0.17164294,0.15157211,0.78715616,0.60600704,-0.13900264,0.013009241,0.46636567,0.06284087,-0.3346139,-0.13241027,0.029484427,803.44324,795.38464,797.8022,796.5934,655.56775,-0.19305419921875,0.08880615234375,0.98980712890625,1.637420654296875,-2.9010009765625,-2.071075439453125,1,1.0,1.0,1.0,1.0,10.00
2024-10-11 20:39:55.989,0.44656187,-0.22367483,0.29740703,0.44263387,0.5585847,-0.4322277,-0.08393469,0.5199837,0.71234083,-0.17164294,0.15157211,0.78715616,0.60600704,-0.13900264,0.013009241,0.46636567,0.06284087,-0.3346139,-0.13241027,0.029484427,800.6227,792.96704,803.44324,789.7436,726.8865,-0.19305419921875,0.08880615234375,0.98980712890625,1.637420654296875,-2.9010009765625,-2.071075439453125,1,1.0,1.0,1.0,1.0,10.00
2024-10-11 20:39:55.990,0.4644843,-0.17209394,0.26838163,0.4623516,0.6139584,-0.44105712,-0.09940106,0.5903793,0.728901,-0.20830303,0.12242518,0.7989909,0.5951742,-0.14083281,0.009946206,0.475712,0.056902308,-0.3018673,-0.117409386,0.07845825,792.96704,794.9817,801.02563,782.49084,736.9597,-0.19305419921875,0.08880615234375,0.98980712890625,1.637420654296875,-2.9010009765625,-2.071075439453125,1,1.0,1.0,1.0,1.0,10.00
2024-10-11 20:39:55.995,0.4644843,-0.17209394,0.26838163,0.4623516,0.6139584,-0.44105712,-0.09940106,0.5903793,0.728901,-0.20830303,0.12242518,0.7989909,0.5951742,-0.14083281,0.009946206,0.475712,0.056902308,-0.3018673,-0.117409386,0.07845825,788.5348,795.78754,795.38464,788.93774,817.5458,-0.19305419921875,0.08880615234375,0.98980712890625,1.637420654296875,-2.9010009765625,-2.071075439453125,1,1.0,1.0,1.0,1.0,10.00
2024-10-11 20:39:55.996,0.4644843,-0.17209394,0.26838163,0.4623516,0.6139584,-0.44105712,-0.09940106,0.5903793,0.728901,-0.20830303,0.12242518,0.7989909,0.5951742,-0.14083281,0.009946206,0.475712,0.056902308,-0.3018673,-0.117409386,0.07845825,792.96704,794.17584,799.41394,801.02563,1167.6923,-0.19305419921875,0.08880615234375,0.98980712890625,1.637420654296875,-2.9010009765625,-2.071075439453125,1,1.0,1.0,1.0,1.0,10.00
2024-10-11 20:39:55.997,0.4644843,-0.17209394,0.26838163,0.4623516,0.6139584,-0.44105712,-0.09940106,0.5903793,0.728901,-0.20830303,0.12242518,0.7989909,0.5951742,-0.14083281,0.009946206,0.475712,0.056902308,-0.3018673,-0.117409386,0.07845825,799.81683,797.8022,805.4579,799.41394,1002.0879,-0.19305419921875,0.08880615234375,0.98980712890625,1.637420654296875,-2.9010009765625,-2.071075439453125,1,1.0,1.0,1.0,1.0,10.00
2024-10-11 20:39:55.998,0.4644843,-0.17209394,0.26838163,0.4623516,0.6139584,-0.44105712,-0.09940106,0.5903793,0.728901,-0.20830303,0.12242518,0.7989909,0.5951742,-0.14083281,0.009946206,0.475712,0.056902308,-0.3018673,-0.117409386,0.07845825,807.47253,797.8022,804.65204,785.31134,569.34064,-0.19305419921875,0.08880615234375,0.98980712890625,1.637420654296875,-2.9010009765625,-2.071075439453125,1,1.0,1.0,1.0,1.0,10.00
2024-10-11 20:39:55.998,0.4644843,-0.17209394,0.26838163,0.4623516,0.6139584,-0.44105712,-0.09940106,0.5903793,0.728901,-0.20830303,0.12242518,0.7989909,0.5951742,-0.14083281,0.009946206,0.475712,0.056902308,-0.3018673,-0.117409386,0.07845825,805.8608,796.99634,796.99634,785.31134,610.0366,-0.19305419921875,0.08880615234375,0.98980712890625,1.637420654296875,-2.9010009765625,-2.071075439453125,1,1.0,1.0,1.0,1.0,10.00
2024-10-11 20:39:55.999,0.4644843,-0.17209394,0.26838163,0.4623516,0.6139584,-0.44105712,-0.09940106,0.5903793,0.728901,-0.20830303,0.12242518,0.7989909,0.5951742,-0.14083281,0.009946206,0.475712,0.056902308,-0.3018673,-0.117409386,0.07845825,797.3993,798.60803,793.7729,788.5348,664.0293,-0.19305419921875,0.08880615234375,0.98980712890625,1.637420654296875,-2.9010009765625,-2.071075439453125,1,1.0,1.0,1.0,1.0,10.00
2024-10-11 20:39:56.023,0.4644843,-0.17209394,0.26838163,0.4623516,0.6139584,-0.44105712,-0.09940106,0.5903793,0.728901,-0.20830303,0.12242518,0.7989909,0.5951742,-0.14083281,0.009946206,0.475712,0.056902308,-0.3018673,-0.117409386,0.07845825,800.6227,798.60803,803.8461,790.9524,619.707,-0.2003173828125,0.08892822265625,0.987548828125,1.801910400390625,-0.186920166015625,-2.1234130859375,1,1.0,1.0,1.0,1.0,10.00
2024-10-11 20:39:56.024,0.4644843,-0.17209394,0.26838163,0.4623516,0.6139584,-0.44105712,-0.09940106,0.5903793,0.728901,-0.20830303,0.12242518,0.7989909,0.5951742,-0.14083281,0.009946206,0.475712,0.056902308,-0.3018673,-0.117409386,0.07845825,798.20514,794.17584,805.05493,791.3553,595.5311,-0.2003173828125,0.08892822265625,0.987548828125,1.801910400390625,-0.186920166015625,-2.1234130859375,1,1.0,1.0,1.0,1.0,10.00
2024-10-11 20:39:56.025,0.4644843,-0.17209394,0.26838163,0.4623516,0.6139584,-0.44105712,-0.09940106,0.5903793,0.728901,-0.20830303,0.12242518,0.7989909,0.5951742,-0.14083281,0.009946206,0.475712,0.056902308,-0.3018673,-0.117409386,0.07845825,789.34064,790.14655,797.3993,792.5641,811.0989,-0.2003173828125,0.08892822265625,0.987548828125,1.801910400390625,-0.186920166015625,-2.1234130859375,1,1.0,1.0,1.0,1.0,10.00
2024-10-11 20:39:56.026,0.4644843,-0.17209394,0.26838163,0.4623516,0.6139584,-0.44105712,-0.09940106,0.5903793,0.728901,-0.20830303,0.12242518,0.7989909,0.5951742,-0.14083281,0.009946206,0.475712,0.056902308,-0.3018673,-0.117409386,0.07845825,783.2967,793.36993,794.57874,794.9817,763.1502,-0.2003173828125,0.08892822265625,0.987548828125,1.801910400390625,-0.186920166015625,-2.1234130859375,1,1.0,1.0,1.0,1.0,10.00
2024-10-11 20:39:56.026,0.4644843,-0.17209394,0.26838163,0.4623516,0.6139584,-0.44105712,-0.09940106,0.5903793,0.728901,-0.20830303,0.12242518,0.7989909,0.5951742,-0.14083281,0.009946206,0.475712,0.056902308,-0.3018673,-0.117409386,0.07845825,792.5641,799.011,792.96704,791.75824,565.7143,-0.2003173828125,0.08892822265625,0.987548828125,1.801910400390625,-0.186920166015625,-2.1234130859375,1,1.0,1.0,1.0,1.0,10.00
2024-10-11 20:39:56.027,0.4644843,-0.17209394,0.26838163,0.4623516,0.6139584,-0.44105712,-0.09940106,0.5903793,0.728901,-0.20830303,0.12242518,0.7989909,0.5951742,-0.14083281,0.009946206,0.475712,0.056902308,-0.3018673,-0.117409386,0.07845825,794.17584,799.81683,798.60803,790.9524,730.10986,-0.2003173828125,0.08892822265625,0.987548828125,1.801910400390625,-0.186920166015625,-2.1234130859375,1,1.0,1.0,1.0,1.0,10.00
2024-10-11 20:39:56.027,0.4644843,-0.17209394,0.26838163,0.4623516,0.6139584,-0.44105712,-0.09940106,0.5903793,0.728901,-0.20830303,0.12242518,0.7989909,0.5951742,-0.14083281,0.009946206,0.475712,0.056902308,-0.3018673,-0.117409386,0.07845825,789.34064,790.14655,797.8022,792.96704,889.2674,-0.2003173828125,0.08892822265625,0.987548828125,1.801910400390625,-0.186920166015625,-2.1234130859375,1,1.0,1.0,1.0,1.0,10.00
2024-10-11 20:39:56.028,0.4644843,-0.17209394,0.26838163,0.4623516,0.6139584,-0.44105712,-0.09940106,0.5903793,0.728901,-0.20830303,0.12242518,0.7989909,0.5951742,-0.14083281,0.009946206,0.475712,0.056902308,-0.3018673,-0.117409386,0.07845825,793.7729,790.54944,794.9817,791.75824,805.4579,-0.2003173828125,0.08892822265625,0.987548828125,1.801910400390625,-0.186920166015625,-2.1234130859375,1,1.0,1.0,1.0,1.0,10.00
2024-10-11 20:39:56.028,0.4644843,-0.17209394,0.26838163,0.4623516,0.6139584,-0.44105712,-0.09940106,0.5903793,0.728901,-0.20830303,0.12242518,0.7989909,0.5951742,-0.14083281,0.009946206,0.475712,0.056902308,-0.3018673,-0.117409386,0.07845825,795.38464,798.20514,799.81683,794.17584,631.39197,-0.2003173828125,0.08892822265625,0.987548828125,1.801910400390625,-0.186920166015625,-2.1234130859375,1,1.0,1.0,1.0,1.0,10.00
2024-10-11 20:39:56.029,0.4644843,-0.17209394,0.26838163,0.4623516,0.6139584,-0.44105712,-0.09940106,0.5903793,0.728901,-0.20830303,0.12242518,0.7989909,0.5951742,-0.14083281,0.009946206,0.475712,0.056902308,-0.3018673,-0.117409386,0.07845825,785.31134,796.5934,798.20514,796.1905,583.0403,-0.2003173828125,0.08892822265625,0.987548828125,1.801910400390625,-0.186920166015625,-2.1234130859375,1,1.0,1.0,1.0,1.0,10.00
2024-10-11 20:39:56.030,0.4644843,-0.17209394,0.26838163,0.4623516,0.6139584,-0.44105712,-0.09940106,0.5903793,0.728901,-0.20830303,0.12242518,0.7989909,0.5951742,-0.14083281,0.009946206,0.475712,0.056902308,-0.3018673,-0.117409386,0.07845825,788.5348,796.5934,798.20514,796.1905,626.55676,-0.2003173828125,0.08892822265625,0.987548828125,1.801910400390625,-0.186920166015625,-2.1234130859375,1,1.0,1.0,1.0,1.0,10.00
2024-10-11 20:39:56.031,0.4644843,-0.17209394,0.26838163,0.4623516,0.6139584,-0.44105712,-0.09940106,0.5903793,0.728901,-0.20830303,0.12242518,0.7989909,0.5951742,-0.14083281,0.009946206,0.475712,0.056902308,-0.3018673,-0.117409386,0.07845825,793.36993,795.78754,798.20514,786.1172,676.1172,-0.2003173828125,0.08892822265625,0.987548828125,1.801910400390625,-0.186920166015625,-2.1234130859375,1,1.0,1.0,1.0,1.0,10.00
2024-10-11 20:39:56.031,0.4644843,-0.17209394,0.26838163,0.4623516,0.6139584,-0.44105712,-0.09940106,0.5903793,0.728901,-0.20830303,0.12242518,0.7989909,0.5951742,-0.14083281,0.009946206,0.475712,0.056902308,-0.3018673,-0.117409386,0.07845825,787.72894,789.7436,798.20514,776.04395,662.01465,-0.2003173828125,0.08892822265625,0.987548828125,1.801910400390625,-0.186920166015625,-2.1234130859375,1,1.0,1.0,1.0,1.0,10.00
2024-10-11 20:39:56.032,0.4644843,-0.17209394,0.26838163,0.4623516,0.6139584,-0.44105712,-0.09940106,0.5903793,0.728901,-0.20830303,0.12242518,0.7989909,0.5951742,-0.14083281,0.009946206,0.475712,0.056902308,-0.3018673,-0.117409386,0.07845825,792.5641,787.72894,794.57874,782.8938,692.6374,-0.2003173828125,0.08892822265625,0.987548828125,1.801910400390625,-0.186920166015625,-2.1234130859375,1,1.0,1.0,1.0,1.0,10.00
2024-10-11 20:39:56.033,0.4644843,-0.17209394,0.26838163,0.4623516,0.6139584,-0.44105712,-0.09940106,0.5903793,0.728901,-0.20830303,0.12242518,0.7989909,0.5951742,-0.14083281,0.009946206,0.475712,0.056902308,-0.3018673,-0.117409386,0.07845825,783.2967,789.34064,790.9524,794.57874,782.49084,-0.2003173828125,0.08892822265625,0.987548828125,1.801910400390625,-0.186920166015625,-2.1234130859375,1,1.0,1.0,1.0,1.0,10.00
2024-10-11 20:39:56.033,0.4644843,-0.17209394,0.26838163,0.4623516,0.6139584,-0.44105712,-0.09940106,0.5903793,0.728901,-0.20830303,0.12242518,0.7989909,0.5951742,-0.14083281,0.009946206,0.475712,0.056902308,-0.3018673,-0.117409386,0.07845825,788.5348,798.60803,802.23444,798.60803,672.8938,-0.2003173828125,0.08892822265625,0.987548828125,1.801910400390625,-0.186920166015625,-2.1234130859375,1,1.0,1.0,1.0,1.0,10.00
2024-10-11 20:39:56.034,0.4644843,-0.17209394,0.26838163,0.4623516,0.6139584,-0.44105712,-0.09940106,0.5903793,0.728901,-0.20830303,0.12242518,0.7989909,0.5951742,-0.14083281,0.009946206,0.475712,0.056902308,-0.3018673,-0.117409386,0.07845825,796.99634,802.6374,809.0842,799.011,523.4066,-0.2003173828125,0.08892822265625,0.987548828125,1.801910400390625,-0.186920166015625,-2.1234130859375,1,1.0,1.0,1.0,1.0,10.00
2024-10-11 20:39:56.035,0.4644843,-0.17209394,0.26838163,0.4623516,0.6139584,-0.44105712,-0.09940106,0.5903793,0.728901,-0.20830303,0.12242518,0.7989909,0.5951742,-0.14083281,0.009946206,0.475712,0.056902308,-0.3018673,-0.117409386,0.07845825,794.17584,799.41394,805.4579,800.2198,750.65936,-0.2003173828125,0.08892822265625,0.987548828125,1.801910400390625,-0.186920166015625,-2.1234130859375,1,1.0,1.0,1.0,1.0,10.00
2024-10-11 20:39:56.036,0.4644843,-0.17209394,0.26838163,0.4623516,0.6139584,-0.44105712,-0.09940106,0.5903793,0.728901,-0.20830303,0.12242518,0.7989909,0.5951742,-0.14083281,0.009946206,0.475712,0.056902308,-0.3018673,-0.117409386,0.07845825,797.3993,798.20514,809.89014,803.0403,1057.2894,-0.2003173828125,0.08892822265625,0.987548828125,1.801910400390625,-0.186920166015625,-2.1234130859375,1,1.0,1.0,1.0,1.0,10.00
2024-10-11 20:39:56.036,0.4710463,-0.12203345,0.24873257,0.48956025,0.643399,-0.43241164,-0.092766315,0.6405723,0.7367761,-0.23615007,0.1193571,0.8151502,0.5706754,-0.13519992,0.020152433,0.47710112,0.05935016,-0.26600707,-0.110187925,0.11890991,792.1612,798.60803,809.0842,796.1905,753.47986,-0.2003173828125,0.08892822265625,0.987548828125,1.801910400390625,-0.186920166015625,-2.1234130859375,1,1.0,1.0,1.0,1.0,10.00
2024-10-11 20:39:56.042,0.4710463,-0.12203345,0.24873257,0.48956025,0.643399,-0.43241164,-0.092766315,0.6405723,0.7367761,-0.23615007,0.1193571,0.8151502,0.5706754,-0.13519992,0.020152433,0.47710112,0.05935016,-0.26600707,-0.110187925,0.11890991,801.02563,805.4579,809.4872,797.3993,446.04395,-0.2003173828125,0.08892822265625,0.987548828125,1.801910400390625,-0.186920166015625,-2.1234130859375,1,1.0,1.0,1.0,1.0,10.00
2024-10-11 20:39:56.042,0.4710463,-0.12203345,0.24873257,0.48956025,0.643399,-0.43241164,-0.092766315,0.6405723,0.7367761,-0.23615007,0.1193571,0.8151502,0.5706754,-0.13519992,0.020152433,0.47710112,0.05935016,-0.26600707,-0.110187925,0.11890991,802.23444,803.8461,810.696,803.8461,641.4652,-0.2003173828125,0.08892822265625,0.987548828125,1.801910400390625,-0.186920166015625,-2.1234130859375,1,1.0,1.0,1.0,1.0,10.00
2024-10-11 20:39:56.043,0.4710463,-0.12203345,0.24873257,0.48956025,0.643399,-0.43241164,-0.092766315,0.6405723,0.7367761,-0.23615007,0.1193571,0.8151502,0.5706754,-0.13519992,0.020152433,0.47710112,0.05935016,-0.26600707,-0.110187925,0.11890991,799.41394,796.99634,798.60803,807.0696,814.3223,-0.2003173828125,0.08892822265625,0.987548828125,1.801910400390625,-0.186920166015625,-2.1234130859375,1,1.0,1.0,1.0,1.0,10.00
2024-10-11 20:39:56.043,0.4710463,-0.12203345,0.24873257,0.48956025,0.643399,-0.43241164,-0.092766315,0.6405723,0.7367761,-0.23615007,0.1193571,0.8151502,0.5706754,-0.13519992,0.020152433,0.47710112,0.05935016,-0.26600707,-0.110187925,0.11890991,804.65204,800.6227,797.3993,801.8315,647.50916,-0.2003173828125,0.08892822265625,0.987548828125,1.801910400390625,-0.186920166015625,-2.1234130859375,1,1.0,1.0,1.0,1.0,10.00
2024-10-11 20:39:56.104,0.4710463,-0.12203345,0.24873257,0.48956025,0.643399,-0.43241164,-0.092766315,0.6405723,0.7367761,-0.23615007,0.1193571,0.8151502,0.5706754,-0.13519992,0.020152433,0.47710112,0.05935016,-0.26600707,-0.110187925,0.11890991,804.2491,796.99634,807.0696,797.8022,499.23077,-0.19775390625,0.0828857421875,0.9844970703125,1.039276123046875,-1.233673095703125,-1.854248046875,1,1.0,1.0,1.0,1.0,10.00
2024-10-11 20:39:56.105,0.4710463,-0.12203345,0.24873257,0.48956025,0.643399,-0.43241164,-0.092766315,0.6405723,0.7367761,-0.23615007,0.1193571,0.8151502,0.5706754,-0.13519992,0.020152433,0.47710112,0.05935016,-0.26600707,-0.110187925,0.11890991,800.2198,793.36993,808.2784,801.8315,678.93774,-0.19775390625,0.0828857421875,0.9844970703125,1.039276123046875,-1.233673095703125,-1.854248046875,1,1.0,1.0,1.0,1.0,10.00
2024-10-11 20:39:56.105,0.4710463,-0.12203345,0.24873257,0.48956025,0.643399,-0.43241164,-0.092766315,0.6405723,0.7367761,-0.23615007,0.1193571,0.8151502,0.5706754,-0.13519992,0.020152433,0.47710112,0.05935016,-0.26600707,-0.110187925,0.11890991,799.41394,794.17584,807.0696,801.4286,795.38464,-0.19775390625,0.0828857421875,0.9844970703125,1.039276123046875,-1.233673095703125,-1.854248046875,1,1.0,1.0,1.0,1.0,10.00
2024-10-11 20:39:56.106,0.4710463,-0.12203345,0.24873257,0.48956025,0.643399,-0.43241164,-0.092766315,0.6405723,0.7367761,-0.23615007,0.1193571,0.8151502,0.5706754,-0.13519992,0.020152433,0.47710112,0.05935016,-0.26600707,-0.110187925,0.11890991,788.5348,794.57874,806.6667,798.60803,624.94507,-0.19775390625,0.0828857421875,0.9844970703125,1.039276123046875,-1.233673095703125,-1.854248046875,1,1.0,1.0,1.0,1.0,10.00
2024-10-11 20:39:56.106,0.4710463,-0.12203345,0.24873257,0.48956025,0.643399,-0.43241164,-0.092766315,0.6405723,0.7367761,-0.23615007,0.1193571,0.8151502,0.5706754,-0.13519992,0.020152433,0.47710112,0.05935016,-0.26600707,-0.110187925,0.11890991,784.90845,791.75824,803.8461,799.81683,505.27472,-0.19775390625,0.0828857421875,0.9844970703125,1.039276123046875,-1.233673095703125,-1.854248046875,1,1.0,1.0,1.0,1.0,10.00
2024-10-11 20:39:56.107,0.4710463,-0.12203345,0.24873257,0.48956025,0.643399,-0.43241164,-0.092766315,0.6405723,0.7367761,-0.23615007,0.1193571,0.8151502,0.5706754,-0.13519992,0.020152433,0.47710112,0.05935016,-0.26600707,-0.110187925,0.11890991,794.17584,795.78754,801.8315,804.65204,784.10254,-0.19775390625,0.0828857421875,0.9844970703125,1.039276123046875,-1.233673095703125,-1.854248046875,1,1.0,1.0,1.0,1.0,10.00
2024-10-11 20:39:56.108,0.4710463,-0.12203345,0.24873257,0.48956025,0.643399,-0.43241164,-0.092766315,0.6405723,0.7367761,-0.23615007,0.1193571,0.8151502,0.5706754,-0.13519992,0.020152433,0.47710112,0.05935016,-0.26600707,-0.110187925,0.11890991,790.54944,797.3993,801.8315,811.50183,1358.2784,-0.19775390625,0.0828857421875,0.9844970703125,1.039276123046875,-1.233673095703125,-1.854248046875,1,1.0,1.0,1.0,1.0,10.00
