TimeStamp,Delta_TP9,Delta_AF7,Delta_AF8,Delta_TP10,Theta_TP9,Theta_AF7,Theta_AF8,Theta_TP10,Alpha_TP9,Alpha_AF7,Alpha_AF8,Alpha_TP10,Beta_TP9,Beta_AF7,Beta_AF8,Beta_TP10,Gamma_TP9,Gamma_AF7,Gamma_AF8,Gamma_TP10,RAW_TP9,RAW_AF7,RAW_AF8,RAW_TP10,AUX_RIGHT,Accelerometer_X,Accelerometer_Y,Accelerometer_Z,Gyro_X,Gyro_Y,Gyro_Z,HeadBandOn,HSI_TP9,HSI_AF7,HSI_AF8,HSI_TP10,Battery,Elements
2024-10-11 20:45:45.850,0.47151107,0.45644924,-0.04020164,0.41742906,0.6607455,0.062129218,-0.35128725,0.2685314,0.8414115,0.23601773,0.27396446,0.39198613,0.4564221,-0.20235813,0.61375034,0.41429058,0.15539658,-0.4478422,0.48520792,0.15190385,740.58606,771.2088,910.6227,760.32965,628.1685,-0.061767578125,0.02777099609375,1.01025390625,1.65985107421875,-4.089813232421875,41.309356689453125,1,1.0,1.0,1.0,1.0,10.00
2024-10-11 20:45:45.851,0.47151107,0.45644924,-0.04020164,0.41742906,0.6607455,0.062129218,-0.35128725,0.2685314,0.8414115,0.23601773,0.27396446,0.39198613,0.4564221,-0.20235813,0.61375034,0.41429058,0.15539658,-0.4478422,0.48520792,0.15190385,738.1685,770.0,911.8315,762.74725,606.4103,-0.061767578125,0.02777099609375,1.01025390625,1.65985107421875,-4.089813232421875,41.309356689453125,1,1.0,1.0,1.0,1.0,10.00
2024-10-11 20:45:45.852,0.47151107,0.45644924,-0.04020164,0.41742906,0.6607455,0.062129218,-0.35128725,0.2685314,0.8414115,0.23601773,0.27396446,0.39198613,0.4564221,-0.20235813,0.61375034,0.41429058,0.15539658,-0.4478422,0.48520792,0.15190385,728.49817,766.77655,910.6227,776.4469,778.0586,-0.061767578125,0.02777099609375,1.01025390625,1.65985107421875,-4.089813232421875,41.309356689453125,1,1.0,1.0,1.0,1.0,10.00
2024-10-11 20:45:45.853,0.47151107,0.45644924,-0.04020164,0.41742906,0.6607455,0.062129218,-0.35128725,0.2685314,0.8414115,0.23601773,0.27396446,0.39198613,0.4564221,-0.20235813,0.61375034,0.41429058,0.15539658,-0.4478422,0.48520792,0.15190385,727.28937,767.1795,905.38464,780.4762,686.5934,-0.061767578125,0.02777099609375,1.01025390625,1.65985107421875,-4.089813232421875,41.309356689453125,1,1.0,1.0,1.0,1.0,10.00
2024-10-11 20:45:45.855,0.47151107,0.45644924,-0.04020164,0.41742906,0.6607455,0.062129218,-0.35128725,0.2685314,0.8414115,0.23601773,0.27396446,0.39198613,0.4564221,-0.20235813,0.61375034,0.41429058,0.15539658,-0.4478422,0.48520792,0.15190385,725.2747,767.5824,902.5641,778.0586,567.72894,-0.061767578125,0.02777099609375,1.01025390625,1.65985107421875,-4.089813232421875,41.309356689453125,1,1.0,1.0,1.0,1.0,10.00
2024-10-11 20:45:45.856,0.47151107,0.45644924,-0.04020164,0.41742906,0.6607455,0.062129218,-0.35128725,0.2685314,0.8414115,0.23601773,0.27396446,0.39198613,0.4564221,-0.20235813,0.61375034,0.41429058,0.15539658,-0.4478422,0.48520792,0.15190385,732.1245,763.95605,907.8022,785.31134,739.3773,-0.061767578125,0.02777099609375,1.01025390625,1.65985107421875,-4.089813232421875,41.309356689453125,1,1.0,1.0,1.0,1.0,10.00
2024-10-11 20:45:45.857,0.47151107,0.45644924,-0.04020164,0.41742906,0.6607455,0.062129218,-0.35128725,0.2685314,0.8414115,0.23601773,0.27396446,0.39198613,0.4564221,-0.20235813,0.61375034,0.41429058,0.15539658,-0.4478422,0.48520792,0.15190385,737.3626,759.5238,907.8022,797.3993,1234.1758,-0.061767578125,0.02777099609375,1.01025390625,1.65985107421875,-4.089813232421875,41.309356689453125,1,1.0,1.0,1.0,1.0,10.00
2024-10-11 20:45:45.859,0.47151107,0.45644924,-0.04020164,0.41742906,0.6607455,0.062129218,-0.35128725,0.2685314,0.8414115,0.23601773,0.27396446,0.39198613,0.4564221,-0.20235813,0.61375034,0.41429058,0.15539658,-0.4478422,0.48520792,0.15190385,742.6007,761.53845,888.86444,802.6374,1155.6044,-0.061767578125,0.02777099609375,1.01025390625,1.65985107421875,-4.089813232421875,41.309356689453125,1,1.0,1.0,1.0,1.0,10.00
2024-10-11 20:45:45.860,0.47151107,0.45644924,-0.04020164,0.41742906,0.6607455,0.062129218,-0.35128725,0.2685314,0.8414115,0.23601773,0.27396446,0.39198613,0.4564221,-0.20235813,0.61375034,0.41429058,0.15539658,-0.4478422,0.48520792,0.15190385,747.03296,755.4945,887.6557,807.47253,650.7326,-0.061767578125,0.02777099609375,1.01025390625,1.65985107421875,-4.089813232421875,41.309356689453125,1,1.0,1.0,1.0,1.0,10.00
2024-10-11 20:45:45.862,0.47151107,0.45644924,-0.04020164,0.41742906,0.6607455,0.062129218,-0.35128725,0.2685314,0.8414115,0.23601773,0.27396446,0.39198613,0.4564221,-0.20235813,0.61375034,0.41429058,0.15539658,-0.4478422,0.48520792,0.15190385,753.8828,749.45056,898.93774,819.15753,710.7692,-0.061767578125,0.02777099609375,1.01025390625,1.65985107421875,-4.089813232421875,41.309356689453125,1,1.0,1.0,1.0,1.0,10.00
2024-10-11 20:45:45.863,0.47151107,0.45644924,-0.04020164,0.41742906,0.6607455,0.062129218,-0.35128725,0.2685314,0.8414115,0.23601773,0.27396446,0.39198613,0.4564221,-0.20235813,0.61375034,0.41429058,0.15539658,-0.4478422,0.48520792,0.15190385,761.53845,753.47986,901.3553,808.68134,817.1429,-0.061767578125,0.02777099609375,1.01025390625,1.65985107421875,-4.089813232421875,41.309356689453125,1,1.0,1.0,1.0,1.0,10.00
2024-10-11 20:45:45.864,0.47151107,0.45644924,-0.04020164,0.41742906,0.6607455,0.062129218,-0.35128725,0.2685314,0.8414115,0.23601773,0.27396446,0.39198613,0.4564221,-0.20235813,0.61375034,0.41429058,0.15539658,-0.4478422,0.48520792,0.15190385,772.8205,750.65936,888.46155,800.2198,767.5824,-0.061767578125,0.02777099609375,1.01025390625,1.65985107421875,-4.089813232421875,41.309356689453125,1,1.0,1.0,1.0,1.0,10.00
2024-10-11 20:45:45.953,0.47151107,0.45644924,-0.04020164,0.41742906,0.6607455,0.062129218,-0.35128725,0.2685314,0.8414115,0.23601773,0.27396446,0.39198613,0.4564221,-0.20235813,0.61375034,0.41429058,0.15539658,-0.4478422,0.48520792,0.15190385,771.6117,749.85345,883.6264,812.3077,748.6447,-0.061767578125,0.02777099609375,1.01025390625,1.65985107421875,-4.089813232421875,41.309356689453125,1,1.0,1.0,1.0,1.0,10.00
2024-10-11 20:45:45.955,0.47151107,0.45644924,-0.04020164,0.41742906,0.6607455,0.062129218,-0.35128725,0.2685314,0.8414115,0.23601773,0.27396446,0.39198613,0.4564221,-0.20235813,0.61375034,0.41429058,0.15539658,-0.4478422,0.48520792,0.15190385,786.52014,754.2857,904.9817,825.6044,828.8278,-0.061767578125,0.02777099609375,1.01025390625,1.65985107421875,-4.089813232421875,41.309356689453125,1,1.0,1.0,1.0,1.0,10.00
2024-10-11 20:45:45.956,0.47151107,0.45644924,-0.04020164,0.41742906,0.6607455,0.062129218,-0.35128725,0.2685314,0.8414115,0.23601773,0.27396446,0.39198613,0.4564221,-0.20235813,0.61375034,0.41429058,0.15539658,-0.4478422,0.48520792,0.15190385,800.2198,762.3443,906.5934,834.0659,837.6923,-0.061767578125,0.02777099609375,1.01025390625,1.65985107421875,-4.089813232421875,41.309356689453125,1,1.0,1.0,1.0,1.0,10.00
2024-10-11 20:45:45.957,0.47151107,0.45644924,-0.04020164,0.41742906,0.6607455,0.062129218,-0.35128725,0.2685314,0.8414115,0.23601773,0.27396446,0.39198613,0.4564221,-0.20235813,0.61375034,0.41429058,0.15539658,-0.4478422,0.48520792,0.15190385,788.93774,763.1502,890.87915,844.94507,730.9158,-0.061767578125,0.02777099609375,1.01025390625,1.65985107421875,-4.089813232421875,41.309356689453125,1,1.0,1.0,1.0,1.0,10.00
2024-10-11 20:45:45.958,0.47151107,0.45644924,-0.04020164,0.41742906,0.6607455,0.062129218,-0.35128725,0.2685314,0.8414115,0.23601773,0.27396446,0.39198613,0.4564221,-0.20235813,0.61375034,0.41429058,0.15539658,-0.4478422,0.48520792,0.15190385,792.96704,758.71796,875.56775,845.34796,704.3223,-0.061767578125,0.02777099609375,1.01025390625,1.65985107421875,-4.089813232421875,41.309356689453125,1,1.0,1.0,1.0,1.0,10.00
2024-10-11 20:45:45.959,0.47151107,0.45644924,-0.04020164,0.41742906,0.6607455,0.062129218,-0.35128725,0.2685314,0.8414115,0.23601773,0.27396446,0.39198613,0.4564221,-0.20235813,0.61375034,0.41429058,0.15539658,-0.4478422,0.48520792,0.15190385,800.6227,759.5238,861.8681,832.4542,921.9048,-0.061767578125,0.02777099609375,1.01025390625,1.65985107421875,-4.089813232421875,41.309356689453125,1,1.0,1.0,1.0,1.0,10.00
2024-10-11 20:45:45.960,0.47151107,0.45644924,-0.04020164,0.41742906,0.6607455,0.062129218,-0.35128725,0.2685314,0.8414115,0.23601773,0.27396446,0.39198613,0.4564221,-0.20235813,0.61375034,0.41429058,0.15539658,-0.4478422,0.48520792,0.15190385,809.89014,760.7326,870.32965,833.663,971.8681,-0.061767578125,0.02777099609375,1.01025390625,1.65985107421875,-4.089813232421875,41.309356689453125,1,1.0,1.0,1.0,1.0,10.00
2024-10-11 20:45:45.961,0.47151107,0.17724723,-0.13086575,0.41742906,0.6607455,-0.18779539,-0.43991283,0.2685314,0.8414115,0.049081665,0.10591894,0.39198613,0.4564221,-0.1974334,0.5925393,0.41429058,0.15539658,-0.43463522,0.44584545,0.15190385,816.337,759.12085,877.5824,836.08057,896.1172,-0.061767578125,0.02777099609375,1.01025390625,1.65985107421875,-4.089813232421875,41.309356689453125,1,1.0,1.0,1.0,1.0,10.00
2024-10-11 20:45:45.966,0.47151107,0.17724723,-0.13086575,0.41742906,0.6607455,-0.18779539,-0.43991283,0.2685314,0.8414115,0.049081665,0.10591894,0.39198613,0.4564221,-0.1974334,0.5925393,0.41429058,0.15539658,-0.43463522,0.44584545,0.15190385,830.84247,761.53845,863.47986,846.1539,763.95605,-0.061767578125,0.02777099609375,1.01025390625,1.65985107421875,-4.089813232421875,41.309356689453125,1,1.0,1.0,1.0,1.0,10.00
2024-10-11 20:45:45.967,0.47151107,0.17724723,-0.13086575,0.41742906,0.6607455,-0.18779539,-0.43991283,0.2685314,0.8414115,0.049081665,0.10591894,0.39198613,0.4564221,-0.1974334,0.5925393,0.41429058,0.15539658,-0.43463522,0.44584545,0.15190385,841.7216,758.315,859.0476,861.06226,903.7729,-0.061767578125,0.02777099609375,1.01025390625,1.65985107421875,-4.089813232421875,41.309356689453125,1,1.0,1.0,1.0,1.0,10.00
2024-10-11 20:45:45.968,0.47151107,0.17724723,-0.13086575,0.41742906,0.6607455,-0.18779539,-0.43991283,0.2685314,0.8414115,0.049081665,0.10591894,0.39198613,0.4564221,-0.1974334,0.5925393,0.41429058,0.15539658,-0.43463522,0.44584545,0.15190385,841.7216,755.89746,855.82416,868.315,1157.2161,-0.061767578125,0.02777099609375,1.01025390625,1.65985107421875,-4.089813232421875,41.309356689453125,1,1.0,1.0,1.0,1.0,10.00
2024-10-11 20:45:45.968,0.47151107,0.17724723,-0.13086575,0.41742906,0.6607455,-0.18779539,-0.43991283,0.2685314,0.8414115,0.049081665,0.10591894,0.39198613,0.4564221,-0.1974334,0.5925393,0.41429058,0.15539658,-0.43463522,0.44584545,0.15190385,837.6923,758.71796,836.4835,861.8681,876.3736,-0.061767578125,0.02777099609375,1.01025390625,1.65985107421875,-4.089813232421875,41.309356689453125,1,1.0,1.0,1.0,1.0,10.00
2024-10-11 20:45:45.969,0.47151107,0.17724723,-0.13086575,0.41742906,0.6607455,-0.18779539,-0.43991283,0.2685314,0.8414115,0.049081665,0.10591894,0.39198613,0.4564221,-0.1974334,0.5925393,0.41429058,0.15539658,-0.43463522,0.44584545,0.15190385,836.4835,755.09155,844.1392,854.21246,715.2015,-0.0655517578125,0.025634765625,1.01165771484375,0.059814453125,-2.684173583984375,32.43438720703125,1,1.0,1.0,1.0,1.0,10.00
2024-10-11 20:45:45.970,0.47151107,0.17724723,-0.13086575,0.41742906,0.6607455,-0.18779539,-0.43991283,0.2685314,0.8414115,0.049081665,0.10591894,0.39198613,0.4564221,-0.1974334,0.5925393,0.41429058,0.15539658,-0.43463522,0.44584545,0.15190385,846.9597,754.68866,851.79486,852.6007,664.0293,-0.0655517578125,0.025634765625,1.01165771484375,0.059814453125,-2.684173583984375,32.43438720703125,1,1.0,1.0,1.0,1.0,10.00
2024-10-11 20:45:45.970,0.47151107,0.17724723,-0.13086575,0.41742906,0.6607455,-0.18779539,-0.43991283,0.2685314,0.8414115,0.049081665,0.10591894,0.39198613,0.4564221,-0.1974334,0.5925393,0.41429058,0.15539658,-0.43463522,0.44584545,0.15190385,851.79486,755.4945,853.00366,861.8681,681.3553,-0.0655517578125,0.025634765625,1.01165771484375,0.059814453125,-2.684173583984375,32.43438720703125,1,1.0,1.0,1.0,1.0,10.00
2024-10-11 20:45:45.971,0.47151107,0.17724723,-0.13086575,0.41742906,0.6607455,-0.18779539,-0.43991283,0.2685314,0.8414115,0.049081665,0.10591894,0.39198613,0.4564221,-0.1974334,0.5925393,0.41429058,0.15539658,-0.43463522,0.44584545,0.15190385,846.9597,755.09155,851.79486,865.4945,714.7985,-0.0655517578125,0.025634765625,1.01165771484375,0.059814453125,-2.684173583984375,32.43438720703125,1,1.0,1.0,1.0,1.0,10.00
2024-10-11 20:45:45.972,0.47151107,0.17724723,-0.13086575,0.41742906,0.6607455,-0.18779539,-0.43991283,0.2685314,0.8414115,0.049081665,0.10591894,0.39198613,0.4564221,-0.1974334,0.5925393,0.41429058,0.15539658,-0.43463522,0.44584545,0.15190385,842.52747,752.27106,841.31866,866.30035,721.2454,-0.0655517578125,0.025634765625,1.01165771484375,0.059814453125,-2.684173583984375,32.43438720703125,1,1.0,1.0,1.0,1.0,10.00
2024-10-11 20:45:45.972,0.47151107,0.17724723,-0.13086575,0.41742906,0.6607455,-0.18779539,-0.43991283,0.2685314,0.8414115,0.049081665,0.10591894,0.39198613,0.4564221,-0.1974334,0.5925393,0.41429058,0.15539658,-0.43463522,0.44584545,0.15190385,848.97437,754.68866,838.0952,864.68866,960.989,-0.0655517578125,0.025634765625,1.01165771484375,0.059814453125,-2.684173583984375,32.43438720703125,1,1.0,1.0,1.0,1.0,10.00
2024-10-11 20:45:45.973,0.47151107,0.17724723,-0.13086575,0.41742906,0.6607455,-0.18779539,-0.43991283,0.2685314,0.8414115,0.049081665,0.10591894,0.39198613,0.4564221,-0.1974334,0.5925393,0.41429058,0.15539658,-0.43463522,0.44584545,0.15190385,847.76556,758.315,828.4249,861.8681,1073.4066,-0.0655517578125,0.025634765625,1.01165771484375,0.059814453125,-2.684173583984375,32.43438720703125,1,1.0,1.0,1.0,1.0,10.00
2024-10-11 20:45:45.973,0.47151107,0.17724723,-0.13086575,0.41742906,0.6607455,-0.18779539,-0.43991283,0.2685314,0.8414115,0.049081665,0.10591894,0.39198613,0.4564221,-0.1974334,0.5925393,0.41429058,0.15539658,-0.43463522,0.44584545,0.15190385,848.1685,755.4945,823.5897,883.6264,848.5714,-0.0655517578125,0.025634765625,1.01165771484375,0.059814453125,-2.684173583984375,32.43438720703125,1,1.0,1.0,1.0,1.0,10.00
2024-10-11 20:45:45.974,0.47151107,0.17724723,-0.13086575,0.41742906,0.6607455,-0.18779539,-0.43991283,0.2685314,0.8414115,0.049081665,0.10591894,0.39198613,0.4564221,-0.1974334,0.5925393,0.41429058,0.15539658,-0.43463522,0.44584545,0.15190385,850.18317,757.50916,831.2454,888.86444,866.30035,-0.0655517578125,0.025634765625,1.01165771484375,0.059814453125,-2.684173583984375,32.43438720703125,1,1.0,1.0,1.0,1.0,10.00
2024-10-11 20:45:45.975,0.47151107,0.17724723,-0.13086575,0.41742906,0.6607455,-0.18779539,-0.43991283,0.2685314,0.8414115,0.049081665,0.10591894,0.39198613,0.4564221,-0.1974334,0.5925393,0.41429058,0.15539658,-0.43463522,0.44584545,0.15190385,844.1392,763.1502,817.5458,873.1502,906.99634,-0.0655517578125,0.025634765625,1.01165771484375,0.059814453125,-2.684173583984375,32.43438720703125,1,1.0,1.0,1.0,1.0,10.00
2024-10-11 20:45:45.975,0.47151107,0.17724723,-0.13086575,0.41742906,0.6607455,-0.18779539,-0.43991283,0.2685314,0.8414115,0.049081665,0.10591894,0.39198613,0.4564221,-0.1974334,0.5925393,0.41429058,0.15539658,-0.43463522,0.44584545,0.15190385,848.5714,760.7326,816.7399,861.4652,753.0769,-0.0655517578125,0.025634765625,1.01165771484375,0.059814453125,-2.684173583984375,32.43438720703125,1,1.0,1.0,1.0,1.0,10.00
2024-10-11 20:45:45.976,0.47151107,0.17724723,-0.13086575,0.41742906,0.6607455,-0.18779539,-0.43991283,0.2685314,0.8414115,0.049081665,0.10591894,0.39198613,0.4564221,-0.1974334,0.5925393,0.41429058,0.15539658,-0.43463522,0.44584545,0.15190385,855.42126,757.50916,830.84247,861.4652,699.4872,-0.0655517578125,0.025634765625,1.01165771484375,0.059814453125,-2.684173583984375,32.43438720703125,1,1.0,1.0,1.0,1.0,10.00
2024-10-11 20:45:46.001,0.47151107,0.17724723,-0.13086575,0.41742906,0.6607455,-0.18779539,-0.43991283,0.2685314,0.8414115,0.049081665,0.10591894,0.39198613,0.4564221,-0.1974334,0.5925393,0.41429058,0.15539658,-0.43463522,0.44584545,0.15190385,851.79486,761.9414,827.2161,867.50916,749.0476,-0.061767578125,0.0224609375,1.01422119140625,-1.128997802734375,-0.994415283203125,21.234130859375,1,1.0,1.0,1.0,1.0,10.00
2024-10-11 20:45:46.002,0.47151107,0.17724723,-0.13086575,0.41742906,0.6607455,-0.18779539,-0.43991283,0.2685314,0.8414115,0.049081665,0.10591894,0.39198613,0.4564221,-0.1974334,0.5925393,0.41429058,0.15539658,-0.43463522,0.44584545,0.15190385,847.76556,765.56775,821.5751,866.7033,1119.3407,-0.061767578125,0.0224609375,1.01422119140625,-1.128997802734375,-0.994415283203125,21.234130859375,1,1.0,1.0,1.0,1.0,10.00
2024-10-11 20:45:46.003,0.47151107,0.17724723,-0.13086575,0.41742906,0.6607455,-0.18779539,-0.43991283,0.2685314,0.8414115,0.049081665,0.10591894,0.39198613,0.4564221,-0.1974334,0.5925393,0.41429058,0.15539658,-0.43463522,0.44584545,0.15190385,852.6007,763.95605,823.9927,864.68866,1011.3553,-0.061767578125,0.0224609375,1.01422119140625,-1.128997802734375,-0.994415283203125,21.234130859375,1,1.0,1.0,1.0,1.0,10.00
2024-10-11 20:45:46.004,0.47151107,0.17724723,-0.13086575,0.41742906,0.6607455,-0.18779539,-0.43991283,0.2685314,0.8414115,0.049081665,0.10591894,0.39198613,0.4564221,-0.1974334,0.5925393,0.41429058,0.15539658,-0.43463522,0.44584545,0.15190385,857.4359,766.77655,822.381,865.09155,597.5458,-0.061767578125,0.0224609375,1.01422119140625,-1.128997802734375,-0.994415283203125,21.234130859375,1,1.0,1.0,1.0,1.0,10.00
2024-10-11 20:45:46.005,0.47151107,0.17724723,-0.13086575,0.41742906,0.6607455,-0.18779539,-0.43991283,0.2685314,0.8414115,0.049081665,0.10591894,0.39198613,0.4564221,-0.1974334,0.5925393,0.41429058,0.15539658,-0.43463522,0.44584545,0.15190385,855.0183,774.83514,818.7546,872.74725,757.1062,-0.061767578125,0.0224609375,1.01422119140625,-1.128997802734375,-0.994415283203125,21.234130859375,1,1.0,1.0,1.0,1.0,10.00
2024-10-11 20:45:46.007,0.47151107,0.17724723,-0.13086575,0.41742906,0.6607455,-0.18779539,-0.43991283,0.2685314,0.8414115,0.049081665,0.10591894,0.39198613,0.4564221,-0.1974334,0.5925393,0.41429058,0.15539658,-0.43463522,0.44584545,0.15190385,838.0952,770.40295,810.696,871.9414,860.2564,-0.061767578125,0.0224609375,1.01422119140625,-1.128997802734375,-0.994415283203125,21.234130859375,1,1.0,1.0,1.0,1.0,10.00
2024-10-11 20:45:46.008,0.47151107,0.17724723,-0.13086575,0.41742906,0.6607455,-0.18779539,-0.43991283,0.2685314,0.8414115,0.049081665,0.10591894,0.39198613,0.4564221,-0.1974334,0.5925393,0.41429058,0.15539658,-0.43463522,0.44584545,0.15190385,831.2454,767.5824,809.4872,860.65936,762.74725,-0.061767578125,0.0224609375,1.01422119140625,-1.128997802734375,-0.994415283203125,21.234130859375,1,1.0,1.0,1.0,1.0,10.00
2024-10-11 20:45:46.009,0.47151107,0.17724723,-0.13086575,0.41742906,0.6607455,-0.18779539,-0.43991283,0.2685314,0.8414115,0.049081665,0.10591894,0.39198613,0.4564221,-0.1974334,0.5925393,0.41429058,0.15539658,-0.43463522,0.44584545,0.15190385,842.9304,770.80585,818.3516,860.65936,719.6337,-0.061767578125,0.0224609375,1.01422119140625,-1.128997802734375,-0.994415283203125,21.234130859375,1,1.0,1.0,1.0,1.0,10.00
2024-10-11 20:45:46.010,0.47151107,0.17724723,-0.13086575,0.41742906,0.6607455,-0.18779539,-0.43991283,0.2685314,0.8414115,0.049081665,0.10591894,0.39198613,0.4564221,-0.1974334,0.5925393,0.41429058,0.15539658,-0.43463522,0.44584545,0.15190385,851.39197,771.2088,819.9634,869.92676,929.5604,-0.061767578125,0.0224609375,1.01422119140625,-1.128997802734375,-0.994415283203125,21.234130859375,1,1.0,1.0,1.0,1.0,10.00
2024-10-11 20:45:46,,,,,,,,,,,,,,,,,,,,,,,,,,,,,,,,,,,,,,/muse/elements/blink
2024-10-11 20:45:46.011,0.47151107,0.13936031,-0.18000303,0.41742906,0.6607455,-0.27227885,-0.53775275,0.2685314,0.8414115,-0.05255124,0.07714085,0.39198613,0.4564221,-0.17403398,0.57186186,0.41429058,0.15539658,-0.41549295,0.421948,0.15190385,847.76556,771.6117,816.337,868.71796,1078.2417,-0.061767578125,0.0224609375,1.01422119140625,-1.128997802734375,-0.994415283203125,21.234130859375,1,1.0,1.0,1.0,1.0,10.00
2024-10-11 20:45:46.016,0.47151107,0.13936031,-0.18000303,0.41742906,0.6607455,-0.27227885,-0.53775275,0.2685314,0.8414115,-0.05255124,0.07714085,0.39198613,0.4564221,-0.17403398,0.57186186,0.41429058,0.15539658,-0.41549295,0.421948,0.15190385,840.9158,772.8205,813.91943,851.79486,805.8608,-0.061767578125,0.0224609375,1.01422119140625,-1.128997802734375,-0.994415283203125,21.234130859375,1,1.0,1.0,1.0,1.0,10.00
2024-10-11 20:45:46.018,0.47151107,0.13936031,-0.18000303,0.41742906,0.6607455,-0.27227885,-0.53775275,0.2685314,0.8414115,-0.05255124,0.07714085,0.39198613,0.4564221,-0.17403398,0.57186186,0.41429058,0.15539658,-0.41549295,0.421948,0.15190385,841.31866,774.43225,810.293,842.52747,774.43225,-0.061767578125,0.0224609375,1.01422119140625,-1.128997802734375,-0.994415283203125,21.234130859375,1,1.0,1.0,1.0,1.0,10.00
2024-10-11 20:45:46.019,0.47151107,0.13936031,-0.18000303,0.41742906,0.6607455,-0.27227885,-0.53775275,0.2685314,0.8414115,-0.05255124,0.07714085,0.39198613,0.4564221,-0.17403398,0.57186186,0.41429058,0.15539658,-0.41549295,0.421948,0.15190385,852.1978,774.83514,803.44324,842.9304,894.90845,-0.051025390625,0.02001953125,1.01458740234375,-2.953338623046875,1.0467529296875,12.493743896484375,1,1.0,1.0,1.0,1.0,10.00
2024-10-11 20:45:46.020,0.47151107,0.13936031,-0.18000303,0.41742906,0.6607455,-0.27227885,-0.53775275,0.2685314,0.8414115,-0.05255124,0.07714085,0.39198613,0.4564221,-0.17403398,0.57186186,0.41429058,0.15539658,-0.41549295,0.421948,0.15190385,850.58606,778.46155,799.41394,848.1685,817.5458,-0.051025390625,0.02001953125,1.01458740234375,-2.953338623046875,1.0467529296875,12.493743896484375,1,1.0,1.0,1.0,1.0,10.00
2024-10-11 20:45:46.021,0.47151107,0.13936031,-0.18000303,0.41742906,0.6607455,-0.27227885,-0.53775275,0.2685314,0.8414115,-0.05255124,0.07714085,0.39198613,0.4564221,-0.17403398,0.57186186,0.41429058,0.15539658,-0.41549295,0.421948,0.15190385,848.5714,780.4762,800.2198,852.1978,639.0476,-0.051025390625,0.02001953125,1.01458740234375,-2.953338623046875,1.0467529296875,12.493743896484375,1,1.0,1.0,1.0,1.0,10.00
2024-10-11 20:45:46.022,0.47151107,0.13936031,-0.18000303,0.41742906,0.6607455,-0.27227885,-0.53775275,0.2685314,0.8414115,-0.05255124,0.07714085,0.39198613,0.4564221,-0.17403398,0.57186186,0.41429058,0.15539658,-0.41549295,0.421948,0.15190385,859.0476,780.07324,813.91943,861.06226,624.5421,-0.051025390625,0.02001953125,1.01458740234375,-2.953338623046875,1.0467529296875,12.493743896484375,1,1.0,1.0,1.0,1.0,10.00
2024-10-11 20:45:46.023,0.47151107,0.13936031,-0.18000303,0.41742906,0.6607455,-0.27227885,-0.53775275,0.2685314,0.8414115,-0.05255124,0.07714085,0.39198613,0.4564221,-0.17403398,0.57186186,0.41429058,0.15539658,-0.41549295,0.421948,0.15190385,865.89746,780.4762,813.5165,854.21246,737.3626,-0.051025390625,0.02001953125,1.01458740234375,-2.953338623046875,1.0467529296875,12.493743896484375,1,1.0,1.0,1.0,1.0,10.00
2024-10-11 20:45:46.024,0.47151107,0.13936031,-0.18000303,0.41742906,0.6607455,-0.27227885,-0.53775275,0.2685314,0.8414115,-0.05255124,0.07714085,0.39198613,0.4564221,-0.17403398,0.57186186,0.41429058,0.15539658,-0.41549295,0.421948,0.15190385,863.8828,778.0586,806.6667,846.9597,909.41394,-0.051025390625,0.02001953125,1.01458740234375,-2.953338623046875,1.0467529296875,12.493743896484375,1,1.0,1.0,1.0,1.0,10.00
2024-10-11 20:45:46.025,0.47151107,0.13936031,-0.18000303,0.41742906,0.6607455,-0.27227885,-0.53775275,0.2685314,0.8414115,-0.05255124,0.07714085,0.39198613,0.4564221,-0.17403398,0.57186186,0.41429058,0.15539658,-0.41549295,0.421948,0.15190385,842.9304,778.0586,814.3223,850.58606,796.1905,-0.051025390625,0.02001953125,1.01458740234375,-2.953338623046875,1.0467529296875,12.493743896484375,1,1.0,1.0,1.0,1.0,10.00
2024-10-11 20:45:46.026,0.47151107,0.13936031,-0.18000303,0.41742906,0.6607455,-0.27227885,-0.53775275,0.2685314,0.8414115,-0.05255124,0.07714085,0.39198613,0.4564221,-0.17403398,0.57186186,0.41429058,0.15539658,-0.41549295,0.421948,0.15190385,837.28937,777.6557,816.337,845.34796,591.0989,-0.051025390625,0.02001953125,1.01458740234375,-2.953338623046875,1.0467529296875,12.493743896484375,1,1.0,1.0,1.0,1.0,10.00
2024-10-11 20:45:46.027,0.47151107,0.13936031,-0.18000303,0.41742906,0.6607455,-0.27227885,-0.53775275,0.2685314,0.8414115,-0.05255124,0.07714085,0.39198613,0.4564221,-0.17403398,0.57186186,0.41429058,0.15539658,-0.41549295,0.421948,0.15190385,841.31866,780.87915,811.0989,855.42126,848.1685,-0.051025390625,0.02001953125,1.01458740234375,-2.953338623046875,1.0467529296875,12.493743896484375,1,1.0,1.0,1.0,1.0,10.00
2024-10-11 20:45:46.028,0.47151107,0.13936031,-0.18000303,0.41742906,0.6607455,-0.27227885,-0.53775275,0.2685314,0.8414115,-0.05255124,0.07714085,0.39198613,0.4564221,-0.17403398,0.57186186,0.41429058,0.15539658,-0.41549295,0.421948,0.15190385,842.1245,786.1172,803.0403,855.42126,788.1319,-0.051025390625,0.02001953125,1.01458740234375,-2.953338623046875,1.0467529296875,12.493743896484375,1,1.0,1.0,1.0,1.0,10.00
2024-10-11 20:45:46.029,0.47151107,0.13936031,-0.18000303,0.41742906,0.6607455,-0.27227885,-0.53775275,0.2685314,0.8414115,-0.05255124,0.07714085,0.39198613,0.4564221,-0.17403398,0.57186186,0.41429058,0.15539658,-0.41549295,0.421948,0.15190385,845.7509,789.7436,798.60803,848.5714,489.56042,-0.051025390625,0.02001953125,1.01458740234375,-2.953338623046875,1.0467529296875,12.493743896484375,1,1.0,1.0,1.0,1.0,10.00
2024-10-11 20:45:46.031,0.47151107,0.13936031,-0.18000303,0.41742906,0.6607455,-0.27227885,-0.53775275,0.2685314,0.8414115,-0.05255124,0.07714085,0.39198613,0.4564221,-0.17403398,0.57186186,0.41429058,0.15539658,-0.41549295,0.421948,0.15190385,837.28937,789.34064,799.41394,851.79486,635.42126,-0.051025390625,0.02001953125,1.01458740234375,-2.953338623046875,1.0467529296875,12.493743896484375,1,1.0,1.0,1.0,1.0,10.00
2024-10-11 20:45:46.067,0.47151107,0.13936031,-0.18000303,0.41742906,0.6607455,-0.27227885,-0.53775275,0.2685314,0.8414115,-0.05255124,0.07714085,0.39198613,0.4564221,-0.17403398,0.57186186,0.41429058,0.15539658,-0.41549295,0.421948,0.15190385,828.022,784.90845,798.20514,843.73627,729.707,-0.0406494140625,0.01470947265625,1.01654052734375,-4.11224365234375,2.863616943359375,9.3011474609375,1,1.0,1.0,1.0,1.0,10.00
2024-10-11 20:45:46.068,0.47151107,0.13936031,-0.18000303,0.41742906,0.6607455,-0.27227885,-0.53775275,0.2685314,0.8414115,-0.05255124,0.07714085,0.39198613,0.4564221,-0.17403398,0.57186186,0.41429058,0.15539658,-0.41549295,0.421948,0.15190385,820.3663,782.49084,800.6227,832.4542,699.4872,-0.0406494140625,0.01470947265625,1.01654052734375,-4.11224365234375,2.863616943359375,9.3011474609375,1,1.0,1.0,1.0,1.0,10.00
2024-10-11 20:45:46.069,0.47151107,0.13936031,-0.18000303,0.41742906,0.6607455,-0.27227885,-0.53775275,0.2685314,0.8414115,-0.05255124,0.07714085,0.39198613,0.4564221,-0.17403398,0.57186186,0.41429058,0.15539658,-0.41549295,0.421948,0.15190385,816.7399,784.10254,796.1905,829.6337,732.52747,-0.0406494140625,0.01470947265625,1.01654052734375,-4.11224365234375,2.863616943359375,9.3011474609375,1,1.0,1.0,1.0,1.0,10.00
2024-10-11 20:45:46.070,0.47151107,0.13936031,-0.18000303,0.41742906,0.6607455,-0.27227885,-0.53775275,0.2685314,0.8414115,-0.05255124,0.07714085,0.39198613,0.4564221,-0.17403398,0.57186186,0.41429058,0.15539658,-0.41549295,0.421948,0.15190385,828.4249,784.90845,791.75824,827.2161,766.77655,-0.0406494140625,0.01470947265625,1.01654052734375,-4.11224365234375,2.863616943359375,9.3011474609375,1,1.0,1.0,1.0,1.0,10.00
2024-10-11 20:45:46.071,0.47151107,0.13936031,-0.18000303,0.41742906,0.6607455,-0.27227885,-0.53775275,0.2685314,0.8414115,-0.05255124,0.07714085,0.39198613,0.4564221,-0.17403398,0.57186186,0.41429058,0.15539658,-0.41549295,0.421948,0.15190385,828.4249,782.49084,793.36993,829.6337,875.9707,-0.0406494140625,0.01470947265625,1.01654052734375,-4.11224365234375,2.863616943359375,9.3011474609375,1,1.0,1.0,1.0,1.0,10.00
2024-10-11 20:45:46.073,0.47151107,0.13936031,-0.18000303,0.41742906,0.6607455,-0.27227885,-0.53775275,0.2685314,0.8414115,-0.05255124,0.07714085,0.39198613,0.4564221,-0.17403398,0.57186186,0.41429058,0.15539658,-0.41549295,0.421948,0.15190385,822.381,786.9231,799.81683,836.4835,779.2674,-0.0406494140625,0.01470947265625,1.01654052734375,-4.11224365234375,2.863616943359375,9.3011474609375,1,1.0,1.0,1.0,1.0,10.00
2024-10-11 20:45:46.074,0.47151107,0.13936031,-0.18000303,0.41742906,0.6607455,-0.27227885,-0.53775275,0.2685314,0.8414115,-0.05255124,0.07714085,0.39198613,0.4564221,-0.17403398,0.57186186,0.41429058,0.15539658,-0.41549295,0.421948,0.15190385,824.3956,789.34064,798.60803,837.6923,725.2747,-0.0406494140625,0.01470947265625,1.01654052734375,-4.11224365234375,2.863616943359375,9.3011474609375,1,1.0,1.0,1.0,1.0,10.00
2024-10-11 20:45:46.075,0.47151107,0.13936031,-0.18000303,0.41742906,0.6607455,-0.27227885,-0.53775275,0.2685314,0.8414115,-0.05255124,0.07714085,0.39198613,0.4564221,-0.17403398,0.57186186,0.41429058,0.15539658,-0.41549295,0.421948,0.15190385,809.4872,785.7143,795.78754,836.08057,956.9597,-0.0406494140625,0.01470947265625,1.01654052734375,-4.11224365234375,2.863616943359375,9.3011474609375,1,1.0,1.0,1.0,1.0,10.00
2024-10-11 20:45:46.077,0.47151107,0.13936031,-0.18000303,0.41742906,0.6607455,-0.27227885,-0.53775275,0.2685314,0.8414115,-0.05255124,0.07714085,0.39198613,0.4564221,-0.17403398,0.57186186,0.41429058,0.15539658,-0.41549295,0.421948,0.15190385,808.2784,783.2967,809.4872,832.8571,1085.0916,-0.0406494140625,0.01470947265625,1.01654052734375,-4.11224365234375,2.863616943359375,9.3011474609375,1,1.0,1.0,1.0,1.0,10.00
2024-10-11 20:45:46.079,0.47151107,0.13936031,-0.18000303,0.41742906,0.6607455,-0.27227885,-0.53775275,0.2685314,0.8414115,-0.05255124,0.07714085,0.39198613,0.4564221,-0.17403398,0.57186186,0.41429058,0.15539658,-0.41549295,0.421948,0.15190385,825.2015,787.326,805.4579,817.9487,788.93774,-0.0406494140625,0.01470947265625,1.01654052734375,-4.11224365234375,2.863616943359375,9.3011474609375,1,1.0,1.0,1.0,1.0,10.00
2024-10-11 20:45:46.080,0.47151107,0.13936031,-0.18000303,0.41742906,0.6607455,-0.27227885,-0.53775275,0.2685314,0.8414115,-0.05255124,0.07714085,0.39198613,0.4564221,-0.17403398,0.57186186,0.41429058,0.15539658,-0.41549295,0.421948,0.15190385,825.2015,790.14655,793.7729,813.5165,624.5421,-0.0406494140625,0.01470947265625,1.01654052734375,-4.11224365234375,2.863616943359375,9.3011474609375,1,1.0,1.0,1.0,1.0,10.00
2024-10-11 20:45:46.081,0.47151107,0.104393475,-0.19391029,0.41742906,0.6607455,-0.28533632,-0.6609119,0.2685314,0.8414115,-0.07984946,0.056614816,0.39198613,0.4564221,-0.16577436,0.5570312,0.41429058,0.15539658,-0.4049734,0.40102473,0.15190385,824.7985,792.1612,797.3993,817.9487,653.1502,-0.0406494140625,0.01470947265625,1.01654052734375,-4.11224365234375,2.863616943359375,9.3011474609375,1,1.0,1.0,1.0,1.0,10.00
2024-10-11 20:45:46.086,0.47151107,0.104393475,-0.19391029,0.41742906,0.6607455,-0.28533632,-0.6609119,0.2685314,0.8414115,-0.07984946,0.056614816,0.39198613,0.4564221,-0.16577436,0.5570312,0.41429058,0.15539658,-0.4049734,0.40102473,0.15190385,827.619,793.7729,799.41394,816.337,643.8828,-0.0406494140625,0.01470947265625,1.01654052734375,-4.11224365234375,2.863616943359375,9.3011474609375,1,1.0,1.0,1.0,1.0,10.00
2024-10-11 20:45:46.088,0.47151107,0.104393475,-0.19391029,0.41742906,0.6607455,-0.28533632,-0.6609119,0.2685314,0.8414115,-0.07984946,0.056614816,0.39198613,0.4564221,-0.16577436,0.5570312,0.41429058,0.15539658,-0.4049734,0.40102473,0.15190385,828.022,788.93774,798.20514,810.696,675.7143,-0.0406494140625,0.01470947265625,1.01654052734375,-4.11224365234375,2.863616943359375,9.3011474609375,1,1.0,1.0,1.0,1.0,10.00
2024-10-11 20:45:46.088,0.47151107,0.104393475,-0.19391029,0.41742906,0.6607455,-0.28533632,-0.6609119,0.2685314,0.8414115,-0.07984946,0.056614816,0.39198613,0.4564221,-0.16577436,0.5570312,0.41429058,0.15539658,-0.4049734,0.40102473,0.15190385,831.6484,795.78754,799.011,813.5165,726.08057,-0.0406494140625,0.01470947265625,1.01654052734375,-4.11224365234375,2.863616943359375,9.3011474609375,1,1.0,1.0,1.0,1.0,10.00
2024-10-11 20:45:46.089,0.47151107,0.104393475,-0.19391029,0.41742906,0.6607455,-0.28533632,-0.6609119,0.2685314,0.8414115,-0.07984946,0.056614816,0.39198613,0.4564221,-0.16577436,0.5570312,0.41429058,0.15539658,-0.4049734,0.40102473,0.15190385,823.1868,799.41394,803.0403,818.3516,728.9011,-0.0406494140625,0.01470947265625,1.01654052734375,-4.11224365234375,2.863616943359375,9.3011474609375,1,1.0,1.0,1.0,1.0,10.00
2024-10-11 20:45:46.090,0.47151107,0.104393475,-0.19391029,0.41742906,0.6607455,-0.28533632,-0.6609119,0.2685314,0.8414115,-0.07984946,0.056614816,0.39198613,0.4564221,-0.16577436,0.5570312,0.41429058,0.15539658,-0.4049734,0.40102473,0.15190385,825.2015,792.1612,801.4286,828.4249,681.75824,-0.0406494140625,0.01470947265625,1.01654052734375,-4.11224365234375,2.863616943359375,9.3011474609375,1,1.0,1.0,1.0,1.0,10.00
2024-10-11 20:45:46.091,0.47151107,0.104393475,-0.19391029,0.41742906,0.6607455,-0.28533632,-0.6609119,0.2685314,0.8414115,-0.07984946,0.056614816,0.39198613,0.4564221,-0.16577436,0.5570312,0.41429058,0.15539658,-0.4049734,0.40102473,0.15190385,828.8278,793.7729,801.8315,834.4689,726.8865,-0.0406494140625,0.01470947265625,1.01654052734375,-4.11224365234375,2.863616943359375,9.3011474609375,1,1.0,1.0,1.0,1.0,10.00
2024-10-11 20:45:46.092,0.47151107,0.104393475,-0.19391029,0.41742906,0.6607455,-0.28533632,-0.6609119,0.2685314,0.8414115,-0.07984946,0.056614816,0.39198613,0.4564221,-0.16577436,0.5570312,0.41429058,0.15539658,-0.4049734,0.40102473,0.15190385,828.4249,794.9817,805.4579,828.022,837.28937,-0.0406494140625,0.01470947265625,1.01654052734375,-4.11224365234375,2.863616943359375,9.3011474609375,1,1.0,1.0,1.0,1.0,10.00
2024-10-11 20:45:46.093,0.47151107,0.104393475,-0.19391029,0.41742906,0.6607455,-0.28533632,-0.6609119,0.2685314,0.8414115,-0.07984946,0.056614816,0.39198613,0.4564221,-0.16577436,0.5570312,0.41429058,0.15539658,-0.4049734,0.40102473,0.15190385,827.619,793.7729,799.81683,826.4103,873.95605,-0.0406494140625,0.01470947265625,1.01654052734375,-4.11224365234375,2.863616943359375,9.3011474609375,1,1.0,1.0,1.0,1.0,10.00
2024-10-11 20:45:46.094,0.47151107,0.104393475,-0.19391029,0.41742906,0.6607455,-0.28533632,-0.6609119,0.2685314,0.8414115,-0.07984946,0.056614816,0.39198613,0.4564221,-0.16577436,0.5570312,0.41429058,0.15539658,-0.4049734,0.40102473,0.15190385,826.8132,792.1612,791.75824,815.5311,770.40295,-0.0406494140625,0.01470947265625,1.01654052734375,-4.11224365234375,2.863616943359375,9.3011474609375,1,1.0,1.0,1.0,1.0,10.00
2024-10-11 20:45:46.096,0.47151107,0.104393475,-0.19391029,0.41742906,0.6607455,-0.28533632,-0.6609119,0.2685314,0.8414115,-0.07984946,0.056614816,0.39198613,0.4564221,-0.16577436,0.5570312,0.41429058,0.15539658,-0.4049734,0.40102473,0.15190385,835.2747,796.99634,783.69965,815.9341,657.98535,-0.0406494140625,0.01470947265625,1.01654052734375,-4.11224365234375,2.863616943359375,9.3011474609375,1,1.0,1.0,1.0,1.0,10.00
2024-10-11 20:45:46.098,0.47151107,0.104393475,-0.19391029,0.41742906,0.6607455,-0.28533632,-0.6609119,0.2685314,0.8414115,-0.07984946,0.056614816,0.39198613,0.4564221,-0.16577436,0.5570312,0.41429058,0.15539658,-0.4049734,0.40102473,0.15190385,831.6484,796.99634,787.72894,827.619,685.38464,-0.0406494140625,0.01470947265625,1.01654052734375,-4.11224365234375,2.863616943359375,9.3011474609375,1,1.0,1.0,1.0,1.0,10.00
2024-10-11 20:45:46.099,0.47151107,0.104393475,-0.19391029,0.41742906,0.6607455,-0.28533632,-0.6609119,0.2685314,0.8414115,-0.07984946,0.056614816,0.39198613,0.4564221,-0.16577436,0.5570312,0.41429058,0.15539658,-0.4049734,0.40102473,0.15190385,823.5897,788.93774,797.8022,834.0659,953.73627,-0.0406494140625,0.01470947265625,1.01654052734375,-4.11224365234375,2.863616943359375,9.3011474609375,1,1.0,1.0,1.0,1.0,10.00
2024-10-11 20:45:46.123,0.47151107,0.104393475,-0.19391029,0.41742906,0.6607455,-0.28533632,-0.6609119,0.2685314,0.8414115,-0.07984946,0.056614816,0.39198613,0.4564221,-0.16577436,0.5570312,0.41429058,0.15539658,-0.4049734,0.40102473,0.15190385,815.9341,789.7436,798.20514,829.6337,824.7985,-0.0540771484375,0.00714111328125,1.00067138671875,-5.5328369140625,3.686065673828125,8.575897216796875,1,1.0,1.0,1.0,1.0,10.00
2024-10-11 20:45:46.124,0.47151107,0.104393475,-0.19391029,0.41742906,0.6607455,-0.28533632,-0.6609119,0.2685314,0.8414115,-0.07984946,0.056614816,0.39198613,0.4564221,-0.16577436,0.5570312,0.41429058,0.15539658,-0.4049734,0.40102473,0.15190385,813.5165,794.17584,789.7436,816.337,506.0806,-0.0540771484375,0.00714111328125,1.00067138671875,-5.5328369140625,3.686065673828125,8.575897216796875,1,1.0,1.0,1.0,1.0,10.00
2024-10-11 20:45:46.125,0.47151107,0.104393475,-0.19391029,0.41742906,0.6607455,-0.28533632,-0.6609119,0.2685314,0.8414115,-0.07984946,0.056614816,0.39198613,0.4564221,-0.16577436,0.5570312,0.41429058,0.15539658,-0.4049734,0.40102473,0.15190385,813.91943,795.38464,792.96704,818.3516,654.35895,-0.0540771484375,0.00714111328125,1.00067138671875,-5.5328369140625,3.686065673828125,8.575897216796875,1,1.0,1.0,1.0,1.0,10.00
2024-10-11 20:45:46.125,0.47151107,0.104393475,-0.19391029,0.41742906,0.6607455,-0.28533632,-0.6609119,0.2685314,0.8414115,-0.07984946,0.056614816,0.39198613,0.4564221,-0.16577436,0.5570312,0.41429058,0.15539658,-0.4049734,0.40102473,0.15190385,814.3223,794.9817,799.011,815.12823,782.0879,-0.0540771484375,0.00714111328125,1.00067138671875,-5.5328369140625,3.686065673828125,8.575897216796875,1,1.0,1.0,1.0,1.0,10.00
2024-10-11 20:45:46.126,0.47151107,0.104393475,-0.19391029,0.41742906,0.6607455,-0.28533632,-0.6609119,0.2685314,0.8414115,-0.07984946,0.056614816,0.39198613,0.4564221,-0.16577436,0.5570312,0.41429058,0.15539658,-0.4049734,0.40102473,0.15190385,816.7399,793.36993,796.1905,802.23444,619.304,-0.0540771484375,0.00714111328125,1.00067138671875,-5.5328369140625,3.686065673828125,8.575897216796875,1,1.0,1.0,1.0,1.0,10.00
2024-10-11 20:45:46.126,0.47151107,0.104393475,-0.19391029,0.41742906,0.6607455,-0.28533632,-0.6609119,0.2685314,0.8414115,-0.07984946,0.056614816,0.39198613,0.4564221,-0.16577436,0.5570312,0.41429058,0.15539658,-0.4049734,0.40102473,0.15190385,823.1868,791.75824,800.6227,808.68134,524.21246,-0.0540771484375,0.00714111328125,1.00067138671875,-5.5328369140625,3.686065673828125,8.575897216796875,1,1.0,1.0,1.0,1.0,10.00
2024-10-11 20:45:46.127,0.47151107,0.104393475,-0.19391029,0.41742906,0.6607455,-0.28533632,-0.6609119,0.2685314,0.8414115,-0.07984946,0.056614816,0.39198613,0.4564221,-0.16577436,0.5570312,0.41429058,0.15539658,-0.4049734,0.40102473,0.15190385,821.978,792.5641,800.2198,824.7985,678.1319,-0.0540771484375,0.00714111328125,1.00067138671875,-5.5328369140625,3.686065673828125,8.575897216796875,1,1.0,1.0,1.0,1.0,10.00
2024-10-11 20:45:46.128,0.47151107,0.104393475,-0.19391029,0.41742906,0.6607455,-0.28533632,-0.6609119,0.2685314,0.8414115,-0.07984946,0.056614816,0.39198613,0.4564221,-0.16577436,0.5570312,0.41429058,0.15539658,-0.4049734,0.40102473,0.15190385,814.3223,791.3553,799.011,832.0513,1200.3297,-0.0540771484375,0.00714111328125,1.00067138671875,-5.5328369140625,3.686065673828125,8.575897216796875,1,1.0,1.0,1.0,1.0,10.00
2024-10-11 20:45:46.128,0.47151107,0.104393475,-0.19391029,0.41742906,0.6607455,-0.28533632,-0.6609119,0.2685314,0.8414115,-0.07984946,0.056614816,0.39198613,0.4564221,-0.16577436,0.5570312,0.41429058,0.15539658,-0.4049734,0.40102473,0.15190385,819.15753,794.9817,798.60803,819.5604,1026.2638,-0.0540771484375,0.00714111328125,1.00067138671875,-5.5328369140625,3.686065673828125,8.575897216796875,1,1.0,1.0,1.0,1.0,10.00
2024-10-11 20:45:46.129,0.47151107,0.104393475,-0.19391029,0.41742906,0.6607455,-0.28533632,-0.6609119,0.2685314,0.8414115,-0.07984946,0.056614816,0.39198613,0.4564221,-0.16577436,0.5570312,0.41429058,0.15539658,-0.4049734,0.40102473,0.15190385,816.7399,799.41394,794.17584,806.26373,429.5238,-0.0540771484375,0.00714111328125,1.00067138671875,-5.5328369140625,3.686065673828125,8.575897216796875,1,1.0,1.0,1.0,1.0,10.00
2024-10-11 20:45:46.130,0.47151107,0.104393475,-0.19391029,0.41742906,0.6607455,-0.28533632,-0.6609119,0.2685314,0.8414115,-0.07984946,0.056614816,0.39198613,0.4564221,-0.16577436,0.5570312,0.41429058,0.15539658,-0.4049734,0.40102473,0.15190385,813.91943,799.41394,789.7436,809.89014,509.70697,-0.0540771484375,0.00714111328125,1.00067138671875,-5.5328369140625,3.686065673828125,8.575897216796875,1,1.0,1.0,1.0,1.0,10.00
2024-10-11 20:45:46.130,0.47151107,0.104393475,-0.19391029,0.41742906,0.6607455,-0.28533632,-0.6609119,0.2685314,0.8414115,-0.07984946,0.056614816,0.39198613,0.4564221,-0.16577436,0.5570312,0.41429058,0.15539658,-0.4049734,0.40102473,0.15190385,818.3516,801.4286,792.5641,811.50183,579.41394,-0.0540771484375,0.00714111328125,1.00067138671875,-5.5328369140625,3.686065673828125,8.575897216796875,1,1.0,1.0,1.0,1.0,10.00
2024-10-11 20:45:46.165,0.47151107,0.104393475,-0.19391029,0.41742906,0.6607455,-0.28533632,-0.6609119,0.2685314,0.8414115,-0.07984946,0.056614816,0.39198613,0.4564221,-0.16577436,0.5570312,0.41429058,0.15539658,-0.4049734,0.40102473,0.15190385,808.68134,803.0403,790.54944,809.4872,513.73627,-0.06280517578125,-0.008056640625,1.008544921875,-6.198272705078125,3.2598876953125,9.0020751953125,1,1.0,1.0,1.0,1.0,10.00
2024-10-11 20:45:46.166,0.47151107,0.12588534,-0.19965257,0.41742906,0.6607455,-0.2708071,-0.81538045,0.2685314,0.8414115,-0.09368669,0.040945534,0.39198613,0.4564221,-0.15745556,0.5504968,0.41429058,0.15539658,-0.395397,0.3696268,0.15190385,811.0989,798.60803,788.93774,805.8608,487.14285,-0.06280517578125,-0.008056640625,1.008544921875,-6.198272705078125,3.2598876953125,9.0020751953125,1,1.0,1.0,1.0,1.0,10.00
2024-10-11 20:45:46.172,0.47151107,0.12588534,-0.19965257,0.41742906,0.6607455,-0.2708071,-0.81538045,0.2685314,0.8414115,-0.09368669,0.040945534,0.39198613,0.4564221,-0.15745556,0.5504968,0.41429058,0.15539658,-0.395397,0.3696268,0.15190385,824.3956,801.8315,801.8315,807.8755,520.18317,-0.06280517578125,-0.008056640625,1.008544921875,-6.198272705078125,3.2598876953125,9.0020751953125,1,1.0,1.0,1.0,1.0,10.00
2024-10-11 20:45:46.172,0.47151107,0.12588534,-0.19965257,0.41742906,0.6607455,-0.2708071,-0.81538045,0.2685314,0.8414115,-0.09368669,0.040945534,0.39198613,0.4564221,-0.15745556,0.5504968,0.41429058,0.15539658,-0.395397,0.3696268,0.15190385,818.7546,804.2491,799.011,810.293,614.0659,-0.06280517578125,-0.008056640625,1.008544921875,-6.198272705078125,3.2598876953125,9.0020751953125,1,1.0,1.0,1.0,1.0,10.00
2024-10-11 20:45:46.173,0.47151107,0.12588534,-0.19965257,0.41742906,0.6607455,-0.2708071,-0.81538045,0.2685314,0.8414115,-0.09368669,0.040945534,0.39198613,0.4564221,-0.15745556,0.5504968,0.41429058,0.15539658,-0.395397,0.3696268,0.15190385,816.337,801.02563,789.7436,805.4579,564.5055,-0.06280517578125,-0.008056640625,1.008544921875,-6.198272705078125,3.2598876953125,9.0020751953125,1,1.0,1.0,1.0,1.0,10.00
2024-10-11 20:45:46.173,0.47151107,0.12588534,-0.19965257,0.41742906,0.6607455,-0.2708071,-0.81538045,0.2685314,0.8414115,-0.09368669,0.040945534,0.39198613,0.4564221,-0.15745556,0.5504968,0.41429058,0.15539658,-0.395397,0.3696268,0.15190385,817.9487,801.02563,781.685,803.8461,641.06226,-0.06280517578125,-0.008056640625,1.008544921875,-6.198272705078125,3.2598876953125,9.0020751953125,1,1.0,1.0,1.0,1.0,10.00
2024-10-11 20:45:46.174,0.47151107,0.12588534,-0.19965257,0.41742906,0.6607455,-0.2708071,-0.81538045,0.2685314,0.8414115,-0.09368669,0.040945534,0.39198613,0.4564221,-0.15745556,0.5504968,0.41429058,0.15539658,-0.395397,0.3696268,0.15190385,818.3516,799.81683,789.34064,805.8608,1000.07324,-0.06280517578125,-0.008056640625,1.008544921875,-6.198272705078125,3.2598876953125,9.0020751953125,1,1.0,1.0,1.0,1.0,10.00
2024-10-11 20:45:46.174,0.47151107,0.12588534,-0.19965257,0.41742906,0.6607455,-0.2708071,-0.81538045,0.2685314,0.8414115,-0.09368669,0.040945534,0.39198613,0.4564221,-0.15745556,0.5504968,0.41429058,0.15539658,-0.395397,0.3696268,0.15190385,826.0073,799.81683,803.0403,805.4579,829.6337,-0.06280517578125,-0.008056640625,1.008544921875,-6.198272705078125,3.2598876953125,9.0020751953125,1,1.0,1.0,1.0,1.0,10.00
2024-10-11 20:45:46.175,0.47151107,0.12588534,-0.19965257,0.41742906,0.6607455,-0.2708071,-0.81538045,0.2685314,0.8414115,-0.09368669,0.040945534,0.39198613,0.4564221,-0.15745556,0.5504968,0.41429058,0.15539658,-0.395397,0.3696268,0.15190385,822.381,804.2491,807.47253,811.9048,411.39194,-0.06280517578125,-0.008056640625,1.008544921875,-6.198272705078125,3.2598876953125,9.0020751953125,1,1.0,1.0,1.0,1.0,10.00
2024-10-11 20:45:46.175,0.47151107,0.12588534,-0.19965257,0.41742906,0.6607455,-0.2708071,-0.81538045,0.2685314,0.8414115,-0.09368669,0.040945534,0.39198613,0.4564221,-0.15745556,0.5504968,0.41429058,0.15539658,-0.395397,0.3696268,0.15190385,823.9927,805.4579,807.8755,819.9634,520.18317,-0.06280517578125,-0.008056640625,1.008544921875,-6.198272705078125,3.2598876953125,9.0020751953125,1,1.0,1.0,1.0,1.0,10.00
2024-10-11 20:45:46.176,0.47151107,0.12588534,-0.19965257,0.41742906,0.6607455,-0.2708071,-0.81538045,0.2685314,0.8414115,-0.09368669,0.040945534,0.39198613,0.4564221,-0.15745556,0.5504968,0.41429058,0.15539658,-0.395397,0.3696268,0.15190385,824.3956,801.8315,802.23444,817.1429,648.71796,-0.06280517578125,-0.008056640625,1.008544921875,-6.198272705078125,3.2598876953125,9.0020751953125,1,1.0,1.0,1.0,1.0,10.00
2024-10-11 20:45:46.176,0.47151107,0.12588534,-0.19965257,0.41742906,0.6607455,-0.2708071,-0.81538045,0.2685314,0.8414115,-0.09368669,0.040945534,0.39198613,0.4564221,-0.15745556,0.5504968,0.41429058,0.15539658,-0.395397,0.3696268,0.15190385,819.15753,801.8315,802.6374,823.1868,538.315,-0.06280517578125,-0.008056640625,1.008544921875,-6.198272705078125,3.2598876953125,9.0020751953125,1,1.0,1.0,1.0,1.0,10.00
2024-10-11 20:45:46.213,0.47151107,0.12588534,-0.19965257,0.41742906,0.6607455,-0.2708071,-0.81538045,0.2685314,0.8414115,-0.09368669,0.040945534,0.39198613,0.4564221,-0.15745556,0.5504968,0.41429058,0.15539658,-0.395397,0.3696268,0.15190385,822.381,801.02563,799.011,820.3663,515.7509,-0.06756591796875,-0.0167236328125,1.00543212890625,-5.510406494140625,2.94586181640625,10.3778076171875,1,1.0,1.0,1.0,1.0,10.00
2024-10-11 20:45:46.214,0.47151107,0.12588534,-0.19965257,0.41742906,0.6607455,-0.2708071,-0.81538045,0.2685314,0.8414115,-0.09368669,0.040945534,0.39198613,0.4564221,-0.15745556,0.5504968,0.41429058,0.15539658,-0.395397,0.3696268,0.15190385,815.5311,798.60803,794.9817,809.0842,641.8681,-0.06756591796875,-0.0167236328125,1.00543212890625,-5.510406494140625,2.94586181640625,10.3778076171875,1,1.0,1.0,1.0,1.0,10.00
2024-10-11 20:45:46.215,0.47151107,0.12588534,-0.19965257,0.41742906,0.6607455,-0.2708071,-0.81538045,0.2685314,0.8414115,-0.09368669,0.040945534,0.39198613,0.4564221,-0.15745556,0.5504968,0.41429058,0.15539658,-0.395397,0.3696268,0.15190385,815.9341,796.99634,799.81683,812.3077,627.76556,-0.06756591796875,-0.0167236328125,1.00543212890625,-5.510406494140625,2.94586181640625,10.3778076171875,1,1.0,1.0,1.0,1.0,10.00
2024-10-11 20:45:46.215,0.47151107,0.12588534,-0.19965257,0.41742906,0.6607455,-0.2708071,-0.81538045,0.2685314,0.8414115,-0.09368669,0.040945534,0.39198613,0.4564221,-0.15745556,0.5504968,0.41429058,0.15539658,-0.395397,0.3696268,0.15190385,819.5604,795.38464,793.7729,815.5311,514.1392,-0.06756591796875,-0.0167236328125,1.00543212890625,-5.510406494140625,2.94586181640625,10.3778076171875,1,1.0,1.0,1.0,1.0,10.00
2024-10-11 20:45:46.216,0.47151107,0.12588534,-0.19965257,0.41742906,0.6607455,-0.2708071,-0.81538045,0.2685314,0.8414115,-0.09368669,0.040945534,0.39198613,0.4564221,-0.15745556,0.5504968,0.41429058,0.15539658,-0.395397,0.3696268,0.15190385,815.5311,796.99634,796.5934,807.47253,489.56042,-0.06756591796875,-0.0167236328125,1.00543212890625,-5.510406494140625,2.94586181640625,10.3778076171875,1,1.0,1.0,1.0,1.0,10.00
2024-10-11 20:45:46.216,0.47151107,0.12588534,-0.19965257,0.41742906,0.6607455,-0.2708071,-0.81538045,0.2685314,0.8414115,-0.09368669,0.040945534,0.39198613,0.4564221,-0.15745556,0.5504968,0.41429058,0.15539658,-0.395397,0.3696268,0.15190385,805.8608,790.9524,796.99634,805.05493,858.24176,-0.06756591796875,-0.0167236328125,1.00543212890625,-5.510406494140625,2.94586181640625,10.3778076171875,1,1.0,1.0,1.0,1.0,10.00
2024-10-11 20:45:46.217,0.47151107,0.12588534,-0.19965257,0.41742906,0.6607455,-0.2708071,-0.81538045,0.2685314,0.8414115,-0.09368669,0.040945534,0.39198613,0.4564221,-0.15745556,0.5504968,0.41429058,0.15539658,-0.395397,0.3696268,0.15190385,801.4286,792.5641,789.34064,819.15753,930.3663,-0.06756591796875,-0.0167236328125,1.00543212890625,-5.510406494140625,2.94586181640625,10.3778076171875,1,1.0,1.0,1.0,1.0,10.00
2024-10-11 20:45:46.217,0.47151107,0.12588534,-0.19965257,0.41742906,0.6607455,-0.2708071,-0.81538045,0.2685314,0.8414115,-0.09368669,0.040945534,0.39198613,0.4564221,-0.15745556,0.5504968,0.41429058,0.15539658,-0.395397,0.3696268,0.15190385,809.4872,795.78754,807.0696,815.5311,532.27106,-0.06756591796875,-0.0167236328125,1.00543212890625,-5.510406494140625,2.94586181640625,10.3778076171875,1,1.0,1.0,1.0,1.0,10.00
2024-10-11 20:45:46.218,0.47151107,0.12588534,-0.19965257,0.41742906,0.6607455,-0.2708071,-0.81538045,0.2685314,0.8414115,-0.09368669,0.040945534,0.39198613,0.4564221,-0.15745556,0.5504968,0.41429058,0.15539658,-0.395397,0.3696268,0.15190385,817.5458,793.36993,811.0989,803.44324,488.75458,-0.06756591796875,-0.0167236328125,1.00543212890625,-5.510406494140625,2.94586181640625,10.3778076171875,1,1.0,1.0,1.0,1.0,10.00
2024-10-11 20:45:46.218,0.47151107,0.12588534,-0.19965257,0.41742906,0.6607455,-0.2708071,-0.81538045,0.2685314,0.8414115,-0.09368669,0.040945534,0.39198613,0.4564221,-0.15745556,0.5504968,0.41429058,0.15539658,-0.395397,0.3696268,0.15190385,815.9341,798.60803,801.8315,809.89014,783.2967,-0.06756591796875,-0.0167236328125,1.00543212890625,-5.510406494140625,2.94586181640625,10.3778076171875,1,1.0,1.0,1.0,1.0,10.00
2024-10-11 20:45:46.219,0.47151107,0.12588534,-0.19965257,0.41742906,0.6607455,-0.2708071,-0.81538045,0.2685314,0.8414115,-0.09368669,0.040945534,0.39198613,0.4564221,-0.15745556,0.5504968,0.41429058,0.15539658,-0.395397,0.3696268,0.15190385,806.6667,800.2198,793.7729,814.3223,912.23444,-0.06756591796875,-0.0167236328125,1.00543212890625,-5.510406494140625,2.94586181640625,10.3778076171875,1,1.0,1.0,1.0,1.0,10.00
2024-10-11 20:45:46.220,0.47151107,0.12588534,-0.19965257,0.41742906,0.6607455,-0.2708071,-0.81538045,0.2685314,0.8414115,-0.09368669,0.040945534,0.39198613,0.4564221,-0.15745556,0.5504968,0.41429058,0.15539658,-0.395397,0.3696268,0.15190385,802.6374,800.6227,791.75824,805.8608,622.9304,-0.06756591796875,-0.0167236328125,1.00543212890625,-5.510406494140625,2.94586181640625,10.3778076171875,1,1.0,1.0,1.0,1.0,10.00
2024-10-11 20:45:46.246,0.47151107,0.12588534,-0.19965257,0.41742906,0.6607455,-0.2708071,-0.81538045,0.2685314,0.8414115,-0.09368669,0.040945534,0.39198613,0.4564221,-0.15745556,0.5504968,0.41429058,0.15539658,-0.395397,0.3696268,0.15190385,809.0842,802.23444,798.20514,800.6227,638.24176,-0.08062744140625,-0.02459716796875,1.006591796875,-5.345916748046875,3.775787353515625,10.84136962890625,1,1.0,1.0,1.0,1.0,10.00
2024-10-11 20:45:46.247,0.47151107,0.12588534,-0.19965257,0.41742906,0.6607455,-0.2708071,-0.81538045,0.2685314,0.8414115,-0.09368669,0.040945534,0.39198613,0.4564221,-0.15745556,0.5504968,0.41429058,0.15539658,-0.395397,0.3696268,0.15190385,808.68134,796.5934,801.4286,808.2784,765.9707,-0.08062744140625,-0.02459716796875,1.006591796875,-5.345916748046875,3.775787353515625,10.84136962890625,1,1.0,1.0,1.0,1.0,10.00
2024-10-11 20:45:46.248,0.47151107,0.12588534,-0.19965257,0.41742906,0.6607455,-0.2708071,-0.81538045,0.2685314,0.8414115,-0.09368669,0.040945534,0.39198613,0.4564221,-0.15745556,0.5504968,0.41429058,0.15539658,-0.395397,0.3696268,0.15190385,805.8608,797.8022,792.5641,810.696,649.5238,-0.08062744140625,-0.02459716796875,1.006591796875,-5.345916748046875,3.775787353515625,10.84136962890625,1,1.0,1.0,1.0,1.0,10.00
2024-10-11 20:45:46.248,0.47151107,0.15614787,-0.20380141,0.41742906,0.6607455,-0.2527543,-0.96786684,0.2685314,0.8414115,-0.10681345,-0.016671894,0.39198613,0.4564221,-0.14826639,0.54857117,0.41429058,0.15539658,-0.39278948,0.3238273,0.15190385,810.293,801.8315,792.5641,800.6227,508.09525,-0.08062744140625,-0.02459716796875,1.006591796875,-5.345916748046875,3.775787353515625,10.84136962890625,1,1.0,1.0,1.0,1.0,10.00
2024-10-11 20:45:46.253,0.47151107,0.15614787,-0.20380141,0.41742906,0.6607455,-0.2527543,-0.96786684,0.2685314,0.8414115,-0.10681345,-0.016671894,0.39198613,0.4564221,-0.14826639,0.54857117,0.41429058,0.15539658,-0.39278948,0.3238273,0.15190385,815.5311,803.0403,803.8461,806.26373,546.77655,-0.08062744140625,-0.02459716796875,1.006591796875,-5.345916748046875,3.775787353515625,10.84136962890625,1,1.0,1.0,1.0,1.0,10.00
2024-10-11 20:45:46.253,0.47151107,0.15614787,-0.20380141,0.41742906,0.6607455,-0.2527543,-0.96786684,0.2685314,0.8414115,-0.10681345,-0.016671894,0.39198613,0.4564221,-0.14826639,0.54857117,0.41429058,0.15539658,-0.39278948,0.3238273,0.15190385,824.3956,803.44324,806.6667,810.293,739.3773,-0.08062744140625,-0.02459716796875,1.006591796875,-5.345916748046875,3.775787353515625,10.84136962890625,1,1.0,1.0,1.0,1.0,10.00
2024-10-11 20:45:46.254,0.47151107,0.15614787,-0.20380141,0.41742906,0.6607455,-0.2527543,-0.96786684,0.2685314,0.8414115,-0.10681345,-0.016671894,0.39198613,0.4564221,-0.14826639,0.54857117,0.41429058,0.15539658,-0.39278948,0.3238273,0.15190385,818.7546,797.3993,807.8755,805.8608,751.06226,-0.08062744140625,-0.02459716796875,1.006591796875,-5.345916748046875,3.775787353515625,10.84136962890625,1,1.0,1.0,1.0,1.0,10.00
2024-10-11 20:45:46.254,0.47151107,0.15614787,-0.20380141,0.41742906,0.6607455,-0.2527543,-0.96786684,0.2685314,0.8414115,-0.10681345,-0.016671894,0.39198613,0.4564221,-0.14826639,0.54857117,0.41429058,0.15539658,-0.39278948,0.3238273,0.15190385,799.41394,799.41394,799.81683,810.696,620.9158,-0.08062744140625,-0.02459716796875,1.006591796875,-5.345916748046875,3.775787353515625,10.84136962890625,1,1.0,1.0,1.0,1.0,10.00
2024-10-11 20:45:46.254,0.47151107,0.15614787,-0.20380141,0.41742906,0.6607455,-0.2527543,-0.96786684,0.2685314,0.8414115,-0.10681345,-0.016671894,0.39198613,0.4564221,-0.14826639,0.54857117,0.41429058,0.15539658,-0.39278948,0.3238273,0.15190385,805.05493,802.6374,783.2967,812.3077,719.2308,-0.08062744140625,-0.02459716796875,1.006591796875,-5.345916748046875,3.775787353515625,10.84136962890625,1,1.0,1.0,1.0,1.0,10.00
2024-10-11 20:45:46.255,0.47151107,0.15614787,-0.20380141,0.41742906,0.6607455,-0.2527543,-0.96786684,0.2685314,0.8414115,-0.10681345,-0.016671894,0.39198613,0.4564221,-0.14826639,0.54857117,0.41429058,0.15539658,-0.39278948,0.3238273,0.15190385,807.47253,799.81683,794.57874,808.2784,874.35895,-0.08062744140625,-0.02459716796875,1.006591796875,-5.345916748046875,3.775787353515625,10.84136962890625,1,1.0,1.0,1.0,1.0,10.00
2024-10-11 20:45:46.255,0.47151107,0.15614787,-0.20380141,0.41742906,0.6607455,-0.2527543,-0.96786684,0.2685314,0.8414115,-0.10681345,-0.016671894,0.39198613,0.4564221,-0.14826639,0.54857117,0.41429058,0.15539658,-0.39278948,0.3238273,0.15190385,807.8755,801.4286,808.2784,810.696,733.73627,-0.08062744140625,-0.02459716796875,1.006591796875,-5.345916748046875,3.775787353515625,10.84136962890625,1,1.0,1.0,1.0,1.0,10.00
2024-10-11 20:45:46.256,0.47151107,0.15614787,-0.20380141,0.41742906,0.6607455,-0.2527543,-0.96786684,0.2685314,0.8414115,-0.10681345,-0.016671894,0.39198613,0.4564221,-0.14826639,0.54857117,0.41429058,0.15539658,-0.39278948,0.3238273,0.15190385,812.3077,803.0403,807.47253,808.2784,576.99634,-0.08062744140625,-0.02459716796875,1.006591796875,-5.345916748046875,3.775787353515625,10.84136962890625,1,1.0,1.0,1.0,1.0,10.00
2024-10-11 20:45:46.348,0.47151107,0.15614787,-0.20380141,0.41742906,0.6607455,-0.2527543,-0.96786684,0.2685314,0.8414115,-0.10681345,-0.016671894,0.39198613,0.4564221,-0.14826639,0.54857117,0.41429058,0.15539658,-0.39278948,0.3238273,0.15190385,816.7399,800.2198,800.2198,809.89014,669.2674,-0.08062744140625,-0.02459716796875,1.006591796875,-5.345916748046875,3.775787353515625,10.84136962890625,1,1.0,1.0,1.0,1.0,10.00
2024-10-11 20:45:46.349,0.47151107,0.15614787,-0.20380141,0.41742906,0.6607455,-0.2527543,-0.96786684,0.2685314,0.8414115,-0.10681345,-0.016671894,0.39198613,0.4564221,-0.14826639,0.54857117,0.41429058,0.15539658,-0.39278948,0.3238273,0.15190385,825.6044,800.6227,791.3553,819.9634,818.3516,-0.08062744140625,-0.02459716796875,1.006591796875,-5.345916748046875,3.775787353515625,10.84136962890625,1,1.0,1.0,1.0,1.0,10.00
2024-10-11 20:45:46.350,0.47151107,0.15614787,-0.20380141,0.41742906,0.6607455,-0.2527543,-0.96786684,0.2685314,0.8414115,-0.10681345,-0.016671894,0.39198613,0.4564221,-0.14826639,0.54857117,0.41429058,0.15539658,-0.39278948,0.3238273,0.15190385,827.619,801.8315,798.20514,821.1722,699.4872,-0.08062744140625,-0.02459716796875,1.006591796875,-5.345916748046875,3.775787353515625,10.84136962890625,1,1.0,1.0,1.0,1.0,10.00
2024-10-11 20:45:46.350,0.47151107,0.15614787,-0.20380141,0.41742906,0.6607455,-0.2527543,-0.96786684,0.2685314,0.8414115,-0.10681345,-0.016671894,0.39198613,0.4564221,-0.14826639,0.54857117,0.41429058,0.15539658,-0.39278948,0.3238273,0.15190385,819.15753,800.6227,803.8461,812.3077,599.15753,-0.08062744140625,-0.02459716796875,1.006591796875,-5.345916748046875,3.775787353515625,10.84136962890625,1,1.0,1.0,1.0,1.0,10.00
2024-10-11 20:45:46.351,0.47151107,0.15614787,-0.20380141,0.41742906,0.6607455,-0.2527543,-0.96786684,0.2685314,0.8414115,-0.10681345,-0.016671894,0.39198613,0.4564221,-0.14826639,0.54857117,0.41429058,0.15539658,-0.39278948,0.3238273,0.15190385,809.89014,801.4286,791.75824,803.8461,745.0183,-0.08062744140625,-0.02459716796875,1.006591796875,-5.345916748046875,3.775787353515625,10.84136962890625,1,1.0,1.0,1.0,1.0,10.00
2024-10-11 20:45:46.351,0.47151107,0.15614787,-0.20380141,0.41742906,0.6607455,-0.2527543,-0.96786684,0.2685314,0.8414115,-0.10681345,-0.016671894,0.39198613,0.4564221,-0.14826639,0.54857117,0.41429058,0.15539658,-0.39278948,0.3238273,0.15190385,802.23444,799.011,784.5055,807.8755,854.61536,-0.08062744140625,-0.02459716796875,1.006591796875,-5.345916748046875,3.775787353515625,10.84136962890625,1,1.0,1.0,1.0,1.0,10.00
2024-10-11 20:45:46.352,0.47151107,0.15614787,-0.20380141,0.41742906,0.6607455,-0.2527543,-0.96786684,0.2685314,0.8414115,-0.10681345,-0.016671894,0.39198613,0.4564221,-0.14826639,0.54857117,0.41429058,0.15539658,-0.39278948,0.3238273,0.15190385,801.8315,801.8315,799.81683,808.68134,827.619,-0.08062744140625,-0.02459716796875,1.006591796875,-5.345916748046875,3.775787353515625,10.84136962890625,1,1.0,1.0,1.0,1.0,10.00
2024-10-11 20:45:46.352,0.47151107,0.15614787,-0.20380141,0.41742906,0.6607455,-0.2527543,-0.96786684,0.2685314,0.8414115,-0.10681345,-0.016671894,0.39198613,0.4564221,-0.14826639,0.54857117,0.41429058,0.15539658,-0.39278948,0.3238273,0.15190385,807.47253,805.4579,803.0403,813.1135,654.7619,-0.08062744140625,-0.02459716796875,1.006591796875,-5.345916748046875,3.775787353515625,10.84136962890625,1,1.0,1.0,1.0,1.0,10.00
2024-10-11 20:45:46.353,0.47151107,0.15614787,-0.20380141,0.41742906,0.6607455,-0.2527543,-0.96786684,0.2685314,0.8414115,-0.10681345,-0.016671894,0.39198613,0.4564221,-0.14826639,0.54857117,0.41429058,0.15539658,-0.39278948,0.3238273,0.15190385,811.9048,802.23444,800.2198,813.91943,748.24176,-0.08062744140625,-0.02459716796875,1.006591796875,-5.345916748046875,3.775787353515625,10.84136962890625,1,1.0,1.0,1.0,1.0,10.00
2024-10-11 20:45:46.353,0.47151107,0.15614787,-0.20380141,0.41742906,0.6607455,-0.2527543,-0.96786684,0.2685314,0.8414115,-0.10681345,-0.016671894,0.39198613,0.4564221,-0.14826639,0.54857117,0.41429058,0.15539658,-0.39278948,0.3238273,0.15190385,809.0842,800.2198,798.20514,807.8755,981.53845,-0.08062744140625,-0.02459716796875,1.006591796875,-5.345916748046875,3.775787353515625,10.84136962890625,1,1.0,1.0,1.0,1.0,10.00
2024-10-11 20:45:46.354,0.47151107,0.15614787,-0.20380141,0.41742906,0.6607455,-0.2527543,-0.96786684,0.2685314,0.8414115,-0.10681345,-0.016671894,0.39198613,0.4564221,-0.14826639,0.54857117,0.41429058,0.15539658,-0.39278948,0.3238273,0.15190385,805.8608,801.4286,791.75824,803.8461,676.52014,-0.08062744140625,-0.02459716796875,1.006591796875,-5.345916748046875,3.775787353515625,10.84136962890625,1,1.0,1.0,1.0,1.0,10.00
2024-10-11 20:45:46.354,0.47151107,0.15614787,-0.20380141,0.41742906,0.6607455,-0.2527543,-0.96786684,0.2685314,0.8414115,-0.10681345,-0.016671894,0.39198613,0.4564221,-0.14826639,0.54857117,0.41429058,0.15539658,-0.39278948,0.3238273,0.15190385,813.5165,801.02563,797.8022,805.05493,580.2198,-0.08062744140625,-0.02459716796875,1.006591796875,-5.345916748046875,3.775787353515625,10.84136962890625,1,1.0,1.0,1.0,1.0,10.00
2024-10-11 20:45:46.355,0.47151107,0.15614787,-0.20380141,0.41742906,0.6607455,-0.2527543,-0.96786684,0.2685314,0.8414115,-0.10681345,-0.016671894,0.39198613,0.4564221,-0.14826639,0.54857117,0.41429058,0.15539658,-0.39278948,0.3238273,0.15190385,814.7253,800.6227,796.1905,796.5934,675.31134,-0.08837890625,-0.0372314453125,1.00433349609375,-5.375823974609375,2.213134765625,8.725433349609375,1,1.0,1.0,1.0,1.0,10.00
2024-10-11 20:45:46.355,0.47151107,0.15614787,-0.20380141,0.41742906,0.6607455,-0.2527543,-0.96786684,0.2685314,0.8414115,-0.10681345,-0.016671894,0.39198613,0.4564221,-0.14826639,0.54857117,0.41429058,0.15539658,-0.39278948,0.3238273,0.15190385,812.71063,798.60803,802.23444,790.54944,669.2674,-0.08837890625,-0.0372314453125,1.00433349609375,-5.375823974609375,2.213134765625,8.725433349609375,1,1.0,1.0,1.0,1.0,10.00
2024-10-11 20:45:46.356,0.47151107,0.15614787,-0.20380141,0.41742906,0.6607455,-0.2527543,-0.96786684,0.2685314,0.8414115,-0.10681345,-0.016671894,0.39198613,0.4564221,-0.14826639,0.54857117,0.41429058,0.15539658,-0.39278948,0.3238273,0.15190385,819.5604,796.5934,804.65204,799.41394,617.6923,-0.08837890625,-0.0372314453125,1.00433349609375,-5.375823974609375,2.213134765625,8.725433349609375,1,1.0,1.0,1.0,1.0,10.00
2024-10-11 20:45:46.356,0.47151107,0.15614787,-0.20380141,0.41742906,0.6607455,-0.2527543,-0.96786684,0.2685314,0.8414115,-0.10681345,-0.016671894,0.39198613,0.4564221,-0.14826639,0.54857117,0.41429058,0.15539658,-0.39278948,0.3238273,0.15190385,813.1135,798.60803,796.99634,809.0842,629.7802,-0.08837890625,-0.0372314453125,1.00433349609375,-5.375823974609375,2.213134765625,8.725433349609375,1,1.0,1.0,1.0,1.0,10.00
2024-10-11 20:45:46.357,0.47151107,0.15614787,-0.20380141,0.41742906,0.6607455,-0.2527543,-0.96786684,0.2685314,0.8414115,-0.10681345,-0.016671894,0.39198613,0.4564221,-0.14826639,0.54857117,0.41429058,0.15539658,-0.39278948,0.3238273,0.15190385,801.4286,798.60803,797.3993,807.47253,761.9414,-0.08837890625,-0.0372314453125,1.00433349609375,-5.375823974609375,2.213134765625,8.725433349609375,1,1.0,1.0,1.0,1.0,10.00
2024-10-11 20:45:46.357,0.47151107,0.18544702,-0.22633211,0.41742906,0.6607455,-0.24200316,-1.0621821,0.2685314,0.8414115,-0.1532869,-0.12688778,0.39198613,0.4564221,-0.1408842,0.54555196,0.41429058,0.15539658,-0.40394285,0.2732873,0.15190385,803.0403,799.011,801.4286,803.0403,880.0,-0.08837890625,-0.0372314453125,1.00433349609375,-5.375823974609375,2.213134765625,8.725433349609375,1,1.0,1.0,1.0,1.0,10.00
2024-10-11 20:45:46.361,0.47151107,0.18544702,-0.22633211,0.41742906,0.6607455,-0.24200316,-1.0621821,0.2685314,0.8414115,-0.1532869,-0.12688778,0.39198613,0.4564221,-0.1408842,0.54555196,0.41429058,0.15539658,-0.40394285,0.2732873,0.15190385,807.8755,801.02563,799.011,801.4286,780.4762,-0.08837890625,-0.0372314453125,1.00433349609375,-5.375823974609375,2.213134765625,8.725433349609375,1,1.0,1.0,1.0,1.0,10.00
2024-10-11 20:45:46.362,0.47151107,0.18544702,-0.22633211,0.41742906,0.6607455,-0.24200316,-1.0621821,0.2685314,0.8414115,-0.1532869,-0.12688778,0.39198613,0.4564221,-0.1408842,0.54555196,0.41429058,0.15539658,-0.40394285,0.2732873,0.15190385,806.26373,801.8315,785.31134,803.0403,882.8205,-0.08837890625,-0.0372314453125,1.00433349609375,-5.375823974609375,2.213134765625,8.725433349609375,1,1.0,1.0,1.0,1.0,10.00
2024-10-11 20:45:46.362,0.47151107,0.18544702,-0.22633211,0.41742906,0.6607455,-0.24200316,-1.0621821,0.2685314,0.8414115,-0.1532869,-0.12688778,0.39198613,0.4564221,-0.1408842,0.54555196,0.41429058,0.15539658,-0.40394285,0.2732873,0.15190385,805.05493,800.2198,789.7436,799.41394,900.54944,-0.08837890625,-0.0372314453125,1.00433349609375,-5.375823974609375,2.213134765625,8.725433349609375,1,1.0,1.0,1.0,1.0,10.00
2024-10-11 20:45:46.363,0.47151107,0.18544702,-0.22633211,0.41742906,0.6607455,-0.24200316,-1.0621821,0.2685314,0.8414115,-0.1532869,-0.12688778,0.39198613,0.4564221,-0.1408842,0.54555196,0.41429058,0.15539658,-0.40394285,0.2732873,0.15190385,812.71063,799.011,797.3993,791.75824,712.381,-0.08837890625,-0.0372314453125,1.00433349609375,-5.375823974609375,2.213134765625,8.725433349609375,1,1.0,1.0,1.0,1.0,10.00
2024-10-11 20:45:46.363,0.47151107,0.18544702,-0.22633211,0.41742906,0.6607455,-0.24200316,-1.0621821,0.2685314,0.8414115,-0.1532869,-0.12688778,0.39198613,0.4564221,-0.1408842,0.54555196,0.41429058,0.15539658,-0.40394285,0.2732873,0.15190385,811.50183,798.20514,789.34064,796.5934,672.0879,-0.08837890625,-0.0372314453125,1.00433349609375,-5.375823974609375,2.213134765625,8.725433349609375,1,1.0,1.0,1.0,1.0,10.00
2024-10-11 20:45:46.364,0.47151107,0.18544702,-0.22633211,0.41742906,0.6607455,-0.24200316,-1.0621821,0.2685314,0.8414115,-0.1532869,-0.12688778,0.39198613,0.4564221,-0.1408842,0.54555196,0.41429058,0.15539658,-0.40394285,0.2732873,0.15190385,807.0696,799.81683,787.326,800.6227,792.1612,-0.08837890625,-0.0372314453125,1.00433349609375,-5.375823974609375,2.213134765625,8.725433349609375,1,1.0,1.0,1.0,1.0,10.00
2024-10-11 20:45:46.455,0.47151107,0.18544702,-0.22633211,0.41742906,0.6607455,-0.24200316,-1.0621821,0.2685314,0.8414115,-0.1532869,-0.12688778,0.39198613,0.4564221,-0.1408842,0.54555196,0.41429058,0.15539658,-0.40394285,0.2732873,0.15190385,806.26373,800.6227,785.7143,799.81683,842.52747,-0.0955810546875,-0.04119873046875,1.009033203125,-4.80010986328125,3.349609375,6.123504638671875,1,1.0,1.0,1.0,1.0,10.00
2024-10-11 20:45:46.456,0.47151107,0.18544702,-0.22633211,0.41742906,0.6607455,-0.24200316,-1.0621821,0.2685314,0.8414115,-0.1532869,-0.12688778,0.39198613,0.4564221,-0.1408842,0.54555196,0.41429058,0.15539658,-0.40394285,0.2732873,0.15190385,799.41394,803.0403,791.75824,794.9817,668.46155,-0.0955810546875,-0.04119873046875,1.009033203125,-4.80010986328125,3.349609375,6.123504638671875,1,1.0,1.0,1.0,1.0,10.00
2024-10-11 20:45:46.457,0.47151107,0.18544702,-0.22633211,0.41742906,0.6607455,-0.24200316,-1.0621821,0.2685314,0.8414115,-0.1532869,-0.12688778,0.39198613,0.4564221,-0.1408842,0.54555196,0.41429058,0.15539658,-0.40394285,0.2732873,0.15190385,805.8608,803.8461,800.6227,791.3553,602.7839,-0.0955810546875,-0.04119873046875,1.009033203125,-4.80010986328125,3.349609375,6.123504638671875,1,1.0,1.0,1.0,1.0,10.00
2024-10-11 20:45:46.457,0.47151107,0.18544702,-0.22633211,0.41742906,0.6607455,-0.24200316,-1.0621821,0.2685314,0.8414115,-0.1532869,-0.12688778,0.39198613,0.4564221,-0.1408842,0.54555196,0.41429058,0.15539658,-0.40394285,0.2732873,0.15190385,811.9048,796.5934,801.02563,794.9817,803.44324,-0.0955810546875,-0.04119873046875,1.009033203125,-4.80010986328125,3.349609375,6.123504638671875,1,1.0,1.0,1.0,1.0,10.00
2024-10-11 20:45:46.458,0.47151107,0.18544702,-0.22633211,0.41742906,0.6607455,-0.24200316,-1.0621821,0.2685314,0.8414115,-0.1532869,-0.12688778,0.39198613,0.4564221,-0.1408842,0.54555196,0.41429058,0.15539658,-0.40394285,0.2732873,0.15190385,807.47253,794.57874,797.8022,793.36993,905.38464,-0.0955810546875,-0.04119873046875,1.009033203125,-4.80010986328125,3.349609375,6.123504638671875,1,1.0,1.0,1.0,1.0,10.00
2024-10-11 20:45:46.459,0.47151107,0.18544702,-0.22633211,0.41742906,0.6607455,-0.24200316,-1.0621821,0.2685314,0.8414115,-0.1532869,-0.12688778,0.39198613,0.4564221,-0.1408842,0.54555196,0.41429058,0.15539658,-0.40394285,0.2732873,0.15190385,802.23444,796.5934,793.7729,795.38464,780.87915,-0.0955810546875,-0.04119873046875,1.009033203125,-4.80010986328125,3.349609375,6.123504638671875,1,1.0,1.0,1.0,1.0,10.00
2024-10-11 20:45:46.459,0.47151107,0.18544702,-0.22633211,0.41742906,0.6607455,-0.24200316,-1.0621821,0.2685314,0.8414115,-0.1532869,-0.12688778,0.39198613,0.4564221,-0.1408842,0.54555196,0.41429058,0.15539658,-0.40394285,0.2732873,0.15190385,800.2198,798.60803,796.1905,800.6227,788.1319,-0.0955810546875,-0.04119873046875,1.009033203125,-4.80010986328125,3.349609375,6.123504638671875,1,1.0,1.0,1.0,1.0,10.00
2024-10-11 20:45:46.460,0.47151107,0.18544702,-0.22633211,0.41742906,0.6607455,-0.24200316,-1.0621821,0.2685314,0.8414115,-0.1532869,-0.12688778,0.39198613,0.4564221,-0.1408842,0.54555196,0.41429058,0.15539658,-0.40394285,0.2732873,0.15190385,801.02563,799.41394,797.8022,804.2491,819.15753,-0.0955810546875,-0.04119873046875,1.009033203125,-4.80010986328125,3.349609375,6.123504638671875,1,1.0,1.0,1.0,1.0,10.00
2024-10-11 20:45:46.461,0.47151107,0.18544702,-0.22633211,0.41742906,0.6607455,-0.24200316,-1.0621821,0.2685314,0.8414115,-0.1532869,-0.12688778,0.39198613,0.4564221,-0.1408842,0.54555196,0.41429058,0.15539658,-0.40394285,0.2732873,0.15190385,802.23444,796.1905,794.9817,817.1429,1224.1025,-0.0955810546875,-0.04119873046875,1.009033203125,-4.80010986328125,3.349609375,6.123504638671875,1,1.0,1.0,1.0,1.0,10.00
2024-10-11 20:45:46.461,0.47151107,0.18544702,-0.22633211,0.41742906,0.6607455,-0.24200316,-1.0621821,0.2685314,0.8414115,-0.1532869,-0.12688778,0.39198613,0.4564221,-0.1408842,0.54555196,0.41429058,0.15539658,-0.40394285,0.2732873,0.15190385,804.2491,792.5641,788.1319,817.1429,1220.4762,-0.0955810546875,-0.04119873046875,1.009033203125,-4.80010986328125,3.349609375,6.123504638671875,1,1.0,1.0,1.0,1.0,10.00
2024-10-11 20:45:46.462,0.47151107,0.18544702,-0.22633211,0.41742906,0.6607455,-0.24200316,-1.0621821,0.2685314,0.8414115,-0.1532869,-0.12688778,0.39198613,0.4564221,-0.1408842,0.54555196,0.41429058,0.15539658,-0.40394285,0.2732873,0.15190385,811.0989,798.60803,795.38464,805.05493,686.1905,-0.0955810546875,-0.04119873046875,1.009033203125,-4.80010986328125,3.349609375,6.123504638671875,1,1.0,1.0,1.0,1.0,10.00
2024-10-11 20:45:46.463,0.47151107,0.18544702,-0.22633211,0.41742906,0.6607455,-0.24200316,-1.0621821,0.2685314,0.8414115,-0.1532869,-0.12688778,0.39198613,0.4564221,-0.1408842,0.54555196,0.41429058,0.15539658,-0.40394285,0.2732873,0.15190385,805.05493,799.011,805.8608,798.20514,530.2564,-0.0955810546875,-0.04119873046875,1.009033203125,-4.80010986328125,3.349609375,6.123504638671875,1,1.0,1.0,1.0,1.0,10.00
2024-10-11 20:45:46.464,0.47151107,0.18544702,-0.22633211,0.41742906,0.6607455,-0.24200316,-1.0621821,0.2685314,0.8414115,-0.1532869,-0.12688778,0.39198613,0.4564221,-0.1408842,0.54555196,0.41429058,0.15539658,-0.40394285,0.2732873,0.15190385,791.75824,794.17584,808.2784,799.81683,513.3333,-0.09771728515625,-0.052001953125,0.99456787109375,-4.000091552734375,2.459869384765625,5.87677001953125,1,1.0,1.0,1.0,1.0,10.00
2024-10-11 20:45:46.464,0.47151107,0.18544702,-0.22633211,0.41742906,0.6607455,-0.24200316,-1.0621821,0.2685314,0.8414115,-0.1532869,-0.12688778,0.39198613,0.4564221,-0.1408842,0.54555196,0.41429058,0.15539658,-0.40394285,0.2732873,0.15190385,793.7729,796.99634,792.5641,799.41394,526.2271,-0.09771728515625,-0.052001953125,0.99456787109375,-4.000091552734375,2.459869384765625,5.87677001953125,1,1.0,1.0,1.0,1.0,10.00
2024-10-11 20:45:46.465,0.47151107,0.18544702,-0.22633211,0.41742906,0.6607455,-0.24200316,-1.0621821,0.2685314,0.8414115,-0.1532869,-0.12688778,0.39198613,0.4564221,-0.1408842,0.54555196,0.41429058,0.15539658,-0.40394285,0.2732873,0.15190385,801.8315,796.99634,774.83514,798.60803,601.1722,-0.09771728515625,-0.052001953125,0.99456787109375,-4.000091552734375,2.459869384765625,5.87677001953125,1,1.0,1.0,1.0,1.0,10.00
2024-10-11 20:45:46.466,0.47151107,0.18544702,-0.22633211,0.41742906,0.6607455,-0.24200316,-1.0621821,0.2685314,0.8414115,-0.1532869,-0.12688778,0.39198613,0.4564221,-0.1408842,0.54555196,0.41429058,0.15539658,-0.40394285,0.2732873,0.15190385,806.26373,796.1905,793.36993,809.0842,580.2198,-0.09771728515625,-0.052001953125,0.99456787109375,-4.000091552734375,2.459869384765625,5.87677001953125,1,1.0,1.0,1.0,1.0,10.00
2024-10-11 20:45:46.467,0.47151107,0.18544702,-0.22633211,0.41742906,0.6607455,-0.24200316,-1.0621821,0.2685314,0.8414115,-0.1532869,-0.12688778,0.39198613,0.4564221,-0.1408842,0.54555196,0.41429058,0.15539658,-0.40394285,0.2732873,0.15190385,805.8608,796.1905,808.68134,806.6667,614.87177,-0.09771728515625,-0.052001953125,0.99456787109375,-4.000091552734375,2.459869384765625,5.87677001953125,1,1.0,1.0,1.0,1.0,10.00
2024-10-11 20:45:46.467,0.47151107,0.18544702,-0.22633211,0.41742906,0.6607455,-0.24200316,-1.0621821,0.2685314,0.8414115,-0.1532869,-0.12688778,0.39198613,0.4564221,-0.1408842,0.54555196,0.41429058,0.15539658,-0.40394285,0.2732873,0.15190385,799.41394,792.96704,809.89014,799.011,711.978,-0.09771728515625,-0.052001953125,0.99456787109375,-4.000091552734375,2.459869384765625,5.87677001953125,1,1.0,1.0,1.0,1.0,10.00
2024-10-11 20:45:46.468,0.47151107,0.18544702,-0.22633211,0.41742906,0.6607455,-0.24200316,-1.0621821,0.2685314,0.8414115,-0.1532869,-0.12688778,0.39198613,0.4564221,-0.1408842,0.54555196,0.41429058,0.15539658,-0.40394285,0.2732873,0.15190385,798.20514,792.96704,803.0403,793.7729,780.07324,-0.09771728515625,-0.052001953125,0.99456787109375,-4.000091552734375,2.459869384765625,5.87677001953125,1,1.0,1.0,1.0,1.0,10.00
2024-10-11 20:45:46.469,0.4805667,0.21280949,-0.2593852,0.42682803,0.64338535,-0.25068223,-1.0883224,0.29102606,0.8414115,-0.22182077,-0.24423292,0.3918128,0.45053488,-0.13688058,0.5402548,0.4281853,0.15932378,-0.42752737,0.23801304,0.1566829,803.0403,794.9817,803.0403,793.7729,812.71063,-0.09771728515625,-0.052001953125,0.99456787109375,-4.000091552734375,2.459869384765625,5.87677001953125,1,1.0,1.0,1.0,1.0,10.00
2024-10-11 20:45:46.475,0.4805667,0.21280949,-0.2593852,0.42682803,0.64338535,-0.25068223,-1.0883224,0.29102606,0.8414115,-0.22182077,-0.24423292,0.3918128,0.45053488,-0.13688058,0.5402548,0.4281853,0.15932378,-0.42752737,0.23801304,0.1566829,809.0842,796.5934,800.2198,805.4579,694.65204,-0.09771728515625,-0.052001953125,0.99456787109375,-4.000091552734375,2.459869384765625,5.87677001953125,1,1.0,1.0,1.0,1.0,10.00
2024-10-11 20:45:46.476,0.4805667,0.21280949,-0.2593852,0.42682803,0.64338535,-0.25068223,-1.0883224,0.29102606,0.8414115,-0.22182077,-0.24423292,0.3918128,0.45053488,-0.13688058,0.5402548,0.4281853,0.15932378,-0.42752737,0.23801304,0.1566829,814.7253,801.8315,795.78754,807.47253,577.3993,-0.09771728515625,-0.052001953125,0.99456787109375,-4.000091552734375,2.459869384765625,5.87677001953125,1,1.0,1.0,1.0,1.0,10.00
2024-10-11 20:45:46.476,0.4805667,0.21280949,-0.2593852,0.42682803,0.64338535,-0.25068223,-1.0883224,0.29102606,0.8414115,-0.22182077,-0.24423292,0.3918128,0.45053488,-0.13688058,0.5402548,0.4281853,0.15932378,-0.42752737,0.23801304,0.1566829,806.26373,800.6227,807.8755,803.8461,654.35895,-0.09771728515625,-0.052001953125,0.99456787109375,-4.000091552734375,2.459869384765625,5.87677001953125,1,1.0,1.0,1.0,1.0,10.00
2024-10-11 20:45:46.477,0.4805667,0.21280949,-0.2593852,0.42682803,0.64338535,-0.25068223,-1.0883224,0.29102606,0.8414115,-0.22182077,-0.24423292,0.3918128,0.45053488,-0.13688058,0.5402548,0.4281853,0.15932378,-0.42752737,0.23801304,0.1566829,794.17584,794.57874,804.2491,804.2491,911.02563,-0.09771728515625,-0.052001953125,0.99456787109375,-4.000091552734375,2.459869384765625,5.87677001953125,1,1.0,1.0,1.0,1.0,10.00
2024-10-11 20:45:46.507,0.4805667,0.21280949,-0.2593852,0.42682803,0.64338535,-0.25068223,-1.0883224,0.29102606,0.8414115,-0.22182077,-0.24423292,0.3918128,0.45053488,-0.13688058,0.5402548,0.4281853,0.15932378,-0.42752737,0.23801304,0.1566829,792.96704,791.75824,798.60803,794.57874,828.022,-0.09515380859375,-0.04730224609375,1.009521484375,-3.536529541015625,2.669219970703125,7.708587646484375,1,1.0,1.0,1.0,1.0,10.00
2024-10-11 20:45:46.508,0.4805667,0.21280949,-0.2593852,0.42682803,0.64338535,-0.25068223,-1.0883224,0.29102606,0.8414115,-0.22182077,-0.24423292,0.3918128,0.45053488,-0.13688058,0.5402548,0.4281853,0.15932378,-0.42752737,0.23801304,0.1566829,793.36993,791.75824,792.96704,794.17584,603.5897,-0.09515380859375,-0.04730224609375,1.009521484375,-3.536529541015625,2.669219970703125,7.708587646484375,1,1.0,1.0,1.0,1.0,10.00
2024-10-11 20:45:46.509,0.4805667,0.21280949,-0.2593852,0.42682803,0.64338535,-0.25068223,-1.0883224,0.29102606,0.8414115,-0.22182077,-0.24423292,0.3918128,0.45053488,-0.13688058,0.5402548,0.4281853,0.15932378,-0.42752737,0.23801304,0.1566829,804.65204,794.9817,794.9817,810.696,707.5458,-0.09515380859375,-0.04730224609375,1.009521484375,-3.536529541015625,2.669219970703125,7.708587646484375,1,1.0,1.0,1.0,1.0,10.00
2024-10-11 20:45:46.509,0.4805667,0.21280949,-0.2593852,0.42682803,0.64338535,-0.25068223,-1.0883224,0.29102606,0.8414115,-0.22182077,-0.24423292,0.3918128,0.45053488,-0.13688058,0.5402548,0.4281853,0.15932378,-0.42752737,0.23801304,0.1566829,804.2491,796.99634,806.26373,808.68134,888.0586,-0.09515380859375,-0.04730224609375,1.009521484375,-3.536529541015625,2.669219970703125,7.708587646484375,1,1.0,1.0,1.0,1.0,10.00
2024-10-11 20:45:46.510,0.4805667,0.21280949,-0.2593852,0.42682803,0.64338535,-0.25068223,-1.0883224,0.29102606,0.8414115,-0.22182077,-0.24423292,0.3918128,0.45053488,-0.13688058,0.5402548,0.4281853,0.15932378,-0.42752737,0.23801304,0.1566829,803.0403,798.60803,813.91943,801.4286,765.9707,-0.09515380859375,-0.04730224609375,1.009521484375,-3.536529541015625,2.669219970703125,7.708587646484375,1,1.0,1.0,1.0,1.0,10.00
2024-10-11 20:45:46.510,0.4805667,0.21280949,-0.2593852,0.42682803,0.64338535,-0.25068223,-1.0883224,0.29102606,0.8414115,-0.22182077,-0.24423292,0.3918128,0.45053488,-0.13688058,0.5402548,0.4281853,0.15932378,-0.42752737,0.23801304,0.1566829,802.23444,801.4286,805.05493,800.2198,725.2747,-0.09515380859375,-0.04730224609375,1.009521484375,-3.536529541015625,2.669219970703125,7.708587646484375,1,1.0,1.0,1.0,1.0,10.00
2024-10-11 20:45:46.511,0.4805667,0.21280949,-0.2593852,0.42682803,0.64338535,-0.25068223,-1.0883224,0.29102606,0.8414115,-0.22182077,-0.24423292,0.3918128,0.45053488,-0.13688058,0.5402548,0.4281853,0.15932378,-0.42752737,0.23801304,0.1566829,797.8022,796.5934,794.57874,803.0403,972.27106,-0.09515380859375,-0.04730224609375,1.009521484375,-3.536529541015625,2.669219970703125,7.708587646484375,1,1.0,1.0,1.0,1.0,10.00
2024-10-11 20:45:46.511,0.4805667,0.21280949,-0.2593852,0.42682803,0.64338535,-0.25068223,-1.0883224,0.29102606,0.8414115,-0.22182077,-0.24423292,0.3918128,0.45053488,-0.13688058,0.5402548,0.4281853,0.15932378,-0.42752737,0.23801304,0.1566829,806.6667,793.7729,780.07324,810.293,955.7509,-0.09515380859375,-0.04730224609375,1.009521484375,-3.536529541015625,2.669219970703125,7.708587646484375,1,1.0,1.0,1.0,1.0,10.00
2024-10-11 20:45:46.512,0.4805667,0.21280949,-0.2593852,0.42682803,0.64338535,-0.25068223,-1.0883224,0.29102606,0.8414115,-0.22182077,-0.24423292,0.3918128,0.45053488,-0.13688058,0.5402548,0.4281853,0.15932378,-0.42752737,0.23801304,0.1566829,813.1135,799.011,777.25275,801.4286,637.03296,-0.09515380859375,-0.04730224609375,1.009521484375,-3.536529541015625,2.669219970703125,7.708587646484375,1,1.0,1.0,1.0,1.0,10.00
2024-10-11 20:45:46.512,0.4805667,0.21280949,-0.2593852,0.42682803,0.64338535,-0.25068223,-1.0883224,0.29102606,0.8414115,-0.22182077,-0.24423292,0.3918128,0.45053488,-0.13688058,0.5402548,0.4281853,0.15932378,-0.42752737,0.23801304,0.1566829,813.1135,801.8315,803.44324,797.8022,480.69598,-0.09515380859375,-0.04730224609375,1.009521484375,-3.536529541015625,2.669219970703125,7.708587646484375,1,1.0,1.0,1.0,1.0,10.00
2024-10-11 20:45:46.513,0.4805667,0.21280949,-0.2593852,0.42682803,0.64338535,-0.25068223,-1.0883224,0.29102606,0.8414115,-0.22182077,-0.24423292,0.3918128,0.45053488,-0.13688058,0.5402548,0.4281853,0.15932378,-0.42752737,0.23801304,0.1566829,803.0403,796.99634,808.2784,807.47253,783.69965,-0.09515380859375,-0.04730224609375,1.009521484375,-3.536529541015625,2.669219970703125,7.708587646484375,1,1.0,1.0,1.0,1.0,10.00
2024-10-11 20:45:46.513,0.4805667,0.21280949,-0.2593852,0.42682803,0.64338535,-0.25068223,-1.0883224,0.29102606,0.8414115,-0.22182077,-0.24423292,0.3918128,0.45053488,-0.13688058,0.5402548,0.4281853,0.15932378,-0.42752737,0.23801304,0.1566829,790.9524,794.9817,801.02563,809.0842,966.2271,-0.09515380859375,-0.04730224609375,1.009521484375,-3.536529541015625,2.669219970703125,7.708587646484375,1,1.0,1.0,1.0,1.0,10.00
2024-10-11 20:45:46.539,0.4805667,0.21280949,-0.2593852,0.42682803,0.64338535,-0.25068223,-1.0883224,0.29102606,0.8414115,-0.22182077,-0.24423292,0.3918128,0.45053488,-0.13688058,0.5402548,0.4281853,0.15932378,-0.42752737,0.23801304,0.1566829,788.5348,800.6227,808.68134,799.41394,662.01465,-0.09515380859375,-0.04730224609375,1.009521484375,-3.536529541015625,2.669219970703125,7.708587646484375,1,1.0,1.0,1.0,1.0,10.00
2024-10-11 20:45:46.539,0.4805667,0.21280949,-0.2593852,0.42682803,0.64338535,-0.25068223,-1.0883224,0.29102606,0.8414115,-0.22182077,-0.24423292,0.3918128,0.45053488,-0.13688058,0.5402548,0.4281853,0.15932378,-0.42752737,0.23801304,0.1566829,795.38464,803.0403,805.8608,796.1905,672.0879,-0.09515380859375,-0.04730224609375,1.009521484375,-3.536529541015625,2.669219970703125,7.708587646484375,1,1.0,1.0,1.0,1.0,10.00
2024-10-11 20:45:46.540,0.4805667,0.21280949,-0.2593852,0.42682803,0.64338535,-0.25068223,-1.0883224,0.29102606,0.8414115,-0.22182077,-0.24423292,0.3918128,0.45053488,-0.13688058,0.5402548,0.4281853,0.15932378,-0.42752737,0.23801304,0.1566829,805.05493,802.6374,798.60803,799.41394,789.7436,-0.09515380859375,-0.04730224609375,1.009521484375,-3.536529541015625,2.669219970703125,7.708587646484375,1,1.0,1.0,1.0,1.0,10.00
2024-10-11 20:45:46.541,0.4805667,0.21280949,-0.2593852,0.42682803,0.64338535,-0.25068223,-1.0883224,0.29102606,0.8414115,-0.22182077,-0.24423292,0.3918128,0.45053488,-0.13688058,0.5402548,0.4281853,0.15932378,-0.42752737,0.23801304,0.1566829,799.41394,803.44324,796.5934,799.41394,728.0952,-0.09515380859375,-0.04730224609375,1.009521484375,-3.536529541015625,2.669219970703125,7.708587646484375,1,1.0,1.0,1.0,1.0,10.00
2024-10-11 20:45:46.541,0.4805667,0.21280949,-0.2593852,0.42682803,0.64338535,-0.25068223,-1.0883224,0.29102606,0.8414115,-0.22182077,-0.24423292,0.3918128,0.45053488,-0.13688058,0.5402548,0.4281853,0.15932378,-0.42752737,0.23801304,0.1566829,794.17584,799.011,791.75824,801.02563,641.4652,-0.09515380859375,-0.04730224609375,1.009521484375,-3.536529541015625,2.669219970703125,7.708587646484375,1,1.0,1.0,1.0,1.0,10.00
2024-10-11 20:45:46.542,0.4805667,0.21280949,-0.2593852,0.42682803,0.64338535,-0.25068223,-1.0883224,0.29102606,0.8414115,-0.22182077,-0.24423292,0.3918128,0.45053488,-0.13688058,0.5402548,0.4281853,0.15932378,-0.42752737,0.23801304,0.1566829,792.5641,793.7729,784.10254,797.3993,728.0952,-0.09515380859375,-0.04730224609375,1.009521484375,-3.536529541015625,2.669219970703125,7.708587646484375,1,1.0,1.0,1.0,1.0,10.00
2024-10-11 20:45:46.542,0.4805667,0.21280949,-0.2593852,0.42682803,0.64338535,-0.25068223,-1.0883224,0.29102606,0.8414115,-0.22182077,-0.24423292,0.3918128,0.45053488,-0.13688058,0.5402548,0.4281853,0.15932378,-0.42752737,0.23801304,0.1566829,801.4286,790.9524,794.9817,791.3553,863.0769,-0.09515380859375,-0.04730224609375,1.009521484375,-3.536529541015625,2.669219970703125,7.708587646484375,1,1.0,1.0,1.0,1.0,10.00
2024-10-11 20:45:46.543,0.4805667,0.21280949,-0.2593852,0.42682803,0.64338535,-0.25068223,-1.0883224,0.29102606,0.8414115,-0.22182077,-0.24423292,0.3918128,0.45053488,-0.13688058,0.5402548,0.4281853,0.15932378,-0.42752737,0.23801304,0.1566829,807.8755,789.7436,809.89014,797.3993,783.69965,-0.09515380859375,-0.04730224609375,1.009521484375,-3.536529541015625,2.669219970703125,7.708587646484375,1,1.0,1.0,1.0,1.0,10.00
2024-10-11 20:45:46.544,0.4805667,0.21280949,-0.2593852,0.42682803,0.64338535,-0.25068223,-1.0883224,0.29102606,0.8414115,-0.22182077,-0.24423292,0.3918128,0.45053488,-0.13688058,0.5402548,0.4281853,0.15932378,-0.42752737,0.23801304,0.1566829,801.4286,793.7729,805.05493,794.57874,605.2015,-0.09515380859375,-0.04730224609375,1.009521484375,-3.536529541015625,2.669219970703125,7.708587646484375,1,1.0,1.0,1.0,1.0,10.00
2024-10-11 20:45:46.544,0.46416104,0.2383413,-0.2806693,0.41076142,0.5760856,-0.289161,-1.0774606,0.28865913,0.8414115,-0.28637454,-0.3239006,0.37199304,0.4330219,-0.13686518,0.53510785,0.4444168,0.1683916,-0.45228985,0.2305242,0.17171435,794.9817,792.96704,807.8755,781.28204,659.59705,-0.09515380859375,-0.04730224609375,1.009521484375,-3.536529541015625,2.669219970703125,7.708587646484375,1,1.0,1.0,1.0,1.0,10.00
2024-10-11 20:45:46.549,0.46416104,0.2383413,-0.2806693,0.41076142,0.5760856,-0.289161,-1.0774606,0.28865913,0.8414115,-0.28637454,-0.3239006,0.37199304,0.4330219,-0.13686518,0.53510785,0.4444168,0.1683916,-0.45228985,0.2305242,0.17171435,790.54944,788.93774,810.696,782.49084,772.4176,-0.09515380859375,-0.04730224609375,1.009521484375,-3.536529541015625,2.669219970703125,7.708587646484375,1,1.0,1.0,1.0,1.0,10.00
2024-10-11 20:45:46.550,0.46416104,0.2383413,-0.2806693,0.41076142,0.5760856,-0.289161,-1.0774606,0.28865913,0.8414115,-0.28637454,-0.3239006,0.37199304,0.4330219,-0.13686518,0.53510785,0.4444168,0.1683916,-0.45228985,0.2305242,0.17171435,788.5348,789.7436,810.696,795.78754,626.55676,-0.09515380859375,-0.04730224609375,1.009521484375,-3.536529541015625,2.669219970703125,7.708587646484375,1,1.0,1.0,1.0,1.0,10.00
2024-10-11 20:45:46.605,0.46416104,0.2383413,-0.2806693,0.41076142,0.5760856,-0.289161,-1.0774606,0.28865913,0.8414115,-0.28637454,-0.3239006,0.37199304,0.4330219,-0.13686518,0.53510785,0.4444168,0.1683916,-0.45228985,0.2305242,0.17171435,788.93774,791.3553,806.6667,799.81683,485.93405,-0.09393310546875,-0.05120849609375,1.0,-4.38140869140625,2.27294921875,9.936676025390625,1,1.0,1.0,1.0,1.0,10.00
2024-10-11 20:45:46.606,0.46416104,0.2383413,-0.2806693,0.41076142,0.5760856,-0.289161,-1.0774606,0.28865913,0.8414115,-0.28637454,-0.3239006,0.37199304,0.4330219,-0.13686518,0.53510785,0.4444168,0.1683916,-0.45228985,0.2305242,0.17171435,790.14655,793.7729,802.23444,796.1905,628.97437,-0.09393310546875,-0.05120849609375,1.0,-4.38140869140625,2.27294921875,9.936676025390625,1,1.0,1.0,1.0,1.0,10.00
2024-10-11 20:45:46.607,0.46416104,0.2383413,-0.2806693,0.41076142,0.5760856,-0.289161,-1.0774606,0.28865913,0.8414115,-0.28637454,-0.3239006,0.37199304,0.4330219,-0.13686518,0.53510785,0.4444168,0.1683916,-0.45228985,0.2305242,0.17171435,789.7436,791.3553,805.4579,796.1905,765.56775,-0.09393310546875,-0.05120849609375,1.0,-4.38140869140625,2.27294921875,9.936676025390625,1,1.0,1.0,1.0,1.0,10.00
2024-10-11 20:45:46.607,0.46416104,0.2383413,-0.2806693,0.41076142,0.5760856,-0.289161,-1.0774606,0.28865913,0.8414115,-0.28637454,-0.3239006,0.37199304,0.4330219,-0.13686518,0.53510785,0.4444168,0.1683916,-0.45228985,0.2305242,0.17171435,790.14655,793.36993,800.2198,797.3993,616.4835,-0.09393310546875,-0.05120849609375,1.0,-4.38140869140625,2.27294921875,9.936676025390625,1,1.0,1.0,1.0,1.0,10.00
2024-10-11 20:45:46.608,0.46416104,0.2383413,-0.2806693,0.41076142,0.5760856,-0.289161,-1.0774606,0.28865913,0.8414115,-0.28637454,-0.3239006,0.37199304,0.4330219,-0.13686518,0.53510785,0.4444168,0.1683916,-0.45228985,0.2305242,0.17171435,793.7729,797.3993,804.65204,790.9524,571.75824,-0.09393310546875,-0.05120849609375,1.0,-4.38140869140625,2.27294921875,9.936676025390625,1,1.0,1.0,1.0,1.0,10.00
2024-10-11 20:45:46.609,0.46416104,0.2383413,-0.2806693,0.41076142,0.5760856,-0.289161,-1.0774606,0.28865913,0.8414115,-0.28637454,-0.3239006,0.37199304,0.4330219,-0.13686518,0.53510785,0.4444168,0.1683916,-0.45228985,0.2305242,0.17171435,789.34064,790.9524,810.696,792.96704,811.9048,-0.09393310546875,-0.05120849609375,1.0,-4.38140869140625,2.27294921875,9.936676025390625,1,1.0,1.0,1.0,1.0,10.00
2024-10-11 20:45:46.610,0.46416104,0.2383413,-0.2806693,0.41076142,0.5760856,-0.289161,-1.0774606,0.28865913,0.8414115,-0.28637454,-0.3239006,0.37199304,0.4330219,-0.13686518,0.53510785,0.4444168,0.1683916,-0.45228985,0.2305242,0.17171435,780.87915,789.7436,811.9048,798.20514,996.4469,-0.09393310546875,-0.05120849609375,1.0,-4.38140869140625,2.27294921875,9.936676025390625,1,1.0,1.0,1.0,1.0,10.00
2024-10-11 20:45:46.610,0.46416104,0.2383413,-0.2806693,0.41076142,0.5760856,-0.289161,-1.0774606,0.28865913,0.8414115,-0.28637454,-0.3239006,0.37199304,0.4330219,-0.13686518,0.53510785,0.4444168,0.1683916,-0.45228985,0.2305242,0.17171435,782.49084,796.5934,817.1429,784.90845,803.44324,-0.09393310546875,-0.05120849609375,1.0,-4.38140869140625,2.27294921875,9.936676025390625,1,1.0,1.0,1.0,1.0,10.00
2024-10-11 20:45:46.611,0.46416104,0.2383413,-0.2806693,0.41076142,0.5760856,-0.289161,-1.0774606,0.28865913,0.8414115,-0.28637454,-0.3239006,0.37199304,0.4330219,-0.13686518,0.53510785,0.4444168,0.1683916,-0.45228985,0.2305242,0.17171435,790.9524,793.7729,817.9487,777.25275,551.6117,-0.09393310546875,-0.05120849609375,1.0,-4.38140869140625,2.27294921875,9.936676025390625,1,1.0,1.0,1.0,1.0,10.00
2024-10-11 20:45:46.612,0.46416104,0.2383413,-0.2806693,0.41076142,0.5760856,-0.289161,-1.0774606,0.28865913,0.8414115,-0.28637454,-0.3239006,0.37199304,0.4330219,-0.13686518,0.53510785,0.4444168,0.1683916,-0.45228985,0.2305242,0.17171435,790.9524,793.7729,809.0842,787.326,584.2491,-0.09393310546875,-0.05120849609375,1.0,-4.38140869140625,2.27294921875,9.936676025390625,1,1.0,1.0,1.0,1.0,10.00
2024-10-11 20:45:46.612,0.46416104,0.2383413,-0.2806693,0.41076142,0.5760856,-0.289161,-1.0774606,0.28865913,0.8414115,-0.28637454,-0.3239006,0.37199304,0.4330219,-0.13686518,0.53510785,0.4444168,0.1683916,-0.45228985,0.2305242,0.17171435,787.326,796.1905,803.0403,795.38464,653.95605,-0.09393310546875,-0.05120849609375,1.0,-4.38140869140625,2.27294921875,9.936676025390625,1,1.0,1.0,1.0,1.0,10.00
2024-10-11 20:45:46.613,0.46416104,0.2383413,-0.2806693,0.41076142,0.5760856,-0.289161,-1.0774606,0.28865913,0.8414115,-0.28637454,-0.3239006,0.37199304,0.4330219,-0.13686518,0.53510785,0.4444168,0.1683916,-0.45228985,0.2305242,0.17171435,780.87915,794.57874,813.1135,792.1612,603.1868,-0.09393310546875,-0.05120849609375,1.0,-4.38140869140625,2.27294921875,9.936676025390625,1,1.0,1.0,1.0,1.0,10.00
2024-10-11 20:45:46.641,0.46416104,0.2383413,-0.2806693,0.41076142,0.5760856,-0.289161,-1.0774606,0.28865913,0.8414115,-0.28637454,-0.3239006,0.37199304,0.4330219,-0.13686518,0.53510785,0.4444168,0.1683916,-0.45228985,0.2305242,0.17171435,782.0879,800.2198,814.3223,793.36993,572.5641,-0.1082763671875,-0.059326171875,1.00238037109375,-4.344024658203125,4.05242919921875,11.64886474609375,1,1.0,1.0,1.0,1.0,10.00
2024-10-11 20:45:46.642,0.46416104,0.2383413,-0.2806693,0.41076142,0.5760856,-0.289161,-1.0774606,0.28865913,0.8414115,-0.28637454,-0.3239006,0.37199304,0.4330219,-0.13686518,0.53510785,0.4444168,0.1683916,-0.45228985,0.2305242,0.17171435,789.7436,798.60803,810.696,802.6374,741.39197,-0.1082763671875,-0.059326171875,1.00238037109375,-4.344024658203125,4.05242919921875,11.64886474609375,1,1.0,1.0,1.0,1.0,10.00
2024-10-11 20:45:46.643,0.46416104,0.2383413,-0.2806693,0.41076142,0.5760856,-0.289161,-1.0774606,0.28865913,0.8414115,-0.28637454,-0.3239006,0.37199304,0.4330219,-0.13686518,0.53510785,0.4444168,0.1683916,-0.45228985,0.2305242,0.17171435,792.1612,784.90845,810.696,812.3077,1044.3956,-0.1082763671875,-0.059326171875,1.00238037109375,-4.344024658203125,4.05242919921875,11.64886474609375,1,1.0,1.0,1.0,1.0,10.00
2024-10-11 20:45:46.644,0.46416104,0.2383413,-0.2806693,0.41076142,0.5760856,-0.289161,-1.0774606,0.28865913,0.8414115,-0.28637454,-0.3239006,0.37199304,0.4330219,-0.13686518,0.53510785,0.4444168,0.1683916,-0.45228985,0.2305242,0.17171435,784.10254,794.17584,803.8461,806.6667,836.8865,-0.1082763671875,-0.059326171875,1.00238037109375,-4.344024658203125,4.05242919921875,11.64886474609375,1,1.0,1.0,1.0,1.0,10.00
2024-10-11 20:45:46.644,0.46416104,0.2383413,-0.2806693,0.41076142,0.5760856,-0.289161,-1.0774606,0.28865913,0.8414115,-0.28637454,-0.3239006,0.37199304,0.4330219,-0.13686518,0.53510785,0.4444168,0.1683916,-0.45228985,0.2305242,0.17171435,773.6264,807.47253,800.2198,801.02563,681.3553,-0.1082763671875,-0.059326171875,1.00238037109375,-4.344024658203125,4.05242919921875,11.64886474609375,1,1.0,1.0,1.0,1.0,10.00
2024-10-11 20:45:46.645,0.46416104,0.2383413,-0.2806693,0.41076142,0.5760856,-0.289161,-1.0774606,0.28865913,0.8414115,-0.28637454,-0.3239006,0.37199304,0.4330219,-0.13686518,0.53510785,0.4444168,0.1683916,-0.45228985,0.2305242,0.17171435,783.2967,800.6227,809.89014,801.4286,882.01465,-0.1082763671875,-0.059326171875,1.00238037109375,-4.344024658203125,4.05242919921875,11.64886474609375,1,1.0,1.0,1.0,1.0,10.00
2024-10-11 20:45:46.646,0.46416104,0.2383413,-0.2806693,0.41076142,0.5760856,-0.289161,-1.0774606,0.28865913,0.8414115,-0.28637454,-0.3239006,0.37199304,0.4330219,-0.13686518,0.53510785,0.4444168,0.1683916,-0.45228985,0.2305242,0.17171435,789.34064,794.57874,811.50183,795.38464,944.87177,-0.1082763671875,-0.059326171875,1.00238037109375,-4.344024658203125,4.05242919921875,11.64886474609375,1,1.0,1.0,1.0,1.0,10.00
2024-10-11 20:45:46.646,0.46416104,0.2383413,-0.2806693,0.41076142,0.5760856,-0.289161,-1.0774606,0.28865913,0.8414115,-0.28637454,-0.3239006,0.37199304,0.4330219,-0.13686518,0.53510785,0.4444168,0.1683916,-0.45228985,0.2305242,0.17171435,788.5348,797.3993,800.2198,799.41394,780.87915,-0.1082763671875,-0.059326171875,1.00238037109375,-4.344024658203125,4.05242919921875,11.64886474609375,1,1.0,1.0,1.0,1.0,10.00
2024-10-11 20:45:46.647,0.46416104,0.2383413,-0.2806693,0.41076142,0.5760856,-0.289161,-1.0774606,0.28865913,0.8414115,-0.28637454,-0.3239006,0.37199304,0.4330219,-0.13686518,0.53510785,0.4444168,0.1683916,-0.45228985,0.2305242,0.17171435,796.5934,794.57874,806.6667,809.4872,820.3663,-0.1082763671875,-0.059326171875,1.00238037109375,-4.344024658203125,4.05242919921875,11.64886474609375,1,1.0,1.0,1.0,1.0,10.00
2024-10-11 20:45:46.648,0.46416104,0.2383413,-0.2806693,0.41076142,0.5760856,-0.289161,-1.0774606,0.28865913,0.8414115,-0.28637454,-0.3239006,0.37199304,0.4330219,-0.13686518,0.53510785,0.4444168,0.1683916,-0.45228985,0.2305242,0.17171435,801.02563,793.7729,813.91943,808.2784,952.9304,-0.1082763671875,-0.059326171875,1.00238037109375,-4.344024658203125,4.05242919921875,11.64886474609375,1,1.0,1.0,1.0,1.0,10.00
2024-10-11 20:45:46.648,0.46416104,0.2383413,-0.2806693,0.41076142,0.5760856,-0.289161,-1.0774606,0.28865913,0.8414115,-0.28637454,-0.3239006,0.37199304,0.4330219,-0.13686518,0.53510785,0.4444168,0.1683916,-0.45228985,0.2305242,0.17171435,794.17584,799.41394,803.8461,790.14655,776.8498,-0.1082763671875,-0.059326171875,1.00238037109375,-4.344024658203125,4.05242919921875,11.64886474609375,1,1.0,1.0,1.0,1.0,10.00
2024-10-11 20:45:46.649,0.41172132,0.2622624,-0.27823275,0.3577309,0.45036513,-0.35577437,-1.0571556,0.24294472,0.8353532,-0.3402388,-0.39536595,0.35550758,0.4107176,-0.13977553,0.5345657,0.46137062,0.17655678,-0.46577713,0.24168465,0.19433716,786.9231,799.41394,801.4286,791.3553,677.72894,-0.1082763671875,-0.059326171875,1.00238037109375,-4.344024658203125,4.05242919921875,11.64886474609375,1,1.0,1.0,1.0,1.0,10.00
2024-10-11 20:45:46.683,0.41172132,0.2622624,-0.27823275,0.3577309,0.45036513,-0.35577437,-1.0571556,0.24294472,0.8353532,-0.3402388,-0.39536595,0.35550758,0.4107176,-0.13977553,0.5345657,0.46137062,0.17655678,-0.46577713,0.24168465,0.19433716,788.93774,797.8022,808.2784,807.8755,806.26373,-0.1241455078125,-0.0699462890625,1.004638671875,-3.8580322265625,4.762725830078125,10.280609130859375,1,1.0,1.0,1.0,1.0,10.00
2024-10-11 20:45:46.684,0.41172132,0.2622624,-0.27823275,0.3577309,0.45036513,-0.35577437,-1.0571556,0.24294472,0.8353532,-0.3402388,-0.39536595,0.35550758,0.4107176,-0.13977553,0.5345657,0.46137062,0.17655678,-0.46577713,0.24168465,0.19433716,788.1319,795.78754,807.0696,803.8461,926.337,-0.1241455078125,-0.0699462890625,1.004638671875,-3.8580322265625,4.762725830078125,10.280609130859375,1,1.0,1.0,1.0,1.0,10.00
2024-10-11 20:45:46.685,0.41172132,0.2622624,-0.27823275,0.3577309,0.45036513,-0.35577437,-1.0571556,0.24294472,0.8353532,-0.3402388,-0.39536595,0.35550758,0.4107176,-0.13977553,0.5345657,0.46137062,0.17655678,-0.46577713,0.24168465,0.19433716,779.2674,795.38464,811.0989,792.96704,821.978,-0.1241455078125,-0.0699462890625,1.004638671875,-3.8580322265625,4.762725830078125,10.280609130859375,1,1.0,1.0,1.0,1.0,10.00
2024-10-11 20:45:46.686,0.41172132,0.2622624,-0.27823275,0.3577309,0.45036513,-0.35577437,-1.0571556,0.24294472,0.8353532,-0.3402388,-0.39536595,0.35550758,0.4107176,-0.13977553,0.5345657,0.46137062,0.17655678,-0.46577713,0.24168465,0.19433716,782.49084,796.5934,814.3223,790.9524,718.8278,-0.1241455078125,-0.0699462890625,1.004638671875,-3.8580322265625,4.762725830078125,10.280609130859375,1,1.0,1.0,1.0,1.0,10.00
2024-10-11 20:45:46.687,0.41172132,0.2622624,-0.27823275,0.3577309,0.45036513,-0.35577437,-1.0571556,0.24294472,0.8353532,-0.3402388,-0.39536595,0.35550758,0.4107176,-0.13977553,0.5345657,0.46137062,0.17655678,-0.46577713,0.24168465,0.19433716,779.67035,795.78754,804.2491,790.9524,738.97437,-0.1241455078125,-0.0699462890625,1.004638671875,-3.8580322265625,4.762725830078125,10.280609130859375,1,1.0,1.0,1.0,1.0,10.00
2024-10-11 20:45:46.688,0.41172132,0.2622624,-0.27823275,0.3577309,0.45036513,-0.35577437,-1.0571556,0.24294472,0.8353532,-0.3402388,-0.39536595,0.35550758,0.4107176,-0.13977553,0.5345657,0.46137062,0.17655678,-0.46577713,0.24168465,0.19433716,776.8498,792.1612,793.7729,780.07324,945.2747,-0.1241455078125,-0.0699462890625,1.004638671875,-3.8580322265625,4.762725830078125,10.280609130859375,1,1.0,1.0,1.0,1.0,10.00
2024-10-11 20:45:46.690,0.41172132,0.2622624,-0.27823275,0.3577309,0.45036513,-0.35577437,-1.0571556,0.24294472,0.8353532,-0.3402388,-0.39536595,0.35550758,0.4107176,-0.13977553,0.5345657,0.46137062,0.17655678,-0.46577713,0.24168465,0.19433716,780.87915,793.7729,798.20514,779.2674,789.34064,-0.1241455078125,-0.0699462890625,1.004638671875,-3.8580322265625,4.762725830078125,10.280609130859375,1,1.0,1.0,1.0,1.0,10.00
2024-10-11 20:45:46.691,0.41172132,0.2622624,-0.27823275,0.3577309,0.45036513,-0.35577437,-1.0571556,0.24294472,0.8353532,-0.3402388,-0.39536595,0.35550758,0.4107176,-0.13977553,0.5345657,0.46137062,0.17655678,-0.46577713,0.24168465,0.19433716,786.1172,796.99634,806.6667,783.2967,501.24542,-0.1241455078125,-0.0699462890625,1.004638671875,-3.8580322265625,4.762725830078125,10.280609130859375,1,1.0,1.0,1.0,1.0,10.00
2024-10-11 20:45:46.692,0.41172132,0.2622624,-0.27823275,0.3577309,0.45036513,-0.35577437,-1.0571556,0.24294472,0.8353532,-0.3402388,-0.39536595,0.35550758,0.4107176,-0.13977553,0.5345657,0.46137062,0.17655678,-0.46577713,0.24168465,0.19433716,793.36993,799.41394,806.6667,787.72894,696.26373,-0.1241455078125,-0.0699462890625,1.004638671875,-3.8580322265625,4.762725830078125,10.280609130859375,1,1.0,1.0,1.0,1.0,10.00
2024-10-11 20:45:46.693,0.41172132,0.2622624,-0.27823275,0.3577309,0.45036513,-0.35577437,-1.0571556,0.24294472,0.8353532,-0.3402388,-0.39536595,0.35550758,0.4107176,-0.13977553,0.5345657,0.46137062,0.17655678,-0.46577713,0.24168465,0.19433716,799.011,799.41394,806.26373,794.57874,785.31134,-0.1241455078125,-0.0699462890625,1.004638671875,-3.8580322265625,4.762725830078125,10.280609130859375,1,1.0,1.0,1.0,1.0,10.00
2024-10-11 20:45:46.694,0.41172132,0.2622624,-0.27823275,0.3577309,0.45036513,-0.35577437,-1.0571556,0.24294472,0.8353532,-0.3402388,-0.39536595,0.35550758,0.4107176,-0.13977553,0.5345657,0.46137062,0.17655678,-0.46577713,0.24168465,0.19433716,793.7729,796.99634,790.9524,803.44324,714.7985,-0.1241455078125,-0.0699462890625,1.004638671875,-3.8580322265625,4.762725830078125,10.280609130859375,1,1.0,1.0,1.0,1.0,10.00
2024-10-11 20:45:46.695,0.41172132,0.2622624,-0.27823275,0.3577309,0.45036513,-0.35577437,-1.0571556,0.24294472,0.8353532,-0.3402388,-0.39536595,0.35550758,0.4107176,-0.13977553,0.5345657,0.46137062,0.17655678,-0.46577713,0.24168465,0.19433716,793.7729,794.57874,785.7143,811.50183,750.65936,-0.1241455078125,-0.0699462890625,1.004638671875,-3.8580322265625,4.762725830078125,10.280609130859375,1,1.0,1.0,1.0,1.0,10.00
2024-10-11 20:45:46.726,0.41172132,0.2622624,-0.27823275,0.3577309,0.45036513,-0.35577437,-1.0571556,0.24294472,0.8353532,-0.3402388,-0.39536595,0.35550758,0.4107176,-0.13977553,0.5345657,0.46137062,0.17655678,-0.46577713,0.24168465,0.19433716,795.38464,794.17584,802.6374,823.1868,903.7729,-0.1324462890625,-0.0760498046875,0.99755859375,-2.49725341796875,2.70660400390625,7.97027587890625,1,1.0,1.0,1.0,1.0,10.00
2024-10-11 20:45:46.727,0.41172132,0.2622624,-0.27823275,0.3577309,0.45036513,-0.35577437,-1.0571556,0.24294472,0.8353532,-0.3402388,-0.39536595,0.35550758,0.4107176,-0.13977553,0.5345657,0.46137062,0.17655678,-0.46577713,0.24168465,0.19433716,788.1319,793.7729,800.6227,813.1135,974.2857,-0.1324462890625,-0.0760498046875,0.99755859375,-2.49725341796875,2.70660400390625,7.97027587890625,1,1.0,1.0,1.0,1.0,10.00
2024-10-11 20:45:46.728,0.41172132,0.2622624,-0.27823275,0.3577309,0.45036513,-0.35577437,-1.0571556,0.24294472,0.8353532,-0.3402388,-0.39536595,0.35550758,0.4107176,-0.13977553,0.5345657,0.46137062,0.17655678,-0.46577713,0.24168465,0.19433716,788.1319,794.17584,807.8755,789.7436,666.8498,-0.1324462890625,-0.0760498046875,0.99755859375,-2.49725341796875,2.70660400390625,7.97027587890625,1,1.0,1.0,1.0,1.0,10.00
2024-10-11 20:45:46.729,0.41172132,0.2622624,-0.27823275,0.3577309,0.45036513,-0.35577437,-1.0571556,0.24294472,0.8353532,-0.3402388,-0.39536595,0.35550758,0.4107176,-0.13977553,0.5345657,0.46137062,0.17655678,-0.46577713,0.24168465,0.19433716,794.17584,794.57874,806.6667,789.34064,654.7619,-0.1324462890625,-0.0760498046875,0.99755859375,-2.49725341796875,2.70660400390625,7.97027587890625,1,1.0,1.0,1.0,1.0,10.00
2024-10-11 20:45:46.729,0.41172132,0.2622624,-0.27823275,0.3577309,0.45036513,-0.35577437,-1.0571556,0.24294472,0.8353532,-0.3402388,-0.39536595,0.35550758,0.4107176,-0.13977553,0.5345657,0.46137062,0.17655678,-0.46577713,0.24168465,0.19433716,798.60803,794.17584,790.9524,794.17584,741.39197,-0.1324462890625,-0.0760498046875,0.99755859375,-2.49725341796875,2.70660400390625,7.97027587890625,1,1.0,1.0,1.0,1.0,10.00
2024-10-11 20:45:46.730,0.41172132,0.2622624,-0.27823275,0.3577309,0.45036513,-0.35577437,-1.0571556,0.24294472,0.8353532,-0.3402388,-0.39536595,0.35550758,0.4107176,-0.13977553,0.5345657,0.46137062,0.17655678,-0.46577713,0.24168465,0.19433716,799.011,795.78754,798.20514,800.6227,742.6007,-0.1324462890625,-0.0760498046875,0.99755859375,-2.49725341796875,2.70660400390625,7.97027587890625,1,1.0,1.0,1.0,1.0,10.00
2024-10-11 20:45:46.731,0.41172132,0.2622624,-0.27823275,0.3577309,0.45036513,-0.35577437,-1.0571556,0.24294472,0.8353532,-0.3402388,-0.39536595,0.35550758,0.4107176,-0.13977553,0.5345657,0.46137062,0.17655678,-0.46577713,0.24168465,0.19433716,794.17584,794.57874,802.23444,792.5641,778.46155,-0.1324462890625,-0.0760498046875,0.99755859375,-2.49725341796875,2.70660400390625,7.97027587890625,1,1.0,1.0,1.0,1.0,10.00
2024-10-11 20:45:46.732,0.41172132,0.2622624,-0.27823275,0.3577309,0.45036513,-0.35577437,-1.0571556,0.24294472,0.8353532,-0.3402388,-0.39536595,0.35550758,0.4107176,-0.13977553,0.5345657,0.46137062,0.17655678,-0.46577713,0.24168465,0.19433716,790.54944,796.99634,800.6227,787.72894,765.16486,-0.1324462890625,-0.0760498046875,0.99755859375,-2.49725341796875,2.70660400390625,7.97027587890625,1,1.0,1.0,1.0,1.0,10.00
2024-10-11 20:45:46.732,0.41172132,0.2622624,-0.27823275,0.3577309,0.45036513,-0.35577437,-1.0571556,0.24294472,0.8353532,-0.3402388,-0.39536595,0.35550758,0.4107176,-0.13977553,0.5345657,0.46137062,0.17655678,-0.46577713,0.24168465,0.19433716,797.3993,804.2491,799.41394,796.1905,850.18317,-0.1324462890625,-0.0760498046875,0.99755859375,-2.49725341796875,2.70660400390625,7.97027587890625,1,1.0,1.0,1.0,1.0,10.00
2024-10-11 20:45:46.733,0.41172132,0.2622624,-0.27823275,0.3577309,0.45036513,-0.35577437,-1.0571556,0.24294472,0.8353532,-0.3402388,-0.39536595,0.35550758,0.4107176,-0.13977553,0.5345657,0.46137062,0.17655678,-0.46577713,0.24168465,0.19433716,796.5934,806.26373,797.3993,797.8022,841.31866,-0.1324462890625,-0.0760498046875,0.99755859375,-2.49725341796875,2.70660400390625,7.97027587890625,1,1.0,1.0,1.0,1.0,10.00
2024-10-11 20:45:46.734,0.41172132,0.2622624,-0.27823275,0.3577309,0.45036513,-0.35577437,-1.0571556,0.24294472,0.8353532,-0.3402388,-0.39536595,0.35550758,0.4107176,-0.13977553,0.5345657,0.46137062,0.17655678,-0.46577713,0.24168465,0.19433716,803.44324,805.05493,801.8315,794.57874,746.63007,-0.1324462890625,-0.0760498046875,0.99755859375,-2.49725341796875,2.70660400390625,7.97027587890625,1,1.0,1.0,1.0,1.0,10.00
2024-10-11 20:45:46.734,0.41172132,0.2622624,-0.27823275,0.3577309,0.45036513,-0.35577437,-1.0571556,0.24294472,0.8353532,-0.3402388,-0.39536595,0.35550758,0.4107176,-0.13977553,0.5345657,0.46137062,0.17655678,-0.46577713,0.24168465,0.19433716,810.293,805.4579,811.0989,802.6374,834.87177,-0.1324462890625,-0.0760498046875,0.99755859375,-2.49725341796875,2.70660400390625,7.97027587890625,1,1.0,1.0,1.0,1.0,10.00
2024-10-11 20:45:46.825,0.41172132,0.2622624,-0.27823275,0.3577309,0.45036513,-0.35577437,-1.0571556,0.24294472,0.8353532,-0.3402388,-0.39536595,0.35550758,0.4107176,-0.13977553,0.5345657,0.46137062,0.17655678,-0.46577713,0.24168465,0.19433716,799.81683,806.6667,805.4579,812.3077,865.4945,-0.13427734375,-0.07464599609375,0.991943359375,-0.500946044921875,1.024322509765625,6.332855224609375,1,1.0,1.0,1.0,1.0,10.00
2024-10-11 20:45:46.826,0.3115408,0.28697792,-0.27277198,0.2504713,0.27446076,-0.4246224,-1.0423481,0.145029,0.80948585,-0.42543274,-0.4537734,0.341794,0.38851783,-0.14212707,0.54284585,0.47579518,0.16784011,-0.46517673,0.25555915,0.22018197,804.65204,805.8608,795.38464,808.2784,787.326,-0.13427734375,-0.07464599609375,0.991943359375,-0.500946044921875,1.024322509765625,6.332855224609375,1,1.0,1.0,1.0,1.0,10.00
2024-10-11 20:45:46.832,0.3115408,0.28697792,-0.27277198,0.2504713,0.27446076,-0.4246224,-1.0423481,0.145029,0.80948585,-0.42543274,-0.4537734,0.341794,0.38851783,-0.14212707,0.54284585,0.47579518,0.16784011,-0.46517673,0.25555915,0.22018197,795.78754,799.011,788.5348,805.8608,763.1502,-0.13427734375,-0.07464599609375,0.991943359375,-0.500946044921875,1.024322509765625,6.332855224609375,1,1.0,1.0,1.0,1.0,10.00
2024-10-11 20:45:46.833,0.3115408,0.28697792,-0.27277198,0.2504713,0.27446076,-0.4246224,-1.0423481,0.145029,0.80948585,-0.42543274,-0.4537734,0.341794,0.38851783,-0.14212707,0.54284585,0.47579518,0.16784011,-0.46517673,0.25555915,0.22018197,790.9524,794.9817,783.69965,808.68134,903.7729,-0.13427734375,-0.07464599609375,0.991943359375,-0.500946044921875,1.024322509765625,6.332855224609375,1,1.0,1.0,1.0,1.0,10.00
2024-10-11 20:45:46.834,0.3115408,0.28697792,-0.27277198,0.2504713,0.27446076,-0.4246224,-1.0423481,0.145029,0.80948585,-0.42543274,-0.4537734,0.341794,0.38851783,-0.14212707,0.54284585,0.47579518,0.16784011,-0.46517673,0.25555915,0.22018197,794.9817,796.99634,792.96704,803.8461,1083.0769,-0.13427734375,-0.07464599609375,0.991943359375,-0.500946044921875,1.024322509765625,6.332855224609375,1,1.0,1.0,1.0,1.0,10.00
2024-10-11 20:45:46.834,0.3115408,0.28697792,-0.27277198,0.2504713,0.27446076,-0.4246224,-1.0423481,0.145029,0.80948585,-0.42543274,-0.4537734,0.341794,0.38851783,-0.14212707,0.54284585,0.47579518,0.16784011,-0.46517673,0.25555915,0.22018197,796.99634,800.2198,788.93774,799.41394,987.1795,-0.13427734375,-0.07464599609375,0.991943359375,-0.500946044921875,1.024322509765625,6.332855224609375,1,1.0,1.0,1.0,1.0,10.00
2024-10-11 20:45:46.835,0.3115408,0.28697792,-0.27277198,0.2504713,0.27446076,-0.4246224,-1.0423481,0.145029,0.80948585,-0.42543274,-0.4537734,0.341794,0.38851783,-0.14212707,0.54284585,0.47579518,0.16784011,-0.46517673,0.25555915,0.22018197,804.2491,800.6227,799.41394,799.81683,867.50916,-0.13427734375,-0.07464599609375,0.991943359375,-0.500946044921875,1.024322509765625,6.332855224609375,1,1.0,1.0,1.0,1.0,10.00
2024-10-11 20:45:46.836,0.3115408,0.28697792,-0.27277198,0.2504713,0.27446076,-0.4246224,-1.0423481,0.145029,0.80948585,-0.42543274,-0.4537734,0.341794,0.38851783,-0.14212707,0.54284585,0.47579518,0.16784011,-0.46517673,0.25555915,0.22018197,797.3993,801.02563,806.6667,794.17584,937.2161,-0.13427734375,-0.07464599609375,0.991943359375,-0.500946044921875,1.024322509765625,6.332855224609375,1,1.0,1.0,1.0,1.0,10.00
2024-10-11 20:45:46.836,0.3115408,0.28697792,-0.27277198,0.2504713,0.27446076,-0.4246224,-1.0423481,0.145029,0.80948585,-0.42543274,-0.4537734,0.341794,0.38851783,-0.14212707,0.54284585,0.47579518,0.16784011,-0.46517673,0.25555915,0.22018197,792.5641,801.02563,802.6374,798.60803,1185.8242,-0.13427734375,-0.07464599609375,0.991943359375,-0.500946044921875,1.024322509765625,6.332855224609375,1,1.0,1.0,1.0,1.0,10.00
2024-10-11 20:45:46.837,0.3115408,0.28697792,-0.27277198,0.2504713,0.27446076,-0.4246224,-1.0423481,0.145029,0.80948585,-0.42543274,-0.4537734,0.341794,0.38851783,-0.14212707,0.54284585,0.47579518,0.16784011,-0.46517673,0.25555915,0.22018197,787.72894,802.23444,802.6374,791.75824,922.3077,-0.13427734375,-0.07464599609375,0.991943359375,-0.500946044921875,1.024322509765625,6.332855224609375,1,1.0,1.0,1.0,1.0,10.00
2024-10-11 20:45:46.838,0.3115408,0.28697792,-0.27277198,0.2504713,0.27446076,-0.4246224,-1.0423481,0.145029,0.80948585,-0.42543274,-0.4537734,0.341794,0.38851783,-0.14212707,0.54284585,0.47579518,0.16784011,-0.46517673,0.25555915,0.22018197,790.9524,805.05493,810.293,783.69965,666.04395,-0.13427734375,-0.07464599609375,0.991943359375,-0.500946044921875,1.024322509765625,6.332855224609375,1,1.0,1.0,1.0,1.0,10.00
2024-10-11 20:45:46.839,0.3115408,0.28697792,-0.27277198,0.2504713,0.27446076,-0.4246224,-1.0423481,0.145029,0.80948585,-0.42543274,-0.4537734,0.341794,0.38851783,-0.14212707,0.54284585,0.47579518,0.16784011,-0.46517673,0.25555915,0.22018197,798.60803,804.65204,799.41394,782.8938,635.82416,-0.13427734375,-0.07464599609375,0.991943359375,-0.500946044921875,1.024322509765625,6.332855224609375,1,1.0,1.0,1.0,1.0,10.00
2024-10-11 20:45:46.866,0.3115408,0.28697792,-0.27277198,0.2504713,0.27446076,-0.4246224,-1.0423481,0.145029,0.80948585,-0.42543274,-0.4537734,0.341794,0.38851783,-0.14212707,0.54284585,0.47579518,0.16784011,-0.46517673,0.25555915,0.22018197,791.75824,801.8315,781.685,770.40295,535.09155,-0.13427734375,-0.07464599609375,0.991943359375,-0.500946044921875,1.024322509765625,6.332855224609375,1,1.0,1.0,1.0,1.0,10.00
2024-10-11 20:45:46.868,0.3115408,0.28697792,-0.27277198,0.2504713,0.27446076,-0.4246224,-1.0423481,0.145029,0.80948585,-0.42543274,-0.4537734,0.341794,0.38851783,-0.14212707,0.54284585,0.47579518,0.16784011,-0.46517673,0.25555915,0.22018197,776.8498,799.011,784.10254,766.3736,554.0293,-0.13427734375,-0.07464599609375,0.991943359375,-0.500946044921875,1.024322509765625,6.332855224609375,1,1.0,1.0,1.0,1.0,10.00
2024-10-11 20:45:46.868,0.3115408,0.28697792,-0.27277198,0.2504713,0.27446076,-0.4246224,-1.0423481,0.145029,0.80948585,-0.42543274,-0.4537734,0.341794,0.38851783,-0.14212707,0.54284585,0.47579518,0.16784011,-0.46517673,0.25555915,0.22018197,786.9231,802.6374,780.87915,778.0586,590.293,-0.13427734375,-0.07464599609375,0.991943359375,-0.500946044921875,1.024322509765625,6.332855224609375,1,1.0,1.0,1.0,1.0,10.00
2024-10-11 20:45:46.869,0.3115408,0.28697792,-0.27277198,0.2504713,0.27446076,-0.4246224,-1.0423481,0.145029,0.80948585,-0.42543274,-0.4537734,0.341794,0.38851783,-0.14212707,0.54284585,0.47579518,0.16784011,-0.46517673,0.25555915,0.22018197,794.9817,801.4286,789.7436,786.1172,653.1502,-0.13427734375,-0.07464599609375,0.991943359375,-0.500946044921875,1.024322509765625,6.332855224609375,1,1.0,1.0,1.0,1.0,10.00
2024-10-11 20:45:46.870,0.3115408,0.28697792,-0.27277198,0.2504713,0.27446076,-0.4246224,-1.0423481,0.145029,0.80948585,-0.42543274,-0.4537734,0.341794,0.38851783,-0.14212707,0.54284585,0.47579518,0.16784011,-0.46517673,0.25555915,0.22018197,798.20514,799.81683,807.47253,785.7143,774.43225,-0.13427734375,-0.07464599609375,0.991943359375,-0.500946044921875,1.024322509765625,6.332855224609375,1,1.0,1.0,1.0,1.0,10.00
2024-10-11 20:45:46.870,0.3115408,0.28697792,-0.27277198,0.2504713,0.27446076,-0.4246224,-1.0423481,0.145029,0.80948585,-0.42543274,-0.4537734,0.341794,0.38851783,-0.14212707,0.54284585,0.47579518,0.16784011,-0.46517673,0.25555915,0.22018197,802.23444,801.8315,811.0989,784.90845,782.49084,-0.13427734375,-0.07464599609375,0.991943359375,-0.500946044921875,1.024322509765625,6.332855224609375,1,1.0,1.0,1.0,1.0,10.00
2024-10-11 20:45:46.871,0.3115408,0.28697792,-0.27277198,0.2504713,0.27446076,-0.4246224,-1.0423481,0.145029,0.80948585,-0.42543274,-0.4537734,0.341794,0.38851783,-0.14212707,0.54284585,0.47579518,0.16784011,-0.46517673,0.25555915,0.22018197,789.34064,803.0403,803.8461,787.72894,805.05493,-0.13427734375,-0.07464599609375,0.991943359375,-0.500946044921875,1.024322509765625,6.332855224609375,1,1.0,1.0,1.0,1.0,10.00
2024-10-11 20:45:46.872,0.3115408,0.28697792,-0.27277198,0.2504713,0.27446076,-0.4246224,-1.0423481,0.145029,0.80948585,-0.42543274,-0.4537734,0.341794,0.38851783,-0.14212707,0.54284585,0.47579518,0.16784011,-0.46517673,0.25555915,0.22018197,785.31134,801.4286,802.6374,788.1319,841.31866,-0.13427734375,-0.07464599609375,0.991943359375,-0.500946044921875,1.024322509765625,6.332855224609375,1,1.0,1.0,1.0,1.0,10.00
2024-10-11 20:45:46.872,0.3115408,0.28697792,-0.27277198,0.2504713,0.27446076,-0.4246224,-1.0423481,0.145029,0.80948585,-0.42543274,-0.4537734,0.341794,0.38851783,-0.14212707,0.54284585,0.47579518,0.16784011,-0.46517673,0.25555915,0.22018197,786.9231,797.8022,801.8315,793.7729,707.5458,-0.13427734375,-0.07464599609375,0.991943359375,-0.500946044921875,1.024322509765625,6.332855224609375,1,1.0,1.0,1.0,1.0,10.00
2024-10-11 20:45:46.873,0.3115408,0.28697792,-0.27277198,0.2504713,0.27446076,-0.4246224,-1.0423481,0.145029,0.80948585,-0.42543274,-0.4537734,0.341794,0.38851783,-0.14212707,0.54284585,0.47579518,0.16784011,-0.46517673,0.25555915,0.22018197,795.38464,801.02563,794.57874,802.6374,496.00732,-0.13427734375,-0.07464599609375,0.991943359375,-0.500946044921875,1.024322509765625,6.332855224609375,1,1.0,1.0,1.0,1.0,10.00
2024-10-11 20:45:46.874,0.3115408,0.28697792,-0.27277198,0.2504713,0.27446076,-0.4246224,-1.0423481,0.145029,0.80948585,-0.42543274,-0.4537734,0.341794,0.38851783,-0.14212707,0.54284585,0.47579518,0.16784011,-0.46517673,0.25555915,0.22018197,805.05493,801.8315,792.1612,804.2491,560.07324,-0.13427734375,-0.07464599609375,0.991943359375,-0.500946044921875,1.024322509765625,6.332855224609375,1,1.0,1.0,1.0,1.0,10.00
2024-10-11 20:45:46.875,0.3115408,0.28697792,-0.27277198,0.2504713,0.27446076,-0.4246224,-1.0423481,0.145029,0.80948585,-0.42543274,-0.4537734,0.341794,0.38851783,-0.14212707,0.54284585,0.47579518,0.16784011,-0.46517673,0.25555915,0.22018197,798.60803,799.81683,791.3553,807.0696,829.2308,-0.13427734375,-0.07464599609375,0.991943359375,-0.500946044921875,1.024322509765625,6.332855224609375,1,1.0,1.0,1.0,1.0,10.00
2024-10-11 20:45:46.876,0.3115408,0.28697792,-0.27277198,0.2504713,0.27446076,-0.4246224,-1.0423481,0.145029,0.80948585,-0.42543274,-0.4537734,0.341794,0.38851783,-0.14212707,0.54284585,0.47579518,0.16784011,-0.46517673,0.25555915,0.22018197,812.71063,804.2491,773.6264,806.26373,853.8095,-0.135498046875,-0.069091796875,1.000244140625,1.607513427734375,-0.2691650390625,6.093597412109375,1,1.0,1.0,1.0,1.0,10.00
2024-10-11 20:45:46.876,0.3115408,0.28697792,-0.27277198,0.2504713,0.27446076,-0.4246224,-1.0423481,0.145029,0.80948585,-0.42543274,-0.4537734,0.341794,0.38851783,-0.14212707,0.54284585,0.47579518,0.16784011,-0.46517673,0.25555915,0.22018197,829.6337,804.2491,773.6264,806.26373,678.5348,-0.135498046875,-0.069091796875,1.000244140625,1.607513427734375,-0.2691650390625,6.093597412109375,1,1.0,1.0,1.0,1.0,10.00
2024-10-11 20:45:46.877,0.3115408,0.28697792,-0.27277198,0.2504713,0.27446076,-0.4246224,-1.0423481,0.145029,0.80948585,-0.42543274,-0.4537734,0.341794,0.38851783,-0.14212707,0.54284585,0.47579518,0.16784011,-0.46517673,0.25555915,0.22018197,819.15753,797.8022,786.1172,803.0403,678.1319,-0.135498046875,-0.069091796875,1.000244140625,1.607513427734375,-0.2691650390625,6.093597412109375,1,1.0,1.0,1.0,1.0,10.00
2024-10-11 20:45:46.878,0.3115408,0.3132399,-0.27277198,0.08622342,0.27446076,-0.45564225,-1.0423481,0.008372629,0.80948585,-0.47889936,-0.4537734,0.31433067,0.38851783,-0.13889606,0.54284585,0.48519564,0.16784011,-0.45825198,0.25555915,0.24515228,804.65204,796.1905,781.685,796.5934,810.696,-0.135498046875,-0.069091796875,1.000244140625,1.607513427734375,-0.2691650390625,6.093597412109375,1,1.0,1.0,1.0,1.0,10.00
2024-10-11 20:45:46.883,0.3115408,0.3132399,-0.27277198,0.08622342,0.27446076,-0.45564225,-1.0423481,0.008372629,0.80948585,-0.47889936,-0.4537734,0.31433067,0.38851783,-0.13889606,0.54284585,0.48519564,0.16784011,-0.45825198,0.25555915,0.24515228,803.44324,801.02563,792.1612,801.02563,709.9634,-0.135498046875,-0.069091796875,1.000244140625,1.607513427734375,-0.2691650390625,6.093597412109375,1,1.0,1.0,1.0,1.0,10.00
2024-10-11 20:45:46.884,0.3115408,0.3132399,-0.27277198,0.08622342,0.27446076,-0.45564225,-1.0423481,0.008372629,0.80948585,-0.47889936,-0.4537734,0.31433067,0.38851783,-0.13889606,0.54284585,0.48519564,0.16784011,-0.45825198,0.25555915,0.24515228,806.6667,802.23444,807.0696,798.20514,683.36993,-0.135498046875,-0.069091796875,1.000244140625,1.607513427734375,-0.2691650390625,6.093597412109375,1,1.0,1.0,1.0,1.0,10.00
2024-10-11 20:45:46.885,0.3115408,0.3132399,-0.27277198,0.08622342,0.27446076,-0.45564225,-1.0423481,0.008372629,0.80948585,-0.47889936,-0.4537734,0.31433067,0.38851783,-0.13889606,0.54284585,0.48519564,0.16784011,-0.45825198,0.25555915,0.24515228,809.4872,796.1905,805.8608,794.17584,878.7912,-0.135498046875,-0.069091796875,1.000244140625,1.607513427734375,-0.2691650390625,6.093597412109375,1,1.0,1.0,1.0,1.0,10.00
2024-10-11 20:45:46.885,0.3115408,0.3132399,-0.27277198,0.08622342,0.27446076,-0.45564225,-1.0423481,0.008372629,0.80948585,-0.47889936,-0.4537734,0.31433067,0.38851783,-0.13889606,0.54284585,0.48519564,0.16784011,-0.45825198,0.25555915,0.24515228,812.3077,796.99634,800.6227,801.8315,977.9121,-0.135498046875,-0.069091796875,1.000244140625,1.607513427734375,-0.2691650390625,6.093597412109375,1,1.0,1.0,1.0,1.0,10.00
2024-10-11 20:45:46.886,0.3115408,0.3132399,-0.27277198,0.08622342,0.27446076,-0.45564225,-1.0423481,0.008372629,0.80948585,-0.47889936,-0.4537734,0.31433067,0.38851783,-0.13889606,0.54284585,0.48519564,0.16784011,-0.45825198,0.25555915,0.24515228,806.6667,799.011,807.8755,809.4872,681.3553,-0.135498046875,-0.069091796875,1.000244140625,1.607513427734375,-0.2691650390625,6.093597412109375,1,1.0,1.0,1.0,1.0,10.00
2024-10-11 20:45:46.887,0.3115408,0.3132399,-0.27277198,0.08622342,0.27446076,-0.45564225,-1.0423481,0.008372629,0.80948585,-0.47889936,-0.4537734,0.31433067,0.38851783,-0.13889606,0.54284585,0.48519564,0.16784011,-0.45825198,0.25555915,0.24515228,803.44324,796.99634,802.6374,808.2784,547.1795,-0.135498046875,-0.069091796875,1.000244140625,1.607513427734375,-0.2691650390625,6.093597412109375,1,1.0,1.0,1.0,1.0,10.00
2024-10-11 20:45:46.888,0.3115408,0.3132399,-0.27277198,0.08622342,0.27446076,-0.45564225,-1.0423481,0.008372629,0.80948585,-0.47889936,-0.4537734,0.31433067,0.38851783,-0.13889606,0.54284585,0.48519564,0.16784011,-0.45825198,0.25555915,0.24515228,805.4579,797.8022,796.5934,799.41394,795.78754,-0.135498046875,-0.069091796875,1.000244140625,1.607513427734375,-0.2691650390625,6.093597412109375,1,1.0,1.0,1.0,1.0,10.00
