TimeStamp,Delta_TP9,Delta_AF7,Delta_AF8,Delta_TP10,Theta_TP9,Theta_AF7,Theta_AF8,Theta_TP10,Alpha_TP9,Alpha_AF7,Alpha_AF8,Alpha_TP10,Beta_TP9,Beta_AF7,Beta_AF8,Beta_TP10,Gamma_TP9,Gamma_AF7,Gamma_AF8,Gamma_TP10,RAW_TP9,RAW_AF7,RAW_AF8,RAW_TP10,AUX_RIGHT,Accelerometer_X,Accelerometer_Y,Accelerometer_Z,Gyro_X,Gyro_Y,Gyro_Z,HeadBandOn,HSI_TP9,HSI_AF7,HSI_AF8,HSI_TP10,Battery,Elements
2024-10-11 20:40:09.959,0.29055992,0.7863849,0.7958318,0.008652702,0.17569067,0.5797244,0.544485,-0.34458244,0.7571064,0.17565544,0.33790898,0.34863958,0.49283287,0.13079289,-0.08569244,0.18251859,0.15586972,-0.36831453,-0.03083329,0.2650866,793.7729,801.02563,799.81683,786.1172,940.0366,-0.09478759765625,0.09100341796875,0.995849609375,0.538330078125,-0.770111083984375,-0.0,1,2.0,1.0,1.0,2.0,10.00
2024-10-11 20:40:09.960,0.29055992,0.7863849,0.7958318,0.008652702,0.17569067,0.5797244,0.544485,-0.34458244,0.7571064,0.17565544,0.33790898,0.34863958,0.49283287,0.13079289,-0.08569244,0.18251859,0.15586972,-0.36831453,-0.03083329,0.2650866,797.8022,803.44324,798.20514,784.10254,783.69965,-0.09478759765625,0.09100341796875,0.995849609375,0.538330078125,-0.770111083984375,-0.0,1,2.0,1.0,1.0,2.0,10.00
2024-10-11 20:40:09.961,0.29055992,0.7863849,0.7958318,0.008652702,0.17569067,0.5797244,0.544485,-0.34458244,0.7571064,0.17565544,0.33790898,0.34863958,0.49283287,0.13079289,-0.08569244,0.18251859,0.15586972,-0.36831453,-0.03083329,0.2650866,788.5348,799.011,791.3553,776.8498,688.20514,-0.09478759765625,0.09100341796875,0.995849609375,0.538330078125,-0.770111083984375,-0.0,1,2.0,1.0,1.0,2.0,10.00
2024-10-11 20:40:09.962,0.29055992,0.7863849,0.7958318,0.008652702,0.17569067,0.5797244,0.544485,-0.34458244,0.7571064,0.17565544,0.33790898,0.34863958,0.49283287,0.13079289,-0.08569244,0.18251859,0.15586972,-0.36831453,-0.03083329,0.2650866,787.326,794.57874,796.1905,782.8938,765.56775,-0.09478759765625,0.09100341796875,0.995849609375,0.538330078125,-0.770111083984375,-0.0,1,2.0,1.0,1.0,2.0,10.00
2024-10-11 20:40:09.963,0.29055992,0.7863849,0.7958318,0.008652702,0.17569067,0.5797244,0.544485,-0.34458244,0.7571064,0.17565544,0.33790898,0.34863958,0.49283287,0.13079289,-0.08569244,0.18251859,0.15586972,-0.36831453,-0.03083329,0.2650866,788.5348,791.3553,801.8315,792.1612,844.5421,-0.09478759765625,0.09100341796875,0.995849609375,0.538330078125,-0.770111083984375,-0.0,1,2.0,1.0,1.0,2.0,10.00
2024-10-11 20:40:09.964,0.29055992,0.7863849,0.7958318,0.008652702,0.17569067,0.5797244,0.544485,-0.34458244,0.7571064,0.17565544,0.33790898,0.34863958,0.49283287,0.13079289,-0.08569244,0.18251859,0.15586972,-0.36831453,-0.03083329,0.2650866,786.1172,793.7729,799.81683,790.14655,841.7216,-0.09478759765625,0.09100341796875,0.995849609375,0.538330078125,-0.770111083984375,-0.0,1,2.0,1.0,1.0,2.0,10.00
2024-10-11 20:40:09.965,0.29055992,0.7863849,0.7958318,0.008652702,0.17569067,0.5797244,0.544485,-0.34458244,0.7571064,0.17565544,0.33790898,0.34863958,0.49283287,0.13079289,-0.08569244,0.18251859,0.15586972,-0.36831453,-0.03083329,0.2650866,795.38464,793.7729,802.23444,787.326,772.4176,-0.09478759765625,0.09100341796875,0.995849609375,0.538330078125,-0.770111083984375,-0.0,1,2.0,1.0,1.0,2.0,10.00
2024-10-11 20:40:09.966,0.29055992,0.7863849,0.7958318,0.008652702,0.17569067,0.5797244,0.544485,-0.34458244,0.7571064,0.17565544,0.33790898,0.34863958,0.49283287,0.13079289,-0.08569244,0.18251859,0.15586972,-0.36831453,-0.03083329,0.2650866,799.81683,792.96704,803.44324,786.9231,843.73627,-0.09478759765625,0.09100341796875,0.995849609375,0.538330078125,-0.770111083984375,-0.0,1,2.0,1.0,1.0,2.0,10.00
2024-10-11 20:40:09.968,0.29055992,0.7863849,0.7958318,0.008652702,0.17569067,0.5797244,0.544485,-0.34458244,0.7571064,0.17565544,0.33790898,0.34863958,0.49283287,0.13079289,-0.08569244,0.18251859,0.15586972,-0.36831453,-0.03083329,0.2650866,798.60803,799.81683,798.60803,782.8938,913.44324,-0.09478759765625,0.09100341796875,0.995849609375,0.538330078125,-0.770111083984375,-0.0,1,2.0,1.0,1.0,2.0,10.00
2024-10-11 20:40:09.969,0.29055992,0.7863849,0.7958318,0.008652702,0.17569067,0.5797244,0.544485,-0.34458244,0.7571064,0.17565544,0.33790898,0.34863958,0.49283287,0.13079289,-0.08569244,0.18251859,0.15586972,-0.36831453,-0.03083329,0.2650866,797.3993,798.60803,794.17584,786.52014,745.0183,-0.09478759765625,0.09100341796875,0.995849609375,0.538330078125,-0.770111083984375,-0.0,1,2.0,1.0,1.0,2.0,10.00
2024-10-11 20:40:09.970,0.29055992,0.7863849,0.7958318,0.008652702,0.17569067,0.5797244,0.544485,-0.34458244,0.7571064,0.17565544,0.33790898,0.34863958,0.49283287,0.13079289,-0.08569244,0.18251859,0.15586972,-0.36831453,-0.03083329,0.2650866,799.011,794.57874,796.5934,792.96704,609.6337,-0.09478759765625,0.09100341796875,0.995849609375,0.538330078125,-0.770111083984375,-0.0,1,2.0,1.0,1.0,2.0,10.00
2024-10-11 20:40:09.971,0.29055992,0.7863849,0.7958318,0.008652702,0.17569067,0.5797244,0.544485,-0.34458244,0.7571064,0.17565544,0.33790898,0.34863958,0.49283287,0.13079289,-0.08569244,0.18251859,0.15586972,-0.36831453,-0.03083329,0.2650866,794.9817,798.60803,801.4286,799.41394,756.7033,-0.09478759765625,0.09100341796875,0.995849609375,0.538330078125,-0.770111083984375,-0.0,1,2.0,1.0,1.0,2.0,10.00
2024-10-11 20:40:09.972,0.29055992,0.7863849,0.7958318,0.008652702,0.17569067,0.5797244,0.544485,-0.34458244,0.7571064,0.17565544,0.33790898,0.34863958,0.49283287,0.13079289,-0.08569244,0.18251859,0.15586972,-0.36831453,-0.03083329,0.2650866,787.72894,801.02563,805.05493,805.4579,863.47986,-0.09478759765625,0.09100341796875,0.995849609375,0.538330078125,-0.770111083984375,-0.0,1,2.0,1.0,1.0,2.0,10.00
2024-10-11 20:40:09.973,0.29055992,0.76063067,0.79157615,0.008652702,0.17569067,0.5560065,0.5409229,-0.34458244,0.7571064,0.18648967,0.32981732,0.34863958,0.49283287,0.13358274,-0.08319938,0.18251859,0.15586972,-0.3627943,-0.0016328156,0.2650866,782.8938,797.8022,805.8608,797.8022,709.5604,-0.09478759765625,0.09100341796875,0.995849609375,0.538330078125,-0.770111083984375,-0.0,1,2.0,1.0,1.0,2.0,10.00
2024-10-11 20:40:09.978,0.29055992,0.76063067,0.79157615,0.008652702,0.17569067,0.5560065,0.5409229,-0.34458244,0.7571064,0.18648967,0.32981732,0.34863958,0.49283287,0.13358274,-0.08319938,0.18251859,0.15586972,-0.3627943,-0.0016328156,0.2650866,782.8938,794.57874,804.65204,793.36993,603.5897,-0.09478759765625,0.09100341796875,0.995849609375,0.538330078125,-0.770111083984375,-0.0,1,2.0,1.0,1.0,2.0,10.00
2024-10-11 20:40:09.979,0.29055992,0.76063067,0.79157615,0.008652702,0.17569067,0.5560065,0.5409229,-0.34458244,0.7571064,0.18648967,0.32981732,0.34863958,0.49283287,0.13358274,-0.08319938,0.18251859,0.15586972,-0.3627943,-0.0016328156,0.2650866,786.1172,798.60803,808.2784,795.38464,676.1172,-0.09478759765625,0.09100341796875,0.995849609375,0.538330078125,-0.770111083984375,-0.0,1,2.0,1.0,1.0,2.0,10.00
2024-10-11 20:40:09.980,0.29055992,0.76063067,0.79157615,0.008652702,0.17569067,0.5560065,0.5409229,-0.34458244,0.7571064,0.18648967,0.32981732,0.34863958,0.49283287,0.13358274,-0.08319938,0.18251859,0.15586972,-0.3627943,-0.0016328156,0.2650866,785.31134,794.9817,808.68134,787.72894,788.1319,-0.09478759765625,0.09100341796875,0.995849609375,0.538330078125,-0.770111083984375,-0.0,1,2.0,1.0,1.0,2.0,10.00
2024-10-11 20:40:09.981,0.29055992,0.76063067,0.79157615,0.008652702,0.17569067,0.5560065,0.5409229,-0.34458244,0.7571064,0.18648967,0.32981732,0.34863958,0.49283287,0.13358274,-0.08319938,0.18251859,0.15586972,-0.3627943,-0.0016328156,0.2650866,784.5055,790.9524,809.89014,784.5055,757.1062,-0.09478759765625,0.09100341796875,0.995849609375,0.538330078125,-0.770111083984375,-0.0,1,2.0,1.0,1.0,2.0,10.00
2024-10-11 20:40:09.982,0.29055992,0.76063067,0.79157615,0.008652702,0.17569067,0.5560065,0.5409229,-0.34458244,0.7571064,0.18648967,0.32981732,0.34863958,0.49283287,0.13358274,-0.08319938,0.18251859,0.15586972,-0.3627943,-0.0016328156,0.2650866,787.72894,797.3993,807.8755,794.17584,781.28204,-0.09478759765625,0.09100341796875,0.995849609375,0.538330078125,-0.770111083984375,-0.0,1,2.0,1.0,1.0,2.0,10.00
2024-10-11 20:40:09.983,0.29055992,0.76063067,0.79157615,0.008652702,0.17569067,0.5560065,0.5409229,-0.34458244,0.7571064,0.18648967,0.32981732,0.34863958,0.49283287,0.13358274,-0.08319938,0.18251859,0.15586972,-0.3627943,-0.0016328156,0.2650866,790.54944,793.36993,799.41394,803.0403,871.53845,-0.09478759765625,0.09100341796875,0.995849609375,0.538330078125,-0.770111083984375,-0.0,1,2.0,1.0,1.0,2.0,10.00
2024-10-11 20:40:09.984,0.29055992,0.76063067,0.79157615,0.008652702,0.17569067,0.5560065,0.5409229,-0.34458244,0.7571064,0.18648967,0.32981732,0.34863958,0.49283287,0.13358274,-0.08319938,0.18251859,0.15586972,-0.3627943,-0.0016328156,0.2650866,788.93774,793.7729,797.8022,801.4286,776.04395,-0.09478759765625,0.09100341796875,0.995849609375,0.538330078125,-0.770111083984375,-0.0,1,2.0,1.0,1.0,2.0,10.00
2024-10-11 20:40:09.985,0.29055992,0.76063067,0.79157615,0.008652702,0.17569067,0.5560065,0.5409229,-0.34458244,0.7571064,0.18648967,0.32981732,0.34863958,0.49283287,0.13358274,-0.08319938,0.18251859,0.15586972,-0.3627943,-0.0016328156,0.2650866,794.17584,799.41394,801.8315,801.4286,669.2674,-0.09478759765625,0.09100341796875,0.995849609375,0.538330078125,-0.770111083984375,-0.0,1,2.0,1.0,1.0,2.0,10.00
2024-10-11 20:40:09.986,0.29055992,0.76063067,0.79157615,0.008652702,0.17569067,0.5560065,0.5409229,-0.34458244,0.7571064,0.18648967,0.32981732,0.34863958,0.49283287,0.13358274,-0.08319938,0.18251859,0.15586972,-0.3627943,-0.0016328156,0.2650866,801.02563,795.78754,801.4286,801.4286,684.9817,-0.09478759765625,0.09100341796875,0.995849609375,0.538330078125,-0.770111083984375,-0.0,1,2.0,1.0,1.0,2.0,10.00
2024-10-11 20:40:09.987,0.29055992,0.76063067,0.79157615,0.008652702,0.17569067,0.5560065,0.5409229,-0.34458244,0.7571064,0.18648967,0.32981732,0.34863958,0.49283287,0.13358274,-0.08319938,0.18251859,0.15586972,-0.3627943,-0.0016328156,0.2650866,801.02563,797.8022,804.65204,805.05493,844.94507,-0.09478759765625,0.09100341796875,0.995849609375,0.538330078125,-0.770111083984375,-0.0,1,2.0,1.0,1.0,2.0,10.00
2024-10-11 20:40:10.023,0.29055992,0.76063067,0.79157615,0.008652702,0.17569067,0.5560065,0.5409229,-0.34458244,0.7571064,0.18648967,0.32981732,0.34863958,0.49283287,0.13358274,-0.08319938,0.18251859,0.15586972,-0.3627943,-0.0016328156,0.2650866,783.69965,797.8022,807.0696,803.44324,848.1685,-0.099365234375,0.08441162109375,0.99713134765625,1.338348388671875,-1.173858642578125,-0.067291259765625,1,2.0,1.0,1.0,2.0,10.00
2024-10-11 20:40:10.024,0.29055992,0.76063067,0.79157615,0.008652702,0.17569067,0.5560065,0.5409229,-0.34458244,0.7571064,0.18648967,0.32981732,0.34863958,0.49283287,0.13358274,-0.08319938,0.18251859,0.15586972,-0.3627943,-0.0016328156,0.2650866,783.2967,791.75824,802.23444,799.81683,719.2308,-0.099365234375,0.08441162109375,0.99713134765625,1.338348388671875,-1.173858642578125,-0.067291259765625,1,2.0,1.0,1.0,2.0,10.00
2024-10-11 20:40:10.026,0.29055992,0.76063067,0.79157615,0.008652702,0.17569067,0.5560065,0.5409229,-0.34458244,0.7571064,0.18648967,0.32981732,0.34863958,0.49283287,0.13358274,-0.08319938,0.18251859,0.15586972,-0.3627943,-0.0016328156,0.2650866,795.78754,788.93774,798.60803,803.44324,751.4652,-0.099365234375,0.08441162109375,0.99713134765625,1.338348388671875,-1.173858642578125,-0.067291259765625,1,2.0,1.0,1.0,2.0,10.00
2024-10-11 20:40:10.027,0.29055992,0.76063067,0.79157615,0.008652702,0.17569067,0.5560065,0.5409229,-0.34458244,0.7571064,0.18648967,0.32981732,0.34863958,0.49283287,0.13358274,-0.08319938,0.18251859,0.15586972,-0.3627943,-0.0016328156,0.2650866,799.81683,794.17584,797.8022,799.011,874.35895,-0.099365234375,0.08441162109375,0.99713134765625,1.338348388671875,-1.173858642578125,-0.067291259765625,1,2.0,1.0,1.0,2.0,10.00
2024-10-11 20:40:10.028,0.29055992,0.76063067,0.79157615,0.008652702,0.17569067,0.5560065,0.5409229,-0.34458244,0.7571064,0.18648967,0.32981732,0.34863958,0.49283287,0.13358274,-0.08319938,0.18251859,0.15586972,-0.3627943,-0.0016328156,0.2650866,797.8022,791.75824,792.5641,794.57874,739.7802,-0.099365234375,0.08441162109375,0.99713134765625,1.338348388671875,-1.173858642578125,-0.067291259765625,1,2.0,1.0,1.0,2.0,10.00
2024-10-11 20:40:10.029,0.29055992,0.76063067,0.79157615,0.008652702,0.17569067,0.5560065,0.5409229,-0.34458244,0.7571064,0.18648967,0.32981732,0.34863958,0.49283287,0.13358274,-0.08319938,0.18251859,0.15586972,-0.3627943,-0.0016328156,0.2650866,791.75824,789.7436,797.8022,796.5934,749.85345,-0.099365234375,0.08441162109375,0.99713134765625,1.338348388671875,-1.173858642578125,-0.067291259765625,1,2.0,1.0,1.0,2.0,10.00
2024-10-11 20:40:10.030,0.29055992,0.76063067,0.79157615,0.008652702,0.17569067,0.5560065,0.5409229,-0.34458244,0.7571064,0.18648967,0.32981732,0.34863958,0.49283287,0.13358274,-0.08319938,0.18251859,0.15586972,-0.3627943,-0.0016328156,0.2650866,793.36993,794.9817,807.8755,798.60803,904.17584,-0.099365234375,0.08441162109375,0.99713134765625,1.338348388671875,-1.173858642578125,-0.067291259765625,1,2.0,1.0,1.0,2.0,10.00
2024-10-11 20:40:10.031,0.29055992,0.76063067,0.79157615,0.008652702,0.17569067,0.5560065,0.5409229,-0.34458244,0.7571064,0.18648967,0.32981732,0.34863958,0.49283287,0.13358274,-0.08319938,0.18251859,0.15586972,-0.3627943,-0.0016328156,0.2650866,801.4286,794.17584,803.44324,801.4286,1015.78754,-0.099365234375,0.08441162109375,0.99713134765625,1.338348388671875,-1.173858642578125,-0.067291259765625,1,2.0,1.0,1.0,2.0,10.00
2024-10-11 20:40:10.031,0.29055992,0.76063067,0.79157615,0.008652702,0.17569067,0.5560065,0.5409229,-0.34458244,0.7571064,0.18648967,0.32981732,0.34863958,0.49283287,0.13358274,-0.08319938,0.18251859,0.15586972,-0.3627943,-0.0016328156,0.2650866,805.8608,795.78754,802.6374,804.2491,909.011,-0.099365234375,0.08441162109375,0.99713134765625,1.338348388671875,-1.173858642578125,-0.067291259765625,1,2.0,1.0,1.0,2.0,10.00
2024-10-11 20:40:10.032,0.29055992,0.76063067,0.79157615,0.008652702,0.17569067,0.5560065,0.5409229,-0.34458244,0.7571064,0.18648967,0.32981732,0.34863958,0.49283287,0.13358274,-0.08319938,0.18251859,0.15586972,-0.3627943,-0.0016328156,0.2650866,804.65204,801.8315,811.0989,812.71063,765.56775,-0.099365234375,0.08441162109375,0.99713134765625,1.338348388671875,-1.173858642578125,-0.067291259765625,1,2.0,1.0,1.0,2.0,10.00
2024-10-11 20:40:10.034,0.29055992,0.76063067,0.79157615,0.008652702,0.17569067,0.5560065,0.5409229,-0.34458244,0.7571064,0.18648967,0.32981732,0.34863958,0.49283287,0.13358274,-0.08319938,0.18251859,0.15586972,-0.3627943,-0.0016328156,0.2650866,803.44324,795.38464,811.0989,813.5165,804.65204,-0.099365234375,0.08441162109375,0.99713134765625,1.338348388671875,-1.173858642578125,-0.067291259765625,1,2.0,1.0,1.0,2.0,10.00
2024-10-11 20:40:10.035,0.29055992,0.76063067,0.79157615,0.008652702,0.17569067,0.5560065,0.5409229,-0.34458244,0.7571064,0.18648967,0.32981732,0.34863958,0.49283287,0.13358274,-0.08319938,0.18251859,0.15586972,-0.3627943,-0.0016328156,0.2650866,799.81683,789.34064,801.8315,803.8461,807.8755,-0.099365234375,0.08441162109375,0.99713134765625,1.338348388671875,-1.173858642578125,-0.067291259765625,1,2.0,1.0,1.0,2.0,10.00
2024-10-11 20:40:10.070,0.29055992,0.76063067,0.79157615,0.008652702,0.17569067,0.5560065,0.5409229,-0.34458244,0.7571064,0.18648967,0.32981732,0.34863958,0.49283287,0.13358274,-0.08319938,0.18251859,0.15586972,-0.3627943,-0.0016328156,0.2650866,801.8315,796.1905,799.011,802.6374,675.31134,-0.095703125,0.08135986328125,0.9923095703125,3.409423828125,-1.846771240234375,0.545806884765625,1,2.0,1.0,1.0,2.0,10.00
2024-10-11 20:40:10.071,0.29055992,0.76063067,0.79157615,0.008652702,0.17569067,0.5560065,0.5409229,-0.34458244,0.7571064,0.18648967,0.32981732,0.34863958,0.49283287,0.13358274,-0.08319938,0.18251859,0.15586972,-0.3627943,-0.0016328156,0.2650866,798.20514,799.011,798.20514,799.011,642.27106,-0.095703125,0.08135986328125,0.9923095703125,3.409423828125,-1.846771240234375,0.545806884765625,1,2.0,1.0,1.0,2.0,10.00
2024-10-11 20:40:10.072,0.29055992,0.76063067,0.79157615,0.008652702,0.17569067,0.5560065,0.5409229,-0.34458244,0.7571064,0.18648967,0.32981732,0.34863958,0.49283287,0.13358274,-0.08319938,0.18251859,0.15586972,-0.3627943,-0.0016328156,0.2650866,799.41394,791.75824,800.2198,797.3993,804.2491,-0.095703125,0.08135986328125,0.9923095703125,3.409423828125,-1.846771240234375,0.545806884765625,1,2.0,1.0,1.0,2.0,10.00
2024-10-11 20:40:10.073,0.046431813,0.7625652,0.78220755,0.56004125,-0.08184179,0.5616647,0.5374172,-0.1395154,0.138144,0.18675809,0.32348302,0.35389534,0.22173165,0.14643003,-0.07921285,0.3662526,-0.31546456,-0.35727924,0.015587562,-0.10721898,799.81683,790.14655,798.60803,801.4286,842.1245,-0.095703125,0.08135986328125,0.9923095703125,3.409423828125,-1.846771240234375,0.545806884765625,1,2.0,1.0,1.0,2.0,10.00
2024-10-11 20:40:10.079,0.046431813,0.7625652,0.78220755,0.56004125,-0.08184179,0.5616647,0.5374172,-0.1395154,0.138144,0.18675809,0.32348302,0.35389534,0.22173165,0.14643003,-0.07921285,0.3662526,-0.31546456,-0.35727924,0.015587562,-0.10721898,794.17584,795.78754,799.81683,796.1905,628.97437,-0.095703125,0.08135986328125,0.9923095703125,3.409423828125,-1.846771240234375,0.545806884765625,1,2.0,1.0,1.0,2.0,10.00
2024-10-11 20:40:10.080,0.046431813,0.7625652,0.78220755,0.56004125,-0.08184179,0.5616647,0.5374172,-0.1395154,0.138144,0.18675809,0.32348302,0.35389534,0.22173165,0.14643003,-0.07921285,0.3662526,-0.31546456,-0.35727924,0.015587562,-0.10721898,799.011,796.99634,803.0403,792.5641,748.6447,-0.095703125,0.08135986328125,0.9923095703125,3.409423828125,-1.846771240234375,0.545806884765625,1,2.0,1.0,1.0,2.0,10.00
2024-10-11 20:40:10.080,0.046431813,0.7625652,0.78220755,0.56004125,-0.08184179,0.5616647,0.5374172,-0.1395154,0.138144,0.18675809,0.32348302,0.35389534,0.22173165,0.14643003,-0.07921285,0.3662526,-0.31546456,-0.35727924,0.015587562,-0.10721898,799.41394,796.1905,796.5934,793.36993,1166.8865,-0.095703125,0.08135986328125,0.9923095703125,3.409423828125,-1.846771240234375,0.545806884765625,1,2.0,1.0,1.0,2.0,10.00
2024-10-11 20:40:10.081,0.046431813,0.7625652,0.78220755,0.56004125,-0.08184179,0.5616647,0.5374172,-0.1395154,0.138144,0.18675809,0.32348302,0.35389534,0.22173165,0.14643003,-0.07921285,0.3662526,-0.31546456,-0.35727924,0.015587562,-0.10721898,803.8461,799.011,788.5348,796.1905,1046.4103,-0.095703125,0.08135986328125,0.9923095703125,3.409423828125,-1.846771240234375,0.545806884765625,1,2.0,1.0,1.0,2.0,10.00
2024-10-11 20:40:10.081,0.046431813,0.7625652,0.78220755,0.56004125,-0.08184179,0.5616647,0.5374172,-0.1395154,0.138144,0.18675809,0.32348302,0.35389534,0.22173165,0.14643003,-0.07921285,0.3662526,-0.31546456,-0.35727924,0.015587562,-0.10721898,810.293,799.41394,790.14655,801.4286,605.2015,-0.095703125,0.08135986328125,0.9923095703125,3.409423828125,-1.846771240234375,0.545806884765625,1,2.0,1.0,1.0,2.0,10.00
2024-10-11 20:40:10.082,0.046431813,0.7625652,0.78220755,0.56004125,-0.08184179,0.5616647,0.5374172,-0.1395154,0.138144,0.18675809,0.32348302,0.35389534,0.22173165,0.14643003,-0.07921285,0.3662526,-0.31546456,-0.35727924,0.015587562,-0.10721898,804.2491,799.011,797.3993,805.05493,711.978,-0.095703125,0.08135986328125,0.9923095703125,3.409423828125,-1.846771240234375,0.545806884765625,1,2.0,1.0,1.0,2.0,10.00
2024-10-11 20:40:10.082,0.046431813,0.7625652,0.78220755,0.56004125,-0.08184179,0.5616647,0.5374172,-0.1395154,0.138144,0.18675809,0.32348302,0.35389534,0.22173165,0.14643003,-0.07921285,0.3662526,-0.31546456,-0.35727924,0.015587562,-0.10721898,801.02563,792.96704,797.8022,803.8461,1026.2638,-0.095703125,0.08135986328125,0.9923095703125,3.409423828125,-1.846771240234375,0.545806884765625,1,2.0,1.0,1.0,2.0,10.00
2024-10-11 20:40:10.083,0.046431813,0.7625652,0.78220755,0.56004125,-0.08184179,0.5616647,0.5374172,-0.1395154,0.138144,0.18675809,0.32348302,0.35389534,0.22173165,0.14643003,-0.07921285,0.3662526,-0.31546456,-0.35727924,0.015587562,-0.10721898,807.0696,788.1319,804.2491,804.65204,827.2161,-0.095703125,0.08135986328125,0.9923095703125,3.409423828125,-1.846771240234375,0.545806884765625,1,2.0,1.0,1.0,2.0,10.00
2024-10-11 20:40:10.084,0.046431813,0.7625652,0.78220755,0.56004125,-0.08184179,0.5616647,0.5374172,-0.1395154,0.138144,0.18675809,0.32348302,0.35389534,0.22173165,0.14643003,-0.07921285,0.3662526,-0.31546456,-0.35727924,0.015587562,-0.10721898,807.8755,795.78754,806.6667,799.41394,620.5128,-0.09234619140625,0.08843994140625,0.990966796875,5.316009521484375,-3.15521240234375,1.89910888671875,1,2.0,1.0,1.0,2.0,10.00
2024-10-11 20:40:10.084,0.046431813,0.7625652,0.78220755,0.56004125,-0.08184179,0.5616647,0.5374172,-0.1395154,0.138144,0.18675809,0.32348302,0.35389534,0.22173165,0.14643003,-0.07921285,0.3662526,-0.31546456,-0.35727924,0.015587562,-0.10721898,807.8755,802.23444,806.6667,809.4872,751.4652,-0.09234619140625,0.08843994140625,0.990966796875,5.316009521484375,-3.15521240234375,1.89910888671875,1,2.0,1.0,1.0,2.0,10.00
2024-10-11 20:40:10.085,0.046431813,0.7625652,0.78220755,0.56004125,-0.08184179,0.5616647,0.5374172,-0.1395154,0.138144,0.18675809,0.32348302,0.35389534,0.22173165,0.14643003,-0.07921285,0.3662526,-0.31546456,-0.35727924,0.015587562,-0.10721898,809.0842,801.4286,805.4579,816.7399,863.0769,-0.09234619140625,0.08843994140625,0.990966796875,5.316009521484375,-3.15521240234375,1.89910888671875,1,2.0,1.0,1.0,2.0,10.00
2024-10-11 20:40:10.086,0.046431813,0.7625652,0.78220755,0.56004125,-0.08184179,0.5616647,0.5374172,-0.1395154,0.138144,0.18675809,0.32348302,0.35389534,0.22173165,0.14643003,-0.07921285,0.3662526,-0.31546456,-0.35727924,0.015587562,-0.10721898,805.8608,796.1905,804.2491,810.696,769.59705,-0.09234619140625,0.08843994140625,0.990966796875,5.316009521484375,-3.15521240234375,1.89910888671875,1,2.0,1.0,1.0,2.0,10.00
2024-10-11 20:40:10.087,0.046431813,0.7625652,0.78220755,0.56004125,-0.08184179,0.5616647,0.5374172,-0.1395154,0.138144,0.18675809,0.32348302,0.35389534,0.22173165,0.14643003,-0.07921285,0.3662526,-0.31546456,-0.35727924,0.015587562,-0.10721898,806.26373,789.7436,805.4579,814.3223,677.326,-0.09234619140625,0.08843994140625,0.990966796875,5.316009521484375,-3.15521240234375,1.89910888671875,1,2.0,1.0,1.0,2.0,10.00
2024-10-11 20:40:10.088,0.046431813,0.7625652,0.78220755,0.56004125,-0.08184179,0.5616647,0.5374172,-0.1395154,0.138144,0.18675809,0.32348302,0.35389534,0.22173165,0.14643003,-0.07921285,0.3662526,-0.31546456,-0.35727924,0.015587562,-0.10721898,813.5165,796.1905,800.6227,815.12823,837.28937,-0.09234619140625,0.08843994140625,0.990966796875,5.316009521484375,-3.15521240234375,1.89910888671875,1,2.0,1.0,1.0,2.0,10.00
2024-10-11 20:40:10.089,0.046431813,0.7625652,0.78220755,0.56004125,-0.08184179,0.5616647,0.5374172,-0.1395154,0.138144,0.18675809,0.32348302,0.35389534,0.22173165,0.14643003,-0.07921285,0.3662526,-0.31546456,-0.35727924,0.015587562,-0.10721898,806.6667,801.4286,801.02563,815.9341,998.86444,-0.09234619140625,0.08843994140625,0.990966796875,5.316009521484375,-3.15521240234375,1.89910888671875,1,2.0,1.0,1.0,2.0,10.00
2024-10-11 20:40:10.090,0.046431813,0.7625652,0.78220755,0.56004125,-0.08184179,0.5616647,0.5374172,-0.1395154,0.138144,0.18675809,0.32348302,0.35389534,0.22173165,0.14643003,-0.07921285,0.3662526,-0.31546456,-0.35727924,0.015587562,-0.10721898,799.011,796.1905,798.60803,811.0989,819.5604,-0.09234619140625,0.08843994140625,0.990966796875,5.316009521484375,-3.15521240234375,1.89910888671875,1,2.0,1.0,1.0,2.0,10.00
2024-10-11 20:40:10.090,0.046431813,0.7625652,0.78220755,0.56004125,-0.08184179,0.5616647,0.5374172,-0.1395154,0.138144,0.18675809,0.32348302,0.35389534,0.22173165,0.14643003,-0.07921285,0.3662526,-0.31546456,-0.35727924,0.015587562,-0.10721898,802.23444,794.9817,796.5934,803.0403,576.5934,-0.09234619140625,0.08843994140625,0.990966796875,5.316009521484375,-3.15521240234375,1.89910888671875,1,2.0,1.0,1.0,2.0,10.00
2024-10-11 20:40:10.091,0.046431813,0.7625652,0.78220755,0.56004125,-0.08184179,0.5616647,0.5374172,-0.1395154,0.138144,0.18675809,0.32348302,0.35389534,0.22173165,0.14643003,-0.07921285,0.3662526,-0.31546456,-0.35727924,0.015587562,-0.10721898,794.9817,796.99634,803.8461,801.02563,653.5531,-0.09234619140625,0.08843994140625,0.990966796875,5.316009521484375,-3.15521240234375,1.89910888671875,1,2.0,1.0,1.0,2.0,10.00
2024-10-11 20:40:10.091,0.046431813,0.7625652,0.78220755,0.56004125,-0.08184179,0.5616647,0.5374172,-0.1395154,0.138144,0.18675809,0.32348302,0.35389534,0.22173165,0.14643003,-0.07921285,0.3662526,-0.31546456,-0.35727924,0.015587562,-0.10721898,791.75824,791.75824,806.6667,803.44324,834.4689,-0.09234619140625,0.08843994140625,0.990966796875,5.316009521484375,-3.15521240234375,1.89910888671875,1,2.0,1.0,1.0,2.0,10.00
2024-10-11 20:40:10.092,0.046431813,0.7625652,0.78220755,0.56004125,-0.08184179,0.5616647,0.5374172,-0.1395154,0.138144,0.18675809,0.32348302,0.35389534,0.22173165,0.14643003,-0.07921285,0.3662526,-0.31546456,-0.35727924,0.015587562,-0.10721898,792.5641,796.1905,804.65204,801.4286,703.5165,-0.09234619140625,0.08843994140625,0.990966796875,5.316009521484375,-3.15521240234375,1.89910888671875,1,2.0,1.0,1.0,2.0,10.00
2024-10-11 20:40:10.093,0.046431813,0.7625652,0.78220755,0.56004125,-0.08184179,0.5616647,0.5374172,-0.1395154,0.138144,0.18675809,0.32348302,0.35389534,0.22173165,0.14643003,-0.07921285,0.3662526,-0.31546456,-0.35727924,0.015587562,-0.10721898,788.1319,793.36993,803.0403,790.14655,606.4103,-0.08795166015625,0.1063232421875,0.99530029296875,6.691741943359375,-3.955230712890625,3.282318115234375,1,2.0,1.0,1.0,2.0,10.00
2024-10-11 20:40:10.093,0.046431813,0.7625652,0.78220755,0.56004125,-0.08184179,0.5616647,0.5374172,-0.1395154,0.138144,0.18675809,0.32348302,0.35389534,0.22173165,0.14643003,-0.07921285,0.3662526,-0.31546456,-0.35727924,0.015587562,-0.10721898,787.326,792.5641,803.44324,789.34064,749.85345,-0.08795166015625,0.1063232421875,0.99530029296875,6.691741943359375,-3.955230712890625,3.282318115234375,1,2.0,1.0,1.0,2.0,10.00
2024-10-11 20:40:10.094,0.046431813,0.7625652,0.78220755,0.56004125,-0.08184179,0.5616647,0.5374172,-0.1395154,0.138144,0.18675809,0.32348302,0.35389534,0.22173165,0.14643003,-0.07921285,0.3662526,-0.31546456,-0.35727924,0.015587562,-0.10721898,794.57874,796.99634,803.0403,800.6227,789.7436,-0.08795166015625,0.1063232421875,0.99530029296875,6.691741943359375,-3.955230712890625,3.282318115234375,1,2.0,1.0,1.0,2.0,10.00
2024-10-11 20:40:10.094,0.046431813,0.7625652,0.78220755,0.56004125,-0.08184179,0.5616647,0.5374172,-0.1395154,0.138144,0.18675809,0.32348302,0.35389534,0.22173165,0.14643003,-0.07921285,0.3662526,-0.31546456,-0.35727924,0.015587562,-0.10721898,791.75824,797.3993,796.99634,797.3993,720.84247,-0.08795166015625,0.1063232421875,0.99530029296875,6.691741943359375,-3.955230712890625,3.282318115234375,1,2.0,1.0,1.0,2.0,10.00
2024-10-11 20:40:10.095,0.046431813,0.7625652,0.78220755,0.56004125,-0.08184179,0.5616647,0.5374172,-0.1395154,0.138144,0.18675809,0.32348302,0.35389534,0.22173165,0.14643003,-0.07921285,0.3662526,-0.31546456,-0.35727924,0.015587562,-0.10721898,789.7436,800.6227,795.38464,794.57874,755.09155,-0.08795166015625,0.1063232421875,0.99530029296875,6.691741943359375,-3.955230712890625,3.282318115234375,1,2.0,1.0,1.0,2.0,10.00
2024-10-11 20:40:10.095,0.06378373,0.7596662,0.7645472,0.5050455,-0.0069820564,0.5630728,0.5205171,-0.13651131,0.15458237,0.18675809,0.32336453,0.36771798,0.22367072,0.15560803,-0.08401767,0.35798582,-0.29752457,-0.35106736,0.025950843,-0.07134352,796.5934,798.20514,807.0696,799.81683,1059.7069,-0.08795166015625,0.1063232421875,0.99530029296875,6.691741943359375,-3.955230712890625,3.282318115234375,1,1.0,1.0,1.0,1.0,10.00
2024-10-11 20:40:10.099,0.06378373,0.7596662,0.7645472,0.5050455,-0.0069820564,0.5630728,0.5205171,-0.13651131,0.15458237,0.18675809,0.32336453,0.36771798,0.22367072,0.15560803,-0.08401767,0.35798582,-0.29752457,-0.35106736,0.025950843,-0.07134352,808.2784,800.2198,805.8608,804.65204,1031.9048,-0.08795166015625,0.1063232421875,0.99530029296875,6.691741943359375,-3.955230712890625,3.282318115234375,1,1.0,1.0,1.0,1.0,10.00
2024-10-11 20:40:10.100,0.06378373,0.7596662,0.7645472,0.5050455,-0.0069820564,0.5630728,0.5205171,-0.13651131,0.15458237,0.18675809,0.32336453,0.36771798,0.22367072,0.15560803,-0.08401767,0.35798582,-0.29752457,-0.35106736,0.025950843,-0.07134352,798.20514,804.65204,801.8315,803.44324,701.9048,-0.08795166015625,0.1063232421875,0.99530029296875,6.691741943359375,-3.955230712890625,3.282318115234375,1,1.0,1.0,1.0,1.0,10.00
2024-10-11 20:40:10.101,0.06378373,0.7596662,0.7645472,0.5050455,-0.0069820564,0.5630728,0.5205171,-0.13651131,0.15458237,0.18675809,0.32336453,0.36771798,0.22367072,0.15560803,-0.08401767,0.35798582,-0.29752457,-0.35106736,0.025950843,-0.07134352,791.3553,800.6227,802.6374,803.0403,701.0989,-0.08795166015625,0.1063232421875,0.99530029296875,6.691741943359375,-3.955230712890625,3.282318115234375,1,1.0,1.0,1.0,1.0,10.00
2024-10-11 20:40:10.101,0.06378373,0.7596662,0.7645472,0.5050455,-0.0069820564,0.5630728,0.5205171,-0.13651131,0.15458237,0.18675809,0.32336453,0.36771798,0.22367072,0.15560803,-0.08401767,0.35798582,-0.29752457,-0.35106736,0.025950843,-0.07134352,798.20514,798.60803,800.6227,803.44324,890.87915,-0.08795166015625,0.1063232421875,0.99530029296875,6.691741943359375,-3.955230712890625,3.282318115234375,1,1.0,1.0,1.0,1.0,10.00
2024-10-11 20:40:10.102,0.06378373,0.7596662,0.7645472,0.5050455,-0.0069820564,0.5630728,0.5205171,-0.13651131,0.15458237,0.18675809,0.32336453,0.36771798,0.22367072,0.15560803,-0.08401767,0.35798582,-0.29752457,-0.35106736,0.025950843,-0.07134352,790.14655,799.41394,804.65204,799.011,792.5641,-0.08795166015625,0.1063232421875,0.99530029296875,6.691741943359375,-3.955230712890625,3.282318115234375,1,1.0,1.0,1.0,1.0,10.00
2024-10-11 20:40:10.103,0.06378373,0.7596662,0.7645472,0.5050455,-0.0069820564,0.5630728,0.5205171,-0.13651131,0.15458237,0.18675809,0.32336453,0.36771798,0.22367072,0.15560803,-0.08401767,0.35798582,-0.29752457,-0.35106736,0.025950843,-0.07134352,785.7143,797.8022,807.8755,797.8022,678.93774,-0.08795166015625,0.1063232421875,0.99530029296875,6.691741943359375,-3.955230712890625,3.282318115234375,1,1.0,1.0,1.0,1.0,10.00
2024-10-11 20:40:10.125,0.06378373,0.7596662,0.7645472,0.5050455,-0.0069820564,0.5630728,0.5205171,-0.13651131,0.15458237,0.18675809,0.32336453,0.36771798,0.22367072,0.15560803,-0.08401767,0.35798582,-0.29752457,-0.35106736,0.025950843,-0.07134352,799.41394,798.20514,805.05493,801.02563,832.8571,-0.08795166015625,0.1063232421875,0.99530029296875,6.691741943359375,-3.955230712890625,3.282318115234375,1,1.0,1.0,1.0,1.0,10.00
2024-10-11 20:40:10.126,0.06378373,0.7596662,0.7645472,0.5050455,-0.0069820564,0.5630728,0.5205171,-0.13651131,0.15458237,0.18675809,0.32336453,0.36771798,0.22367072,0.15560803,-0.08401767,0.35798582,-0.29752457,-0.35106736,0.025950843,-0.07134352,811.50183,803.0403,804.2491,805.8608,1022.23444,-0.08795166015625,0.1063232421875,0.99530029296875,6.691741943359375,-3.955230712890625,3.282318115234375,1,1.0,1.0,1.0,1.0,10.00
2024-10-11 20:40:10.127,0.06378373,0.7596662,0.7645472,0.5050455,-0.0069820564,0.5630728,0.5205171,-0.13651131,0.15458237,0.18675809,0.32336453,0.36771798,0.22367072,0.15560803,-0.08401767,0.35798582,-0.29752457,-0.35106736,0.025950843,-0.07134352,804.2491,804.2491,802.23444,797.8022,755.89746,-0.08795166015625,0.1063232421875,0.99530029296875,6.691741943359375,-3.955230712890625,3.282318115234375,1,1.0,1.0,1.0,1.0,10.00
2024-10-11 20:40:10.128,0.06378373,0.7596662,0.7645472,0.5050455,-0.0069820564,0.5630728,0.5205171,-0.13651131,0.15458237,0.18675809,0.32336453,0.36771798,0.22367072,0.15560803,-0.08401767,0.35798582,-0.29752457,-0.35106736,0.025950843,-0.07134352,805.8608,801.02563,805.05493,796.1905,637.8388,-0.08795166015625,0.1063232421875,0.99530029296875,6.691741943359375,-3.955230712890625,3.282318115234375,1,1.0,1.0,1.0,1.0,10.00
2024-10-11 20:40:10.128,0.06378373,0.7596662,0.7645472,0.5050455,-0.0069820564,0.5630728,0.5205171,-0.13651131,0.15458237,0.18675809,0.32336453,0.36771798,0.22367072,0.15560803,-0.08401767,0.35798582,-0.29752457,-0.35106736,0.025950843,-0.07134352,815.5311,803.0403,805.4579,803.8461,955.34796,-0.08795166015625,0.1063232421875,0.99530029296875,6.691741943359375,-3.955230712890625,3.282318115234375,1,1.0,1.0,1.0,1.0,10.00
2024-10-11 20:40:10.128,0.06378373,0.7596662,0.7645472,0.5050455,-0.0069820564,0.5630728,0.5205171,-0.13651131,0.15458237,0.18675809,0.32336453,0.36771798,0.22367072,0.15560803,-0.08401767,0.35798582,-0.29752457,-0.35106736,0.025950843,-0.07134352,809.89014,803.8461,805.8608,803.0403,1117.7289,-0.08795166015625,0.1063232421875,0.99530029296875,6.691741943359375,-3.955230712890625,3.282318115234375,1,1.0,1.0,1.0,1.0,10.00
2024-10-11 20:40:10.129,0.06378373,0.7596662,0.7645472,0.5050455,-0.0069820564,0.5630728,0.5205171,-0.13651131,0.15458237,0.18675809,0.32336453,0.36771798,0.22367072,0.15560803,-0.08401767,0.35798582,-0.29752457,-0.35106736,0.025950843,-0.07134352,809.4872,803.0403,808.68134,806.26373,849.3773,-0.08795166015625,0.1063232421875,0.99530029296875,6.691741943359375,-3.955230712890625,3.282318115234375,1,1.0,1.0,1.0,1.0,10.00
2024-10-11 20:40:10.129,0.06378373,0.7596662,0.7645472,0.5050455,-0.0069820564,0.5630728,0.5205171,-0.13651131,0.15458237,0.18675809,0.32336453,0.36771798,0.22367072,0.15560803,-0.08401767,0.35798582,-0.29752457,-0.35106736,0.025950843,-0.07134352,805.8608,805.8608,809.89014,806.6667,690.2198,-0.08795166015625,0.1063232421875,0.99530029296875,6.691741943359375,-3.955230712890625,3.282318115234375,1,1.0,1.0,1.0,1.0,10.00
2024-10-11 20:40:10.130,0.06378373,0.7596662,0.7645472,0.5050455,-0.0069820564,0.5630728,0.5205171,-0.13651131,0.15458237,0.18675809,0.32336453,0.36771798,0.22367072,0.15560803,-0.08401767,0.35798582,-0.29752457,-0.35106736,0.025950843,-0.07134352,799.41394,803.0403,805.4579,804.65204,774.83514,-0.08795166015625,0.1063232421875,0.99530029296875,6.691741943359375,-3.955230712890625,3.282318115234375,1,1.0,1.0,1.0,1.0,10.00
2024-10-11 20:40:10.130,0.06378373,0.7596662,0.7645472,0.5050455,-0.0069820564,0.5630728,0.5205171,-0.13651131,0.15458237,0.18675809,0.32336453,0.36771798,0.22367072,0.15560803,-0.08401767,0.35798582,-0.29752457,-0.35106736,0.025950843,-0.07134352,798.20514,800.6227,803.8461,803.44324,817.5458,-0.08795166015625,0.1063232421875,0.99530029296875,6.691741943359375,-3.955230712890625,3.282318115234375,1,1.0,1.0,1.0,1.0,10.00
2024-10-11 20:40:10.131,0.06378373,0.7596662,0.7645472,0.5050455,-0.0069820564,0.5630728,0.5205171,-0.13651131,0.15458237,0.18675809,0.32336453,0.36771798,0.22367072,0.15560803,-0.08401767,0.35798582,-0.29752457,-0.35106736,0.025950843,-0.07134352,810.696,803.0403,801.02563,809.0842,674.5055,-0.08795166015625,0.1063232421875,0.99530029296875,6.691741943359375,-3.955230712890625,3.282318115234375,1,1.0,1.0,1.0,1.0,10.00
2024-10-11 20:40:10.131,0.06378373,0.7596662,0.7645472,0.5050455,-0.0069820564,0.5630728,0.5205171,-0.13651131,0.15458237,0.18675809,0.32336453,0.36771798,0.22367072,0.15560803,-0.08401767,0.35798582,-0.29752457,-0.35106736,0.025950843,-0.07134352,822.381,803.44324,801.8315,826.4103,612.8571,-0.08795166015625,0.1063232421875,0.99530029296875,6.691741943359375,-3.955230712890625,3.282318115234375,1,1.0,1.0,1.0,1.0,10.00
2024-10-11 20:40:10.132,0.06378373,0.7596662,0.7645472,0.5050455,-0.0069820564,0.5630728,0.5205171,-0.13651131,0.15458237,0.18675809,0.32336453,0.36771798,0.22367072,0.15560803,-0.08401767,0.35798582,-0.29752457,-0.35106736,0.025950843,-0.07134352,788.5348,803.0403,811.0989,814.7253,737.3626,-0.0849609375,0.13397216796875,0.99713134765625,7.61138916015625,-3.03558349609375,4.66552734375,1,1.0,1.0,1.0,1.0,10.00
2024-10-11 20:40:10.133,0.06378373,0.7596662,0.7645472,0.5050455,-0.0069820564,0.5630728,0.5205171,-0.13651131,0.15458237,0.18675809,0.32336453,0.36771798,0.22367072,0.15560803,-0.08401767,0.35798582,-0.29752457,-0.35106736,0.025950843,-0.07134352,785.31134,800.6227,816.337,805.05493,806.26373,-0.0849609375,0.13397216796875,0.99713134765625,7.61138916015625,-3.03558349609375,4.66552734375,1,1.0,1.0,1.0,1.0,10.00
2024-10-11 20:40:10.133,0.06378373,0.7596662,0.7645472,0.5050455,-0.0069820564,0.5630728,0.5205171,-0.13651131,0.15458237,0.18675809,0.32336453,0.36771798,0.22367072,0.15560803,-0.08401767,0.35798582,-0.29752457,-0.35106736,0.025950843,-0.07134352,791.3553,798.20514,818.7546,805.8608,600.3663,-0.0849609375,0.13397216796875,0.99713134765625,7.61138916015625,-3.03558349609375,4.66552734375,1,1.0,1.0,1.0,1.0,10.00
2024-10-11 20:40:10.134,0.06378373,0.7596662,0.7645472,0.5050455,-0.0069820564,0.5630728,0.5205171,-0.13651131,0.15458237,0.18675809,0.32336453,0.36771798,0.22367072,0.15560803,-0.08401767,0.35798582,-0.29752457,-0.35106736,0.025950843,-0.07134352,779.67035,796.5934,819.5604,800.2198,510.91574,-0.0849609375,0.13397216796875,0.99713134765625,7.61138916015625,-3.03558349609375,4.66552734375,1,1.0,1.0,1.0,1.0,10.00
2024-10-11 20:40:10.135,0.06378373,0.7596662,0.7645472,0.5050455,-0.0069820564,0.5630728,0.5205171,-0.13651131,0.15458237,0.18675809,0.32336453,0.36771798,0.22367072,0.15560803,-0.08401767,0.35798582,-0.29752457,-0.35106736,0.025950843,-0.07134352,775.64105,797.3993,820.7692,792.1612,806.6667,-0.0849609375,0.13397216796875,0.99713134765625,7.61138916015625,-3.03558349609375,4.66552734375,1,1.0,1.0,1.0,1.0,10.00
2024-10-11 20:40:10.135,0.06378373,0.7596662,0.7645472,0.5050455,-0.0069820564,0.5630728,0.5205171,-0.13651131,0.15458237,0.18675809,0.32336453,0.36771798,0.22367072,0.15560803,-0.08401767,0.35798582,-0.29752457,-0.35106736,0.025950843,-0.07134352,776.04395,795.38464,817.5458,784.10254,948.0952,-0.0849609375,0.13397216796875,0.99713134765625,7.61138916015625,-3.03558349609375,4.66552734375,1,1.0,1.0,1.0,1.0,10.00
2024-10-11 20:40:10.135,0.06378373,0.7596662,0.7645472,0.5050455,-0.0069820564,0.5630728,0.5205171,-0.13651131,0.15458237,0.18675809,0.32336453,0.36771798,0.22367072,0.15560803,-0.08401767,0.35798582,-0.29752457,-0.35106736,0.025950843,-0.07134352,774.0293,793.36993,817.5458,785.31134,695.05493,-0.0849609375,0.13397216796875,0.99713134765625,7.61138916015625,-3.03558349609375,4.66552734375,1,1.0,1.0,1.0,1.0,10.00
2024-10-11 20:40:10.136,0.11647927,0.7393795,0.69540375,0.4889296,0.052707355,0.5449161,0.43520036,-0.11487477,0.17548904,0.18675809,0.3224261,0.39569423,0.23426759,0.159353,-0.09189516,0.35694098,-0.27215952,-0.34562188,0.03388,-0.04063216,767.1795,796.1905,817.5458,777.25275,727.28937,-0.0849609375,0.13397216796875,0.99713134765625,7.61138916015625,-3.03558349609375,4.66552734375,1,1.0,1.0,1.0,1.0,10.00
2024-10-11 20:40:10.140,0.11647927,0.7393795,0.69540375,0.4889296,0.052707355,0.5449161,0.43520036,-0.11487477,0.17548904,0.18675809,0.3224261,0.39569423,0.23426759,0.159353,-0.09189516,0.35694098,-0.27215952,-0.34562188,0.03388,-0.04063216,769.19415,795.38464,818.3516,776.8498,883.22345,-0.0849609375,0.13397216796875,0.99713134765625,7.61138916015625,-3.03558349609375,4.66552734375,1,1.0,1.0,1.0,1.0,10.00
2024-10-11 20:40:10.141,0.11647927,0.7393795,0.69540375,0.4889296,0.052707355,0.5449161,0.43520036,-0.11487477,0.17548904,0.18675809,0.3224261,0.39569423,0.23426759,0.159353,-0.09189516,0.35694098,-0.27215952,-0.34562188,0.03388,-0.04063216,767.1795,795.38464,825.6044,780.87915,755.09155,-0.0849609375,0.13397216796875,0.99713134765625,7.61138916015625,-3.03558349609375,4.66552734375,1,1.0,1.0,1.0,1.0,10.00
2024-10-11 20:40:10.141,0.11647927,0.7393795,0.69540375,0.4889296,0.052707355,0.5449161,0.43520036,-0.11487477,0.17548904,0.18675809,0.3224261,0.39569423,0.23426759,0.159353,-0.09189516,0.35694098,-0.27215952,-0.34562188,0.03388,-0.04063216,770.80585,792.96704,822.7839,788.5348,631.39197,-0.0849609375,0.13397216796875,0.99713134765625,7.61138916015625,-3.03558349609375,4.66552734375,1,1.0,1.0,1.0,1.0,10.00
2024-10-11 20:40:10.142,0.11647927,0.7393795,0.69540375,0.4889296,0.052707355,0.5449161,0.43520036,-0.11487477,0.17548904,0.18675809,0.3224261,0.39569423,0.23426759,0.159353,-0.09189516,0.35694098,-0.27215952,-0.34562188,0.03388,-0.04063216,771.2088,793.7729,821.1722,792.1612,682.1612,-0.0849609375,0.13397216796875,0.99713134765625,7.61138916015625,-3.03558349609375,4.66552734375,1,1.0,1.0,1.0,1.0,10.00
2024-10-11 20:40:10.142,0.11647927,0.7393795,0.69540375,0.4889296,0.052707355,0.5449161,0.43520036,-0.11487477,0.17548904,0.18675809,0.3224261,0.39569423,0.23426759,0.159353,-0.09189516,0.35694098,-0.27215952,-0.34562188,0.03388,-0.04063216,757.9121,791.3553,823.9927,792.5641,886.4469,-0.07904052734375,0.15985107421875,1.00213623046875,6.41510009765625,-2.056121826171875,5.5926513671875,1,1.0,1.0,1.0,1.0,10.00
2024-10-11 20:40:10.143,0.11647927,0.7393795,0.69540375,0.4889296,0.052707355,0.5449161,0.43520036,-0.11487477,0.17548904,0.18675809,0.3224261,0.39569423,0.23426759,0.159353,-0.09189516,0.35694098,-0.27215952,-0.34562188,0.03388,-0.04063216,753.47986,789.7436,821.1722,793.36993,817.9487,-0.07904052734375,0.15985107421875,1.00213623046875,6.41510009765625,-2.056121826171875,5.5926513671875,1,1.0,1.0,1.0,1.0,10.00
2024-10-11 20:40:10.143,0.11647927,0.7393795,0.69540375,0.4889296,0.052707355,0.5449161,0.43520036,-0.11487477,0.17548904,0.18675809,0.3224261,0.39569423,0.23426759,0.159353,-0.09189516,0.35694098,-0.27215952,-0.34562188,0.03388,-0.04063216,755.09155,793.7729,821.1722,786.52014,645.89746,-0.07904052734375,0.15985107421875,1.00213623046875,6.41510009765625,-2.056121826171875,5.5926513671875,1,1.0,1.0,1.0,1.0,10.00
2024-10-11 20:40:10.144,0.11647927,0.7393795,0.69540375,0.4889296,0.052707355,0.5449161,0.43520036,-0.11487477,0.17548904,0.18675809,0.3224261,0.39569423,0.23426759,0.159353,-0.09189516,0.35694098,-0.27215952,-0.34562188,0.03388,-0.04063216,769.59705,793.36993,826.4103,788.5348,618.0952,-0.07904052734375,0.15985107421875,1.00213623046875,6.41510009765625,-2.056121826171875,5.5926513671875,1,1.0,1.0,1.0,1.0,10.00
2024-10-11 20:40:10.144,0.11647927,0.7393795,0.69540375,0.4889296,0.052707355,0.5449161,0.43520036,-0.11487477,0.17548904,0.18675809,0.3224261,0.39569423,0.23426759,0.159353,-0.09189516,0.35694098,-0.27215952,-0.34562188,0.03388,-0.04063216,784.10254,789.7436,824.7985,799.41394,971.4652,-0.07904052734375,0.15985107421875,1.00213623046875,6.41510009765625,-2.056121826171875,5.5926513671875,1,1.0,1.0,1.0,1.0,10.00
2024-10-11 20:40:10.145,0.11647927,0.7393795,0.69540375,0.4889296,0.052707355,0.5449161,0.43520036,-0.11487477,0.17548904,0.18675809,0.3224261,0.39569423,0.23426759,0.159353,-0.09189516,0.35694098,-0.27215952,-0.34562188,0.03388,-0.04063216,784.90845,789.34064,817.5458,794.17584,1060.5128,-0.07904052734375,0.15985107421875,1.00213623046875,6.41510009765625,-2.056121826171875,5.5926513671875,1,1.0,1.0,1.0,1.0,10.00
2024-10-11 20:40:10.145,0.11647927,0.7393795,0.69540375,0.4889296,0.052707355,0.5449161,0.43520036,-0.11487477,0.17548904,0.18675809,0.3224261,0.39569423,0.23426759,0.159353,-0.09189516,0.35694098,-0.27215952,-0.34562188,0.03388,-0.04063216,780.07324,794.9817,819.15753,785.7143,825.2015,-0.07904052734375,0.15985107421875,1.00213623046875,6.41510009765625,-2.056121826171875,5.5926513671875,1,1.0,1.0,1.0,1.0,10.00
2024-10-11 20:40:10.146,0.11647927,0.7393795,0.69540375,0.4889296,0.052707355,0.5449161,0.43520036,-0.11487477,0.17548904,0.18675809,0.3224261,0.39569423,0.23426759,0.159353,-0.09189516,0.35694098,-0.27215952,-0.34562188,0.03388,-0.04063216,774.43225,797.8022,816.7399,784.90845,809.89014,-0.07904052734375,0.15985107421875,1.00213623046875,6.41510009765625,-2.056121826171875,5.5926513671875,1,1.0,1.0,1.0,1.0,10.00
2024-10-11 20:40:10.146,0.11647927,0.7393795,0.69540375,0.4889296,0.052707355,0.5449161,0.43520036,-0.11487477,0.17548904,0.18675809,0.3224261,0.39569423,0.23426759,0.159353,-0.09189516,0.35694098,-0.27215952,-0.34562188,0.03388,-0.04063216,770.40295,790.14655,807.47253,792.5641,843.73627,-0.07904052734375,0.15985107421875,1.00213623046875,6.41510009765625,-2.056121826171875,5.5926513671875,1,1.0,1.0,1.0,1.0,10.00
2024-10-11 20:40:10.147,0.11647927,0.7393795,0.69540375,0.4889296,0.052707355,0.5449161,0.43520036,-0.11487477,0.17548904,0.18675809,0.3224261,0.39569423,0.23426759,0.159353,-0.09189516,0.35694098,-0.27215952,-0.34562188,0.03388,-0.04063216,776.4469,787.72894,807.47253,796.5934,762.74725,-0.07904052734375,0.15985107421875,1.00213623046875,6.41510009765625,-2.056121826171875,5.5926513671875,1,1.0,1.0,1.0,1.0,10.00
2024-10-11 20:40:10.147,0.11647927,0.7393795,0.69540375,0.4889296,0.052707355,0.5449161,0.43520036,-0.11487477,0.17548904,0.18675809,0.3224261,0.39569423,0.23426759,0.159353,-0.09189516,0.35694098,-0.27215952,-0.34562188,0.03388,-0.04063216,784.10254,788.93774,815.9341,796.99634,762.74725,-0.07904052734375,0.15985107421875,1.00213623046875,6.41510009765625,-2.056121826171875,5.5926513671875,1,1.0,1.0,1.0,1.0,10.00
2024-10-11 20:40:10.148,0.11647927,0.7393795,0.69540375,0.4889296,0.052707355,0.5449161,0.43520036,-0.11487477,0.17548904,0.18675809,0.3224261,0.39569423,0.23426759,0.159353,-0.09189516,0.35694098,-0.27215952,-0.34562188,0.03388,-0.04063216,782.49084,784.5055,815.12823,793.36993,748.24176,-0.07904052734375,0.15985107421875,1.00213623046875,6.41510009765625,-2.056121826171875,5.5926513671875,1,1.0,1.0,1.0,1.0,10.00
2024-10-11 20:40:10.170,0.11647927,0.7393795,0.69540375,0.4889296,0.052707355,0.5449161,0.43520036,-0.11487477,0.17548904,0.18675809,0.3224261,0.39569423,0.23426759,0.159353,-0.09189516,0.35694098,-0.27215952,-0.34562188,0.03388,-0.04063216,781.28204,783.69965,813.1135,791.3553,722.0513,-0.08245849609375,0.17584228515625,0.99713134765625,4.59075927734375,-1.652374267578125,5.106658935546875,1,1.0,1.0,1.0,1.0,10.00
2024-10-11 20:40:10.171,0.11647927,0.7393795,0.69540375,0.4889296,0.052707355,0.5449161,0.43520036,-0.11487477,0.17548904,0.18675809,0.3224261,0.39569423,0.23426759,0.159353,-0.09189516,0.35694098,-0.27215952,-0.34562188,0.03388,-0.04063216,782.8938,789.7436,810.293,797.8022,773.22345,-0.08245849609375,0.17584228515625,0.99713134765625,4.59075927734375,-1.652374267578125,5.106658935546875,1,1.0,1.0,1.0,1.0,10.00
2024-10-11 20:40:10.172,0.11647927,0.7393795,0.69540375,0.4889296,0.052707355,0.5449161,0.43520036,-0.11487477,0.17548904,0.18675809,0.3224261,0.39569423,0.23426759,0.159353,-0.09189516,0.35694098,-0.27215952,-0.34562188,0.03388,-0.04063216,787.72894,790.54944,809.89014,806.26373,882.4176,-0.08245849609375,0.17584228515625,0.99713134765625,4.59075927734375,-1.652374267578125,5.106658935546875,1,1.0,1.0,1.0,1.0,10.00
2024-10-11 20:40:10.172,0.11647927,0.7393795,0.69540375,0.4889296,0.052707355,0.5449161,0.43520036,-0.11487477,0.17548904,0.18675809,0.3224261,0.39569423,0.23426759,0.159353,-0.09189516,0.35694098,-0.27215952,-0.34562188,0.03388,-0.04063216,792.1612,789.34064,812.71063,812.71063,976.30035,-0.08245849609375,0.17584228515625,0.99713134765625,4.59075927734375,-1.652374267578125,5.106658935546875,1,1.0,1.0,1.0,1.0,10.00
2024-10-11 20:40:10.173,0.11647927,0.7393795,0.69540375,0.4889296,0.052707355,0.5449161,0.43520036,-0.11487477,0.17548904,0.18675809,0.3224261,0.39569423,0.23426759,0.159353,-0.09189516,0.35694098,-0.27215952,-0.34562188,0.03388,-0.04063216,784.90845,789.34064,811.50183,813.1135,1198.3151,-0.08245849609375,0.17584228515625,0.99713134765625,4.59075927734375,-1.652374267578125,5.106658935546875,1,1.0,1.0,1.0,1.0,10.00
2024-10-11 20:40:10.173,0.11647927,0.7393795,0.69540375,0.4889296,0.052707355,0.5449161,0.43520036,-0.11487477,0.17548904,0.18675809,0.3224261,0.39569423,0.23426759,0.159353,-0.09189516,0.35694098,-0.27215952,-0.34562188,0.03388,-0.04063216,775.64105,791.3553,800.2198,807.0696,1448.1318,-0.08245849609375,0.17584228515625,0.99713134765625,4.59075927734375,-1.652374267578125,5.106658935546875,1,1.0,1.0,1.0,1.0,10.00
2024-10-11 20:40:10.174,0.11647927,0.7393795,0.69540375,0.4889296,0.052707355,0.5449161,0.43520036,-0.11487477,0.17548904,0.18675809,0.3224261,0.39569423,0.23426759,0.159353,-0.09189516,0.35694098,-0.27215952,-0.34562188,0.03388,-0.04063216,777.25275,795.38464,803.44324,809.0842,1324.4323,-0.08245849609375,0.17584228515625,0.99713134765625,4.59075927734375,-1.652374267578125,5.106658935546875,1,1.0,1.0,1.0,1.0,10.00
2024-10-11 20:40:10.174,0.11647927,0.7393795,0.69540375,0.4889296,0.052707355,0.5449161,0.43520036,-0.11487477,0.17548904,0.18675809,0.3224261,0.39569423,0.23426759,0.159353,-0.09189516,0.35694098,-0.27215952,-0.34562188,0.03388,-0.04063216,782.0879,796.5934,812.3077,807.0696,943.2601,-0.08245849609375,0.17584228515625,0.99713134765625,4.59075927734375,-1.652374267578125,5.106658935546875,1,1.0,1.0,1.0,1.0,10.00
2024-10-11 20:40:10.175,0.11647927,0.7393795,0.69540375,0.4889296,0.052707355,0.5449161,0.43520036,-0.11487477,0.17548904,0.18675809,0.3224261,0.39569423,0.23426759,0.159353,-0.09189516,0.35694098,-0.27215952,-0.34562188,0.03388,-0.04063216,786.1172,792.1612,803.44324,794.57874,696.26373,-0.08245849609375,0.17584228515625,0.99713134765625,4.59075927734375,-1.652374267578125,5.106658935546875,1,1.0,1.0,1.0,1.0,10.00
2024-10-11 20:40:10.175,0.17004155,0.6813851,0.46163678,0.49447438,0.104122765,0.48687837,0.09609757,-0.09243998,0.19582067,0.18675809,0.19980125,0.45451725,0.25038174,0.156293,-0.08606296,0.3664944,-0.25133598,-0.34184936,0.040905695,-0.021853777,789.7436,789.34064,800.2198,792.96704,584.2491,-0.08245849609375,0.17584228515625,0.99713134765625,4.59075927734375,-1.652374267578125,5.106658935546875,1,1.0,1.0,1.0,1.0,10.00
2024-10-11 20:40:10.179,0.17004155,0.6813851,0.46163678,0.49447438,0.104122765,0.48687837,0.09609757,-0.09243998,0.19582067,0.18675809,0.19980125,0.45451725,0.25038174,0.156293,-0.08606296,0.3664944,-0.25133598,-0.34184936,0.040905695,-0.021853777,796.1905,790.54944,804.2491,799.41394,661.6117,-0.08245849609375,0.17584228515625,0.99713134765625,4.59075927734375,-1.652374267578125,5.106658935546875,1,1.0,1.0,1.0,1.0,10.00
2024-10-11 20:40:10.180,0.17004155,0.6813851,0.46163678,0.49447438,0.104122765,0.48687837,0.09609757,-0.09243998,0.19582067,0.18675809,0.19980125,0.45451725,0.25038174,0.156293,-0.08606296,0.3664944,-0.25133598,-0.34184936,0.040905695,-0.021853777,799.41394,792.5641,807.47253,798.20514,916.6667,-0.08245849609375,0.17584228515625,0.99713134765625,4.59075927734375,-1.652374267578125,5.106658935546875,1,1.0,1.0,1.0,1.0,10.00
2024-10-11 20:40:10.204,0.17004155,0.6813851,0.46163678,0.49447438,0.104122765,0.48687837,0.09609757,-0.09243998,0.19582067,0.18675809,0.19980125,0.45451725,0.25038174,0.156293,-0.08606296,0.3664944,-0.25133598,-0.34184936,0.040905695,-0.021853777,801.8315,796.99634,814.7253,795.38464,954.5421,-0.0760498046875,0.19140625,1.00018310546875,1.95892333984375,-1.4654541015625,5.0543212890625,1,1.0,1.0,1.0,1.0,10.00
2024-10-11 20:40:10.205,0.17004155,0.6813851,0.46163678,0.49447438,0.104122765,0.48687837,0.09609757,-0.09243998,0.19582067,0.18675809,0.19980125,0.45451725,0.25038174,0.156293,-0.08606296,0.3664944,-0.25133598,-0.34184936,0.040905695,-0.021853777,794.9817,793.7729,813.5165,799.41394,695.4579,-0.0760498046875,0.19140625,1.00018310546875,1.95892333984375,-1.4654541015625,5.0543212890625,1,1.0,1.0,1.0,1.0,10.00
2024-10-11 20:40:10.206,0.17004155,0.6813851,0.46163678,0.49447438,0.104122765,0.48687837,0.09609757,-0.09243998,0.19582067,0.18675809,0.19980125,0.45451725,0.25038174,0.156293,-0.08606296,0.3664944,-0.25133598,-0.34184936,0.040905695,-0.021853777,793.36993,794.17584,805.4579,807.0696,687.8022,-0.0760498046875,0.19140625,1.00018310546875,1.95892333984375,-1.4654541015625,5.0543212890625,1,1.0,1.0,1.0,1.0,10.00
2024-10-11 20:40:10.206,0.17004155,0.6813851,0.46163678,0.49447438,0.104122765,0.48687837,0.09609757,-0.09243998,0.19582067,0.18675809,0.19980125,0.45451725,0.25038174,0.156293,-0.08606296,0.3664944,-0.25133598,-0.34184936,0.040905695,-0.021853777,796.5934,802.23444,805.4579,811.0989,782.49084,-0.0760498046875,0.19140625,1.00018310546875,1.95892333984375,-1.4654541015625,5.0543212890625,1,1.0,1.0,1.0,1.0,10.00
2024-10-11 20:40:10.207,0.17004155,0.6813851,0.46163678,0.49447438,0.104122765,0.48687837,0.09609757,-0.09243998,0.19582067,0.18675809,0.19980125,0.45451725,0.25038174,0.156293,-0.08606296,0.3664944,-0.25133598,-0.34184936,0.040905695,-0.021853777,786.9231,795.38464,811.50183,802.23444,597.9487,-0.0760498046875,0.19140625,1.00018310546875,1.95892333984375,-1.4654541015625,5.0543212890625,1,1.0,1.0,1.0,1.0,10.00
2024-10-11 20:40:10.208,0.17004155,0.6813851,0.46163678,0.49447438,0.104122765,0.48687837,0.09609757,-0.09243998,0.19582067,0.18675809,0.19980125,0.45451725,0.25038174,0.156293,-0.08606296,0.3664944,-0.25133598,-0.34184936,0.040905695,-0.021853777,790.54944,790.54944,809.4872,804.2491,598.7546,-0.0760498046875,0.19140625,1.00018310546875,1.95892333984375,-1.4654541015625,5.0543212890625,1,1.0,1.0,1.0,1.0,10.00
2024-10-11 20:40:10.208,0.17004155,0.6813851,0.46163678,0.49447438,0.104122765,0.48687837,0.09609757,-0.09243998,0.19582067,0.18675809,0.19980125,0.45451725,0.25038174,0.156293,-0.08606296,0.3664944,-0.25133598,-0.34184936,0.040905695,-0.021853777,795.78754,799.41394,806.6667,808.68134,738.97437,-0.0760498046875,0.19140625,1.00018310546875,1.95892333984375,-1.4654541015625,5.0543212890625,1,1.0,1.0,1.0,1.0,10.00
2024-10-11 20:40:10.208,0.17004155,0.6813851,0.46163678,0.49447438,0.104122765,0.48687837,0.09609757,-0.09243998,0.19582067,0.18675809,0.19980125,0.45451725,0.25038174,0.156293,-0.08606296,0.3664944,-0.25133598,-0.34184936,0.040905695,-0.021853777,792.96704,797.8022,811.50183,807.47253,980.32965,-0.0760498046875,0.19140625,1.00018310546875,1.95892333984375,-1.4654541015625,5.0543212890625,1,1.0,1.0,1.0,1.0,10.00
2024-10-11 20:40:10.209,0.17004155,0.6813851,0.46163678,0.49447438,0.104122765,0.48687837,0.09609757,-0.09243998,0.19582067,0.18675809,0.19980125,0.45451725,0.25038174,0.156293,-0.08606296,0.3664944,-0.25133598,-0.34184936,0.040905695,-0.021853777,789.34064,791.3553,805.8608,806.6667,1220.8792,-0.0760498046875,0.19140625,1.00018310546875,1.95892333984375,-1.4654541015625,5.0543212890625,1,1.0,1.0,1.0,1.0,10.00
2024-10-11 20:40:10.210,0.17004155,0.6813851,0.46163678,0.49447438,0.104122765,0.48687837,0.09609757,-0.09243998,0.19582067,0.18675809,0.19980125,0.45451725,0.25038174,0.156293,-0.08606296,0.3664944,-0.25133598,-0.34184936,0.040905695,-0.021853777,786.1172,791.3553,805.8608,801.02563,1129.8169,-0.0760498046875,0.19140625,1.00018310546875,1.95892333984375,-1.4654541015625,5.0543212890625,1,1.0,1.0,1.0,1.0,10.00
2024-10-11 20:40:10.210,0.17004155,0.6813851,0.46163678,0.49447438,0.104122765,0.48687837,0.09609757,-0.09243998,0.19582067,0.18675809,0.19980125,0.45451725,0.25038174,0.156293,-0.08606296,0.3664944,-0.25133598,-0.34184936,0.040905695,-0.021853777,790.14655,792.96704,807.8755,795.38464,757.9121,-0.0760498046875,0.19140625,1.00018310546875,1.95892333984375,-1.4654541015625,5.0543212890625,1,1.0,1.0,1.0,1.0,10.00
2024-10-11 20:40:10.211,0.17004155,0.6813851,0.46163678,0.49447438,0.104122765,0.48687837,0.09609757,-0.09243998,0.19582067,0.18675809,0.19980125,0.45451725,0.25038174,0.156293,-0.08606296,0.3664944,-0.25133598,-0.34184936,0.040905695,-0.021853777,801.4286,792.96704,798.20514,796.1905,656.77655,-0.0760498046875,0.19140625,1.00018310546875,1.95892333984375,-1.4654541015625,5.0543212890625,1,1.0,1.0,1.0,1.0,10.00
2024-10-11 20:40:10.238,0.17004155,0.6813851,0.46163678,0.49447438,0.104122765,0.48687837,0.09609757,-0.09243998,0.19582067,0.18675809,0.19980125,0.45451725,0.25038174,0.156293,-0.08606296,0.3664944,-0.25133598,-0.34184936,0.040905695,-0.021853777,802.23444,789.7436,801.02563,797.3993,583.0403,-0.0760498046875,0.19140625,1.00018310546875,1.95892333984375,-1.4654541015625,5.0543212890625,1,1.0,1.0,1.0,1.0,10.00
2024-10-11 20:40:10.239,0.17004155,0.6813851,0.46163678,0.49447438,0.104122765,0.48687837,0.09609757,-0.09243998,0.19582067,0.18675809,0.19980125,0.45451725,0.25038174,0.156293,-0.08606296,0.3664944,-0.25133598,-0.34184936,0.040905695,-0.021853777,804.65204,790.14655,800.2198,799.41394,427.50916,-0.0760498046875,0.19140625,1.00018310546875,1.95892333984375,-1.4654541015625,5.0543212890625,1,1.0,1.0,1.0,1.0,10.00
2024-10-11 20:40:10.240,0.17004155,0.6813851,0.46163678,0.49447438,0.104122765,0.48687837,0.09609757,-0.09243998,0.19582067,0.18675809,0.19980125,0.45451725,0.25038174,0.156293,-0.08606296,0.3664944,-0.25133598,-0.34184936,0.040905695,-0.021853777,805.05493,794.57874,801.4286,804.65204,618.0952,-0.0760498046875,0.19140625,1.00018310546875,1.95892333984375,-1.4654541015625,5.0543212890625,1,1.0,1.0,1.0,1.0,10.00
2024-10-11 20:40:10.240,0.17004155,0.6813851,0.46163678,0.49447438,0.104122765,0.48687837,0.09609757,-0.09243998,0.19582067,0.18675809,0.19980125,0.45451725,0.25038174,0.156293,-0.08606296,0.3664944,-0.25133598,-0.34184936,0.040905695,-0.021853777,793.7729,793.7729,803.44324,804.65204,778.46155,-0.0760498046875,0.19140625,1.00018310546875,1.95892333984375,-1.4654541015625,5.0543212890625,1,1.0,1.0,1.0,1.0,10.00
2024-10-11 20:40:10.241,0.17004155,0.6813851,0.46163678,0.49447438,0.104122765,0.48687837,0.09609757,-0.09243998,0.19582067,0.18675809,0.19980125,0.45451725,0.25038174,0.156293,-0.08606296,0.3664944,-0.25133598,-0.34184936,0.040905695,-0.021853777,795.78754,795.78754,798.60803,801.4286,543.5531,-0.0760498046875,0.19140625,1.00018310546875,1.95892333984375,-1.4654541015625,5.0543212890625,1,1.0,1.0,1.0,1.0,10.00
2024-10-11 20:40:10.241,0.17004155,0.6813851,0.46163678,0.49447438,0.104122765,0.48687837,0.09609757,-0.09243998,0.19582067,0.18675809,0.19980125,0.45451725,0.25038174,0.156293,-0.08606296,0.3664944,-0.25133598,-0.34184936,0.040905695,-0.021853777,809.89014,796.5934,800.6227,793.7729,660.80585,-0.0760498046875,0.19140625,1.00018310546875,1.95892333984375,-1.4654541015625,5.0543212890625,1,1.0,1.0,1.0,1.0,10.00
2024-10-11 20:40:10.242,0.17004155,0.6813851,0.46163678,0.49447438,0.104122765,0.48687837,0.09609757,-0.09243998,0.19582067,0.18675809,0.19980125,0.45451725,0.25038174,0.156293,-0.08606296,0.3664944,-0.25133598,-0.34184936,0.040905695,-0.021853777,799.011,796.5934,802.6374,789.7436,834.4689,-0.0760498046875,0.19140625,1.00018310546875,1.95892333984375,-1.4654541015625,5.0543212890625,1,1.0,1.0,1.0,1.0,10.00
2024-10-11 20:40:10.242,0.17004155,0.6813851,0.46163678,0.49447438,0.104122765,0.48687837,0.09609757,-0.09243998,0.19582067,0.18675809,0.19980125,0.45451725,0.25038174,0.156293,-0.08606296,0.3664944,-0.25133598,-0.34184936,0.040905695,-0.021853777,799.41394,800.6227,803.44324,789.7436,663.6264,-0.0760498046875,0.19140625,1.00018310546875,1.95892333984375,-1.4654541015625,5.0543212890625,1,1.0,1.0,1.0,1.0,10.00
2024-10-11 20:40:10.243,0.17004155,0.6813851,0.46163678,0.49447438,0.104122765,0.48687837,0.09609757,-0.09243998,0.19582067,0.18675809,0.19980125,0.45451725,0.25038174,0.156293,-0.08606296,0.3664944,-0.25133598,-0.34184936,0.040905695,-0.021853777,807.47253,794.17584,802.23444,790.14655,599.5604,-0.0760498046875,0.19140625,1.00018310546875,1.95892333984375,-1.4654541015625,5.0543212890625,1,1.0,1.0,1.0,1.0,10.00
2024-10-11 20:40:10.243,0.17004155,0.6813851,0.46163678,0.49447438,0.104122765,0.48687837,0.09609757,-0.09243998,0.19582067,0.18675809,0.19980125,0.45451725,0.25038174,0.156293,-0.08606296,0.3664944,-0.25133598,-0.34184936,0.040905695,-0.021853777,796.99634,788.1319,798.60803,793.36993,652.74725,-0.0760498046875,0.19140625,1.00018310546875,1.95892333984375,-1.4654541015625,5.0543212890625,1,1.0,1.0,1.0,1.0,10.00
2024-10-11 20:40:10.244,0.17004155,0.6813851,0.46163678,0.49447438,0.104122765,0.48687837,0.09609757,-0.09243998,0.19582067,0.18675809,0.19980125,0.45451725,0.25038174,0.156293,-0.08606296,0.3664944,-0.25133598,-0.34184936,0.040905695,-0.021853777,788.93774,792.96704,797.8022,793.36993,885.2381,-0.0760498046875,0.19140625,1.00018310546875,1.95892333984375,-1.4654541015625,5.0543212890625,1,1.0,1.0,1.0,1.0,10.00
2024-10-11 20:40:10.244,0.26809323,0.5696283,0.47622824,0.5048029,0.17376587,0.37984824,0.08828392,-0.07011075,0.35946745,0.1359493,0.2137518,0.51726276,0.26781863,0.14730388,-0.02767333,0.38820636,-0.2341335,-0.3408604,0.021960316,-0.018401114,780.87915,790.14655,798.20514,794.17584,839.707,-0.0760498046875,0.19140625,1.00018310546875,1.95892333984375,-1.4654541015625,5.0543212890625,1,1.0,1.0,1.0,1.0,10.00
2024-10-11 20:40:10.305,0.26809323,0.5696283,0.47622824,0.5048029,0.17376587,0.37984824,0.08828392,-0.07011075,0.35946745,0.1359493,0.2137518,0.51726276,0.26781863,0.14730388,-0.02767333,0.38820636,-0.2341335,-0.3408604,0.021960316,-0.018401114,783.2967,790.14655,794.9817,796.5934,592.3077,-0.08599853515625,0.1864013671875,1.00665283203125,-1.854248046875,-0.88226318359375,4.74029541015625,1,1.0,1.0,1.0,1.0,10.00
2024-10-11 20:40:10.306,0.26809323,0.5696283,0.47622824,0.5048029,0.17376587,0.37984824,0.08828392,-0.07011075,0.35946745,0.1359493,0.2137518,0.51726276,0.26781863,0.14730388,-0.02767333,0.38820636,-0.2341335,-0.3408604,0.021960316,-0.018401114,791.75824,797.8022,793.7729,794.57874,639.0476,-0.08599853515625,0.1864013671875,1.00665283203125,-1.854248046875,-0.88226318359375,4.74029541015625,1,1.0,1.0,1.0,1.0,10.00
2024-10-11 20:40:10.306,0.26809323,0.5696283,0.47622824,0.5048029,0.17376587,0.37984824,0.08828392,-0.07011075,0.35946745,0.1359493,0.2137518,0.51726276,0.26781863,0.14730388,-0.02767333,0.38820636,-0.2341335,-0.3408604,0.021960316,-0.018401114,794.9817,795.78754,794.9817,791.3553,815.5311,-0.08599853515625,0.1864013671875,1.00665283203125,-1.854248046875,-0.88226318359375,4.74029541015625,1,1.0,1.0,1.0,1.0,10.00
2024-10-11 20:40:10.307,0.26809323,0.5696283,0.47622824,0.5048029,0.17376587,0.37984824,0.08828392,-0.07011075,0.35946745,0.1359493,0.2137518,0.51726276,0.26781863,0.14730388,-0.02767333,0.38820636,-0.2341335,-0.3408604,0.021960316,-0.018401114,801.02563,792.1612,799.81683,797.3993,639.45056,-0.08599853515625,0.1864013671875,1.00665283203125,-1.854248046875,-0.88226318359375,4.74029541015625,1,1.0,1.0,1.0,1.0,10.00
2024-10-11 20:40:10.307,0.26809323,0.5696283,0.47622824,0.5048029,0.17376587,0.37984824,0.08828392,-0.07011075,0.35946745,0.1359493,0.2137518,0.51726276,0.26781863,0.14730388,-0.02767333,0.38820636,-0.2341335,-0.3408604,0.021960316,-0.018401114,816.337,794.57874,802.23444,800.6227,564.10254,-0.08599853515625,0.1864013671875,1.00665283203125,-1.854248046875,-0.88226318359375,4.74029541015625,1,1.0,1.0,1.0,1.0,10.00
2024-10-11 20:40:10.308,0.26809323,0.5696283,0.47622824,0.5048029,0.17376587,0.37984824,0.08828392,-0.07011075,0.35946745,0.1359493,0.2137518,0.51726276,0.26781863,0.14730388,-0.02767333,0.38820636,-0.2341335,-0.3408604,0.021960316,-0.018401114,805.8608,788.93774,799.81683,797.8022,776.4469,-0.08599853515625,0.1864013671875,1.00665283203125,-1.854248046875,-0.88226318359375,4.74029541015625,1,1.0,1.0,1.0,1.0,10.00
2024-10-11 20:40:10.309,0.26809323,0.5696283,0.47622824,0.5048029,0.17376587,0.37984824,0.08828392,-0.07011075,0.35946745,0.1359493,0.2137518,0.51726276,0.26781863,0.14730388,-0.02767333,0.38820636,-0.2341335,-0.3408604,0.021960316,-0.018401114,797.8022,788.5348,798.60803,798.20514,888.46155,-0.08599853515625,0.1864013671875,1.00665283203125,-1.854248046875,-0.88226318359375,4.74029541015625,1,1.0,1.0,1.0,1.0,10.00
2024-10-11 20:40:10.309,0.26809323,0.5696283,0.47622824,0.5048029,0.17376587,0.37984824,0.08828392,-0.07011075,0.35946745,0.1359493,0.2137518,0.51726276,0.26781863,0.14730388,-0.02767333,0.38820636,-0.2341335,-0.3408604,0.021960316,-0.018401114,800.2198,795.38464,797.8022,798.60803,744.61536,-0.08599853515625,0.1864013671875,1.00665283203125,-1.854248046875,-0.88226318359375,4.74029541015625,1,1.0,1.0,1.0,1.0,10.00
2024-10-11 20:40:10.309,0.26809323,0.5696283,0.47622824,0.5048029,0.17376587,0.37984824,0.08828392,-0.07011075,0.35946745,0.1359493,0.2137518,0.51726276,0.26781863,0.14730388,-0.02767333,0.38820636,-0.2341335,-0.3408604,0.021960316,-0.018401114,805.05493,794.57874,799.41394,795.78754,613.663,-0.08599853515625,0.1864013671875,1.00665283203125,-1.854248046875,-0.88226318359375,4.74029541015625,1,1.0,1.0,1.0,1.0,10.00
2024-10-11 20:40:10.310,0.26809323,0.5696283,0.47622824,0.5048029,0.17376587,0.37984824,0.08828392,-0.07011075,0.35946745,0.1359493,0.2137518,0.51726276,0.26781863,0.14730388,-0.02767333,0.38820636,-0.2341335,-0.3408604,0.021960316,-0.018401114,807.8755,793.36993,801.4286,799.011,661.2088,-0.08599853515625,0.1864013671875,1.00665283203125,-1.854248046875,-0.88226318359375,4.74029541015625,1,1.0,1.0,1.0,1.0,10.00
2024-10-11 20:40:10.310,0.26809323,0.5696283,0.47622824,0.5048029,0.17376587,0.37984824,0.08828392,-0.07011075,0.35946745,0.1359493,0.2137518,0.51726276,0.26781863,0.14730388,-0.02767333,0.38820636,-0.2341335,-0.3408604,0.021960316,-0.018401114,801.02563,786.9231,794.9817,804.2491,888.46155,-0.08599853515625,0.1864013671875,1.00665283203125,-1.854248046875,-0.88226318359375,4.74029541015625,1,1.0,1.0,1.0,1.0,10.00
2024-10-11 20:40:10.311,0.26809323,0.5696283,0.47622824,0.5048029,0.17376587,0.37984824,0.08828392,-0.07011075,0.35946745,0.1359493,0.2137518,0.51726276,0.26781863,0.14730388,-0.02767333,0.38820636,-0.2341335,-0.3408604,0.021960316,-0.018401114,803.0403,790.54944,792.96704,794.57874,660.80585,-0.08599853515625,0.1864013671875,1.00665283203125,-1.854248046875,-0.88226318359375,4.74029541015625,1,1.0,1.0,1.0,1.0,10.00
2024-10-11 20:40:10.411,0.26809323,0.5696283,0.47622824,0.5048029,0.17376587,0.37984824,0.08828392,-0.07011075,0.35946745,0.1359493,0.2137518,0.51726276,0.26781863,0.14730388,-0.02767333,0.38820636,-0.2341335,-0.3408604,0.021960316,-0.018401114,805.8608,791.75824,799.41394,788.1319,547.98535,-0.07183837890625,0.17474365234375,1.0030517578125,-5.33843994140625,-2.37762451171875,3.5589599609375,1,1.0,1.0,1.0,1.0,10.00
2024-10-11 20:40:10.412,0.26809323,0.5696283,0.47622824,0.5048029,0.17376587,0.37984824,0.08828392,-0.07011075,0.35946745,0.1359493,0.2137518,0.51726276,0.26781863,0.14730388,-0.02767333,0.38820636,-0.2341335,-0.3408604,0.021960316,-0.018401114,801.02563,789.34064,796.5934,794.17584,743.8095,-0.07183837890625,0.17474365234375,1.0030517578125,-5.33843994140625,-2.37762451171875,3.5589599609375,1,1.0,1.0,1.0,1.0,10.00
2024-10-11 20:40:10.413,0.26809323,0.5696283,0.47622824,0.5048029,0.17376587,0.37984824,0.08828392,-0.07011075,0.35946745,0.1359493,0.2137518,0.51726276,0.26781863,0.14730388,-0.02767333,0.38820636,-0.2341335,-0.3408604,0.021960316,-0.018401114,805.8608,792.96704,793.36993,793.7729,748.6447,-0.07183837890625,0.17474365234375,1.0030517578125,-5.33843994140625,-2.37762451171875,3.5589599609375,1,1.0,1.0,1.0,1.0,10.00
2024-10-11 20:40:10.414,0.26809323,0.5696283,0.47622824,0.5048029,0.17376587,0.37984824,0.08828392,-0.07011075,0.35946745,0.1359493,0.2137518,0.51726276,0.26781863,0.14730388,-0.02767333,0.38820636,-0.2341335,-0.3408604,0.021960316,-0.018401114,799.41394,796.1905,796.5934,792.1612,555.2381,-0.07183837890625,0.17474365234375,1.0030517578125,-5.33843994140625,-2.37762451171875,3.5589599609375,1,1.0,1.0,1.0,1.0,10.00
2024-10-11 20:40:10.414,0.26809323,0.5696283,0.47622824,0.5048029,0.17376587,0.37984824,0.08828392,-0.07011075,0.35946745,0.1359493,0.2137518,0.51726276,0.26781863,0.14730388,-0.02767333,0.38820636,-0.2341335,-0.3408604,0.021960316,-0.018401114,786.9231,800.2198,798.60803,787.72894,472.63736,-0.07183837890625,0.17474365234375,1.0030517578125,-5.33843994140625,-2.37762451171875,3.5589599609375,1,1.0,1.0,1.0,1.0,10.00
2024-10-11 20:40:10.415,0.26809323,0.5696283,0.47622824,0.5048029,0.17376587,0.37984824,0.08828392,-0.07011075,0.35946745,0.1359493,0.2137518,0.51726276,0.26781863,0.14730388,-0.02767333,0.38820636,-0.2341335,-0.3408604,0.021960316,-0.018401114,788.1319,792.96704,791.75824,793.7729,805.4579,-0.07183837890625,0.17474365234375,1.0030517578125,-5.33843994140625,-2.37762451171875,3.5589599609375,1,1.0,1.0,1.0,1.0,10.00
2024-10-11 20:40:10.415,0.26809323,0.5696283,0.47622824,0.5048029,0.17376587,0.37984824,0.08828392,-0.07011075,0.35946745,0.1359493,0.2137518,0.51726276,0.26781863,0.14730388,-0.02767333,0.38820636,-0.2341335,-0.3408604,0.021960316,-0.018401114,795.38464,793.7729,796.99634,803.8461,932.7839,-0.07183837890625,0.17474365234375,1.0030517578125,-5.33843994140625,-2.37762451171875,3.5589599609375,1,1.0,1.0,1.0,1.0,10.00
2024-10-11 20:40:10.416,0.26809323,0.5696283,0.47622824,0.5048029,0.17376587,0.37984824,0.08828392,-0.07011075,0.35946745,0.1359493,0.2137518,0.51726276,0.26781863,0.14730388,-0.02767333,0.38820636,-0.2341335,-0.3408604,0.021960316,-0.018401114,795.38464,800.6227,803.44324,798.20514,547.1795,-0.07183837890625,0.17474365234375,1.0030517578125,-5.33843994140625,-2.37762451171875,3.5589599609375,1,1.0,1.0,1.0,1.0,10.00
2024-10-11 20:40:10.416,0.26809323,0.5696283,0.47622824,0.5048029,0.17376587,0.37984824,0.08828392,-0.07011075,0.35946745,0.1359493,0.2137518,0.51726276,0.26781863,0.14730388,-0.02767333,0.38820636,-0.2341335,-0.3408604,0.021960316,-0.018401114,793.36993,800.2198,798.20514,796.1905,498.82785,-0.07183837890625,0.17474365234375,1.0030517578125,-5.33843994140625,-2.37762451171875,3.5589599609375,1,1.0,1.0,1.0,1.0,10.00
2024-10-11 20:40:10.417,0.26809323,0.5696283,0.47622824,0.5048029,0.17376587,0.37984824,0.08828392,-0.07011075,0.35946745,0.1359493,0.2137518,0.51726276,0.26781863,0.14730388,-0.02767333,0.38820636,-0.2341335,-0.3408604,0.021960316,-0.018401114,791.75824,803.8461,795.78754,802.23444,857.03296,-0.07183837890625,0.17474365234375,1.0030517578125,-5.33843994140625,-2.37762451171875,3.5589599609375,1,1.0,1.0,1.0,1.0,10.00
2024-10-11 20:40:10.418,0.26809323,0.5696283,0.47622824,0.5048029,0.17376587,0.37984824,0.08828392,-0.07011075,0.35946745,0.1359493,0.2137518,0.51726276,0.26781863,0.14730388,-0.02767333,0.38820636,-0.2341335,-0.3408604,0.021960316,-0.018401114,794.9817,791.75824,803.8461,811.9048,772.01465,-0.07183837890625,0.17474365234375,1.0030517578125,-5.33843994140625,-2.37762451171875,3.5589599609375,1,1.0,1.0,1.0,1.0,10.00
2024-10-11 20:40:10.418,0.26809323,0.5696283,0.47622824,0.5048029,0.17376587,0.37984824,0.08828392,-0.07011075,0.35946745,0.1359493,0.2137518,0.51726276,0.26781863,0.14730388,-0.02767333,0.38820636,-0.2341335,-0.3408604,0.021960316,-0.018401114,788.1319,780.4762,807.0696,805.05493,526.2271,-0.07183837890625,0.17474365234375,1.0030517578125,-5.33843994140625,-2.37762451171875,3.5589599609375,1,1.0,1.0,1.0,1.0,10.00
2024-10-11 20:40:10.419,0.26809323,0.5696283,0.47622824,0.5048029,0.17376587,0.37984824,0.08828392,-0.07011075,0.35946745,0.1359493,0.2137518,0.51726276,0.26781863,0.14730388,-0.02767333,0.38820636,-0.2341335,-0.3408604,0.021960316,-0.018401114,791.75824,787.72894,803.44324,800.2198,620.10986,-0.08258056640625,0.1529541015625,1.00390625,-8.142242431640625,-1.727142333984375,1.8841552734375,1,1.0,1.0,1.0,1.0,10.00
2024-10-11 20:40:10.420,0.41928738,0.40883568,0.5108672,0.50894153,0.28319737,0.24004099,0.089655764,-0.029396854,0.59742665,-0.02429205,0.22579715,0.55916727,0.2854555,0.13550028,0.013535328,0.41810358,-0.20854323,-0.3434999,0.007861449,-0.028698215,799.011,798.60803,801.02563,803.44324,961.39197,-0.08258056640625,0.1529541015625,1.00390625,-8.142242431640625,-1.727142333984375,1.8841552734375,1,1.0,1.0,1.0,1.0,10.00
2024-10-11 20:40:10.426,0.41928738,0.40883568,0.5108672,0.50894153,0.28319737,0.24004099,0.089655764,-0.029396854,0.59742665,-0.02429205,0.22579715,0.55916727,0.2854555,0.13550028,0.013535328,0.41810358,-0.20854323,-0.3434999,0.007861449,-0.028698215,790.54944,801.8315,792.96704,786.9231,893.2967,-0.08258056640625,0.1529541015625,1.00390625,-8.142242431640625,-1.727142333984375,1.8841552734375,1,1.0,1.0,1.0,1.0,10.00
2024-10-11 20:40:10.426,0.41928738,0.40883568,0.5108672,0.50894153,0.28319737,0.24004099,0.089655764,-0.029396854,0.59742665,-0.02429205,0.22579715,0.55916727,0.2854555,0.13550028,0.013535328,0.41810358,-0.20854323,-0.3434999,0.007861449,-0.028698215,790.9524,802.23444,788.5348,771.6117,618.49817,-0.08258056640625,0.1529541015625,1.00390625,-8.142242431640625,-1.727142333984375,1.8841552734375,1,1.0,1.0,1.0,1.0,10.00
2024-10-11 20:40:10.427,0.41928738,0.40883568,0.5108672,0.50894153,0.28319737,0.24004099,0.089655764,-0.029396854,0.59742665,-0.02429205,0.22579715,0.55916727,0.2854555,0.13550028,0.013535328,0.41810358,-0.20854323,-0.3434999,0.007861449,-0.028698215,783.2967,804.2491,781.685,766.77655,637.4359,-0.08258056640625,0.1529541015625,1.00390625,-8.142242431640625,-1.727142333984375,1.8841552734375,1,1.0,1.0,1.0,1.0,10.00
2024-10-11 20:40:10.428,0.41928738,0.40883568,0.5108672,0.50894153,0.28319737,0.24004099,0.089655764,-0.029396854,0.59742665,-0.02429205,0.22579715,0.55916727,0.2854555,0.13550028,0.013535328,0.41810358,-0.20854323,-0.3434999,0.007861449,-0.028698215,782.49084,803.0403,784.10254,769.19415,748.24176,-0.08258056640625,0.1529541015625,1.00390625,-8.142242431640625,-1.727142333984375,1.8841552734375,1,1.0,1.0,1.0,1.0,10.00
2024-10-11 20:40:10.429,0.41928738,0.40883568,0.5108672,0.50894153,0.28319737,0.24004099,0.089655764,-0.029396854,0.59742665,-0.02429205,0.22579715,0.55916727,0.2854555,0.13550028,0.013535328,0.41810358,-0.20854323,-0.3434999,0.007861449,-0.028698215,784.10254,803.0403,788.5348,772.4176,748.24176,-0.08258056640625,0.1529541015625,1.00390625,-8.142242431640625,-1.727142333984375,1.8841552734375,1,1.0,1.0,1.0,1.0,10.00
2024-10-11 20:40:10.429,0.41928738,0.40883568,0.5108672,0.50894153,0.28319737,0.24004099,0.089655764,-0.029396854,0.59742665,-0.02429205,0.22579715,0.55916727,0.2854555,0.13550028,0.013535328,0.41810358,-0.20854323,-0.3434999,0.007861449,-0.028698215,784.5055,806.26373,788.93774,767.98535,580.6227,-0.08258056640625,0.1529541015625,1.00390625,-8.142242431640625,-1.727142333984375,1.8841552734375,1,1.0,1.0,1.0,1.0,10.00
2024-10-11 20:40:10.430,0.41928738,0.40883568,0.5108672,0.50894153,0.28319737,0.24004099,0.089655764,-0.029396854,0.59742665,-0.02429205,0.22579715,0.55916727,0.2854555,0.13550028,0.013535328,0.41810358,-0.20854323,-0.3434999,0.007861449,-0.028698215,776.8498,803.0403,782.49084,759.5238,572.5641,-0.08258056640625,0.1529541015625,1.00390625,-8.142242431640625,-1.727142333984375,1.8841552734375,1,1.0,1.0,1.0,1.0,10.00
2024-10-11 20:40:10.431,0.41928738,0.40883568,0.5108672,0.50894153,0.28319737,0.24004099,0.089655764,-0.029396854,0.59742665,-0.02429205,0.22579715,0.55916727,0.2854555,0.13550028,0.013535328,0.41810358,-0.20854323,-0.3434999,0.007861449,-0.028698215,771.2088,806.6667,776.04395,767.1795,672.0879,-0.08258056640625,0.1529541015625,1.00390625,-8.142242431640625,-1.727142333984375,1.8841552734375,1,1.0,1.0,1.0,1.0,10.00
2024-10-11 20:40:10.431,0.41928738,0.40883568,0.5108672,0.50894153,0.28319737,0.24004099,0.089655764,-0.029396854,0.59742665,-0.02429205,0.22579715,0.55916727,0.2854555,0.13550028,0.013535328,0.41810358,-0.20854323,-0.3434999,0.007861449,-0.028698215,782.0879,805.05493,776.04395,777.6557,681.75824,-0.08258056640625,0.1529541015625,1.00390625,-8.142242431640625,-1.727142333984375,1.8841552734375,1,1.0,1.0,1.0,1.0,10.00
2024-10-11 20:40:10.432,0.41928738,0.40883568,0.5108672,0.50894153,0.28319737,0.24004099,0.089655764,-0.029396854,0.59742665,-0.02429205,0.22579715,0.55916727,0.2854555,0.13550028,0.013535328,0.41810358,-0.20854323,-0.3434999,0.007861449,-0.028698215,790.9524,799.011,781.28204,773.22345,683.36993,-0.08258056640625,0.1529541015625,1.00390625,-8.142242431640625,-1.727142333984375,1.8841552734375,1,1.0,1.0,1.0,1.0,10.00
2024-10-11 20:40:10.433,0.41928738,0.40883568,0.5108672,0.50894153,0.28319737,0.24004099,0.089655764,-0.029396854,0.59742665,-0.02429205,0.22579715,0.55916727,0.2854555,0.13550028,0.013535328,0.41810358,-0.20854323,-0.3434999,0.007861449,-0.028698215,794.17584,799.41394,784.10254,769.59705,657.1795,-0.07177734375,0.131103515625,1.00457763671875,-10.15350341796875,-2.01873779296875,0.88226318359375,1,1.0,1.0,1.0,1.0,10.00
2024-10-11 20:40:10.434,0.41928738,0.40883568,0.5108672,0.50894153,0.28319737,0.24004099,0.089655764,-0.029396854,0.59742665,-0.02429205,0.22579715,0.55916727,0.2854555,0.13550028,0.013535328,0.41810358,-0.20854323,-0.3434999,0.007861449,-0.028698215,791.3553,798.60803,783.69965,777.25275,641.06226,-0.07177734375,0.131103515625,1.00457763671875,-10.15350341796875,-2.01873779296875,0.88226318359375,1,1.0,1.0,1.0,1.0,10.00
2024-10-11 20:40:10.435,0.41928738,0.40883568,0.5108672,0.50894153,0.28319737,0.24004099,0.089655764,-0.029396854,0.59742665,-0.02429205,0.22579715,0.55916727,0.2854555,0.13550028,0.013535328,0.41810358,-0.20854323,-0.3434999,0.007861449,-0.028698215,786.9231,802.23444,786.52014,781.685,576.5934,-0.07177734375,0.131103515625,1.00457763671875,-10.15350341796875,-2.01873779296875,0.88226318359375,1,1.0,1.0,1.0,1.0,10.00
2024-10-11 20:40:10.435,0.41928738,0.40883568,0.5108672,0.50894153,0.28319737,0.24004099,0.089655764,-0.029396854,0.59742665,-0.02429205,0.22579715,0.55916727,0.2854555,0.13550028,0.013535328,0.41810358,-0.20854323,-0.3434999,0.007861449,-0.028698215,788.1319,804.65204,789.7436,786.52014,512.52747,-0.07177734375,0.131103515625,1.00457763671875,-10.15350341796875,-2.01873779296875,0.88226318359375,1,1.0,1.0,1.0,1.0,10.00
2024-10-11 20:40:10.436,0.41928738,0.40883568,0.5108672,0.50894153,0.28319737,0.24004099,0.089655764,-0.029396854,0.59742665,-0.02429205,0.22579715,0.55916727,0.2854555,0.13550028,0.013535328,0.41810358,-0.20854323,-0.3434999,0.007861449,-0.028698215,798.20514,807.0696,798.60803,795.38464,662.01465,-0.07177734375,0.131103515625,1.00457763671875,-10.15350341796875,-2.01873779296875,0.88226318359375,1,1.0,1.0,1.0,1.0,10.00
2024-10-11 20:40:10.437,0.41928738,0.40883568,0.5108672,0.50894153,0.28319737,0.24004099,0.089655764,-0.029396854,0.59742665,-0.02429205,0.22579715,0.55916727,0.2854555,0.13550028,0.013535328,0.41810358,-0.20854323,-0.3434999,0.007861449,-0.028698215,793.36993,803.0403,799.011,792.96704,805.05493,-0.07177734375,0.131103515625,1.00457763671875,-10.15350341796875,-2.01873779296875,0.88226318359375,1,1.0,1.0,1.0,1.0,10.00
2024-10-11 20:40:10.438,0.41928738,0.40883568,0.5108672,0.50894153,0.28319737,0.24004099,0.089655764,-0.029396854,0.59742665,-0.02429205,0.22579715,0.55916727,0.2854555,0.13550028,0.013535328,0.41810358,-0.20854323,-0.3434999,0.007861449,-0.028698215,788.1319,802.23444,791.75824,788.1319,680.14655,-0.07177734375,0.131103515625,1.00457763671875,-10.15350341796875,-2.01873779296875,0.88226318359375,1,1.0,1.0,1.0,1.0,10.00
2024-10-11 20:40:10.438,0.41928738,0.40883568,0.5108672,0.50894153,0.28319737,0.24004099,0.089655764,-0.029396854,0.59742665,-0.02429205,0.22579715,0.55916727,0.2854555,0.13550028,0.013535328,0.41810358,-0.20854323,-0.3434999,0.007861449,-0.028698215,792.5641,803.44324,791.3553,792.96704,638.24176,-0.07177734375,0.131103515625,1.00457763671875,-10.15350341796875,-2.01873779296875,0.88226318359375,1,1.0,1.0,1.0,1.0,10.00
2024-10-11 20:40:10.439,0.41928738,0.40883568,0.5108672,0.50894153,0.28319737,0.24004099,0.089655764,-0.029396854,0.59742665,-0.02429205,0.22579715,0.55916727,0.2854555,0.13550028,0.013535328,0.41810358,-0.20854323,-0.3434999,0.007861449,-0.028698215,797.3993,803.8461,792.96704,793.36993,798.60803,-0.07177734375,0.131103515625,1.00457763671875,-10.15350341796875,-2.01873779296875,0.88226318359375,1,1.0,1.0,1.0,1.0,10.00
2024-10-11 20:40:10.440,0.41928738,0.40883568,0.5108672,0.50894153,0.28319737,0.24004099,0.089655764,-0.029396854,0.59742665,-0.02429205,0.22579715,0.55916727,0.2854555,0.13550028,0.013535328,0.41810358,-0.20854323,-0.3434999,0.007861449,-0.028698215,796.99634,804.65204,789.34064,791.3553,689.011,-0.07177734375,0.131103515625,1.00457763671875,-10.15350341796875,-2.01873779296875,0.88226318359375,1,1.0,1.0,1.0,1.0,10.00
2024-10-11 20:40:10.441,0.41928738,0.40883568,0.5108672,0.50894153,0.28319737,0.24004099,0.089655764,-0.029396854,0.59742665,-0.02429205,0.22579715,0.55916727,0.2854555,0.13550028,0.013535328,0.41810358,-0.20854323,-0.3434999,0.007861449,-0.028698215,796.1905,805.05493,791.75824,785.31134,593.5165,-0.07177734375,0.131103515625,1.00457763671875,-10.15350341796875,-2.01873779296875,0.88226318359375,1,1.0,1.0,1.0,1.0,10.00
2024-10-11 20:40:10.441,0.41928738,0.40883568,0.5108672,0.50894153,0.28319737,0.24004099,0.089655764,-0.029396854,0.59742665,-0.02429205,0.22579715,0.55916727,0.2854555,0.13550028,0.013535328,0.41810358,-0.20854323,-0.3434999,0.007861449,-0.028698215,793.7729,800.6227,791.3553,781.28204,678.93774,-0.07177734375,0.131103515625,1.00457763671875,-10.15350341796875,-2.01873779296875,0.88226318359375,1,1.0,1.0,1.0,1.0,10.00
2024-10-11 20:40:10.509,0.41928738,0.40883568,0.5108672,0.50894153,0.28319737,0.24004099,0.089655764,-0.029396854,0.59742665,-0.02429205,0.22579715,0.55916727,0.2854555,0.13550028,0.013535328,0.41810358,-0.20854323,-0.3434999,0.007861449,-0.028698215,791.3553,796.5934,786.1172,793.7729,924.7253,-0.06610107421875,0.1142578125,1.001708984375,-11.0357666015625,-0.874786376953125,0.16448974609375,1,1.0,1.0,1.0,1.0,10.00
2024-10-11 20:40:10.510,0.41928738,0.40883568,0.5108672,0.50894153,0.28319737,0.24004099,0.089655764,-0.029396854,0.59742665,-0.02429205,0.22579715,0.55916727,0.2854555,0.13550028,0.013535328,0.41810358,-0.20854323,-0.3434999,0.007861449,-0.028698215,804.65204,799.81683,791.75824,796.5934,994.43225,-0.06610107421875,0.1142578125,1.001708984375,-11.0357666015625,-0.874786376953125,0.16448974609375,1,1.0,1.0,1.0,1.0,10.00
2024-10-11 20:40:10.510,0.41928738,0.40883568,0.5108672,0.50894153,0.28319737,0.24004099,0.089655764,-0.029396854,0.59742665,-0.02429205,0.22579715,0.55916727,0.2854555,0.13550028,0.013535328,0.41810358,-0.20854323,-0.3434999,0.007861449,-0.028698215,800.2198,801.4286,796.99634,784.90845,692.23444,-0.06610107421875,0.1142578125,1.001708984375,-11.0357666015625,-0.874786376953125,0.16448974609375,1,1.0,1.0,1.0,1.0,10.00
2024-10-11 20:40:10.511,0.575457,0.24750948,0.57391673,0.51283854,0.40289503,0.1178257,0.10731165,0.037707996,0.7372856,-0.075623386,0.23472258,0.60368407,0.3063558,0.12448966,0.033915315,0.44953287,-0.16687395,-0.35032675,-0.004661458,-0.046211854,790.9524,803.8461,796.5934,791.3553,685.38464,-0.06610107421875,0.1142578125,1.001708984375,-11.0357666015625,-0.874786376953125,0.16448974609375,1,1.0,1.0,1.0,1.0,10.00
2024-10-11 20:40:10.515,0.575457,0.24750948,0.57391673,0.51283854,0.40289503,0.1178257,0.10731165,0.037707996,0.7372856,-0.075623386,0.23472258,0.60368407,0.3063558,0.12448966,0.033915315,0.44953287,-0.16687395,-0.35032675,-0.004661458,-0.046211854,795.38464,807.0696,791.3553,800.2198,755.89746,-0.06610107421875,0.1142578125,1.001708984375,-11.0357666015625,-0.874786376953125,0.16448974609375,1,1.0,1.0,1.0,1.0,10.00
2024-10-11 20:40:10.516,0.575457,0.24750948,0.57391673,0.51283854,0.40289503,0.1178257,0.10731165,0.037707996,0.7372856,-0.075623386,0.23472258,0.60368407,0.3063558,0.12448966,0.033915315,0.44953287,-0.16687395,-0.35032675,-0.004661458,-0.046211854,797.3993,805.05493,789.34064,793.7729,668.46155,-0.06610107421875,0.1142578125,1.001708984375,-11.0357666015625,-0.874786376953125,0.16448974609375,1,1.0,1.0,1.0,1.0,10.00
2024-10-11 20:40:10.516,0.575457,0.24750948,0.57391673,0.51283854,0.40289503,0.1178257,0.10731165,0.037707996,0.7372856,-0.075623386,0.23472258,0.60368407,0.3063558,0.12448966,0.033915315,0.44953287,-0.16687395,-0.35032675,-0.004661458,-0.046211854,807.47253,801.8315,795.38464,790.14655,634.21246,-0.06610107421875,0.1142578125,1.001708984375,-11.0357666015625,-0.874786376953125,0.16448974609375,1,1.0,1.0,1.0,1.0,10.00
2024-10-11 20:40:10.517,0.575457,0.24750948,0.57391673,0.51283854,0.40289503,0.1178257,0.10731165,0.037707996,0.7372856,-0.075623386,0.23472258,0.60368407,0.3063558,0.12448966,0.033915315,0.44953287,-0.16687395,-0.35032675,-0.004661458,-0.046211854,811.9048,802.23444,799.81683,796.99634,634.21246,-0.06610107421875,0.1142578125,1.001708984375,-11.0357666015625,-0.874786376953125,0.16448974609375,1,1.0,1.0,1.0,1.0,10.00
2024-10-11 20:40:10.517,0.575457,0.24750948,0.57391673,0.51283854,0.40289503,0.1178257,0.10731165,0.037707996,0.7372856,-0.075623386,0.23472258,0.60368407,0.3063558,0.12448966,0.033915315,0.44953287,-0.16687395,-0.35032675,-0.004661458,-0.046211854,801.8315,796.99634,794.17584,807.0696,911.4286,-0.06610107421875,0.1142578125,1.001708984375,-11.0357666015625,-0.874786376953125,0.16448974609375,1,1.0,1.0,1.0,1.0,10.00
2024-10-11 20:40:10.518,0.575457,0.24750948,0.57391673,0.51283854,0.40289503,0.1178257,0.10731165,0.037707996,0.7372856,-0.075623386,0.23472258,0.60368407,0.3063558,0.12448966,0.033915315,0.44953287,-0.16687395,-0.35032675,-0.004661458,-0.046211854,795.78754,798.20514,789.7436,799.81683,778.46155,-0.06610107421875,0.1142578125,1.001708984375,-11.0357666015625,-0.874786376953125,0.16448974609375,1,1.0,1.0,1.0,1.0,10.00
2024-10-11 20:40:10.518,0.575457,0.24750948,0.57391673,0.51283854,0.40289503,0.1178257,0.10731165,0.037707996,0.7372856,-0.075623386,0.23472258,0.60368407,0.3063558,0.12448966,0.033915315,0.44953287,-0.16687395,-0.35032675,-0.004661458,-0.046211854,796.1905,803.44324,795.38464,790.9524,571.75824,-0.06610107421875,0.1142578125,1.001708984375,-11.0357666015625,-0.874786376953125,0.16448974609375,1,1.0,1.0,1.0,1.0,10.00
2024-10-11 20:40:10.519,0.575457,0.24750948,0.57391673,0.51283854,0.40289503,0.1178257,0.10731165,0.037707996,0.7372856,-0.075623386,0.23472258,0.60368407,0.3063558,0.12448966,0.033915315,0.44953287,-0.16687395,-0.35032675,-0.004661458,-0.046211854,799.011,803.8461,799.81683,792.1612,670.87915,-0.06610107421875,0.1142578125,1.001708984375,-11.0357666015625,-0.874786376953125,0.16448974609375,1,1.0,1.0,1.0,1.0,10.00
2024-10-11 20:40:10.520,0.575457,0.24750948,0.57391673,0.51283854,0.40289503,0.1178257,0.10731165,0.037707996,0.7372856,-0.075623386,0.23472258,0.60368407,0.3063558,0.12448966,0.033915315,0.44953287,-0.16687395,-0.35032675,-0.004661458,-0.046211854,800.2198,799.81683,802.6374,800.2198,594.3223,-0.06610107421875,0.1142578125,1.001708984375,-11.0357666015625,-0.874786376953125,0.16448974609375,1,1.0,1.0,1.0,1.0,10.00
2024-10-11 20:40:10.520,0.575457,0.24750948,0.57391673,0.51283854,0.40289503,0.1178257,0.10731165,0.037707996,0.7372856,-0.075623386,0.23472258,0.60368407,0.3063558,0.12448966,0.033915315,0.44953287,-0.16687395,-0.35032675,-0.004661458,-0.046211854,792.1612,799.41394,800.6227,799.81683,537.9121,-0.06610107421875,0.1142578125,1.001708984375,-11.0357666015625,-0.874786376953125,0.16448974609375,1,1.0,1.0,1.0,1.0,10.00
2024-10-11 20:40:10.521,0.575457,0.24750948,0.57391673,0.51283854,0.40289503,0.1178257,0.10731165,0.037707996,0.7372856,-0.075623386,0.23472258,0.60368407,0.3063558,0.12448966,0.033915315,0.44953287,-0.16687395,-0.35032675,-0.004661458,-0.046211854,789.7436,802.23444,790.54944,790.14655,590.696,-0.06610107421875,0.1142578125,1.001708984375,-11.0357666015625,-0.874786376953125,0.16448974609375,1,1.0,1.0,1.0,1.0,10.00
2024-10-11 20:40:10.521,0.575457,0.24750948,0.57391673,0.51283854,0.40289503,0.1178257,0.10731165,0.037707996,0.7372856,-0.075623386,0.23472258,0.60368407,0.3063558,0.12448966,0.033915315,0.44953287,-0.16687395,-0.35032675,-0.004661458,-0.046211854,792.96704,798.60803,790.9524,791.75824,653.1502,-0.06610107421875,0.1142578125,1.001708984375,-11.0357666015625,-0.874786376953125,0.16448974609375,1,1.0,1.0,1.0,1.0,10.00
2024-10-11 20:40:10.522,0.575457,0.24750948,0.57391673,0.51283854,0.40289503,0.1178257,0.10731165,0.037707996,0.7372856,-0.075623386,0.23472258,0.60368407,0.3063558,0.12448966,0.033915315,0.44953287,-0.16687395,-0.35032675,-0.004661458,-0.046211854,798.20514,798.60803,797.3993,799.41394,638.24176,-0.06610107421875,0.1142578125,1.001708984375,-11.0357666015625,-0.874786376953125,0.16448974609375,1,1.0,1.0,1.0,1.0,10.00
2024-10-11 20:40:10.522,0.575457,0.24750948,0.57391673,0.51283854,0.40289503,0.1178257,0.10731165,0.037707996,0.7372856,-0.075623386,0.23472258,0.60368407,0.3063558,0.12448966,0.033915315,0.44953287,-0.16687395,-0.35032675,-0.004661458,-0.046211854,799.81683,800.2198,794.17584,801.8315,620.5128,-0.06610107421875,0.1142578125,1.001708984375,-11.0357666015625,-0.874786376953125,0.16448974609375,1,1.0,1.0,1.0,1.0,10.00
2024-10-11 20:40:10.523,0.575457,0.24750948,0.57391673,0.51283854,0.40289503,0.1178257,0.10731165,0.037707996,0.7372856,-0.075623386,0.23472258,0.60368407,0.3063558,0.12448966,0.033915315,0.44953287,-0.16687395,-0.35032675,-0.004661458,-0.046211854,794.17584,796.5934,791.3553,796.99634,740.989,-0.06610107421875,0.1142578125,1.001708984375,-11.0357666015625,-0.874786376953125,0.16448974609375,1,1.0,1.0,1.0,1.0,10.00
2024-10-11 20:40:10.523,0.575457,0.24750948,0.57391673,0.51283854,0.40289503,0.1178257,0.10731165,0.037707996,0.7372856,-0.075623386,0.23472258,0.60368407,0.3063558,0.12448966,0.033915315,0.44953287,-0.16687395,-0.35032675,-0.004661458,-0.046211854,801.4286,792.96704,794.17584,807.0696,967.4359,-0.06610107421875,0.1142578125,1.001708984375,-11.0357666015625,-0.874786376953125,0.16448974609375,1,1.0,1.0,1.0,1.0,10.00
2024-10-11 20:40:10.524,0.575457,0.24750948,0.57391673,0.51283854,0.40289503,0.1178257,0.10731165,0.037707996,0.7372856,-0.075623386,0.23472258,0.60368407,0.3063558,0.12448966,0.033915315,0.44953287,-0.16687395,-0.35032675,-0.004661458,-0.046211854,806.26373,799.41394,800.2198,814.3223,765.9707,-0.06610107421875,0.1142578125,1.001708984375,-11.0357666015625,-0.874786376953125,0.16448974609375,1,1.0,1.0,1.0,1.0,10.00
2024-10-11 20:40:10.525,0.575457,0.24750948,0.57391673,0.51283854,0.40289503,0.1178257,0.10731165,0.037707996,0.7372856,-0.075623386,0.23472258,0.60368407,0.3063558,0.12448966,0.033915315,0.44953287,-0.16687395,-0.35032675,-0.004661458,-0.046211854,802.23444,805.05493,800.2198,805.05493,467.8022,-0.06610107421875,0.1142578125,1.001708984375,-11.0357666015625,-0.874786376953125,0.16448974609375,1,1.0,1.0,1.0,1.0,10.00
2024-10-11 20:40:10.526,0.575457,0.24750948,0.57391673,0.51283854,0.40289503,0.1178257,0.10731165,0.037707996,0.7372856,-0.075623386,0.23472258,0.60368407,0.3063558,0.12448966,0.033915315,0.44953287,-0.16687395,-0.35032675,-0.004661458,-0.046211854,802.23444,801.02563,799.81683,803.8461,527.8388,-0.06610107421875,0.1142578125,1.001708984375,-11.0357666015625,-0.874786376953125,0.16448974609375,1,1.0,1.0,1.0,1.0,10.00
2024-10-11 20:40:10.527,0.575457,0.24750948,0.57391673,0.51283854,0.40289503,0.1178257,0.10731165,0.037707996,0.7372856,-0.075623386,0.23472258,0.60368407,0.3063558,0.12448966,0.033915315,0.44953287,-0.16687395,-0.35032675,-0.004661458,-0.046211854,805.4579,799.81683,797.8022,802.6374,662.01465,-0.06610107421875,0.1142578125,1.001708984375,-11.0357666015625,-0.874786376953125,0.16448974609375,1,1.0,1.0,1.0,1.0,10.00
2024-10-11 20:40:10.551,0.575457,0.24750948,0.57391673,0.51283854,0.40289503,0.1178257,0.10731165,0.037707996,0.7372856,-0.075623386,0.23472258,0.60368407,0.3063558,0.12448966,0.033915315,0.44953287,-0.16687395,-0.35032675,-0.004661458,-0.046211854,804.2491,802.6374,798.60803,798.60803,675.7143,-0.0697021484375,0.09210205078125,1.00830078125,-12.6507568359375,0.904693603515625,-0.560760498046875,1,1.0,1.0,1.0,1.0,10.00
2024-10-11 20:40:10.551,0.575457,0.24750948,0.57391673,0.51283854,0.40289503,0.1178257,0.10731165,0.037707996,0.7372856,-0.075623386,0.23472258,0.60368407,0.3063558,0.12448966,0.033915315,0.44953287,-0.16687395,-0.35032675,-0.004661458,-0.046211854,804.65204,805.4579,796.5934,792.96704,579.81683,-0.0697021484375,0.09210205078125,1.00830078125,-12.6507568359375,0.904693603515625,-0.560760498046875,1,1.0,1.0,1.0,1.0,10.00
2024-10-11 20:40:10.552,0.575457,0.24750948,0.57391673,0.51283854,0.40289503,0.1178257,0.10731165,0.037707996,0.7372856,-0.075623386,0.23472258,0.60368407,0.3063558,0.12448966,0.033915315,0.44953287,-0.16687395,-0.35032675,-0.004661458,-0.046211854,807.0696,800.2198,800.2198,792.1612,633.00366,-0.0697021484375,0.09210205078125,1.00830078125,-12.6507568359375,0.904693603515625,-0.560760498046875,1,1.0,1.0,1.0,1.0,10.00
2024-10-11 20:40:10.553,0.575457,0.24750948,0.57391673,0.51283854,0.40289503,0.1178257,0.10731165,0.037707996,0.7372856,-0.075623386,0.23472258,0.60368407,0.3063558,0.12448966,0.033915315,0.44953287,-0.16687395,-0.35032675,-0.004661458,-0.046211854,805.4579,798.60803,800.6227,801.4286,939.2308,-0.0697021484375,0.09210205078125,1.00830078125,-12.6507568359375,0.904693603515625,-0.560760498046875,1,1.0,1.0,1.0,1.0,10.00
2024-10-11 20:40:10.553,0.575457,0.24750948,0.57391673,0.51283854,0.40289503,0.1178257,0.10731165,0.037707996,0.7372856,-0.075623386,0.23472258,0.60368407,0.3063558,0.12448966,0.033915315,0.44953287,-0.16687395,-0.35032675,-0.004661458,-0.046211854,805.4579,806.26373,802.23444,805.05493,759.12085,-0.0697021484375,0.09210205078125,1.00830078125,-12.6507568359375,0.904693603515625,-0.560760498046875,1,1.0,1.0,1.0,1.0,10.00
2024-10-11 20:40:10.554,0.6931444,0.16000134,0.52743137,0.5172708,0.49357358,0.061513748,-0.07201078,0.115190424,0.74946576,-0.07739242,0.1090027,0.6390921,0.33167586,0.11515441,0.05243468,0.47746453,-0.1163747,-0.35728285,-0.012345916,-0.06226136,812.71063,807.0696,808.68134,807.47253,645.09155,-0.0697021484375,0.09210205078125,1.00830078125,-12.6507568359375,0.904693603515625,-0.560760498046875,1,1.0,1.0,1.0,1.0,10.00
2024-10-11 20:40:10.559,0.6931444,0.16000134,0.52743137,0.5172708,0.49357358,0.061513748,-0.07201078,0.115190424,0.74946576,-0.07739242,0.1090027,0.6390921,0.33167586,0.11515441,0.05243468,0.47746453,-0.1163747,-0.35728285,-0.012345916,-0.06226136,820.7692,808.68134,807.47253,809.4872,832.0513,-0.0697021484375,0.09210205078125,1.00830078125,-12.6507568359375,0.904693603515625,-0.560760498046875,1,1.0,1.0,1.0,1.0,10.00
2024-10-11 20:40:10.560,0.6931444,0.16000134,0.52743137,0.5172708,0.49357358,0.061513748,-0.07201078,0.115190424,0.74946576,-0.07739242,0.1090027,0.6390921,0.33167586,0.11515441,0.05243468,0.47746453,-0.1163747,-0.35728285,-0.012345916,-0.06226136,808.68134,800.2198,796.99634,804.2491,1054.8718,-0.0697021484375,0.09210205078125,1.00830078125,-12.6507568359375,0.904693603515625,-0.560760498046875,1,1.0,1.0,1.0,1.0,10.00
2024-10-11 20:40:10.560,0.6931444,0.16000134,0.52743137,0.5172708,0.49357358,0.061513748,-0.07201078,0.115190424,0.74946576,-0.07739242,0.1090027,0.6390921,0.33167586,0.11515441,0.05243468,0.47746453,-0.1163747,-0.35728285,-0.012345916,-0.06226136,804.65204,796.1905,785.7143,803.44324,1151.5751,-0.0697021484375,0.09210205078125,1.00830078125,-12.6507568359375,0.904693603515625,-0.560760498046875,1,1.0,1.0,1.0,1.0,10.00
2024-10-11 20:40:10.561,0.6931444,0.16000134,0.52743137,0.5172708,0.49357358,0.061513748,-0.07201078,0.115190424,0.74946576,-0.07739242,0.1090027,0.6390921,0.33167586,0.11515441,0.05243468,0.47746453,-0.1163747,-0.35728285,-0.012345916,-0.06226136,814.7253,803.0403,787.326,802.6374,738.97437,-0.0697021484375,0.09210205078125,1.00830078125,-12.6507568359375,0.904693603515625,-0.560760498046875,1,1.0,1.0,1.0,1.0,10.00
2024-10-11 20:40:10.561,0.6931444,0.16000134,0.52743137,0.5172708,0.49357358,0.061513748,-0.07201078,0.115190424,0.74946576,-0.07739242,0.1090027,0.6390921,0.33167586,0.11515441,0.05243468,0.47746453,-0.1163747,-0.35728285,-0.012345916,-0.06226136,826.0073,802.23444,794.9817,802.6374,530.2564,-0.0697021484375,0.09210205078125,1.00830078125,-12.6507568359375,0.904693603515625,-0.560760498046875,1,1.0,1.0,1.0,1.0,10.00
2024-10-11 20:40:10.562,0.6931444,0.16000134,0.52743137,0.5172708,0.49357358,0.061513748,-0.07201078,0.115190424,0.74946576,-0.07739242,0.1090027,0.6390921,0.33167586,0.11515441,0.05243468,0.47746453,-0.1163747,-0.35728285,-0.012345916,-0.06226136,828.4249,803.0403,796.5934,802.6374,567.326,-0.0697021484375,0.09210205078125,1.00830078125,-12.6507568359375,0.904693603515625,-0.560760498046875,1,1.0,1.0,1.0,1.0,10.00
2024-10-11 20:40:10.629,0.6931444,0.16000134,0.52743137,0.5172708,0.49357358,0.061513748,-0.07201078,0.115190424,0.74946576,-0.07739242,0.1090027,0.6390921,0.33167586,0.11515441,0.05243468,0.47746453,-0.1163747,-0.35728285,-0.012345916,-0.06226136,805.8608,801.4286,796.5934,792.96704,520.989,-0.0765380859375,0.06689453125,1.00079345703125,-13.450775146484375,2.415008544921875,1.233673095703125,1,1.0,1.0,1.0,1.0,10.00
2024-10-11 20:40:10.629,0.6931444,0.16000134,0.52743137,0.5172708,0.49357358,0.061513748,-0.07201078,0.115190424,0.74946576,-0.07739242,0.1090027,0.6390921,0.33167586,0.11515441,0.05243468,0.47746453,-0.1163747,-0.35728285,-0.012345916,-0.06226136,787.72894,798.20514,805.05493,787.72894,554.43225,-0.0765380859375,0.06689453125,1.00079345703125,-13.450775146484375,2.415008544921875,1.233673095703125,1,1.0,1.0,1.0,1.0,10.00
2024-10-11 20:40:10.630,0.6931444,0.16000134,0.52743137,0.5172708,0.49357358,0.061513748,-0.07201078,0.115190424,0.74946576,-0.07739242,0.1090027,0.6390921,0.33167586,0.11515441,0.05243468,0.47746453,-0.1163747,-0.35728285,-0.012345916,-0.06226136,797.8022,795.78754,810.696,798.20514,585.8608,-0.0765380859375,0.06689453125,1.00079345703125,-13.450775146484375,2.415008544921875,1.233673095703125,1,1.0,1.0,1.0,1.0,10.00
2024-10-11 20:40:10.631,0.6931444,0.16000134,0.52743137,0.5172708,0.49357358,0.061513748,-0.07201078,0.115190424,0.74946576,-0.07739242,0.1090027,0.6390921,0.33167586,0.11515441,0.05243468,0.47746453,-0.1163747,-0.35728285,-0.012345916,-0.06226136,800.6227,792.5641,815.5311,800.2198,559.67035,-0.0765380859375,0.06689453125,1.00079345703125,-13.450775146484375,2.415008544921875,1.233673095703125,1,1.0,1.0,1.0,1.0,10.00
2024-10-11 20:40:10.631,0.6931444,0.16000134,0.52743137,0.5172708,0.49357358,0.061513748,-0.07201078,0.115190424,0.74946576,-0.07739242,0.1090027,0.6390921,0.33167586,0.11515441,0.05243468,0.47746453,-0.1163747,-0.35728285,-0.012345916,-0.06226136,796.5934,788.1319,813.5165,794.57874,519.3773,-0.0765380859375,0.06689453125,1.00079345703125,-13.450775146484375,2.415008544921875,1.233673095703125,1,1.0,1.0,1.0,1.0,10.00
2024-10-11 20:40:10.632,0.6931444,0.16000134,0.52743137,0.5172708,0.49357358,0.061513748,-0.07201078,0.115190424,0.74946576,-0.07739242,0.1090027,0.6390921,0.33167586,0.11515441,0.05243468,0.47746453,-0.1163747,-0.35728285,-0.012345916,-0.06226136,805.4579,788.93774,815.9341,804.2491,588.2784,-0.0765380859375,0.06689453125,1.00079345703125,-13.450775146484375,2.415008544921875,1.233673095703125,1,1.0,1.0,1.0,1.0,10.00
2024-10-11 20:40:10.632,0.6931444,0.16000134,0.52743137,0.5172708,0.49357358,0.061513748,-0.07201078,0.115190424,0.74946576,-0.07739242,0.1090027,0.6390921,0.33167586,0.11515441,0.05243468,0.47746453,-0.1163747,-0.35728285,-0.012345916,-0.06226136,803.8461,790.14655,823.5897,815.12823,894.90845,-0.0765380859375,0.06689453125,1.00079345703125,-13.450775146484375,2.415008544921875,1.233673095703125,1,1.0,1.0,1.0,1.0,10.00
2024-10-11 20:40:10.633,0.6931444,0.16000134,0.52743137,0.5172708,0.49357358,0.061513748,-0.07201078,0.115190424,0.74946576,-0.07739242,0.1090027,0.6390921,0.33167586,0.11515441,0.05243468,0.47746453,-0.1163747,-0.35728285,-0.012345916,-0.06226136,796.5934,786.52014,823.5897,815.5311,865.4945,-0.0765380859375,0.06689453125,1.00079345703125,-13.450775146484375,2.415008544921875,1.233673095703125,1,1.0,1.0,1.0,1.0,10.00
2024-10-11 20:40:10.634,0.6931444,0.16000134,0.52743137,0.5172708,0.49357358,0.061513748,-0.07201078,0.115190424,0.74946576,-0.07739242,0.1090027,0.6390921,0.33167586,0.11515441,0.05243468,0.47746453,-0.1163747,-0.35728285,-0.012345916,-0.06226136,785.7143,785.31134,825.6044,817.5458,564.5055,-0.0765380859375,0.06689453125,1.00079345703125,-13.450775146484375,2.415008544921875,1.233673095703125,1,1.0,1.0,1.0,1.0,10.00
2024-10-11 20:40:10.634,0.6931444,0.16000134,0.52743137,0.5172708,0.49357358,0.061513748,-0.07201078,0.115190424,0.74946576,-0.07739242,0.1090027,0.6390921,0.33167586,0.11515441,0.05243468,0.47746453,-0.1163747,-0.35728285,-0.012345916,-0.06226136,783.69965,784.10254,831.6484,821.5751,575.38464,-0.0765380859375,0.06689453125,1.00079345703125,-13.450775146484375,2.415008544921875,1.233673095703125,1,1.0,1.0,1.0,1.0,10.00
2024-10-11 20:40:10.635,0.6931444,0.16000134,0.52743137,0.5172708,0.49357358,0.061513748,-0.07201078,0.115190424,0.74946576,-0.07739242,0.1090027,0.6390921,0.33167586,0.11515441,0.05243468,0.47746453,-0.1163747,-0.35728285,-0.012345916,-0.06226136,789.7436,786.1172,835.6777,828.022,863.0769,-0.0765380859375,0.06689453125,1.00079345703125,-13.450775146484375,2.415008544921875,1.233673095703125,1,1.0,1.0,1.0,1.0,10.00
2024-10-11 20:40:10.635,0.6931444,0.16000134,0.52743137,0.5172708,0.49357358,0.061513748,-0.07201078,0.115190424,0.74946576,-0.07739242,0.1090027,0.6390921,0.33167586,0.11515441,0.05243468,0.47746453,-0.1163747,-0.35728285,-0.012345916,-0.06226136,792.5641,787.72894,834.87177,829.6337,725.2747,-0.0765380859375,0.06689453125,1.00079345703125,-13.450775146484375,2.415008544921875,1.233673095703125,1,1.0,1.0,1.0,1.0,10.00
2024-10-11 20:40:10.732,0.6931444,0.16000134,0.52743137,0.5172708,0.49357358,0.061513748,-0.07201078,0.115190424,0.74946576,-0.07739242,0.1090027,0.6390921,0.33167586,0.11515441,0.05243468,0.47746453,-0.1163747,-0.35728285,-0.012345916,-0.06226136,784.5055,784.10254,834.4689,817.9487,508.09525,-0.084716796875,0.04144287109375,0.99456787109375,-14.527435302734375,3.1103515625,2.64678955078125,1,1.0,1.0,1.0,1.0,10.00
2024-10-11 20:40:10.733,0.6931444,0.16000134,0.52743137,0.5172708,0.49357358,0.061513748,-0.07201078,0.115190424,0.74946576,-0.07739242,0.1090027,0.6390921,0.33167586,0.11515441,0.05243468,0.47746453,-0.1163747,-0.35728285,-0.012345916,-0.06226136,782.8938,779.2674,835.2747,811.9048,663.22345,-0.084716796875,0.04144287109375,0.99456787109375,-14.527435302734375,3.1103515625,2.64678955078125,1,1.0,1.0,1.0,1.0,10.00
2024-10-11 20:40:10.733,0.6931444,0.16000134,0.52743137,0.5172708,0.49357358,0.061513748,-0.07201078,0.115190424,0.74946576,-0.07739242,0.1090027,0.6390921,0.33167586,0.11515441,0.05243468,0.47746453,-0.1163747,-0.35728285,-0.012345916,-0.06226136,802.6374,780.07324,841.31866,818.3516,776.4469,-0.084716796875,0.04144287109375,0.99456787109375,-14.527435302734375,3.1103515625,2.64678955078125,1,1.0,1.0,1.0,1.0,10.00
2024-10-11 20:40:10.734,0.6931444,0.16000134,0.52743137,0.5172708,0.49357358,0.061513748,-0.07201078,0.115190424,0.74946576,-0.07739242,0.1090027,0.6390921,0.33167586,0.11515441,0.05243468,0.47746453,-0.1163747,-0.35728285,-0.012345916,-0.06226136,813.1135,786.1172,842.52747,822.381,640.65936,-0.084716796875,0.04144287109375,0.99456787109375,-14.527435302734375,3.1103515625,2.64678955078125,1,1.0,1.0,1.0,1.0,10.00
2024-10-11 20:40:10.735,0.6931444,0.16000134,0.52743137,0.5172708,0.49357358,0.061513748,-0.07201078,0.115190424,0.74946576,-0.07739242,0.1090027,0.6390921,0.33167586,0.11515441,0.05243468,0.47746453,-0.1163747,-0.35728285,-0.012345916,-0.06226136,823.9927,780.4762,839.304,823.1868,540.7326,-0.084716796875,0.04144287109375,0.99456787109375,-14.527435302734375,3.1103515625,2.64678955078125,1,1.0,1.0,1.0,1.0,10.00
2024-10-11 20:40:10.735,0.6931444,0.16000134,0.52743137,0.5172708,0.49357358,0.061513748,-0.07201078,0.115190424,0.74946576,-0.07739242,0.1090027,0.6390921,0.33167586,0.11515441,0.05243468,0.47746453,-0.1163747,-0.35728285,-0.012345916,-0.06226136,832.0513,776.4469,841.7216,830.4396,763.5531,-0.084716796875,0.04144287109375,0.99456787109375,-14.527435302734375,3.1103515625,2.64678955078125,1,1.0,1.0,1.0,1.0,10.00
2024-10-11 20:40:10.736,0.6931444,0.16000134,0.52743137,0.5172708,0.49357358,0.061513748,-0.07201078,0.115190424,0.74946576,-0.07739242,0.1090027,0.6390921,0.33167586,0.11515441,0.05243468,0.47746453,-0.1163747,-0.35728285,-0.012345916,-0.06226136,821.1722,778.86444,850.58606,832.8571,1021.8315,-0.084716796875,0.04144287109375,0.99456787109375,-14.527435302734375,3.1103515625,2.64678955078125,1,1.0,1.0,1.0,1.0,10.00
2024-10-11 20:40:10.736,0.7665237,0.14857069,0.6113538,0.53494865,0.5413774,0.053920597,-0.018344283,0.18646729,0.74946576,-0.07739242,0.14761527,0.6769298,0.3566487,0.10413986,0.056693837,0.50227934,-0.072219536,-0.3557237,-0.029059801,-0.07223682,822.7839,779.67035,846.1539,831.6484,813.1135,-0.084716796875,0.04144287109375,0.99456787109375,-14.527435302734375,3.1103515625,2.64678955078125,1,1.0,1.0,1.0,1.0,10.00
2024-10-11 20:40:10.742,0.7665237,0.14857069,0.6113538,0.53494865,0.5413774,0.053920597,-0.018344283,0.18646729,0.74946576,-0.07739242,0.14761527,0.6769298,0.3566487,0.10413986,0.056693837,0.50227934,-0.072219536,-0.3557237,-0.029059801,-0.07223682,806.6667,776.4469,842.9304,829.2308,602.7839,-0.084716796875,0.04144287109375,0.99456787109375,-14.527435302734375,3.1103515625,2.64678955078125,1,1.0,1.0,1.0,1.0,10.00
2024-10-11 20:40:10.742,0.7665237,0.14857069,0.6113538,0.53494865,0.5413774,0.053920597,-0.018344283,0.18646729,0.74946576,-0.07739242,0.14761527,0.6769298,0.3566487,0.10413986,0.056693837,0.50227934,-0.072219536,-0.3557237,-0.029059801,-0.07223682,782.49084,769.59705,846.9597,826.4103,619.707,-0.084716796875,0.04144287109375,0.99456787109375,-14.527435302734375,3.1103515625,2.64678955078125,1,1.0,1.0,1.0,1.0,10.00
2024-10-11 20:40:10.743,0.7665237,0.14857069,0.6113538,0.53494865,0.5413774,0.053920597,-0.018344283,0.18646729,0.74946576,-0.07739242,0.14761527,0.6769298,0.3566487,0.10413986,0.056693837,0.50227934,-0.072219536,-0.3557237,-0.029059801,-0.07223682,786.1172,770.80585,842.52747,831.6484,696.6667,-0.084716796875,0.04144287109375,0.99456787109375,-14.527435302734375,3.1103515625,2.64678955078125,1,1.0,1.0,1.0,1.0,10.00
2024-10-11 20:40:10.743,0.7665237,0.14857069,0.6113538,0.53494865,0.5413774,0.053920597,-0.018344283,0.18646729,0.74946576,-0.07739242,0.14761527,0.6769298,0.3566487,0.10413986,0.056693837,0.50227934,-0.072219536,-0.3557237,-0.029059801,-0.07223682,794.57874,776.8498,836.8865,830.0366,592.3077,-0.084716796875,0.04144287109375,0.99456787109375,-14.527435302734375,3.1103515625,2.64678955078125,1,1.0,1.0,1.0,1.0,10.00
2024-10-11 20:40:10.772,0.7665237,0.14857069,0.6113538,0.53494865,0.5413774,0.053920597,-0.018344283,0.18646729,0.74946576,-0.07739242,0.14761527,0.6769298,0.3566487,0.10413986,0.056693837,0.50227934,-0.072219536,-0.3557237,-0.029059801,-0.07223682,802.23444,776.4469,832.8571,825.2015,590.293,-0.09735107421875,0.01873779296875,0.99615478515625,-13.331146240234375,2.73651123046875,1.83929443359375,1,1.0,1.0,1.0,1.0,10.00
2024-10-11 20:40:10.773,0.7665237,0.14857069,0.6113538,0.53494865,0.5413774,0.053920597,-0.018344283,0.18646729,0.74946576,-0.07739242,0.14761527,0.6769298,0.3566487,0.10413986,0.056693837,0.50227934,-0.072219536,-0.3557237,-0.029059801,-0.07223682,788.93774,781.28204,834.87177,826.0073,749.0476,-0.09735107421875,0.01873779296875,0.99615478515625,-13.331146240234375,2.73651123046875,1.83929443359375,1,1.0,1.0,1.0,1.0,10.00
2024-10-11 20:40:10.774,0.7665237,0.14857069,0.6113538,0.53494865,0.5413774,0.053920597,-0.018344283,0.18646729,0.74946576,-0.07739242,0.14761527,0.6769298,0.3566487,0.10413986,0.056693837,0.50227934,-0.072219536,-0.3557237,-0.029059801,-0.07223682,771.6117,786.52014,833.2601,833.663,768.7912,-0.09735107421875,0.01873779296875,0.99615478515625,-13.331146240234375,2.73651123046875,1.83929443359375,1,1.0,1.0,1.0,1.0,10.00
2024-10-11 20:40:10.774,0.7665237,0.14857069,0.6113538,0.53494865,0.5413774,0.053920597,-0.018344283,0.18646729,0.74946576,-0.07739242,0.14761527,0.6769298,0.3566487,0.10413986,0.056693837,0.50227934,-0.072219536,-0.3557237,-0.029059801,-0.07223682,782.49084,783.69965,830.84247,836.08057,626.9597,-0.09735107421875,0.01873779296875,0.99615478515625,-13.331146240234375,2.73651123046875,1.83929443359375,1,1.0,1.0,1.0,1.0,10.00
2024-10-11 20:40:10.775,0.7665237,0.14857069,0.6113538,0.53494865,0.5413774,0.053920597,-0.018344283,0.18646729,0.74946576,-0.07739242,0.14761527,0.6769298,0.3566487,0.10413986,0.056693837,0.50227934,-0.072219536,-0.3557237,-0.029059801,-0.07223682,790.14655,780.87915,826.0073,829.2308,588.2784,-0.09735107421875,0.01873779296875,0.99615478515625,-13.331146240234375,2.73651123046875,1.83929443359375,1,1.0,1.0,1.0,1.0,10.00
2024-10-11 20:40:10.776,0.7665237,0.14857069,0.6113538,0.53494865,0.5413774,0.053920597,-0.018344283,0.18646729,0.74946576,-0.07739242,0.14761527,0.6769298,0.3566487,0.10413986,0.056693837,0.50227934,-0.072219536,-0.3557237,-0.029059801,-0.07223682,790.14655,781.685,819.9634,827.2161,834.0659,-0.09735107421875,0.01873779296875,0.99615478515625,-13.331146240234375,2.73651123046875,1.83929443359375,1,1.0,1.0,1.0,1.0,10.00
2024-10-11 20:40:10.776,0.7665237,0.14857069,0.6113538,0.53494865,0.5413774,0.053920597,-0.018344283,0.18646729,0.74946576,-0.07739242,0.14761527,0.6769298,0.3566487,0.10413986,0.056693837,0.50227934,-0.072219536,-0.3557237,-0.029059801,-0.07223682,803.8461,784.90845,826.0073,832.0513,910.2198,-0.09735107421875,0.01873779296875,0.99615478515625,-13.331146240234375,2.73651123046875,1.83929443359375,1,1.0,1.0,1.0,1.0,10.00
2024-10-11 20:40:10.777,0.7665237,0.14857069,0.6113538,0.53494865,0.5413774,0.053920597,-0.018344283,0.18646729,0.74946576,-0.07739242,0.14761527,0.6769298,0.3566487,0.10413986,0.056693837,0.50227934,-0.072219536,-0.3557237,-0.029059801,-0.07223682,809.0842,785.31134,831.6484,829.2308,785.7143,-0.09735107421875,0.01873779296875,0.99615478515625,-13.331146240234375,2.73651123046875,1.83929443359375,1,1.0,1.0,1.0,1.0,10.00
2024-10-11 20:40:10.777,0.7665237,0.14857069,0.6113538,0.53494865,0.5413774,0.053920597,-0.018344283,0.18646729,0.74946576,-0.07739242,0.14761527,0.6769298,0.3566487,0.10413986,0.056693837,0.50227934,-0.072219536,-0.3557237,-0.029059801,-0.07223682,807.8755,784.10254,829.2308,821.5751,699.0842,-0.09735107421875,0.01873779296875,0.99615478515625,-13.331146240234375,2.73651123046875,1.83929443359375,1,1.0,1.0,1.0,1.0,10.00
2024-10-11 20:40:10.778,0.7665237,0.14857069,0.6113538,0.53494865,0.5413774,0.053920597,-0.018344283,0.18646729,0.74946576,-0.07739242,0.14761527,0.6769298,0.3566487,0.10413986,0.056693837,0.50227934,-0.072219536,-0.3557237,-0.029059801,-0.07223682,812.3077,782.0879,823.1868,822.381,815.12823,-0.09735107421875,0.01873779296875,0.99615478515625,-13.331146240234375,2.73651123046875,1.83929443359375,1,1.0,1.0,1.0,1.0,10.00
2024-10-11 20:40:10.779,0.7665237,0.14857069,0.6113538,0.53494865,0.5413774,0.053920597,-0.018344283,0.18646729,0.74946576,-0.07739242,0.14761527,0.6769298,0.3566487,0.10413986,0.056693837,0.50227934,-0.072219536,-0.3557237,-0.029059801,-0.07223682,806.26373,790.54944,826.8132,824.7985,780.4762,-0.09735107421875,0.01873779296875,0.99615478515625,-13.331146240234375,2.73651123046875,1.83929443359375,1,1.0,1.0,1.0,1.0,10.00
2024-10-11 20:40:10.779,0.7665237,0.14857069,0.6113538,0.53494865,0.5413774,0.053920597,-0.018344283,0.18646729,0.74946576,-0.07739242,0.14761527,0.6769298,0.3566487,0.10413986,0.056693837,0.50227934,-0.072219536,-0.3557237,-0.029059801,-0.07223682,805.4579,798.20514,833.663,819.15753,585.8608,-0.09735107421875,0.01873779296875,0.99615478515625,-13.331146240234375,2.73651123046875,1.83929443359375,1,1.0,1.0,1.0,1.0,10.00
2024-10-11 20:40:10.780,0.7665237,0.14857069,0.6113538,0.53494865,0.5413774,0.053920597,-0.018344283,0.18646729,0.74946576,-0.07739242,0.14761527,0.6769298,0.3566487,0.10413986,0.056693837,0.50227934,-0.072219536,-0.3557237,-0.029059801,-0.07223682,810.293,794.57874,819.9634,820.7692,617.28937,-0.09735107421875,0.01873779296875,0.99615478515625,-13.331146240234375,2.73651123046875,1.83929443359375,1,1.0,1.0,1.0,1.0,10.00
2024-10-11 20:40:10.781,0.7665237,0.14857069,0.6113538,0.53494865,0.5413774,0.053920597,-0.018344283,0.18646729,0.74946576,-0.07739242,0.14761527,0.6769298,0.3566487,0.10413986,0.056693837,0.50227934,-0.072219536,-0.3557237,-0.029059801,-0.07223682,811.50183,792.1612,817.9487,826.0073,817.5458,-0.09735107421875,0.01873779296875,0.99615478515625,-13.331146240234375,2.73651123046875,1.83929443359375,1,1.0,1.0,1.0,1.0,10.00
2024-10-11 20:40:10.781,0.7665237,0.14857069,0.6113538,0.53494865,0.5413774,0.053920597,-0.018344283,0.18646729,0.74946576,-0.07739242,0.14761527,0.6769298,0.3566487,0.10413986,0.056693837,0.50227934,-0.072219536,-0.3557237,-0.029059801,-0.07223682,809.0842,795.38464,822.7839,817.5458,633.8095,-0.09735107421875,0.01873779296875,0.99615478515625,-13.331146240234375,2.73651123046875,1.83929443359375,1,1.0,1.0,1.0,1.0,10.00
2024-10-11 20:40:10.782,0.7665237,0.14857069,0.6113538,0.53494865,0.5413774,0.053920597,-0.018344283,0.18646729,0.74946576,-0.07739242,0.14761527,0.6769298,0.3566487,0.10413986,0.056693837,0.50227934,-0.072219536,-0.3557237,-0.029059801,-0.07223682,805.05493,797.3993,816.7399,810.293,518.1685,-0.09735107421875,0.01873779296875,0.99615478515625,-13.331146240234375,2.73651123046875,1.83929443359375,1,1.0,1.0,1.0,1.0,10.00
2024-10-11 20:40:10.782,0.7665237,0.14857069,0.6113538,0.53494865,0.5413774,0.053920597,-0.018344283,0.18646729,0.74946576,-0.07739242,0.14761527,0.6769298,0.3566487,0.10413986,0.056693837,0.50227934,-0.072219536,-0.3557237,-0.029059801,-0.07223682,807.47253,795.38464,813.91943,817.1429,741.79486,-0.09735107421875,0.01873779296875,0.99615478515625,-13.331146240234375,2.73651123046875,1.83929443359375,1,1.0,1.0,1.0,1.0,10.00
2024-10-11 20:40:10.783,0.7665237,0.14857069,0.6113538,0.53494865,0.5413774,0.053920597,-0.018344283,0.18646729,0.74946576,-0.07739242,0.14761527,0.6769298,0.3566487,0.10413986,0.056693837,0.50227934,-0.072219536,-0.3557237,-0.029059801,-0.07223682,807.47253,792.96704,817.5458,817.1429,960.989,-0.09735107421875,0.01873779296875,0.99615478515625,-13.331146240234375,2.73651123046875,1.83929443359375,1,1.0,1.0,1.0,1.0,10.00
2024-10-11 20:40:10.783,0.7665237,0.14857069,0.6113538,0.53494865,0.5413774,0.053920597,-0.018344283,0.18646729,0.74946576,-0.07739242,0.14761527,0.6769298,0.3566487,0.10413986,0.056693837,0.50227934,-0.072219536,-0.3557237,-0.029059801,-0.07223682,804.65204,790.14655,819.15753,811.0989,743.8095,-0.09735107421875,0.01873779296875,0.99615478515625,-13.331146240234375,2.73651123046875,1.83929443359375,1,1.0,1.0,1.0,1.0,10.00
2024-10-11 20:40:10.784,0.7665237,0.14857069,0.6113538,0.53494865,0.5413774,0.053920597,-0.018344283,0.18646729,0.74946576,-0.07739242,0.14761527,0.6769298,0.3566487,0.10413986,0.056693837,0.50227934,-0.072219536,-0.3557237,-0.029059801,-0.07223682,795.38464,788.5348,818.3516,811.0989,431.13553,-0.09735107421875,0.01873779296875,0.99615478515625,-13.331146240234375,2.73651123046875,1.83929443359375,1,1.0,1.0,1.0,1.0,10.00
2024-10-11 20:40:10.785,0.7665237,0.14857069,0.6113538,0.53494865,0.5413774,0.053920597,-0.018344283,0.18646729,0.74946576,-0.07739242,0.14761527,0.6769298,0.3566487,0.10413986,0.056693837,0.50227934,-0.072219536,-0.3557237,-0.029059801,-0.07223682,792.1612,789.34064,814.7253,815.5311,491.5751,-0.09735107421875,0.01873779296875,0.99615478515625,-13.331146240234375,2.73651123046875,1.83929443359375,1,1.0,1.0,1.0,1.0,10.00
2024-10-11 20:40:10.785,0.7997799,0.1698947,0.6970847,0.6008009,0.5551602,0.05297015,0.017130584,0.24961686,0.74946576,-0.07680547,0.18761002,0.706526,0.37650472,0.08664549,0.067768306,0.5245323,-0.042591356,-0.34012863,-0.046226107,-0.07938463,798.20514,790.9524,811.0989,816.7399,672.0879,-0.09735107421875,0.01873779296875,0.99615478515625,-13.331146240234375,2.73651123046875,1.83929443359375,1,1.0,1.0,1.0,1.0,10.00
2024-10-11 20:40:10.790,0.7997799,0.1698947,0.6970847,0.6008009,0.5551602,0.05297015,0.017130584,0.24961686,0.74946576,-0.07680547,0.18761002,0.706526,0.37650472,0.08664549,0.067768306,0.5245323,-0.042591356,-0.34012863,-0.046226107,-0.07938463,796.99634,790.14655,808.2784,801.8315,494.79852,-0.09735107421875,0.01873779296875,0.99615478515625,-13.331146240234375,2.73651123046875,1.83929443359375,1,1.0,1.0,1.0,1.0,10.00
2024-10-11 20:40:10.791,0.7997799,0.1698947,0.6970847,0.6008009,0.5551602,0.05297015,0.017130584,0.24961686,0.74946576,-0.07680547,0.18761002,0.706526,0.37650472,0.08664549,0.067768306,0.5245323,-0.042591356,-0.34012863,-0.046226107,-0.07938463,793.36993,791.3553,802.6374,800.2198,370.69598,-0.09735107421875,0.01873779296875,0.99615478515625,-13.331146240234375,2.73651123046875,1.83929443359375,1,1.0,1.0,1.0,1.0,10.00
2024-10-11 20:40:10.846,0.7997799,0.1698947,0.6970847,0.6008009,0.5551602,0.05297015,0.017130584,0.24961686,0.74946576,-0.07680547,0.18761002,0.706526,0.37650472,0.08664549,0.067768306,0.5245323,-0.042591356,-0.34012863,-0.046226107,-0.07938463,805.4579,792.96704,801.8315,807.0696,589.4872,-0.1075439453125,0.0015869140625,1.0001220703125,-11.237640380859375,2.998199462890625,1.682281494140625,1,1.0,1.0,1.0,1.0,10.00
2024-10-11 20:40:10.847,0.7997799,0.1698947,0.6970847,0.6008009,0.5551602,0.05297015,0.017130584,0.24961686,0.74946576,-0.07680547,0.18761002,0.706526,0.37650472,0.08664549,0.067768306,0.5245323,-0.042591356,-0.34012863,-0.046226107,-0.07938463,805.05493,790.54944,811.9048,806.26373,708.7546,-0.1075439453125,0.0015869140625,1.0001220703125,-11.237640380859375,2.998199462890625,1.682281494140625,1,1.0,1.0,1.0,1.0,10.00
2024-10-11 20:40:10.848,0.7997799,0.1698947,0.6970847,0.6008009,0.5551602,0.05297015,0.017130584,0.24961686,0.74946576,-0.07680547,0.18761002,0.706526,0.37650472,0.08664549,0.067768306,0.5245323,-0.042591356,-0.34012863,-0.046226107,-0.07938463,798.60803,788.5348,813.5165,808.2784,501.24542,-0.1075439453125,0.0015869140625,1.0001220703125,-11.237640380859375,2.998199462890625,1.682281494140625,1,1.0,1.0,1.0,1.0,10.00
2024-10-11 20:40:10.849,0.7997799,0.1698947,0.6970847,0.6008009,0.5551602,0.05297015,0.017130584,0.24961686,0.74946576,-0.07680547,0.18761002,0.706526,0.37650472,0.08664549,0.067768306,0.5245323,-0.042591356,-0.34012863,-0.046226107,-0.07938463,803.44324,791.75824,809.0842,811.9048,465.3846,-0.1075439453125,0.0015869140625,1.0001220703125,-11.237640380859375,2.998199462890625,1.682281494140625,1,1.0,1.0,1.0,1.0,10.00
2024-10-11 20:40:10.849,0.7997799,0.1698947,0.6970847,0.6008009,0.5551602,0.05297015,0.017130584,0.24961686,0.74946576,-0.07680547,0.18761002,0.706526,0.37650472,0.08664549,0.067768306,0.5245323,-0.042591356,-0.34012863,-0.046226107,-0.07938463,803.44324,791.3553,810.696,814.3223,606.8132,-0.1075439453125,0.0015869140625,1.0001220703125,-11.237640380859375,2.998199462890625,1.682281494140625,1,1.0,1.0,1.0,1.0,10.00
2024-10-11 20:40:10.850,0.7997799,0.1698947,0.6970847,0.6008009,0.5551602,0.05297015,0.017130584,0.24961686,0.74946576,-0.07680547,0.18761002,0.706526,0.37650472,0.08664549,0.067768306,0.5245323,-0.042591356,-0.34012863,-0.046226107,-0.07938463,801.8315,791.3553,809.89014,807.47253,652.74725,-0.1075439453125,0.0015869140625,1.0001220703125,-11.237640380859375,2.998199462890625,1.682281494140625,1,1.0,1.0,1.0,1.0,10.00
2024-10-11 20:40:10.850,0.7997799,0.1698947,0.6970847,0.6008009,0.5551602,0.05297015,0.017130584,0.24961686,0.74946576,-0.07680547,0.18761002,0.706526,0.37650472,0.08664549,0.067768306,0.5245323,-0.042591356,-0.34012863,-0.046226107,-0.07938463,800.6227,791.75824,806.26373,807.0696,649.12085,-0.1075439453125,0.0015869140625,1.0001220703125,-11.237640380859375,2.998199462890625,1.682281494140625,1,1.0,1.0,1.0,1.0,10.00
2024-10-11 20:40:10.851,0.7997799,0.1698947,0.6970847,0.6008009,0.5551602,0.05297015,0.017130584,0.24961686,0.74946576,-0.07680547,0.18761002,0.706526,0.37650472,0.08664549,0.067768306,0.5245323,-0.042591356,-0.34012863,-0.046226107,-0.07938463,804.65204,790.9524,805.05493,812.71063,696.26373,-0.1075439453125,0.0015869140625,1.0001220703125,-11.237640380859375,2.998199462890625,1.682281494140625,1,1.0,1.0,1.0,1.0,10.00
2024-10-11 20:40:10.852,0.7997799,0.1698947,0.6970847,0.6008009,0.5551602,0.05297015,0.017130584,0.24961686,0.74946576,-0.07680547,0.18761002,0.706526,0.37650472,0.08664549,0.067768306,0.5245323,-0.042591356,-0.34012863,-0.046226107,-0.07938463,813.1135,792.5641,807.47253,820.3663,848.5714,-0.1075439453125,0.0015869140625,1.0001220703125,-11.237640380859375,2.998199462890625,1.682281494140625,1,1.0,1.0,1.0,1.0,10.00
