TimeStamp,Delta_TP9,Delta_AF7,Delta_AF8,Delta_TP10,Theta_TP9,Theta_AF7,Theta_AF8,Theta_TP10,Alpha_TP9,Alpha_AF7,Alpha_AF8,Alpha_TP10,Beta_TP9,Beta_AF7,Beta_AF8,Beta_TP10,Gamma_TP9,Gamma_AF7,Gamma_AF8,Gamma_TP10,RAW_TP9,RAW_AF7,RAW_AF8,RAW_TP10,AUX_RIGHT,Accelerometer_X,Accelerometer_Y,Accelerometer_Z,Gyro_X,Gyro_Y,Gyro_Z,HeadBandOn,HSI_TP9,HSI_AF7,HSI_AF8,HSI_TP10,Battery,Elements
2024-10-11 20:39:28.248,1.2352512,0.831015,0.40768334,1.1222104,0.788715,0.15125842,-0.017637944,0.49777216,0.6371275,0.029846005,0.17228179,0.6418702,0.49173012,-0.026221989,0.3279926,0.8972156,0.2571639,-0.4048266,0.13394727,0.1685456,806.26373,799.41394,801.4286,815.5311,706.7399,-0.02813720703125,0.0712890625,1.00238037109375,1.30096435546875,8.560943603515625,7.125396728515625,1,2.0,1.0,1.0,2.0,10.00
2024-10-11 20:39:28.249,1.2352512,0.831015,0.40768334,1.1222104,0.788715,0.15125842,-0.017637944,0.49777216,0.6371275,0.029846005,0.17228179,0.6418702,0.49173012,-0.026221989,0.3279926,0.8972156,0.2571639,-0.4048266,0.13394727,0.1685456,808.2784,799.011,797.3993,800.2198,689.011,-0.02813720703125,0.0712890625,1.00238037109375,1.30096435546875,8.560943603515625,7.125396728515625,1,2.0,1.0,1.0,2.0,10.00
2024-10-11 20:39:28.250,1.2352512,0.831015,0.40768334,1.1222104,0.788715,0.15125842,-0.017637944,0.49777216,0.6371275,0.029846005,0.17228179,0.6418702,0.49173012,-0.026221989,0.3279926,0.8972156,0.2571639,-0.4048266,0.13394727,0.1685456,804.65204,796.99634,792.1612,806.6667,710.3663,-0.02813720703125,0.0712890625,1.00238037109375,1.30096435546875,8.560943603515625,7.125396728515625,1,2.0,1.0,1.0,2.0,10.00
2024-10-11 20:39:28.251,1.2352512,0.831015,0.40768334,1.1222104,0.788715,0.15125842,-0.017637944,0.49777216,0.6371275,0.029846005,0.17228179,0.6418702,0.49173012,-0.026221989,0.3279926,0.8972156,0.2571639,-0.4048266,0.13394727,0.1685456,806.6667,797.3993,799.81683,816.7399,628.97437,-0.02813720703125,0.0712890625,1.00238037109375,1.30096435546875,8.560943603515625,7.125396728515625,1,2.0,1.0,1.0,2.0,10.00
2024-10-11 20:39:28.251,1.2352512,0.831015,0.40768334,1.1222104,0.788715,0.15125842,-0.017637944,0.49777216,0.6371275,0.029846005,0.17228179,0.6418702,0.49173012,-0.026221989,0.3279926,0.8972156,0.2571639,-0.4048266,0.13394727,0.1685456,813.1135,800.2198,804.2491,813.5165,668.0586,-0.02813720703125,0.0712890625,1.00238037109375,1.30096435546875,8.560943603515625,7.125396728515625,1,2.0,1.0,1.0,2.0,10.00
2024-10-11 20:39:28.252,1.2352512,0.831015,0.40768334,1.1222104,0.788715,0.15125842,-0.017637944,0.49777216,0.6371275,0.029846005,0.17228179,0.6418702,0.49173012,-0.026221989,0.3279926,0.8972156,0.2571639,-0.4048266,0.13394727,0.1685456,809.89014,798.60803,795.78754,814.7253,900.9524,-0.02813720703125,0.0712890625,1.00238037109375,1.30096435546875,8.560943603515625,7.125396728515625,1,2.0,1.0,1.0,2.0,10.00
2024-10-11 20:39:28.252,1.2352512,0.831015,0.40768334,1.1222104,0.788715,0.15125842,-0.017637944,0.49777216,0.6371275,0.029846005,0.17228179,0.6418702,0.49173012,-0.026221989,0.3279926,0.8972156,0.2571639,-0.4048266,0.13394727,0.1685456,803.0403,797.3993,793.7729,815.5311,915.4579,-0.02813720703125,0.0712890625,1.00238037109375,1.30096435546875,8.560943603515625,7.125396728515625,1,2.0,1.0,1.0,2.0,10.00
2024-10-11 20:39:28.253,1.2352512,0.831015,0.40768334,1.1222104,0.788715,0.15125842,-0.017637944,0.49777216,0.6371275,0.029846005,0.17228179,0.6418702,0.49173012,-0.026221989,0.3279926,0.8972156,0.2571639,-0.4048266,0.13394727,0.1685456,798.20514,797.3993,796.99634,805.4579,682.96704,-0.02813720703125,0.0712890625,1.00238037109375,1.30096435546875,8.560943603515625,7.125396728515625,1,2.0,1.0,1.0,2.0,10.00
2024-10-11 20:39:28.254,1.2352512,0.831015,0.40768334,1.1222104,0.788715,0.15125842,-0.017637944,0.49777216,0.6371275,0.029846005,0.17228179,0.6418702,0.49173012,-0.026221989,0.3279926,0.8972156,0.2571639,-0.4048266,0.13394727,0.1685456,804.2491,798.60803,798.20514,791.3553,668.46155,-0.02813720703125,0.0712890625,1.00238037109375,1.30096435546875,8.560943603515625,7.125396728515625,1,2.0,1.0,1.0,2.0,10.00
2024-10-11 20:39:28.254,1.2352512,0.831015,0.40768334,1.1222104,0.788715,0.15125842,-0.017637944,0.49777216,0.6371275,0.029846005,0.17228179,0.6418702,0.49173012,-0.026221989,0.3279926,0.8972156,0.2571639,-0.4048266,0.13394727,0.1685456,803.8461,796.99634,801.8315,796.1905,948.9011,-0.02813720703125,0.0712890625,1.00238037109375,1.30096435546875,8.560943603515625,7.125396728515625,1,2.0,1.0,1.0,2.0,10.00
2024-10-11 20:39:28.255,1.2352512,0.831015,0.40768334,1.1222104,0.788715,0.15125842,-0.017637944,0.49777216,0.6371275,0.029846005,0.17228179,0.6418702,0.49173012,-0.026221989,0.3279926,0.8972156,0.2571639,-0.4048266,0.13394727,0.1685456,803.44324,792.96704,798.60803,789.34064,954.5421,-0.02813720703125,0.0712890625,1.00238037109375,1.30096435546875,8.560943603515625,7.125396728515625,1,2.0,1.0,1.0,2.0,10.00
2024-10-11 20:39:28.255,1.2352512,0.831015,0.40768334,1.1222104,0.788715,0.15125842,-0.017637944,0.49777216,0.6371275,0.029846005,0.17228179,0.6418702,0.49173012,-0.026221989,0.3279926,0.8972156,0.2571639,-0.4048266,0.13394727,0.1685456,814.7253,801.8315,800.2198,784.10254,678.1319,-0.02813720703125,0.0712890625,1.00238037109375,1.30096435546875,8.560943603515625,7.125396728515625,1,2.0,1.0,1.0,2.0,10.00
2024-10-11 20:39:28.296,1.2352512,0.831015,0.40768334,1.1222104,0.788715,0.15125842,-0.017637944,0.49777216,0.6371275,0.029846005,0.17228179,0.6418702,0.49173012,-0.026221989,0.3279926,0.8972156,0.2571639,-0.4048266,0.13394727,0.1685456,806.6667,804.2491,803.8461,800.6227,575.38464,-0.0511474609375,0.07275390625,1.00750732421875,1.09161376953125,8.680572509765625,5.2935791015625,1,2.0,1.0,1.0,2.0,10.00
2024-10-11 20:39:28.297,1.2352512,0.831015,0.40768334,1.1222104,0.788715,0.15125842,-0.017637944,0.49777216,0.6371275,0.029846005,0.17228179,0.6418702,0.49173012,-0.026221989,0.3279926,0.8972156,0.2571639,-0.4048266,0.13394727,0.1685456,794.17584,796.5934,794.9817,816.337,948.0952,-0.0511474609375,0.07275390625,1.00750732421875,1.09161376953125,8.680572509765625,5.2935791015625,1,2.0,1.0,1.0,2.0,10.00
2024-10-11 20:39:28.298,1.2352512,0.831015,0.40768334,1.1222104,0.788715,0.15125842,-0.017637944,0.49777216,0.6371275,0.029846005,0.17228179,0.6418702,0.49173012,-0.026221989,0.3279926,0.8972156,0.2571639,-0.4048266,0.13394727,0.1685456,792.1612,797.8022,798.60803,811.50183,938.8278,-0.0511474609375,0.07275390625,1.00750732421875,1.09161376953125,8.680572509765625,5.2935791015625,1,2.0,1.0,1.0,2.0,10.00
2024-10-11 20:39:28.299,1.2352512,0.831015,0.40768334,1.1222104,0.788715,0.15125842,-0.017637944,0.49777216,0.6371275,0.029846005,0.17228179,0.6418702,0.49173012,-0.026221989,0.3279926,0.8972156,0.2571639,-0.4048266,0.13394727,0.1685456,801.02563,803.8461,799.81683,795.78754,612.8571,-0.0511474609375,0.07275390625,1.00750732421875,1.09161376953125,8.680572509765625,5.2935791015625,1,2.0,1.0,1.0,2.0,10.00
2024-10-11 20:39:28.299,1.2352512,0.831015,0.40768334,1.1222104,0.788715,0.15125842,-0.017637944,0.49777216,0.6371275,0.029846005,0.17228179,0.6418702,0.49173012,-0.026221989,0.3279926,0.8972156,0.2571639,-0.4048266,0.13394727,0.1685456,804.65204,804.65204,791.3553,790.14655,595.12823,-0.0511474609375,0.07275390625,1.00750732421875,1.09161376953125,8.680572509765625,5.2935791015625,1,2.0,1.0,1.0,2.0,10.00
2024-10-11 20:39:28.300,1.2352512,0.831015,0.40768334,1.1222104,0.788715,0.15125842,-0.017637944,0.49777216,0.6371275,0.029846005,0.17228179,0.6418702,0.49173012,-0.026221989,0.3279926,0.8972156,0.2571639,-0.4048266,0.13394727,0.1685456,809.0842,798.20514,792.5641,788.93774,669.67035,-0.0511474609375,0.07275390625,1.00750732421875,1.09161376953125,8.680572509765625,5.2935791015625,1,2.0,1.0,1.0,2.0,10.00
2024-10-11 20:39:28.300,1.2352512,0.831015,0.40768334,1.1222104,0.788715,0.15125842,-0.017637944,0.49777216,0.6371275,0.029846005,0.17228179,0.6418702,0.49173012,-0.026221989,0.3279926,0.8972156,0.2571639,-0.4048266,0.13394727,0.1685456,811.0989,796.99634,793.36993,792.5641,663.22345,-0.0511474609375,0.07275390625,1.00750732421875,1.09161376953125,8.680572509765625,5.2935791015625,1,2.0,1.0,1.0,2.0,10.00
2024-10-11 20:39:28.301,1.2352512,0.831015,0.40768334,1.1222104,0.788715,0.15125842,-0.017637944,0.49777216,0.6371275,0.029846005,0.17228179,0.6418702,0.49173012,-0.026221989,0.3279926,0.8972156,0.2571639,-0.4048266,0.13394727,0.1685456,809.89014,798.60803,797.8022,797.3993,539.5238,-0.0511474609375,0.07275390625,1.00750732421875,1.09161376953125,8.680572509765625,5.2935791015625,1,2.0,1.0,1.0,2.0,10.00
2024-10-11 20:39:28.302,1.2352512,0.831015,0.40768334,1.1222104,0.788715,0.15125842,-0.017637944,0.49777216,0.6371275,0.029846005,0.17228179,0.6418702,0.49173012,-0.026221989,0.3279926,0.8972156,0.2571639,-0.4048266,0.13394727,0.1685456,800.6227,798.20514,796.5934,796.99634,526.2271,-0.0511474609375,0.07275390625,1.00750732421875,1.09161376953125,8.680572509765625,5.2935791015625,1,2.0,1.0,1.0,2.0,10.00
2024-10-11 20:39:28.302,1.2352512,0.831015,0.40768334,1.1222104,0.788715,0.15125842,-0.017637944,0.49777216,0.6371275,0.029846005,0.17228179,0.6418702,0.49173012,-0.026221989,0.3279926,0.8972156,0.2571639,-0.4048266,0.13394727,0.1685456,799.011,799.011,796.1905,802.23444,626.1539,-0.0511474609375,0.07275390625,1.00750732421875,1.09161376953125,8.680572509765625,5.2935791015625,1,2.0,1.0,1.0,2.0,10.00
2024-10-11 20:39:28.303,1.2352512,0.831015,0.40768334,1.1222104,0.788715,0.15125842,-0.017637944,0.49777216,0.6371275,0.029846005,0.17228179,0.6418702,0.49173012,-0.026221989,0.3279926,0.8972156,0.2571639,-0.4048266,0.13394727,0.1685456,786.9231,800.6227,805.4579,809.0842,651.53845,-0.0511474609375,0.07275390625,1.00750732421875,1.09161376953125,8.680572509765625,5.2935791015625,1,2.0,1.0,1.0,2.0,10.00
2024-10-11 20:39:28.303,1.2352512,0.5406287,0.45632112,1.1222104,0.788715,-0.005404884,-0.044628445,0.49777216,0.6371275,-0.02982208,0.17257072,0.6418702,0.49173012,-0.041376334,0.3168703,0.8972156,0.2571639,-0.4105864,0.13073044,0.1685456,782.8938,796.99634,802.6374,814.7253,594.3223,-0.0511474609375,0.07275390625,1.00750732421875,1.09161376953125,8.680572509765625,5.2935791015625,1,2.0,1.0,1.0,2.0,10.00
2024-10-11 20:39:28.308,1.2352512,0.5406287,0.45632112,1.1222104,0.788715,-0.005404884,-0.044628445,0.49777216,0.6371275,-0.02982208,0.17257072,0.6418702,0.49173012,-0.041376334,0.3168703,0.8972156,0.2571639,-0.4105864,0.13073044,0.1685456,803.44324,793.7729,794.17584,818.3516,779.67035,-0.0562744140625,0.0753173828125,1.00469970703125,2.205657958984375,8.860015869140625,4.029998779296875,1,2.0,1.0,1.0,2.0,10.00
2024-10-11 20:39:28.309,1.2352512,0.5406287,0.45632112,1.1222104,0.788715,-0.005404884,-0.044628445,0.49777216,0.6371275,-0.02982208,0.17257072,0.6418702,0.49173012,-0.041376334,0.3168703,0.8972156,0.2571639,-0.4105864,0.13073044,0.1685456,807.0696,792.96704,793.36993,813.91943,925.12823,-0.0562744140625,0.0753173828125,1.00469970703125,2.205657958984375,8.860015869140625,4.029998779296875,1,2.0,1.0,1.0,2.0,10.00
2024-10-11 20:39:28.310,1.2352512,0.5406287,0.45632112,1.1222104,0.788715,-0.005404884,-0.044628445,0.49777216,0.6371275,-0.02982208,0.17257072,0.6418702,0.49173012,-0.041376334,0.3168703,0.8972156,0.2571639,-0.4105864,0.13073044,0.1685456,813.1135,791.75824,792.1612,789.7436,688.20514,-0.0562744140625,0.0753173828125,1.00469970703125,2.205657958984375,8.860015869140625,4.029998779296875,1,2.0,1.0,1.0,2.0,10.00
2024-10-11 20:39:28.311,1.2352512,0.5406287,0.45632112,1.1222104,0.788715,-0.005404884,-0.044628445,0.49777216,0.6371275,-0.02982208,0.17257072,0.6418702,0.49173012,-0.041376334,0.3168703,0.8972156,0.2571639,-0.4105864,0.13073044,0.1685456,817.5458,792.96704,793.36993,789.34064,647.50916,-0.0562744140625,0.0753173828125,1.00469970703125,2.205657958984375,8.860015869140625,4.029998779296875,1,2.0,1.0,1.0,2.0,10.00
2024-10-11 20:39:28.312,1.2352512,0.5406287,0.45632112,1.1222104,0.788715,-0.005404884,-0.044628445,0.49777216,0.6371275,-0.02982208,0.17257072,0.6418702,0.49173012,-0.041376334,0.3168703,0.8972156,0.2571639,-0.4105864,0.13073044,0.1685456,805.4579,783.2967,802.6374,815.9341,793.7729,-0.0562744140625,0.0753173828125,1.00469970703125,2.205657958984375,8.860015869140625,4.029998779296875,1,2.0,1.0,1.0,2.0,10.00
2024-10-11 20:39:28.313,1.2352512,0.5406287,0.45632112,1.1222104,0.788715,-0.005404884,-0.044628445,0.49777216,0.6371275,-0.02982208,0.17257072,0.6418702,0.49173012,-0.041376334,0.3168703,0.8972156,0.2571639,-0.4105864,0.13073044,0.1685456,795.38464,781.28204,796.1905,811.9048,851.79486,-0.0562744140625,0.0753173828125,1.00469970703125,2.205657958984375,8.860015869140625,4.029998779296875,1,2.0,1.0,1.0,2.0,10.00
2024-10-11 20:39:28.313,1.2352512,0.5406287,0.45632112,1.1222104,0.788715,-0.005404884,-0.044628445,0.49777216,0.6371275,-0.02982208,0.17257072,0.6418702,0.49173012,-0.041376334,0.3168703,0.8972156,0.2571639,-0.4105864,0.13073044,0.1685456,786.1172,798.20514,794.57874,795.78754,749.0476,-0.0562744140625,0.0753173828125,1.00469970703125,2.205657958984375,8.860015869140625,4.029998779296875,1,2.0,1.0,1.0,2.0,10.00
2024-10-11 20:39:28.314,1.2352512,0.5406287,0.45632112,1.1222104,0.788715,-0.005404884,-0.044628445,0.49777216,0.6371275,-0.02982208,0.17257072,0.6418702,0.49173012,-0.041376334,0.3168703,0.8972156,0.2571639,-0.4105864,0.13073044,0.1685456,780.4762,801.8315,794.9817,796.99634,716.4103,-0.0562744140625,0.0753173828125,1.00469970703125,2.205657958984375,8.860015869140625,4.029998779296875,1,2.0,1.0,1.0,2.0,10.00
2024-10-11 20:39:28.315,1.2352512,0.5406287,0.45632112,1.1222104,0.788715,-0.005404884,-0.044628445,0.49777216,0.6371275,-0.02982208,0.17257072,0.6418702,0.49173012,-0.041376334,0.3168703,0.8972156,0.2571639,-0.4105864,0.13073044,0.1685456,786.1172,800.2198,790.9524,793.7729,849.3773,-0.0562744140625,0.0753173828125,1.00469970703125,2.205657958984375,8.860015869140625,4.029998779296875,1,2.0,1.0,1.0,2.0,10.00
2024-10-11 20:39:28.315,1.2352512,0.5406287,0.45632112,1.1222104,0.788715,-0.005404884,-0.044628445,0.49777216,0.6371275,-0.02982208,0.17257072,0.6418702,0.49173012,-0.041376334,0.3168703,0.8972156,0.2571639,-0.4105864,0.13073044,0.1685456,795.38464,802.23444,799.41394,789.7436,774.0293,-0.0562744140625,0.0753173828125,1.00469970703125,2.205657958984375,8.860015869140625,4.029998779296875,1,2.0,1.0,1.0,2.0,10.00
2024-10-11 20:39:28.316,1.2352512,0.5406287,0.45632112,1.1222104,0.788715,-0.005404884,-0.044628445,0.49777216,0.6371275,-0.02982208,0.17257072,0.6418702,0.49173012,-0.041376334,0.3168703,0.8972156,0.2571639,-0.4105864,0.13073044,0.1685456,804.2491,803.44324,801.4286,805.8608,595.9341,-0.0562744140625,0.0753173828125,1.00469970703125,2.205657958984375,8.860015869140625,4.029998779296875,1,2.0,1.0,1.0,2.0,10.00
2024-10-11 20:39:28.317,1.2352512,0.5406287,0.45632112,1.1222104,0.788715,-0.005404884,-0.044628445,0.49777216,0.6371275,-0.02982208,0.17257072,0.6418702,0.49173012,-0.041376334,0.3168703,0.8972156,0.2571639,-0.4105864,0.13073044,0.1685456,809.0842,799.41394,797.8022,810.293,623.73627,-0.0562744140625,0.0753173828125,1.00469970703125,2.205657958984375,8.860015869140625,4.029998779296875,1,2.0,1.0,1.0,2.0,10.00
2024-10-11 20:39:28.317,1.2352512,0.5406287,0.45632112,1.1222104,0.788715,-0.005404884,-0.044628445,0.49777216,0.6371275,-0.02982208,0.17257072,0.6418702,0.49173012,-0.041376334,0.3168703,0.8972156,0.2571639,-0.4105864,0.13073044,0.1685456,799.81683,796.1905,798.60803,797.8022,820.3663,-0.0562744140625,0.0753173828125,1.00469970703125,2.205657958984375,8.860015869140625,4.029998779296875,1,2.0,1.0,1.0,2.0,10.00
2024-10-11 20:39:28.318,1.2352512,0.5406287,0.45632112,1.1222104,0.788715,-0.005404884,-0.044628445,0.49777216,0.6371275,-0.02982208,0.17257072,0.6418702,0.49173012,-0.041376334,0.3168703,0.8972156,0.2571639,-0.4105864,0.13073044,0.1685456,792.96704,803.0403,794.17584,792.1612,698.2784,-0.0562744140625,0.0753173828125,1.00469970703125,2.205657958984375,8.860015869140625,4.029998779296875,1,2.0,1.0,1.0,2.0,10.00
2024-10-11 20:39:28.319,1.2352512,0.5406287,0.45632112,1.1222104,0.788715,-0.005404884,-0.044628445,0.49777216,0.6371275,-0.02982208,0.17257072,0.6418702,0.49173012,-0.041376334,0.3168703,0.8972156,0.2571639,-0.4105864,0.13073044,0.1685456,811.0989,804.2491,795.38464,798.20514,540.32965,-0.0562744140625,0.0753173828125,1.00469970703125,2.205657958984375,8.860015869140625,4.029998779296875,1,2.0,1.0,1.0,2.0,10.00
2024-10-11 20:39:28.319,1.2352512,0.5406287,0.45632112,1.1222104,0.788715,-0.005404884,-0.044628445,0.49777216,0.6371275,-0.02982208,0.17257072,0.6418702,0.49173012,-0.041376334,0.3168703,0.8972156,0.2571639,-0.4105864,0.13073044,0.1685456,815.9341,800.2198,802.23444,806.26373,728.9011,-0.0562744140625,0.0753173828125,1.00469970703125,2.205657958984375,8.860015869140625,4.029998779296875,1,2.0,1.0,1.0,2.0,10.00
2024-10-11 20:39:28.320,1.2352512,0.5406287,0.45632112,1.1222104,0.788715,-0.005404884,-0.044628445,0.49777216,0.6371275,-0.02982208,0.17257072,0.6418702,0.49173012,-0.041376334,0.3168703,0.8972156,0.2571639,-0.4105864,0.13073044,0.1685456,806.6667,797.8022,807.47253,809.4872,944.0659,-0.0562744140625,0.0753173828125,1.00469970703125,2.205657958984375,8.860015869140625,4.029998779296875,1,2.0,1.0,1.0,2.0,10.00
2024-10-11 20:39:28.320,1.2352512,0.5406287,0.45632112,1.1222104,0.788715,-0.005404884,-0.044628445,0.49777216,0.6371275,-0.02982208,0.17257072,0.6418702,0.49173012,-0.041376334,0.3168703,0.8972156,0.2571639,-0.4105864,0.13073044,0.1685456,802.6374,794.9817,807.8755,809.89014,793.7729,-0.0562744140625,0.0753173828125,1.00469970703125,2.205657958984375,8.860015869140625,4.029998779296875,1,2.0,1.0,1.0,2.0,10.00
2024-10-11 20:39:28.321,1.2352512,0.5406287,0.45632112,1.1222104,0.788715,-0.005404884,-0.044628445,0.49777216,0.6371275,-0.02982208,0.17257072,0.6418702,0.49173012,-0.041376334,0.3168703,0.8972156,0.2571639,-0.4105864,0.13073044,0.1685456,800.2198,798.20514,800.6227,805.4579,622.9304,-0.0562744140625,0.0753173828125,1.00469970703125,2.205657958984375,8.860015869140625,4.029998779296875,1,2.0,1.0,1.0,2.0,10.00
2024-10-11 20:39:28.321,1.2352512,0.5406287,0.45632112,1.1222104,0.788715,-0.005404884,-0.044628445,0.49777216,0.6371275,-0.02982208,0.17257072,0.6418702,0.49173012,-0.041376334,0.3168703,0.8972156,0.2571639,-0.4105864,0.13073044,0.1685456,800.2198,799.81683,802.23444,810.696,621.31866,-0.0562744140625,0.0753173828125,1.00469970703125,2.205657958984375,8.860015869140625,4.029998779296875,1,2.0,1.0,1.0,2.0,10.00
2024-10-11 20:39:28.322,1.2352512,0.5406287,0.45632112,1.1222104,0.788715,-0.005404884,-0.044628445,0.49777216,0.6371275,-0.02982208,0.17257072,0.6418702,0.49173012,-0.041376334,0.3168703,0.8972156,0.2571639,-0.4105864,0.13073044,0.1685456,797.3993,799.81683,809.89014,814.3223,707.9487,-0.0562744140625,0.0753173828125,1.00469970703125,2.205657958984375,8.860015869140625,4.029998779296875,1,2.0,1.0,1.0,2.0,10.00
2024-10-11 20:39:28.323,1.2352512,0.5406287,0.45632112,1.1222104,0.788715,-0.005404884,-0.044628445,0.49777216,0.6371275,-0.02982208,0.17257072,0.6418702,0.49173012,-0.041376334,0.3168703,0.8972156,0.2571639,-0.4105864,0.13073044,0.1685456,800.2198,788.93774,806.26373,813.5165,634.61536,-0.0562744140625,0.0753173828125,1.00469970703125,2.205657958984375,8.860015869140625,4.029998779296875,1,2.0,1.0,1.0,2.0,10.00
2024-10-11 20:39:28.323,1.2352512,0.5406287,0.45632112,1.1222104,0.788715,-0.005404884,-0.044628445,0.49777216,0.6371275,-0.02982208,0.17257072,0.6418702,0.49173012,-0.041376334,0.3168703,0.8972156,0.2571639,-0.4105864,0.13073044,0.1685456,812.3077,796.5934,790.54944,812.71063,540.7326,-0.0562744140625,0.0753173828125,1.00469970703125,2.205657958984375,8.860015869140625,4.029998779296875,1,2.0,1.0,1.0,2.0,10.00
2024-10-11 20:39:28.324,1.2352512,0.5406287,0.45632112,1.1222104,0.788715,-0.005404884,-0.044628445,0.49777216,0.6371275,-0.02982208,0.17257072,0.6418702,0.49173012,-0.041376334,0.3168703,0.8972156,0.2571639,-0.4105864,0.13073044,0.1685456,814.7253,806.26373,787.326,802.6374,749.45056,-0.0562744140625,0.0753173828125,1.00469970703125,2.205657958984375,8.860015869140625,4.029998779296875,1,2.0,1.0,1.0,2.0,10.00
2024-10-11 20:39:28.365,1.2352512,0.5406287,0.45632112,1.1222104,0.788715,-0.005404884,-0.044628445,0.49777216,0.6371275,-0.02982208,0.17257072,0.6418702,0.49173012,-0.041376334,0.3168703,0.8972156,0.2571639,-0.4105864,0.13073044,0.1685456,803.8461,805.05493,796.99634,803.0403,724.0659,-0.07867431640625,0.07684326171875,1.0030517578125,2.9010009765625,6.65435791015625,2.4822998046875,1,2.0,1.0,1.0,2.0,10.00
2024-10-11 20:39:28.367,1.2352512,0.52119416,0.47831804,1.1222104,0.788715,-0.01774653,-0.06784288,0.49777216,0.6371275,-0.009084517,0.17401709,0.6418702,0.49173012,-0.031147534,0.31256652,0.8972156,0.2571639,-0.41173774,0.12818262,0.1685456,791.3553,807.0696,794.9817,810.696,487.94873,-0.07867431640625,0.07684326171875,1.0030517578125,2.9010009765625,6.65435791015625,2.4822998046875,1,2.0,1.0,1.0,2.0,10.00
2024-10-11 20:39:28.375,1.2352512,0.52119416,0.47831804,1.1222104,0.788715,-0.01774653,-0.06784288,0.49777216,0.6371275,-0.009084517,0.17401709,0.6418702,0.49173012,-0.031147534,0.31256652,0.8972156,0.2571639,-0.41173774,0.12818262,0.1685456,794.9817,802.6374,797.8022,809.0842,520.58606,-0.07867431640625,0.07684326171875,1.0030517578125,2.9010009765625,6.65435791015625,2.4822998046875,1,2.0,1.0,1.0,2.0,10.00
2024-10-11 20:39:28.376,1.2352512,0.52119416,0.47831804,1.1222104,0.788715,-0.01774653,-0.06784288,0.49777216,0.6371275,-0.009084517,0.17401709,0.6418702,0.49173012,-0.031147534,0.31256652,0.8972156,0.2571639,-0.41173774,0.12818262,0.1685456,803.44324,796.1905,795.78754,790.14655,689.81683,-0.07867431640625,0.07684326171875,1.0030517578125,2.9010009765625,6.65435791015625,2.4822998046875,1,2.0,1.0,1.0,2.0,10.00
2024-10-11 20:39:28.377,1.2352512,0.52119416,0.47831804,1.1222104,0.788715,-0.01774653,-0.06784288,0.49777216,0.6371275,-0.009084517,0.17401709,0.6418702,0.49173012,-0.031147534,0.31256652,0.8972156,0.2571639,-0.41173774,0.12818262,0.1685456,795.38464,792.5641,792.96704,788.5348,631.79486,-0.07867431640625,0.07684326171875,1.0030517578125,2.9010009765625,6.65435791015625,2.4822998046875,1,2.0,1.0,1.0,2.0,10.00
2024-10-11 20:39:28.378,1.2352512,0.52119416,0.47831804,1.1222104,0.788715,-0.01774653,-0.06784288,0.49777216,0.6371275,-0.009084517,0.17401709,0.6418702,0.49173012,-0.031147534,0.31256652,0.8972156,0.2571639,-0.41173774,0.12818262,0.1685456,797.3993,792.5641,792.96704,806.26373,582.23444,-0.07867431640625,0.07684326171875,1.0030517578125,2.9010009765625,6.65435791015625,2.4822998046875,1,2.0,1.0,1.0,2.0,10.00
2024-10-11 20:39:28.379,1.2352512,0.52119416,0.47831804,1.1222104,0.788715,-0.01774653,-0.06784288,0.49777216,0.6371275,-0.009084517,0.17401709,0.6418702,0.49173012,-0.031147534,0.31256652,0.8972156,0.2571639,-0.41173774,0.12818262,0.1685456,801.8315,788.1319,797.8022,800.6227,640.2564,-0.07867431640625,0.07684326171875,1.0030517578125,2.9010009765625,6.65435791015625,2.4822998046875,1,2.0,1.0,1.0,2.0,10.00
2024-10-11 20:39:28.380,1.2352512,0.52119416,0.47831804,1.1222104,0.788715,-0.01774653,-0.06784288,0.49777216,0.6371275,-0.009084517,0.17401709,0.6418702,0.49173012,-0.031147534,0.31256652,0.8972156,0.2571639,-0.41173774,0.12818262,0.1685456,793.7729,790.54944,801.8315,793.36993,882.8205,-0.07867431640625,0.07684326171875,1.0030517578125,2.9010009765625,6.65435791015625,2.4822998046875,1,2.0,1.0,1.0,2.0,10.00
2024-10-11 20:39:28.381,1.2352512,0.52119416,0.47831804,1.1222104,0.788715,-0.01774653,-0.06784288,0.49777216,0.6371275,-0.009084517,0.17401709,0.6418702,0.49173012,-0.031147534,0.31256652,0.8972156,0.2571639,-0.41173774,0.12818262,0.1685456,784.10254,793.36993,791.3553,801.4286,1111.2821,-0.07867431640625,0.07684326171875,1.0030517578125,2.9010009765625,6.65435791015625,2.4822998046875,1,2.0,1.0,1.0,2.0,10.00
2024-10-11 20:39:28.381,1.2352512,0.52119416,0.47831804,1.1222104,0.788715,-0.01774653,-0.06784288,0.49777216,0.6371275,-0.009084517,0.17401709,0.6418702,0.49173012,-0.031147534,0.31256652,0.8972156,0.2571639,-0.41173774,0.12818262,0.1685456,794.57874,795.78754,791.75824,802.23444,1122.1611,-0.07867431640625,0.07684326171875,1.0030517578125,2.9010009765625,6.65435791015625,2.4822998046875,1,2.0,1.0,1.0,2.0,10.00
2024-10-11 20:39:28.382,1.2352512,0.52119416,0.47831804,1.1222104,0.788715,-0.01774653,-0.06784288,0.49777216,0.6371275,-0.009084517,0.17401709,0.6418702,0.49173012,-0.031147534,0.31256652,0.8972156,0.2571639,-0.41173774,0.12818262,0.1685456,811.9048,802.6374,801.8315,793.7729,834.4689,-0.07867431640625,0.07684326171875,1.0030517578125,2.9010009765625,6.65435791015625,2.4822998046875,1,2.0,1.0,1.0,2.0,10.00
2024-10-11 20:39:28.383,1.2352512,0.52119416,0.47831804,1.1222104,0.788715,-0.01774653,-0.06784288,0.49777216,0.6371275,-0.009084517,0.17401709,0.6418702,0.49173012,-0.031147534,0.31256652,0.8972156,0.2571639,-0.41173774,0.12818262,0.1685456,807.47253,799.81683,803.0403,799.81683,584.2491,-0.07867431640625,0.07684326171875,1.0030517578125,2.9010009765625,6.65435791015625,2.4822998046875,1,2.0,1.0,1.0,2.0,10.00
2024-10-11 20:39:28.384,1.2352512,0.52119416,0.47831804,1.1222104,0.788715,-0.01774653,-0.06784288,0.49777216,0.6371275,-0.009084517,0.17401709,0.6418702,0.49173012,-0.031147534,0.31256652,0.8972156,0.2571639,-0.41173774,0.12818262,0.1685456,801.4286,796.1905,799.011,813.1135,501.24542,-0.09393310546875,0.08502197265625,1.00457763671875,2.930908203125,5.63751220703125,1.158905029296875,1,2.0,1.0,1.0,2.0,10.00
2024-10-11 20:39:28.384,1.2352512,0.52119416,0.47831804,1.1222104,0.788715,-0.01774653,-0.06784288,0.49777216,0.6371275,-0.009084517,0.17401709,0.6418702,0.49173012,-0.031147534,0.31256652,0.8972156,0.2571639,-0.41173774,0.12818262,0.1685456,800.6227,795.78754,799.011,812.71063,439.59708,-0.09393310546875,0.08502197265625,1.00457763671875,2.930908203125,5.63751220703125,1.158905029296875,1,2.0,1.0,1.0,2.0,10.00
2024-10-11 20:39:28.385,1.2352512,0.52119416,0.47831804,1.1222104,0.788715,-0.01774653,-0.06784288,0.49777216,0.6371275,-0.009084517,0.17401709,0.6418702,0.49173012,-0.031147534,0.31256652,0.8972156,0.2571639,-0.41173774,0.12818262,0.1685456,799.011,794.17584,800.6227,796.5934,524.61536,-0.09393310546875,0.08502197265625,1.00457763671875,2.930908203125,5.63751220703125,1.158905029296875,1,2.0,1.0,1.0,2.0,10.00
2024-10-11 20:39:28.386,1.2352512,0.52119416,0.47831804,1.1222104,0.788715,-0.01774653,-0.06784288,0.49777216,0.6371275,-0.009084517,0.17401709,0.6418702,0.49173012,-0.031147534,0.31256652,0.8972156,0.2571639,-0.41173774,0.12818262,0.1685456,810.696,794.9817,799.81683,782.0879,579.011,-0.09393310546875,0.08502197265625,1.00457763671875,2.930908203125,5.63751220703125,1.158905029296875,1,2.0,1.0,1.0,2.0,10.00
2024-10-11 20:39:28.386,1.2352512,0.52119416,0.47831804,1.1222104,0.788715,-0.01774653,-0.06784288,0.49777216,0.6371275,-0.009084517,0.17401709,0.6418702,0.49173012,-0.031147534,0.31256652,0.8972156,0.2571639,-0.41173774,0.12818262,0.1685456,813.91943,793.36993,797.8022,790.9524,554.43225,-0.09393310546875,0.08502197265625,1.00457763671875,2.930908203125,5.63751220703125,1.158905029296875,1,2.0,1.0,1.0,2.0,10.00
2024-10-11 20:39:28.387,1.2352512,0.52119416,0.47831804,1.1222104,0.788715,-0.01774653,-0.06784288,0.49777216,0.6371275,-0.009084517,0.17401709,0.6418702,0.49173012,-0.031147534,0.31256652,0.8972156,0.2571639,-0.41173774,0.12818262,0.1685456,796.99634,792.96704,795.38464,795.38464,585.4579,-0.09393310546875,0.08502197265625,1.00457763671875,2.930908203125,5.63751220703125,1.158905029296875,1,2.0,1.0,1.0,2.0,10.00
2024-10-11 20:39:28.388,1.2352512,0.52119416,0.47831804,1.1222104,0.788715,-0.01774653,-0.06784288,0.49777216,0.6371275,-0.009084517,0.17401709,0.6418702,0.49173012,-0.031147534,0.31256652,0.8972156,0.2571639,-0.41173774,0.12818262,0.1685456,789.34064,790.14655,800.2198,802.23444,745.82416,-0.09393310546875,0.08502197265625,1.00457763671875,2.930908203125,5.63751220703125,1.158905029296875,1,2.0,1.0,1.0,2.0,10.00
2024-10-11 20:39:28.388,1.2352512,0.52119416,0.47831804,1.1222104,0.788715,-0.01774653,-0.06784288,0.49777216,0.6371275,-0.009084517,0.17401709,0.6418702,0.49173012,-0.031147534,0.31256652,0.8972156,0.2571639,-0.41173774,0.12818262,0.1685456,792.1612,788.5348,800.6227,803.44324,952.1245,-0.09393310546875,0.08502197265625,1.00457763671875,2.930908203125,5.63751220703125,1.158905029296875,1,2.0,1.0,1.0,2.0,10.00
2024-10-11 20:39:28.389,1.2352512,0.52119416,0.47831804,1.1222104,0.788715,-0.01774653,-0.06784288,0.49777216,0.6371275,-0.009084517,0.17401709,0.6418702,0.49173012,-0.031147534,0.31256652,0.8972156,0.2571639,-0.41173774,0.12818262,0.1685456,802.23444,794.17584,801.02563,798.60803,665.64105,-0.09393310546875,0.08502197265625,1.00457763671875,2.930908203125,5.63751220703125,1.158905029296875,1,2.0,1.0,1.0,2.0,10.00
2024-10-11 20:39:28.389,1.2352512,0.52119416,0.47831804,1.1222104,0.788715,-0.01774653,-0.06784288,0.49777216,0.6371275,-0.009084517,0.17401709,0.6418702,0.49173012,-0.031147534,0.31256652,0.8972156,0.2571639,-0.41173774,0.12818262,0.1685456,804.65204,790.14655,801.02563,802.23444,532.27106,-0.09393310546875,0.08502197265625,1.00457763671875,2.930908203125,5.63751220703125,1.158905029296875,1,2.0,1.0,1.0,2.0,10.00
2024-10-11 20:39:28.390,1.2352512,0.52119416,0.47831804,1.1222104,0.788715,-0.01774653,-0.06784288,0.49777216,0.6371275,-0.009084517,0.17401709,0.6418702,0.49173012,-0.031147534,0.31256652,0.8972156,0.2571639,-0.41173774,0.12818262,0.1685456,793.7729,782.8938,801.4286,801.02563,674.90845,-0.09393310546875,0.08502197265625,1.00457763671875,2.930908203125,5.63751220703125,1.158905029296875,1,2.0,1.0,1.0,2.0,10.00
2024-10-11 20:39:28.391,1.2352512,0.52119416,0.47831804,1.1222104,0.788715,-0.01774653,-0.06784288,0.49777216,0.6371275,-0.009084517,0.17401709,0.6418702,0.49173012,-0.031147534,0.31256652,0.8972156,0.2571639,-0.41173774,0.12818262,0.1685456,799.011,798.20514,801.4286,798.20514,621.31866,-0.09393310546875,0.08502197265625,1.00457763671875,2.930908203125,5.63751220703125,1.158905029296875,1,2.0,1.0,1.0,2.0,10.00
2024-10-11 20:39:28.457,1.2352512,0.52119416,0.47831804,1.1222104,0.788715,-0.01774653,-0.06784288,0.49777216,0.6371275,-0.009084517,0.17401709,0.6418702,0.49173012,-0.031147534,0.31256652,0.8972156,0.2571639,-0.41173774,0.12818262,0.1685456,803.8461,806.26373,798.20514,790.14655,516.55676,-0.08966064453125,0.0877685546875,0.99755859375,2.983245849609375,3.72344970703125,-0.0897216796875,1,2.0,1.0,1.0,2.0,10.00
2024-10-11 20:39:28.458,1.2352512,0.52119416,0.47831804,1.1222104,0.788715,-0.01774653,-0.06784288,0.49777216,0.6371275,-0.009084517,0.17401709,0.6418702,0.49173012,-0.031147534,0.31256652,0.8972156,0.2571639,-0.41173774,0.12818262,0.1685456,787.72894,801.02563,796.99634,785.31134,516.1539,-0.08966064453125,0.0877685546875,0.99755859375,2.983245849609375,3.72344970703125,-0.0897216796875,1,2.0,1.0,1.0,2.0,10.00
2024-10-11 20:39:28.459,1.2352512,0.52119416,0.47831804,1.1222104,0.788715,-0.01774653,-0.06784288,0.49777216,0.6371275,-0.009084517,0.17401709,0.6418702,0.49173012,-0.031147534,0.31256652,0.8972156,0.2571639,-0.41173774,0.12818262,0.1685456,785.31134,800.6227,797.8022,797.8022,652.74725,-0.08966064453125,0.0877685546875,0.99755859375,2.983245849609375,3.72344970703125,-0.0897216796875,1,2.0,1.0,1.0,2.0,10.00
2024-10-11 20:39:28.459,1.2352512,0.49201313,0.47499186,1.1222104,0.788715,-0.034086443,-0.089106396,0.49777216,0.6371275,0.022071583,0.17401709,0.6418702,0.49173012,-0.016308745,0.31135345,0.8972156,0.2571639,-0.414441,0.12609527,0.1685456,799.41394,801.8315,793.36993,800.2198,688.20514,-0.08966064453125,0.0877685546875,0.99755859375,2.983245849609375,3.72344970703125,-0.0897216796875,1,2.0,1.0,1.0,2.0,10.00
2024-10-11 20:39:28.464,1.2352512,0.49201313,0.47499186,1.1222104,0.788715,-0.034086443,-0.089106396,0.49777216,0.6371275,0.022071583,0.17401709,0.6418702,0.49173012,-0.016308745,0.31135345,0.8972156,0.2571639,-0.414441,0.12609527,0.1685456,797.3993,805.8608,796.99634,794.57874,605.6044,-0.08966064453125,0.0877685546875,0.99755859375,2.983245849609375,3.72344970703125,-0.0897216796875,1,2.0,1.0,1.0,2.0,10.00
2024-10-11 20:39:28.465,1.2352512,0.49201313,0.47499186,1.1222104,0.788715,-0.034086443,-0.089106396,0.49777216,0.6371275,0.022071583,0.17401709,0.6418702,0.49173012,-0.016308745,0.31135345,0.8972156,0.2571639,-0.414441,0.12609527,0.1685456,795.78754,803.0403,806.6667,799.41394,767.98535,-0.08966064453125,0.0877685546875,0.99755859375,2.983245849609375,3.72344970703125,-0.0897216796875,1,2.0,1.0,1.0,2.0,10.00
2024-10-11 20:39:28.466,1.2352512,0.49201313,0.47499186,1.1222104,0.788715,-0.034086443,-0.089106396,0.49777216,0.6371275,0.022071583,0.17401709,0.6418702,0.49173012,-0.016308745,0.31135345,0.8972156,0.2571639,-0.414441,0.12609527,0.1685456,808.2784,793.36993,803.44324,807.8755,1081.0623,-0.08966064453125,0.0877685546875,0.99755859375,2.983245849609375,3.72344970703125,-0.0897216796875,1,2.0,1.0,1.0,2.0,10.00
2024-10-11 20:39:28.466,1.2352512,0.49201313,0.47499186,1.1222104,0.788715,-0.034086443,-0.089106396,0.49777216,0.6371275,0.022071583,0.17401709,0.6418702,0.49173012,-0.016308745,0.31135345,0.8972156,0.2571639,-0.414441,0.12609527,0.1685456,815.9341,800.6227,799.81683,812.3077,927.9487,-0.08966064453125,0.0877685546875,0.99755859375,2.983245849609375,3.72344970703125,-0.0897216796875,1,2.0,1.0,1.0,2.0,10.00
2024-10-11 20:39:28.467,1.2352512,0.49201313,0.47499186,1.1222104,0.788715,-0.034086443,-0.089106396,0.49777216,0.6371275,0.022071583,0.17401709,0.6418702,0.49173012,-0.016308745,0.31135345,0.8972156,0.2571639,-0.414441,0.12609527,0.1685456,804.2491,809.0842,799.81683,801.8315,574.9817,-0.08966064453125,0.0877685546875,0.99755859375,2.983245849609375,3.72344970703125,-0.0897216796875,1,2.0,1.0,1.0,2.0,10.00
2024-10-11 20:39:28.468,1.2352512,0.49201313,0.47499186,1.1222104,0.788715,-0.034086443,-0.089106396,0.49777216,0.6371275,0.022071583,0.17401709,0.6418702,0.49173012,-0.016308745,0.31135345,0.8972156,0.2571639,-0.414441,0.12609527,0.1685456,792.5641,801.4286,799.011,788.93774,604.3956,-0.08966064453125,0.0877685546875,0.99755859375,2.983245849609375,3.72344970703125,-0.0897216796875,1,2.0,1.0,1.0,2.0,10.00
2024-10-11 20:39:28.468,1.2352512,0.49201313,0.47499186,1.1222104,0.788715,-0.034086443,-0.089106396,0.49777216,0.6371275,0.022071583,0.17401709,0.6418702,0.49173012,-0.016308745,0.31135345,0.8972156,0.2571639,-0.414441,0.12609527,0.1685456,797.8022,793.7729,801.02563,788.1319,676.1172,-0.08966064453125,0.0877685546875,0.99755859375,2.983245849609375,3.72344970703125,-0.0897216796875,1,2.0,1.0,1.0,2.0,10.00
2024-10-11 20:39:28.469,1.2352512,0.49201313,0.47499186,1.1222104,0.788715,-0.034086443,-0.089106396,0.49777216,0.6371275,0.022071583,0.17401709,0.6418702,0.49173012,-0.016308745,0.31135345,0.8972156,0.2571639,-0.414441,0.12609527,0.1685456,801.02563,784.90845,801.4286,796.99634,606.0073,-0.08966064453125,0.0877685546875,0.99755859375,2.983245849609375,3.72344970703125,-0.0897216796875,1,2.0,1.0,1.0,2.0,10.00
2024-10-11 20:39:28.470,1.2352512,0.49201313,0.47499186,1.1222104,0.788715,-0.034086443,-0.089106396,0.49777216,0.6371275,0.022071583,0.17401709,0.6418702,0.49173012,-0.016308745,0.31135345,0.8972156,0.2571639,-0.414441,0.12609527,0.1685456,801.8315,793.7729,805.05493,795.38464,585.8608,-0.07977294921875,0.08721923828125,1.00592041015625,3.895416259765625,-0.545806884765625,0.2093505859375,1,2.0,1.0,1.0,2.0,10.00
2024-10-11 20:39:28.470,1.2352512,0.49201313,0.47499186,1.1222104,0.788715,-0.034086443,-0.089106396,0.49777216,0.6371275,0.022071583,0.17401709,0.6418702,0.49173012,-0.016308745,0.31135345,0.8972156,0.2571639,-0.414441,0.12609527,0.1685456,802.23444,809.0842,806.26373,794.17584,608.4249,-0.07977294921875,0.08721923828125,1.00592041015625,3.895416259765625,-0.545806884765625,0.2093505859375,1,2.0,1.0,1.0,2.0,10.00
2024-10-11 20:39:28.471,1.2352512,0.49201313,0.47499186,1.1222104,0.788715,-0.034086443,-0.089106396,0.49777216,0.6371275,0.022071583,0.17401709,0.6418702,0.49173012,-0.016308745,0.31135345,0.8972156,0.2571639,-0.414441,0.12609527,0.1685456,793.36993,804.65204,799.41394,800.2198,764.7619,-0.07977294921875,0.08721923828125,1.00592041015625,3.895416259765625,-0.545806884765625,0.2093505859375,1,2.0,1.0,1.0,2.0,10.00
2024-10-11 20:39:28.471,1.2352512,0.49201313,0.47499186,1.1222104,0.788715,-0.034086443,-0.089106396,0.49777216,0.6371275,0.022071583,0.17401709,0.6418702,0.49173012,-0.016308745,0.31135345,0.8972156,0.2571639,-0.414441,0.12609527,0.1685456,799.81683,795.78754,794.17584,786.1172,728.0952,-0.07977294921875,0.08721923828125,1.00592041015625,3.895416259765625,-0.545806884765625,0.2093505859375,1,2.0,1.0,1.0,2.0,10.00
2024-10-11 20:39:28.472,1.2352512,0.49201313,0.47499186,1.1222104,0.788715,-0.034086443,-0.089106396,0.49777216,0.6371275,0.022071583,0.17401709,0.6418702,0.49173012,-0.016308745,0.31135345,0.8972156,0.2571639,-0.414441,0.12609527,0.1685456,794.9817,796.1905,792.5641,782.8938,596.7399,-0.07977294921875,0.08721923828125,1.00592041015625,3.895416259765625,-0.545806884765625,0.2093505859375,1,2.0,1.0,1.0,2.0,10.00
2024-10-11 20:39:28.473,1.2352512,0.49201313,0.47499186,1.1222104,0.788715,-0.034086443,-0.089106396,0.49777216,0.6371275,0.022071583,0.17401709,0.6418702,0.49173012,-0.016308745,0.31135345,0.8972156,0.2571639,-0.414441,0.12609527,0.1685456,792.1612,803.0403,794.17584,792.96704,811.0989,-0.07977294921875,0.08721923828125,1.00592041015625,3.895416259765625,-0.545806884765625,0.2093505859375,1,2.0,1.0,1.0,2.0,10.00
2024-10-11 20:39:28.473,1.2352512,0.49201313,0.47499186,1.1222104,0.788715,-0.034086443,-0.089106396,0.49777216,0.6371275,0.022071583,0.17401709,0.6418702,0.49173012,-0.016308745,0.31135345,0.8972156,0.2571639,-0.414441,0.12609527,0.1685456,796.99634,800.2198,788.93774,797.8022,978.315,-0.07977294921875,0.08721923828125,1.00592041015625,3.895416259765625,-0.545806884765625,0.2093505859375,1,2.0,1.0,1.0,2.0,10.00
2024-10-11 20:39:28.474,1.2352512,0.49201313,0.47499186,1.1222104,0.788715,-0.034086443,-0.089106396,0.49777216,0.6371275,0.022071583,0.17401709,0.6418702,0.49173012,-0.016308745,0.31135345,0.8972156,0.2571639,-0.414441,0.12609527,0.1685456,795.38464,787.326,794.9817,799.81683,751.4652,-0.07977294921875,0.08721923828125,1.00592041015625,3.895416259765625,-0.545806884765625,0.2093505859375,1,2.0,1.0,1.0,2.0,10.00
2024-10-11 20:39:28.474,1.2352512,0.49201313,0.47499186,1.1222104,0.788715,-0.034086443,-0.089106396,0.49777216,0.6371275,0.022071583,0.17401709,0.6418702,0.49173012,-0.016308745,0.31135345,0.8972156,0.2571639,-0.414441,0.12609527,0.1685456,801.02563,794.9817,799.81683,801.4286,577.3993,-0.07977294921875,0.08721923828125,1.00592041015625,3.895416259765625,-0.545806884765625,0.2093505859375,1,2.0,1.0,1.0,2.0,10.00
2024-10-11 20:39:28.475,1.2352512,0.49201313,0.47499186,1.1222104,0.788715,-0.034086443,-0.089106396,0.49777216,0.6371275,0.022071583,0.17401709,0.6418702,0.49173012,-0.016308745,0.31135345,0.8972156,0.2571639,-0.414441,0.12609527,0.1685456,803.8461,805.05493,798.20514,797.8022,668.86444,-0.07977294921875,0.08721923828125,1.00592041015625,3.895416259765625,-0.545806884765625,0.2093505859375,1,2.0,1.0,1.0,2.0,10.00
2024-10-11 20:39:28.476,1.2352512,0.49201313,0.47499186,1.1222104,0.788715,-0.034086443,-0.089106396,0.49777216,0.6371275,0.022071583,0.17401709,0.6418702,0.49173012,-0.016308745,0.31135345,0.8972156,0.2571639,-0.414441,0.12609527,0.1685456,796.1905,797.3993,800.2198,797.3993,713.1868,-0.07977294921875,0.08721923828125,1.00592041015625,3.895416259765625,-0.545806884765625,0.2093505859375,1,2.0,1.0,1.0,2.0,10.00
2024-10-11 20:39:28.476,1.2352512,0.49201313,0.47499186,1.1222104,0.788715,-0.034086443,-0.089106396,0.49777216,0.6371275,0.022071583,0.17401709,0.6418702,0.49173012,-0.016308745,0.31135345,0.8972156,0.2571639,-0.414441,0.12609527,0.1685456,796.99634,797.8022,799.41394,791.75824,610.0366,-0.07977294921875,0.08721923828125,1.00592041015625,3.895416259765625,-0.545806884765625,0.2093505859375,1,2.0,1.0,1.0,2.0,10.00
2024-10-11 20:39:28.572,1.2352512,0.49201313,0.47499186,1.1222104,0.788715,-0.034086443,-0.089106396,0.49777216,0.6371275,0.022071583,0.17401709,0.6418702,0.49173012,-0.016308745,0.31135345,0.8972156,0.2571639,-0.414441,0.12609527,0.1685456,804.65204,794.9817,793.7729,792.5641,651.13556,-0.07977294921875,0.08721923828125,1.00592041015625,3.895416259765625,-0.545806884765625,0.2093505859375,1,2.0,1.0,1.0,2.0,10.00
2024-10-11 20:39:28.573,1.2352512,0.49201313,0.47499186,1.1222104,0.788715,-0.034086443,-0.089106396,0.49777216,0.6371275,0.022071583,0.17401709,0.6418702,0.49173012,-0.016308745,0.31135345,0.8972156,0.2571639,-0.414441,0.12609527,0.1685456,808.68134,790.9524,796.5934,796.5934,747.4359,-0.07977294921875,0.08721923828125,1.00592041015625,3.895416259765625,-0.545806884765625,0.2093505859375,1,2.0,1.0,1.0,2.0,10.00
2024-10-11 20:39:28.574,1.2352512,0.49201313,0.47499186,1.1222104,0.788715,-0.034086443,-0.089106396,0.49777216,0.6371275,0.022071583,0.17401709,0.6418702,0.49173012,-0.016308745,0.31135345,0.8972156,0.2571639,-0.414441,0.12609527,0.1685456,803.8461,796.5934,803.0403,796.1905,792.1612,-0.07977294921875,0.08721923828125,1.00592041015625,3.895416259765625,-0.545806884765625,0.2093505859375,1,2.0,1.0,1.0,2.0,10.00
2024-10-11 20:39:28.574,1.2352512,0.49201313,0.47499186,1.1222104,0.788715,-0.034086443,-0.089106396,0.49777216,0.6371275,0.022071583,0.17401709,0.6418702,0.49173012,-0.016308745,0.31135345,0.8972156,0.2571639,-0.414441,0.12609527,0.1685456,787.72894,798.60803,798.60803,797.3993,719.6337,-0.07977294921875,0.08721923828125,1.00592041015625,3.895416259765625,-0.545806884765625,0.2093505859375,1,2.0,1.0,1.0,2.0,10.00
2024-10-11 20:39:28.575,1.2352512,0.49201313,0.47499186,1.1222104,0.788715,-0.034086443,-0.089106396,0.49777216,0.6371275,0.022071583,0.17401709,0.6418702,0.49173012,-0.016308745,0.31135345,0.8972156,0.2571639,-0.414441,0.12609527,0.1685456,786.1172,798.60803,795.38464,793.7729,587.0696,-0.07977294921875,0.08721923828125,1.00592041015625,3.895416259765625,-0.545806884765625,0.2093505859375,1,2.0,1.0,1.0,2.0,10.00
2024-10-11 20:39:28.576,1.2352512,0.46117055,0.45550883,1.1222104,0.788715,-0.05045096,-0.109702684,0.49777216,0.6371275,0.056267746,0.17401709,0.6418702,0.49173012,0.002988471,0.30686373,0.8972156,0.2571639,-0.41616932,0.12148038,0.1685456,796.1905,799.41394,796.5934,792.5641,941.2454,-0.07977294921875,0.08721923828125,1.00592041015625,3.895416259765625,-0.545806884765625,0.2093505859375,1,2.0,1.0,1.0,2.0,10.00
2024-10-11 20:39:28.581,1.2352512,0.46117055,0.45550883,1.1222104,0.788715,-0.05045096,-0.109702684,0.49777216,0.6371275,0.056267746,0.17401709,0.6418702,0.49173012,0.002988471,0.30686373,0.8972156,0.2571639,-0.41616932,0.12148038,0.1685456,800.6227,801.8315,793.7729,797.3993,1324.8352,-0.07977294921875,0.08721923828125,1.00592041015625,3.895416259765625,-0.545806884765625,0.2093505859375,1,2.0,1.0,1.0,2.0,10.00
2024-10-11 20:39:28.581,1.2352512,0.46117055,0.45550883,1.1222104,0.788715,-0.05045096,-0.109702684,0.49777216,0.6371275,0.056267746,0.17401709,0.6418702,0.49173012,0.002988471,0.30686373,0.8972156,0.2571639,-0.41616932,0.12148038,0.1685456,797.3993,803.44324,785.31134,790.54944,973.8828,-0.07977294921875,0.08721923828125,1.00592041015625,3.895416259765625,-0.545806884765625,0.2093505859375,1,2.0,1.0,1.0,2.0,10.00
2024-10-11 20:39:28.582,1.2352512,0.46117055,0.45550883,1.1222104,0.788715,-0.05045096,-0.109702684,0.49777216,0.6371275,0.056267746,0.17401709,0.6418702,0.49173012,0.002988471,0.30686373,0.8972156,0.2571639,-0.41616932,0.12148038,0.1685456,799.41394,798.20514,790.14655,788.1319,699.89014,-0.07977294921875,0.08721923828125,1.00592041015625,3.895416259765625,-0.545806884765625,0.2093505859375,1,2.0,1.0,1.0,2.0,10.00
2024-10-11 20:39:28.583,1.2352512,0.46117055,0.45550883,1.1222104,0.788715,-0.05045096,-0.109702684,0.49777216,0.6371275,0.056267746,0.17401709,0.6418702,0.49173012,0.002988471,0.30686373,0.8972156,0.2571639,-0.41616932,0.12148038,0.1685456,807.47253,797.8022,804.2491,797.3993,821.978,-0.07977294921875,0.08721923828125,1.00592041015625,3.895416259765625,-0.545806884765625,0.2093505859375,1,2.0,1.0,1.0,2.0,10.00
2024-10-11 20:39:28.583,1.2352512,0.46117055,0.45550883,1.1222104,0.788715,-0.05045096,-0.109702684,0.49777216,0.6371275,0.056267746,0.17401709,0.6418702,0.49173012,0.002988471,0.30686373,0.8972156,0.2571639,-0.41616932,0.12148038,0.1685456,814.3223,799.81683,801.8315,792.5641,670.87915,-0.07977294921875,0.08721923828125,1.00592041015625,3.895416259765625,-0.545806884765625,0.2093505859375,1,2.0,1.0,1.0,2.0,10.00
2024-10-11 20:39:28.584,1.2352512,0.46117055,0.45550883,1.1222104,0.788715,-0.05045096,-0.109702684,0.49777216,0.6371275,0.056267746,0.17401709,0.6418702,0.49173012,0.002988471,0.30686373,0.8972156,0.2571639,-0.41616932,0.12148038,0.1685456,811.50183,797.3993,799.41394,793.36993,562.8938,-0.07977294921875,0.08721923828125,1.00592041015625,3.895416259765625,-0.545806884765625,0.2093505859375,1,2.0,1.0,1.0,2.0,10.00
2024-10-11 20:39:28.614,1.2352512,0.46117055,0.45550883,1.1222104,0.788715,-0.05045096,-0.109702684,0.49777216,0.6371275,0.056267746,0.17401709,0.6418702,0.49173012,0.002988471,0.30686373,0.8972156,0.2571639,-0.41616932,0.12148038,0.1685456,805.05493,799.011,798.60803,790.9524,676.9231,-0.03607177734375,0.1085205078125,1.001953125,3.596343994140625,-5.316009521484375,0.61309814453125,1,2.0,1.0,1.0,2.0,10.00
2024-10-11 20:39:28.615,1.2352512,0.46117055,0.45550883,1.1222104,0.788715,-0.05045096,-0.109702684,0.49777216,0.6371275,0.056267746,0.17401709,0.6418702,0.49173012,0.002988471,0.30686373,0.8972156,0.2571639,-0.41616932,0.12148038,0.1685456,804.65204,799.81683,794.17584,784.90845,734.5421,-0.03607177734375,0.1085205078125,1.001953125,3.596343994140625,-5.316009521484375,0.61309814453125,1,2.0,1.0,1.0,2.0,10.00
2024-10-11 20:39:28.615,1.2352512,0.46117055,0.45550883,1.1222104,0.788715,-0.05045096,-0.109702684,0.49777216,0.6371275,0.056267746,0.17401709,0.6418702,0.49173012,0.002988471,0.30686373,0.8972156,0.2571639,-0.41616932,0.12148038,0.1685456,796.1905,796.5934,788.93774,786.1172,662.01465,-0.03607177734375,0.1085205078125,1.001953125,3.596343994140625,-5.316009521484375,0.61309814453125,1,2.0,1.0,1.0,2.0,10.00
2024-10-11 20:39:28.616,1.2352512,0.46117055,0.45550883,1.1222104,0.788715,-0.05045096,-0.109702684,0.49777216,0.6371275,0.056267746,0.17401709,0.6418702,0.49173012,0.002988471,0.30686373,0.8972156,0.2571639,-0.41616932,0.12148038,0.1685456,799.81683,797.8022,788.1319,781.685,637.03296,-0.03607177734375,0.1085205078125,1.001953125,3.596343994140625,-5.316009521484375,0.61309814453125,1,2.0,1.0,1.0,2.0,10.00
2024-10-11 20:39:28.617,1.2352512,0.46117055,0.45550883,1.1222104,0.788715,-0.05045096,-0.109702684,0.49777216,0.6371275,0.056267746,0.17401709,0.6418702,0.49173012,0.002988471,0.30686373,0.8972156,0.2571639,-0.41616932,0.12148038,0.1685456,811.50183,799.41394,788.5348,780.07324,765.56775,-0.03607177734375,0.1085205078125,1.001953125,3.596343994140625,-5.316009521484375,0.61309814453125,1,2.0,1.0,1.0,2.0,10.00
2024-10-11 20:39:28.617,1.2352512,0.46117055,0.45550883,1.1222104,0.788715,-0.05045096,-0.109702684,0.49777216,0.6371275,0.056267746,0.17401709,0.6418702,0.49173012,0.002988471,0.30686373,0.8972156,0.2571639,-0.41616932,0.12148038,0.1685456,815.5311,799.81683,797.8022,789.34064,832.4542,-0.03607177734375,0.1085205078125,1.001953125,3.596343994140625,-5.316009521484375,0.61309814453125,1,2.0,1.0,1.0,2.0,10.00
2024-10-11 20:39:28.618,1.2352512,0.46117055,0.45550883,1.1222104,0.788715,-0.05045096,-0.109702684,0.49777216,0.6371275,0.056267746,0.17401709,0.6418702,0.49173012,0.002988471,0.30686373,0.8972156,0.2571639,-0.41616932,0.12148038,0.1685456,810.293,795.78754,803.44324,787.72894,838.0952,-0.03607177734375,0.1085205078125,1.001953125,3.596343994140625,-5.316009521484375,0.61309814453125,1,2.0,1.0,1.0,2.0,10.00
2024-10-11 20:39:28.618,1.2352512,0.46117055,0.45550883,1.1222104,0.788715,-0.05045096,-0.109702684,0.49777216,0.6371275,0.056267746,0.17401709,0.6418702,0.49173012,0.002988471,0.30686373,0.8972156,0.2571639,-0.41616932,0.12148038,0.1685456,790.54944,791.75824,797.8022,790.9524,848.97437,-0.03607177734375,0.1085205078125,1.001953125,3.596343994140625,-5.316009521484375,0.61309814453125,1,2.0,1.0,1.0,2.0,10.00
2024-10-11 20:39:28.619,1.2352512,0.46117055,0.45550883,1.1222104,0.788715,-0.05045096,-0.109702684,0.49777216,0.6371275,0.056267746,0.17401709,0.6418702,0.49173012,0.002988471,0.30686373,0.8972156,0.2571639,-0.41616932,0.12148038,0.1685456,785.7143,794.57874,799.41394,799.41394,763.5531,-0.03607177734375,0.1085205078125,1.001953125,3.596343994140625,-5.316009521484375,0.61309814453125,1,2.0,1.0,1.0,2.0,10.00
2024-10-11 20:39:28.620,1.2352512,0.46117055,0.45550883,1.1222104,0.788715,-0.05045096,-0.109702684,0.49777216,0.6371275,0.056267746,0.17401709,0.6418702,0.49173012,0.002988471,0.30686373,0.8972156,0.2571639,-0.41616932,0.12148038,0.1685456,793.7729,796.99634,799.41394,804.65204,774.83514,-0.03607177734375,0.1085205078125,1.001953125,3.596343994140625,-5.316009521484375,0.61309814453125,1,2.0,1.0,1.0,2.0,10.00
2024-10-11 20:39:28.620,1.2352512,0.46117055,0.45550883,1.1222104,0.788715,-0.05045096,-0.109702684,0.49777216,0.6371275,0.056267746,0.17401709,0.6418702,0.49173012,0.002988471,0.30686373,0.8972156,0.2571639,-0.41616932,0.12148038,0.1685456,797.3993,797.3993,797.8022,804.2491,755.09155,-0.03607177734375,0.1085205078125,1.001953125,3.596343994140625,-5.316009521484375,0.61309814453125,1,2.0,1.0,1.0,2.0,10.00
2024-10-11 20:39:28.621,1.2352512,0.46117055,0.45550883,1.1222104,0.788715,-0.05045096,-0.109702684,0.49777216,0.6371275,0.056267746,0.17401709,0.6418702,0.49173012,0.002988471,0.30686373,0.8972156,0.2571639,-0.41616932,0.12148038,0.1685456,803.8461,801.02563,802.6374,803.8461,727.28937,-0.03607177734375,0.1085205078125,1.001953125,3.596343994140625,-5.316009521484375,0.61309814453125,1,2.0,1.0,1.0,2.0,10.00
2024-10-11 20:39:28.689,1.2352512,0.46117055,0.45550883,1.1222104,0.788715,-0.05045096,-0.109702684,0.49777216,0.6371275,0.056267746,0.17401709,0.6418702,0.49173012,0.002988471,0.30686373,0.8972156,0.2571639,-0.41616932,0.12148038,0.1685456,804.2491,805.4579,796.1905,800.2198,859.45056,-0.03125,0.11383056640625,1.00103759765625,1.188812255859375,-5.390777587890625,-1.428070068359375,1,2.0,1.0,1.0,2.0,10.00
2024-10-11 20:39:28.690,1.2352512,0.46117055,0.45550883,1.1222104,0.788715,-0.05045096,-0.109702684,0.49777216,0.6371275,0.056267746,0.17401709,0.6418702,0.49173012,0.002988471,0.30686373,0.8972156,0.2571639,-0.41616932,0.12148038,0.1685456,805.4579,808.2784,788.5348,794.57874,962.6007,-0.03125,0.11383056640625,1.00103759765625,1.188812255859375,-5.390777587890625,-1.428070068359375,1,2.0,1.0,1.0,2.0,10.00
2024-10-11 20:39:28.691,1.2352512,0.46117055,0.45550883,1.1222104,0.788715,-0.05045096,-0.109702684,0.49777216,0.6371275,0.056267746,0.17401709,0.6418702,0.49173012,0.002988471,0.30686373,0.8972156,0.2571639,-0.41616932,0.12148038,0.1685456,809.4872,805.4579,799.011,789.7436,882.8205,-0.03125,0.11383056640625,1.00103759765625,1.188812255859375,-5.390777587890625,-1.428070068359375,1,2.0,1.0,1.0,2.0,10.00
2024-10-11 20:39:28.691,1.2352512,0.46117055,0.45550883,1.1222104,0.788715,-0.05045096,-0.109702684,0.49777216,0.6371275,0.056267746,0.17401709,0.6418702,0.49173012,0.002988471,0.30686373,0.8972156,0.2571639,-0.41616932,0.12148038,0.1685456,813.1135,805.4579,801.4286,788.5348,797.8022,-0.03125,0.11383056640625,1.00103759765625,1.188812255859375,-5.390777587890625,-1.428070068359375,1,2.0,1.0,1.0,2.0,10.00
2024-10-11 20:39:28.692,1.2352512,0.46117055,0.45550883,1.1222104,0.788715,-0.05045096,-0.109702684,0.49777216,0.6371275,0.056267746,0.17401709,0.6418702,0.49173012,0.002988471,0.30686373,0.8972156,0.2571639,-0.41616932,0.12148038,0.1685456,809.4872,805.4579,798.20514,796.99634,1004.5055,-0.03125,0.11383056640625,1.00103759765625,1.188812255859375,-5.390777587890625,-1.428070068359375,1,2.0,1.0,1.0,2.0,10.00
2024-10-11 20:39:28.693,1.2352512,0.46117055,0.45550883,1.1222104,0.788715,-0.05045096,-0.109702684,0.49777216,0.6371275,0.056267746,0.17401709,0.6418702,0.49173012,0.002988471,0.30686373,0.8972156,0.2571639,-0.41616932,0.12148038,0.1685456,809.0842,804.2491,799.81683,802.6374,1105.641,-0.03125,0.11383056640625,1.00103759765625,1.188812255859375,-5.390777587890625,-1.428070068359375,1,2.0,1.0,1.0,2.0,10.00
2024-10-11 20:39:28.693,1.2352512,0.46117055,0.45550883,1.1222104,0.788715,-0.05045096,-0.109702684,0.49777216,0.6371275,0.056267746,0.17401709,0.6418702,0.49173012,0.002988471,0.30686373,0.8972156,0.2571639,-0.41616932,0.12148038,0.1685456,814.3223,808.2784,801.8315,803.44324,858.6447,-0.03125,0.11383056640625,1.00103759765625,1.188812255859375,-5.390777587890625,-1.428070068359375,1,2.0,1.0,1.0,2.0,10.00
2024-10-11 20:39:28.694,1.2352512,0.43092012,0.43024197,1.1222104,0.788715,-0.064211406,-0.12911984,0.49777216,0.6371275,0.10544911,0.17401709,0.6418702,0.49173012,0.025737692,0.2970081,0.8972156,0.2571639,-0.41392756,0.11208853,0.1685456,816.7399,805.05493,800.6227,802.23444,857.03296,-0.03125,0.11383056640625,1.00103759765625,1.188812255859375,-5.390777587890625,-1.428070068359375,1,2.0,1.0,1.0,2.0,10.00
2024-10-11 20:39:28.699,1.2352512,0.43092012,0.43024197,1.1222104,0.788715,-0.064211406,-0.12911984,0.49777216,0.6371275,0.10544911,0.17401709,0.6418702,0.49173012,0.025737692,0.2970081,0.8972156,0.2571639,-0.41392756,0.11208853,0.1685456,821.1722,799.81683,799.011,811.0989,1176.1538,-0.03125,0.11383056640625,1.00103759765625,1.188812255859375,-5.390777587890625,-1.428070068359375,1,2.0,1.0,1.0,2.0,10.00
2024-10-11 20:39:28.699,1.2352512,0.43092012,0.43024197,1.1222104,0.788715,-0.064211406,-0.12911984,0.49777216,0.6371275,0.10544911,0.17401709,0.6418702,0.49173012,0.025737692,0.2970081,0.8972156,0.2571639,-0.41392756,0.11208853,0.1685456,822.7839,803.44324,796.1905,811.50183,1014.9817,-0.03125,0.11383056640625,1.00103759765625,1.188812255859375,-5.390777587890625,-1.428070068359375,1,2.0,1.0,1.0,2.0,10.00
2024-10-11 20:39:28.700,1.2352512,0.43092012,0.43024197,1.1222104,0.788715,-0.064211406,-0.12911984,0.49777216,0.6371275,0.10544911,0.17401709,0.6418702,0.49173012,0.025737692,0.2970081,0.8972156,0.2571639,-0.41392756,0.11208853,0.1685456,815.12823,803.8461,790.54944,797.3993,767.98535,-0.03125,0.11383056640625,1.00103759765625,1.188812255859375,-5.390777587890625,-1.428070068359375,1,2.0,1.0,1.0,2.0,10.00
2024-10-11 20:39:28.701,1.2352512,0.43092012,0.43024197,1.1222104,0.788715,-0.064211406,-0.12911984,0.49777216,0.6371275,0.10544911,0.17401709,0.6418702,0.49173012,0.025737692,0.2970081,0.8972156,0.2571639,-0.41392756,0.11208853,0.1685456,809.89014,801.4286,794.17584,802.6374,809.0842,-0.03125,0.11383056640625,1.00103759765625,1.188812255859375,-5.390777587890625,-1.428070068359375,1,2.0,1.0,1.0,2.0,10.00
2024-10-11 20:39:28.805,1.2352512,0.43092012,0.43024197,1.1222104,0.788715,-0.064211406,-0.12911984,0.49777216,0.6371275,0.10544911,0.17401709,0.6418702,0.49173012,0.025737692,0.2970081,0.8972156,0.2571639,-0.41392756,0.11208853,0.1685456,816.337,801.02563,804.2491,815.5311,984.7619,-0.0501708984375,0.10791015625,1.00726318359375,-0.575714111328125,-0.814971923828125,-10.54229736328125,1,2.0,1.0,1.0,2.0,10.00
2024-10-11 20:39:28.806,1.2352512,0.43092012,0.43024197,1.1222104,0.788715,-0.064211406,-0.12911984,0.49777216,0.6371275,0.10544911,0.17401709,0.6418702,0.49173012,0.025737692,0.2970081,0.8972156,0.2571639,-0.41392756,0.11208853,0.1685456,808.68134,806.6667,807.47253,811.50183,887.6557,-0.0501708984375,0.10791015625,1.00726318359375,-0.575714111328125,-0.814971923828125,-10.54229736328125,1,2.0,1.0,1.0,2.0,10.00
2024-10-11 20:39:28.806,1.2352512,0.43092012,0.43024197,1.1222104,0.788715,-0.064211406,-0.12911984,0.49777216,0.6371275,0.10544911,0.17401709,0.6418702,0.49173012,0.025737692,0.2970081,0.8972156,0.2571639,-0.41392756,0.11208853,0.1685456,790.54944,805.4579,798.60803,807.0696,681.75824,-0.0501708984375,0.10791015625,1.00726318359375,-0.575714111328125,-0.814971923828125,-10.54229736328125,1,2.0,1.0,1.0,2.0,10.00
2024-10-11 20:39:28.807,1.2352512,0.43092012,0.43024197,1.1222104,0.788715,-0.064211406,-0.12911984,0.49777216,0.6371275,0.10544911,0.17401709,0.6418702,0.49173012,0.025737692,0.2970081,0.8972156,0.2571639,-0.41392756,0.11208853,0.1685456,789.34064,789.34064,796.99634,792.1612,775.2381,-0.0501708984375,0.10791015625,1.00726318359375,-0.575714111328125,-0.814971923828125,-10.54229736328125,1,2.0,1.0,1.0,2.0,10.00
2024-10-11 20:39:28.808,1.2352512,0.43092012,0.43024197,1.1222104,0.788715,-0.064211406,-0.12911984,0.49777216,0.6371275,0.10544911,0.17401709,0.6418702,0.49173012,0.025737692,0.2970081,0.8972156,0.2571639,-0.41392756,0.11208853,0.1685456,795.38464,791.75824,798.60803,776.04395,913.44324,-0.0501708984375,0.10791015625,1.00726318359375,-0.575714111328125,-0.814971923828125,-10.54229736328125,1,2.0,1.0,1.0,2.0,10.00
2024-10-11 20:39:28.808,1.2352512,0.43092012,0.43024197,1.1222104,0.788715,-0.064211406,-0.12911984,0.49777216,0.6371275,0.10544911,0.17401709,0.6418702,0.49173012,0.025737692,0.2970081,0.8972156,0.2571639,-0.41392756,0.11208853,0.1685456,797.3993,801.02563,792.96704,777.6557,873.5531,-0.0501708984375,0.10791015625,1.00726318359375,-0.575714111328125,-0.814971923828125,-10.54229736328125,1,2.0,1.0,1.0,2.0,10.00
2024-10-11 20:39:28.809,1.2352512,0.43092012,0.43024197,1.1222104,0.788715,-0.064211406,-0.12911984,0.49777216,0.6371275,0.10544911,0.17401709,0.6418702,0.49173012,0.025737692,0.2970081,0.8972156,0.2571639,-0.41392756,0.11208853,0.1685456,807.47253,800.2198,795.78754,783.69965,850.58606,-0.0501708984375,0.10791015625,1.00726318359375,-0.575714111328125,-0.814971923828125,-10.54229736328125,1,2.0,1.0,1.0,2.0,10.00
2024-10-11 20:39:28.810,1.2352512,0.43092012,0.43024197,1.1222104,0.788715,-0.064211406,-0.12911984,0.49777216,0.6371275,0.10544911,0.17401709,0.6418702,0.49173012,0.025737692,0.2970081,0.8972156,0.2571639,-0.41392756,0.11208853,0.1685456,805.4579,795.38464,801.4286,795.78754,802.6374,-0.0501708984375,0.10791015625,1.00726318359375,-0.575714111328125,-0.814971923828125,-10.54229736328125,1,2.0,1.0,1.0,2.0,10.00
2024-10-11 20:39:28.810,1.2352512,0.43092012,0.43024197,1.1222104,0.788715,-0.064211406,-0.12911984,0.49777216,0.6371275,0.10544911,0.17401709,0.6418702,0.49173012,0.025737692,0.2970081,0.8972156,0.2571639,-0.41392756,0.11208853,0.1685456,800.2198,791.75824,802.23444,804.2491,873.5531,-0.0501708984375,0.10791015625,1.00726318359375,-0.575714111328125,-0.814971923828125,-10.54229736328125,1,2.0,1.0,1.0,2.0,10.00
2024-10-11 20:39:28.811,1.2352512,0.43092012,0.43024197,1.1222104,0.788715,-0.064211406,-0.12911984,0.49777216,0.6371275,0.10544911,0.17401709,0.6418702,0.49173012,0.025737692,0.2970081,0.8972156,0.2571639,-0.41392756,0.11208853,0.1685456,799.81683,796.1905,803.8461,804.65204,811.0989,-0.0501708984375,0.10791015625,1.00726318359375,-0.575714111328125,-0.814971923828125,-10.54229736328125,1,2.0,1.0,1.0,2.0,10.00
2024-10-11 20:39:28.811,1.2352512,0.43092012,0.43024197,1.1222104,0.788715,-0.064211406,-0.12911984,0.49777216,0.6371275,0.10544911,0.17401709,0.6418702,0.49173012,0.025737692,0.2970081,0.8972156,0.2571639,-0.41392756,0.11208853,0.1685456,794.17584,797.3993,802.23444,804.65204,712.381,-0.0501708984375,0.10791015625,1.00726318359375,-0.575714111328125,-0.814971923828125,-10.54229736328125,1,2.0,1.0,1.0,2.0,10.00
2024-10-11 20:39:28.812,1.2352512,0.43092012,0.43024197,1.1222104,0.788715,-0.064211406,-0.12911984,0.49777216,0.6371275,0.10544911,0.17401709,0.6418702,0.49173012,0.025737692,0.2970081,0.8972156,0.2571639,-0.41392756,0.11208853,0.1685456,799.011,797.8022,803.44324,801.4286,926.7399,-0.0501708984375,0.10791015625,1.00726318359375,-0.575714111328125,-0.814971923828125,-10.54229736328125,1,2.0,1.0,1.0,2.0,10.00
2024-10-11 20:39:28.813,1.2352512,0.43092012,0.43024197,1.1222104,0.788715,-0.064211406,-0.12911984,0.49777216,0.6371275,0.10544911,0.17401709,0.6418702,0.49173012,0.025737692,0.2970081,0.8972156,0.2571639,-0.41392756,0.11208853,0.1685456,787.326,794.9817,805.8608,789.34064,957.3626,-0.06353759765625,0.09832763671875,1.0072021484375,-2.534637451171875,2.093505859375,-19.69390869140625,1,2.0,1.0,1.0,2.0,10.00
2024-10-11 20:39:28.814,1.2352512,0.43092012,0.43024197,1.1222104,0.788715,-0.064211406,-0.12911984,0.49777216,0.6371275,0.10544911,0.17401709,0.6418702,0.49173012,0.025737692,0.2970081,0.8972156,0.2571639,-0.41392756,0.11208853,0.1685456,781.685,783.69965,810.696,801.8315,786.1172,-0.06353759765625,0.09832763671875,1.0072021484375,-2.534637451171875,2.093505859375,-19.69390869140625,1,2.0,1.0,1.0,2.0,10.00
2024-10-11 20:39:28.815,1.2352512,0.43092012,0.43024197,1.1222104,0.788715,-0.064211406,-0.12911984,0.49777216,0.6371275,0.10544911,0.17401709,0.6418702,0.49173012,0.025737692,0.2970081,0.8972156,0.2571639,-0.41392756,0.11208853,0.1685456,807.8755,794.9817,813.1135,818.3516,817.5458,-0.06353759765625,0.09832763671875,1.0072021484375,-2.534637451171875,2.093505859375,-19.69390869140625,1,2.0,1.0,1.0,2.0,10.00
2024-10-11 20:39:28.815,1.2352512,0.43092012,0.43024197,1.1222104,0.788715,-0.064211406,-0.12911984,0.49777216,0.6371275,0.10544911,0.17401709,0.6418702,0.49173012,0.025737692,0.2970081,0.8972156,0.2571639,-0.41392756,0.11208853,0.1685456,808.2784,815.12823,801.8315,795.38464,961.79486,-0.06353759765625,0.09832763671875,1.0072021484375,-2.534637451171875,2.093505859375,-19.69390869140625,1,2.0,1.0,1.0,2.0,10.00
2024-10-11 20:39:28.816,1.2352512,0.43092012,0.43024197,1.1222104,0.788715,-0.064211406,-0.12911984,0.49777216,0.6371275,0.10544911,0.17401709,0.6418702,0.49173012,0.025737692,0.2970081,0.8972156,0.2571639,-0.41392756,0.11208853,0.1685456,786.9231,811.0989,794.9817,778.46155,942.4542,-0.06353759765625,0.09832763671875,1.0072021484375,-2.534637451171875,2.093505859375,-19.69390869140625,1,2.0,1.0,1.0,2.0,10.00
2024-10-11 20:39:28.817,1.2352512,0.43092012,0.43024197,1.1222104,0.788715,-0.064211406,-0.12911984,0.49777216,0.6371275,0.10544911,0.17401709,0.6418702,0.49173012,0.025737692,0.2970081,0.8972156,0.2571639,-0.41392756,0.11208853,0.1685456,781.685,811.50183,799.41394,769.19415,853.00366,-0.06353759765625,0.09832763671875,1.0072021484375,-2.534637451171875,2.093505859375,-19.69390869140625,1,2.0,1.0,1.0,2.0,10.00
2024-10-11 20:39:28.818,1.2352512,0.43092012,0.43024197,1.1222104,0.788715,-0.064211406,-0.12911984,0.49777216,0.6371275,0.10544911,0.17401709,0.6418702,0.49173012,0.025737692,0.2970081,0.8972156,0.2571639,-0.41392756,0.11208853,0.1685456,775.2381,814.7253,799.81683,760.32965,942.0513,-0.06353759765625,0.09832763671875,1.0072021484375,-2.534637451171875,2.093505859375,-19.69390869140625,1,2.0,1.0,1.0,2.0,10.00
2024-10-11 20:39:28.819,1.2352512,0.43092012,0.43024197,1.1222104,0.788715,-0.064211406,-0.12911984,0.49777216,0.6371275,0.10544911,0.17401709,0.6418702,0.49173012,0.025737692,0.2970081,0.8972156,0.2571639,-0.41392756,0.11208853,0.1685456,770.80585,815.9341,802.6374,767.98535,990.40295,-0.06353759765625,0.09832763671875,1.0072021484375,-2.534637451171875,2.093505859375,-19.69390869140625,1,2.0,1.0,1.0,2.0,10.00
2024-10-11 20:39:28.819,1.2352512,0.43092012,0.43024197,1.1222104,0.788715,-0.064211406,-0.12911984,0.49777216,0.6371275,0.10544911,0.17401709,0.6418702,0.49173012,0.025737692,0.2970081,0.8972156,0.2571639,-0.41392756,0.11208853,0.1685456,783.2967,823.5897,805.8608,775.64105,858.6447,-0.06353759765625,0.09832763671875,1.0072021484375,-2.534637451171875,2.093505859375,-19.69390869140625,1,2.0,1.0,1.0,2.0,10.00
2024-10-11 20:39:28.820,1.1067657,0.40357485,0.40376166,0.7690133,0.8635077,-0.07446119,-0.14663377,0.62348336,0.65372425,0.113519445,0.17401709,0.88804597,0.58564997,0.048825175,0.28407997,0.6284204,0.3303317,-0.40372276,0.099159144,0.41649076,772.8205,827.2161,800.2198,761.53845,782.8938,-0.06353759765625,0.09832763671875,1.0072021484375,-2.534637451171875,2.093505859375,-19.69390869140625,1,2.0,1.0,1.0,2.0,10.00
2024-10-11 20:39:28.825,1.1067657,0.40357485,0.40376166,0.7690133,0.8635077,-0.07446119,-0.14663377,0.62348336,0.65372425,0.113519445,0.17401709,0.88804597,0.58564997,0.048825175,0.28407997,0.6284204,0.3303317,-0.40372276,0.099159144,0.41649076,743.00366,826.4103,795.78754,742.1978,826.0073,-0.06353759765625,0.09832763671875,1.0072021484375,-2.534637451171875,2.093505859375,-19.69390869140625,1,2.0,1.0,1.0,2.0,10.00
2024-10-11 20:39:28.826,1.1067657,0.40357485,0.40376166,0.7690133,0.8635077,-0.07446119,-0.14663377,0.62348336,0.65372425,0.113519445,0.17401709,0.88804597,0.58564997,0.048825175,0.28407997,0.6284204,0.3303317,-0.40372276,0.099159144,0.41649076,755.09155,828.4249,792.96704,757.9121,1029.0842,-0.06353759765625,0.09832763671875,1.0072021484375,-2.534637451171875,2.093505859375,-19.69390869140625,1,2.0,1.0,1.0,2.0,10.00
2024-10-11 20:39:28.826,1.1067657,0.40357485,0.40376166,0.7690133,0.8635077,-0.07446119,-0.14663377,0.62348336,0.65372425,0.113519445,0.17401709,0.88804597,0.58564997,0.048825175,0.28407997,0.6284204,0.3303317,-0.40372276,0.099159144,0.41649076,762.74725,833.2601,794.9817,757.50916,903.36993,-0.08563232421875,0.0921630859375,1.004150390625,-0.7476806640625,5.480499267578125,-25.00244140625,1,2.0,1.0,1.0,2.0,10.00
2024-10-11 20:39:28.827,1.1067657,0.40357485,0.40376166,0.7690133,0.8635077,-0.07446119,-0.14663377,0.62348336,0.65372425,0.113519445,0.17401709,0.88804597,0.58564997,0.048825175,0.28407997,0.6284204,0.3303317,-0.40372276,0.099159144,0.41649076,734.5421,823.5897,802.23444,736.55676,739.3773,-0.08563232421875,0.0921630859375,1.004150390625,-0.7476806640625,5.480499267578125,-25.00244140625,1,2.0,1.0,1.0,2.0,10.00
2024-10-11 20:39:28.828,1.1067657,0.40357485,0.40376166,0.7690133,0.8635077,-0.07446119,-0.14663377,0.62348336,0.65372425,0.113519445,0.17401709,0.88804597,0.58564997,0.048825175,0.28407997,0.6284204,0.3303317,-0.40372276,0.099159144,0.41649076,729.304,825.2015,803.44324,725.2747,911.4286,-0.08563232421875,0.0921630859375,1.004150390625,-0.7476806640625,5.480499267578125,-25.00244140625,1,2.0,1.0,1.0,2.0,10.00
2024-10-11 20:39:28.828,1.1067657,0.40357485,0.40376166,0.7690133,0.8635077,-0.07446119,-0.14663377,0.62348336,0.65372425,0.113519445,0.17401709,0.88804597,0.58564997,0.048825175,0.28407997,0.6284204,0.3303317,-0.40372276,0.099159144,0.41649076,737.3626,830.0366,799.81683,724.4689,961.39197,-0.08563232421875,0.0921630859375,1.004150390625,-0.7476806640625,5.480499267578125,-25.00244140625,1,2.0,1.0,1.0,2.0,10.00
2024-10-11 20:39:28.829,1.1067657,0.40357485,0.40376166,0.7690133,0.8635077,-0.07446119,-0.14663377,0.62348336,0.65372425,0.113519445,0.17401709,0.88804597,0.58564997,0.048825175,0.28407997,0.6284204,0.3303317,-0.40372276,0.099159144,0.41649076,740.989,829.6337,800.6227,723.663,866.30035,-0.08563232421875,0.0921630859375,1.004150390625,-0.7476806640625,5.480499267578125,-25.00244140625,1,2.0,1.0,1.0,2.0,10.00
2024-10-11 20:39:28.830,1.1067657,0.40357485,0.40376166,0.7690133,0.8635077,-0.07446119,-0.14663377,0.62348336,0.65372425,0.113519445,0.17401709,0.88804597,0.58564997,0.048825175,0.28407997,0.6284204,0.3303317,-0.40372276,0.099159144,0.41649076,724.87177,831.6484,799.011,719.6337,906.5934,-0.08563232421875,0.0921630859375,1.004150390625,-0.7476806640625,5.480499267578125,-25.00244140625,1,2.0,1.0,1.0,2.0,10.00
2024-10-11 20:39:28.830,1.1067657,0.40357485,0.40376166,0.7690133,0.8635077,-0.07446119,-0.14663377,0.62348336,0.65372425,0.113519445,0.17401709,0.88804597,0.58564997,0.048825175,0.28407997,0.6284204,0.3303317,-0.40372276,0.099159144,0.41649076,721.2454,823.9927,794.57874,727.6923,906.1905,-0.08563232421875,0.0921630859375,1.004150390625,-0.7476806640625,5.480499267578125,-25.00244140625,1,2.0,1.0,1.0,2.0,10.00
2024-10-11 20:39:28.831,1.1067657,0.40357485,0.40376166,0.7690133,0.8635077,-0.07446119,-0.14663377,0.62348336,0.65372425,0.113519445,0.17401709,0.88804597,0.58564997,0.048825175,0.28407997,0.6284204,0.3303317,-0.40372276,0.099159144,0.41649076,741.39197,829.2308,801.02563,736.1539,887.25275,-0.08563232421875,0.0921630859375,1.004150390625,-0.7476806640625,5.480499267578125,-25.00244140625,1,2.0,1.0,1.0,2.0,10.00
2024-10-11 20:39:28.831,1.1067657,0.40357485,0.40376166,0.7690133,0.8635077,-0.07446119,-0.14663377,0.62348336,0.65372425,0.113519445,0.17401709,0.88804597,0.58564997,0.048825175,0.28407997,0.6284204,0.3303317,-0.40372276,0.099159144,0.41649076,747.4359,839.707,802.6374,719.6337,776.8498,-0.08563232421875,0.0921630859375,1.004150390625,-0.7476806640625,5.480499267578125,-25.00244140625,1,2.0,1.0,1.0,2.0,10.00
2024-10-11 20:39:28.832,1.1067657,0.40357485,0.40376166,0.7690133,0.8635077,-0.07446119,-0.14663377,0.62348336,0.65372425,0.113519445,0.17401709,0.88804597,0.58564997,0.048825175,0.28407997,0.6284204,0.3303317,-0.40372276,0.099159144,0.41649076,730.9158,834.87177,791.3553,699.89014,771.6117,-0.08563232421875,0.0921630859375,1.004150390625,-0.7476806640625,5.480499267578125,-25.00244140625,1,2.0,1.0,1.0,2.0,10.00
2024-10-11 20:39:28.833,1.1067657,0.40357485,0.40376166,0.7690133,0.8635077,-0.07446119,-0.14663377,0.62348336,0.65372425,0.113519445,0.17401709,0.88804597,0.58564997,0.048825175,0.28407997,0.6284204,0.3303317,-0.40372276,0.099159144,0.41649076,724.0659,829.2308,787.326,704.3223,880.0,-0.08563232421875,0.0921630859375,1.004150390625,-0.7476806640625,5.480499267578125,-25.00244140625,1,2.0,1.0,1.0,2.0,10.00
2024-10-11 20:39:28.833,1.1067657,0.40357485,0.40376166,0.7690133,0.8635077,-0.07446119,-0.14663377,0.62348336,0.65372425,0.113519445,0.17401709,0.88804597,0.58564997,0.048825175,0.28407997,0.6284204,0.3303317,-0.40372276,0.099159144,0.41649076,747.4359,830.84247,789.7436,716.4103,870.32965,-0.08563232421875,0.0921630859375,1.004150390625,-0.7476806640625,5.480499267578125,-25.00244140625,1,2.0,1.0,1.0,2.0,10.00
2024-10-11 20:39:28.863,1.1067657,0.40357485,0.40376166,0.7690133,0.8635077,-0.07446119,-0.14663377,0.62348336,0.65372425,0.113519445,0.17401709,0.88804597,0.58564997,0.048825175,0.28407997,0.6284204,0.3303317,-0.40372276,0.099159144,0.41649076,749.85345,836.08057,788.93774,715.2015,755.4945,-0.08563232421875,0.0921630859375,1.004150390625,-0.7476806640625,5.480499267578125,-25.00244140625,1,2.0,1.0,1.0,2.0,10.00
2024-10-11 20:39:28.864,1.1067657,0.40357485,0.40376166,0.7690133,0.8635077,-0.07446119,-0.14663377,0.62348336,0.65372425,0.113519445,0.17401709,0.88804597,0.58564997,0.048825175,0.28407997,0.6284204,0.3303317,-0.40372276,0.099159144,0.41649076,739.7802,829.2308,792.5641,714.3956,783.2967,-0.08563232421875,0.0921630859375,1.004150390625,-0.7476806640625,5.480499267578125,-25.00244140625,1,2.0,1.0,1.0,2.0,10.00
2024-10-11 20:39:28.865,1.1067657,0.40357485,0.40376166,0.7690133,0.8635077,-0.07446119,-0.14663377,0.62348336,0.65372425,0.113519445,0.17401709,0.88804597,0.58564997,0.048825175,0.28407997,0.6284204,0.3303317,-0.40372276,0.099159144,0.41649076,738.97437,828.022,791.3553,732.1245,998.46155,-0.08563232421875,0.0921630859375,1.004150390625,-0.7476806640625,5.480499267578125,-25.00244140625,1,2.0,1.0,1.0,2.0,10.00
2024-10-11 20:39:28.865,1.1067657,0.40357485,0.40376166,0.7690133,0.8635077,-0.07446119,-0.14663377,0.62348336,0.65372425,0.113519445,0.17401709,0.88804597,0.58564997,0.048825175,0.28407997,0.6284204,0.3303317,-0.40372276,0.099159144,0.41649076,747.03296,836.08057,788.93774,747.4359,983.1502,-0.08563232421875,0.0921630859375,1.004150390625,-0.7476806640625,5.480499267578125,-25.00244140625,1,2.0,1.0,1.0,2.0,10.00
2024-10-11 20:39:28.866,1.1067657,0.40357485,0.40376166,0.7690133,0.8635077,-0.07446119,-0.14663377,0.62348336,0.65372425,0.113519445,0.17401709,0.88804597,0.58564997,0.048825175,0.28407997,0.6284204,0.3303317,-0.40372276,0.099159144,0.41649076,757.9121,837.28937,792.1612,732.9304,773.6264,-0.08563232421875,0.0921630859375,1.004150390625,-0.7476806640625,5.480499267578125,-25.00244140625,1,2.0,1.0,1.0,2.0,10.00
2024-10-11 20:39:28.866,1.1067657,0.40357485,0.40376166,0.7690133,0.8635077,-0.07446119,-0.14663377,0.62348336,0.65372425,0.113519445,0.17401709,0.88804597,0.58564997,0.048825175,0.28407997,0.6284204,0.3303317,-0.40372276,0.099159144,0.41649076,756.7033,830.84247,788.5348,728.9011,805.4579,-0.08563232421875,0.0921630859375,1.004150390625,-0.7476806640625,5.480499267578125,-25.00244140625,1,2.0,1.0,1.0,2.0,10.00
2024-10-11 20:39:28.867,1.1067657,0.40357485,0.40376166,0.7690133,0.8635077,-0.07446119,-0.14663377,0.62348336,0.65372425,0.113519445,0.17401709,0.88804597,0.58564997,0.048825175,0.28407997,0.6284204,0.3303317,-0.40372276,0.099159144,0.41649076,763.1502,830.0366,788.1319,746.63007,1128.2051,-0.08563232421875,0.0921630859375,1.004150390625,-0.7476806640625,5.480499267578125,-25.00244140625,1,2.0,1.0,1.0,2.0,10.00
2024-10-11 20:39:28.868,1.1067657,0.40357485,0.40376166,0.7690133,0.8635077,-0.07446119,-0.14663377,0.62348336,0.65372425,0.113519445,0.17401709,0.88804597,0.58564997,0.048825175,0.28407997,0.6284204,0.3303317,-0.40372276,0.099159144,0.41649076,768.3883,838.0952,786.1172,751.06226,1071.7949,-0.08563232421875,0.0921630859375,1.004150390625,-0.7476806640625,5.480499267578125,-25.00244140625,1,2.0,1.0,1.0,2.0,10.00
2024-10-11 20:39:28.868,1.1067657,0.40357485,0.40376166,0.7690133,0.8635077,-0.07446119,-0.14663377,0.62348336,0.65372425,0.113519445,0.17401709,0.88804597,0.58564997,0.048825175,0.28407997,0.6284204,0.3303317,-0.40372276,0.099159144,0.41649076,763.1502,831.6484,788.5348,757.1062,836.8865,-0.08563232421875,0.0921630859375,1.004150390625,-0.7476806640625,5.480499267578125,-25.00244140625,1,2.0,1.0,1.0,2.0,10.00
2024-10-11 20:39:28.869,1.1067657,0.40357485,0.40376166,0.7690133,0.8635077,-0.07446119,-0.14663377,0.62348336,0.65372425,0.113519445,0.17401709,0.88804597,0.58564997,0.048825175,0.28407997,0.6284204,0.3303317,-0.40372276,0.099159144,0.41649076,768.3883,823.5897,794.57874,779.67035,889.2674,-0.08563232421875,0.0921630859375,1.004150390625,-0.7476806640625,5.480499267578125,-25.00244140625,1,2.0,1.0,1.0,2.0,10.00
2024-10-11 20:39:28.870,1.1067657,0.40357485,0.40376166,0.7690133,0.8635077,-0.07446119,-0.14663377,0.62348336,0.65372425,0.113519445,0.17401709,0.88804597,0.58564997,0.048825175,0.28407997,0.6284204,0.3303317,-0.40372276,0.099159144,0.41649076,773.22345,830.84247,787.326,780.4762,1011.3553,-0.08563232421875,0.0921630859375,1.004150390625,-0.7476806640625,5.480499267578125,-25.00244140625,1,2.0,1.0,1.0,2.0,10.00
2024-10-11 20:39:28.871,1.1067657,0.35986343,0.37826058,0.7690133,0.8635077,-0.08595378,-0.16245069,0.62348336,0.65372425,0.104702376,0.17401709,0.88804597,0.58564997,0.07101051,0.271538,0.6284204,0.3303317,-0.38087887,0.087053455,0.41649076,773.22345,832.8571,782.49084,761.53845,919.89014,-0.08563232421875,0.0921630859375,1.004150390625,-0.7476806640625,5.480499267578125,-25.00244140625,1,1.0,1.0,1.0,1.0,10.00
2024-10-11 20:39:28.878,1.1067657,0.35986343,0.37826058,0.7690133,0.8635077,-0.08595378,-0.16245069,0.62348336,0.65372425,0.104702376,0.17401709,0.88804597,0.58564997,0.07101051,0.271538,0.6284204,0.3303317,-0.38087887,0.087053455,0.41649076,776.4469,824.7985,780.87915,754.68866,788.5348,-0.12274169921875,0.07391357421875,0.99713134765625,-0.515899658203125,4.433746337890625,-26.138916015625,1,1.0,1.0,1.0,1.0,10.00
2024-10-11 20:39:28.878,1.1067657,0.35986343,0.37826058,0.7690133,0.8635077,-0.08595378,-0.16245069,0.62348336,0.65372425,0.104702376,0.17401709,0.88804597,0.58564997,0.07101051,0.271538,0.6284204,0.3303317,-0.38087887,0.087053455,0.41649076,795.38464,817.5458,771.2088,757.50916,788.1319,-0.12274169921875,0.07391357421875,0.99713134765625,-0.515899658203125,4.433746337890625,-26.138916015625,1,1.0,1.0,1.0,1.0,10.00
2024-10-11 20:39:28.879,1.1067657,0.35986343,0.37826058,0.7690133,0.8635077,-0.08595378,-0.16245069,0.62348336,0.65372425,0.104702376,0.17401709,0.88804597,0.58564997,0.07101051,0.271538,0.6284204,0.3303317,-0.38087887,0.087053455,0.41649076,816.7399,816.337,768.3883,772.8205,900.14655,-0.12274169921875,0.07391357421875,0.99713134765625,-0.515899658203125,4.433746337890625,-26.138916015625,1,1.0,1.0,1.0,1.0,10.00
2024-10-11 20:39:28.880,1.1067657,0.35986343,0.37826058,0.7690133,0.8635077,-0.08595378,-0.16245069,0.62348336,0.65372425,0.104702376,0.17401709,0.88804597,0.58564997,0.07101051,0.271538,0.6284204,0.3303317,-0.38087887,0.087053455,0.41649076,818.3516,809.0842,777.25275,789.34064,860.65936,-0.12274169921875,0.07391357421875,0.99713134765625,-0.515899658203125,4.433746337890625,-26.138916015625,1,1.0,1.0,1.0,1.0,10.00
2024-10-11 20:39:28.881,1.1067657,0.35986343,0.37826058,0.7690133,0.8635077,-0.08595378,-0.16245069,0.62348336,0.65372425,0.104702376,0.17401709,0.88804597,0.58564997,0.07101051,0.271538,0.6284204,0.3303317,-0.38087887,0.087053455,0.41649076,813.5165,808.68134,782.8938,798.60803,774.0293,-0.12274169921875,0.07391357421875,0.99713134765625,-0.515899658203125,4.433746337890625,-26.138916015625,1,1.0,1.0,1.0,1.0,10.00
2024-10-11 20:39:28.881,1.1067657,0.35986343,0.37826058,0.7690133,0.8635077,-0.08595378,-0.16245069,0.62348336,0.65372425,0.104702376,0.17401709,0.88804597,0.58564997,0.07101051,0.271538,0.6284204,0.3303317,-0.38087887,0.087053455,0.41649076,805.4579,811.0989,786.52014,810.293,1000.87915,-0.12274169921875,0.07391357421875,0.99713134765625,-0.515899658203125,4.433746337890625,-26.138916015625,1,1.0,1.0,1.0,1.0,10.00
2024-10-11 20:39:28.882,1.1067657,0.35986343,0.37826058,0.7690133,0.8635077,-0.08595378,-0.16245069,0.62348336,0.65372425,0.104702376,0.17401709,0.88804597,0.58564997,0.07101051,0.271538,0.6284204,0.3303317,-0.38087887,0.087053455,0.41649076,818.7546,807.47253,784.90845,814.3223,1233.773,-0.12274169921875,0.07391357421875,0.99713134765625,-0.515899658203125,4.433746337890625,-26.138916015625,1,1.0,1.0,1.0,1.0,10.00
2024-10-11 20:39:28.883,1.1067657,0.35986343,0.37826058,0.7690133,0.8635077,-0.08595378,-0.16245069,0.62348336,0.65372425,0.104702376,0.17401709,0.88804597,0.58564997,0.07101051,0.271538,0.6284204,0.3303317,-0.38087887,0.087053455,0.41649076,829.2308,804.2491,780.4762,799.81683,987.1795,-0.12274169921875,0.07391357421875,0.99713134765625,-0.515899658203125,4.433746337890625,-26.138916015625,1,1.0,1.0,1.0,1.0,10.00
2024-10-11 20:39:28.884,1.1067657,0.35986343,0.37826058,0.7690133,0.8635077,-0.08595378,-0.16245069,0.62348336,0.65372425,0.104702376,0.17401709,0.88804597,0.58564997,0.07101051,0.271538,0.6284204,0.3303317,-0.38087887,0.087053455,0.41649076,829.6337,804.2491,772.8205,803.44324,801.4286,-0.12274169921875,0.07391357421875,0.99713134765625,-0.515899658203125,4.433746337890625,-26.138916015625,1,1.0,1.0,1.0,1.0,10.00
2024-10-11 20:39:28.885,1.1067657,0.35986343,0.37826058,0.7690133,0.8635077,-0.08595378,-0.16245069,0.62348336,0.65372425,0.104702376,0.17401709,0.88804597,0.58564997,0.07101051,0.271538,0.6284204,0.3303317,-0.38087887,0.087053455,0.41649076,835.2747,799.011,774.83514,830.84247,916.6667,-0.12274169921875,0.07391357421875,0.99713134765625,-0.515899658203125,4.433746337890625,-26.138916015625,1,1.0,1.0,1.0,1.0,10.00
2024-10-11 20:39:28.885,1.1067657,0.35986343,0.37826058,0.7690133,0.8635077,-0.08595378,-0.16245069,0.62348336,0.65372425,0.104702376,0.17401709,0.88804597,0.58564997,0.07101051,0.271538,0.6284204,0.3303317,-0.38087887,0.087053455,0.41649076,844.5421,797.8022,783.69965,844.94507,1367.9487,-0.12274169921875,0.07391357421875,0.99713134765625,-0.515899658203125,4.433746337890625,-26.138916015625,1,1.0,1.0,1.0,1.0,10.00
2024-10-11 20:39:28.886,1.1067657,0.35986343,0.37826058,0.7690133,0.8635077,-0.08595378,-0.16245069,0.62348336,0.65372425,0.104702376,0.17401709,0.88804597,0.58564997,0.07101051,0.271538,0.6284204,0.3303317,-0.38087887,0.087053455,0.41649076,837.28937,801.8315,782.49084,833.663,1491.6483,-0.12274169921875,0.07391357421875,0.99713134765625,-0.515899658203125,4.433746337890625,-26.138916015625,1,1.0,1.0,1.0,1.0,10.00
2024-10-11 20:39:28.920,1.1067657,0.35986343,0.37826058,0.7690133,0.8635077,-0.08595378,-0.16245069,0.62348336,0.65372425,0.104702376,0.17401709,0.88804597,0.58564997,0.07101051,0.271538,0.6284204,0.3303317,-0.38087887,0.087053455,0.41649076,844.94507,801.4286,779.2674,823.9927,1227.326,-0.12200927734375,0.071044921875,0.9892578125,0.785064697265625,-1.09161376953125,-23.768768310546875,1,1.0,1.0,1.0,1.0,10.00
2024-10-11 20:39:28.921,1.1067657,0.35986343,0.37826058,0.7690133,0.8635077,-0.08595378,-0.16245069,0.62348336,0.65372425,0.104702376,0.17401709,0.88804597,0.58564997,0.07101051,0.271538,0.6284204,0.3303317,-0.38087887,0.087053455,0.41649076,858.24176,796.99634,781.28204,826.0073,1008.1319,-0.12200927734375,0.071044921875,0.9892578125,0.785064697265625,-1.09161376953125,-23.768768310546875,1,1.0,1.0,1.0,1.0,10.00
2024-10-11 20:39:28.922,1.1067657,0.35986343,0.37826058,0.7690133,0.8635077,-0.08595378,-0.16245069,0.62348336,0.65372425,0.104702376,0.17401709,0.88804597,0.58564997,0.07101051,0.271538,0.6284204,0.3303317,-0.38087887,0.087053455,0.41649076,854.61536,794.9817,783.2967,834.0659,926.7399,-0.12200927734375,0.071044921875,0.9892578125,0.785064697265625,-1.09161376953125,-23.768768310546875,1,1.0,1.0,1.0,1.0,10.00
2024-10-11 20:39:28.923,1.1067657,0.35986343,0.37826058,0.7690133,0.8635077,-0.08595378,-0.16245069,0.62348336,0.65372425,0.104702376,0.17401709,0.88804597,0.58564997,0.07101051,0.271538,0.6284204,0.3303317,-0.38087887,0.087053455,0.41649076,853.4066,797.8022,782.0879,832.8571,688.60803,-0.12200927734375,0.071044921875,0.9892578125,0.785064697265625,-1.09161376953125,-23.768768310546875,1,1.0,1.0,1.0,1.0,10.00
2024-10-11 20:39:28.924,1.1067657,0.35986343,0.37826058,0.7690133,0.8635077,-0.08595378,-0.16245069,0.62348336,0.65372425,0.104702376,0.17401709,0.88804597,0.58564997,0.07101051,0.271538,0.6284204,0.3303317,-0.38087887,0.087053455,0.41649076,850.58606,797.8022,779.67035,828.8278,594.7253,-0.12200927734375,0.071044921875,0.9892578125,0.785064697265625,-1.09161376953125,-23.768768310546875,1,1.0,1.0,1.0,1.0,10.00
2024-10-11 20:39:28.924,1.1067657,0.35986343,0.37826058,0.7690133,0.8635077,-0.08595378,-0.16245069,0.62348336,0.65372425,0.104702376,0.17401709,0.88804597,0.58564997,0.07101051,0.271538,0.6284204,0.3303317,-0.38087887,0.087053455,0.41649076,855.42126,790.9524,784.5055,834.0659,983.95605,-0.12200927734375,0.071044921875,0.9892578125,0.785064697265625,-1.09161376953125,-23.768768310546875,1,1.0,1.0,1.0,1.0,10.00
2024-10-11 20:39:28.925,1.1067657,0.35986343,0.37826058,0.7690133,0.8635077,-0.08595378,-0.16245069,0.62348336,0.65372425,0.104702376,0.17401709,0.88804597,0.58564997,0.07101051,0.271538,0.6284204,0.3303317,-0.38087887,0.087053455,0.41649076,867.1062,790.14655,788.5348,849.7802,1295.0183,-0.12200927734375,0.071044921875,0.9892578125,0.785064697265625,-1.09161376953125,-23.768768310546875,1,1.0,1.0,1.0,1.0,10.00
2024-10-11 20:39:28.926,1.1067657,0.35986343,0.37826058,0.7690133,0.8635077,-0.08595378,-0.16245069,0.62348336,0.65372425,0.104702376,0.17401709,0.88804597,0.58564997,0.07101051,0.271538,0.6284204,0.3303317,-0.38087887,0.087053455,0.41649076,854.61536,791.75824,786.9231,836.8865,954.1392,-0.12200927734375,0.071044921875,0.9892578125,0.785064697265625,-1.09161376953125,-23.768768310546875,1,1.0,1.0,1.0,1.0,10.00
2024-10-11 20:39:28.927,1.1067657,0.35986343,0.37826058,0.7690133,0.8635077,-0.08595378,-0.16245069,0.62348336,0.65372425,0.104702376,0.17401709,0.88804597,0.58564997,0.07101051,0.271538,0.6284204,0.3303317,-0.38087887,0.087053455,0.41649076,843.73627,786.1172,788.93774,823.9927,647.9121,-0.12200927734375,0.071044921875,0.9892578125,0.785064697265625,-1.09161376953125,-23.768768310546875,1,1.0,1.0,1.0,1.0,10.00
2024-10-11 20:39:28.928,1.1067657,0.35986343,0.37826058,0.7690133,0.8635077,-0.08595378,-0.16245069,0.62348336,0.65372425,0.104702376,0.17401709,0.88804597,0.58564997,0.07101051,0.271538,0.6284204,0.3303317,-0.38087887,0.087053455,0.41649076,840.9158,786.9231,788.1319,835.2747,708.7546,-0.12200927734375,0.071044921875,0.9892578125,0.785064697265625,-1.09161376953125,-23.768768310546875,1,1.0,1.0,1.0,1.0,10.00
2024-10-11 20:39:28.932,1.1067657,0.35986343,0.37826058,0.7690133,0.8635077,-0.08595378,-0.16245069,0.62348336,0.65372425,0.104702376,0.17401709,0.88804597,0.58564997,0.07101051,0.271538,0.6284204,0.3303317,-0.38087887,0.087053455,0.41649076,847.76556,792.5641,786.9231,836.8865,844.5421,-0.12200927734375,0.071044921875,0.9892578125,0.785064697265625,-1.09161376953125,-23.768768310546875,1,1.0,1.0,1.0,1.0,10.00
2024-10-11 20:39:28.933,1.1067657,0.35986343,0.37826058,0.7690133,0.8635077,-0.08595378,-0.16245069,0.62348336,0.65372425,0.104702376,0.17401709,0.88804597,0.58564997,0.07101051,0.271538,0.6284204,0.3303317,-0.38087887,0.087053455,0.41649076,850.58606,794.57874,789.34064,828.8278,805.4579,-0.12200927734375,0.071044921875,0.9892578125,0.785064697265625,-1.09161376953125,-23.768768310546875,1,1.0,1.0,1.0,1.0,10.00
2024-10-11 20:39:28.963,1.1067657,0.35986343,0.37826058,0.7690133,0.8635077,-0.08595378,-0.16245069,0.62348336,0.65372425,0.104702376,0.17401709,0.88804597,0.58564997,0.07101051,0.271538,0.6284204,0.3303317,-0.38087887,0.087053455,0.41649076,838.0952,794.57874,787.326,832.8571,784.5055,-0.1259765625,0.07177734375,0.9996337890625,0.710296630859375,-2.504730224609375,-23.454742431640625,1,1.0,1.0,1.0,1.0,10.00
2024-10-11 20:39:28,,,,,,,,,,,,,,,,,,,,,,,,,,,,,,,,,,,,,,/muse/elements/blink
2024-10-11 20:39:28.964,1.1067657,0.37893018,0.36406082,0.7690133,0.8635077,-0.077594616,-0.21429236,0.62348336,0.65372425,0.16934995,0.117570154,0.88804597,0.58564997,0.085950986,0.2511201,0.6284204,0.3303317,-0.35660642,0.08879037,0.41649076,835.2747,789.34064,788.1319,832.8571,944.4689,-0.1259765625,0.07177734375,0.9996337890625,0.710296630859375,-2.504730224609375,-23.454742431640625,1,1.0,1.0,1.0,1.0,10.00
2024-10-11 20:39:28.970,1.1067657,0.37893018,0.36406082,0.7690133,0.8635077,-0.077594616,-0.21429236,0.62348336,0.65372425,0.16934995,0.117570154,0.88804597,0.58564997,0.085950986,0.2511201,0.6284204,0.3303317,-0.35660642,0.08879037,0.41649076,840.5128,792.5641,790.14655,824.7985,845.34796,-0.1259765625,0.07177734375,0.9996337890625,0.710296630859375,-2.504730224609375,-23.454742431640625,1,1.0,1.0,1.0,1.0,10.00
2024-10-11 20:39:28.971,1.1067657,0.37893018,0.36406082,0.7690133,0.8635077,-0.077594616,-0.21429236,0.62348336,0.65372425,0.16934995,0.117570154,0.88804597,0.58564997,0.085950986,0.2511201,0.6284204,0.3303317,-0.35660642,0.08879037,0.41649076,848.97437,796.1905,792.1612,826.8132,771.2088,-0.1259765625,0.07177734375,0.9996337890625,0.710296630859375,-2.504730224609375,-23.454742431640625,1,1.0,1.0,1.0,1.0,10.00
2024-10-11 20:39:28.972,1.1067657,0.37893018,0.36406082,0.7690133,0.8635077,-0.077594616,-0.21429236,0.62348336,0.65372425,0.16934995,0.117570154,0.88804597,0.58564997,0.085950986,0.2511201,0.6284204,0.3303317,-0.35660642,0.08879037,0.41649076,846.55676,792.5641,803.0403,834.4689,867.9121,-0.1259765625,0.07177734375,0.9996337890625,0.710296630859375,-2.504730224609375,-23.454742431640625,1,1.0,1.0,1.0,1.0,10.00
2024-10-11 20:39:28.972,1.1067657,0.37893018,0.36406082,0.7690133,0.8635077,-0.077594616,-0.21429236,0.62348336,0.65372425,0.16934995,0.117570154,0.88804597,0.58564997,0.085950986,0.2511201,0.6284204,0.3303317,-0.35660642,0.08879037,0.41649076,831.2454,788.93774,801.4286,832.8571,991.2088,-0.1259765625,0.07177734375,0.9996337890625,0.710296630859375,-2.504730224609375,-23.454742431640625,1,1.0,1.0,1.0,1.0,10.00
2024-10-11 20:39:28.973,1.1067657,0.37893018,0.36406082,0.7690133,0.8635077,-0.077594616,-0.21429236,0.62348336,0.65372425,0.16934995,0.117570154,0.88804597,0.58564997,0.085950986,0.2511201,0.6284204,0.3303317,-0.35660642,0.08879037,0.41649076,830.84247,788.5348,795.78754,824.3956,988.7912,-0.1259765625,0.07177734375,0.9996337890625,0.710296630859375,-2.504730224609375,-23.454742431640625,1,1.0,1.0,1.0,1.0,10.00
2024-10-11 20:39:28.973,1.1067657,0.37893018,0.36406082,0.7690133,0.8635077,-0.077594616,-0.21429236,0.62348336,0.65372425,0.16934995,0.117570154,0.88804597,0.58564997,0.085950986,0.2511201,0.6284204,0.3303317,-0.35660642,0.08879037,0.41649076,838.9011,786.52014,791.75824,816.7399,807.8755,-0.1259765625,0.07177734375,0.9996337890625,0.710296630859375,-2.504730224609375,-23.454742431640625,1,1.0,1.0,1.0,1.0,10.00
2024-10-11 20:39:28.974,1.1067657,0.37893018,0.36406082,0.7690133,0.8635077,-0.077594616,-0.21429236,0.62348336,0.65372425,0.16934995,0.117570154,0.88804597,0.58564997,0.085950986,0.2511201,0.6284204,0.3303317,-0.35660642,0.08879037,0.41649076,835.6777,786.52014,791.75824,822.7839,804.65204,-0.1259765625,0.07177734375,0.9996337890625,0.710296630859375,-2.504730224609375,-23.454742431640625,1,1.0,1.0,1.0,1.0,10.00
2024-10-11 20:39:28.974,1.1067657,0.37893018,0.36406082,0.7690133,0.8635077,-0.077594616,-0.21429236,0.62348336,0.65372425,0.16934995,0.117570154,0.88804597,0.58564997,0.085950986,0.2511201,0.6284204,0.3303317,-0.35660642,0.08879037,0.41649076,829.6337,787.72894,793.36993,836.08057,1076.227,-0.1259765625,0.07177734375,0.9996337890625,0.710296630859375,-2.504730224609375,-23.454742431640625,1,1.0,1.0,1.0,1.0,10.00
2024-10-11 20:39:28.975,1.1067657,0.37893018,0.36406082,0.7690133,0.8635077,-0.077594616,-0.21429236,0.62348336,0.65372425,0.16934995,0.117570154,0.88804597,0.58564997,0.085950986,0.2511201,0.6284204,0.3303317,-0.35660642,0.08879037,0.41649076,830.0366,788.1319,793.7729,819.15753,822.381,-0.1259765625,0.07177734375,0.9996337890625,0.710296630859375,-2.504730224609375,-23.454742431640625,1,1.0,1.0,1.0,1.0,10.00
2024-10-11 20:39:28.975,1.1067657,0.37893018,0.36406082,0.7690133,0.8635077,-0.077594616,-0.21429236,0.62348336,0.65372425,0.16934995,0.117570154,0.88804597,0.58564997,0.085950986,0.2511201,0.6284204,0.3303317,-0.35660642,0.08879037,0.41649076,834.4689,788.5348,793.7729,813.91943,633.00366,-0.1259765625,0.07177734375,0.9996337890625,0.710296630859375,-2.504730224609375,-23.454742431640625,1,1.0,1.0,1.0,1.0,10.00
2024-10-11 20:39:28.976,1.1067657,0.37893018,0.36406082,0.7690133,0.8635077,-0.077594616,-0.21429236,0.62348336,0.65372425,0.16934995,0.117570154,0.88804597,0.58564997,0.085950986,0.2511201,0.6284204,0.3303317,-0.35660642,0.08879037,0.41649076,834.0659,790.54944,790.54944,829.6337,833.2601,-0.12664794921875,0.07623291015625,0.99420166015625,1.854248046875,-7.559051513671875,-24.03045654296875,1,1.0,1.0,1.0,1.0,10.00
2024-10-11 20:39:28.977,1.1067657,0.37893018,0.36406082,0.7690133,0.8635077,-0.077594616,-0.21429236,0.62348336,0.65372425,0.16934995,0.117570154,0.88804597,0.58564997,0.085950986,0.2511201,0.6284204,0.3303317,-0.35660642,0.08879037,0.41649076,832.8571,789.7436,790.14655,830.0366,843.73627,-0.12664794921875,0.07623291015625,0.99420166015625,1.854248046875,-7.559051513671875,-24.03045654296875,1,1.0,1.0,1.0,1.0,10.00
2024-10-11 20:39:28.978,1.1067657,0.37893018,0.36406082,0.7690133,0.8635077,-0.077594616,-0.21429236,0.62348336,0.65372425,0.16934995,0.117570154,0.88804597,0.58564997,0.085950986,0.2511201,0.6284204,0.3303317,-0.35660642,0.08879037,0.41649076,836.08057,790.14655,796.99634,824.3956,752.27106,-0.12664794921875,0.07623291015625,0.99420166015625,1.854248046875,-7.559051513671875,-24.03045654296875,1,1.0,1.0,1.0,1.0,10.00
2024-10-11 20:39:28.978,1.1067657,0.37893018,0.36406082,0.7690133,0.8635077,-0.077594616,-0.21429236,0.62348336,0.65372425,0.16934995,0.117570154,0.88804597,0.58564997,0.085950986,0.2511201,0.6284204,0.3303317,-0.35660642,0.08879037,0.41649076,828.4249,788.93774,799.81683,820.3663,778.0586,-0.12664794921875,0.07623291015625,0.99420166015625,1.854248046875,-7.559051513671875,-24.03045654296875,1,1.0,1.0,1.0,1.0,10.00
2024-10-11 20:39:28.979,1.1067657,0.37893018,0.36406082,0.7690133,0.8635077,-0.077594616,-0.21429236,0.62348336,0.65372425,0.16934995,0.117570154,0.88804597,0.58564997,0.085950986,0.2511201,0.6284204,0.3303317,-0.35660642,0.08879037,0.41649076,832.4542,785.7143,797.8022,825.6044,990.0,-0.12664794921875,0.07623291015625,0.99420166015625,1.854248046875,-7.559051513671875,-24.03045654296875,1,1.0,1.0,1.0,1.0,10.00
2024-10-11 20:39:28.979,1.1067657,0.37893018,0.36406082,0.7690133,0.8635077,-0.077594616,-0.21429236,0.62348336,0.65372425,0.16934995,0.117570154,0.88804597,0.58564997,0.085950986,0.2511201,0.6284204,0.3303317,-0.35660642,0.08879037,0.41649076,831.6484,789.34064,799.81683,828.8278,1043.1868,-0.12664794921875,0.07623291015625,0.99420166015625,1.854248046875,-7.559051513671875,-24.03045654296875,1,1.0,1.0,1.0,1.0,10.00
2024-10-11 20:39:28.980,1.1067657,0.37893018,0.36406082,0.7690133,0.8635077,-0.077594616,-0.21429236,0.62348336,0.65372425,0.16934995,0.117570154,0.88804597,0.58564997,0.085950986,0.2511201,0.6284204,0.3303317,-0.35660642,0.08879037,0.41649076,824.3956,788.5348,805.8608,826.4103,950.10986,-0.12664794921875,0.07623291015625,0.99420166015625,1.854248046875,-7.559051513671875,-24.03045654296875,1,1.0,1.0,1.0,1.0,10.00
2024-10-11 20:39:28.980,1.1067657,0.37893018,0.36406082,0.7690133,0.8635077,-0.077594616,-0.21429236,0.62348336,0.65372425,0.16934995,0.117570154,0.88804597,0.58564997,0.085950986,0.2511201,0.6284204,0.3303317,-0.35660642,0.08879037,0.41649076,845.7509,778.86444,809.0842,847.76556,898.93774,-0.12664794921875,0.07623291015625,0.99420166015625,1.854248046875,-7.559051513671875,-24.03045654296875,1,1.0,1.0,1.0,1.0,10.00
2024-10-11 20:39:28.981,1.1067657,0.37893018,0.36406082,0.7690133,0.8635077,-0.077594616,-0.21429236,0.62348336,0.65372425,0.16934995,0.117570154,0.88804597,0.58564997,0.085950986,0.2511201,0.6284204,0.3303317,-0.35660642,0.08879037,0.41649076,852.1978,792.1612,803.0403,858.6447,1044.7986,-0.12664794921875,0.07623291015625,0.99420166015625,1.854248046875,-7.559051513671875,-24.03045654296875,1,1.0,1.0,1.0,1.0,10.00
2024-10-11 20:39:28.981,1.1067657,0.37893018,0.36406082,0.7690133,0.8635077,-0.077594616,-0.21429236,0.62348336,0.65372425,0.16934995,0.117570154,0.88804597,0.58564997,0.085950986,0.2511201,0.6284204,0.3303317,-0.35660642,0.08879037,0.41649076,820.7692,805.8608,796.99634,814.3223,1033.5165,-0.12664794921875,0.07623291015625,0.99420166015625,1.854248046875,-7.559051513671875,-24.03045654296875,1,1.0,1.0,1.0,1.0,10.00
2024-10-11 20:39:28.982,1.1067657,0.37893018,0.36406082,0.7690133,0.8635077,-0.077594616,-0.21429236,0.62348336,0.65372425,0.16934995,0.117570154,0.88804597,0.58564997,0.085950986,0.2511201,0.6284204,0.3303317,-0.35660642,0.08879037,0.41649076,824.7985,801.02563,794.17584,807.0696,875.56775,-0.12664794921875,0.07623291015625,0.99420166015625,1.854248046875,-7.559051513671875,-24.03045654296875,1,1.0,1.0,1.0,1.0,10.00
2024-10-11 20:39:28.983,1.1067657,0.37893018,0.36406082,0.7690133,0.8635077,-0.077594616,-0.21429236,0.62348336,0.65372425,0.16934995,0.117570154,0.88804597,0.58564997,0.085950986,0.2511201,0.6284204,0.3303317,-0.35660642,0.08879037,0.41649076,828.8278,800.6227,789.34064,817.1429,901.75824,-0.12664794921875,0.07623291015625,0.99420166015625,1.854248046875,-7.559051513671875,-24.03045654296875,1,1.0,1.0,1.0,1.0,10.00
2024-10-11 20:39:29.013,1.1067657,0.37893018,0.36406082,0.7690133,0.8635077,-0.077594616,-0.21429236,0.62348336,0.65372425,0.16934995,0.117570154,0.88804597,0.58564997,0.085950986,0.2511201,0.6284204,0.3303317,-0.35660642,0.08879037,0.41649076,801.02563,802.6374,785.7143,811.9048,1179.7803,-0.12664794921875,0.07623291015625,0.99420166015625,1.854248046875,-7.559051513671875,-24.03045654296875,1,1.0,1.0,1.0,1.0,10.00
2024-10-11 20:39:29.014,1.1067657,0.37893018,0.36406082,0.7690133,0.8635077,-0.077594616,-0.21429236,0.62348336,0.65372425,0.16934995,0.117570154,0.88804597,0.58564997,0.085950986,0.2511201,0.6284204,0.3303317,-0.35660642,0.08879037,0.41649076,799.41394,806.6667,778.86444,801.02563,1062.1245,-0.12664794921875,0.07623291015625,0.99420166015625,1.854248046875,-7.559051513671875,-24.03045654296875,1,1.0,1.0,1.0,1.0,10.00
2024-10-11 20:39:29.014,1.1067657,0.37893018,0.36406082,0.7690133,0.8635077,-0.077594616,-0.21429236,0.62348336,0.65372425,0.16934995,0.117570154,0.88804597,0.58564997,0.085950986,0.2511201,0.6284204,0.3303317,-0.35660642,0.08879037,0.41649076,806.26373,809.4872,771.2088,788.1319,853.00366,-0.12664794921875,0.07623291015625,0.99420166015625,1.854248046875,-7.559051513671875,-24.03045654296875,1,1.0,1.0,1.0,1.0,10.00
2024-10-11 20:39:29.015,1.1067657,0.49040657,0.36124846,0.7690133,0.8635077,4.766637E-4,-0.26132894,0.62348336,0.65372425,0.27419323,0.07244958,0.88804597,0.58564997,0.093885586,0.23296763,0.6284204,0.3303317,-0.33833545,0.09009013,0.41649076,810.696,806.6667,770.40295,788.5348,998.0586,-0.12664794921875,0.07623291015625,0.99420166015625,1.854248046875,-7.559051513671875,-24.03045654296875,1,1.0,1.0,1.0,1.0,10.00
2024-10-11 20:39:29.020,1.1067657,0.49040657,0.36124846,0.7690133,0.8635077,4.766637E-4,-0.26132894,0.62348336,0.65372425,0.27419323,0.07244958,0.88804597,0.58564997,0.093885586,0.23296763,0.6284204,0.3303317,-0.33833545,0.09009013,0.41649076,812.3077,810.293,770.80585,783.69965,1033.9194,-0.12664794921875,0.07623291015625,0.99420166015625,1.854248046875,-7.559051513671875,-24.03045654296875,1,1.0,1.0,1.0,1.0,10.00
2024-10-11 20:39:29.021,1.1067657,0.49040657,0.36124846,0.7690133,0.8635077,4.766637E-4,-0.26132894,0.62348336,0.65372425,0.27419323,0.07244958,0.88804597,0.58564997,0.093885586,0.23296763,0.6284204,0.3303317,-0.33833545,0.09009013,0.41649076,817.1429,815.9341,770.0,789.34064,1038.3517,-0.12664794921875,0.07623291015625,0.99420166015625,1.854248046875,-7.559051513671875,-24.03045654296875,1,1.0,1.0,1.0,1.0,10.00
2024-10-11 20:39:29.022,1.1067657,0.49040657,0.36124846,0.7690133,0.8635077,4.766637E-4,-0.26132894,0.62348336,0.65372425,0.27419323,0.07244958,0.88804597,0.58564997,0.093885586,0.23296763,0.6284204,0.3303317,-0.33833545,0.09009013,0.41649076,820.3663,821.1722,768.3883,789.34064,952.9304,-0.12664794921875,0.07623291015625,0.99420166015625,1.854248046875,-7.559051513671875,-24.03045654296875,1,1.0,1.0,1.0,1.0,10.00
2024-10-11 20:39:29.022,1.1067657,0.49040657,0.36124846,0.7690133,0.8635077,4.766637E-4,-0.26132894,0.62348336,0.65372425,0.27419323,0.07244958,0.88804597,0.58564997,0.093885586,0.23296763,0.6284204,0.3303317,-0.33833545,0.09009013,0.41649076,821.1722,828.022,767.1795,788.5348,940.4396,-0.12664794921875,0.07623291015625,0.99420166015625,1.854248046875,-7.559051513671875,-24.03045654296875,1,1.0,1.0,1.0,1.0,10.00
2024-10-11 20:39:29.023,1.1067657,0.49040657,0.36124846,0.7690133,0.8635077,4.766637E-4,-0.26132894,0.62348336,0.65372425,0.27419323,0.07244958,0.88804597,0.58564997,0.093885586,0.23296763,0.6284204,0.3303317,-0.33833545,0.09009013,0.41649076,810.293,821.1722,759.5238,789.7436,1326.4469,-0.12664794921875,0.07623291015625,0.99420166015625,1.854248046875,-7.559051513671875,-24.03045654296875,1,1.0,1.0,1.0,1.0,10.00
2024-10-11 20:39:29.023,1.1067657,0.49040657,0.36124846,0.7690133,0.8635077,4.766637E-4,-0.26132894,0.62348336,0.65372425,0.27419323,0.07244958,0.88804597,0.58564997,0.093885586,0.23296763,0.6284204,0.3303317,-0.33833545,0.09009013,0.41649076,800.2198,816.337,754.2857,782.8938,1115.7142,-0.12664794921875,0.07623291015625,0.99420166015625,1.854248046875,-7.559051513671875,-24.03045654296875,1,1.0,1.0,1.0,1.0,10.00
2024-10-11 20:39:29.024,1.1067657,0.49040657,0.36124846,0.7690133,0.8635077,4.766637E-4,-0.26132894,0.62348336,0.65372425,0.27419323,0.07244958,0.88804597,0.58564997,0.093885586,0.23296763,0.6284204,0.3303317,-0.33833545,0.09009013,0.41649076,808.68134,817.9487,759.92676,786.52014,844.94507,-0.12664794921875,0.07623291015625,0.99420166015625,1.854248046875,-7.559051513671875,-24.03045654296875,1,1.0,1.0,1.0,1.0,10.00
2024-10-11 20:39:29.024,1.1067657,0.49040657,0.36124846,0.7690133,0.8635077,4.766637E-4,-0.26132894,0.62348336,0.65372425,0.27419323,0.07244958,0.88804597,0.58564997,0.093885586,0.23296763,0.6284204,0.3303317,-0.33833545,0.09009013,0.41649076,815.9341,821.5751,754.68866,782.0879,958.97437,-0.12664794921875,0.07623291015625,0.99420166015625,1.854248046875,-7.559051513671875,-24.03045654296875,1,1.0,1.0,1.0,1.0,10.00
2024-10-11 20:39:29.054,1.1067657,0.49040657,0.36124846,0.7690133,0.8635077,4.766637E-4,-0.26132894,0.62348336,0.65372425,0.27419323,0.07244958,0.88804597,0.58564997,0.093885586,0.23296763,0.6284204,0.3303317,-0.33833545,0.09009013,0.41649076,811.0989,823.1868,748.24176,771.2088,937.2161,-0.0849609375,0.091796875,0.99615478515625,2.250518798828125,-8.501129150390625,-28.763275146484375,1,1.0,1.0,1.0,1.0,10.00
2024-10-11 20:39:29.055,1.1067657,0.49040657,0.36124846,0.7690133,0.8635077,4.766637E-4,-0.26132894,0.62348336,0.65372425,0.27419323,0.07244958,0.88804597,0.58564997,0.093885586,0.23296763,0.6284204,0.3303317,-0.33833545,0.09009013,0.41649076,815.9341,821.1722,752.674,774.83514,846.1539,-0.0849609375,0.091796875,0.99615478515625,2.250518798828125,-8.501129150390625,-28.763275146484375,1,1.0,1.0,1.0,1.0,10.00
2024-10-11 20:39:29.056,1.1067657,0.49040657,0.36124846,0.7690133,0.8635077,4.766637E-4,-0.26132894,0.62348336,0.65372425,0.27419323,0.07244958,0.88804597,0.58564997,0.093885586,0.23296763,0.6284204,0.3303317,-0.33833545,0.09009013,0.41649076,823.5897,823.9927,751.4652,781.685,828.8278,-0.0849609375,0.091796875,0.99615478515625,2.250518798828125,-8.501129150390625,-28.763275146484375,1,1.0,1.0,1.0,1.0,10.00
2024-10-11 20:39:29.056,1.1067657,0.49040657,0.36124846,0.7690133,0.8635077,4.766637E-4,-0.26132894,0.62348336,0.65372425,0.27419323,0.07244958,0.88804597,0.58564997,0.093885586,0.23296763,0.6284204,0.3303317,-0.33833545,0.09009013,0.41649076,817.5458,827.619,751.06226,777.6557,892.0879,-0.0849609375,0.091796875,0.99615478515625,2.250518798828125,-8.501129150390625,-28.763275146484375,1,1.0,1.0,1.0,1.0,10.00
2024-10-11 20:39:29.057,1.1067657,0.49040657,0.36124846,0.7690133,0.8635077,4.766637E-4,-0.26132894,0.62348336,0.65372425,0.27419323,0.07244958,0.88804597,0.58564997,0.093885586,0.23296763,0.6284204,0.3303317,-0.33833545,0.09009013,0.41649076,823.9927,832.0513,755.89746,783.69965,869.12085,-0.0849609375,0.091796875,0.99615478515625,2.250518798828125,-8.501129150390625,-28.763275146484375,1,1.0,1.0,1.0,1.0,10.00
2024-10-11 20:39:29.057,1.1067657,0.49040657,0.36124846,0.7690133,0.8635077,4.766637E-4,-0.26132894,0.62348336,0.65372425,0.27419323,0.07244958,0.88804597,0.58564997,0.093885586,0.23296763,0.6284204,0.3303317,-0.33833545,0.09009013,0.41649076,832.4542,830.84247,755.89746,789.7436,912.23444,-0.0849609375,0.091796875,0.99615478515625,2.250518798828125,-8.501129150390625,-28.763275146484375,1,1.0,1.0,1.0,1.0,10.00
2024-10-11 20:39:29.058,1.1067657,0.49040657,0.36124846,0.7690133,0.8635077,4.766637E-4,-0.26132894,0.62348336,0.65372425,0.27419323,0.07244958,0.88804597,0.58564997,0.093885586,0.23296763,0.6284204,0.3303317,-0.33833545,0.09009013,0.41649076,817.5458,831.2454,757.1062,784.10254,1050.0366,-0.0849609375,0.091796875,0.99615478515625,2.250518798828125,-8.501129150390625,-28.763275146484375,1,1.0,1.0,1.0,1.0,10.00
2024-10-11 20:39:29.059,1.1067657,0.49040657,0.36124846,0.7690133,0.8635077,4.766637E-4,-0.26132894,0.62348336,0.65372425,0.27419323,0.07244958,0.88804597,0.58564997,0.093885586,0.23296763,0.6284204,0.3303317,-0.33833545,0.09009013,0.41649076,819.9634,830.4396,760.32965,787.72894,1368.3517,-0.0849609375,0.091796875,0.99615478515625,2.250518798828125,-8.501129150390625,-28.763275146484375,1,1.0,1.0,1.0,1.0,10.00
2024-10-11 20:39:29.059,1.1067657,0.49040657,0.36124846,0.7690133,0.8635077,4.766637E-4,-0.26132894,0.62348336,0.65372425,0.27419323,0.07244958,0.88804597,0.58564997,0.093885586,0.23296763,0.6284204,0.3303317,-0.33833545,0.09009013,0.41649076,823.9927,834.4689,753.8828,786.1172,1372.7839,-0.0849609375,0.091796875,0.99615478515625,2.250518798828125,-8.501129150390625,-28.763275146484375,1,1.0,1.0,1.0,1.0,10.00
2024-10-11 20:39:29.060,1.1067657,0.49040657,0.36124846,0.7690133,0.8635077,4.766637E-4,-0.26132894,0.62348336,0.65372425,0.27419323,0.07244958,0.88804597,0.58564997,0.093885586,0.23296763,0.6284204,0.3303317,-0.33833545,0.09009013,0.41649076,813.1135,836.8865,749.45056,777.25275,904.57874,-0.0849609375,0.091796875,0.99615478515625,2.250518798828125,-8.501129150390625,-28.763275146484375,1,1.0,1.0,1.0,1.0,10.00
2024-10-11 20:39:29.060,1.1067657,0.49040657,0.36124846,0.7690133,0.8635077,4.766637E-4,-0.26132894,0.62348336,0.65372425,0.27419323,0.07244958,0.88804597,0.58564997,0.093885586,0.23296763,0.6284204,0.3303317,-0.33833545,0.09009013,0.41649076,819.15753,831.6484,753.8828,776.8498,816.337,-0.0849609375,0.091796875,0.99615478515625,2.250518798828125,-8.501129150390625,-28.763275146484375,1,1.0,1.0,1.0,1.0,10.00
2024-10-11 20:39:29.061,1.1067657,0.49040657,0.36124846,0.7690133,0.8635077,4.766637E-4,-0.26132894,0.62348336,0.65372425,0.27419323,0.07244958,0.88804597,0.58564997,0.093885586,0.23296763,0.6284204,0.3303317,-0.33833545,0.09009013,0.41649076,824.7985,832.0513,746.63007,789.34064,982.74725,-0.0849609375,0.091796875,0.99615478515625,2.250518798828125,-8.501129150390625,-28.763275146484375,1,1.0,1.0,1.0,1.0,10.00
2024-10-11 20:39:29.126,1.1067657,0.49040657,0.36124846,0.7690133,0.8635077,4.766637E-4,-0.26132894,0.62348336,0.65372425,0.27419323,0.07244958,0.88804597,0.58564997,0.093885586,0.23296763,0.6284204,0.3303317,-0.33833545,0.09009013,0.41649076,832.8571,835.6777,752.674,795.78754,912.23444,-0.09356689453125,0.0933837890625,1.01080322265625,2.811279296875,-8.6431884765625,-29.824981689453125,1,1.0,1.0,1.0,1.0,10.00
2024-10-11 20:39:29.127,1.1067657,0.49040657,0.36124846,0.7690133,0.8635077,4.766637E-4,-0.26132894,0.62348336,0.65372425,0.27419323,0.07244958,0.88804597,0.58564997,0.093885586,0.23296763,0.6284204,0.3303317,-0.33833545,0.09009013,0.41649076,824.3956,834.0659,773.6264,786.52014,793.36993,-0.09356689453125,0.0933837890625,1.01080322265625,2.811279296875,-8.6431884765625,-29.824981689453125,1,1.0,1.0,1.0,1.0,10.00
2024-10-11 20:39:29.128,1.1067657,0.49040657,0.36124846,0.7690133,0.8635077,4.766637E-4,-0.26132894,0.62348336,0.65372425,0.27419323,0.07244958,0.88804597,0.58564997,0.093885586,0.23296763,0.6284204,0.3303317,-0.33833545,0.09009013,0.41649076,805.8608,822.381,778.46155,786.9231,892.0879,-0.09356689453125,0.0933837890625,1.01080322265625,2.811279296875,-8.6431884765625,-29.824981689453125,1,1.0,1.0,1.0,1.0,10.00
2024-10-11 20:39:29.128,1.1067657,0.49040657,0.36124846,0.7690133,0.8635077,4.766637E-4,-0.26132894,0.62348336,0.65372425,0.27419323,0.07244958,0.88804597,0.58564997,0.093885586,0.23296763,0.6284204,0.3303317,-0.33833545,0.09009013,0.41649076,820.3663,819.9634,770.0,796.1905,979.12085,-0.09356689453125,0.0933837890625,1.01080322265625,2.811279296875,-8.6431884765625,-29.824981689453125,1,1.0,1.0,1.0,1.0,10.00
2024-10-11 20:39:29.129,1.1067657,0.49040657,0.36124846,0.7690133,0.8635077,4.766637E-4,-0.26132894,0.62348336,0.65372425,0.27419323,0.07244958,0.88804597,0.58564997,0.093885586,0.23296763,0.6284204,0.3303317,-0.33833545,0.09009013,0.41649076,822.381,817.5458,763.5531,790.54944,872.74725,-0.09356689453125,0.0933837890625,1.01080322265625,2.811279296875,-8.6431884765625,-29.824981689453125,1,1.0,1.0,1.0,1.0,10.00
2024-10-11 20:39:29.129,1.1067657,0.6677279,0.41371888,0.7690133,0.8635077,0.14702117,-0.24666984,0.62348336,0.65372425,0.3303545,0.036043532,0.88804597,0.58564997,0.09855465,0.21704066,0.6284204,0.3303317,-0.32627195,0.08840123,0.41649076,813.91943,814.3223,765.16486,778.0586,946.4835,-0.09356689453125,0.0933837890625,1.01080322265625,2.811279296875,-8.6431884765625,-29.824981689453125,1,1.0,1.0,1.0,1.0,10.00
2024-10-11 20:39:29.134,1.1067657,0.6677279,0.41371888,0.7690133,0.8635077,0.14702117,-0.24666984,0.62348336,0.65372425,0.3303545,0.036043532,0.88804597,0.58564997,0.09855465,0.21704066,0.6284204,0.3303317,-0.32627195,0.08840123,0.41649076,826.8132,815.9341,763.95605,780.4762,1129.011,-0.09356689453125,0.0933837890625,1.01080322265625,2.811279296875,-8.6431884765625,-29.824981689453125,1,1.0,1.0,1.0,1.0,10.00
2024-10-11 20:39:29.135,1.1067657,0.6677279,0.41371888,0.7690133,0.8635077,0.14702117,-0.24666984,0.62348336,0.65372425,0.3303545,0.036043532,0.88804597,0.58564997,0.09855465,0.21704066,0.6284204,0.3303317,-0.32627195,0.08840123,0.41649076,826.8132,815.9341,763.95605,796.1905,1228.1318,-0.09356689453125,0.0933837890625,1.01080322265625,2.811279296875,-8.6431884765625,-29.824981689453125,1,1.0,1.0,1.0,1.0,10.00
2024-10-11 20:39:29.135,1.1067657,0.6677279,0.41371888,0.7690133,0.8635077,0.14702117,-0.24666984,0.62348336,0.65372425,0.3303545,0.036043532,0.88804597,0.58564997,0.09855465,0.21704066,0.6284204,0.3303317,-0.32627195,0.08840123,0.41649076,805.05493,818.3516,772.4176,794.17584,963.4066,-0.09356689453125,0.0933837890625,1.01080322265625,2.811279296875,-8.6431884765625,-29.824981689453125,1,1.0,1.0,1.0,1.0,10.00
2024-10-11 20:39:29.136,1.1067657,0.6677279,0.41371888,0.7690133,0.8635077,0.14702117,-0.24666984,0.62348336,0.65372425,0.3303545,0.036043532,0.88804597,0.58564997,0.09855465,0.21704066,0.6284204,0.3303317,-0.32627195,0.08840123,0.41649076,796.1905,818.3516,778.46155,790.54944,847.76556,-0.09356689453125,0.0933837890625,1.01080322265625,2.811279296875,-8.6431884765625,-29.824981689453125,1,1.0,1.0,1.0,1.0,10.00
2024-10-11 20:39:29.137,1.1067657,0.6677279,0.41371888,0.7690133,0.8635077,0.14702117,-0.24666984,0.62348336,0.65372425,0.3303545,0.036043532,0.88804597,0.58564997,0.09855465,0.21704066,0.6284204,0.3303317,-0.32627195,0.08840123,0.41649076,799.41394,809.4872,782.0879,799.011,998.46155,-0.09356689453125,0.0933837890625,1.01080322265625,2.811279296875,-8.6431884765625,-29.824981689453125,1,1.0,1.0,1.0,1.0,10.00
2024-10-11 20:39:29.137,1.1067657,0.6677279,0.41371888,0.7690133,0.8635077,0.14702117,-0.24666984,0.62348336,0.65372425,0.3303545,0.036043532,0.88804597,0.58564997,0.09855465,0.21704066,0.6284204,0.3303317,-0.32627195,0.08840123,0.41649076,813.1135,807.0696,782.8938,807.8755,1017.3993,-0.09356689453125,0.0933837890625,1.01080322265625,2.811279296875,-8.6431884765625,-29.824981689453125,1,1.0,1.0,1.0,1.0,10.00
2024-10-11 20:39:29.190,1.1067657,0.6677279,0.41371888,0.7690133,0.8635077,0.14702117,-0.24666984,0.62348336,0.65372425,0.3303545,0.036043532,0.88804597,0.58564997,0.09855465,0.21704066,0.6284204,0.3303317,-0.32627195,0.08840123,0.41649076,816.337,809.89014,780.87915,807.0696,877.1795,-0.06439208984375,0.10186767578125,0.99664306640625,2.7215576171875,-6.56463623046875,-32.142791748046875,1,1.0,1.0,1.0,1.0,10.00
2024-10-11 20:39:29.191,1.1067657,0.6677279,0.41371888,0.7690133,0.8635077,0.14702117,-0.24666984,0.62348336,0.65372425,0.3303545,0.036043532,0.88804597,0.58564997,0.09855465,0.21704066,0.6284204,0.3303317,-0.32627195,0.08840123,0.41649076,824.3956,808.68134,780.87915,806.6667,817.5458,-0.06439208984375,0.10186767578125,0.99664306640625,2.7215576171875,-6.56463623046875,-32.142791748046875,1,1.0,1.0,1.0,1.0,10.00
2024-10-11 20:39:29.192,1.1067657,0.6677279,0.41371888,0.7690133,0.8635077,0.14702117,-0.24666984,0.62348336,0.65372425,0.3303545,0.036043532,0.88804597,0.58564997,0.09855465,0.21704066,0.6284204,0.3303317,-0.32627195,0.08840123,0.41649076,827.619,800.6227,784.5055,810.696,1033.1135,-0.06439208984375,0.10186767578125,0.99664306640625,2.7215576171875,-6.56463623046875,-32.142791748046875,1,1.0,1.0,1.0,1.0,10.00
2024-10-11 20:39:29.193,1.1067657,0.6677279,0.41371888,0.7690133,0.8635077,0.14702117,-0.24666984,0.62348336,0.65372425,0.3303545,0.036043532,0.88804597,0.58564997,0.09855465,0.21704066,0.6284204,0.3303317,-0.32627195,0.08840123,0.41649076,820.3663,798.20514,786.52014,818.3516,1076.227,-0.06439208984375,0.10186767578125,0.99664306640625,2.7215576171875,-6.56463623046875,-32.142791748046875,1,1.0,1.0,1.0,1.0,10.00
2024-10-11 20:39:29.193,1.1067657,0.6677279,0.41371888,0.7690133,0.8635077,0.14702117,-0.24666984,0.62348336,0.65372425,0.3303545,0.036043532,0.88804597,0.58564997,0.09855465,0.21704066,0.6284204,0.3303317,-0.32627195,0.08840123,0.41649076,831.2454,804.65204,786.52014,828.022,904.9817,-0.06439208984375,0.10186767578125,0.99664306640625,2.7215576171875,-6.56463623046875,-32.142791748046875,1,1.0,1.0,1.0,1.0,10.00
2024-10-11 20:39:29.194,1.1067657,0.6677279,0.41371888,0.7690133,0.8635077,0.14702117,-0.24666984,0.62348336,0.65372425,0.3303545,0.036043532,0.88804597,0.58564997,0.09855465,0.21704066,0.6284204,0.3303317,-0.32627195,0.08840123,0.41649076,823.5897,799.81683,785.31134,823.5897,1056.4835,-0.06439208984375,0.10186767578125,0.99664306640625,2.7215576171875,-6.56463623046875,-32.142791748046875,1,1.0,1.0,1.0,1.0,10.00
2024-10-11 20:39:29.194,1.1067657,0.6677279,0.41371888,0.7690133,0.8635077,0.14702117,-0.24666984,0.62348336,0.65372425,0.3303545,0.036043532,0.88804597,0.58564997,0.09855465,0.21704066,0.6284204,0.3303317,-0.32627195,0.08840123,0.41649076,810.696,794.17584,789.34064,817.1429,1276.4835,-0.06439208984375,0.10186767578125,0.99664306640625,2.7215576171875,-6.56463623046875,-32.142791748046875,1,1.0,1.0,1.0,1.0,10.00
2024-10-11 20:39:29.195,1.1067657,0.6677279,0.41371888,0.7690133,0.8635077,0.14702117,-0.24666984,0.62348336,0.65372425,0.3303545,0.036043532,0.88804597,0.58564997,0.09855465,0.21704066,0.6284204,0.3303317,-0.32627195,0.08840123,0.41649076,815.9341,794.9817,788.1319,815.9341,1027.8755,-0.06439208984375,0.10186767578125,0.99664306640625,2.7215576171875,-6.56463623046875,-32.142791748046875,1,1.0,1.0,1.0,1.0,10.00
2024-10-11 20:39:29.195,1.1067657,0.6677279,0.41371888,0.7690133,0.8635077,0.14702117,-0.24666984,0.62348336,0.65372425,0.3303545,0.036043532,0.88804597,0.58564997,0.09855465,0.21704066,0.6284204,0.3303317,-0.32627195,0.08840123,0.41649076,812.3077,793.7729,782.49084,808.68134,780.87915,-0.06439208984375,0.10186767578125,0.99664306640625,2.7215576171875,-6.56463623046875,-32.142791748046875,1,1.0,1.0,1.0,1.0,10.00
2024-10-11 20:39:29.196,1.1067657,0.6677279,0.41371888,0.7690133,0.8635077,0.14702117,-0.24666984,0.62348336,0.65372425,0.3303545,0.036043532,0.88804597,0.58564997,0.09855465,0.21704066,0.6284204,0.3303317,-0.32627195,0.08840123,0.41649076,810.696,794.17584,786.9231,807.47253,836.4835,-0.06439208984375,0.10186767578125,0.99664306640625,2.7215576171875,-6.56463623046875,-32.142791748046875,1,1.0,1.0,1.0,1.0,10.00
2024-10-11 20:39:29.197,1.1067657,0.6677279,0.41371888,0.7690133,0.8635077,0.14702117,-0.24666984,0.62348336,0.65372425,0.3303545,0.036043532,0.88804597,0.58564997,0.09855465,0.21704066,0.6284204,0.3303317,-0.32627195,0.08840123,0.41649076,813.1135,789.34064,787.326,813.1135,1018.20514,-0.06439208984375,0.10186767578125,0.99664306640625,2.7215576171875,-6.56463623046875,-32.142791748046875,1,1.0,1.0,1.0,1.0,10.00
2024-10-11 20:39:29.197,1.1067657,0.6677279,0.41371888,0.7690133,0.8635077,0.14702117,-0.24666984,0.62348336,0.65372425,0.3303545,0.036043532,0.88804597,0.58564997,0.09855465,0.21704066,0.6284204,0.3303317,-0.32627195,0.08840123,0.41649076,813.1135,790.14655,785.31134,815.12823,988.7912,-0.06439208984375,0.10186767578125,0.99664306640625,2.7215576171875,-6.56463623046875,-32.142791748046875,1,1.0,1.0,1.0,1.0,10.00
2024-10-11 20:39:29.257,1.1067657,0.6677279,0.41371888,0.7690133,0.8635077,0.14702117,-0.24666984,0.62348336,0.65372425,0.3303545,0.036043532,0.88804597,0.58564997,0.09855465,0.21704066,0.6284204,0.3303317,-0.32627195,0.08840123,0.41649076,813.5165,793.36993,794.9817,813.91943,891.685,-0.06884765625,0.1021728515625,1.00970458984375,1.9140625,-6.3104248046875,-31.881103515625,1,1.0,1.0,1.0,1.0,10.00
2024-10-11 20:39:29.258,1.1067657,0.6677279,0.41371888,0.7690133,0.8635077,0.14702117,-0.24666984,0.62348336,0.65372425,0.3303545,0.036043532,0.88804597,0.58564997,0.09855465,0.21704066,0.6284204,0.3303317,-0.32627195,0.08840123,0.41649076,812.3077,791.3553,799.011,806.6667,843.73627,-0.06884765625,0.1021728515625,1.00970458984375,1.9140625,-6.3104248046875,-31.881103515625,1,1.0,1.0,1.0,1.0,10.00
2024-10-11 20:39:29.259,1.1067657,0.6677279,0.41371888,0.7690133,0.8635077,0.14702117,-0.24666984,0.62348336,0.65372425,0.3303545,0.036043532,0.88804597,0.58564997,0.09855465,0.21704066,0.6284204,0.3303317,-0.32627195,0.08840123,0.41649076,805.05493,787.72894,796.99634,813.91943,847.76556,-0.06884765625,0.1021728515625,1.00970458984375,1.9140625,-6.3104248046875,-31.881103515625,1,1.0,1.0,1.0,1.0,10.00
2024-10-11 20:39:29.260,1.1067657,0.6677279,0.41371888,0.7690133,0.8635077,0.14702117,-0.24666984,0.62348336,0.65372425,0.3303545,0.036043532,0.88804597,0.58564997,0.09855465,0.21704066,0.6284204,0.3303317,-0.32627195,0.08840123,0.41649076,809.4872,784.90845,802.23444,819.9634,800.2198,-0.06884765625,0.1021728515625,1.00970458984375,1.9140625,-6.3104248046875,-31.881103515625,1,1.0,1.0,1.0,1.0,10.00
2024-10-11 20:39:29.260,1.1067657,0.6677279,0.41371888,0.7690133,0.8635077,0.14702117,-0.24666984,0.62348336,0.65372425,0.3303545,0.036043532,0.88804597,0.58564997,0.09855465,0.21704066,0.6284204,0.3303317,-0.32627195,0.08840123,0.41649076,823.5897,790.14655,801.02563,817.5458,722.8571,-0.06884765625,0.1021728515625,1.00970458984375,1.9140625,-6.3104248046875,-31.881103515625,1,1.0,1.0,1.0,1.0,10.00
2024-10-11 20:39:29.261,1.1067657,0.6677279,0.41371888,0.7690133,0.8635077,0.14702117,-0.24666984,0.62348336,0.65372425,0.3303545,0.036043532,0.88804597,0.58564997,0.09855465,0.21704066,0.6284204,0.3303317,-0.32627195,0.08840123,0.41649076,827.2161,793.7729,797.3993,821.5751,1000.07324,-0.06884765625,0.1021728515625,1.00970458984375,1.9140625,-6.3104248046875,-31.881103515625,1,1.0,1.0,1.0,1.0,10.00
2024-10-11 20:39:29.261,1.1067657,0.6677279,0.41371888,0.7690133,0.8635077,0.14702117,-0.24666984,0.62348336,0.65372425,0.3303545,0.036043532,0.88804597,0.58564997,0.09855465,0.21704066,0.6284204,0.3303317,-0.32627195,0.08840123,0.41649076,821.1722,788.1319,801.02563,819.15753,1140.6959,-0.06884765625,0.1021728515625,1.00970458984375,1.9140625,-6.3104248046875,-31.881103515625,1,1.0,1.0,1.0,1.0,10.00
2024-10-11 20:39:29.262,1.1067657,0.8478098,0.51119816,0.7690133,0.8635077,0.30064335,-0.10152378,0.62348336,0.65372425,0.33881325,0.023465674,0.88804597,0.58564997,0.10228248,0.20369095,0.6284204,0.3303317,-0.31773847,0.083329275,0.41649076,813.1135,788.5348,798.60803,816.7399,923.5165,-0.06884765625,0.1021728515625,1.00970458984375,1.9140625,-6.3104248046875,-31.881103515625,1,1.0,1.0,1.0,1.0,10.00
2024-10-11 20:39:29.266,1.1067657,0.8478098,0.51119816,0.7690133,0.8635077,0.30064335,-0.10152378,0.62348336,0.65372425,0.33881325,0.023465674,0.88804597,0.58564997,0.10228248,0.20369095,0.6284204,0.3303317,-0.31773847,0.083329275,0.41649076,808.68134,788.5348,796.5934,821.978,841.7216,-0.06884765625,0.1021728515625,1.00970458984375,1.9140625,-6.3104248046875,-31.881103515625,1,1.0,1.0,1.0,1.0,10.00
2024-10-11 20:39:29.267,1.1067657,0.8478098,0.51119816,0.7690133,0.8635077,0.30064335,-0.10152378,0.62348336,0.65372425,0.33881325,0.023465674,0.88804597,0.58564997,0.10228248,0.20369095,0.6284204,0.3303317,-0.31773847,0.083329275,0.41649076,812.3077,784.5055,804.2491,829.6337,945.6777,-0.06884765625,0.1021728515625,1.00970458984375,1.9140625,-6.3104248046875,-31.881103515625,1,1.0,1.0,1.0,1.0,10.00
2024-10-11 20:39:29.268,1.1067657,0.8478098,0.51119816,0.7690133,0.8635077,0.30064335,-0.10152378,0.62348336,0.65372425,0.33881325,0.023465674,0.88804597,0.58564997,0.10228248,0.20369095,0.6284204,0.3303317,-0.31773847,0.083329275,0.41649076,820.7692,787.72894,809.89014,827.619,976.30035,-0.06884765625,0.1021728515625,1.00970458984375,1.9140625,-6.3104248046875,-31.881103515625,1,1.0,1.0,1.0,1.0,10.00
2024-10-11 20:39:29.268,1.1067657,0.8478098,0.51119816,0.7690133,0.8635077,0.30064335,-0.10152378,0.62348336,0.65372425,0.33881325,0.023465674,0.88804597,0.58564997,0.10228248,0.20369095,0.6284204,0.3303317,-0.31773847,0.083329275,0.41649076,820.3663,790.54944,807.47253,819.5604,904.17584,-0.06884765625,0.1021728515625,1.00970458984375,1.9140625,-6.3104248046875,-31.881103515625,1,1.0,1.0,1.0,1.0,10.00
