TimeStamp,Delta_TP9,Delta_AF7,Delta_AF8,Delta_TP10,Theta_TP9,Theta_AF7,Theta_AF8,Theta_TP10,Alpha_TP9,Alpha_AF7,Alpha_AF8,Alpha_TP10,Beta_TP9,Beta_AF7,Beta_AF8,Beta_TP10,Gamma_TP9,Gamma_AF7,Gamma_AF8,Gamma_TP10,RAW_TP9,RAW_AF7,RAW_AF8,RAW_TP10,AUX_RIGHT,Accelerometer_X,Accelerometer_Y,Accelerometer_Z,Gyro_X,Gyro_Y,Gyro_Z,HeadBandOn,HSI_TP9,HSI_AF7,HSI_AF8,HSI_TP10,Battery,Elements
2024-10-11 20:45:50.151,1.4916008,1.0564786,-0.27277198,1.0081509,1.1863008,0.6973609,-1.0423481,0.9533517,1.5776734,0.3698355,-0.4537734,1.4958892,0.5082797,0.023989426,0.54284585,0.8965727,0.33018413,-0.3804895,0.25555915,0.40091833,736.55676,778.0586,843.73627,763.5531,921.50183,0.0673828125,0.03271484375,1.008544921875,-4.47113037109375,4.83001708984375,3.63372802734375,1,1.0,1.0,1.0,1.0,10.00
2024-10-11 20:45:50.152,1.4916008,1.0564786,-0.27277198,1.0081509,1.1863008,0.6973609,-1.0423481,0.9533517,1.5776734,0.3698355,-0.4537734,1.4958892,0.5082797,0.023989426,0.54284585,0.8965727,0.33018413,-0.3804895,0.25555915,0.40091833,740.989,778.86444,840.10986,755.09155,669.67035,0.0673828125,0.03271484375,1.008544921875,-4.47113037109375,4.83001708984375,3.63372802734375,1,1.0,1.0,1.0,1.0,10.00
2024-10-11 20:45:50.152,1.4916008,1.0564786,-0.27277198,1.0081509,1.1863008,0.6973609,-1.0423481,0.9533517,1.5776734,0.3698355,-0.4537734,1.4958892,0.5082797,0.023989426,0.54284585,0.8965727,0.33018413,-0.3804895,0.25555915,0.40091833,740.58606,780.07324,836.8865,765.56775,616.4835,0.0673828125,0.03271484375,1.008544921875,-4.47113037109375,4.83001708984375,3.63372802734375,1,1.0,1.0,1.0,1.0,10.00
2024-10-11 20:45:50.153,1.4916008,1.0564786,-0.27277198,1.0081509,1.1863008,0.6973609,-1.0423481,0.9533517,1.5776734,0.3698355,-0.4537734,1.4958892,0.5082797,0.023989426,0.54284585,0.8965727,0.33018413,-0.3804895,0.25555915,0.40091833,745.42126,783.2967,840.5128,769.19415,501.64835,0.0673828125,0.03271484375,1.008544921875,-4.47113037109375,4.83001708984375,3.63372802734375,1,1.0,1.0,1.0,1.0,10.00
2024-10-11 20:45:50.154,1.4916008,1.0564786,-0.27277198,1.0081509,1.1863008,0.6973609,-1.0423481,0.9533517,1.5776734,0.3698355,-0.4537734,1.4958892,0.5082797,0.023989426,0.54284585,0.8965727,0.33018413,-0.3804895,0.25555915,0.40091833,763.5531,780.87915,844.1392,767.1795,716.0073,0.0673828125,0.03271484375,1.008544921875,-4.47113037109375,4.83001708984375,3.63372802734375,1,1.0,1.0,1.0,1.0,10.00
2024-10-11 20:45:50.154,1.4916008,1.0564786,-0.27277198,1.0081509,1.1863008,0.6973609,-1.0423481,0.9533517,1.5776734,0.3698355,-0.4537734,1.4958892,0.5082797,0.023989426,0.54284585,0.8965727,0.33018413,-0.3804895,0.25555915,0.40091833,749.85345,776.8498,842.9304,767.1795,943.2601,0.0673828125,0.03271484375,1.008544921875,-4.47113037109375,4.83001708984375,3.63372802734375,1,1.0,1.0,1.0,1.0,10.00
2024-10-11 20:45:50.155,1.4916008,1.0564786,-0.27277198,1.0081509,1.1863008,0.6973609,-1.0423481,0.9533517,1.5776734,0.3698355,-0.4537734,1.4958892,0.5082797,0.023989426,0.54284585,0.8965727,0.33018413,-0.3804895,0.25555915,0.40091833,744.61536,777.25275,842.52747,772.8205,757.1062,0.0673828125,0.03271484375,1.008544921875,-4.47113037109375,4.83001708984375,3.63372802734375,1,1.0,1.0,1.0,1.0,10.00
2024-10-11 20:45:50.156,1.4916008,1.0564786,-0.27277198,1.0081509,1.1863008,0.6973609,-1.0423481,0.9533517,1.5776734,0.3698355,-0.4537734,1.4958892,0.5082797,0.023989426,0.54284585,0.8965727,0.33018413,-0.3804895,0.25555915,0.40091833,753.47986,782.8938,849.3773,777.6557,542.74725,0.0673828125,0.03271484375,1.008544921875,-4.47113037109375,4.83001708984375,3.63372802734375,1,1.0,1.0,1.0,1.0,10.00
2024-10-11 20:45:50.156,1.4916008,1.0564786,-0.27277198,1.0081509,1.1863008,0.6973609,-1.0423481,0.9533517,1.5776734,0.3698355,-0.4537734,1.4958892,0.5082797,0.023989426,0.54284585,0.8965727,0.33018413,-0.3804895,0.25555915,0.40091833,757.1062,782.0879,841.31866,774.0293,657.1795,0.0673828125,0.03271484375,1.008544921875,-4.47113037109375,4.83001708984375,3.63372802734375,1,1.0,1.0,1.0,1.0,10.00
2024-10-11 20:45:50.157,1.4916008,1.0564786,-0.27277198,1.0081509,1.1863008,0.6973609,-1.0423481,0.9533517,1.5776734,0.3698355,-0.4537734,1.4958892,0.5082797,0.023989426,0.54284585,0.8965727,0.33018413,-0.3804895,0.25555915,0.40091833,764.35895,784.90845,834.87177,786.1172,750.2564,0.0673828125,0.03271484375,1.008544921875,-4.47113037109375,4.83001708984375,3.63372802734375,1,1.0,1.0,1.0,1.0,10.00
2024-10-11 20:45:50.158,1.4916008,1.0564786,-0.27277198,1.0081509,1.1863008,0.6973609,-1.0423481,0.9533517,1.5776734,0.3698355,-0.4537734,1.4958892,0.5082797,0.023989426,0.54284585,0.8965727,0.33018413,-0.3804895,0.25555915,0.40091833,771.2088,786.1172,849.3773,794.9817,651.9414,0.0673828125,0.03271484375,1.008544921875,-4.47113037109375,4.83001708984375,3.63372802734375,1,1.0,1.0,1.0,1.0,10.00
2024-10-11 20:45:50.159,1.4916008,1.0564786,-0.27277198,1.0081509,1.1863008,0.6973609,-1.0423481,0.9533517,1.5776734,0.3698355,-0.4537734,1.4958892,0.5082797,0.023989426,0.54284585,0.8965727,0.33018413,-0.3804895,0.25555915,0.40091833,766.77655,772.4176,856.2271,786.9231,667.25275,0.0673828125,0.03271484375,1.008544921875,-4.47113037109375,4.83001708984375,3.63372802734375,1,1.0,1.0,1.0,1.0,10.00
2024-10-11 20:45:50.242,1.4916008,1.0564786,-0.27277198,1.0081509,1.1863008,0.6973609,-1.0423481,0.9533517,1.5776734,0.3698355,-0.4537734,1.4958892,0.5082797,0.023989426,0.54284585,0.8965727,0.33018413,-0.3804895,0.25555915,0.40091833,764.35895,779.67035,853.8095,785.31134,708.3516,0.046630859375,0.02764892578125,1.01495361328125,-6.280517578125,7.364654541015625,4.493560791015625,1,1.0,1.0,1.0,1.0,10.00
2024-10-11 20:45:50.244,1.4916008,1.0564786,-0.27277198,1.0081509,1.1863008,0.6973609,-1.0423481,0.9533517,1.5776734,0.3698355,-0.4537734,1.4958892,0.5082797,0.023989426,0.54284585,0.8965727,0.33018413,-0.3804895,0.25555915,0.40091833,770.0,790.54944,847.3626,788.1319,715.6044,0.046630859375,0.02764892578125,1.01495361328125,-6.280517578125,7.364654541015625,4.493560791015625,1,1.0,1.0,1.0,1.0,10.00
2024-10-11 20:45:50.244,1.4916008,1.0564786,-0.27277198,1.0081509,1.1863008,0.6973609,-1.0423481,0.9533517,1.5776734,0.3698355,-0.4537734,1.4958892,0.5082797,0.023989426,0.54284585,0.8965727,0.33018413,-0.3804895,0.25555915,0.40091833,768.3883,790.54944,832.0513,789.34064,640.65936,0.046630859375,0.02764892578125,1.01495361328125,-6.280517578125,7.364654541015625,4.493560791015625,1,1.0,1.0,1.0,1.0,10.00
2024-10-11 20:45:50.245,1.4916008,1.0564786,-0.27277198,1.0081509,1.1863008,0.6973609,-1.0423481,0.9533517,1.5776734,0.3698355,-0.4537734,1.4958892,0.5082797,0.023989426,0.54284585,0.8965727,0.33018413,-0.3804895,0.25555915,0.40091833,767.5824,791.3553,834.87177,784.10254,639.45056,0.046630859375,0.02764892578125,1.01495361328125,-6.280517578125,7.364654541015625,4.493560791015625,1,1.0,1.0,1.0,1.0,10.00
2024-10-11 20:45:50.246,1.4916008,1.0564786,-0.27277198,1.0081509,1.1863008,0.6973609,-1.0423481,0.9533517,1.5776734,0.3698355,-0.4537734,1.4958892,0.5082797,0.023989426,0.54284585,0.8965727,0.33018413,-0.3804895,0.25555915,0.40091833,772.01465,787.72894,840.10986,783.69965,879.19415,0.046630859375,0.02764892578125,1.01495361328125,-6.280517578125,7.364654541015625,4.493560791015625,1,1.0,1.0,1.0,1.0,10.00
2024-10-11 20:45:50.247,1.4916008,1.0564786,-0.27277198,1.0081509,1.1863008,0.6973609,-1.0423481,0.9533517,1.5776734,0.3698355,-0.4537734,1.4958892,0.5082797,0.023989426,0.54284585,0.8965727,0.33018413,-0.3804895,0.25555915,0.40091833,775.2381,781.685,842.1245,790.14655,1088.3151,0.046630859375,0.02764892578125,1.01495361328125,-6.280517578125,7.364654541015625,4.493560791015625,1,1.0,1.0,1.0,1.0,10.00
2024-10-11 20:45:50.248,1.4916008,1.0564786,-0.27277198,1.0081509,1.1863008,0.6973609,-1.0423481,0.9533517,1.5776734,0.3698355,-0.4537734,1.4958892,0.5082797,0.023989426,0.54284585,0.8965727,0.33018413,-0.3804895,0.25555915,0.40091833,776.04395,781.685,840.5128,785.31134,997.25275,0.046630859375,0.02764892578125,1.01495361328125,-6.280517578125,7.364654541015625,4.493560791015625,1,1.0,1.0,1.0,1.0,10.00
2024-10-11 20:45:50.249,1.4916008,1.0296996,-0.27277198,1.0081509,1.1863008,0.670406,-1.0423481,0.9533517,1.5776734,0.3698355,-0.4537734,1.4958892,0.5082797,0.0198269,0.54284585,0.8965727,0.33018413,-0.38581017,0.25555915,0.40091833,781.28204,783.2967,836.8865,786.52014,897.72894,0.046630859375,0.02764892578125,1.01495361328125,-6.280517578125,7.364654541015625,4.493560791015625,1,1.0,1.0,1.0,1.0,10.00
2024-10-11 20:45:50.254,1.4916008,1.0296996,-0.27277198,1.0081509,1.1863008,0.670406,-1.0423481,0.9533517,1.5776734,0.3698355,-0.4537734,1.4958892,0.5082797,0.0198269,0.54284585,0.8965727,0.33018413,-0.38581017,0.25555915,0.40091833,792.5641,784.90845,835.2747,791.75824,895.7143,0.046630859375,0.02764892578125,1.01495361328125,-6.280517578125,7.364654541015625,4.493560791015625,1,1.0,1.0,1.0,1.0,10.00
2024-10-11 20:45:50.255,1.4916008,1.0296996,-0.27277198,1.0081509,1.1863008,0.670406,-1.0423481,0.9533517,1.5776734,0.3698355,-0.4537734,1.4958892,0.5082797,0.0198269,0.54284585,0.8965727,0.33018413,-0.38581017,0.25555915,0.40091833,784.5055,789.34064,827.619,789.34064,806.26373,0.046630859375,0.02764892578125,1.01495361328125,-6.280517578125,7.364654541015625,4.493560791015625,1,1.0,1.0,1.0,1.0,10.00
2024-10-11 20:45:50.256,1.4916008,1.0296996,-0.27277198,1.0081509,1.1863008,0.670406,-1.0423481,0.9533517,1.5776734,0.3698355,-0.4537734,1.4958892,0.5082797,0.0198269,0.54284585,0.8965727,0.33018413,-0.38581017,0.25555915,0.40091833,778.46155,785.31134,820.7692,785.31134,695.4579,0.046630859375,0.02764892578125,1.01495361328125,-6.280517578125,7.364654541015625,4.493560791015625,1,1.0,1.0,1.0,1.0,10.00
2024-10-11 20:45:50.256,1.4916008,1.0296996,-0.27277198,1.0081509,1.1863008,0.670406,-1.0423481,0.9533517,1.5776734,0.3698355,-0.4537734,1.4958892,0.5082797,0.0198269,0.54284585,0.8965727,0.33018413,-0.38581017,0.25555915,0.40091833,781.28204,782.8938,816.7399,783.69965,748.6447,0.046630859375,0.02764892578125,1.01495361328125,-6.280517578125,7.364654541015625,4.493560791015625,1,1.0,1.0,1.0,1.0,10.00
2024-10-11 20:45:50.319,1.4916008,1.0296996,-0.27277198,1.0081509,1.1863008,0.670406,-1.0423481,0.9533517,1.5776734,0.3698355,-0.4537734,1.4958892,0.5082797,0.0198269,0.54284585,0.8965727,0.33018413,-0.38581017,0.25555915,0.40091833,772.01465,783.69965,823.1868,792.96704,790.54944,0.03387451171875,0.0118408203125,1.0084228515625,-7.70111083984375,8.471221923828125,3.476715087890625,1,1.0,1.0,1.0,1.0,10.00
2024-10-11 20:45:50.320,1.4916008,1.0296996,-0.27277198,1.0081509,1.1863008,0.670406,-1.0423481,0.9533517,1.5776734,0.3698355,-0.4537734,1.4958892,0.5082797,0.0198269,0.54284585,0.8965727,0.33018413,-0.38581017,0.25555915,0.40091833,764.7619,785.31134,821.1722,799.81683,640.2564,0.03387451171875,0.0118408203125,1.0084228515625,-7.70111083984375,8.471221923828125,3.476715087890625,1,1.0,1.0,1.0,1.0,10.00
2024-10-11 20:45:50.321,1.4916008,1.0296996,-0.27277198,1.0081509,1.1863008,0.670406,-1.0423481,0.9533517,1.5776734,0.3698355,-0.4537734,1.4958892,0.5082797,0.0198269,0.54284585,0.8965727,0.33018413,-0.38581017,0.25555915,0.40091833,767.5824,788.1319,829.2308,797.8022,499.23077,0.03387451171875,0.0118408203125,1.0084228515625,-7.70111083984375,8.471221923828125,3.476715087890625,1,1.0,1.0,1.0,1.0,10.00
2024-10-11 20:45:50.322,1.4916008,1.0296996,-0.27277198,1.0081509,1.1863008,0.670406,-1.0423481,0.9533517,1.5776734,0.3698355,-0.4537734,1.4958892,0.5082797,0.0198269,0.54284585,0.8965727,0.33018413,-0.38581017,0.25555915,0.40091833,779.2674,790.54944,821.1722,801.02563,663.6264,0.03387451171875,0.0118408203125,1.0084228515625,-7.70111083984375,8.471221923828125,3.476715087890625,1,1.0,1.0,1.0,1.0,10.00
2024-10-11 20:45:50.323,1.4916008,1.0296996,-0.27277198,1.0081509,1.1863008,0.670406,-1.0423481,0.9533517,1.5776734,0.3698355,-0.4537734,1.4958892,0.5082797,0.0198269,0.54284585,0.8965727,0.33018413,-0.38581017,0.25555915,0.40091833,781.685,792.5641,805.4579,792.5641,836.8865,0.03387451171875,0.0118408203125,1.0084228515625,-7.70111083984375,8.471221923828125,3.476715087890625,1,1.0,1.0,1.0,1.0,10.00
2024-10-11 20:45:50.323,1.4916008,1.0296996,-0.27277198,1.0081509,1.1863008,0.670406,-1.0423481,0.9533517,1.5776734,0.3698355,-0.4537734,1.4958892,0.5082797,0.0198269,0.54284585,0.8965727,0.33018413,-0.38581017,0.25555915,0.40091833,789.7436,792.5641,820.3663,790.9524,804.65204,0.03387451171875,0.0118408203125,1.0084228515625,-7.70111083984375,8.471221923828125,3.476715087890625,1,1.0,1.0,1.0,1.0,10.00
2024-10-11 20:45:50.324,1.4916008,1.0296996,-0.27277198,1.0081509,1.1863008,0.670406,-1.0423481,0.9533517,1.5776734,0.3698355,-0.4537734,1.4958892,0.5082797,0.0198269,0.54284585,0.8965727,0.33018413,-0.38581017,0.25555915,0.40091833,792.96704,792.5641,825.6044,799.81683,732.9304,0.03387451171875,0.0118408203125,1.0084228515625,-7.70111083984375,8.471221923828125,3.476715087890625,1,1.0,1.0,1.0,1.0,10.00
2024-10-11 20:45:50.325,1.4916008,1.0296996,-0.27277198,1.0081509,1.1863008,0.670406,-1.0423481,0.9533517,1.5776734,0.3698355,-0.4537734,1.4958892,0.5082797,0.0198269,0.54284585,0.8965727,0.33018413,-0.38581017,0.25555915,0.40091833,784.10254,791.75824,816.337,803.44324,744.61536,0.03387451171875,0.0118408203125,1.0084228515625,-7.70111083984375,8.471221923828125,3.476715087890625,1,1.0,1.0,1.0,1.0,10.00
2024-10-11 20:45:50.326,1.4916008,1.0296996,-0.27277198,1.0081509,1.1863008,0.670406,-1.0423481,0.9533517,1.5776734,0.3698355,-0.4537734,1.4958892,0.5082797,0.0198269,0.54284585,0.8965727,0.33018413,-0.38581017,0.25555915,0.40091833,783.2967,791.75824,811.0989,809.4872,847.3626,0.03387451171875,0.0118408203125,1.0084228515625,-7.70111083984375,8.471221923828125,3.476715087890625,1,1.0,1.0,1.0,1.0,10.00
2024-10-11 20:45:50.327,1.4916008,1.0296996,-0.27277198,1.0081509,1.1863008,0.670406,-1.0423481,0.9533517,1.5776734,0.3698355,-0.4537734,1.4958892,0.5082797,0.0198269,0.54284585,0.8965727,0.33018413,-0.38581017,0.25555915,0.40091833,786.9231,794.17584,815.12823,810.293,720.4396,0.03387451171875,0.0118408203125,1.0084228515625,-7.70111083984375,8.471221923828125,3.476715087890625,1,1.0,1.0,1.0,1.0,10.00
2024-10-11 20:45:50.328,1.4916008,1.0296996,-0.27277198,1.0081509,1.1863008,0.670406,-1.0423481,0.9533517,1.5776734,0.3698355,-0.4537734,1.4958892,0.5082797,0.0198269,0.54284585,0.8965727,0.33018413,-0.38581017,0.25555915,0.40091833,785.7143,792.96704,808.68134,808.68134,588.2784,0.03387451171875,0.0118408203125,1.0084228515625,-7.70111083984375,8.471221923828125,3.476715087890625,1,1.0,1.0,1.0,1.0,10.00
2024-10-11 20:45:50.329,1.4916008,1.0296996,-0.27277198,1.0081509,1.1863008,0.670406,-1.0423481,0.9533517,1.5776734,0.3698355,-0.4537734,1.4958892,0.5082797,0.0198269,0.54284585,0.8965727,0.33018413,-0.38581017,0.25555915,0.40091833,786.52014,793.36993,803.44324,811.50183,772.8205,0.03387451171875,0.0118408203125,1.0084228515625,-7.70111083984375,8.471221923828125,3.476715087890625,1,1.0,1.0,1.0,1.0,10.00
2024-10-11 20:45:50.330,1.4916008,1.0296996,-0.27277198,1.0081509,1.1863008,0.670406,-1.0423481,0.9533517,1.5776734,0.3698355,-0.4537734,1.4958892,0.5082797,0.0198269,0.54284585,0.8965727,0.33018413,-0.38581017,0.25555915,0.40091833,787.326,796.99634,815.5311,807.8755,851.79486,0.01708984375,-9.1552734375E-4,1.00732421875,-8.501129150390625,8.785247802734375,1.278533935546875,1,1.0,1.0,1.0,1.0,10.00
2024-10-11 20:45:50.331,1.4916008,1.0296996,-0.27277198,1.0081509,1.1863008,0.670406,-1.0423481,0.9533517,1.5776734,0.3698355,-0.4537734,1.4958892,0.5082797,0.0198269,0.54284585,0.8965727,0.33018413,-0.38581017,0.25555915,0.40091833,790.54944,798.20514,817.1429,796.5934,589.89014,0.01708984375,-9.1552734375E-4,1.00732421875,-8.501129150390625,8.785247802734375,1.278533935546875,1,1.0,1.0,1.0,1.0,10.00
2024-10-11 20:45:50.332,1.4916008,1.0296996,-0.27277198,1.0081509,1.1863008,0.670406,-1.0423481,0.9533517,1.5776734,0.3698355,-0.4537734,1.4958892,0.5082797,0.0198269,0.54284585,0.8965727,0.33018413,-0.38581017,0.25555915,0.40091833,794.9817,793.36993,809.4872,799.41394,557.6557,0.01708984375,-9.1552734375E-4,1.00732421875,-8.501129150390625,8.785247802734375,1.278533935546875,1,1.0,1.0,1.0,1.0,10.00
2024-10-11 20:45:50.332,1.4916008,1.0296996,-0.27277198,1.0081509,1.1863008,0.670406,-1.0423481,0.9533517,1.5776734,0.3698355,-0.4537734,1.4958892,0.5082797,0.0198269,0.54284585,0.8965727,0.33018413,-0.38581017,0.25555915,0.40091833,797.8022,789.34064,808.2784,807.47253,726.8865,0.01708984375,-9.1552734375E-4,1.00732421875,-8.501129150390625,8.785247802734375,1.278533935546875,1,1.0,1.0,1.0,1.0,10.00
2024-10-11 20:45:50.333,1.4916008,1.0296996,-0.27277198,1.0081509,1.1863008,0.670406,-1.0423481,0.9533517,1.5776734,0.3698355,-0.4537734,1.4958892,0.5082797,0.0198269,0.54284585,0.8965727,0.33018413,-0.38581017,0.25555915,0.40091833,801.8315,792.5641,806.26373,810.696,733.3333,0.01708984375,-9.1552734375E-4,1.00732421875,-8.501129150390625,8.785247802734375,1.278533935546875,1,1.0,1.0,1.0,1.0,10.00
2024-10-11 20:45:50.334,1.4916008,1.0296996,-0.27277198,1.0081509,1.1863008,0.670406,-1.0423481,0.9533517,1.5776734,0.3698355,-0.4537734,1.4958892,0.5082797,0.0198269,0.54284585,0.8965727,0.33018413,-0.38581017,0.25555915,0.40091833,806.26373,792.5641,811.0989,808.68134,667.6557,0.01708984375,-9.1552734375E-4,1.00732421875,-8.501129150390625,8.785247802734375,1.278533935546875,1,1.0,1.0,1.0,1.0,10.00
2024-10-11 20:45:50.335,1.4916008,1.0296996,-0.27277198,1.0081509,1.1863008,0.670406,-1.0423481,0.9533517,1.5776734,0.3698355,-0.4537734,1.4958892,0.5082797,0.0198269,0.54284585,0.8965727,0.33018413,-0.38581017,0.25555915,0.40091833,802.6374,788.5348,812.71063,805.4579,780.87915,0.01708984375,-9.1552734375E-4,1.00732421875,-8.501129150390625,8.785247802734375,1.278533935546875,1,1.0,1.0,1.0,1.0,10.00
2024-10-11 20:45:50.335,1.4916008,1.0296996,-0.27277198,1.0081509,1.1863008,0.670406,-1.0423481,0.9533517,1.5776734,0.3698355,-0.4537734,1.4958892,0.5082797,0.0198269,0.54284585,0.8965727,0.33018413,-0.38581017,0.25555915,0.40091833,797.8022,788.1319,809.0842,802.6374,754.68866,0.01708984375,-9.1552734375E-4,1.00732421875,-8.501129150390625,8.785247802734375,1.278533935546875,1,1.0,1.0,1.0,1.0,10.00
2024-10-11 20:45:50.336,1.4916008,1.0296996,-0.27277198,1.0081509,1.1863008,0.670406,-1.0423481,0.9533517,1.5776734,0.3698355,-0.4537734,1.4958892,0.5082797,0.0198269,0.54284585,0.8965727,0.33018413,-0.38581017,0.25555915,0.40091833,801.02563,790.14655,807.8755,797.8022,659.19415,0.01708984375,-9.1552734375E-4,1.00732421875,-8.501129150390625,8.785247802734375,1.278533935546875,1,1.0,1.0,1.0,1.0,10.00
2024-10-11 20:45:50.337,1.4916008,1.0067085,-0.27277198,1.0081509,1.1863008,0.6454127,-1.0423481,0.9533517,1.5776734,0.3698355,-0.4537734,1.4958892,0.5082797,0.009721447,0.54284585,0.8965727,0.33018413,-0.3946214,0.25555915,0.40091833,791.3553,788.5348,807.47253,794.9817,650.7326,0.01708984375,-9.1552734375E-4,1.00732421875,-8.501129150390625,8.785247802734375,1.278533935546875,1,1.0,1.0,1.0,1.0,10.00
2024-10-11 20:45:50.342,1.4916008,1.0067085,-0.27277198,1.0081509,1.1863008,0.6454127,-1.0423481,0.9533517,1.5776734,0.3698355,-0.4537734,1.4958892,0.5082797,0.009721447,0.54284585,0.8965727,0.33018413,-0.3946214,0.25555915,0.40091833,796.1905,787.326,805.05493,805.8608,675.31134,0.01708984375,-9.1552734375E-4,1.00732421875,-8.501129150390625,8.785247802734375,1.278533935546875,1,1.0,1.0,1.0,1.0,10.00
2024-10-11 20:45:50.343,1.4916008,1.0067085,-0.27277198,1.0081509,1.1863008,0.6454127,-1.0423481,0.9533517,1.5776734,0.3698355,-0.4537734,1.4958892,0.5082797,0.009721447,0.54284585,0.8965727,0.33018413,-0.3946214,0.25555915,0.40091833,800.2198,787.72894,793.36993,811.9048,786.9231,0.01708984375,-9.1552734375E-4,1.00732421875,-8.501129150390625,8.785247802734375,1.278533935546875,1,1.0,1.0,1.0,1.0,10.00
2024-10-11 20:45:50.344,1.4916008,1.0067085,-0.27277198,1.0081509,1.1863008,0.6454127,-1.0423481,0.9533517,1.5776734,0.3698355,-0.4537734,1.4958892,0.5082797,0.009721447,0.54284585,0.8965727,0.33018413,-0.3946214,0.25555915,0.40091833,787.326,789.7436,799.81683,814.7253,899.7436,0.00372314453125,-0.03094482421875,1.01092529296875,-8.725433349609375,9.263763427734375,-0.037384033203125,1,1.0,1.0,1.0,1.0,10.00
2024-10-11 20:45:50.345,1.4916008,1.0067085,-0.27277198,1.0081509,1.1863008,0.6454127,-1.0423481,0.9533517,1.5776734,0.3698355,-0.4537734,1.4958892,0.5082797,0.009721447,0.54284585,0.8965727,0.33018413,-0.3946214,0.25555915,0.40091833,781.685,787.72894,807.47253,815.5311,853.8095,0.00372314453125,-0.03094482421875,1.01092529296875,-8.725433349609375,9.263763427734375,-0.037384033203125,1,1.0,1.0,1.0,1.0,10.00
2024-10-11 20:45:50.346,1.4916008,1.0067085,-0.27277198,1.0081509,1.1863008,0.6454127,-1.0423481,0.9533517,1.5776734,0.3698355,-0.4537734,1.4958892,0.5082797,0.009721447,0.54284585,0.8965727,0.33018413,-0.3946214,0.25555915,0.40091833,784.10254,784.10254,805.4579,805.8608,871.13556,0.00372314453125,-0.03094482421875,1.01092529296875,-8.725433349609375,9.263763427734375,-0.037384033203125,1,1.0,1.0,1.0,1.0,10.00
2024-10-11 20:45:50.347,1.4916008,1.0067085,-0.27277198,1.0081509,1.1863008,0.6454127,-1.0423481,0.9533517,1.5776734,0.3698355,-0.4537734,1.4958892,0.5082797,0.009721447,0.54284585,0.8965727,0.33018413,-0.3946214,0.25555915,0.40091833,794.57874,786.52014,794.17584,796.5934,978.71796,0.00372314453125,-0.03094482421875,1.01092529296875,-8.725433349609375,9.263763427734375,-0.037384033203125,1,1.0,1.0,1.0,1.0,10.00
2024-10-11 20:45:50.348,1.4916008,1.0067085,-0.27277198,1.0081509,1.1863008,0.6454127,-1.0423481,0.9533517,1.5776734,0.3698355,-0.4537734,1.4958892,0.5082797,0.009721447,0.54284585,0.8965727,0.33018413,-0.3946214,0.25555915,0.40091833,801.4286,792.5641,789.34064,799.41394,842.9304,0.00372314453125,-0.03094482421875,1.01092529296875,-8.725433349609375,9.263763427734375,-0.037384033203125,1,1.0,1.0,1.0,1.0,10.00
2024-10-11 20:45:50.349,1.4916008,1.0067085,-0.27277198,1.0081509,1.1863008,0.6454127,-1.0423481,0.9533517,1.5776734,0.3698355,-0.4537734,1.4958892,0.5082797,0.009721447,0.54284585,0.8965727,0.33018413,-0.3946214,0.25555915,0.40091833,797.3993,792.1612,808.68134,813.1135,844.5421,0.00372314453125,-0.03094482421875,1.01092529296875,-8.725433349609375,9.263763427734375,-0.037384033203125,1,1.0,1.0,1.0,1.0,10.00
2024-10-11 20:45:50.350,1.4916008,1.0067085,-0.27277198,1.0081509,1.1863008,0.6454127,-1.0423481,0.9533517,1.5776734,0.3698355,-0.4537734,1.4958892,0.5082797,0.009721447,0.54284585,0.8965727,0.33018413,-0.3946214,0.25555915,0.40091833,796.99634,790.54944,802.6374,817.9487,1091.9414,0.00372314453125,-0.03094482421875,1.01092529296875,-8.725433349609375,9.263763427734375,-0.037384033203125,1,1.0,1.0,1.0,1.0,10.00
2024-10-11 20:45:50.350,1.4916008,1.0067085,-0.27277198,1.0081509,1.1863008,0.6454127,-1.0423481,0.9533517,1.5776734,0.3698355,-0.4537734,1.4958892,0.5082797,0.009721447,0.54284585,0.8965727,0.33018413,-0.3946214,0.25555915,0.40091833,800.6227,796.1905,797.8022,817.5458,1021.02563,0.00372314453125,-0.03094482421875,1.01092529296875,-8.725433349609375,9.263763427734375,-0.037384033203125,1,1.0,1.0,1.0,1.0,10.00
2024-10-11 20:45:50.351,1.4916008,1.0067085,-0.27277198,1.0081509,1.1863008,0.6454127,-1.0423481,0.9533517,1.5776734,0.3698355,-0.4537734,1.4958892,0.5082797,0.009721447,0.54284585,0.8965727,0.33018413,-0.3946214,0.25555915,0.40091833,806.6667,797.3993,808.68134,807.0696,713.9927,0.00372314453125,-0.03094482421875,1.01092529296875,-8.725433349609375,9.263763427734375,-0.037384033203125,1,1.0,1.0,1.0,1.0,10.00
2024-10-11 20:45:50.352,1.4916008,1.0067085,-0.27277198,1.0081509,1.1863008,0.6454127,-1.0423481,0.9533517,1.5776734,0.3698355,-0.4537734,1.4958892,0.5082797,0.009721447,0.54284585,0.8965727,0.33018413,-0.3946214,0.25555915,0.40091833,815.9341,799.011,805.05493,801.02563,638.24176,0.00372314453125,-0.03094482421875,1.01092529296875,-8.725433349609375,9.263763427734375,-0.037384033203125,1,1.0,1.0,1.0,1.0,10.00
2024-10-11 20:45:50.353,1.4916008,1.0067085,-0.27277198,1.0081509,1.1863008,0.6454127,-1.0423481,0.9533517,1.5776734,0.3698355,-0.4537734,1.4958892,0.5082797,0.009721447,0.54284585,0.8965727,0.33018413,-0.3946214,0.25555915,0.40091833,805.05493,795.38464,805.4579,803.44324,782.8938,0.00372314453125,-0.03094482421875,1.01092529296875,-8.725433349609375,9.263763427734375,-0.037384033203125,1,1.0,1.0,1.0,1.0,10.00
2024-10-11 20:45:50.353,1.4916008,1.0067085,-0.27277198,1.0081509,1.1863008,0.6454127,-1.0423481,0.9533517,1.5776734,0.3698355,-0.4537734,1.4958892,0.5082797,0.009721447,0.54284585,0.8965727,0.33018413,-0.3946214,0.25555915,0.40091833,791.3553,790.9524,802.6374,803.44324,884.83514,0.00372314453125,-0.03094482421875,1.01092529296875,-8.725433349609375,9.263763427734375,-0.037384033203125,1,1.0,1.0,1.0,1.0,10.00
2024-10-11 20:45:50.385,1.4916008,1.0067085,-0.27277198,1.0081509,1.1863008,0.6454127,-1.0423481,0.9533517,1.5776734,0.3698355,-0.4537734,1.4958892,0.5082797,0.009721447,0.54284585,0.8965727,0.33018413,-0.3946214,0.25555915,0.40091833,805.8608,796.99634,798.20514,802.6374,682.5641,0.00372314453125,-0.03094482421875,1.01092529296875,-8.725433349609375,9.263763427734375,-0.037384033203125,1,1.0,1.0,1.0,1.0,10.00
2024-10-11 20:45:50.386,1.4916008,1.0067085,-0.27277198,1.0081509,1.1863008,0.6454127,-1.0423481,0.9533517,1.5776734,0.3698355,-0.4537734,1.4958892,0.5082797,0.009721447,0.54284585,0.8965727,0.33018413,-0.3946214,0.25555915,0.40091833,815.9341,794.17584,801.02563,794.17584,593.91943,0.00372314453125,-0.03094482421875,1.01092529296875,-8.725433349609375,9.263763427734375,-0.037384033203125,1,1.0,1.0,1.0,1.0,10.00
2024-10-11 20:45:50.386,1.4916008,1.0067085,-0.27277198,1.0081509,1.1863008,0.6454127,-1.0423481,0.9533517,1.5776734,0.3698355,-0.4537734,1.4958892,0.5082797,0.009721447,0.54284585,0.8965727,0.33018413,-0.3946214,0.25555915,0.40091833,798.20514,788.1319,799.41394,790.14655,899.34064,0.00372314453125,-0.03094482421875,1.01092529296875,-8.725433349609375,9.263763427734375,-0.037384033203125,1,1.0,1.0,1.0,1.0,10.00
2024-10-11 20:45:50.387,1.4916008,1.0067085,-0.27277198,1.0081509,1.1863008,0.6454127,-1.0423481,0.9533517,1.5776734,0.3698355,-0.4537734,1.4958892,0.5082797,0.009721447,0.54284585,0.8965727,0.33018413,-0.3946214,0.25555915,0.40091833,793.36993,790.14655,795.78754,797.3993,996.04395,0.00372314453125,-0.03094482421875,1.01092529296875,-8.725433349609375,9.263763427734375,-0.037384033203125,1,1.0,1.0,1.0,1.0,10.00
2024-10-11 20:45:50.388,1.4916008,1.0067085,-0.27277198,1.0081509,1.1863008,0.6454127,-1.0423481,0.9533517,1.5776734,0.3698355,-0.4537734,1.4958892,0.5082797,0.009721447,0.54284585,0.8965727,0.33018413,-0.3946214,0.25555915,0.40091833,799.81683,793.36993,799.41394,801.8315,696.26373,0.00372314453125,-0.03094482421875,1.01092529296875,-8.725433349609375,9.263763427734375,-0.037384033203125,1,1.0,1.0,1.0,1.0,10.00
2024-10-11 20:45:50.389,1.4916008,1.0067085,-0.27277198,1.0081509,1.1863008,0.6454127,-1.0423481,0.9533517,1.5776734,0.3698355,-0.4537734,1.4958892,0.5082797,0.009721447,0.54284585,0.8965727,0.33018413,-0.3946214,0.25555915,0.40091833,797.3993,794.9817,803.44324,805.4579,765.9707,0.00372314453125,-0.03094482421875,1.01092529296875,-8.725433349609375,9.263763427734375,-0.037384033203125,1,1.0,1.0,1.0,1.0,10.00
2024-10-11 20:45:50.389,1.4916008,1.0067085,-0.27277198,1.0081509,1.1863008,0.6454127,-1.0423481,0.9533517,1.5776734,0.3698355,-0.4537734,1.4958892,0.5082797,0.009721447,0.54284585,0.8965727,0.33018413,-0.3946214,0.25555915,0.40091833,789.7436,795.78754,797.3993,806.26373,1028.6813,0.00372314453125,-0.03094482421875,1.01092529296875,-8.725433349609375,9.263763427734375,-0.037384033203125,1,1.0,1.0,1.0,1.0,10.00
2024-10-11 20:45:50.390,1.4916008,1.0067085,-0.27277198,1.0081509,1.1863008,0.6454127,-1.0423481,0.9533517,1.5776734,0.3698355,-0.4537734,1.4958892,0.5082797,0.009721447,0.54284585,0.8965727,0.33018413,-0.3946214,0.25555915,0.40091833,790.54944,796.99634,791.3553,804.2491,919.89014,0.00372314453125,-0.03094482421875,1.01092529296875,-8.725433349609375,9.263763427734375,-0.037384033203125,1,1.0,1.0,1.0,1.0,10.00
2024-10-11 20:45:50.391,1.4916008,1.0067085,-0.27277198,1.0081509,1.1863008,0.6454127,-1.0423481,0.9533517,1.5776734,0.3698355,-0.4537734,1.4958892,0.5082797,0.009721447,0.54284585,0.8965727,0.33018413,-0.3946214,0.25555915,0.40091833,806.26373,796.5934,784.10254,801.8315,684.57874,0.00372314453125,-0.03094482421875,1.01092529296875,-8.725433349609375,9.263763427734375,-0.037384033203125,1,1.0,1.0,1.0,1.0,10.00
2024-10-11 20:45:50.391,1.4916008,1.0067085,-0.27277198,1.0081509,1.1863008,0.6454127,-1.0423481,0.9533517,1.5776734,0.3698355,-0.4537734,1.4958892,0.5082797,0.009721447,0.54284585,0.8965727,0.33018413,-0.3946214,0.25555915,0.40091833,815.5311,794.9817,786.52014,798.20514,683.7729,0.00372314453125,-0.03094482421875,1.01092529296875,-8.725433349609375,9.263763427734375,-0.037384033203125,1,1.0,1.0,1.0,1.0,10.00
2024-10-11 20:45:50.392,1.4916008,1.0067085,-0.27277198,1.0081509,1.1863008,0.6454127,-1.0423481,0.9533517,1.5776734,0.3698355,-0.4537734,1.4958892,0.5082797,0.009721447,0.54284585,0.8965727,0.33018413,-0.3946214,0.25555915,0.40091833,812.71063,791.3553,798.60803,808.2784,815.5311,0.00372314453125,-0.03094482421875,1.01092529296875,-8.725433349609375,9.263763427734375,-0.037384033203125,1,1.0,1.0,1.0,1.0,10.00
2024-10-11 20:45:50.393,1.4916008,0.98874253,-0.27277198,1.0081509,1.1863008,0.63182783,-1.0423481,0.9533517,1.5776734,0.33788258,-0.4537734,1.4958892,0.5082797,-0.007979508,0.54284585,0.8965727,0.33018413,-0.41103113,0.25555915,0.40091833,810.293,789.7436,802.23444,808.2784,793.36993,0.00372314453125,-0.03094482421875,1.01092529296875,-8.725433349609375,9.263763427734375,-0.037384033203125,1,1.0,1.0,1.0,1.0,10.00
2024-10-11 20:45:50.399,1.4916008,0.98874253,-0.27277198,1.0081509,1.1863008,0.63182783,-1.0423481,0.9533517,1.5776734,0.33788258,-0.4537734,1.4958892,0.5082797,-0.007979508,0.54284585,0.8965727,0.33018413,-0.41103113,0.25555915,0.40091833,813.1135,796.1905,802.6374,805.4579,635.42126,-0.01715087890625,-0.05120849609375,1.004638671875,-6.975860595703125,9.458160400390625,0.456085205078125,1,1.0,1.0,1.0,1.0,10.00
2024-10-11 20:45:50.400,1.4916008,0.98874253,-0.27277198,1.0081509,1.1863008,0.63182783,-1.0423481,0.9533517,1.5776734,0.33788258,-0.4537734,1.4958892,0.5082797,-0.007979508,0.54284585,0.8965727,0.33018413,-0.41103113,0.25555915,0.40091833,810.293,796.1905,799.011,810.293,748.24176,-0.01715087890625,-0.05120849609375,1.004638671875,-6.975860595703125,9.458160400390625,0.456085205078125,1,1.0,1.0,1.0,1.0,10.00
2024-10-11 20:45:50.401,1.4916008,0.98874253,-0.27277198,1.0081509,1.1863008,0.63182783,-1.0423481,0.9533517,1.5776734,0.33788258,-0.4537734,1.4958892,0.5082797,-0.007979508,0.54284585,0.8965727,0.33018413,-0.41103113,0.25555915,0.40091833,810.696,794.57874,801.02563,809.89014,923.1135,-0.01715087890625,-0.05120849609375,1.004638671875,-6.975860595703125,9.458160400390625,0.456085205078125,1,1.0,1.0,1.0,1.0,10.00
2024-10-11 20:45:50.402,1.4916008,0.98874253,-0.27277198,1.0081509,1.1863008,0.63182783,-1.0423481,0.9533517,1.5776734,0.33788258,-0.4537734,1.4958892,0.5082797,-0.007979508,0.54284585,0.8965727,0.33018413,-0.41103113,0.25555915,0.40091833,806.6667,797.3993,805.8608,809.0842,757.50916,-0.01715087890625,-0.05120849609375,1.004638671875,-6.975860595703125,9.458160400390625,0.456085205078125,1,1.0,1.0,1.0,1.0,10.00
2024-10-11 20:45:50.402,1.4916008,0.98874253,-0.27277198,1.0081509,1.1863008,0.63182783,-1.0423481,0.9533517,1.5776734,0.33788258,-0.4537734,1.4958892,0.5082797,-0.007979508,0.54284585,0.8965727,0.33018413,-0.41103113,0.25555915,0.40091833,804.2491,792.96704,800.2198,803.0403,645.09155,-0.01715087890625,-0.05120849609375,1.004638671875,-6.975860595703125,9.458160400390625,0.456085205078125,1,1.0,1.0,1.0,1.0,10.00
2024-10-11 20:45:50.403,1.4916008,0.98874253,-0.27277198,1.0081509,1.1863008,0.63182783,-1.0423481,0.9533517,1.5776734,0.33788258,-0.4537734,1.4958892,0.5082797,-0.007979508,0.54284585,0.8965727,0.33018413,-0.41103113,0.25555915,0.40091833,809.0842,792.96704,797.3993,805.05493,853.4066,-0.01715087890625,-0.05120849609375,1.004638671875,-6.975860595703125,9.458160400390625,0.456085205078125,1,1.0,1.0,1.0,1.0,10.00
2024-10-11 20:45:50.404,1.4916008,0.98874253,-0.27277198,1.0081509,1.1863008,0.63182783,-1.0423481,0.9533517,1.5776734,0.33788258,-0.4537734,1.4958892,0.5082797,-0.007979508,0.54284585,0.8965727,0.33018413,-0.41103113,0.25555915,0.40091833,814.7253,796.5934,796.1905,804.65204,1079.4506,-0.01715087890625,-0.05120849609375,1.004638671875,-6.975860595703125,9.458160400390625,0.456085205078125,1,1.0,1.0,1.0,1.0,10.00
2024-10-11 20:45:50.404,1.4916008,0.98874253,-0.27277198,1.0081509,1.1863008,0.63182783,-1.0423481,0.9533517,1.5776734,0.33788258,-0.4537734,1.4958892,0.5082797,-0.007979508,0.54284585,0.8965727,0.33018413,-0.41103113,0.25555915,0.40091833,812.3077,792.5641,789.7436,794.57874,982.74725,-0.01715087890625,-0.05120849609375,1.004638671875,-6.975860595703125,9.458160400390625,0.456085205078125,1,1.0,1.0,1.0,1.0,10.00
2024-10-11 20:45:50.405,1.4916008,0.98874253,-0.27277198,1.0081509,1.1863008,0.63182783,-1.0423481,0.9533517,1.5776734,0.33788258,-0.4537734,1.4958892,0.5082797,-0.007979508,0.54284585,0.8965727,0.33018413,-0.41103113,0.25555915,0.40091833,807.0696,789.34064,794.17584,801.8315,738.5714,-0.01715087890625,-0.05120849609375,1.004638671875,-6.975860595703125,9.458160400390625,0.456085205078125,1,1.0,1.0,1.0,1.0,10.00
2024-10-11 20:45:50.406,1.4916008,0.98874253,-0.27277198,1.0081509,1.1863008,0.63182783,-1.0423481,0.9533517,1.5776734,0.33788258,-0.4537734,1.4958892,0.5082797,-0.007979508,0.54284585,0.8965727,0.33018413,-0.41103113,0.25555915,0.40091833,807.47253,789.34064,794.9817,802.23444,705.5311,-0.01715087890625,-0.05120849609375,1.004638671875,-6.975860595703125,9.458160400390625,0.456085205078125,1,1.0,1.0,1.0,1.0,10.00
2024-10-11 20:45:50.406,1.4916008,0.98874253,-0.27277198,1.0081509,1.1863008,0.63182783,-1.0423481,0.9533517,1.5776734,0.33788258,-0.4537734,1.4958892,0.5082797,-0.007979508,0.54284585,0.8965727,0.33018413,-0.41103113,0.25555915,0.40091833,806.26373,794.57874,789.7436,801.4286,734.5421,-0.01715087890625,-0.05120849609375,1.004638671875,-6.975860595703125,9.458160400390625,0.456085205078125,1,1.0,1.0,1.0,1.0,10.00
2024-10-11 20:45:50.407,1.4916008,0.98874253,-0.27277198,1.0081509,1.1863008,0.63182783,-1.0423481,0.9533517,1.5776734,0.33788258,-0.4537734,1.4958892,0.5082797,-0.007979508,0.54284585,0.8965727,0.33018413,-0.41103113,0.25555915,0.40091833,803.0403,797.8022,800.6227,802.23444,648.315,-0.01715087890625,-0.05120849609375,1.004638671875,-6.975860595703125,9.458160400390625,0.456085205078125,1,1.0,1.0,1.0,1.0,10.00
2024-10-11 20:45:50.439,1.4916008,0.98874253,-0.27277198,1.0081509,1.1863008,0.63182783,-1.0423481,0.9533517,1.5776734,0.33788258,-0.4537734,1.4958892,0.5082797,-0.007979508,0.54284585,0.8965727,0.33018413,-0.41103113,0.25555915,0.40091833,806.6667,799.011,808.2784,799.011,602.7839,-0.0247802734375,-0.0582275390625,0.9996337890625,-4.71038818359375,7.88055419921875,1.099090576171875,1,1.0,1.0,1.0,1.0,10.00
2024-10-11 20:45:50.440,1.4916008,0.98874253,-0.27277198,1.0081509,1.1863008,0.63182783,-1.0423481,0.9533517,1.5776734,0.33788258,-0.4537734,1.4958892,0.5082797,-0.007979508,0.54284585,0.8965727,0.33018413,-0.41103113,0.25555915,0.40091833,808.2784,798.20514,809.0842,809.0842,791.75824,-0.0247802734375,-0.0582275390625,0.9996337890625,-4.71038818359375,7.88055419921875,1.099090576171875,1,1.0,1.0,1.0,1.0,10.00
2024-10-11 20:45:50.440,1.4916008,0.98874253,-0.27277198,1.0081509,1.1863008,0.63182783,-1.0423481,0.9533517,1.5776734,0.33788258,-0.4537734,1.4958892,0.5082797,-0.007979508,0.54284585,0.8965727,0.33018413,-0.41103113,0.25555915,0.40091833,809.0842,796.99634,812.71063,814.3223,828.8278,-0.0247802734375,-0.0582275390625,0.9996337890625,-4.71038818359375,7.88055419921875,1.099090576171875,1,1.0,1.0,1.0,1.0,10.00
2024-10-11 20:45:50.441,1.4916008,0.98874253,-0.27277198,1.0081509,1.1863008,0.63182783,-1.0423481,0.9533517,1.5776734,0.33788258,-0.4537734,1.4958892,0.5082797,-0.007979508,0.54284585,0.8965727,0.33018413,-0.41103113,0.25555915,0.40091833,813.5165,802.6374,808.68134,813.1135,615.2747,-0.0247802734375,-0.0582275390625,0.9996337890625,-4.71038818359375,7.88055419921875,1.099090576171875,1,1.0,1.0,1.0,1.0,10.00
2024-10-11 20:45:50.442,1.4916008,0.98874253,-0.27277198,1.0081509,1.1863008,0.63182783,-1.0423481,0.9533517,1.5776734,0.33788258,-0.4537734,1.4958892,0.5082797,-0.007979508,0.54284585,0.8965727,0.33018413,-0.41103113,0.25555915,0.40091833,811.0989,798.60803,807.0696,815.9341,562.49084,-0.0247802734375,-0.0582275390625,0.9996337890625,-4.71038818359375,7.88055419921875,1.099090576171875,1,1.0,1.0,1.0,1.0,10.00
2024-10-11 20:45:50.443,1.4916008,0.98874253,-0.27277198,1.0081509,1.1863008,0.63182783,-1.0423481,0.9533517,1.5776734,0.33788258,-0.4537734,1.4958892,0.5082797,-0.007979508,0.54284585,0.8965727,0.33018413,-0.41103113,0.25555915,0.40091833,803.44324,792.5641,803.8461,815.12823,983.5531,-0.0247802734375,-0.0582275390625,0.9996337890625,-4.71038818359375,7.88055419921875,1.099090576171875,1,1.0,1.0,1.0,1.0,10.00
2024-10-11 20:45:50.444,1.4916008,0.98874253,-0.27277198,1.0081509,1.1863008,0.63182783,-1.0423481,0.9533517,1.5776734,0.33788258,-0.4537734,1.4958892,0.5082797,-0.007979508,0.54284585,0.8965727,0.33018413,-0.41103113,0.25555915,0.40091833,807.47253,791.75824,801.02563,815.5311,1376.8132,-0.0247802734375,-0.0582275390625,0.9996337890625,-4.71038818359375,7.88055419921875,1.099090576171875,1,1.0,1.0,1.0,1.0,10.00
2024-10-11 20:45:50.445,1.4916008,0.98874253,-0.27277198,1.0081509,1.1863008,0.63182783,-1.0423481,0.9533517,1.5776734,0.33788258,-0.4537734,1.4958892,0.5082797,-0.007979508,0.54284585,0.8965727,0.33018413,-0.41103113,0.25555915,0.40091833,813.1135,793.7729,799.81683,820.7692,1242.2344,-0.0247802734375,-0.0582275390625,0.9996337890625,-4.71038818359375,7.88055419921875,1.099090576171875,1,1.0,1.0,1.0,1.0,10.00
2024-10-11 20:45:50.445,1.4916008,0.98874253,-0.27277198,1.0081509,1.1863008,0.63182783,-1.0423481,0.9533517,1.5776734,0.33788258,-0.4537734,1.4958892,0.5082797,-0.007979508,0.54284585,0.8965727,0.33018413,-0.41103113,0.25555915,0.40091833,813.1135,796.99634,800.2198,815.5311,1019.81683,-0.0247802734375,-0.0582275390625,0.9996337890625,-4.71038818359375,7.88055419921875,1.099090576171875,1,1.0,1.0,1.0,1.0,10.00
2024-10-11 20:45:50.446,1.4916008,0.98874253,-0.27277198,1.0081509,1.1863008,0.63182783,-1.0423481,0.9533517,1.5776734,0.33788258,-0.4537734,1.4958892,0.5082797,-0.007979508,0.54284585,0.8965727,0.33018413,-0.41103113,0.25555915,0.40091833,815.9341,799.011,805.4579,808.68134,664.43225,-0.0247802734375,-0.0582275390625,0.9996337890625,-4.71038818359375,7.88055419921875,1.099090576171875,1,1.0,1.0,1.0,1.0,10.00
2024-10-11 20:45:50.447,1.4916008,0.98874253,-0.27277198,1.0081509,1.1863008,0.63182783,-1.0423481,0.9533517,1.5776734,0.33788258,-0.4537734,1.4958892,0.5082797,-0.007979508,0.54284585,0.8965727,0.33018413,-0.41103113,0.25555915,0.40091833,819.9634,805.05493,803.0403,807.0696,435.16483,-0.0247802734375,-0.0582275390625,0.9996337890625,-4.71038818359375,7.88055419921875,1.099090576171875,1,1.0,1.0,1.0,1.0,10.00
2024-10-11 20:45:50.448,1.4916008,0.98874253,-0.27277198,1.0081509,1.1863008,0.63182783,-1.0423481,0.9533517,1.5776734,0.33788258,-0.4537734,1.4958892,0.5082797,-0.007979508,0.54284585,0.8965727,0.33018413,-0.41103113,0.25555915,0.40091833,815.5311,808.2784,806.6667,801.4286,361.02563,-0.0247802734375,-0.0582275390625,0.9996337890625,-4.71038818359375,7.88055419921875,1.099090576171875,1,1.0,1.0,1.0,1.0,10.00
2024-10-11 20:45:50.476,1.4916008,0.98874253,-0.27277198,1.0081509,1.1863008,0.63182783,-1.0423481,0.9533517,1.5776734,0.33788258,-0.4537734,1.4958892,0.5082797,-0.007979508,0.54284585,0.8965727,0.33018413,-0.41103113,0.25555915,0.40091833,811.50183,803.44324,798.20514,797.8022,446.04395,-0.04150390625,-0.06292724609375,1.0113525390625,-2.46734619140625,7.237548828125,1.353302001953125,1,1.0,1.0,1.0,1.0,10.00
2024-10-11 20:45:50.478,1.4916008,0.9906625,-0.27277198,1.0081509,1.1863008,0.6341879,-1.0423481,0.9533517,1.5776734,0.3469607,-0.4537734,1.4958892,0.5082797,-0.027246516,0.54284585,0.8965727,0.33018413,-0.425984,0.25555915,0.40091833,814.3223,799.011,797.8022,799.011,634.21246,-0.04150390625,-0.06292724609375,1.0113525390625,-2.46734619140625,7.237548828125,1.353302001953125,1,1.0,1.0,1.0,1.0,10.00
2024-10-11 20:45:50.483,1.4916008,0.9906625,-0.27277198,1.0081509,1.1863008,0.6341879,-1.0423481,0.9533517,1.5776734,0.3469607,-0.4537734,1.4958892,0.5082797,-0.027246516,0.54284585,0.8965727,0.33018413,-0.425984,0.25555915,0.40091833,808.68134,799.41394,804.65204,801.02563,531.06226,-0.04150390625,-0.06292724609375,1.0113525390625,-2.46734619140625,7.237548828125,1.353302001953125,1,1.0,1.0,1.0,1.0,10.00
2024-10-11 20:45:50.484,1.4916008,0.9906625,-0.27277198,1.0081509,1.1863008,0.6341879,-1.0423481,0.9533517,1.5776734,0.3469607,-0.4537734,1.4958892,0.5082797,-0.027246516,0.54284585,0.8965727,0.33018413,-0.425984,0.25555915,0.40091833,799.81683,799.011,800.6227,797.3993,353.36996,-0.04150390625,-0.06292724609375,1.0113525390625,-2.46734619140625,7.237548828125,1.353302001953125,1,1.0,1.0,1.0,1.0,10.00
2024-10-11 20:45:50.485,1.4916008,0.9906625,-0.27277198,1.0081509,1.1863008,0.6341879,-1.0423481,0.9533517,1.5776734,0.3469607,-0.4537734,1.4958892,0.5082797,-0.027246516,0.54284585,0.8965727,0.33018413,-0.425984,0.25555915,0.40091833,796.1905,793.36993,805.4579,801.4286,535.89746,-0.04150390625,-0.06292724609375,1.0113525390625,-2.46734619140625,7.237548828125,1.353302001953125,1,1.0,1.0,1.0,1.0,10.00
2024-10-11 20:45:50.485,1.4916008,0.9906625,-0.27277198,1.0081509,1.1863008,0.6341879,-1.0423481,0.9533517,1.5776734,0.3469607,-0.4537734,1.4958892,0.5082797,-0.027246516,0.54284585,0.8965727,0.33018413,-0.425984,0.25555915,0.40091833,787.326,792.5641,799.81683,802.23444,803.44324,-0.04150390625,-0.06292724609375,1.0113525390625,-2.46734619140625,7.237548828125,1.353302001953125,1,1.0,1.0,1.0,1.0,10.00
2024-10-11 20:45:50.486,1.4916008,0.9906625,-0.27277198,1.0081509,1.1863008,0.6341879,-1.0423481,0.9533517,1.5776734,0.3469607,-0.4537734,1.4958892,0.5082797,-0.027246516,0.54284585,0.8965727,0.33018413,-0.425984,0.25555915,0.40091833,786.9231,792.96704,804.2491,799.81683,672.0879,-0.04150390625,-0.06292724609375,1.0113525390625,-2.46734619140625,7.237548828125,1.353302001953125,1,1.0,1.0,1.0,1.0,10.00
2024-10-11 20:45:50.487,1.4916008,0.9906625,-0.27277198,1.0081509,1.1863008,0.6341879,-1.0423481,0.9533517,1.5776734,0.3469607,-0.4537734,1.4958892,0.5082797,-0.027246516,0.54284585,0.8965727,0.33018413,-0.425984,0.25555915,0.40091833,799.81683,791.75824,805.05493,804.65204,470.6227,-0.04150390625,-0.06292724609375,1.0113525390625,-2.46734619140625,7.237548828125,1.353302001953125,1,1.0,1.0,1.0,1.0,10.00
2024-10-11 20:45:50.488,1.4916008,0.9906625,-0.27277198,1.0081509,1.1863008,0.6341879,-1.0423481,0.9533517,1.5776734,0.3469607,-0.4537734,1.4958892,0.5082797,-0.027246516,0.54284585,0.8965727,0.33018413,-0.425984,0.25555915,0.40091833,796.1905,792.96704,802.23444,810.696,519.3773,-0.04150390625,-0.06292724609375,1.0113525390625,-2.46734619140625,7.237548828125,1.353302001953125,1,1.0,1.0,1.0,1.0,10.00
2024-10-11 20:45:50.488,1.4916008,0.9906625,-0.27277198,1.0081509,1.1863008,0.6341879,-1.0423481,0.9533517,1.5776734,0.3469607,-0.4537734,1.4958892,0.5082797,-0.027246516,0.54284585,0.8965727,0.33018413,-0.425984,0.25555915,0.40091833,794.9817,794.17584,815.5311,816.7399,919.0842,-0.04150390625,-0.06292724609375,1.0113525390625,-2.46734619140625,7.237548828125,1.353302001953125,1,1.0,1.0,1.0,1.0,10.00
2024-10-11 20:45:50.489,1.4916008,0.9906625,-0.27277198,1.0081509,1.1863008,0.6341879,-1.0423481,0.9533517,1.5776734,0.3469607,-0.4537734,1.4958892,0.5082797,-0.027246516,0.54284585,0.8965727,0.33018413,-0.425984,0.25555915,0.40091833,804.2491,796.99634,809.4872,814.7253,1148.7546,-0.04150390625,-0.06292724609375,1.0113525390625,-2.46734619140625,7.237548828125,1.353302001953125,1,1.0,1.0,1.0,1.0,10.00
2024-10-11 20:45:50.490,1.4916008,0.9906625,-0.27277198,1.0081509,1.1863008,0.6341879,-1.0423481,0.9533517,1.5776734,0.3469607,-0.4537734,1.4958892,0.5082797,-0.027246516,0.54284585,0.8965727,0.33018413,-0.425984,0.25555915,0.40091833,820.7692,799.011,796.5934,809.0842,874.35895,-0.04150390625,-0.06292724609375,1.0113525390625,-2.46734619140625,7.237548828125,1.353302001953125,1,1.0,1.0,1.0,1.0,10.00
2024-10-11 20:45:50.518,1.4916008,0.9906625,-0.27277198,1.0081509,1.1863008,0.6341879,-1.0423481,0.9533517,1.5776734,0.3469607,-0.4537734,1.4958892,0.5082797,-0.027246516,0.54284585,0.8965727,0.33018413,-0.425984,0.25555915,0.40091833,814.3223,796.1905,795.78754,806.6667,738.5714,-0.057373046875,-0.064208984375,1.0096435546875,-0.949554443359375,7.04315185546875,0.8074951171875,1,1.0,1.0,1.0,1.0,10.00
2024-10-11 20:45:50.519,1.4916008,0.9906625,-0.27277198,1.0081509,1.1863008,0.6341879,-1.0423481,0.9533517,1.5776734,0.3469607,-0.4537734,1.4958892,0.5082797,-0.027246516,0.54284585,0.8965727,0.33018413,-0.425984,0.25555915,0.40091833,803.0403,790.9524,804.65204,810.696,848.1685,-0.057373046875,-0.064208984375,1.0096435546875,-0.949554443359375,7.04315185546875,0.8074951171875,1,1.0,1.0,1.0,1.0,10.00
2024-10-11 20:45:50.520,1.4916008,0.9906625,-0.27277198,1.0081509,1.1863008,0.6341879,-1.0423481,0.9533517,1.5776734,0.3469607,-0.4537734,1.4958892,0.5082797,-0.027246516,0.54284585,0.8965727,0.33018413,-0.425984,0.25555915,0.40091833,816.337,796.1905,805.4579,811.9048,645.09155,-0.057373046875,-0.064208984375,1.0096435546875,-0.949554443359375,7.04315185546875,0.8074951171875,1,1.0,1.0,1.0,1.0,10.00
2024-10-11 20:45:50.521,1.4916008,0.9906625,-0.27277198,1.0081509,1.1863008,0.6341879,-1.0423481,0.9533517,1.5776734,0.3469607,-0.4537734,1.4958892,0.5082797,-0.027246516,0.54284585,0.8965727,0.33018413,-0.425984,0.25555915,0.40091833,817.1429,801.8315,801.8315,815.12823,550.80585,-0.057373046875,-0.064208984375,1.0096435546875,-0.949554443359375,7.04315185546875,0.8074951171875,1,1.0,1.0,1.0,1.0,10.00
2024-10-11 20:45:50.521,1.4916008,0.9906625,-0.27277198,1.0081509,1.1863008,0.6341879,-1.0423481,0.9533517,1.5776734,0.3469607,-0.4537734,1.4958892,0.5082797,-0.027246516,0.54284585,0.8965727,0.33018413,-0.425984,0.25555915,0.40091833,815.5311,800.2198,801.02563,820.3663,760.7326,-0.057373046875,-0.064208984375,1.0096435546875,-0.949554443359375,7.04315185546875,0.8074951171875,1,1.0,1.0,1.0,1.0,10.00
2024-10-11 20:45:50.522,1.4916008,0.9906625,-0.27277198,1.0081509,1.1863008,0.6341879,-1.0423481,0.9533517,1.5776734,0.3469607,-0.4537734,1.4958892,0.5082797,-0.027246516,0.54284585,0.8965727,0.33018413,-0.425984,0.25555915,0.40091833,818.3516,800.6227,798.60803,814.7253,931.978,-0.057373046875,-0.064208984375,1.0096435546875,-0.949554443359375,7.04315185546875,0.8074951171875,1,1.0,1.0,1.0,1.0,10.00
2024-10-11 20:45:50.523,1.4916008,0.9906625,-0.27277198,1.0081509,1.1863008,0.6341879,-1.0423481,0.9533517,1.5776734,0.3469607,-0.4537734,1.4958892,0.5082797,-0.027246516,0.54284585,0.8965727,0.33018413,-0.425984,0.25555915,0.40091833,819.15753,801.4286,786.1172,796.99634,729.304,-0.057373046875,-0.064208984375,1.0096435546875,-0.949554443359375,7.04315185546875,0.8074951171875,1,1.0,1.0,1.0,1.0,10.00
2024-10-11 20:45:50.523,1.4916008,0.9906625,-0.27277198,1.0081509,1.1863008,0.6341879,-1.0423481,0.9533517,1.5776734,0.3469607,-0.4537734,1.4958892,0.5082797,-0.027246516,0.54284585,0.8965727,0.33018413,-0.425984,0.25555915,0.40091833,810.696,801.4286,782.0879,792.1612,552.4176,-0.057373046875,-0.064208984375,1.0096435546875,-0.949554443359375,7.04315185546875,0.8074951171875,1,1.0,1.0,1.0,1.0,10.00
2024-10-11 20:45:50.524,1.4916008,0.9906625,-0.27277198,1.0081509,1.1863008,0.6341879,-1.0423481,0.9533517,1.5776734,0.3469607,-0.4537734,1.4958892,0.5082797,-0.027246516,0.54284585,0.8965727,0.33018413,-0.425984,0.25555915,0.40091833,810.293,801.02563,799.011,792.96704,691.8315,-0.057373046875,-0.064208984375,1.0096435546875,-0.949554443359375,7.04315185546875,0.8074951171875,1,1.0,1.0,1.0,1.0,10.00
2024-10-11 20:45:50.525,1.4916008,0.9906625,-0.27277198,1.0081509,1.1863008,0.6341879,-1.0423481,0.9533517,1.5776734,0.3469607,-0.4537734,1.4958892,0.5082797,-0.027246516,0.54284585,0.8965727,0.33018413,-0.425984,0.25555915,0.40091833,808.68134,800.2198,802.6374,784.90845,747.03296,-0.057373046875,-0.064208984375,1.0096435546875,-0.949554443359375,7.04315185546875,0.8074951171875,1,1.0,1.0,1.0,1.0,10.00
2024-10-11 20:45:50.527,1.4916008,0.9906625,-0.27277198,1.0081509,1.1863008,0.6341879,-1.0423481,0.9533517,1.5776734,0.3469607,-0.4537734,1.4958892,0.5082797,-0.027246516,0.54284585,0.8965727,0.33018413,-0.425984,0.25555915,0.40091833,806.26373,796.1905,796.99634,789.34064,588.68134,-0.057373046875,-0.064208984375,1.0096435546875,-0.949554443359375,7.04315185546875,0.8074951171875,1,1.0,1.0,1.0,1.0,10.00
2024-10-11 20:45:50.528,1.4916008,0.9906625,-0.27277198,1.0081509,1.1863008,0.6341879,-1.0423481,0.9533517,1.5776734,0.3469607,-0.4537734,1.4958892,0.5082797,-0.027246516,0.54284585,0.8965727,0.33018413,-0.425984,0.25555915,0.40091833,810.293,796.1905,782.0879,790.9524,679.7436,-0.057373046875,-0.064208984375,1.0096435546875,-0.949554443359375,7.04315185546875,0.8074951171875,1,1.0,1.0,1.0,1.0,10.00
2024-10-11 20:45:50.530,1.4916008,0.9906625,-0.27277198,1.0081509,1.1863008,0.6341879,-1.0423481,0.9533517,1.5776734,0.3469607,-0.4537734,1.4958892,0.5082797,-0.027246516,0.54284585,0.8965727,0.33018413,-0.425984,0.25555915,0.40091833,807.0696,798.60803,782.49084,783.69965,732.1245,-0.057861328125,-0.05963134765625,1.00238037109375,0.112152099609375,7.424468994140625,1.592559814453125,1,1.0,1.0,1.0,1.0,10.00
2024-10-11 20:45:50.531,1.4916008,0.9906625,-0.27277198,1.0081509,1.1863008,0.6341879,-1.0423481,0.9533517,1.5776734,0.3469607,-0.4537734,1.4958892,0.5082797,-0.027246516,0.54284585,0.8965727,0.33018413,-0.425984,0.25555915,0.40091833,803.0403,794.9817,792.1612,784.90845,633.8095,-0.057861328125,-0.05963134765625,1.00238037109375,0.112152099609375,7.424468994140625,1.592559814453125,1,1.0,1.0,1.0,1.0,10.00
2024-10-11 20:45:50.532,1.4916008,0.9906625,-0.27277198,1.0081509,1.1863008,0.6341879,-1.0423481,0.9533517,1.5776734,0.3469607,-0.4537734,1.4958892,0.5082797,-0.027246516,0.54284585,0.8965727,0.33018413,-0.425984,0.25555915,0.40091833,803.44324,794.9817,785.31134,788.1319,543.5531,-0.057861328125,-0.05963134765625,1.00238037109375,0.112152099609375,7.424468994140625,1.592559814453125,1,1.0,1.0,1.0,1.0,10.00
2024-10-11 20:45:50.533,1.4916008,0.9965448,-0.27277198,1.0081509,1.1863008,0.63592046,-1.0423481,0.9533517,1.5776734,0.36863765,-0.4537734,1.4958892,0.5082797,-0.04218034,0.54284585,0.8965727,0.33018413,-0.4362217,0.25555915,0.40091833,800.6227,794.9817,788.5348,797.3993,600.3663,-0.057861328125,-0.05963134765625,1.00238037109375,0.112152099609375,7.424468994140625,1.592559814453125,1,1.0,1.0,1.0,1.0,10.00
2024-10-11 20:45:50.538,1.4916008,0.9965448,-0.27277198,1.0081509,1.1863008,0.63592046,-1.0423481,0.9533517,1.5776734,0.36863765,-0.4537734,1.4958892,0.5082797,-0.04218034,0.54284585,0.8965727,0.33018413,-0.4362217,0.25555915,0.40091833,787.326,790.9524,799.41394,803.8461,807.47253,-0.057861328125,-0.05963134765625,1.00238037109375,0.112152099609375,7.424468994140625,1.592559814453125,1,1.0,1.0,1.0,1.0,10.00
2024-10-11 20:45:50.539,1.4916008,0.9965448,-0.27277198,1.0081509,1.1863008,0.63592046,-1.0423481,0.9533517,1.5776734,0.36863765,-0.4537734,1.4958892,0.5082797,-0.04218034,0.54284585,0.8965727,0.33018413,-0.4362217,0.25555915,0.40091833,784.5055,790.14655,802.23444,793.7729,875.16486,-0.057861328125,-0.05963134765625,1.00238037109375,0.112152099609375,7.424468994140625,1.592559814453125,1,1.0,1.0,1.0,1.0,10.00
2024-10-11 20:45:50.540,1.4916008,0.9965448,-0.27277198,1.0081509,1.1863008,0.63592046,-1.0423481,0.9533517,1.5776734,0.36863765,-0.4537734,1.4958892,0.5082797,-0.04218034,0.54284585,0.8965727,0.33018413,-0.4362217,0.25555915,0.40091833,787.326,794.57874,787.72894,780.07324,784.10254,-0.057861328125,-0.05963134765625,1.00238037109375,0.112152099609375,7.424468994140625,1.592559814453125,1,1.0,1.0,1.0,1.0,10.00
2024-10-11 20:45:50.541,1.4916008,0.9965448,-0.27277198,1.0081509,1.1863008,0.63592046,-1.0423481,0.9533517,1.5776734,0.36863765,-0.4537734,1.4958892,0.5082797,-0.04218034,0.54284585,0.8965727,0.33018413,-0.4362217,0.25555915,0.40091833,783.2967,795.78754,789.34064,781.685,855.82416,-0.057861328125,-0.05963134765625,1.00238037109375,0.112152099609375,7.424468994140625,1.592559814453125,1,1.0,1.0,1.0,1.0,10.00
2024-10-11 20:45:50.542,1.4916008,0.9965448,-0.27277198,1.0081509,1.1863008,0.63592046,-1.0423481,0.9533517,1.5776734,0.36863765,-0.4537734,1.4958892,0.5082797,-0.04218034,0.54284585,0.8965727,0.33018413,-0.4362217,0.25555915,0.40091833,780.07324,792.1612,797.8022,788.5348,981.13556,-0.057861328125,-0.05963134765625,1.00238037109375,0.112152099609375,7.424468994140625,1.592559814453125,1,1.0,1.0,1.0,1.0,10.00
2024-10-11 20:45:50.542,1.4916008,0.9965448,-0.27277198,1.0081509,1.1863008,0.63592046,-1.0423481,0.9533517,1.5776734,0.36863765,-0.4537734,1.4958892,0.5082797,-0.04218034,0.54284585,0.8965727,0.33018413,-0.4362217,0.25555915,0.40091833,774.83514,788.5348,799.011,787.72894,694.65204,-0.057861328125,-0.05963134765625,1.00238037109375,0.112152099609375,7.424468994140625,1.592559814453125,1,1.0,1.0,1.0,1.0,10.00
2024-10-11 20:45:50.543,1.4916008,0.9965448,-0.27277198,1.0081509,1.1863008,0.63592046,-1.0423481,0.9533517,1.5776734,0.36863765,-0.4537734,1.4958892,0.5082797,-0.04218034,0.54284585,0.8965727,0.33018413,-0.4362217,0.25555915,0.40091833,778.46155,788.1319,809.0842,786.52014,579.011,-0.057861328125,-0.05963134765625,1.00238037109375,0.112152099609375,7.424468994140625,1.592559814453125,1,1.0,1.0,1.0,1.0,10.00
2024-10-11 20:45:50.545,1.4916008,0.9965448,-0.27277198,1.0081509,1.1863008,0.63592046,-1.0423481,0.9533517,1.5776734,0.36863765,-0.4537734,1.4958892,0.5082797,-0.04218034,0.54284585,0.8965727,0.33018413,-0.4362217,0.25555915,0.40091833,784.10254,789.34064,804.2491,790.14655,845.7509,-0.057861328125,-0.05963134765625,1.00238037109375,0.112152099609375,7.424468994140625,1.592559814453125,1,1.0,1.0,1.0,1.0,10.00
2024-10-11 20:45:50.578,1.4916008,0.9965448,-0.27277198,1.0081509,1.1863008,0.63592046,-1.0423481,0.9533517,1.5776734,0.36863765,-0.4537734,1.4958892,0.5082797,-0.04218034,0.54284585,0.8965727,0.33018413,-0.4362217,0.25555915,0.40091833,782.0879,790.14655,797.3993,789.7436,848.5714,-0.057861328125,-0.05963134765625,1.00238037109375,0.112152099609375,7.424468994140625,1.592559814453125,1,1.0,1.0,1.0,1.0,10.00
2024-10-11 20:45:50.579,1.4916008,0.9965448,-0.27277198,1.0081509,1.1863008,0.63592046,-1.0423481,0.9533517,1.5776734,0.36863765,-0.4537734,1.4958892,0.5082797,-0.04218034,0.54284585,0.8965727,0.33018413,-0.4362217,0.25555915,0.40091833,786.9231,788.93774,811.0989,792.96704,656.3736,-0.057861328125,-0.05963134765625,1.00238037109375,0.112152099609375,7.424468994140625,1.592559814453125,1,1.0,1.0,1.0,1.0,10.00
2024-10-11 20:45:50.580,1.4916008,0.9965448,-0.27277198,1.0081509,1.1863008,0.63592046,-1.0423481,0.9533517,1.5776734,0.36863765,-0.4537734,1.4958892,0.5082797,-0.04218034,0.54284585,0.8965727,0.33018413,-0.4362217,0.25555915,0.40091833,794.17584,790.9524,800.6227,800.6227,525.82416,-0.057861328125,-0.05963134765625,1.00238037109375,0.112152099609375,7.424468994140625,1.592559814453125,1,1.0,1.0,1.0,1.0,10.00
2024-10-11 20:45:50.581,1.4916008,0.9965448,-0.27277198,1.0081509,1.1863008,0.63592046,-1.0423481,0.9533517,1.5776734,0.36863765,-0.4537734,1.4958892,0.5082797,-0.04218034,0.54284585,0.8965727,0.33018413,-0.4362217,0.25555915,0.40091833,803.8461,793.7729,796.1905,808.68134,693.44324,-0.057861328125,-0.05963134765625,1.00238037109375,0.112152099609375,7.424468994140625,1.592559814453125,1,1.0,1.0,1.0,1.0,10.00
2024-10-11 20:45:50.582,1.4916008,0.9965448,-0.27277198,1.0081509,1.1863008,0.63592046,-1.0423481,0.9533517,1.5776734,0.36863765,-0.4537734,1.4958892,0.5082797,-0.04218034,0.54284585,0.8965727,0.33018413,-0.4362217,0.25555915,0.40091833,809.0842,792.96704,814.7253,808.2784,938.022,-0.057861328125,-0.05963134765625,1.00238037109375,0.112152099609375,7.424468994140625,1.592559814453125,1,1.0,1.0,1.0,1.0,10.00
2024-10-11 20:45:50.583,1.4916008,0.9965448,-0.27277198,1.0081509,1.1863008,0.63592046,-1.0423481,0.9533517,1.5776734,0.36863765,-0.4537734,1.4958892,0.5082797,-0.04218034,0.54284585,0.8965727,0.33018413,-0.4362217,0.25555915,0.40091833,801.8315,796.1905,817.5458,796.99634,773.6264,-0.057861328125,-0.05963134765625,1.00238037109375,0.112152099609375,7.424468994140625,1.592559814453125,1,1.0,1.0,1.0,1.0,10.00
2024-10-11 20:45:50.584,1.4916008,0.9965448,-0.27277198,1.0081509,1.1863008,0.63592046,-1.0423481,0.9533517,1.5776734,0.36863765,-0.4537734,1.4958892,0.5082797,-0.04218034,0.54284585,0.8965727,0.33018413,-0.4362217,0.25555915,0.40091833,793.7729,796.5934,809.0842,797.3993,750.65936,-0.057861328125,-0.05963134765625,1.00238037109375,0.112152099609375,7.424468994140625,1.592559814453125,1,1.0,1.0,1.0,1.0,10.00
2024-10-11 20:45:50.585,1.4916008,0.9965448,-0.27277198,1.0081509,1.1863008,0.63592046,-1.0423481,0.9533517,1.5776734,0.36863765,-0.4537734,1.4958892,0.5082797,-0.04218034,0.54284585,0.8965727,0.33018413,-0.4362217,0.25555915,0.40091833,798.60803,791.75824,800.6227,804.2491,918.2784,-0.057861328125,-0.05963134765625,1.00238037109375,0.112152099609375,7.424468994140625,1.592559814453125,1,1.0,1.0,1.0,1.0,10.00
2024-10-11 20:45:50.586,1.4916008,0.9965448,-0.27277198,1.0081509,1.1863008,0.63592046,-1.0423481,0.9533517,1.5776734,0.36863765,-0.4537734,1.4958892,0.5082797,-0.04218034,0.54284585,0.8965727,0.33018413,-0.4362217,0.25555915,0.40091833,806.26373,794.17584,800.2198,807.8755,801.02563,-0.057861328125,-0.05963134765625,1.00238037109375,0.112152099609375,7.424468994140625,1.592559814453125,1,1.0,1.0,1.0,1.0,10.00
2024-10-11 20:45:50.587,1.4916008,0.9965448,-0.27277198,1.0081509,1.1863008,0.63592046,-1.0423481,0.9533517,1.5776734,0.36863765,-0.4537734,1.4958892,0.5082797,-0.04218034,0.54284585,0.8965727,0.33018413,-0.4362217,0.25555915,0.40091833,808.68134,796.99634,801.02563,810.696,641.4652,-0.057861328125,-0.05963134765625,1.00238037109375,0.112152099609375,7.424468994140625,1.592559814453125,1,1.0,1.0,1.0,1.0,10.00
2024-10-11 20:45:50.588,1.4916008,0.9965448,-0.27277198,1.0081509,1.1863008,0.63592046,-1.0423481,0.9533517,1.5776734,0.36863765,-0.4537734,1.4958892,0.5082797,-0.04218034,0.54284585,0.8965727,0.33018413,-0.4362217,0.25555915,0.40091833,811.0989,800.6227,797.3993,803.8461,611.6484,-0.057861328125,-0.05963134765625,1.00238037109375,0.112152099609375,7.424468994140625,1.592559814453125,1,1.0,1.0,1.0,1.0,10.00
2024-10-11 20:45:50.589,1.4916008,0.9965448,-0.27277198,1.0081509,1.1863008,0.63592046,-1.0423481,0.9533517,1.5776734,0.36863765,-0.4537734,1.4958892,0.5082797,-0.04218034,0.54284585,0.8965727,0.33018413,-0.4362217,0.25555915,0.40091833,815.12823,800.6227,785.31134,807.47253,925.9341,-0.057861328125,-0.05963134765625,1.00238037109375,0.112152099609375,7.424468994140625,1.592559814453125,1,1.0,1.0,1.0,1.0,10.00
2024-10-11 20:45:50.652,1.4916008,0.9965448,-0.27277198,1.0081509,1.1863008,0.63592046,-1.0423481,0.9533517,1.5776734,0.36863765,-0.4537734,1.4958892,0.5082797,-0.04218034,0.54284585,0.8965727,0.33018413,-0.4362217,0.25555915,0.40091833,809.0842,796.1905,777.6557,811.9048,1013.36993,-0.07818603515625,-0.0543212890625,1.001953125,1.614990234375,7.708587646484375,2.85614013671875,1,1.0,1.0,1.0,1.0,10.00
2024-10-11 20:45:50.653,1.4916008,0.9965448,-0.27277198,1.0081509,1.1863008,0.63592046,-1.0423481,0.9533517,1.5776734,0.36863765,-0.4537734,1.4958892,0.5082797,-0.04218034,0.54284585,0.8965727,0.33018413,-0.4362217,0.25555915,0.40091833,811.50183,799.81683,794.17584,803.44324,579.41394,-0.07818603515625,-0.0543212890625,1.001953125,1.614990234375,7.708587646484375,2.85614013671875,1,1.0,1.0,1.0,1.0,10.00
2024-10-11 20:45:50.654,1.4916008,0.9965448,-0.27277198,1.0081509,1.1863008,0.63592046,-1.0423481,0.9533517,1.5776734,0.36863765,-0.4537734,1.4958892,0.5082797,-0.04218034,0.54284585,0.8965727,0.33018413,-0.4362217,0.25555915,0.40091833,822.7839,805.05493,815.5311,806.26373,612.4542,-0.07818603515625,-0.0543212890625,1.001953125,1.614990234375,7.708587646484375,2.85614013671875,1,1.0,1.0,1.0,1.0,10.00
2024-10-11 20:45:50.655,1.4916008,0.9965448,-0.27277198,1.0081509,1.1863008,0.63592046,-1.0423481,0.9533517,1.5776734,0.36863765,-0.4537734,1.4958892,0.5082797,-0.04218034,0.54284585,0.8965727,0.33018413,-0.4362217,0.25555915,0.40091833,809.89014,808.2784,815.12823,807.8755,705.12823,-0.07818603515625,-0.0543212890625,1.001953125,1.614990234375,7.708587646484375,2.85614013671875,1,1.0,1.0,1.0,1.0,10.00
2024-10-11 20:45:50.655,1.4916008,0.9965448,-0.27277198,1.0081509,1.1863008,0.63592046,-1.0423481,0.9533517,1.5776734,0.36863765,-0.4537734,1.4958892,0.5082797,-0.04218034,0.54284585,0.8965727,0.33018413,-0.4362217,0.25555915,0.40091833,797.8022,799.81683,807.47253,809.4872,607.2161,-0.07818603515625,-0.0543212890625,1.001953125,1.614990234375,7.708587646484375,2.85614013671875,1,1.0,1.0,1.0,1.0,10.00
2024-10-11 20:45:50.656,1.4916008,0.9805363,-0.27277198,1.0081509,1.1863008,0.61093444,-1.0423481,0.9533517,1.5776734,0.3696592,-0.4537734,1.4958892,0.5082797,-0.050090678,0.54284585,0.8965727,0.33018413,-0.4450313,0.25555915,0.40091833,794.57874,788.5348,806.6667,806.6667,718.022,-0.07818603515625,-0.0543212890625,1.001953125,1.614990234375,7.708587646484375,2.85614013671875,1,1.0,1.0,1.0,1.0,10.00
2024-10-11 20:45:50.661,1.4916008,0.9805363,-0.27277198,1.0081509,1.1863008,0.61093444,-1.0423481,0.9533517,1.5776734,0.3696592,-0.4537734,1.4958892,0.5082797,-0.050090678,0.54284585,0.8965727,0.33018413,-0.4450313,0.25555915,0.40091833,795.38464,803.44324,806.6667,809.4872,1019.41394,-0.07818603515625,-0.0543212890625,1.001953125,1.614990234375,7.708587646484375,2.85614013671875,1,1.0,1.0,1.0,1.0,10.00
2024-10-11 20:45:50.662,1.4916008,0.9805363,-0.27277198,1.0081509,1.1863008,0.61093444,-1.0423481,0.9533517,1.5776734,0.3696592,-0.4537734,1.4958892,0.5082797,-0.050090678,0.54284585,0.8965727,0.33018413,-0.4450313,0.25555915,0.40091833,790.9524,812.71063,804.65204,804.65204,1002.8938,-0.07818603515625,-0.0543212890625,1.001953125,1.614990234375,7.708587646484375,2.85614013671875,1,1.0,1.0,1.0,1.0,10.00
2024-10-11 20:45:50.663,1.4916008,0.9805363,-0.27277198,1.0081509,1.1863008,0.61093444,-1.0423481,0.9533517,1.5776734,0.3696592,-0.4537734,1.4958892,0.5082797,-0.050090678,0.54284585,0.8965727,0.33018413,-0.4450313,0.25555915,0.40091833,788.5348,806.26373,796.1905,792.96704,702.3077,-0.07818603515625,-0.0543212890625,1.001953125,1.614990234375,7.708587646484375,2.85614013671875,1,1.0,1.0,1.0,1.0,10.00
2024-10-11 20:45:50.664,1.4916008,0.9805363,-0.27277198,1.0081509,1.1863008,0.61093444,-1.0423481,0.9533517,1.5776734,0.3696592,-0.4537734,1.4958892,0.5082797,-0.050090678,0.54284585,0.8965727,0.33018413,-0.4450313,0.25555915,0.40091833,783.2967,801.8315,782.49084,790.9524,535.4945,-0.07818603515625,-0.0543212890625,1.001953125,1.614990234375,7.708587646484375,2.85614013671875,1,1.0,1.0,1.0,1.0,10.00
2024-10-11 20:45:50.665,1.4916008,0.9805363,-0.27277198,1.0081509,1.1863008,0.61093444,-1.0423481,0.9533517,1.5776734,0.3696592,-0.4537734,1.4958892,0.5082797,-0.050090678,0.54284585,0.8965727,0.33018413,-0.4450313,0.25555915,0.40091833,782.49084,799.81683,788.1319,785.31134,696.6667,-0.07818603515625,-0.0543212890625,1.001953125,1.614990234375,7.708587646484375,2.85614013671875,1,1.0,1.0,1.0,1.0,10.00
2024-10-11 20:45:50.666,1.4916008,0.9805363,-0.27277198,1.0081509,1.1863008,0.61093444,-1.0423481,0.9533517,1.5776734,0.3696592,-0.4537734,1.4958892,0.5082797,-0.050090678,0.54284585,0.8965727,0.33018413,-0.4450313,0.25555915,0.40091833,785.7143,798.20514,788.1319,778.46155,785.7143,-0.07818603515625,-0.0543212890625,1.001953125,1.614990234375,7.708587646484375,2.85614013671875,1,1.0,1.0,1.0,1.0,10.00
2024-10-11 20:45:50.753,1.4916008,0.9805363,-0.27277198,1.0081509,1.1863008,0.61093444,-1.0423481,0.9533517,1.5776734,0.3696592,-0.4537734,1.4958892,0.5082797,-0.050090678,0.54284585,0.8965727,0.33018413,-0.4450313,0.25555915,0.40091833,782.0879,796.1905,799.81683,778.46155,567.72894,-0.09039306640625,-0.0469970703125,1.00604248046875,2.4224853515625,7.04315185546875,4.358978271484375,1,1.0,1.0,1.0,1.0,10.00
2024-10-11 20:45:50.754,1.4916008,0.9805363,-0.27277198,1.0081509,1.1863008,0.61093444,-1.0423481,0.9533517,1.5776734,0.3696592,-0.4537734,1.4958892,0.5082797,-0.050090678,0.54284585,0.8965727,0.33018413,-0.4450313,0.25555915,0.40091833,776.8498,796.1905,814.7253,787.72894,528.24176,-0.09039306640625,-0.0469970703125,1.00604248046875,2.4224853515625,7.04315185546875,4.358978271484375,1,1.0,1.0,1.0,1.0,10.00
2024-10-11 20:45:50.755,1.4916008,0.9805363,-0.27277198,1.0081509,1.1863008,0.61093444,-1.0423481,0.9533517,1.5776734,0.3696592,-0.4537734,1.4958892,0.5082797,-0.050090678,0.54284585,0.8965727,0.33018413,-0.4450313,0.25555915,0.40091833,784.10254,797.8022,807.0696,798.60803,756.7033,-0.09039306640625,-0.0469970703125,1.00604248046875,2.4224853515625,7.04315185546875,4.358978271484375,1,1.0,1.0,1.0,1.0,10.00
2024-10-11 20:45:50.756,1.4916008,0.9805363,-0.27277198,1.0081509,1.1863008,0.61093444,-1.0423481,0.9533517,1.5776734,0.3696592,-0.4537734,1.4958892,0.5082797,-0.050090678,0.54284585,0.8965727,0.33018413,-0.4450313,0.25555915,0.40091833,788.93774,798.20514,796.99634,798.20514,836.8865,-0.09039306640625,-0.0469970703125,1.00604248046875,2.4224853515625,7.04315185546875,4.358978271484375,1,1.0,1.0,1.0,1.0,10.00
2024-10-11 20:45:50.756,1.4916008,0.9805363,-0.27277198,1.0081509,1.1863008,0.61093444,-1.0423481,0.9533517,1.5776734,0.3696592,-0.4537734,1.4958892,0.5082797,-0.050090678,0.54284585,0.8965727,0.33018413,-0.4450313,0.25555915,0.40091833,797.8022,798.20514,792.1612,792.96704,653.95605,-0.09039306640625,-0.0469970703125,1.00604248046875,2.4224853515625,7.04315185546875,4.358978271484375,1,1.0,1.0,1.0,1.0,10.00
2024-10-11 20:45:50.757,1.4916008,0.9805363,-0.27277198,1.0081509,1.1863008,0.61093444,-1.0423481,0.9533517,1.5776734,0.3696592,-0.4537734,1.4958892,0.5082797,-0.050090678,0.54284585,0.8965727,0.33018413,-0.4450313,0.25555915,0.40091833,794.9817,796.5934,786.52014,795.78754,682.96704,-0.09039306640625,-0.0469970703125,1.00604248046875,2.4224853515625,7.04315185546875,4.358978271484375,1,1.0,1.0,1.0,1.0,10.00
2024-10-11 20:45:50.758,1.4916008,0.9805363,-0.27277198,1.0081509,1.1863008,0.61093444,-1.0423481,0.9533517,1.5776734,0.3696592,-0.4537734,1.4958892,0.5082797,-0.050090678,0.54284585,0.8965727,0.33018413,-0.4450313,0.25555915,0.40091833,776.04395,792.1612,786.1172,803.44324,862.674,-0.09039306640625,-0.0469970703125,1.00604248046875,2.4224853515625,7.04315185546875,4.358978271484375,1,1.0,1.0,1.0,1.0,10.00
2024-10-11 20:45:50.759,1.4916008,0.9805363,-0.27277198,1.0081509,1.1863008,0.61093444,-1.0423481,0.9533517,1.5776734,0.3696592,-0.4537734,1.4958892,0.5082797,-0.050090678,0.54284585,0.8965727,0.33018413,-0.4450313,0.25555915,0.40091833,780.4762,782.8938,794.9817,804.2491,787.72894,-0.09039306640625,-0.0469970703125,1.00604248046875,2.4224853515625,7.04315185546875,4.358978271484375,1,1.0,1.0,1.0,1.0,10.00
2024-10-11 20:45:50.759,1.4916008,0.9805363,-0.27277198,1.0081509,1.1863008,0.61093444,-1.0423481,0.9533517,1.5776734,0.3696592,-0.4537734,1.4958892,0.5082797,-0.050090678,0.54284585,0.8965727,0.33018413,-0.4450313,0.25555915,0.40091833,789.34064,795.38464,794.17584,804.2491,595.5311,-0.09039306640625,-0.0469970703125,1.00604248046875,2.4224853515625,7.04315185546875,4.358978271484375,1,1.0,1.0,1.0,1.0,10.00
2024-10-11 20:45:50.760,1.4916008,0.9805363,-0.27277198,1.0081509,1.1863008,0.61093444,-1.0423481,0.9533517,1.5776734,0.3696592,-0.4537734,1.4958892,0.5082797,-0.050090678,0.54284585,0.8965727,0.33018413,-0.4450313,0.25555915,0.40091833,789.34064,805.8608,797.8022,796.5934,689.011,-0.09039306640625,-0.0469970703125,1.00604248046875,2.4224853515625,7.04315185546875,4.358978271484375,1,1.0,1.0,1.0,1.0,10.00
2024-10-11 20:45:50.761,1.4916008,0.9805363,-0.27277198,1.0081509,1.1863008,0.61093444,-1.0423481,0.9533517,1.5776734,0.3696592,-0.4537734,1.4958892,0.5082797,-0.050090678,0.54284585,0.8965727,0.33018413,-0.4450313,0.25555915,0.40091833,788.1319,795.78754,787.326,783.2967,875.9707,-0.09039306640625,-0.0469970703125,1.00604248046875,2.4224853515625,7.04315185546875,4.358978271484375,1,1.0,1.0,1.0,1.0,10.00
2024-10-11 20:45:50.762,1.4916008,0.9805363,-0.27277198,1.0081509,1.1863008,0.61093444,-1.0423481,0.9533517,1.5776734,0.3696592,-0.4537734,1.4958892,0.5082797,-0.050090678,0.54284585,0.8965727,0.33018413,-0.4450313,0.25555915,0.40091833,787.72894,791.3553,788.5348,786.52014,872.3443,-0.09039306640625,-0.0469970703125,1.00604248046875,2.4224853515625,7.04315185546875,4.358978271484375,1,1.0,1.0,1.0,1.0,10.00
2024-10-11 20:45:50.788,1.4916008,0.9805363,-0.27277198,1.0081509,1.1863008,0.61093444,-1.0423481,0.9533517,1.5776734,0.3696592,-0.4537734,1.4958892,0.5082797,-0.050090678,0.54284585,0.8965727,0.33018413,-0.4450313,0.25555915,0.40091833,792.5641,797.3993,798.60803,793.36993,776.8498,-0.09759521484375,-0.038818359375,1.00469970703125,2.968292236328125,5.682373046875,5.87677001953125,1,1.0,1.0,1.0,1.0,10.00
2024-10-11 20:45:50.789,1.4916008,0.9805363,-0.27277198,1.0081509,1.1863008,0.61093444,-1.0423481,0.9533517,1.5776734,0.3696592,-0.4537734,1.4958892,0.5082797,-0.050090678,0.54284585,0.8965727,0.33018413,-0.4450313,0.25555915,0.40091833,791.3553,791.3553,794.9817,794.17584,789.34064,-0.09759521484375,-0.038818359375,1.00469970703125,2.968292236328125,5.682373046875,5.87677001953125,1,1.0,1.0,1.0,1.0,10.00
2024-10-11 20:45:50.790,1.4916008,0.9805363,-0.27277198,1.0081509,1.1863008,0.61093444,-1.0423481,0.9533517,1.5776734,0.3696592,-0.4537734,1.4958892,0.5082797,-0.050090678,0.54284585,0.8965727,0.33018413,-0.4450313,0.25555915,0.40091833,788.5348,791.3553,800.2198,795.38464,900.9524,-0.09759521484375,-0.038818359375,1.00469970703125,2.968292236328125,5.682373046875,5.87677001953125,1,1.0,1.0,1.0,1.0,10.00
2024-10-11 20:45:50.791,1.4916008,0.9805363,-0.27277198,1.0081509,1.1863008,0.61093444,-1.0423481,0.9533517,1.5776734,0.3696592,-0.4537734,1.4958892,0.5082797,-0.050090678,0.54284585,0.8965727,0.33018413,-0.4450313,0.25555915,0.40091833,795.38464,791.75824,813.91943,801.8315,796.99634,-0.09759521484375,-0.038818359375,1.00469970703125,2.968292236328125,5.682373046875,5.87677001953125,1,1.0,1.0,1.0,1.0,10.00
2024-10-11 20:45:50.791,1.4916008,0.9805363,-0.27277198,1.0081509,1.1863008,0.61093444,-1.0423481,0.9533517,1.5776734,0.3696592,-0.4537734,1.4958892,0.5082797,-0.050090678,0.54284585,0.8965727,0.33018413,-0.4450313,0.25555915,0.40091833,801.4286,792.1612,812.71063,804.65204,577.3993,-0.09759521484375,-0.038818359375,1.00469970703125,2.968292236328125,5.682373046875,5.87677001953125,1,1.0,1.0,1.0,1.0,10.00
2024-10-11 20:45:50.792,1.4916008,0.9805363,-0.27277198,1.0081509,1.1863008,0.61093444,-1.0423481,0.9533517,1.5776734,0.3696592,-0.4537734,1.4958892,0.5082797,-0.050090678,0.54284585,0.8965727,0.33018413,-0.4450313,0.25555915,0.40091833,798.60803,803.0403,801.02563,810.293,790.14655,-0.09759521484375,-0.038818359375,1.00469970703125,2.968292236328125,5.682373046875,5.87677001953125,1,1.0,1.0,1.0,1.0,10.00
2024-10-11 20:45:50.793,1.4916008,0.9805363,-0.27277198,1.0081509,1.1863008,0.61093444,-1.0423481,0.9533517,1.5776734,0.3696592,-0.4537734,1.4958892,0.5082797,-0.050090678,0.54284585,0.8965727,0.33018413,-0.4450313,0.25555915,0.40091833,794.17584,802.6374,782.8938,798.60803,944.4689,-0.09759521484375,-0.038818359375,1.00469970703125,2.968292236328125,5.682373046875,5.87677001953125,1,1.0,1.0,1.0,1.0,10.00
2024-10-11 20:45:50.793,1.4916008,0.9204528,-0.27277198,1.0081509,1.1863008,0.5389258,-1.0423481,0.9533517,1.5776734,0.3719177,-0.4537734,1.4958892,0.5082797,-0.0501924,0.54284585,0.8965727,0.33018413,-0.45629662,0.25555915,0.40091833,787.72894,800.6227,792.96704,787.326,628.1685,-0.09759521484375,-0.038818359375,1.00469970703125,2.968292236328125,5.682373046875,5.87677001953125,1,2.0,1.0,1.0,2.0,10.00
2024-10-11 20:45:50.799,1.4916008,0.9204528,-0.27277198,1.0081509,1.1863008,0.5389258,-1.0423481,0.9533517,1.5776734,0.3719177,-0.4537734,1.4958892,0.5082797,-0.0501924,0.54284585,0.8965727,0.33018413,-0.45629662,0.25555915,0.40091833,783.69965,788.1319,790.9524,784.5055,541.13556,-0.09759521484375,-0.038818359375,1.00469970703125,2.968292236328125,5.682373046875,5.87677001953125,1,2.0,1.0,1.0,2.0,10.00
2024-10-11 20:45:50.799,1.4916008,0.9204528,-0.27277198,1.0081509,1.1863008,0.5389258,-1.0423481,0.9533517,1.5776734,0.3719177,-0.4537734,1.4958892,0.5082797,-0.0501924,0.54284585,0.8965727,0.33018413,-0.45629662,0.25555915,0.40091833,787.326,794.9817,770.80585,787.72894,800.2198,-0.09759521484375,-0.038818359375,1.00469970703125,2.968292236328125,5.682373046875,5.87677001953125,1,2.0,1.0,1.0,2.0,10.00
2024-10-11 20:45:50.800,1.4916008,0.9204528,-0.27277198,1.0081509,1.1863008,0.5389258,-1.0423481,0.9533517,1.5776734,0.3719177,-0.4537734,1.4958892,0.5082797,-0.0501924,0.54284585,0.8965727,0.33018413,-0.45629662,0.25555915,0.40091833,784.90845,808.2784,793.36993,792.1612,932.381,-0.09759521484375,-0.038818359375,1.00469970703125,2.968292236328125,5.682373046875,5.87677001953125,1,2.0,1.0,1.0,2.0,10.00
2024-10-11 20:45:50.801,1.4916008,0.9204528,-0.27277198,1.0081509,1.1863008,0.5389258,-1.0423481,0.9533517,1.5776734,0.3719177,-0.4537734,1.4958892,0.5082797,-0.0501924,0.54284585,0.8965727,0.33018413,-0.45629662,0.25555915,0.40091833,783.2967,805.4579,813.1135,786.9231,671.28204,-0.09759521484375,-0.038818359375,1.00469970703125,2.968292236328125,5.682373046875,5.87677001953125,1,2.0,1.0,1.0,2.0,10.00
2024-10-11 20:45:50.910,1.4916008,0.9204528,-0.27277198,1.0081509,1.1863008,0.5389258,-1.0423481,0.9533517,1.5776734,0.3719177,-0.4537734,1.4958892,0.5082797,-0.0501924,0.54284585,0.8965727,0.33018413,-0.45629662,0.25555915,0.40091833,790.9524,801.02563,815.5311,789.7436,614.87177,-0.0999755859375,-0.03460693359375,1.00390625,2.8411865234375,3.15521240234375,6.59454345703125,1,2.0,1.0,1.0,2.0,10.00
2024-10-11 20:45:50.911,1.4916008,0.9204528,-0.27277198,1.0081509,1.1863008,0.5389258,-1.0423481,0.9533517,1.5776734,0.3719177,-0.4537734,1.4958892,0.5082797,-0.0501924,0.54284585,0.8965727,0.33018413,-0.45629662,0.25555915,0.40091833,793.7729,792.96704,813.5165,797.8022,909.41394,-0.0999755859375,-0.03460693359375,1.00390625,2.8411865234375,3.15521240234375,6.59454345703125,1,2.0,1.0,1.0,2.0,10.00
2024-10-11 20:45:50.911,1.4916008,0.9204528,-0.27277198,1.0081509,1.1863008,0.5389258,-1.0423481,0.9533517,1.5776734,0.3719177,-0.4537734,1.4958892,0.5082797,-0.0501924,0.54284585,0.8965727,0.33018413,-0.45629662,0.25555915,0.40091833,794.9817,792.5641,805.05493,798.60803,902.96704,-0.0999755859375,-0.03460693359375,1.00390625,2.8411865234375,3.15521240234375,6.59454345703125,1,2.0,1.0,1.0,2.0,10.00
2024-10-11 20:45:50.912,1.4916008,0.9204528,-0.27277198,1.0081509,1.1863008,0.5389258,-1.0423481,0.9533517,1.5776734,0.3719177,-0.4537734,1.4958892,0.5082797,-0.0501924,0.54284585,0.8965727,0.33018413,-0.45629662,0.25555915,0.40091833,803.8461,796.1905,796.1905,792.1612,545.16486,-0.0999755859375,-0.03460693359375,1.00390625,2.8411865234375,3.15521240234375,6.59454345703125,1,2.0,1.0,1.0,2.0,10.00
2024-10-11 20:45:50.913,1.4916008,0.9204528,-0.27277198,1.0081509,1.1863008,0.5389258,-1.0423481,0.9533517,1.5776734,0.3719177,-0.4537734,1.4958892,0.5082797,-0.0501924,0.54284585,0.8965727,0.33018413,-0.45629662,0.25555915,0.40091833,803.0403,797.3993,792.1612,794.57874,622.9304,-0.0999755859375,-0.03460693359375,1.00390625,2.8411865234375,3.15521240234375,6.59454345703125,1,2.0,1.0,1.0,2.0,10.00
2024-10-11 20:45:50.914,1.4916008,0.9204528,-0.27277198,1.0081509,1.1863008,0.5389258,-1.0423481,0.9533517,1.5776734,0.3719177,-0.4537734,1.4958892,0.5082797,-0.0501924,0.54284585,0.8965727,0.33018413,-0.45629662,0.25555915,0.40091833,798.60803,794.57874,789.34064,794.17584,921.9048,-0.0999755859375,-0.03460693359375,1.00390625,2.8411865234375,3.15521240234375,6.59454345703125,1,2.0,1.0,1.0,2.0,10.00
2024-10-11 20:45:50.914,1.4916008,0.9204528,-0.27277198,1.0081509,1.1863008,0.5389258,-1.0423481,0.9533517,1.5776734,0.3719177,-0.4537734,1.4958892,0.5082797,-0.0501924,0.54284585,0.8965727,0.33018413,-0.45629662,0.25555915,0.40091833,794.17584,794.57874,788.5348,784.10254,924.3223,-0.0999755859375,-0.03460693359375,1.00390625,2.8411865234375,3.15521240234375,6.59454345703125,1,2.0,1.0,1.0,2.0,10.00
2024-10-11 20:45:50.915,1.4916008,0.9204528,-0.27277198,1.0081509,1.1863008,0.5389258,-1.0423481,0.9533517,1.5776734,0.3719177,-0.4537734,1.4958892,0.5082797,-0.0501924,0.54284585,0.8965727,0.33018413,-0.45629662,0.25555915,0.40091833,791.75824,794.17584,794.9817,784.10254,719.2308,-0.0999755859375,-0.03460693359375,1.00390625,2.8411865234375,3.15521240234375,6.59454345703125,1,2.0,1.0,1.0,2.0,10.00
2024-10-11 20:45:50.916,1.4916008,0.9204528,-0.27277198,1.0081509,1.1863008,0.5389258,-1.0423481,0.9533517,1.5776734,0.3719177,-0.4537734,1.4958892,0.5082797,-0.0501924,0.54284585,0.8965727,0.33018413,-0.45629662,0.25555915,0.40091833,792.96704,791.3553,807.8755,790.14655,571.75824,-0.0999755859375,-0.03460693359375,1.00390625,2.8411865234375,3.15521240234375,6.59454345703125,1,2.0,1.0,1.0,2.0,10.00
2024-10-11 20:45:50.917,1.4916008,0.9204528,-0.27277198,1.0081509,1.1863008,0.5389258,-1.0423481,0.9533517,1.5776734,0.3719177,-0.4537734,1.4958892,0.5082797,-0.0501924,0.54284585,0.8965727,0.33018413,-0.45629662,0.25555915,0.40091833,789.34064,793.36993,810.696,785.7143,649.5238,-0.0999755859375,-0.03460693359375,1.00390625,2.8411865234375,3.15521240234375,6.59454345703125,1,2.0,1.0,1.0,2.0,10.00
2024-10-11 20:45:50.918,1.4916008,0.9204528,-0.27277198,1.0081509,1.1863008,0.5389258,-1.0423481,0.9533517,1.5776734,0.3719177,-0.4537734,1.4958892,0.5082797,-0.0501924,0.54284585,0.8965727,0.33018413,-0.45629662,0.25555915,0.40091833,787.72894,798.20514,797.3993,792.1612,645.09155,-0.0999755859375,-0.03460693359375,1.00390625,2.8411865234375,3.15521240234375,6.59454345703125,1,2.0,1.0,1.0,2.0,10.00
2024-10-11 20:45:50.919,1.4916008,0.9204528,-0.27277198,1.0081509,1.1863008,0.5389258,-1.0423481,0.9533517,1.5776734,0.3719177,-0.4537734,1.4958892,0.5082797,-0.0501924,0.54284585,0.8965727,0.33018413,-0.45629662,0.25555915,0.40091833,789.7436,797.3993,778.46155,790.9524,529.85345,-0.0999755859375,-0.03460693359375,1.00390625,2.8411865234375,3.15521240234375,6.59454345703125,1,2.0,1.0,1.0,2.0,10.00
2024-10-11 20:45:50.951,1.4916008,0.9204528,-0.27277198,1.0081509,1.1863008,0.5389258,-1.0423481,0.9533517,1.5776734,0.3719177,-0.4537734,1.4958892,0.5082797,-0.0501924,0.54284585,0.8965727,0.33018413,-0.45629662,0.25555915,0.40091833,787.72894,796.1905,791.3553,786.1172,597.1429,-0.0999755859375,-0.03460693359375,1.00390625,2.8411865234375,3.15521240234375,6.59454345703125,1,2.0,1.0,1.0,2.0,10.00
2024-10-11 20:45:50.952,1.4916008,0.9204528,-0.27277198,1.0081509,1.1863008,0.5389258,-1.0423481,0.9533517,1.5776734,0.3719177,-0.4537734,1.4958892,0.5082797,-0.0501924,0.54284585,0.8965727,0.33018413,-0.45629662,0.25555915,0.40091833,790.54944,795.78754,802.6374,797.8022,758.315,-0.0999755859375,-0.03460693359375,1.00390625,2.8411865234375,3.15521240234375,6.59454345703125,1,2.0,1.0,1.0,2.0,10.00
2024-10-11 20:45:50.953,1.4916008,0.9204528,-0.27277198,1.0081509,1.1863008,0.5389258,-1.0423481,0.9533517,1.5776734,0.3719177,-0.4537734,1.4958892,0.5082797,-0.0501924,0.54284585,0.8965727,0.33018413,-0.45629662,0.25555915,0.40091833,793.7729,797.3993,797.8022,799.41394,637.8388,-0.0999755859375,-0.03460693359375,1.00390625,2.8411865234375,3.15521240234375,6.59454345703125,1,2.0,1.0,1.0,2.0,10.00
2024-10-11 20:45:50.954,1.4916008,0.9204528,-0.27277198,1.0081509,1.1863008,0.5389258,-1.0423481,0.9533517,1.5776734,0.3719177,-0.4537734,1.4958892,0.5082797,-0.0501924,0.54284585,0.8965727,0.33018413,-0.45629662,0.25555915,0.40091833,786.52014,803.44324,801.02563,785.31134,536.7033,-0.0999755859375,-0.03460693359375,1.00390625,2.8411865234375,3.15521240234375,6.59454345703125,1,2.0,1.0,1.0,2.0,10.00
2024-10-11 20:45:50.954,1.4916008,0.9204528,-0.27277198,1.0081509,1.1863008,0.5389258,-1.0423481,0.9533517,1.5776734,0.3719177,-0.4537734,1.4958892,0.5082797,-0.0501924,0.54284585,0.8965727,0.33018413,-0.45629662,0.25555915,0.40091833,783.69965,801.8315,804.65204,779.67035,746.2271,-0.0999755859375,-0.03460693359375,1.00390625,2.8411865234375,3.15521240234375,6.59454345703125,1,2.0,1.0,1.0,2.0,10.00
2024-10-11 20:45:50.955,1.4916008,0.9204528,-0.27277198,1.0081509,1.1863008,0.5389258,-1.0423481,0.9533517,1.5776734,0.3719177,-0.4537734,1.4958892,0.5082797,-0.0501924,0.54284585,0.8965727,0.33018413,-0.45629662,0.25555915,0.40091833,782.0879,800.6227,803.8461,796.5934,906.99634,-0.0999755859375,-0.03460693359375,1.00390625,2.8411865234375,3.15521240234375,6.59454345703125,1,2.0,1.0,1.0,2.0,10.00
2024-10-11 20:45:50.956,1.4916008,0.9204528,-0.27277198,1.0081509,1.1863008,0.5389258,-1.0423481,0.9533517,1.5776734,0.3719177,-0.4537734,1.4958892,0.5082797,-0.0501924,0.54284585,0.8965727,0.33018413,-0.45629662,0.25555915,0.40091833,775.64105,802.6374,796.99634,797.3993,815.9341,-0.0999755859375,-0.03460693359375,1.00390625,2.8411865234375,3.15521240234375,6.59454345703125,1,2.0,1.0,1.0,2.0,10.00
2024-10-11 20:45:50.956,1.4916008,0.9204528,-0.27277198,1.0081509,1.1863008,0.5389258,-1.0423481,0.9533517,1.5776734,0.3719177,-0.4537734,1.4958892,0.5082797,-0.0501924,0.54284585,0.8965727,0.33018413,-0.45629662,0.25555915,0.40091833,779.67035,801.02563,800.2198,794.17584,639.85345,-0.0999755859375,-0.03460693359375,1.00390625,2.8411865234375,3.15521240234375,6.59454345703125,1,2.0,1.0,1.0,2.0,10.00
2024-10-11 20:45:50.957,1.4916008,0.9204528,-0.27277198,1.0081509,1.1863008,0.5389258,-1.0423481,0.9533517,1.5776734,0.3719177,-0.4537734,1.4958892,0.5082797,-0.0501924,0.54284585,0.8965727,0.33018413,-0.45629662,0.25555915,0.40091833,788.1319,801.8315,798.20514,806.26373,726.8865,-0.0999755859375,-0.03460693359375,1.00390625,2.8411865234375,3.15521240234375,6.59454345703125,1,2.0,1.0,1.0,2.0,10.00
2024-10-11 20:45:50.958,1.4916008,0.8114429,-0.27277198,1.0081509,1.1863008,0.41733062,-1.0423481,0.9533517,1.5776734,0.38286564,-0.4537734,1.4958892,0.5082797,-0.049817454,0.54284585,0.8965727,0.33018413,-0.46920827,0.25555915,0.40091833,786.52014,803.44324,793.7729,795.78754,878.3883,-0.0999755859375,-0.03460693359375,1.00390625,2.8411865234375,3.15521240234375,6.59454345703125,1,2.0,1.0,1.0,2.0,10.00
2024-10-11 20:45:50.963,1.4916008,0.8114429,-0.27277198,1.0081509,1.1863008,0.41733062,-1.0423481,0.9533517,1.5776734,0.38286564,-0.4537734,1.4958892,0.5082797,-0.049817454,0.54284585,0.8965727,0.33018413,-0.46920827,0.25555915,0.40091833,798.60803,805.05493,792.5641,777.25275,780.07324,-0.0999755859375,-0.03460693359375,1.00390625,2.8411865234375,3.15521240234375,6.59454345703125,1,2.0,1.0,1.0,2.0,10.00
2024-10-11 20:45:50.964,1.4916008,0.8114429,-0.27277198,1.0081509,1.1863008,0.41733062,-1.0423481,0.9533517,1.5776734,0.38286564,-0.4537734,1.4958892,0.5082797,-0.049817454,0.54284585,0.8965727,0.33018413,-0.46920827,0.25555915,0.40091833,819.15753,807.47253,799.81683,786.52014,622.1245,-0.0999755859375,-0.03460693359375,1.00390625,2.8411865234375,3.15521240234375,6.59454345703125,1,2.0,1.0,1.0,2.0,10.00
2024-10-11 20:45:51.026,1.4916008,0.8114429,-0.27277198,1.0081509,1.1863008,0.41733062,-1.0423481,0.9533517,1.5776734,0.38286564,-0.4537734,1.4958892,0.5082797,-0.049817454,0.54284585,0.8965727,0.33018413,-0.46920827,0.25555915,0.40091833,799.41394,803.8461,793.7729,788.93774,723.2601,-0.10797119140625,-0.02667236328125,1.0035400390625,2.923431396484375,3.925323486328125,5.51788330078125,1,2.0,1.0,1.0,2.0,10.00
2024-10-11 20:45:51.027,1.4916008,0.8114429,-0.27277198,1.0081509,1.1863008,0.41733062,-1.0423481,0.9533517,1.5776734,0.38286564,-0.4537734,1.4958892,0.5082797,-0.049817454,0.54284585,0.8965727,0.33018413,-0.46920827,0.25555915,0.40091833,789.7436,801.02563,786.9231,781.685,830.4396,-0.10797119140625,-0.02667236328125,1.0035400390625,2.923431396484375,3.925323486328125,5.51788330078125,1,2.0,1.0,1.0,2.0,10.00
2024-10-11 20:45:51.028,1.4916008,0.8114429,-0.27277198,1.0081509,1.1863008,0.41733062,-1.0423481,0.9533517,1.5776734,0.38286564,-0.4537734,1.4958892,0.5082797,-0.049817454,0.54284585,0.8965727,0.33018413,-0.46920827,0.25555915,0.40091833,796.99634,797.8022,787.72894,781.685,617.28937,-0.10797119140625,-0.02667236328125,1.0035400390625,2.923431396484375,3.925323486328125,5.51788330078125,1,2.0,1.0,1.0,2.0,10.00
2024-10-11 20:45:51.029,1.4916008,0.8114429,-0.27277198,1.0081509,1.1863008,0.41733062,-1.0423481,0.9533517,1.5776734,0.38286564,-0.4537734,1.4958892,0.5082797,-0.049817454,0.54284585,0.8965727,0.33018413,-0.46920827,0.25555915,0.40091833,794.9817,794.17584,799.81683,786.1172,542.3443,-0.10797119140625,-0.02667236328125,1.0035400390625,2.923431396484375,3.925323486328125,5.51788330078125,1,2.0,1.0,1.0,2.0,10.00
2024-10-11 20:45:51.030,1.4916008,0.8114429,-0.27277198,1.0081509,1.1863008,0.41733062,-1.0423481,0.9533517,1.5776734,0.38286564,-0.4537734,1.4958892,0.5082797,-0.049817454,0.54284585,0.8965727,0.33018413,-0.46920827,0.25555915,0.40091833,788.1319,796.5934,813.1135,793.36993,670.07324,-0.10797119140625,-0.02667236328125,1.0035400390625,2.923431396484375,3.925323486328125,5.51788330078125,1,2.0,1.0,1.0,2.0,10.00
2024-10-11 20:45:51.030,1.4916008,0.8114429,-0.27277198,1.0081509,1.1863008,0.41733062,-1.0423481,0.9533517,1.5776734,0.38286564,-0.4537734,1.4958892,0.5082797,-0.049817454,0.54284585,0.8965727,0.33018413,-0.46920827,0.25555915,0.40091833,787.72894,799.41394,801.4286,797.8022,805.05493,-0.10797119140625,-0.02667236328125,1.0035400390625,2.923431396484375,3.925323486328125,5.51788330078125,1,2.0,1.0,1.0,2.0,10.00
2024-10-11 20:45:51.031,1.4916008,0.8114429,-0.27277198,1.0081509,1.1863008,0.41733062,-1.0423481,0.9533517,1.5776734,0.38286564,-0.4537734,1.4958892,0.5082797,-0.049817454,0.54284585,0.8965727,0.33018413,-0.46920827,0.25555915,0.40091833,791.75824,799.011,789.7436,791.3553,689.011,-0.10797119140625,-0.02667236328125,1.0035400390625,2.923431396484375,3.925323486328125,5.51788330078125,1,2.0,1.0,1.0,2.0,10.00
2024-10-11 20:45:51.032,1.4916008,0.8114429,-0.27277198,1.0081509,1.1863008,0.41733062,-1.0423481,0.9533517,1.5776734,0.38286564,-0.4537734,1.4958892,0.5082797,-0.049817454,0.54284585,0.8965727,0.33018413,-0.46920827,0.25555915,0.40091833,791.3553,795.78754,775.64105,791.3553,621.7216,-0.10797119140625,-0.02667236328125,1.0035400390625,2.923431396484375,3.925323486328125,5.51788330078125,1,2.0,1.0,1.0,2.0,10.00
2024-10-11 20:45:51.033,1.4916008,0.8114429,-0.27277198,1.0081509,1.1863008,0.41733062,-1.0423481,0.9533517,1.5776734,0.38286564,-0.4537734,1.4958892,0.5082797,-0.049817454,0.54284585,0.8965727,0.33018413,-0.46920827,0.25555915,0.40091833,794.9817,796.1905,784.90845,795.38464,759.92676,-0.10797119140625,-0.02667236328125,1.0035400390625,2.923431396484375,3.925323486328125,5.51788330078125,1,2.0,1.0,1.0,2.0,10.00
2024-10-11 20:45:51.034,1.4916008,0.8114429,-0.27277198,1.0081509,1.1863008,0.41733062,-1.0423481,0.9533517,1.5776734,0.38286564,-0.4537734,1.4958892,0.5082797,-0.049817454,0.54284585,0.8965727,0.33018413,-0.46920827,0.25555915,0.40091833,787.72894,796.99634,817.5458,787.326,755.4945,-0.10797119140625,-0.02667236328125,1.0035400390625,2.923431396484375,3.925323486328125,5.51788330078125,1,2.0,1.0,1.0,2.0,10.00
2024-10-11 20:45:51.034,1.4916008,0.8114429,-0.27277198,1.0081509,1.1863008,0.41733062,-1.0423481,0.9533517,1.5776734,0.38286564,-0.4537734,1.4958892,0.5082797,-0.049817454,0.54284585,0.8965727,0.33018413,-0.46920827,0.25555915,0.40091833,786.9231,792.96704,817.5458,791.3553,558.86444,-0.10797119140625,-0.02667236328125,1.0035400390625,2.923431396484375,3.925323486328125,5.51788330078125,1,2.0,1.0,1.0,2.0,10.00
2024-10-11 20:45:51.035,1.4916008,0.8114429,-0.27277198,1.0081509,1.1863008,0.41733062,-1.0423481,0.9533517,1.5776734,0.38286564,-0.4537734,1.4958892,0.5082797,-0.049817454,0.54284585,0.8965727,0.33018413,-0.46920827,0.25555915,0.40091833,806.6667,796.1905,792.1612,823.9927,626.9597,-0.10797119140625,-0.02667236328125,1.0035400390625,2.923431396484375,3.925323486328125,5.51788330078125,1,2.0,1.0,1.0,2.0,10.00
2024-10-11 20:45:51.069,1.4916008,0.8114429,-0.27277198,1.0081509,1.1863008,0.41733062,-1.0423481,0.9533517,1.5776734,0.38286564,-0.4537734,1.4958892,0.5082797,-0.049817454,0.54284585,0.8965727,0.33018413,-0.46920827,0.25555915,0.40091833,809.0842,791.75824,764.7619,832.0513,914.65204,-0.110107421875,-0.02490234375,1.00384521484375,2.205657958984375,4.725341796875,4.78515625,1,2.0,1.0,1.0,2.0,10.00
2024-10-11 20:45:51.070,1.4916008,0.8114429,-0.27277198,1.0081509,1.1863008,0.41733062,-1.0423481,0.9533517,1.5776734,0.38286564,-0.4537734,1.4958892,0.5082797,-0.049817454,0.54284585,0.8965727,0.33018413,-0.46920827,0.25555915,0.40091833,798.20514,784.90845,786.9231,796.5934,838.0952,-0.110107421875,-0.02490234375,1.00384521484375,2.205657958984375,4.725341796875,4.78515625,1,2.0,1.0,1.0,2.0,10.00
2024-10-11 20:45:51.071,1.4916008,0.8114429,-0.27277198,1.0081509,1.1863008,0.41733062,-1.0423481,0.9533517,1.5776734,0.38286564,-0.4537734,1.4958892,0.5082797,-0.049817454,0.54284585,0.8965727,0.33018413,-0.46920827,0.25555915,0.40091833,801.02563,799.011,819.9634,783.2967,676.52014,-0.110107421875,-0.02490234375,1.00384521484375,2.205657958984375,4.725341796875,4.78515625,1,2.0,1.0,1.0,2.0,10.00
2024-10-11 20:45:51.072,1.4916008,0.8114429,-0.27277198,1.0081509,1.1863008,0.41733062,-1.0423481,0.9533517,1.5776734,0.38286564,-0.4537734,1.4958892,0.5082797,-0.049817454,0.54284585,0.8965727,0.33018413,-0.46920827,0.25555915,0.40091833,803.8461,802.6374,795.78754,788.5348,828.8278,-0.110107421875,-0.02490234375,1.00384521484375,2.205657958984375,4.725341796875,4.78515625,1,2.0,1.0,1.0,2.0,10.00
2024-10-11 20:45:51.073,1.4916008,0.8114429,-0.27277198,1.0081509,1.1863008,0.41733062,-1.0423481,0.9533517,1.5776734,0.38286564,-0.4537734,1.4958892,0.5082797,-0.049817454,0.54284585,0.8965727,0.33018413,-0.46920827,0.25555915,0.40091833,801.8315,796.1905,787.326,789.7436,994.83514,-0.110107421875,-0.02490234375,1.00384521484375,2.205657958984375,4.725341796875,4.78515625,1,2.0,1.0,1.0,2.0,10.00
2024-10-11 20:45:51.073,1.4916008,0.8114429,-0.27277198,1.0081509,1.1863008,0.41733062,-1.0423481,0.9533517,1.5776734,0.38286564,-0.4537734,1.4958892,0.5082797,-0.049817454,0.54284585,0.8965727,0.33018413,-0.46920827,0.25555915,0.40091833,792.5641,800.2198,809.0842,792.5641,866.7033,-0.110107421875,-0.02490234375,1.00384521484375,2.205657958984375,4.725341796875,4.78515625,1,2.0,1.0,1.0,2.0,10.00
2024-10-11 20:45:51.074,1.4916008,0.8114429,-0.27277198,1.0081509,1.1863008,0.41733062,-1.0423481,0.9533517,1.5776734,0.38286564,-0.4537734,1.4958892,0.5082797,-0.049817454,0.54284585,0.8965727,0.33018413,-0.46920827,0.25555915,0.40091833,797.8022,799.81683,801.4286,806.6667,691.4286,-0.110107421875,-0.02490234375,1.00384521484375,2.205657958984375,4.725341796875,4.78515625,1,2.0,1.0,1.0,2.0,10.00
2024-10-11 20:45:51.075,1.4916008,0.8114429,-0.27277198,1.0081509,1.1863008,0.41733062,-1.0423481,0.9533517,1.5776734,0.38286564,-0.4537734,1.4958892,0.5082797,-0.049817454,0.54284585,0.8965727,0.33018413,-0.46920827,0.25555915,0.40091833,804.65204,791.75824,796.99634,807.47253,825.2015,-0.110107421875,-0.02490234375,1.00384521484375,2.205657958984375,4.725341796875,4.78515625,1,2.0,1.0,1.0,2.0,10.00
2024-10-11 20:45:51.075,1.4916008,0.8114429,-0.27277198,1.0081509,1.1863008,0.41733062,-1.0423481,0.9533517,1.5776734,0.38286564,-0.4537734,1.4958892,0.5082797,-0.049817454,0.54284585,0.8965727,0.33018413,-0.46920827,0.25555915,0.40091833,811.50183,790.9524,805.05493,807.47253,882.01465,-0.110107421875,-0.02490234375,1.00384521484375,2.205657958984375,4.725341796875,4.78515625,1,2.0,1.0,1.0,2.0,10.00
2024-10-11 20:45:51.076,1.4916008,0.8114429,-0.27277198,1.0081509,1.1863008,0.41733062,-1.0423481,0.9533517,1.5776734,0.38286564,-0.4537734,1.4958892,0.5082797,-0.049817454,0.54284585,0.8965727,0.33018413,-0.46920827,0.25555915,0.40091833,811.0989,792.5641,794.9817,813.1135,747.4359,-0.110107421875,-0.02490234375,1.00384521484375,2.205657958984375,4.725341796875,4.78515625,1,2.0,1.0,1.0,2.0,10.00
2024-10-11 20:45:51.076,1.4916008,0.8114429,-0.27277198,1.0081509,1.1863008,0.41733062,-1.0423481,0.9533517,1.5776734,0.38286564,-0.4537734,1.4958892,0.5082797,-0.049817454,0.54284585,0.8965727,0.33018413,-0.46920827,0.25555915,0.40091833,802.6374,794.17584,787.72894,805.05493,745.42126,-0.110107421875,-0.02490234375,1.00384521484375,2.205657958984375,4.725341796875,4.78515625,1,2.0,1.0,1.0,2.0,10.00
2024-10-11 20:45:51.077,1.4916008,0.6656763,-0.27277198,1.0081509,1.1863008,0.2716013,-1.0423481,0.9533517,1.5776734,0.37858075,-0.4537734,1.4958892,0.5082797,-0.058988348,0.54284585,0.8965727,0.33018413,-0.4731134,0.25555915,0.40091833,808.2784,800.2198,799.81683,796.99634,765.16486,-0.110107421875,-0.02490234375,1.00384521484375,2.205657958984375,4.725341796875,4.78515625,1,2.0,1.0,1.0,2.0,10.00
2024-10-11 20:45:51.083,1.4916008,0.6656763,-0.27277198,1.0081509,1.1863008,0.2716013,-1.0423481,0.9533517,1.5776734,0.37858075,-0.4537734,1.4958892,0.5082797,-0.058988348,0.54284585,0.8965727,0.33018413,-0.4731134,0.25555915,0.40091833,824.3956,797.8022,769.59705,805.05493,736.55676,-0.12164306640625,-0.02215576171875,0.99755859375,1.495361328125,5.973968505859375,4.957122802734375,1,2.0,1.0,1.0,2.0,10.00
2024-10-11 20:45:51.084,1.4916008,0.6656763,-0.27277198,1.0081509,1.1863008,0.2716013,-1.0423481,0.9533517,1.5776734,0.37858075,-0.4537734,1.4958892,0.5082797,-0.058988348,0.54284585,0.8965727,0.33018413,-0.4731134,0.25555915,0.40091833,831.2454,795.78754,756.30035,825.2015,616.8865,-0.12164306640625,-0.02215576171875,0.99755859375,1.495361328125,5.973968505859375,4.957122802734375,1,2.0,1.0,1.0,2.0,10.00
2024-10-11 20:45:51.085,1.4916008,0.6656763,-0.27277198,1.0081509,1.1863008,0.2716013,-1.0423481,0.9533517,1.5776734,0.37858075,-0.4537734,1.4958892,0.5082797,-0.058988348,0.54284585,0.8965727,0.33018413,-0.4731134,0.25555915,0.40091833,805.4579,796.1905,819.5604,811.50183,630.58606,-0.12164306640625,-0.02215576171875,0.99755859375,1.495361328125,5.973968505859375,4.957122802734375,1,2.0,1.0,1.0,2.0,10.00
2024-10-11 20:45:51.085,1.4916008,0.6656763,-0.27277198,1.0081509,1.1863008,0.2716013,-1.0423481,0.9533517,1.5776734,0.37858075,-0.4537734,1.4958892,0.5082797,-0.058988348,0.54284585,0.8965727,0.33018413,-0.4731134,0.25555915,0.40091833,794.9817,794.17584,850.18317,799.011,757.50916,-0.12164306640625,-0.02215576171875,0.99755859375,1.495361328125,5.973968505859375,4.957122802734375,1,2.0,1.0,1.0,2.0,10.00
2024-10-11 20:45:51.086,1.4916008,0.6656763,-0.27277198,1.0081509,1.1863008,0.2716013,-1.0423481,0.9533517,1.5776734,0.37858075,-0.4537734,1.4958892,0.5082797,-0.058988348,0.54284585,0.8965727,0.33018413,-0.4731134,0.25555915,0.40091833,808.2784,792.1612,819.5604,809.4872,757.50916,-0.12164306640625,-0.02215576171875,0.99755859375,1.495361328125,5.973968505859375,4.957122802734375,1,2.0,1.0,1.0,2.0,10.00
2024-10-11 20:45:51.087,1.4916008,0.6656763,-0.27277198,1.0081509,1.1863008,0.2716013,-1.0423481,0.9533517,1.5776734,0.37858075,-0.4537734,1.4958892,0.5082797,-0.058988348,0.54284585,0.8965727,0.33018413,-0.4731134,0.25555915,0.40091833,809.0842,790.9524,798.20514,816.337,701.0989,-0.12164306640625,-0.02215576171875,0.99755859375,1.495361328125,5.973968505859375,4.957122802734375,1,2.0,1.0,1.0,2.0,10.00
2024-10-11 20:45:51.088,1.4916008,0.6656763,-0.27277198,1.0081509,1.1863008,0.2716013,-1.0423481,0.9533517,1.5776734,0.37858075,-0.4537734,1.4958892,0.5082797,-0.058988348,0.54284585,0.8965727,0.33018413,-0.4731134,0.25555915,0.40091833,809.89014,788.93774,802.23444,817.9487,794.9817,-0.12164306640625,-0.02215576171875,0.99755859375,1.495361328125,5.973968505859375,4.957122802734375,1,2.0,1.0,1.0,2.0,10.00
2024-10-11 20:45:51.089,1.4916008,0.6656763,-0.27277198,1.0081509,1.1863008,0.2716013,-1.0423481,0.9533517,1.5776734,0.37858075,-0.4537734,1.4958892,0.5082797,-0.058988348,0.54284585,0.8965727,0.33018413,-0.4731134,0.25555915,0.40091833,809.4872,792.1612,809.0842,817.9487,856.63007,-0.12164306640625,-0.02215576171875,0.99755859375,1.495361328125,5.973968505859375,4.957122802734375,1,2.0,1.0,1.0,2.0,10.00
2024-10-11 20:45:51.090,1.4916008,0.6656763,-0.27277198,1.0081509,1.1863008,0.2716013,-1.0423481,0.9533517,1.5776734,0.37858075,-0.4537734,1.4958892,0.5082797,-0.058988348,0.54284585,0.8965727,0.33018413,-0.4731134,0.25555915,0.40091833,807.8755,795.38464,831.2454,821.978,743.00366,-0.12164306640625,-0.02215576171875,0.99755859375,1.495361328125,5.973968505859375,4.957122802734375,1,2.0,1.0,1.0,2.0,10.00
2024-10-11 20:45:51.090,1.4916008,0.6656763,-0.27277198,1.0081509,1.1863008,0.2716013,-1.0423481,0.9533517,1.5776734,0.37858075,-0.4537734,1.4958892,0.5082797,-0.058988348,0.54284585,0.8965727,0.33018413,-0.4731134,0.25555915,0.40091833,805.4579,792.5641,826.4103,811.9048,626.9597,-0.12164306640625,-0.02215576171875,0.99755859375,1.495361328125,5.973968505859375,4.957122802734375,1,2.0,1.0,1.0,2.0,10.00
2024-10-11 20:45:51.091,1.4916008,0.6656763,-0.27277198,1.0081509,1.1863008,0.2716013,-1.0423481,0.9533517,1.5776734,0.37858075,-0.4537734,1.4958892,0.5082797,-0.058988348,0.54284585,0.8965727,0.33018413,-0.4731134,0.25555915,0.40091833,820.3663,786.1172,818.7546,819.9634,712.381,-0.12164306640625,-0.02215576171875,0.99755859375,1.495361328125,5.973968505859375,4.957122802734375,1,2.0,1.0,1.0,2.0,10.00
2024-10-11 20:45:51.092,1.4916008,0.6656763,-0.27277198,1.0081509,1.1863008,0.2716013,-1.0423481,0.9533517,1.5776734,0.37858075,-0.4537734,1.4958892,0.5082797,-0.058988348,0.54284585,0.8965727,0.33018413,-0.4731134,0.25555915,0.40091833,823.5897,786.52014,817.1429,840.10986,941.2454,-0.12164306640625,-0.02215576171875,0.99755859375,1.495361328125,5.973968505859375,4.957122802734375,1,2.0,1.0,1.0,2.0,10.00
2024-10-11 20:45:51.124,1.4916008,0.6656763,-0.27277198,1.0081509,1.1863008,0.2716013,-1.0423481,0.9533517,1.5776734,0.37858075,-0.4537734,1.4958892,0.5082797,-0.058988348,0.54284585,0.8965727,0.33018413,-0.4731134,0.25555915,0.40091833,826.0073,790.14655,827.2161,836.8865,871.53845,-0.1241455078125,-0.02734375,1.00830078125,0.037384033203125,5.03936767578125,5.682373046875,1,2.0,1.0,1.0,2.0,10.00
2024-10-11 20:45:51.125,1.4916008,0.6656763,-0.27277198,1.0081509,1.1863008,0.2716013,-1.0423481,0.9533517,1.5776734,0.37858075,-0.4537734,1.4958892,0.5082797,-0.058988348,0.54284585,0.8965727,0.33018413,-0.4731134,0.25555915,0.40091833,835.2747,793.36993,839.304,833.2601,620.9158,-0.1241455078125,-0.02734375,1.00830078125,0.037384033203125,5.03936767578125,5.682373046875,1,2.0,1.0,1.0,2.0,10.00
2024-10-11 20:45:51.126,1.4916008,0.6656763,-0.27277198,1.0081509,1.1863008,0.2716013,-1.0423481,0.9533517,1.5776734,0.37858075,-0.4537734,1.4958892,0.5082797,-0.058988348,0.54284585,0.8965727,0.33018413,-0.4731134,0.25555915,0.40091833,825.2015,795.38464,830.0366,826.8132,689.41394,-0.1241455078125,-0.02734375,1.00830078125,0.037384033203125,5.03936767578125,5.682373046875,1,2.0,1.0,1.0,2.0,10.00
2024-10-11 20:45:51.126,1.4916008,0.6656763,-0.27277198,1.0081509,1.1863008,0.2716013,-1.0423481,0.9533517,1.5776734,0.37858075,-0.4537734,1.4958892,0.5082797,-0.058988348,0.54284585,0.8965727,0.33018413,-0.4731134,0.25555915,0.40091833,830.4396,786.9231,786.1172,832.4542,804.65204,-0.1241455078125,-0.02734375,1.00830078125,0.037384033203125,5.03936767578125,5.682373046875,1,2.0,1.0,1.0,2.0,10.00
2024-10-11 20:45:51.127,1.4916008,0.6656763,-0.27277198,1.0081509,1.1863008,0.2716013,-1.0423481,0.9533517,1.5776734,0.37858075,-0.4537734,1.4958892,0.5082797,-0.058988348,0.54284585,0.8965727,0.33018413,-0.4731134,0.25555915,0.40091833,836.4835,785.7143,771.2088,844.5421,629.3773,-0.1241455078125,-0.02734375,1.00830078125,0.037384033203125,5.03936767578125,5.682373046875,1,2.0,1.0,1.0,2.0,10.00
2024-10-11 20:45:51.128,1.4916008,0.6656763,-0.27277198,1.0081509,1.1863008,0.2716013,-1.0423481,0.9533517,1.5776734,0.37858075,-0.4537734,1.4958892,0.5082797,-0.058988348,0.54284585,0.8965727,0.33018413,-0.4731134,0.25555915,0.40091833,832.8571,786.1172,821.1722,839.707,596.7399,-0.1241455078125,-0.02734375,1.00830078125,0.037384033203125,5.03936767578125,5.682373046875,1,2.0,1.0,1.0,2.0,10.00
2024-10-11 20:45:51.128,1.4916008,0.6656763,-0.27277198,1.0081509,1.1863008,0.2716013,-1.0423481,0.9533517,1.5776734,0.37858075,-0.4537734,1.4958892,0.5082797,-0.058988348,0.54284585,0.8965727,0.33018413,-0.4731134,0.25555915,0.40091833,825.2015,780.4762,854.21246,831.2454,817.9487,-0.1241455078125,-0.02734375,1.00830078125,0.037384033203125,5.03936767578125,5.682373046875,1,2.0,1.0,1.0,2.0,10.00
2024-10-11 20:45:51.129,1.4916008,0.6656763,-0.27277198,1.0081509,1.1863008,0.2716013,-1.0423481,0.9533517,1.5776734,0.37858075,-0.4537734,1.4958892,0.5082797,-0.058988348,0.54284585,0.8965727,0.33018413,-0.4731134,0.25555915,0.40091833,821.5751,778.86444,833.2601,835.2747,890.4762,-0.1241455078125,-0.02734375,1.00830078125,0.037384033203125,5.03936767578125,5.682373046875,1,2.0,1.0,1.0,2.0,10.00
2024-10-11 20:45:51.130,1.4916008,0.6656763,-0.27277198,1.0081509,1.1863008,0.2716013,-1.0423481,0.9533517,1.5776734,0.37858075,-0.4537734,1.4958892,0.5082797,-0.058988348,0.54284585,0.8965727,0.33018413,-0.4731134,0.25555915,0.40091833,829.2308,784.10254,825.2015,836.8865,670.87915,-0.1241455078125,-0.02734375,1.00830078125,0.037384033203125,5.03936767578125,5.682373046875,1,2.0,1.0,1.0,2.0,10.00
2024-10-11 20:45:51.130,1.4916008,0.6656763,-0.27277198,1.0081509,1.1863008,0.2716013,-1.0423481,0.9533517,1.5776734,0.37858075,-0.4537734,1.4958892,0.5082797,-0.058988348,0.54284585,0.8965727,0.33018413,-0.4731134,0.25555915,0.40091833,840.5128,791.3553,833.663,834.0659,650.7326,-0.1241455078125,-0.02734375,1.00830078125,0.037384033203125,5.03936767578125,5.682373046875,1,2.0,1.0,1.0,2.0,10.00
2024-10-11 20:45:51.131,1.4916008,0.6656763,-0.27277198,1.0081509,1.1863008,0.2716013,-1.0423481,0.9533517,1.5776734,0.37858075,-0.4537734,1.4958892,0.5082797,-0.058988348,0.54284585,0.8965727,0.33018413,-0.4731134,0.25555915,0.40091833,841.7216,793.7729,840.5128,845.7509,849.7802,-0.1241455078125,-0.02734375,1.00830078125,0.037384033203125,5.03936767578125,5.682373046875,1,2.0,1.0,1.0,2.0,10.00
2024-10-11 20:45:51.132,1.4916008,0.6656763,-0.27277198,1.0081509,1.1863008,0.2716013,-1.0423481,0.9533517,1.5776734,0.37858075,-0.4537734,1.4958892,0.5082797,-0.058988348,0.54284585,0.8965727,0.33018413,-0.4731134,0.25555915,0.40091833,836.08057,798.20514,836.08057,852.6007,844.94507,-0.1241455078125,-0.02734375,1.00830078125,0.037384033203125,5.03936767578125,5.682373046875,1,2.0,1.0,1.0,2.0,10.00
2024-10-11 20:45:51.133,1.4916008,0.6656763,-0.27277198,1.0081509,1.1863008,0.2716013,-1.0423481,0.9533517,1.5776734,0.37858075,-0.4537734,1.4958892,0.5082797,-0.058988348,0.54284585,0.8965727,0.33018413,-0.4731134,0.25555915,0.40091833,832.0513,796.1905,838.49817,842.52747,649.12085,-0.1241455078125,-0.02734375,1.00830078125,0.037384033203125,5.03936767578125,5.682373046875,1,2.0,1.0,1.0,2.0,10.00
2024-10-11 20:45:51.134,1.4916008,0.5318876,-0.27277198,1.0081509,1.1863008,0.15774132,-1.0423481,0.9533517,1.5776734,0.34561008,-0.4537734,1.4958892,0.5082797,-0.08347957,0.54284585,0.8965727,0.33018413,-0.45668766,0.25555915,0.40091833,827.619,793.7729,870.32965,835.2747,586.6667,-0.1241455078125,-0.02734375,1.00830078125,0.037384033203125,5.03936767578125,5.682373046875,1,2.0,1.0,1.0,2.0,10.00
2024-10-11 20:45:51.139,1.4916008,0.5318876,-0.27277198,1.0081509,1.1863008,0.15774132,-1.0423481,0.9533517,1.5776734,0.34561008,-0.4537734,1.4958892,0.5082797,-0.08347957,0.54284585,0.8965727,0.33018413,-0.45668766,0.25555915,0.40091833,832.4542,791.3553,867.1062,840.5128,726.8865,-0.1241455078125,-0.02734375,1.00830078125,0.037384033203125,5.03936767578125,5.682373046875,1,2.0,1.0,1.0,2.0,10.00
2024-10-11 20:45:51.140,1.4916008,0.5318876,-0.27277198,1.0081509,1.1863008,0.15774132,-1.0423481,0.9533517,1.5776734,0.34561008,-0.4537734,1.4958892,0.5082797,-0.08347957,0.54284585,0.8965727,0.33018413,-0.45668766,0.25555915,0.40091833,836.08057,789.34064,849.3773,834.87177,768.7912,-0.1241455078125,-0.02734375,1.00830078125,0.037384033203125,5.03936767578125,5.682373046875,1,2.0,1.0,1.0,2.0,10.00
2024-10-11 20:45:51.141,1.4916008,0.5318876,-0.27277198,1.0081509,1.1863008,0.15774132,-1.0423481,0.9533517,1.5776734,0.34561008,-0.4537734,1.4958892,0.5082797,-0.08347957,0.54284585,0.8965727,0.33018413,-0.45668766,0.25555915,0.40091833,832.4542,790.54944,838.9011,818.7546,602.381,-0.1241455078125,-0.02734375,1.00830078125,0.037384033203125,5.03936767578125,5.682373046875,1,2.0,1.0,1.0,2.0,10.00
2024-10-11 20:45:51.141,1.4916008,0.5318876,-0.27277198,1.0081509,1.1863008,0.15774132,-1.0423481,0.9533517,1.5776734,0.34561008,-0.4537734,1.4958892,0.5082797,-0.08347957,0.54284585,0.8965727,0.33018413,-0.45668766,0.25555915,0.40091833,828.8278,789.34064,835.6777,824.7985,611.6484,-0.1241455078125,-0.02734375,1.00830078125,0.037384033203125,5.03936767578125,5.682373046875,1,2.0,1.0,1.0,2.0,10.00
2024-10-11 20:45:51.142,1.4916008,0.5318876,-0.27277198,1.0081509,1.1863008,0.15774132,-1.0423481,0.9533517,1.5776734,0.34561008,-0.4537734,1.4958892,0.5082797,-0.08347957,0.54284585,0.8965727,0.33018413,-0.45668766,0.25555915,0.40091833,833.2601,790.54944,832.8571,834.0659,869.5238,-0.1241455078125,-0.02734375,1.00830078125,0.037384033203125,5.03936767578125,5.682373046875,1,2.0,1.0,1.0,2.0,10.00
2024-10-11 20:45:51.143,1.4916008,0.5318876,-0.27277198,1.0081509,1.1863008,0.15774132,-1.0423481,0.9533517,1.5776734,0.34561008,-0.4537734,1.4958892,0.5082797,-0.08347957,0.54284585,0.8965727,0.33018413,-0.45668766,0.25555915,0.40091833,832.0513,790.54944,838.0952,832.0513,808.2784,-0.1241455078125,-0.02734375,1.00830078125,0.037384033203125,5.03936767578125,5.682373046875,1,2.0,1.0,1.0,2.0,10.00
2024-10-11 20:45:51.143,1.4916008,0.5318876,-0.27277198,1.0081509,1.1863008,0.15774132,-1.0423481,0.9533517,1.5776734,0.34561008,-0.4537734,1.4958892,0.5082797,-0.08347957,0.54284585,0.8965727,0.33018413,-0.45668766,0.25555915,0.40091833,832.0513,793.7729,814.3223,834.87177,572.1612,-0.1241455078125,-0.02734375,1.00830078125,0.037384033203125,5.03936767578125,5.682373046875,1,2.0,1.0,1.0,2.0,10.00
2024-10-11 20:45:51.144,1.4916008,0.5318876,-0.27277198,1.0081509,1.1863008,0.15774132,-1.0423481,0.9533517,1.5776734,0.34561008,-0.4537734,1.4958892,0.5082797,-0.08347957,0.54284585,0.8965727,0.33018413,-0.45668766,0.25555915,0.40091833,829.2308,793.36993,811.9048,837.6923,623.3333,-0.1241455078125,-0.02734375,1.00830078125,0.037384033203125,5.03936767578125,5.682373046875,1,2.0,1.0,1.0,2.0,10.00
2024-10-11 20:45:51.145,1.4916008,0.5318876,-0.27277198,1.0081509,1.1863008,0.15774132,-1.0423481,0.9533517,1.5776734,0.34561008,-0.4537734,1.4958892,0.5082797,-0.08347957,0.54284585,0.8965727,0.33018413,-0.45668766,0.25555915,0.40091833,805.8608,786.52014,845.34796,834.87177,759.12085,-0.1241455078125,-0.02734375,1.00830078125,0.037384033203125,5.03936767578125,5.682373046875,1,2.0,1.0,1.0,2.0,10.00
2024-10-11 20:45:51.145,1.4916008,0.5318876,-0.27277198,1.0081509,1.1863008,0.15774132,-1.0423481,0.9533517,1.5776734,0.34561008,-0.4537734,1.4958892,0.5082797,-0.08347957,0.54284585,0.8965727,0.33018413,-0.45668766,0.25555915,0.40091833,797.8022,789.7436,853.4066,828.4249,703.5165,-0.1241455078125,-0.02734375,1.00830078125,0.037384033203125,5.03936767578125,5.682373046875,1,2.0,1.0,1.0,2.0,10.00
2024-10-11 20:45:51.146,1.4916008,0.5318876,-0.27277198,1.0081509,1.1863008,0.15774132,-1.0423481,0.9533517,1.5776734,0.34561008,-0.4537734,1.4958892,0.5082797,-0.08347957,0.54284585,0.8965727,0.33018413,-0.45668766,0.25555915,0.40091833,808.2784,790.9524,862.674,819.5604,536.30035,-0.12799072265625,-0.02947998046875,0.9927978515625,0.0897216796875,3.745880126953125,7.34222412109375,1,2.0,1.0,1.0,2.0,10.00
2024-10-11 20:45:51.147,1.4916008,0.5318876,-0.27277198,1.0081509,1.1863008,0.15774132,-1.0423481,0.9533517,1.5776734,0.34561008,-0.4537734,1.4958892,0.5082797,-0.08347957,0.54284585,0.8965727,0.33018413,-0.45668766,0.25555915,0.40091833,831.2454,786.52014,844.1392,825.2015,570.54944,-0.12799072265625,-0.02947998046875,0.9927978515625,0.0897216796875,3.745880126953125,7.34222412109375,1,2.0,1.0,1.0,2.0,10.00
2024-10-11 20:45:51.148,1.4916008,0.5318876,-0.27277198,1.0081509,1.1863008,0.15774132,-1.0423481,0.9533517,1.5776734,0.34561008,-0.4537734,1.4958892,0.5082797,-0.08347957,0.54284585,0.8965727,0.33018413,-0.45668766,0.25555915,0.40091833,823.9927,787.326,831.6484,831.6484,671.28204,-0.12799072265625,-0.02947998046875,0.9927978515625,0.0897216796875,3.745880126953125,7.34222412109375,1,2.0,1.0,1.0,2.0,10.00
2024-10-11 20:45:51.149,1.4916008,0.5318876,-0.27277198,1.0081509,1.1863008,0.15774132,-1.0423481,0.9533517,1.5776734,0.34561008,-0.4537734,1.4958892,0.5082797,-0.08347957,0.54284585,0.8965727,0.33018413,-0.45668766,0.25555915,0.40091833,801.02563,788.5348,847.3626,817.9487,614.0659,-0.12799072265625,-0.02947998046875,0.9927978515625,0.0897216796875,3.745880126953125,7.34222412109375,1,2.0,1.0,1.0,2.0,10.00
2024-10-11 20:45:51.150,1.4916008,0.5318876,-0.27277198,1.0081509,1.1863008,0.15774132,-1.0423481,0.9533517,1.5776734,0.34561008,-0.4537734,1.4958892,0.5082797,-0.08347957,0.54284585,0.8965727,0.33018413,-0.45668766,0.25555915,0.40091833,803.0403,788.93774,827.2161,813.5165,534.2857,-0.12799072265625,-0.02947998046875,0.9927978515625,0.0897216796875,3.745880126953125,7.34222412109375,1,2.0,1.0,1.0,2.0,10.00
2024-10-11 20:45:51.151,1.4916008,0.5318876,-0.27277198,1.0081509,1.1863008,0.15774132,-1.0423481,0.9533517,1.5776734,0.34561008,-0.4537734,1.4958892,0.5082797,-0.08347957,0.54284585,0.8965727,0.33018413,-0.45668766,0.25555915,0.40091833,805.8608,787.326,813.1135,815.5311,697.47253,-0.12799072265625,-0.02947998046875,0.9927978515625,0.0897216796875,3.745880126953125,7.34222412109375,1,2.0,1.0,1.0,2.0,10.00
2024-10-11 20:45:51.151,1.4916008,0.5318876,-0.27277198,1.0081509,1.1863008,0.15774132,-1.0423481,0.9533517,1.5776734,0.34561008,-0.4537734,1.4958892,0.5082797,-0.08347957,0.54284585,0.8965727,0.33018413,-0.45668766,0.25555915,0.40091833,810.293,781.685,846.55676,814.7253,864.68866,-0.12799072265625,-0.02947998046875,0.9927978515625,0.0897216796875,3.745880126953125,7.34222412109375,1,2.0,1.0,1.0,2.0,10.00
2024-10-11 20:45:51.152,1.4916008,0.5318876,-0.27277198,1.0081509,1.1863008,0.15774132,-1.0423481,0.9533517,1.5776734,0.34561008,-0.4537734,1.4958892,0.5082797,-0.08347957,0.54284585,0.8965727,0.33018413,-0.45668766,0.25555915,0.40091833,805.4579,780.4762,847.76556,816.337,743.8095,-0.12799072265625,-0.02947998046875,0.9927978515625,0.0897216796875,3.745880126953125,7.34222412109375,1,2.0,1.0,1.0,2.0,10.00
2024-10-11 20:45:51.153,1.4916008,0.5318876,-0.27277198,1.0081509,1.1863008,0.15774132,-1.0423481,0.9533517,1.5776734,0.34561008,-0.4537734,1.4958892,0.5082797,-0.08347957,0.54284585,0.8965727,0.33018413,-0.45668766,0.25555915,0.40091833,797.8022,781.28204,832.8571,815.12823,630.58606,-0.12799072265625,-0.02947998046875,0.9927978515625,0.0897216796875,3.745880126953125,7.34222412109375,1,2.0,1.0,1.0,2.0,10.00
2024-10-11 20:45:51.154,1.4916008,0.5318876,-0.27277198,1.0081509,1.1863008,0.15774132,-1.0423481,0.9533517,1.5776734,0.34561008,-0.4537734,1.4958892,0.5082797,-0.08347957,0.54284585,0.8965727,0.33018413,-0.45668766,0.25555915,0.40091833,796.5934,780.4762,830.84247,811.0989,728.9011,-0.12799072265625,-0.02947998046875,0.9927978515625,0.0897216796875,3.745880126953125,7.34222412109375,1,2.0,1.0,1.0,2.0,10.00
2024-10-11 20:45:51.155,1.4916008,0.5318876,-0.27277198,1.0081509,1.1863008,0.15774132,-1.0423481,0.9533517,1.5776734,0.34561008,-0.4537734,1.4958892,0.5082797,-0.08347957,0.54284585,0.8965727,0.33018413,-0.45668766,0.25555915,0.40091833,802.6374,784.10254,826.0073,806.6667,799.81683,-0.12799072265625,-0.02947998046875,0.9927978515625,0.0897216796875,3.745880126953125,7.34222412109375,1,2.0,1.0,1.0,2.0,10.00
2024-10-11 20:45:51.156,1.4916008,0.5318876,-0.27277198,1.0081509,1.1863008,0.15774132,-1.0423481,0.9533517,1.5776734,0.34561008,-0.4537734,1.4958892,0.5082797,-0.08347957,0.54284585,0.8965727,0.33018413,-0.45668766,0.25555915,0.40091833,807.0696,792.1612,815.9341,808.68134,634.61536,-0.12799072265625,-0.02947998046875,0.9927978515625,0.0897216796875,3.745880126953125,7.34222412109375,1,2.0,1.0,1.0,2.0,10.00
2024-10-11 20:45:51.189,1.4916008,0.5318876,-0.27277198,1.0081509,1.1863008,0.15774132,-1.0423481,0.9533517,1.5776734,0.34561008,-0.4537734,1.4958892,0.5082797,-0.08347957,0.54284585,0.8965727,0.33018413,-0.45668766,0.25555915,0.40091833,801.4286,794.17584,801.4286,803.8461,606.0073,-0.13958740234375,-0.02545166015625,0.99249267578125,0.515899658203125,2.99072265625,8.800201416015625,1,2.0,1.0,1.0,2.0,10.00
2024-10-11 20:45:51.190,1.4916008,0.5318876,-0.27277198,1.0081509,1.1863008,0.15774132,-1.0423481,0.9533517,1.5776734,0.34561008,-0.4537734,1.4958892,0.5082797,-0.08347957,0.54284585,0.8965727,0.33018413,-0.45668766,0.25555915,0.40091833,795.78754,790.9524,807.47253,799.41394,778.46155,-0.13958740234375,-0.02545166015625,0.99249267578125,0.515899658203125,2.99072265625,8.800201416015625,1,2.0,1.0,1.0,2.0,10.00
2024-10-11 20:45:51.191,1.4916008,0.5318876,-0.27277198,1.0081509,1.1863008,0.15774132,-1.0423481,0.9533517,1.5776734,0.34561008,-0.4537734,1.4958892,0.5082797,-0.08347957,0.54284585,0.8965727,0.33018413,-0.45668766,0.25555915,0.40091833,801.02563,791.3553,824.3956,807.0696,819.5604,-0.13958740234375,-0.02545166015625,0.99249267578125,0.515899658203125,2.99072265625,8.800201416015625,1,2.0,1.0,1.0,2.0,10.00
2024-10-11 20:45:51.191,1.4916008,0.45050195,-0.27277198,0.9250435,1.1863008,0.10821074,-1.0423481,0.73354053,1.5776734,0.3027601,-0.4537734,0.6444136,0.5082797,-0.11962754,0.54284585,0.681951,0.33018413,-0.42015645,0.25555915,0.22093904,809.0842,794.17584,817.9487,799.41394,606.0073,-0.13958740234375,-0.02545166015625,0.99249267578125,0.515899658203125,2.99072265625,8.800201416015625,1,2.0,1.0,1.0,2.0,10.00
2024-10-11 20:45:51.197,1.4916008,0.45050195,-0.27277198,0.9250435,1.1863008,0.10821074,-1.0423481,0.73354053,1.5776734,0.3027601,-0.4537734,0.6444136,0.5082797,-0.11962754,0.54284585,0.681951,0.33018413,-0.42015645,0.25555915,0.22093904,801.02563,796.5934,815.9341,795.78754,586.26373,-0.13958740234375,-0.02545166015625,0.99249267578125,0.515899658203125,2.99072265625,8.800201416015625,1,2.0,1.0,1.0,2.0,10.00
2024-10-11 20:45:51.198,1.4916008,0.45050195,-0.27277198,0.9250435,1.1863008,0.10821074,-1.0423481,0.73354053,1.5776734,0.3027601,-0.4537734,0.6444136,0.5082797,-0.11962754,0.54284585,0.681951,0.33018413,-0.42015645,0.25555915,0.22093904,791.3553,790.9524,826.4103,802.23444,1067.7656,-0.13958740234375,-0.02545166015625,0.99249267578125,0.515899658203125,2.99072265625,8.800201416015625,1,2.0,1.0,1.0,2.0,10.00
2024-10-11 20:45:51.199,1.4916008,0.45050195,-0.27277198,0.9250435,1.1863008,0.10821074,-1.0423481,0.73354053,1.5776734,0.3027601,-0.4537734,0.6444136,0.5082797,-0.11962754,0.54284585,0.681951,0.33018413,-0.42015645,0.25555915,0.22093904,796.1905,789.34064,828.022,805.4579,1412.674,-0.13958740234375,-0.02545166015625,0.99249267578125,0.515899658203125,2.99072265625,8.800201416015625,1,2.0,1.0,1.0,2.0,10.00
2024-10-11 20:45:51.200,1.4916008,0.45050195,-0.27277198,0.9250435,1.1863008,0.10821074,-1.0423481,0.73354053,1.5776734,0.3027601,-0.4537734,0.6444136,0.5082797,-0.11962754,0.54284585,0.681951,0.33018413,-0.42015645,0.25555915,0.22093904,800.6227,790.14655,823.9927,806.6667,1220.0732,-0.13958740234375,-0.02545166015625,0.99249267578125,0.515899658203125,2.99072265625,8.800201416015625,1,2.0,1.0,1.0,2.0,10.00
2024-10-11 20:45:51.201,1.4916008,0.45050195,-0.27277198,0.9250435,1.1863008,0.10821074,-1.0423481,0.73354053,1.5776734,0.3027601,-0.4537734,0.6444136,0.5082797,-0.11962754,0.54284585,0.681951,0.33018413,-0.42015645,0.25555915,0.22093904,798.60803,788.93774,828.022,799.011,987.98535,-0.13958740234375,-0.02545166015625,0.99249267578125,0.515899658203125,2.99072265625,8.800201416015625,1,2.0,1.0,1.0,2.0,10.00
2024-10-11 20:45:51.201,1.4916008,0.45050195,-0.27277198,0.9250435,1.1863008,0.10821074,-1.0423481,0.73354053,1.5776734,0.3027601,-0.4537734,0.6444136,0.5082797,-0.11962754,0.54284585,0.681951,0.33018413,-0.42015645,0.25555915,0.22093904,792.1612,792.5641,820.3663,797.8022,975.89746,-0.13958740234375,-0.02545166015625,0.99249267578125,0.515899658203125,2.99072265625,8.800201416015625,1,2.0,1.0,1.0,2.0,10.00
2024-10-11 20:45:51.202,1.4916008,0.45050195,-0.27277198,0.9250435,1.1863008,0.10821074,-1.0423481,0.73354053,1.5776734,0.3027601,-0.4537734,0.6444136,0.5082797,-0.11962754,0.54284585,0.681951,0.33018413,-0.42015645,0.25555915,0.22093904,786.9231,792.5641,795.78754,801.8315,1004.5055,-0.13958740234375,-0.02545166015625,0.99249267578125,0.515899658203125,2.99072265625,8.800201416015625,1,2.0,1.0,1.0,2.0,10.00
2024-10-11 20:45:51.203,1.4916008,0.45050195,-0.27277198,0.9250435,1.1863008,0.10821074,-1.0423481,0.73354053,1.5776734,0.3027601,-0.4537734,0.6444136,0.5082797,-0.11962754,0.54284585,0.681951,0.33018413,-0.42015645,0.25555915,0.22093904,778.86444,794.9817,813.91943,793.36993,613.2601,-0.13958740234375,-0.02545166015625,0.99249267578125,0.515899658203125,2.99072265625,8.800201416015625,1,2.0,1.0,1.0,2.0,10.00
2024-10-11 20:45:51.204,1.4916008,0.45050195,-0.27277198,0.9250435,1.1863008,0.10821074,-1.0423481,0.73354053,1.5776734,0.3027601,-0.4537734,0.6444136,0.5082797,-0.11962754,0.54284585,0.681951,0.33018413,-0.42015645,0.25555915,0.22093904,785.31134,793.7729,828.022,792.5641,570.9524,-0.147705078125,-0.0169677734375,0.99835205078125,2.2430419921875,1.831817626953125,9.562835693359375,1,2.0,1.0,1.0,2.0,10.00
2024-10-11 20:45:51.205,1.4916008,0.45050195,-0.27277198,0.9250435,1.1863008,0.10821074,-1.0423481,0.73354053,1.5776734,0.3027601,-0.4537734,0.6444136,0.5082797,-0.11962754,0.54284585,0.681951,0.33018413,-0.42015645,0.25555915,0.22093904,790.54944,794.17584,815.9341,808.2784,1039.9634,-0.147705078125,-0.0169677734375,0.99835205078125,2.2430419921875,1.831817626953125,9.562835693359375,1,2.0,1.0,1.0,2.0,10.00
2024-10-11 20:45:51.206,1.4916008,0.45050195,-0.27277198,0.9250435,1.1863008,0.10821074,-1.0423481,0.73354053,1.5776734,0.3027601,-0.4537734,0.6444136,0.5082797,-0.11962754,0.54284585,0.681951,0.33018413,-0.42015645,0.25555915,0.22093904,787.326,796.1905,829.6337,813.91943,1089.1208,-0.147705078125,-0.0169677734375,0.99835205078125,2.2430419921875,1.831817626953125,9.562835693359375,1,2.0,1.0,1.0,2.0,10.00
2024-10-11 20:45:51.207,1.4916008,0.45050195,-0.27277198,0.9250435,1.1863008,0.10821074,-1.0423481,0.73354053,1.5776734,0.3027601,-0.4537734,0.6444136,0.5082797,-0.11962754,0.54284585,0.681951,0.33018413,-0.42015645,0.25555915,0.22093904,788.93774,795.78754,830.84247,782.8938,596.7399,-0.147705078125,-0.0169677734375,0.99835205078125,2.2430419921875,1.831817626953125,9.562835693359375,1,2.0,1.0,1.0,2.0,10.00
2024-10-11 20:45:51.208,1.4916008,0.45050195,-0.27277198,0.9250435,1.1863008,0.10821074,-1.0423481,0.73354053,1.5776734,0.3027601,-0.4537734,0.6444136,0.5082797,-0.11962754,0.54284585,0.681951,0.33018413,-0.42015645,0.25555915,0.22093904,791.75824,796.5934,817.9487,782.49084,539.5238,-0.147705078125,-0.0169677734375,0.99835205078125,2.2430419921875,1.831817626953125,9.562835693359375,1,2.0,1.0,1.0,2.0,10.00
