TimeStamp,Delta_TP9,Delta_AF7,Delta_AF8,Delta_TP10,Theta_TP9,Theta_AF7,Theta_AF8,Theta_TP10,Alpha_TP9,Alpha_AF7,Alpha_AF8,Alpha_TP10,Beta_TP9,Beta_AF7,Beta_AF8,Beta_TP10,Gamma_TP9,Gamma_AF7,Gamma_AF8,Gamma_TP10,RAW_TP9,RAW_AF7,RAW_AF8,RAW_TP10,AUX_RIGHT,Accelerometer_X,Accelerometer_Y,Accelerometer_Z,Gyro_X,Gyro_Y,Gyro_Z,HeadBandOn,HSI_TP9,HSI_AF7,HSI_AF8,HSI_TP10,Battery,Elements
2024-10-11 20:38:39.909,0.1470294,-0.5011621,-0.29783365,0.36585772,0.85177374,-0.10241475,0.0682627,0.36423302,1.0823061,-0.116705865,0.3454969,0.75036263,0.5049816,-0.09584082,0.27220622,0.3567845,-0.09422818,-0.55166143,-0.16008152,-0.21138753,807.47253,800.2198,801.8315,811.9048,781.28204,-0.2083740234375,0.0771484375,0.98553466796875,1.854248046875,-1.375732421875,-1.861724853515625,1,1.0,1.0,1.0,1.0,10.00
2024-10-11 20:38:39.910,0.1470294,-0.5011621,-0.29783365,0.36585772,0.85177374,-0.10241475,0.0682627,0.36423302,1.0823061,-0.116705865,0.3454969,0.75036263,0.5049816,-0.09584082,0.27220622,0.3567845,-0.09422818,-0.55166143,-0.16008152,-0.21138753,803.0403,803.8461,795.38464,810.696,571.3553,-0.2083740234375,0.0771484375,0.98553466796875,1.854248046875,-1.375732421875,-1.861724853515625,1,1.0,1.0,1.0,1.0,10.00
2024-10-11 20:38:39.911,0.1470294,-0.5011621,-0.29783365,0.36585772,0.85177374,-0.10241475,0.0682627,0.36423302,1.0823061,-0.116705865,0.3454969,0.75036263,0.5049816,-0.09584082,0.27220622,0.3567845,-0.09422818,-0.55166143,-0.16008152,-0.21138753,796.1905,799.81683,790.9524,797.8022,552.4176,-0.2083740234375,0.0771484375,0.98553466796875,1.854248046875,-1.375732421875,-1.861724853515625,1,1.0,1.0,1.0,1.0,10.00
2024-10-11 20:38:39.911,0.1470294,-0.5011621,-0.29783365,0.36585772,0.85177374,-0.10241475,0.0682627,0.36423302,1.0823061,-0.116705865,0.3454969,0.75036263,0.5049816,-0.09584082,0.27220622,0.3567845,-0.09422818,-0.55166143,-0.16008152,-0.21138753,798.20514,794.17584,803.44324,801.4286,828.022,-0.2083740234375,0.0771484375,0.98553466796875,1.854248046875,-1.375732421875,-1.861724853515625,1,1.0,1.0,1.0,1.0,10.00
2024-10-11 20:38:39.912,0.1470294,-0.5011621,-0.29783365,0.36585772,0.85177374,-0.10241475,0.0682627,0.36423302,1.0823061,-0.116705865,0.3454969,0.75036263,0.5049816,-0.09584082,0.27220622,0.3567845,-0.09422818,-0.55166143,-0.16008152,-0.21138753,805.8608,798.20514,809.4872,807.0696,869.5238,-0.2083740234375,0.0771484375,0.98553466796875,1.854248046875,-1.375732421875,-1.861724853515625,1,1.0,1.0,1.0,1.0,10.00
2024-10-11 20:38:39.913,0.1470294,-0.5011621,-0.29783365,0.36585772,0.85177374,-0.10241475,0.0682627,0.36423302,1.0823061,-0.116705865,0.3454969,0.75036263,0.5049816,-0.09584082,0.27220622,0.3567845,-0.09422818,-0.55166143,-0.16008152,-0.21138753,794.9817,795.38464,802.6374,798.20514,662.4176,-0.2083740234375,0.0771484375,0.98553466796875,1.854248046875,-1.375732421875,-1.861724853515625,1,1.0,1.0,1.0,1.0,10.00
2024-10-11 20:38:39.914,0.1470294,-0.5011621,-0.29783365,0.36585772,0.85177374,-0.10241475,0.0682627,0.36423302,1.0823061,-0.116705865,0.3454969,0.75036263,0.5049816,-0.09584082,0.27220622,0.3567845,-0.09422818,-0.55166143,-0.16008152,-0.21138753,801.8315,793.36993,798.60803,799.41394,642.674,-0.2083740234375,0.0771484375,0.98553466796875,1.854248046875,-1.375732421875,-1.861724853515625,1,1.0,1.0,1.0,1.0,10.00
2024-10-11 20:38:39.915,0.1470294,-0.5011621,-0.29783365,0.36585772,0.85177374,-0.10241475,0.0682627,0.36423302,1.0823061,-0.116705865,0.3454969,0.75036263,0.5049816,-0.09584082,0.27220622,0.3567845,-0.09422818,-0.55166143,-0.16008152,-0.21138753,804.65204,795.78754,799.011,808.2784,886.8498,-0.2083740234375,0.0771484375,0.98553466796875,1.854248046875,-1.375732421875,-1.861724853515625,1,1.0,1.0,1.0,1.0,10.00
2024-10-11 20:38:39.916,0.1470294,-0.5011621,-0.29783365,0.36585772,0.85177374,-0.10241475,0.0682627,0.36423302,1.0823061,-0.116705865,0.3454969,0.75036263,0.5049816,-0.09584082,0.27220622,0.3567845,-0.09422818,-0.55166143,-0.16008152,-0.21138753,801.8315,793.36993,801.8315,806.26373,1155.6044,-0.2083740234375,0.0771484375,0.98553466796875,1.854248046875,-1.375732421875,-1.861724853515625,1,1.0,1.0,1.0,1.0,10.00
2024-10-11 20:38:39.917,0.1470294,-0.5011621,-0.29783365,0.36585772,0.85177374,-0.10241475,0.0682627,0.36423302,1.0823061,-0.116705865,0.3454969,0.75036263,0.5049816,-0.09584082,0.27220622,0.3567845,-0.09422818,-0.55166143,-0.16008152,-0.21138753,803.8461,793.36993,796.1905,797.8022,769.19415,-0.2083740234375,0.0771484375,0.98553466796875,1.854248046875,-1.375732421875,-1.861724853515625,1,1.0,1.0,1.0,1.0,10.00
2024-10-11 20:38:39.918,0.1470294,-0.5011621,-0.29783365,0.36585772,0.85177374,-0.10241475,0.0682627,0.36423302,1.0823061,-0.116705865,0.3454969,0.75036263,0.5049816,-0.09584082,0.27220622,0.3567845,-0.09422818,-0.55166143,-0.16008152,-0.21138753,801.02563,797.8022,800.6227,801.4286,568.5348,-0.2083740234375,0.0771484375,0.98553466796875,1.854248046875,-1.375732421875,-1.861724853515625,1,1.0,1.0,1.0,1.0,10.00
2024-10-11 20:38:39.918,0.1470294,-0.5011621,-0.29783365,0.36585772,0.85177374,-0.10241475,0.0682627,0.36423302,1.0823061,-0.116705865,0.3454969,0.75036263,0.5049816,-0.09584082,0.27220622,0.3567845,-0.09422818,-0.55166143,-0.16008152,-0.21138753,800.2198,799.011,804.65204,799.81683,690.6227,-0.2083740234375,0.0771484375,0.98553466796875,1.854248046875,-1.375732421875,-1.861724853515625,1,1.0,1.0,1.0,1.0,10.00
2024-10-11 20:38:39.920,0.1470294,-0.5011621,-0.29783365,0.36585772,0.85177374,-0.10241475,0.0682627,0.36423302,1.0823061,-0.116705865,0.3454969,0.75036263,0.5049816,-0.09584082,0.27220622,0.3567845,-0.09422818,-0.55166143,-0.16008152,-0.21138753,806.26373,800.2198,799.81683,794.57874,698.68134,-0.19635009765625,0.08160400390625,0.9783935546875,1.95892333984375,-2.549591064453125,-0.994415283203125,1,1.0,1.0,1.0,1.0,10.00
2024-10-11 20:38:39.921,0.1470294,-0.5011621,-0.29783365,0.36585772,0.85177374,-0.10241475,0.0682627,0.36423302,1.0823061,-0.116705865,0.3454969,0.75036263,0.5049816,-0.09584082,0.27220622,0.3567845,-0.09422818,-0.55166143,-0.16008152,-0.21138753,826.4103,801.8315,803.44324,806.26373,670.07324,-0.19635009765625,0.08160400390625,0.9783935546875,1.95892333984375,-2.549591064453125,-0.994415283203125,1,1.0,1.0,1.0,1.0,10.00
2024-10-11 20:38:39.922,0.1470294,-0.5011621,-0.29783365,0.36585772,0.85177374,-0.10241475,0.0682627,0.36423302,1.0823061,-0.116705865,0.3454969,0.75036263,0.5049816,-0.09584082,0.27220622,0.3567845,-0.09422818,-0.55166143,-0.16008152,-0.21138753,815.9341,799.011,809.0842,810.696,784.10254,-0.19635009765625,0.08160400390625,0.9783935546875,1.95892333984375,-2.549591064453125,-0.994415283203125,1,1.0,1.0,1.0,1.0,10.00
2024-10-11 20:38:39.923,0.1470294,-0.5011621,-0.29783365,0.36585772,0.85177374,-0.10241475,0.0682627,0.36423302,1.0823061,-0.116705865,0.3454969,0.75036263,0.5049816,-0.09584082,0.27220622,0.3567845,-0.09422818,-0.55166143,-0.16008152,-0.21138753,784.90845,796.99634,804.65204,795.78754,828.4249,-0.19635009765625,0.08160400390625,0.9783935546875,1.95892333984375,-2.549591064453125,-0.994415283203125,1,1.0,1.0,1.0,1.0,10.00
2024-10-11 20:38:39.924,0.1470294,-0.5011621,-0.29783365,0.36585772,0.85177374,-0.10241475,0.0682627,0.36423302,1.0823061,-0.116705865,0.3454969,0.75036263,0.5049816,-0.09584082,0.27220622,0.3567845,-0.09422818,-0.55166143,-0.16008152,-0.21138753,779.67035,794.9817,802.6374,793.7729,644.2857,-0.19635009765625,0.08160400390625,0.9783935546875,1.95892333984375,-2.549591064453125,-0.994415283203125,1,1.0,1.0,1.0,1.0,10.00
2024-10-11 20:38:39.925,0.1470294,-0.5011621,-0.29783365,0.36585772,0.85177374,-0.10241475,0.0682627,0.36423302,1.0823061,-0.116705865,0.3454969,0.75036263,0.5049816,-0.09584082,0.27220622,0.3567845,-0.09422818,-0.55166143,-0.16008152,-0.21138753,790.54944,795.38464,803.0403,805.05493,745.82416,-0.19635009765625,0.08160400390625,0.9783935546875,1.95892333984375,-2.549591064453125,-0.994415283203125,1,1.0,1.0,1.0,1.0,10.00
2024-10-11 20:38:39.926,0.1470294,-0.5011621,-0.29783365,0.36585772,0.85177374,-0.10241475,0.0682627,0.36423302,1.0823061,-0.116705865,0.3454969,0.75036263,0.5049816,-0.09584082,0.27220622,0.3567845,-0.09422818,-0.55166143,-0.16008152,-0.21138753,796.99634,794.57874,799.41394,805.05493,855.82416,-0.19635009765625,0.08160400390625,0.9783935546875,1.95892333984375,-2.549591064453125,-0.994415283203125,1,1.0,1.0,1.0,1.0,10.00
2024-10-11 20:38:39.927,0.2052301,-0.51701176,-0.3123524,0.34532064,0.84448206,-0.13704139,0.050027687,0.38099164,1.1080734,-0.11467753,0.34595,0.75036263,0.4682824,-0.11730886,0.2625285,0.34851676,-0.0821444,-0.5221848,-0.16449279,-0.20102887,783.69965,794.57874,804.2491,792.5641,727.28937,-0.19635009765625,0.08160400390625,0.9783935546875,1.95892333984375,-2.549591064453125,-0.994415283203125,1,1.0,1.0,1.0,1.0,10.00
2024-10-11 20:38:39.932,0.2052301,-0.51701176,-0.3123524,0.34532064,0.84448206,-0.13704139,0.050027687,0.38099164,1.1080734,-0.11467753,0.34595,0.75036263,0.4682824,-0.11730886,0.2625285,0.34851676,-0.0821444,-0.5221848,-0.16449279,-0.20102887,774.0293,795.38464,810.696,790.54944,636.2271,-0.19635009765625,0.08160400390625,0.9783935546875,1.95892333984375,-2.549591064453125,-0.994415283203125,1,1.0,1.0,1.0,1.0,10.00
2024-10-11 20:38:39.933,0.2052301,-0.51701176,-0.3123524,0.34532064,0.84448206,-0.13704139,0.050027687,0.38099164,1.1080734,-0.11467753,0.34595,0.75036263,0.4682824,-0.11730886,0.2625285,0.34851676,-0.0821444,-0.5221848,-0.16449279,-0.20102887,783.69965,791.75824,806.6667,790.54944,626.1539,-0.19635009765625,0.08160400390625,0.9783935546875,1.95892333984375,-2.549591064453125,-0.994415283203125,1,1.0,1.0,1.0,1.0,10.00
2024-10-11 20:38:39.934,0.2052301,-0.51701176,-0.3123524,0.34532064,0.84448206,-0.13704139,0.050027687,0.38099164,1.1080734,-0.11467753,0.34595,0.75036263,0.4682824,-0.11730886,0.2625285,0.34851676,-0.0821444,-0.5221848,-0.16449279,-0.20102887,786.52014,792.96704,801.8315,784.5055,822.381,-0.19635009765625,0.08160400390625,0.9783935546875,1.95892333984375,-2.549591064453125,-0.994415283203125,1,1.0,1.0,1.0,1.0,10.00
2024-10-11 20:38:39.936,0.2052301,-0.51701176,-0.3123524,0.34532064,0.84448206,-0.13704139,0.050027687,0.38099164,1.1080734,-0.11467753,0.34595,0.75036263,0.4682824,-0.11730886,0.2625285,0.34851676,-0.0821444,-0.5221848,-0.16449279,-0.20102887,790.54944,791.3553,804.2491,794.9817,1154.3956,-0.19635009765625,0.08160400390625,0.9783935546875,1.95892333984375,-2.549591064453125,-0.994415283203125,1,1.0,1.0,1.0,1.0,10.00
2024-10-11 20:38:39.983,0.2052301,-0.51701176,-0.3123524,0.34532064,0.84448206,-0.13704139,0.050027687,0.38099164,1.1080734,-0.11467753,0.34595,0.75036263,0.4682824,-0.11730886,0.2625285,0.34851676,-0.0821444,-0.5221848,-0.16449279,-0.20102887,795.78754,792.1612,800.2198,794.17584,838.9011,-0.19635009765625,0.08160400390625,0.9783935546875,1.95892333984375,-2.549591064453125,-0.994415283203125,1,1.0,1.0,1.0,1.0,10.00
2024-10-11 20:38:39.984,0.2052301,-0.51701176,-0.3123524,0.34532064,0.84448206,-0.13704139,0.050027687,0.38099164,1.1080734,-0.11467753,0.34595,0.75036263,0.4682824,-0.11730886,0.2625285,0.34851676,-0.0821444,-0.5221848,-0.16449279,-0.20102887,796.1905,794.9817,796.99634,787.72894,597.5458,-0.19635009765625,0.08160400390625,0.9783935546875,1.95892333984375,-2.549591064453125,-0.994415283203125,1,1.0,1.0,1.0,1.0,10.00
2024-10-11 20:38:39.986,0.2052301,-0.51701176,-0.3123524,0.34532064,0.84448206,-0.13704139,0.050027687,0.38099164,1.1080734,-0.11467753,0.34595,0.75036263,0.4682824,-0.11730886,0.2625285,0.34851676,-0.0821444,-0.5221848,-0.16449279,-0.20102887,797.8022,792.96704,794.17584,782.8938,739.3773,-0.19635009765625,0.08160400390625,0.9783935546875,1.95892333984375,-2.549591064453125,-0.994415283203125,1,1.0,1.0,1.0,1.0,10.00
2024-10-11 20:38:39.988,0.2052301,-0.51701176,-0.3123524,0.34532064,0.84448206,-0.13704139,0.050027687,0.38099164,1.1080734,-0.11467753,0.34595,0.75036263,0.4682824,-0.11730886,0.2625285,0.34851676,-0.0821444,-0.5221848,-0.16449279,-0.20102887,791.3553,793.36993,792.96704,776.04395,637.4359,-0.19635009765625,0.08160400390625,0.9783935546875,1.95892333984375,-2.549591064453125,-0.994415283203125,1,1.0,1.0,1.0,1.0,10.00
2024-10-11 20:38:39.989,0.2052301,-0.51701176,-0.3123524,0.34532064,0.84448206,-0.13704139,0.050027687,0.38099164,1.1080734,-0.11467753,0.34595,0.75036263,0.4682824,-0.11730886,0.2625285,0.34851676,-0.0821444,-0.5221848,-0.16449279,-0.20102887,786.52014,794.17584,792.1612,778.86444,559.2674,-0.19635009765625,0.08160400390625,0.9783935546875,1.95892333984375,-2.549591064453125,-0.994415283203125,1,1.0,1.0,1.0,1.0,10.00
2024-10-11 20:38:39.990,0.2052301,-0.51701176,-0.3123524,0.34532064,0.84448206,-0.13704139,0.050027687,0.38099164,1.1080734,-0.11467753,0.34595,0.75036263,0.4682824,-0.11730886,0.2625285,0.34851676,-0.0821444,-0.5221848,-0.16449279,-0.20102887,785.7143,792.5641,788.1319,787.72894,719.6337,-0.19635009765625,0.08160400390625,0.9783935546875,1.95892333984375,-2.549591064453125,-0.994415283203125,1,1.0,1.0,1.0,1.0,10.00
2024-10-11 20:38:39.992,0.2052301,-0.51701176,-0.3123524,0.34532064,0.84448206,-0.13704139,0.050027687,0.38099164,1.1080734,-0.11467753,0.34595,0.75036263,0.4682824,-0.11730886,0.2625285,0.34851676,-0.0821444,-0.5221848,-0.16449279,-0.20102887,787.72894,789.7436,796.1905,798.60803,1030.2931,-0.19635009765625,0.08160400390625,0.9783935546875,1.95892333984375,-2.549591064453125,-0.994415283203125,1,1.0,1.0,1.0,1.0,10.00
2024-10-11 20:38:39.993,0.2052301,-0.51701176,-0.3123524,0.34532064,0.84448206,-0.13704139,0.050027687,0.38099164,1.1080734,-0.11467753,0.34595,0.75036263,0.4682824,-0.11730886,0.2625285,0.34851676,-0.0821444,-0.5221848,-0.16449279,-0.20102887,785.31134,789.34064,801.02563,793.7729,1233.37,-0.19635009765625,0.08160400390625,0.9783935546875,1.95892333984375,-2.549591064453125,-0.994415283203125,1,1.0,1.0,1.0,1.0,10.00
2024-10-11 20:38:39.994,0.2052301,-0.51701176,-0.3123524,0.34532064,0.84448206,-0.13704139,0.050027687,0.38099164,1.1080734,-0.11467753,0.34595,0.75036263,0.4682824,-0.11730886,0.2625285,0.34851676,-0.0821444,-0.5221848,-0.16449279,-0.20102887,785.7143,790.9524,803.44324,784.10254,795.78754,-0.19635009765625,0.08160400390625,0.9783935546875,1.95892333984375,-2.549591064453125,-0.994415283203125,1,1.0,1.0,1.0,1.0,10.00
2024-10-11 20:38:39.995,0.2052301,-0.51701176,-0.3123524,0.34532064,0.84448206,-0.13704139,0.050027687,0.38099164,1.1080734,-0.11467753,0.34595,0.75036263,0.4682824,-0.11730886,0.2625285,0.34851676,-0.0821444,-0.5221848,-0.16449279,-0.20102887,790.14655,790.9524,805.4579,788.1319,649.92676,-0.19635009765625,0.08160400390625,0.9783935546875,1.95892333984375,-2.549591064453125,-0.994415283203125,1,1.0,1.0,1.0,1.0,10.00
2024-10-11 20:38:39.996,0.2052301,-0.51701176,-0.3123524,0.34532064,0.84448206,-0.13704139,0.050027687,0.38099164,1.1080734,-0.11467753,0.34595,0.75036263,0.4682824,-0.11730886,0.2625285,0.34851676,-0.0821444,-0.5221848,-0.16449279,-0.20102887,794.57874,793.36993,800.6227,792.5641,801.02563,-0.19635009765625,0.08160400390625,0.9783935546875,1.95892333984375,-2.549591064453125,-0.994415283203125,1,1.0,1.0,1.0,1.0,10.00
2024-10-11 20:38:39.998,0.2052301,-0.51701176,-0.3123524,0.34532064,0.84448206,-0.13704139,0.050027687,0.38099164,1.1080734,-0.11467753,0.34595,0.75036263,0.4682824,-0.11730886,0.2625285,0.34851676,-0.0821444,-0.5221848,-0.16449279,-0.20102887,800.2198,792.96704,797.8022,791.75824,708.3516,-0.19635009765625,0.08160400390625,0.9783935546875,1.95892333984375,-2.549591064453125,-0.994415283203125,1,1.0,1.0,1.0,1.0,10.00
2024-10-11 20:38:39.999,0.2052301,-0.51701176,-0.3123524,0.34532064,0.84448206,-0.13704139,0.050027687,0.38099164,1.1080734,-0.11467753,0.34595,0.75036263,0.4682824,-0.11730886,0.2625285,0.34851676,-0.0821444,-0.5221848,-0.16449279,-0.20102887,800.2198,794.17584,801.4286,792.1612,648.315,-0.2108154296875,0.07391357421875,0.9761962890625,2.13836669921875,-1.8841552734375,1.30096435546875,1,1.0,1.0,1.0,1.0,10.00
2024-10-11 20:38:40.000,0.2052301,-0.51701176,-0.3123524,0.34532064,0.84448206,-0.13704139,0.050027687,0.38099164,1.1080734,-0.11467753,0.34595,0.75036263,0.4682824,-0.11730886,0.2625285,0.34851676,-0.0821444,-0.5221848,-0.16449279,-0.20102887,800.2198,797.8022,801.8315,798.20514,724.0659,-0.2108154296875,0.07391357421875,0.9761962890625,2.13836669921875,-1.8841552734375,1.30096435546875,1,1.0,1.0,1.0,1.0,10.00
2024-10-11 20:38:40.001,0.2052301,-0.51701176,-0.3123524,0.34532064,0.84448206,-0.13704139,0.050027687,0.38099164,1.1080734,-0.11467753,0.34595,0.75036263,0.4682824,-0.11730886,0.2625285,0.34851676,-0.0821444,-0.5221848,-0.16449279,-0.20102887,801.8315,795.38464,797.3993,796.1905,811.0989,-0.2108154296875,0.07391357421875,0.9761962890625,2.13836669921875,-1.8841552734375,1.30096435546875,1,1.0,1.0,1.0,1.0,10.00
2024-10-11 20:38:40.001,0.2052301,-0.51701176,-0.3123524,0.34532064,0.84448206,-0.13704139,0.050027687,0.38099164,1.1080734,-0.11467753,0.34595,0.75036263,0.4682824,-0.11730886,0.2625285,0.34851676,-0.0821444,-0.5221848,-0.16449279,-0.20102887,807.0696,792.96704,796.5934,793.7729,696.6667,-0.2108154296875,0.07391357421875,0.9761962890625,2.13836669921875,-1.8841552734375,1.30096435546875,1,1.0,1.0,1.0,1.0,10.00
2024-10-11 20:38:40.002,0.2052301,-0.51701176,-0.3123524,0.34532064,0.84448206,-0.13704139,0.050027687,0.38099164,1.1080734,-0.11467753,0.34595,0.75036263,0.4682824,-0.11730886,0.2625285,0.34851676,-0.0821444,-0.5221848,-0.16449279,-0.20102887,811.0989,796.1905,801.8315,798.20514,623.73627,-0.2108154296875,0.07391357421875,0.9761962890625,2.13836669921875,-1.8841552734375,1.30096435546875,1,1.0,1.0,1.0,1.0,10.00
2024-10-11 20:38:40.003,0.2052301,-0.51701176,-0.3123524,0.34532064,0.84448206,-0.13704139,0.050027687,0.38099164,1.1080734,-0.11467753,0.34595,0.75036263,0.4682824,-0.11730886,0.2625285,0.34851676,-0.0821444,-0.5221848,-0.16449279,-0.20102887,806.6667,796.5934,803.8461,807.8755,803.8461,-0.2108154296875,0.07391357421875,0.9761962890625,2.13836669921875,-1.8841552734375,1.30096435546875,1,1.0,1.0,1.0,1.0,10.00
2024-10-11 20:38:40.004,0.2052301,-0.51701176,-0.3123524,0.34532064,0.84448206,-0.13704139,0.050027687,0.38099164,1.1080734,-0.11467753,0.34595,0.75036263,0.4682824,-0.11730886,0.2625285,0.34851676,-0.0821444,-0.5221848,-0.16449279,-0.20102887,806.26373,791.3553,798.20514,817.1429,985.9707,-0.2108154296875,0.07391357421875,0.9761962890625,2.13836669921875,-1.8841552734375,1.30096435546875,1,1.0,1.0,1.0,1.0,10.00
2024-10-11 20:38:40.005,0.2052301,-0.51701176,-0.3123524,0.34532064,0.84448206,-0.13704139,0.050027687,0.38099164,1.1080734,-0.11467753,0.34595,0.75036263,0.4682824,-0.11730886,0.2625285,0.34851676,-0.0821444,-0.5221848,-0.16449279,-0.20102887,804.2491,787.72894,797.3993,803.44324,832.0513,-0.2108154296875,0.07391357421875,0.9761962890625,2.13836669921875,-1.8841552734375,1.30096435546875,1,1.0,1.0,1.0,1.0,10.00
2024-10-11 20:38:40.006,0.2052301,-0.51701176,-0.3123524,0.34532064,0.84448206,-0.13704139,0.050027687,0.38099164,1.1080734,-0.11467753,0.34595,0.75036263,0.4682824,-0.11730886,0.2625285,0.34851676,-0.0821444,-0.5221848,-0.16449279,-0.20102887,796.99634,788.1319,801.4286,790.9524,604.7985,-0.2108154296875,0.07391357421875,0.9761962890625,2.13836669921875,-1.8841552734375,1.30096435546875,1,1.0,1.0,1.0,1.0,10.00
2024-10-11 20:38:40.008,0.263688,-0.55037296,-0.33449703,0.3276732,0.83248824,-0.16660142,0.037809312,0.39412388,1.1323615,-0.11467753,0.35409117,0.75036263,0.4400497,-0.12884402,0.25456074,0.34419498,-0.06414162,-0.4891923,-0.17401001,-0.19325416,793.7729,791.75824,804.2491,801.4286,730.10986,-0.2108154296875,0.07391357421875,0.9761962890625,2.13836669921875,-1.8841552734375,1.30096435546875,1,1.0,1.0,1.0,1.0,10.00
2024-10-11 20:38:40.012,0.263688,-0.55037296,-0.33449703,0.3276732,0.83248824,-0.16660142,0.037809312,0.39412388,1.1323615,-0.11467753,0.35409117,0.75036263,0.4400497,-0.12884402,0.25456074,0.34419498,-0.06414162,-0.4891923,-0.17401001,-0.19325416,800.2198,793.36993,807.47253,815.5311,994.83514,-0.2108154296875,0.07391357421875,0.9761962890625,2.13836669921875,-1.8841552734375,1.30096435546875,1,1.0,1.0,1.0,1.0,10.00
2024-10-11 20:38:40.013,0.263688,-0.55037296,-0.33449703,0.3276732,0.83248824,-0.16660142,0.037809312,0.39412388,1.1323615,-0.11467753,0.35409117,0.75036263,0.4400497,-0.12884402,0.25456074,0.34419498,-0.06414162,-0.4891923,-0.17401001,-0.19325416,804.65204,796.1905,803.8461,809.4872,800.2198,-0.2108154296875,0.07391357421875,0.9761962890625,2.13836669921875,-1.8841552734375,1.30096435546875,1,1.0,1.0,1.0,1.0,10.00
2024-10-11 20:38:40.060,0.263688,-0.55037296,-0.33449703,0.3276732,0.83248824,-0.16660142,0.037809312,0.39412388,1.1323615,-0.11467753,0.35409117,0.75036263,0.4400497,-0.12884402,0.25456074,0.34419498,-0.06414162,-0.4891923,-0.17401001,-0.19325416,795.38464,796.99634,802.6374,798.20514,691.4286,-0.177978515625,0.08843994140625,0.982421875,3.671112060546875,-6.29547119140625,5.39825439453125,1,1.0,1.0,1.0,1.0,10.00
2024-10-11 20:38:40.061,0.263688,-0.55037296,-0.33449703,0.3276732,0.83248824,-0.16660142,0.037809312,0.39412388,1.1323615,-0.11467753,0.35409117,0.75036263,0.4400497,-0.12884402,0.25456074,0.34419498,-0.06414162,-0.4891923,-0.17401001,-0.19325416,792.5641,794.9817,804.65204,800.2198,719.6337,-0.177978515625,0.08843994140625,0.982421875,3.671112060546875,-6.29547119140625,5.39825439453125,1,1.0,1.0,1.0,1.0,10.00
2024-10-11 20:38:40.062,0.263688,-0.55037296,-0.33449703,0.3276732,0.83248824,-0.16660142,0.037809312,0.39412388,1.1323615,-0.11467753,0.35409117,0.75036263,0.4400497,-0.12884402,0.25456074,0.34419498,-0.06414162,-0.4891923,-0.17401001,-0.19325416,799.41394,793.36993,798.20514,794.9817,708.7546,-0.177978515625,0.08843994140625,0.982421875,3.671112060546875,-6.29547119140625,5.39825439453125,1,1.0,1.0,1.0,1.0,10.00
2024-10-11 20:38:40.062,0.263688,-0.55037296,-0.33449703,0.3276732,0.83248824,-0.16660142,0.037809312,0.39412388,1.1323615,-0.11467753,0.35409117,0.75036263,0.4400497,-0.12884402,0.25456074,0.34419498,-0.06414162,-0.4891923,-0.17401001,-0.19325416,796.5934,793.7729,796.99634,790.9524,650.32965,-0.177978515625,0.08843994140625,0.982421875,3.671112060546875,-6.29547119140625,5.39825439453125,1,1.0,1.0,1.0,1.0,10.00
2024-10-11 20:38:40.063,0.263688,-0.55037296,-0.33449703,0.3276732,0.83248824,-0.16660142,0.037809312,0.39412388,1.1323615,-0.11467753,0.35409117,0.75036263,0.4400497,-0.12884402,0.25456074,0.34419498,-0.06414162,-0.4891923,-0.17401001,-0.19325416,786.52014,792.5641,801.8315,788.93774,680.14655,-0.177978515625,0.08843994140625,0.982421875,3.671112060546875,-6.29547119140625,5.39825439453125,1,1.0,1.0,1.0,1.0,10.00
2024-10-11 20:38:40.063,0.263688,-0.55037296,-0.33449703,0.3276732,0.83248824,-0.16660142,0.037809312,0.39412388,1.1323615,-0.11467753,0.35409117,0.75036263,0.4400497,-0.12884402,0.25456074,0.34419498,-0.06414162,-0.4891923,-0.17401001,-0.19325416,788.5348,788.1319,803.44324,787.72894,921.9048,-0.177978515625,0.08843994140625,0.982421875,3.671112060546875,-6.29547119140625,5.39825439453125,1,1.0,1.0,1.0,1.0,10.00
2024-10-11 20:38:40.064,0.263688,-0.55037296,-0.33449703,0.3276732,0.83248824,-0.16660142,0.037809312,0.39412388,1.1323615,-0.11467753,0.35409117,0.75036263,0.4400497,-0.12884402,0.25456074,0.34419498,-0.06414162,-0.4891923,-0.17401001,-0.19325416,798.20514,789.34064,802.23444,785.31134,948.49817,-0.177978515625,0.08843994140625,0.982421875,3.671112060546875,-6.29547119140625,5.39825439453125,1,1.0,1.0,1.0,1.0,10.00
2024-10-11 20:38:40.064,0.263688,-0.55037296,-0.33449703,0.3276732,0.83248824,-0.16660142,0.037809312,0.39412388,1.1323615,-0.11467753,0.35409117,0.75036263,0.4400497,-0.12884402,0.25456074,0.34419498,-0.06414162,-0.4891923,-0.17401001,-0.19325416,799.41394,794.57874,799.41394,788.1319,860.2564,-0.177978515625,0.08843994140625,0.982421875,3.671112060546875,-6.29547119140625,5.39825439453125,1,1.0,1.0,1.0,1.0,10.00
2024-10-11 20:38:40.065,0.263688,-0.55037296,-0.33449703,0.3276732,0.83248824,-0.16660142,0.037809312,0.39412388,1.1323615,-0.11467753,0.35409117,0.75036263,0.4400497,-0.12884402,0.25456074,0.34419498,-0.06414162,-0.4891923,-0.17401001,-0.19325416,795.78754,792.5641,801.02563,792.1612,890.07324,-0.177978515625,0.08843994140625,0.982421875,3.671112060546875,-6.29547119140625,5.39825439453125,1,1.0,1.0,1.0,1.0,10.00
2024-10-11 20:38:40.065,0.263688,-0.55037296,-0.33449703,0.3276732,0.83248824,-0.16660142,0.037809312,0.39412388,1.1323615,-0.11467753,0.35409117,0.75036263,0.4400497,-0.12884402,0.25456074,0.34419498,-0.06414162,-0.4891923,-0.17401001,-0.19325416,799.81683,790.54944,801.8315,794.9817,1023.0403,-0.177978515625,0.08843994140625,0.982421875,3.671112060546875,-6.29547119140625,5.39825439453125,1,1.0,1.0,1.0,1.0,10.00
2024-10-11 20:38:40.066,0.263688,-0.55037296,-0.33449703,0.3276732,0.83248824,-0.16660142,0.037809312,0.39412388,1.1323615,-0.11467753,0.35409117,0.75036263,0.4400497,-0.12884402,0.25456074,0.34419498,-0.06414162,-0.4891923,-0.17401001,-0.19325416,799.41394,792.1612,796.99634,799.011,964.21246,-0.177978515625,0.08843994140625,0.982421875,3.671112060546875,-6.29547119140625,5.39825439453125,1,1.0,1.0,1.0,1.0,10.00
2024-10-11 20:38:40.066,0.263688,-0.55037296,-0.33449703,0.3276732,0.83248824,-0.16660142,0.037809312,0.39412388,1.1323615,-0.11467753,0.35409117,0.75036263,0.4400497,-0.12884402,0.25456074,0.34419498,-0.06414162,-0.4891923,-0.17401001,-0.19325416,793.36993,792.1612,794.57874,797.3993,826.0073,-0.177978515625,0.08843994140625,0.982421875,3.671112060546875,-6.29547119140625,5.39825439453125,1,1.0,1.0,1.0,1.0,10.00
2024-10-11 20:38:40.067,0.263688,-0.55037296,-0.33449703,0.3276732,0.83248824,-0.16660142,0.037809312,0.39412388,1.1323615,-0.11467753,0.35409117,0.75036263,0.4400497,-0.12884402,0.25456074,0.34419498,-0.06414162,-0.4891923,-0.17401001,-0.19325416,792.1612,795.78754,802.6374,795.78754,870.32965,-0.21044921875,0.104248046875,0.99383544921875,3.162689208984375,-4.882354736328125,10.7965087890625,1,1.0,1.0,1.0,1.0,10.00
2024-10-11 20:38:40.068,0.263688,-0.55037296,-0.33449703,0.3276732,0.83248824,-0.16660142,0.037809312,0.39412388,1.1323615,-0.11467753,0.35409117,0.75036263,0.4400497,-0.12884402,0.25456074,0.34419498,-0.06414162,-0.4891923,-0.17401001,-0.19325416,789.34064,797.8022,807.8755,806.26373,1116.5201,-0.21044921875,0.104248046875,0.99383544921875,3.162689208984375,-4.882354736328125,10.7965087890625,1,1.0,1.0,1.0,1.0,10.00
2024-10-11 20:38:40.068,0.263688,-0.55037296,-0.33449703,0.3276732,0.83248824,-0.16660142,0.037809312,0.39412388,1.1323615,-0.11467753,0.35409117,0.75036263,0.4400497,-0.12884402,0.25456074,0.34419498,-0.06414162,-0.4891923,-0.17401001,-0.19325416,793.7729,797.8022,809.0842,804.65204,961.39197,-0.21044921875,0.104248046875,0.99383544921875,3.162689208984375,-4.882354736328125,10.7965087890625,1,1.0,1.0,1.0,1.0,10.00
2024-10-11 20:38:40.069,0.263688,-0.55037296,-0.33449703,0.3276732,0.83248824,-0.16660142,0.037809312,0.39412388,1.1323615,-0.11467753,0.35409117,0.75036263,0.4400497,-0.12884402,0.25456074,0.34419498,-0.06414162,-0.4891923,-0.17401001,-0.19325416,802.6374,797.3993,803.44324,800.6227,697.47253,-0.21044921875,0.104248046875,0.99383544921875,3.162689208984375,-4.882354736328125,10.7965087890625,1,1.0,1.0,1.0,1.0,10.00
2024-10-11 20:38:40.069,0.263688,-0.55037296,-0.33449703,0.3276732,0.83248824,-0.16660142,0.037809312,0.39412388,1.1323615,-0.11467753,0.35409117,0.75036263,0.4400497,-0.12884402,0.25456074,0.34419498,-0.06414162,-0.4891923,-0.17401001,-0.19325416,804.2491,797.3993,800.2198,809.0842,759.12085,-0.21044921875,0.104248046875,0.99383544921875,3.162689208984375,-4.882354736328125,10.7965087890625,1,1.0,1.0,1.0,1.0,10.00
2024-10-11 20:38:40.070,0.263688,-0.55037296,-0.33449703,0.3276732,0.83248824,-0.16660142,0.037809312,0.39412388,1.1323615,-0.11467753,0.35409117,0.75036263,0.4400497,-0.12884402,0.25456074,0.34419498,-0.06414162,-0.4891923,-0.17401001,-0.19325416,799.41394,796.1905,802.6374,808.68134,882.8205,-0.21044921875,0.104248046875,0.99383544921875,3.162689208984375,-4.882354736328125,10.7965087890625,1,1.0,1.0,1.0,1.0,10.00
2024-10-11 20:38:40.071,0.263688,-0.55037296,-0.33449703,0.3276732,0.83248824,-0.16660142,0.037809312,0.39412388,1.1323615,-0.11467753,0.35409117,0.75036263,0.4400497,-0.12884402,0.25456074,0.34419498,-0.06414162,-0.4891923,-0.17401001,-0.19325416,804.65204,791.75824,805.4579,801.8315,796.1905,-0.21044921875,0.104248046875,0.99383544921875,3.162689208984375,-4.882354736328125,10.7965087890625,1,1.0,1.0,1.0,1.0,10.00
2024-10-11 20:38:40.071,0.263688,-0.55037296,-0.33449703,0.3276732,0.83248824,-0.16660142,0.037809312,0.39412388,1.1323615,-0.11467753,0.35409117,0.75036263,0.4400497,-0.12884402,0.25456074,0.34419498,-0.06414162,-0.4891923,-0.17401001,-0.19325416,799.41394,791.75824,801.4286,803.44324,644.2857,-0.21044921875,0.104248046875,0.99383544921875,3.162689208984375,-4.882354736328125,10.7965087890625,1,1.0,1.0,1.0,1.0,10.00
2024-10-11 20:38:40.072,0.263688,-0.55037296,-0.33449703,0.3276732,0.83248824,-0.16660142,0.037809312,0.39412388,1.1323615,-0.11467753,0.35409117,0.75036263,0.4400497,-0.12884402,0.25456074,0.34419498,-0.06414162,-0.4891923,-0.17401001,-0.19325416,802.6374,793.36993,802.23444,807.47253,739.7802,-0.21044921875,0.104248046875,0.99383544921875,3.162689208984375,-4.882354736328125,10.7965087890625,1,1.0,1.0,1.0,1.0,10.00
2024-10-11 20:38:40.072,0.263688,-0.55037296,-0.33449703,0.3276732,0.83248824,-0.16660142,0.037809312,0.39412388,1.1323615,-0.11467753,0.35409117,0.75036263,0.4400497,-0.12884402,0.25456074,0.34419498,-0.06414162,-0.4891923,-0.17401001,-0.19325416,796.99634,792.1612,799.81683,801.8315,823.9927,-0.21044921875,0.104248046875,0.99383544921875,3.162689208984375,-4.882354736328125,10.7965087890625,1,1.0,1.0,1.0,1.0,10.00
2024-10-11 20:38:40.073,0.263688,-0.55037296,-0.33449703,0.3276732,0.83248824,-0.16660142,0.037809312,0.39412388,1.1323615,-0.11467753,0.35409117,0.75036263,0.4400497,-0.12884402,0.25456074,0.34419498,-0.06414162,-0.4891923,-0.17401001,-0.19325416,771.6117,797.3993,796.99634,791.75824,727.6923,-0.21044921875,0.104248046875,0.99383544921875,3.162689208984375,-4.882354736328125,10.7965087890625,1,1.0,1.0,1.0,1.0,10.00
2024-10-11 20:38:40.073,0.3067139,-0.5780974,-0.35043135,0.31406513,0.8137389,-0.18571961,0.027746396,0.40118936,1.1323615,-0.11467753,0.37151325,0.75036263,0.4270181,-0.12975793,0.24808885,0.34123194,-0.039907232,-0.46628046,-0.18693316,-0.18581745,781.685,797.3993,800.6227,796.1905,695.05493,-0.21044921875,0.104248046875,0.99383544921875,3.162689208984375,-4.882354736328125,10.7965087890625,1,1.0,1.0,1.0,1.0,10.00
2024-10-11 20:38:40.098,0.3067139,-0.5780974,-0.35043135,0.31406513,0.8137389,-0.18571961,0.027746396,0.40118936,1.1323615,-0.11467753,0.37151325,0.75036263,0.4270181,-0.12975793,0.24808885,0.34123194,-0.039907232,-0.46628046,-0.18693316,-0.18581745,792.1612,794.57874,796.1905,799.81683,793.7729,-0.21380615234375,0.10333251953125,0.99505615234375,0.231781005859375,-5.38330078125,10.18341064453125,1,1.0,1.0,1.0,1.0,10.00
2024-10-11 20:38:40.098,0.3067139,-0.5780974,-0.35043135,0.31406513,0.8137389,-0.18571961,0.027746396,0.40118936,1.1323615,-0.11467753,0.37151325,0.75036263,0.4270181,-0.12975793,0.24808885,0.34123194,-0.039907232,-0.46628046,-0.18693316,-0.18581745,788.1319,798.20514,794.17584,794.57874,912.6374,-0.21380615234375,0.10333251953125,0.99505615234375,0.231781005859375,-5.38330078125,10.18341064453125,1,1.0,1.0,1.0,1.0,10.00
2024-10-11 20:38:40.099,0.3067139,-0.5780974,-0.35043135,0.31406513,0.8137389,-0.18571961,0.027746396,0.40118936,1.1323615,-0.11467753,0.37151325,0.75036263,0.4270181,-0.12975793,0.24808885,0.34123194,-0.039907232,-0.46628046,-0.18693316,-0.18581745,792.5641,796.5934,798.60803,793.36993,870.7326,-0.21380615234375,0.10333251953125,0.99505615234375,0.231781005859375,-5.38330078125,10.18341064453125,1,1.0,1.0,1.0,1.0,10.00
2024-10-11 20:38:40.100,0.3067139,-0.5780974,-0.35043135,0.31406513,0.8137389,-0.18571961,0.027746396,0.40118936,1.1323615,-0.11467753,0.37151325,0.75036263,0.4270181,-0.12975793,0.24808885,0.34123194,-0.039907232,-0.46628046,-0.18693316,-0.18581745,792.1612,796.99634,799.011,792.1612,691.8315,-0.21380615234375,0.10333251953125,0.99505615234375,0.231781005859375,-5.38330078125,10.18341064453125,1,1.0,1.0,1.0,1.0,10.00
2024-10-11 20:38:40.101,0.3067139,-0.5780974,-0.35043135,0.31406513,0.8137389,-0.18571961,0.027746396,0.40118936,1.1323615,-0.11467753,0.37151325,0.75036263,0.4270181,-0.12975793,0.24808885,0.34123194,-0.039907232,-0.46628046,-0.18693316,-0.18581745,802.23444,801.4286,800.2198,794.17584,896.9231,-0.21380615234375,0.10333251953125,0.99505615234375,0.231781005859375,-5.38330078125,10.18341064453125,1,1.0,1.0,1.0,1.0,10.00
2024-10-11 20:38:40.102,0.3067139,-0.5780974,-0.35043135,0.31406513,0.8137389,-0.18571961,0.027746396,0.40118936,1.1323615,-0.11467753,0.37151325,0.75036263,0.4270181,-0.12975793,0.24808885,0.34123194,-0.039907232,-0.46628046,-0.18693316,-0.18581745,803.44324,800.6227,801.4286,795.78754,1060.9158,-0.21380615234375,0.10333251953125,0.99505615234375,0.231781005859375,-5.38330078125,10.18341064453125,1,1.0,1.0,1.0,1.0,10.00
2024-10-11 20:38:40.103,0.3067139,-0.5780974,-0.35043135,0.31406513,0.8137389,-0.18571961,0.027746396,0.40118936,1.1323615,-0.11467753,0.37151325,0.75036263,0.4270181,-0.12975793,0.24808885,0.34123194,-0.039907232,-0.46628046,-0.18693316,-0.18581745,790.9524,799.81683,799.011,790.9524,843.3333,-0.21380615234375,0.10333251953125,0.99505615234375,0.231781005859375,-5.38330078125,10.18341064453125,1,1.0,1.0,1.0,1.0,10.00
2024-10-11 20:38:40.103,0.3067139,-0.5780974,-0.35043135,0.31406513,0.8137389,-0.18571961,0.027746396,0.40118936,1.1323615,-0.11467753,0.37151325,0.75036263,0.4270181,-0.12975793,0.24808885,0.34123194,-0.039907232,-0.46628046,-0.18693316,-0.18581745,792.1612,801.8315,799.011,788.5348,693.44324,-0.21380615234375,0.10333251953125,0.99505615234375,0.231781005859375,-5.38330078125,10.18341064453125,1,1.0,1.0,1.0,1.0,10.00
2024-10-11 20:38:40.104,0.3067139,-0.5780974,-0.35043135,0.31406513,0.8137389,-0.18571961,0.027746396,0.40118936,1.1323615,-0.11467753,0.37151325,0.75036263,0.4270181,-0.12975793,0.24808885,0.34123194,-0.039907232,-0.46628046,-0.18693316,-0.18581745,786.52014,796.99634,801.02563,797.8022,946.8865,-0.21380615234375,0.10333251953125,0.99505615234375,0.231781005859375,-5.38330078125,10.18341064453125,1,1.0,1.0,1.0,1.0,10.00
2024-10-11 20:38:40.105,0.3067139,-0.5780974,-0.35043135,0.31406513,0.8137389,-0.18571961,0.027746396,0.40118936,1.1323615,-0.11467753,0.37151325,0.75036263,0.4270181,-0.12975793,0.24808885,0.34123194,-0.039907232,-0.46628046,-0.18693316,-0.18581745,790.9524,793.36993,792.96704,801.4286,1298.2417,-0.21380615234375,0.10333251953125,0.99505615234375,0.231781005859375,-5.38330078125,10.18341064453125,1,1.0,1.0,1.0,1.0,10.00
2024-10-11 20:38:40.106,0.3067139,-0.5780974,-0.35043135,0.31406513,0.8137389,-0.18571961,0.027746396,0.40118936,1.1323615,-0.11467753,0.37151325,0.75036263,0.4270181,-0.12975793,0.24808885,0.34123194,-0.039907232,-0.46628046,-0.18693316,-0.18581745,793.7729,791.75824,788.93774,792.5641,911.4286,-0.21380615234375,0.10333251953125,0.99505615234375,0.231781005859375,-5.38330078125,10.18341064453125,1,1.0,1.0,1.0,1.0,10.00
2024-10-11 20:38:40.107,0.3067139,-0.5780974,-0.35043135,0.31406513,0.8137389,-0.18571961,0.027746396,0.40118936,1.1323615,-0.11467753,0.37151325,0.75036263,0.4270181,-0.12975793,0.24808885,0.34123194,-0.039907232,-0.46628046,-0.18693316,-0.18581745,784.90845,794.57874,797.8022,788.1319,616.4835,-0.21380615234375,0.10333251953125,0.99505615234375,0.231781005859375,-5.38330078125,10.18341064453125,1,1.0,1.0,1.0,1.0,10.00
2024-10-11 20:38:40.129,0.3067139,-0.5780974,-0.35043135,0.31406513,0.8137389,-0.18571961,0.027746396,0.40118936,1.1323615,-0.11467753,0.37151325,0.75036263,0.4270181,-0.12975793,0.24808885,0.34123194,-0.039907232,-0.46628046,-0.18693316,-0.18581745,780.07324,799.81683,801.02563,784.10254,813.91943,-0.21380615234375,0.10333251953125,0.99505615234375,0.231781005859375,-5.38330078125,10.18341064453125,1,1.0,1.0,1.0,1.0,10.00
2024-10-11 20:38:40.130,0.3067139,-0.5780974,-0.35043135,0.31406513,0.8137389,-0.18571961,0.027746396,0.40118936,1.1323615,-0.11467753,0.37151325,0.75036263,0.4270181,-0.12975793,0.24808885,0.34123194,-0.039907232,-0.46628046,-0.18693316,-0.18581745,784.10254,797.3993,794.17584,786.52014,792.1612,-0.21380615234375,0.10333251953125,0.99505615234375,0.231781005859375,-5.38330078125,10.18341064453125,1,1.0,1.0,1.0,1.0,10.00
2024-10-11 20:38:40.131,0.3067139,-0.5780974,-0.35043135,0.31406513,0.8137389,-0.18571961,0.027746396,0.40118936,1.1323615,-0.11467753,0.37151325,0.75036263,0.4270181,-0.12975793,0.24808885,0.34123194,-0.039907232,-0.46628046,-0.18693316,-0.18581745,788.1319,792.96704,790.9524,787.72894,654.35895,-0.21380615234375,0.10333251953125,0.99505615234375,0.231781005859375,-5.38330078125,10.18341064453125,1,1.0,1.0,1.0,1.0,10.00
2024-10-11 20:38:40.131,0.3067139,-0.5780974,-0.35043135,0.31406513,0.8137389,-0.18571961,0.027746396,0.40118936,1.1323615,-0.11467753,0.37151325,0.75036263,0.4270181,-0.12975793,0.24808885,0.34123194,-0.039907232,-0.46628046,-0.18693316,-0.18581745,787.72894,797.3993,796.99634,789.7436,645.09155,-0.21380615234375,0.10333251953125,0.99505615234375,0.231781005859375,-5.38330078125,10.18341064453125,1,1.0,1.0,1.0,1.0,10.00
2024-10-11 20:38:40.132,0.3067139,-0.5780974,-0.35043135,0.31406513,0.8137389,-0.18571961,0.027746396,0.40118936,1.1323615,-0.11467753,0.37151325,0.75036263,0.4270181,-0.12975793,0.24808885,0.34123194,-0.039907232,-0.46628046,-0.18693316,-0.18581745,792.5641,801.02563,799.81683,798.60803,847.76556,-0.21380615234375,0.10333251953125,0.99505615234375,0.231781005859375,-5.38330078125,10.18341064453125,1,1.0,1.0,1.0,1.0,10.00
2024-10-11 20:38:40.133,0.3067139,-0.5780974,-0.35043135,0.31406513,0.8137389,-0.18571961,0.027746396,0.40118936,1.1323615,-0.11467753,0.37151325,0.75036263,0.4270181,-0.12975793,0.24808885,0.34123194,-0.039907232,-0.46628046,-0.18693316,-0.18581745,802.23444,797.8022,798.60803,797.3993,851.79486,-0.21380615234375,0.10333251953125,0.99505615234375,0.231781005859375,-5.38330078125,10.18341064453125,1,1.0,1.0,1.0,1.0,10.00
2024-10-11 20:38:40.134,0.3067139,-0.5780974,-0.35043135,0.31406513,0.8137389,-0.18571961,0.027746396,0.40118936,1.1323615,-0.11467753,0.37151325,0.75036263,0.4270181,-0.12975793,0.24808885,0.34123194,-0.039907232,-0.46628046,-0.18693316,-0.18581745,810.293,796.99634,799.81683,794.17584,705.9341,-0.21380615234375,0.10333251953125,0.99505615234375,0.231781005859375,-5.38330078125,10.18341064453125,1,1.0,1.0,1.0,1.0,10.00
2024-10-11 20:38:40.135,0.3067139,-0.5780974,-0.35043135,0.31406513,0.8137389,-0.18571961,0.027746396,0.40118936,1.1323615,-0.11467753,0.37151325,0.75036263,0.4270181,-0.12975793,0.24808885,0.34123194,-0.039907232,-0.46628046,-0.18693316,-0.18581745,804.65204,796.99634,796.99634,800.2198,664.83514,-0.21380615234375,0.10333251953125,0.99505615234375,0.231781005859375,-5.38330078125,10.18341064453125,1,1.0,1.0,1.0,1.0,10.00
2024-10-11 20:38:40.136,0.3067139,-0.5780974,-0.35043135,0.31406513,0.8137389,-0.18571961,0.027746396,0.40118936,1.1323615,-0.11467753,0.37151325,0.75036263,0.4270181,-0.12975793,0.24808885,0.34123194,-0.039907232,-0.46628046,-0.18693316,-0.18581745,795.38464,798.60803,795.78754,811.50183,763.5531,-0.21380615234375,0.10333251953125,0.99505615234375,0.231781005859375,-5.38330078125,10.18341064453125,1,1.0,1.0,1.0,1.0,10.00
2024-10-11 20:38:40.137,0.3067139,-0.5780974,-0.35043135,0.31406513,0.8137389,-0.18571961,0.027746396,0.40118936,1.1323615,-0.11467753,0.37151325,0.75036263,0.4270181,-0.12975793,0.24808885,0.34123194,-0.039907232,-0.46628046,-0.18693316,-0.18581745,795.78754,802.23444,798.20514,801.8315,730.10986,-0.21380615234375,0.10333251953125,0.99505615234375,0.231781005859375,-5.38330078125,10.18341064453125,1,1.0,1.0,1.0,1.0,10.00
2024-10-11 20:38:40.138,0.3067139,-0.5780974,-0.35043135,0.31406513,0.8137389,-0.18571961,0.027746396,0.40118936,1.1323615,-0.11467753,0.37151325,0.75036263,0.4270181,-0.12975793,0.24808885,0.34123194,-0.039907232,-0.46628046,-0.18693316,-0.18581745,801.02563,805.05493,801.8315,794.17584,584.65204,-0.21380615234375,0.10333251953125,0.99505615234375,0.231781005859375,-5.38330078125,10.18341064453125,1,1.0,1.0,1.0,1.0,10.00
2024-10-11 20:38:40.139,0.3067139,-0.5780974,-0.35043135,0.31406513,0.8137389,-0.18571961,0.027746396,0.40118936,1.1323615,-0.11467753,0.37151325,0.75036263,0.4270181,-0.12975793,0.24808885,0.34123194,-0.039907232,-0.46628046,-0.18693316,-0.18581745,798.20514,802.6374,801.4286,803.0403,744.21246,-0.21380615234375,0.10333251953125,0.99505615234375,0.231781005859375,-5.38330078125,10.18341064453125,1,1.0,1.0,1.0,1.0,10.00
2024-10-11 20:38:40.223,0.3067139,-0.5780974,-0.35043135,0.31406513,0.8137389,-0.18571961,0.027746396,0.40118936,1.1323615,-0.11467753,0.37151325,0.75036263,0.4270181,-0.12975793,0.24808885,0.34123194,-0.039907232,-0.46628046,-0.18693316,-0.18581745,793.36993,797.8022,799.81683,810.293,1178.1685,-0.2138671875,0.1142578125,0.98358154296875,0.052337646484375,-6.945953369140625,9.8394775390625,1,1.0,1.0,1.0,1.0,10.00
2024-10-11 20:38:40.224,0.32013232,-0.57729226,-0.35945752,0.3081093,0.7954942,-0.1971943,0.017276045,0.40915626,1.1323615,-0.11467753,0.38364312,0.75036263,0.4288571,-0.12607595,0.24220955,0.33512184,-0.014764899,-0.45991,-0.19963913,-0.1747349,799.011,799.011,799.41394,809.4872,933.1868,-0.2138671875,0.1142578125,0.98358154296875,0.052337646484375,-6.945953369140625,9.8394775390625,1,1.0,1.0,1.0,1.0,10.00
2024-10-11 20:38:40.228,0.32013232,-0.57729226,-0.35945752,0.3081093,0.7954942,-0.1971943,0.017276045,0.40915626,1.1323615,-0.11467753,0.38364312,0.75036263,0.4288571,-0.12607595,0.24220955,0.33512184,-0.014764899,-0.45991,-0.19963913,-0.1747349,807.47253,799.011,799.81683,804.2491,657.1795,-0.2138671875,0.1142578125,0.98358154296875,0.052337646484375,-6.945953369140625,9.8394775390625,1,1.0,1.0,1.0,1.0,10.00
2024-10-11 20:38:40.229,0.32013232,-0.57729226,-0.35945752,0.3081093,0.7954942,-0.1971943,0.017276045,0.40915626,1.1323615,-0.11467753,0.38364312,0.75036263,0.4288571,-0.12607595,0.24220955,0.33512184,-0.014764899,-0.45991,-0.19963913,-0.1747349,796.5934,798.60803,808.2784,803.0403,761.13556,-0.2138671875,0.1142578125,0.98358154296875,0.052337646484375,-6.945953369140625,9.8394775390625,1,1.0,1.0,1.0,1.0,10.00
2024-10-11 20:38:40.229,0.32013232,-0.57729226,-0.35945752,0.3081093,0.7954942,-0.1971943,0.017276045,0.40915626,1.1323615,-0.11467753,0.38364312,0.75036263,0.4288571,-0.12607595,0.24220955,0.33512184,-0.014764899,-0.45991,-0.19963913,-0.1747349,785.7143,799.41394,809.0842,801.4286,711.978,-0.2138671875,0.1142578125,0.98358154296875,0.052337646484375,-6.945953369140625,9.8394775390625,1,1.0,1.0,1.0,1.0,10.00
2024-10-11 20:38:40.230,0.32013232,-0.57729226,-0.35945752,0.3081093,0.7954942,-0.1971943,0.017276045,0.40915626,1.1323615,-0.11467753,0.38364312,0.75036263,0.4288571,-0.12607595,0.24220955,0.33512184,-0.014764899,-0.45991,-0.19963913,-0.1747349,786.52014,794.9817,799.41394,797.8022,789.34064,-0.2138671875,0.1142578125,0.98358154296875,0.052337646484375,-6.945953369140625,9.8394775390625,1,1.0,1.0,1.0,1.0,10.00
2024-10-11 20:38:40.230,0.32013232,-0.57729226,-0.35945752,0.3081093,0.7954942,-0.1971943,0.017276045,0.40915626,1.1323615,-0.11467753,0.38364312,0.75036263,0.4288571,-0.12607595,0.24220955,0.33512184,-0.014764899,-0.45991,-0.19963913,-0.1747349,792.96704,794.17584,798.20514,794.17584,842.52747,-0.2138671875,0.1142578125,0.98358154296875,0.052337646484375,-6.945953369140625,9.8394775390625,1,1.0,1.0,1.0,1.0,10.00
2024-10-11 20:38:40.231,0.32013232,-0.57729226,-0.35945752,0.3081093,0.7954942,-0.1971943,0.017276045,0.40915626,1.1323615,-0.11467753,0.38364312,0.75036263,0.4288571,-0.12607595,0.24220955,0.33512184,-0.014764899,-0.45991,-0.19963913,-0.1747349,801.02563,798.60803,798.60803,799.011,1090.7325,-0.2138671875,0.1142578125,0.98358154296875,0.052337646484375,-6.945953369140625,9.8394775390625,1,1.0,1.0,1.0,1.0,10.00
2024-10-11 20:38:40.231,0.32013232,-0.57729226,-0.35945752,0.3081093,0.7954942,-0.1971943,0.017276045,0.40915626,1.1323615,-0.11467753,0.38364312,0.75036263,0.4288571,-0.12607595,0.24220955,0.33512184,-0.014764899,-0.45991,-0.19963913,-0.1747349,804.2491,801.8315,799.41394,805.05493,1169.3041,-0.2138671875,0.1142578125,0.98358154296875,0.052337646484375,-6.945953369140625,9.8394775390625,1,1.0,1.0,1.0,1.0,10.00
2024-10-11 20:38:40.232,0.32013232,-0.57729226,-0.35945752,0.3081093,0.7954942,-0.1971943,0.017276045,0.40915626,1.1323615,-0.11467753,0.38364312,0.75036263,0.4288571,-0.12607595,0.24220955,0.33512184,-0.014764899,-0.45991,-0.19963913,-0.1747349,790.54944,801.8315,801.02563,800.6227,626.55676,-0.2138671875,0.1142578125,0.98358154296875,0.052337646484375,-6.945953369140625,9.8394775390625,1,1.0,1.0,1.0,1.0,10.00
2024-10-11 20:38:40.232,0.32013232,-0.57729226,-0.35945752,0.3081093,0.7954942,-0.1971943,0.017276045,0.40915626,1.1323615,-0.11467753,0.38364312,0.75036263,0.4288571,-0.12607595,0.24220955,0.33512184,-0.014764899,-0.45991,-0.19963913,-0.1747349,782.0879,799.41394,800.2198,799.41394,585.05493,-0.2138671875,0.1142578125,0.98358154296875,0.052337646484375,-6.945953369140625,9.8394775390625,1,1.0,1.0,1.0,1.0,10.00
2024-10-11 20:38:40.233,0.32013232,-0.57729226,-0.35945752,0.3081093,0.7954942,-0.1971943,0.017276045,0.40915626,1.1323615,-0.11467753,0.38364312,0.75036263,0.4288571,-0.12607595,0.24220955,0.33512184,-0.014764899,-0.45991,-0.19963913,-0.1747349,787.72894,796.99634,797.3993,797.3993,799.011,-0.2138671875,0.1142578125,0.98358154296875,0.052337646484375,-6.945953369140625,9.8394775390625,1,1.0,1.0,1.0,1.0,10.00
2024-10-11 20:38:40.233,0.32013232,-0.57729226,-0.35945752,0.3081093,0.7954942,-0.1971943,0.017276045,0.40915626,1.1323615,-0.11467753,0.38364312,0.75036263,0.4288571,-0.12607595,0.24220955,0.33512184,-0.014764899,-0.45991,-0.19963913,-0.1747349,796.5934,798.20514,788.93774,788.93774,682.96704,-0.21014404296875,0.124755859375,0.9869384765625,-2.743988037109375,-5.802001953125,12.089996337890625,1,1.0,1.0,1.0,1.0,10.00
2024-10-11 20:38:40.234,0.32013232,-0.57729226,-0.35945752,0.3081093,0.7954942,-0.1971943,0.017276045,0.40915626,1.1323615,-0.11467753,0.38364312,0.75036263,0.4288571,-0.12607595,0.24220955,0.33512184,-0.014764899,-0.45991,-0.19963913,-0.1747349,791.75824,798.60803,782.0879,783.69965,601.978,-0.21014404296875,0.124755859375,0.9869384765625,-2.743988037109375,-5.802001953125,12.089996337890625,1,1.0,1.0,1.0,1.0,10.00
2024-10-11 20:38:40.234,0.32013232,-0.57729226,-0.35945752,0.3081093,0.7954942,-0.1971943,0.017276045,0.40915626,1.1323615,-0.11467753,0.38364312,0.75036263,0.4288571,-0.12607595,0.24220955,0.33512184,-0.014764899,-0.45991,-0.19963913,-0.1747349,793.36993,800.2198,793.36993,789.34064,682.1612,-0.21014404296875,0.124755859375,0.9869384765625,-2.743988037109375,-5.802001953125,12.089996337890625,1,1.0,1.0,1.0,1.0,10.00
2024-10-11 20:38:40.235,0.32013232,-0.57729226,-0.35945752,0.3081093,0.7954942,-0.1971943,0.017276045,0.40915626,1.1323615,-0.11467753,0.38364312,0.75036263,0.4288571,-0.12607595,0.24220955,0.33512184,-0.014764899,-0.45991,-0.19963913,-0.1747349,796.99634,797.8022,797.8022,792.5641,753.0769,-0.21014404296875,0.124755859375,0.9869384765625,-2.743988037109375,-5.802001953125,12.089996337890625,1,1.0,1.0,1.0,1.0,10.00
2024-10-11 20:38:40.235,0.32013232,-0.57729226,-0.35945752,0.3081093,0.7954942,-0.1971943,0.017276045,0.40915626,1.1323615,-0.11467753,0.38364312,0.75036263,0.4288571,-0.12607595,0.24220955,0.33512184,-0.014764899,-0.45991,-0.19963913,-0.1747349,794.57874,797.8022,793.36993,794.17584,670.4762,-0.21014404296875,0.124755859375,0.9869384765625,-2.743988037109375,-5.802001953125,12.089996337890625,1,1.0,1.0,1.0,1.0,10.00
2024-10-11 20:38:40.236,0.32013232,-0.57729226,-0.35945752,0.3081093,0.7954942,-0.1971943,0.017276045,0.40915626,1.1323615,-0.11467753,0.38364312,0.75036263,0.4288571,-0.12607595,0.24220955,0.33512184,-0.014764899,-0.45991,-0.19963913,-0.1747349,798.60803,798.20514,798.20514,798.60803,783.2967,-0.21014404296875,0.124755859375,0.9869384765625,-2.743988037109375,-5.802001953125,12.089996337890625,1,1.0,1.0,1.0,1.0,10.00
2024-10-11 20:38:40.236,0.32013232,-0.57729226,-0.35945752,0.3081093,0.7954942,-0.1971943,0.017276045,0.40915626,1.1323615,-0.11467753,0.38364312,0.75036263,0.4288571,-0.12607595,0.24220955,0.33512184,-0.014764899,-0.45991,-0.19963913,-0.1747349,805.05493,796.1905,794.9817,800.6227,885.64105,-0.21014404296875,0.124755859375,0.9869384765625,-2.743988037109375,-5.802001953125,12.089996337890625,1,1.0,1.0,1.0,1.0,10.00
2024-10-11 20:38:40.236,0.32013232,-0.57729226,-0.35945752,0.3081093,0.7954942,-0.1971943,0.017276045,0.40915626,1.1323615,-0.11467753,0.38364312,0.75036263,0.4288571,-0.12607595,0.24220955,0.33512184,-0.014764899,-0.45991,-0.19963913,-0.1747349,798.20514,797.3993,788.93774,799.011,818.7546,-0.21014404296875,0.124755859375,0.9869384765625,-2.743988037109375,-5.802001953125,12.089996337890625,1,1.0,1.0,1.0,1.0,10.00
2024-10-11 20:38:40.237,0.32013232,-0.57729226,-0.35945752,0.3081093,0.7954942,-0.1971943,0.017276045,0.40915626,1.1323615,-0.11467753,0.38364312,0.75036263,0.4288571,-0.12607595,0.24220955,0.33512184,-0.014764899,-0.45991,-0.19963913,-0.1747349,802.23444,799.011,793.7729,790.9524,609.6337,-0.21014404296875,0.124755859375,0.9869384765625,-2.743988037109375,-5.802001953125,12.089996337890625,1,1.0,1.0,1.0,1.0,10.00
2024-10-11 20:38:40.238,0.32013232,-0.57729226,-0.35945752,0.3081093,0.7954942,-0.1971943,0.017276045,0.40915626,1.1323615,-0.11467753,0.38364312,0.75036263,0.4288571,-0.12607595,0.24220955,0.33512184,-0.014764899,-0.45991,-0.19963913,-0.1747349,805.8608,794.57874,792.1612,787.72894,573.36993,-0.21014404296875,0.124755859375,0.9869384765625,-2.743988037109375,-5.802001953125,12.089996337890625,1,1.0,1.0,1.0,1.0,10.00
2024-10-11 20:38:40.238,0.32013232,-0.57729226,-0.35945752,0.3081093,0.7954942,-0.1971943,0.017276045,0.40915626,1.1323615,-0.11467753,0.38364312,0.75036263,0.4288571,-0.12607595,0.24220955,0.33512184,-0.014764899,-0.45991,-0.19963913,-0.1747349,800.6227,794.9817,793.36993,794.17584,744.21246,-0.21014404296875,0.124755859375,0.9869384765625,-2.743988037109375,-5.802001953125,12.089996337890625,1,1.0,1.0,1.0,1.0,10.00
2024-10-11 20:38:40.239,0.32013232,-0.57729226,-0.35945752,0.3081093,0.7954942,-0.1971943,0.017276045,0.40915626,1.1323615,-0.11467753,0.38364312,0.75036263,0.4288571,-0.12607595,0.24220955,0.33512184,-0.014764899,-0.45991,-0.19963913,-0.1747349,800.6227,799.011,792.96704,793.7729,783.2967,-0.21014404296875,0.124755859375,0.9869384765625,-2.743988037109375,-5.802001953125,12.089996337890625,1,1.0,1.0,1.0,1.0,10.00
2024-10-11 20:38:40.260,0.32013232,-0.57729226,-0.35945752,0.3081093,0.7954942,-0.1971943,0.017276045,0.40915626,1.1323615,-0.11467753,0.38364312,0.75036263,0.4288571,-0.12607595,0.24220955,0.33512184,-0.014764899,-0.45991,-0.19963913,-0.1747349,797.8022,794.17584,785.7143,791.3553,686.99634,-0.22015380859375,0.0986328125,0.97564697265625,-4.523468017578125,-5.345916748046875,10.475006103515625,1,1.0,1.0,1.0,1.0,10.00
2024-10-11 20:38:40.260,0.32013232,-0.57729226,-0.35945752,0.3081093,0.7954942,-0.1971943,0.017276045,0.40915626,1.1323615,-0.11467753,0.38364312,0.75036263,0.4288571,-0.12607595,0.24220955,0.33512184,-0.014764899,-0.45991,-0.19963913,-0.1747349,800.2198,795.38464,786.9231,790.9524,595.12823,-0.22015380859375,0.0986328125,0.97564697265625,-4.523468017578125,-5.345916748046875,10.475006103515625,1,1.0,1.0,1.0,1.0,10.00
2024-10-11 20:38:40.261,0.32013232,-0.57729226,-0.35945752,0.3081093,0.7954942,-0.1971943,0.017276045,0.40915626,1.1323615,-0.11467753,0.38364312,0.75036263,0.4288571,-0.12607595,0.24220955,0.33512184,-0.014764899,-0.45991,-0.19963913,-0.1747349,795.78754,797.3993,793.7729,794.17584,707.1429,-0.22015380859375,0.0986328125,0.97564697265625,-4.523468017578125,-5.345916748046875,10.475006103515625,1,1.0,1.0,1.0,1.0,10.00
2024-10-11 20:38:40.261,0.30829147,-0.5407874,-0.36384854,0.3105673,0.7815567,-0.20855923,0.00598509,0.42007238,1.1323615,-0.11467753,0.38772398,0.75036263,0.44085738,-0.123231575,0.23549171,0.32452947,0.0050434684,-0.46668297,-0.20931377,-0.15949146,792.5641,796.99634,795.78754,796.99634,682.5641,-0.22015380859375,0.0986328125,0.97564697265625,-4.523468017578125,-5.345916748046875,10.475006103515625,1,1.0,1.0,1.0,1.0,10.00
2024-10-11 20:38:40.265,0.30829147,-0.5407874,-0.36384854,0.3105673,0.7815567,-0.20855923,0.00598509,0.42007238,1.1323615,-0.11467753,0.38772398,0.75036263,0.44085738,-0.123231575,0.23549171,0.32452947,0.0050434684,-0.46668297,-0.20931377,-0.15949146,800.2198,802.23444,795.78754,792.96704,458.13187,-0.22015380859375,0.0986328125,0.97564697265625,-4.523468017578125,-5.345916748046875,10.475006103515625,1,1.0,1.0,1.0,1.0,10.00
2024-10-11 20:38:40.266,0.30829147,-0.5407874,-0.36384854,0.3105673,0.7815567,-0.20855923,0.00598509,0.42007238,1.1323615,-0.11467753,0.38772398,0.75036263,0.44085738,-0.123231575,0.23549171,0.32452947,0.0050434684,-0.46668297,-0.20931377,-0.15949146,790.9524,797.8022,794.17584,784.90845,481.0989,-0.22015380859375,0.0986328125,0.97564697265625,-4.523468017578125,-5.345916748046875,10.475006103515625,1,1.0,1.0,1.0,1.0,10.00
2024-10-11 20:38:40.266,0.30829147,-0.5407874,-0.36384854,0.3105673,0.7815567,-0.20855923,0.00598509,0.42007238,1.1323615,-0.11467753,0.38772398,0.75036263,0.44085738,-0.123231575,0.23549171,0.32452947,0.0050434684,-0.46668297,-0.20931377,-0.15949146,792.1612,797.3993,794.17584,792.1612,910.6227,-0.22015380859375,0.0986328125,0.97564697265625,-4.523468017578125,-5.345916748046875,10.475006103515625,1,1.0,1.0,1.0,1.0,10.00
2024-10-11 20:38:40.267,0.30829147,-0.5407874,-0.36384854,0.3105673,0.7815567,-0.20855923,0.00598509,0.42007238,1.1323615,-0.11467753,0.38772398,0.75036263,0.44085738,-0.123231575,0.23549171,0.32452947,0.0050434684,-0.46668297,-0.20931377,-0.15949146,794.9817,804.2491,790.9524,799.011,1152.7839,-0.22015380859375,0.0986328125,0.97564697265625,-4.523468017578125,-5.345916748046875,10.475006103515625,1,1.0,1.0,1.0,1.0,10.00
2024-10-11 20:38:40.267,0.30829147,-0.5407874,-0.36384854,0.3105673,0.7815567,-0.20855923,0.00598509,0.42007238,1.1323615,-0.11467753,0.38772398,0.75036263,0.44085738,-0.123231575,0.23549171,0.32452947,0.0050434684,-0.46668297,-0.20931377,-0.15949146,795.78754,807.47253,790.9524,796.1905,720.84247,-0.22015380859375,0.0986328125,0.97564697265625,-4.523468017578125,-5.345916748046875,10.475006103515625,1,1.0,1.0,1.0,1.0,10.00
2024-10-11 20:38:40.268,0.30829147,-0.5407874,-0.36384854,0.3105673,0.7815567,-0.20855923,0.00598509,0.42007238,1.1323615,-0.11467753,0.38772398,0.75036263,0.44085738,-0.123231575,0.23549171,0.32452947,0.0050434684,-0.46668297,-0.20931377,-0.15949146,801.4286,806.26373,794.57874,797.3993,459.7436,-0.22015380859375,0.0986328125,0.97564697265625,-4.523468017578125,-5.345916748046875,10.475006103515625,1,1.0,1.0,1.0,1.0,10.00
2024-10-11 20:38:40.268,0.30829147,-0.5407874,-0.36384854,0.3105673,0.7815567,-0.20855923,0.00598509,0.42007238,1.1323615,-0.11467753,0.38772398,0.75036263,0.44085738,-0.123231575,0.23549171,0.32452947,0.0050434684,-0.46668297,-0.20931377,-0.15949146,793.7729,802.6374,793.7729,798.20514,507.28937,-0.22015380859375,0.0986328125,0.97564697265625,-4.523468017578125,-5.345916748046875,10.475006103515625,1,1.0,1.0,1.0,1.0,10.00
2024-10-11 20:38:40.269,0.30829147,-0.5407874,-0.36384854,0.3105673,0.7815567,-0.20855923,0.00598509,0.42007238,1.1323615,-0.11467753,0.38772398,0.75036263,0.44085738,-0.123231575,0.23549171,0.32452947,0.0050434684,-0.46668297,-0.20931377,-0.15949146,801.02563,799.81683,794.17584,794.17584,547.1795,-0.22015380859375,0.0986328125,0.97564697265625,-4.523468017578125,-5.345916748046875,10.475006103515625,1,1.0,1.0,1.0,1.0,10.00
2024-10-11 20:38:40.395,0.30829147,-0.5407874,-0.36384854,0.3105673,0.7815567,-0.20855923,0.00598509,0.42007238,1.1323615,-0.11467753,0.38772398,0.75036263,0.44085738,-0.123231575,0.23549171,0.32452947,0.0050434684,-0.46668297,-0.20931377,-0.15949146,800.2198,798.20514,792.96704,794.9817,622.9304,-0.20556640625,0.08282470703125,0.980712890625,-3.5888671875,-5.93658447265625,7.245025634765625,1,1.0,1.0,1.0,1.0,10.00
2024-10-11 20:38:40.396,0.30829147,-0.5407874,-0.36384854,0.3105673,0.7815567,-0.20855923,0.00598509,0.42007238,1.1323615,-0.11467753,0.38772398,0.75036263,0.44085738,-0.123231575,0.23549171,0.32452947,0.0050434684,-0.46668297,-0.20931377,-0.15949146,794.17584,790.9524,794.17584,797.8022,586.26373,-0.20556640625,0.08282470703125,0.980712890625,-3.5888671875,-5.93658447265625,7.245025634765625,1,1.0,1.0,1.0,1.0,10.00
2024-10-11 20:38:40.397,0.30829147,-0.5407874,-0.36384854,0.3105673,0.7815567,-0.20855923,0.00598509,0.42007238,1.1323615,-0.11467753,0.38772398,0.75036263,0.44085738,-0.123231575,0.23549171,0.32452947,0.0050434684,-0.46668297,-0.20931377,-0.15949146,800.6227,788.93774,792.96704,800.2198,533.0769,-0.20556640625,0.08282470703125,0.980712890625,-3.5888671875,-5.93658447265625,7.245025634765625,1,1.0,1.0,1.0,1.0,10.00
2024-10-11 20:38:40.398,0.30829147,-0.5407874,-0.36384854,0.3105673,0.7815567,-0.20855923,0.00598509,0.42007238,1.1323615,-0.11467753,0.38772398,0.75036263,0.44085738,-0.123231575,0.23549171,0.32452947,0.0050434684,-0.46668297,-0.20931377,-0.15949146,799.011,795.38464,797.3993,806.6667,593.5165,-0.20556640625,0.08282470703125,0.980712890625,-3.5888671875,-5.93658447265625,7.245025634765625,1,1.0,1.0,1.0,1.0,10.00
2024-10-11 20:38:40.398,0.30829147,-0.5407874,-0.36384854,0.3105673,0.7815567,-0.20855923,0.00598509,0.42007238,1.1323615,-0.11467753,0.38772398,0.75036263,0.44085738,-0.123231575,0.23549171,0.32452947,0.0050434684,-0.46668297,-0.20931377,-0.15949146,790.54944,794.17584,796.5934,806.26373,546.77655,-0.20556640625,0.08282470703125,0.980712890625,-3.5888671875,-5.93658447265625,7.245025634765625,1,1.0,1.0,1.0,1.0,10.00
2024-10-11 20:38:40.399,0.30829147,-0.5407874,-0.36384854,0.3105673,0.7815567,-0.20855923,0.00598509,0.42007238,1.1323615,-0.11467753,0.38772398,0.75036263,0.44085738,-0.123231575,0.23549171,0.32452947,0.0050434684,-0.46668297,-0.20931377,-0.15949146,794.57874,790.54944,790.54944,796.99634,684.17584,-0.20556640625,0.08282470703125,0.980712890625,-3.5888671875,-5.93658447265625,7.245025634765625,1,1.0,1.0,1.0,1.0,10.00
2024-10-11 20:38:40.399,0.30829147,-0.5407874,-0.36384854,0.3105673,0.7815567,-0.20855923,0.00598509,0.42007238,1.1323615,-0.11467753,0.38772398,0.75036263,0.44085738,-0.123231575,0.23549171,0.32452947,0.0050434684,-0.46668297,-0.20931377,-0.15949146,802.6374,790.9524,788.93774,793.7729,901.3553,-0.20556640625,0.08282470703125,0.980712890625,-3.5888671875,-5.93658447265625,7.245025634765625,1,1.0,1.0,1.0,1.0,10.00
2024-10-11 20:38:40.400,0.30829147,-0.5407874,-0.36384854,0.3105673,0.7815567,-0.20855923,0.00598509,0.42007238,1.1323615,-0.11467753,0.38772398,0.75036263,0.44085738,-0.123231575,0.23549171,0.32452947,0.0050434684,-0.46668297,-0.20931377,-0.15949146,798.20514,794.9817,793.7729,797.8022,722.8571,-0.20556640625,0.08282470703125,0.980712890625,-3.5888671875,-5.93658447265625,7.245025634765625,1,1.0,1.0,1.0,1.0,10.00
2024-10-11 20:38:40.401,0.30829147,-0.5407874,-0.36384854,0.3105673,0.7815567,-0.20855923,0.00598509,0.42007238,1.1323615,-0.11467753,0.38772398,0.75036263,0.44085738,-0.123231575,0.23549171,0.32452947,0.0050434684,-0.46668297,-0.20931377,-0.15949146,799.011,796.1905,796.1905,795.78754,545.16486,-0.20556640625,0.08282470703125,0.980712890625,-3.5888671875,-5.93658447265625,7.245025634765625,1,1.0,1.0,1.0,1.0,10.00
2024-10-11 20:38:40.401,0.30829147,-0.5407874,-0.36384854,0.3105673,0.7815567,-0.20855923,0.00598509,0.42007238,1.1323615,-0.11467753,0.38772398,0.75036263,0.44085738,-0.123231575,0.23549171,0.32452947,0.0050434684,-0.46668297,-0.20931377,-0.15949146,793.36993,796.5934,790.9524,790.54944,628.1685,-0.20556640625,0.08282470703125,0.980712890625,-3.5888671875,-5.93658447265625,7.245025634765625,1,1.0,1.0,1.0,1.0,10.00
2024-10-11 20:38:40.402,0.30829147,-0.5407874,-0.36384854,0.3105673,0.7815567,-0.20855923,0.00598509,0.42007238,1.1323615,-0.11467753,0.38772398,0.75036263,0.44085738,-0.123231575,0.23549171,0.32452947,0.0050434684,-0.46668297,-0.20931377,-0.15949146,790.9524,798.20514,784.5055,792.5641,911.02563,-0.20556640625,0.08282470703125,0.980712890625,-3.5888671875,-5.93658447265625,7.245025634765625,1,1.0,1.0,1.0,1.0,10.00
2024-10-11 20:38:40.402,0.30829147,-0.5407874,-0.36384854,0.3105673,0.7815567,-0.20855923,0.00598509,0.42007238,1.1323615,-0.11467753,0.38772398,0.75036263,0.44085738,-0.123231575,0.23549171,0.32452947,0.0050434684,-0.46668297,-0.20931377,-0.15949146,793.7729,795.38464,784.90845,788.93774,680.14655,-0.20556640625,0.08282470703125,0.980712890625,-3.5888671875,-5.93658447265625,7.245025634765625,1,1.0,1.0,1.0,1.0,10.00
2024-10-11 20:38:40.403,0.30829147,-0.5407874,-0.36384854,0.3105673,0.7815567,-0.20855923,0.00598509,0.42007238,1.1323615,-0.11467753,0.38772398,0.75036263,0.44085738,-0.123231575,0.23549171,0.32452947,0.0050434684,-0.46668297,-0.20931377,-0.15949146,796.99634,793.36993,794.17584,783.69965,480.29303,-0.20556640625,0.08282470703125,0.980712890625,-3.5888671875,-5.93658447265625,7.245025634765625,1,1.0,1.0,1.0,1.0,10.00
2024-10-11 20:38:40.404,0.30829147,-0.5407874,-0.36384854,0.3105673,0.7815567,-0.20855923,0.00598509,0.42007238,1.1323615,-0.11467753,0.38772398,0.75036263,0.44085738,-0.123231575,0.23549171,0.32452947,0.0050434684,-0.46668297,-0.20931377,-0.15949146,802.23444,801.02563,796.5934,787.326,578.20514,-0.20556640625,0.08282470703125,0.980712890625,-3.5888671875,-5.93658447265625,7.245025634765625,1,1.0,1.0,1.0,1.0,10.00
2024-10-11 20:38:40.404,0.30829147,-0.5407874,-0.36384854,0.3105673,0.7815567,-0.20855923,0.00598509,0.42007238,1.1323615,-0.11467753,0.38772398,0.75036263,0.44085738,-0.123231575,0.23549171,0.32452947,0.0050434684,-0.46668297,-0.20931377,-0.15949146,803.8461,805.8608,803.44324,790.54944,586.26373,-0.20556640625,0.08282470703125,0.980712890625,-3.5888671875,-5.93658447265625,7.245025634765625,1,1.0,1.0,1.0,1.0,10.00
2024-10-11 20:38:40.405,0.30829147,-0.5407874,-0.36384854,0.3105673,0.7815567,-0.20855923,0.00598509,0.42007238,1.1323615,-0.11467753,0.38772398,0.75036263,0.44085738,-0.123231575,0.23549171,0.32452947,0.0050434684,-0.46668297,-0.20931377,-0.15949146,804.65204,804.65204,806.26373,787.326,573.7729,-0.20556640625,0.08282470703125,0.980712890625,-3.5888671875,-5.93658447265625,7.245025634765625,1,1.0,1.0,1.0,1.0,10.00
2024-10-11 20:38:40.405,0.30829147,-0.5407874,-0.36384854,0.3105673,0.7815567,-0.20855923,0.00598509,0.42007238,1.1323615,-0.11467753,0.38772398,0.75036263,0.44085738,-0.123231575,0.23549171,0.32452947,0.0050434684,-0.46668297,-0.20931377,-0.15949146,803.0403,804.2491,803.8461,789.34064,553.6264,-0.20556640625,0.08282470703125,0.980712890625,-3.5888671875,-5.93658447265625,7.245025634765625,1,1.0,1.0,1.0,1.0,10.00
2024-10-11 20:38:40.406,0.28534415,-0.47753146,-0.41854355,0.3111557,0.7675693,-0.22602333,-0.03777881,0.4285436,1.1323615,-0.11467753,0.38819066,0.7614261,0.4562315,-0.12282215,0.22565795,0.31194803,0.018402603,-0.47779334,-0.22879082,-0.14317302,807.0696,805.8608,805.05493,801.4286,692.6374,-0.20556640625,0.08282470703125,0.980712890625,-3.5888671875,-5.93658447265625,7.245025634765625,1,1.0,1.0,1.0,1.0,10.00
2024-10-11 20:38:40.411,0.28534415,-0.47753146,-0.41854355,0.3111557,0.7675693,-0.22602333,-0.03777881,0.4285436,1.1323615,-0.11467753,0.38819066,0.7614261,0.4562315,-0.12282215,0.22565795,0.31194803,0.018402603,-0.47779334,-0.22879082,-0.14317302,800.6227,805.05493,798.60803,795.38464,755.4945,-0.20556640625,0.08282470703125,0.980712890625,-3.5888671875,-5.93658447265625,7.245025634765625,1,1.0,1.0,1.0,1.0,10.00
2024-10-11 20:38:40.412,0.28534415,-0.47753146,-0.41854355,0.3111557,0.7675693,-0.22602333,-0.03777881,0.4285436,1.1323615,-0.11467753,0.38819066,0.7614261,0.4562315,-0.12282215,0.22565795,0.31194803,0.018402603,-0.47779334,-0.22879082,-0.14317302,800.2198,799.41394,797.8022,789.34064,512.52747,-0.20556640625,0.08282470703125,0.980712890625,-3.5888671875,-5.93658447265625,7.245025634765625,1,1.0,1.0,1.0,1.0,10.00
2024-10-11 20:38:40.412,0.28534415,-0.47753146,-0.41854355,0.3111557,0.7675693,-0.22602333,-0.03777881,0.4285436,1.1323615,-0.11467753,0.38819066,0.7614261,0.4562315,-0.12282215,0.22565795,0.31194803,0.018402603,-0.47779334,-0.22879082,-0.14317302,810.293,798.20514,802.6374,799.81683,523.4066,-0.20556640625,0.08282470703125,0.980712890625,-3.5888671875,-5.93658447265625,7.245025634765625,1,1.0,1.0,1.0,1.0,10.00
2024-10-11 20:38:40.413,0.28534415,-0.47753146,-0.41854355,0.3111557,0.7675693,-0.22602333,-0.03777881,0.4285436,1.1323615,-0.11467753,0.38819066,0.7614261,0.4562315,-0.12282215,0.22565795,0.31194803,0.018402603,-0.47779334,-0.22879082,-0.14317302,801.8315,796.1905,796.99634,798.60803,809.4872,-0.20556640625,0.08282470703125,0.980712890625,-3.5888671875,-5.93658447265625,7.245025634765625,1,1.0,1.0,1.0,1.0,10.00
2024-10-11 20:38:40.413,0.28534415,-0.47753146,-0.41854355,0.3111557,0.7675693,-0.22602333,-0.03777881,0.4285436,1.1323615,-0.11467753,0.38819066,0.7614261,0.4562315,-0.12282215,0.22565795,0.31194803,0.018402603,-0.47779334,-0.22879082,-0.14317302,793.7729,797.3993,796.1905,795.38464,656.77655,-0.20556640625,0.08282470703125,0.980712890625,-3.5888671875,-5.93658447265625,7.245025634765625,1,1.0,1.0,1.0,1.0,10.00
2024-10-11 20:38:40.414,0.28534415,-0.47753146,-0.41854355,0.3111557,0.7675693,-0.22602333,-0.03777881,0.4285436,1.1323615,-0.11467753,0.38819066,0.7614261,0.4562315,-0.12282215,0.22565795,0.31194803,0.018402603,-0.47779334,-0.22879082,-0.14317302,796.99634,803.0403,798.20514,790.54944,435.9707,-0.20556640625,0.08282470703125,0.980712890625,-3.5888671875,-5.93658447265625,7.245025634765625,1,1.0,1.0,1.0,1.0,10.00
2024-10-11 20:38:40.481,0.28534415,-0.47753146,-0.41854355,0.3111557,0.7675693,-0.22602333,-0.03777881,0.4285436,1.1323615,-0.11467753,0.38819066,0.7614261,0.4562315,-0.12282215,0.22565795,0.31194803,0.018402603,-0.47779334,-0.22879082,-0.14317302,801.8315,799.011,799.81683,789.7436,507.28937,-0.203125,0.072998046875,0.97760009765625,0.306549072265625,-7.484283447265625,7.155303955078125,1,1.0,1.0,1.0,1.0,10.00
2024-10-11 20:38:40.482,0.28534415,-0.47753146,-0.41854355,0.3111557,0.7675693,-0.22602333,-0.03777881,0.4285436,1.1323615,-0.11467753,0.38819066,0.7614261,0.4562315,-0.12282215,0.22565795,0.31194803,0.018402603,-0.47779334,-0.22879082,-0.14317302,807.0696,801.8315,794.9817,789.34064,662.01465,-0.203125,0.072998046875,0.97760009765625,0.306549072265625,-7.484283447265625,7.155303955078125,1,1.0,1.0,1.0,1.0,10.00
2024-10-11 20:38:40.482,0.28534415,-0.47753146,-0.41854355,0.3111557,0.7675693,-0.22602333,-0.03777881,0.4285436,1.1323615,-0.11467753,0.38819066,0.7614261,0.4562315,-0.12282215,0.22565795,0.31194803,0.018402603,-0.47779334,-0.22879082,-0.14317302,799.41394,803.8461,796.1905,784.5055,583.8461,-0.203125,0.072998046875,0.97760009765625,0.306549072265625,-7.484283447265625,7.155303955078125,1,1.0,1.0,1.0,1.0,10.00
2024-10-11 20:38:40.483,0.28534415,-0.47753146,-0.41854355,0.3111557,0.7675693,-0.22602333,-0.03777881,0.4285436,1.1323615,-0.11467753,0.38819066,0.7614261,0.4562315,-0.12282215,0.22565795,0.31194803,0.018402603,-0.47779334,-0.22879082,-0.14317302,794.9817,800.6227,798.20514,784.90845,439.19415,-0.203125,0.072998046875,0.97760009765625,0.306549072265625,-7.484283447265625,7.155303955078125,1,1.0,1.0,1.0,1.0,10.00
2024-10-11 20:38:40.483,0.28534415,-0.47753146,-0.41854355,0.3111557,0.7675693,-0.22602333,-0.03777881,0.4285436,1.1323615,-0.11467753,0.38819066,0.7614261,0.4562315,-0.12282215,0.22565795,0.31194803,0.018402603,-0.47779334,-0.22879082,-0.14317302,805.8608,803.0403,796.5934,791.75824,517.76556,-0.203125,0.072998046875,0.97760009765625,0.306549072265625,-7.484283447265625,7.155303955078125,1,1.0,1.0,1.0,1.0,10.00
2024-10-11 20:38:40.484,0.28534415,-0.47753146,-0.41854355,0.3111557,0.7675693,-0.22602333,-0.03777881,0.4285436,1.1323615,-0.11467753,0.38819066,0.7614261,0.4562315,-0.12282215,0.22565795,0.31194803,0.018402603,-0.47779334,-0.22879082,-0.14317302,805.4579,797.8022,794.9817,801.02563,1036.337,-0.203125,0.072998046875,0.97760009765625,0.306549072265625,-7.484283447265625,7.155303955078125,1,1.0,1.0,1.0,1.0,10.00
2024-10-11 20:38:40.484,0.28534415,-0.47753146,-0.41854355,0.3111557,0.7675693,-0.22602333,-0.03777881,0.4285436,1.1323615,-0.11467753,0.38819066,0.7614261,0.4562315,-0.12282215,0.22565795,0.31194803,0.018402603,-0.47779334,-0.22879082,-0.14317302,796.5934,797.8022,798.60803,799.41394,1047.619,-0.203125,0.072998046875,0.97760009765625,0.306549072265625,-7.484283447265625,7.155303955078125,1,1.0,1.0,1.0,1.0,10.00
2024-10-11 20:38:40.485,0.28534415,-0.47753146,-0.41854355,0.3111557,0.7675693,-0.22602333,-0.03777881,0.4285436,1.1323615,-0.11467753,0.38819066,0.7614261,0.4562315,-0.12282215,0.22565795,0.31194803,0.018402603,-0.47779334,-0.22879082,-0.14317302,789.34064,800.2198,796.99634,794.57874,749.85345,-0.203125,0.072998046875,0.97760009765625,0.306549072265625,-7.484283447265625,7.155303955078125,1,1.0,1.0,1.0,1.0,10.00
2024-10-11 20:38:40.486,0.28534415,-0.47753146,-0.41854355,0.3111557,0.7675693,-0.22602333,-0.03777881,0.4285436,1.1323615,-0.11467753,0.38819066,0.7614261,0.4562315,-0.12282215,0.22565795,0.31194803,0.018402603,-0.47779334,-0.22879082,-0.14317302,790.54944,797.8022,793.36993,794.17584,638.6447,-0.203125,0.072998046875,0.97760009765625,0.306549072265625,-7.484283447265625,7.155303955078125,1,1.0,1.0,1.0,1.0,10.00
2024-10-11 20:38:40.486,0.28534415,-0.47753146,-0.41854355,0.3111557,0.7675693,-0.22602333,-0.03777881,0.4285436,1.1323615,-0.11467753,0.38819066,0.7614261,0.4562315,-0.12282215,0.22565795,0.31194803,0.018402603,-0.47779334,-0.22879082,-0.14317302,795.38464,796.5934,801.02563,804.2491,921.0989,-0.203125,0.072998046875,0.97760009765625,0.306549072265625,-7.484283447265625,7.155303955078125,1,1.0,1.0,1.0,1.0,10.00
2024-10-11 20:38:40.487,0.28534415,-0.47753146,-0.41854355,0.3111557,0.7675693,-0.22602333,-0.03777881,0.4285436,1.1323615,-0.11467753,0.38819066,0.7614261,0.4562315,-0.12282215,0.22565795,0.31194803,0.018402603,-0.47779334,-0.22879082,-0.14317302,796.5934,794.57874,803.0403,803.0403,941.6484,-0.203125,0.072998046875,0.97760009765625,0.306549072265625,-7.484283447265625,7.155303955078125,1,1.0,1.0,1.0,1.0,10.00
2024-10-11 20:38:40.487,0.28534415,-0.47753146,-0.41854355,0.3111557,0.7675693,-0.22602333,-0.03777881,0.4285436,1.1323615,-0.11467753,0.38819066,0.7614261,0.4562315,-0.12282215,0.22565795,0.31194803,0.018402603,-0.47779334,-0.22879082,-0.14317302,801.02563,795.38464,796.5934,792.1612,471.42856,-0.203125,0.072998046875,0.97760009765625,0.306549072265625,-7.484283447265625,7.155303955078125,1,1.0,1.0,1.0,1.0,10.00
2024-10-11 20:38:40.488,0.28534415,-0.47753146,-0.41854355,0.3111557,0.7675693,-0.22602333,-0.03777881,0.4285436,1.1323615,-0.11467753,0.38819066,0.7614261,0.4562315,-0.12282215,0.22565795,0.31194803,0.018402603,-0.47779334,-0.22879082,-0.14317302,792.1612,795.38464,796.5934,788.93774,403.73627,-0.1761474609375,0.09600830078125,0.9884033203125,4.553375244140625,-9.2413330078125,6.871185302734375,1,1.0,1.0,1.0,1.0,10.00
2024-10-11 20:38:40.489,0.28534415,-0.47753146,-0.41854355,0.3111557,0.7675693,-0.22602333,-0.03777881,0.4285436,1.1323615,-0.11467753,0.38819066,0.7614261,0.4562315,-0.12282215,0.22565795,0.31194803,0.018402603,-0.47779334,-0.22879082,-0.14317302,784.90845,795.78754,802.23444,790.54944,423.88278,-0.1761474609375,0.09600830078125,0.9884033203125,4.553375244140625,-9.2413330078125,6.871185302734375,1,1.0,1.0,1.0,1.0,10.00
2024-10-11 20:38:40.489,0.28534415,-0.47753146,-0.41854355,0.3111557,0.7675693,-0.22602333,-0.03777881,0.4285436,1.1323615,-0.11467753,0.38819066,0.7614261,0.4562315,-0.12282215,0.22565795,0.31194803,0.018402603,-0.47779334,-0.22879082,-0.14317302,796.99634,799.011,800.6227,791.75824,462.56412,-0.1761474609375,0.09600830078125,0.9884033203125,4.553375244140625,-9.2413330078125,6.871185302734375,1,1.0,1.0,1.0,1.0,10.00
2024-10-11 20:38:40.490,0.28534415,-0.47753146,-0.41854355,0.3111557,0.7675693,-0.22602333,-0.03777881,0.4285436,1.1323615,-0.11467753,0.38819066,0.7614261,0.4562315,-0.12282215,0.22565795,0.31194803,0.018402603,-0.47779334,-0.22879082,-0.14317302,801.02563,796.1905,800.6227,799.41394,512.52747,-0.1761474609375,0.09600830078125,0.9884033203125,4.553375244140625,-9.2413330078125,6.871185302734375,1,1.0,1.0,1.0,1.0,10.00
2024-10-11 20:38:40.490,0.28534415,-0.47753146,-0.41854355,0.3111557,0.7675693,-0.22602333,-0.03777881,0.4285436,1.1323615,-0.11467753,0.38819066,0.7614261,0.4562315,-0.12282215,0.22565795,0.31194803,0.018402603,-0.47779334,-0.22879082,-0.14317302,791.3553,788.5348,801.4286,810.293,539.5238,-0.1761474609375,0.09600830078125,0.9884033203125,4.553375244140625,-9.2413330078125,6.871185302734375,1,1.0,1.0,1.0,1.0,10.00
2024-10-11 20:38:40.491,0.28534415,-0.47753146,-0.41854355,0.3111557,0.7675693,-0.22602333,-0.03777881,0.4285436,1.1323615,-0.11467753,0.38819066,0.7614261,0.4562315,-0.12282215,0.22565795,0.31194803,0.018402603,-0.47779334,-0.22879082,-0.14317302,788.1319,786.9231,794.9817,798.60803,649.92676,-0.1761474609375,0.09600830078125,0.9884033203125,4.553375244140625,-9.2413330078125,6.871185302734375,1,1.0,1.0,1.0,1.0,10.00
2024-10-11 20:38:40.492,0.28534415,-0.47753146,-0.41854355,0.3111557,0.7675693,-0.22602333,-0.03777881,0.4285436,1.1323615,-0.11467753,0.38819066,0.7614261,0.4562315,-0.12282215,0.22565795,0.31194803,0.018402603,-0.47779334,-0.22879082,-0.14317302,787.72894,788.1319,798.20514,783.2967,621.31866,-0.1761474609375,0.09600830078125,0.9884033203125,4.553375244140625,-9.2413330078125,6.871185302734375,1,1.0,1.0,1.0,1.0,10.00
2024-10-11 20:38:40.492,0.25942212,-0.41528526,-0.41252366,0.30095568,0.7480492,-0.2498709,-0.08645598,0.42949745,1.1323615,-0.1146093,0.32350206,0.7664327,0.4688048,-0.123365626,0.20094569,0.3009532,0.027964553,-0.48714432,-0.24756433,-0.12762323,787.326,784.5055,804.2491,787.72894,562.49084,-0.1761474609375,0.09600830078125,0.9884033203125,4.553375244140625,-9.2413330078125,6.871185302734375,1,1.0,1.0,1.0,1.0,10.00
2024-10-11 20:38:40.497,0.25942212,-0.41528526,-0.41252366,0.30095568,0.7480492,-0.2498709,-0.08645598,0.42949745,1.1323615,-0.1146093,0.32350206,0.7664327,0.4688048,-0.123365626,0.20094569,0.3009532,0.027964553,-0.48714432,-0.24756433,-0.12762323,784.90845,785.31134,801.8315,790.54944,612.8571,-0.1761474609375,0.09600830078125,0.9884033203125,4.553375244140625,-9.2413330078125,6.871185302734375,1,1.0,1.0,1.0,1.0,10.00
2024-10-11 20:38:40.498,0.25942212,-0.41528526,-0.41252366,0.30095568,0.7480492,-0.2498709,-0.08645598,0.42949745,1.1323615,-0.1146093,0.32350206,0.7664327,0.4688048,-0.123365626,0.20094569,0.3009532,0.027964553,-0.48714432,-0.24756433,-0.12762323,796.1905,793.36993,800.2198,790.9524,535.4945,-0.1761474609375,0.09600830078125,0.9884033203125,4.553375244140625,-9.2413330078125,6.871185302734375,1,1.0,1.0,1.0,1.0,10.00
2024-10-11 20:38:40.499,0.25942212,-0.41528526,-0.41252366,0.30095568,0.7480492,-0.2498709,-0.08645598,0.42949745,1.1323615,-0.1146093,0.32350206,0.7664327,0.4688048,-0.123365626,0.20094569,0.3009532,0.027964553,-0.48714432,-0.24756433,-0.12762323,802.23444,788.93774,799.41394,793.7729,454.5055,-0.1761474609375,0.09600830078125,0.9884033203125,4.553375244140625,-9.2413330078125,6.871185302734375,1,1.0,1.0,1.0,1.0,10.00
2024-10-11 20:38:40.499,0.25942212,-0.41528526,-0.41252366,0.30095568,0.7480492,-0.2498709,-0.08645598,0.42949745,1.1323615,-0.1146093,0.32350206,0.7664327,0.4688048,-0.123365626,0.20094569,0.3009532,0.027964553,-0.48714432,-0.24756433,-0.12762323,795.78754,788.5348,797.8022,798.20514,558.46155,-0.1761474609375,0.09600830078125,0.9884033203125,4.553375244140625,-9.2413330078125,6.871185302734375,1,1.0,1.0,1.0,1.0,10.00
2024-10-11 20:38:40.525,0.25942212,-0.41528526,-0.41252366,0.30095568,0.7480492,-0.2498709,-0.08645598,0.42949745,1.1323615,-0.1146093,0.32350206,0.7664327,0.4688048,-0.123365626,0.20094569,0.3009532,0.027964553,-0.48714432,-0.24756433,-0.12762323,799.81683,794.9817,794.17584,796.1905,765.56775,-0.1707763671875,0.110107421875,0.99755859375,2.729034423828125,-9.151611328125,4.942169189453125,1,1.0,1.0,1.0,1.0,10.00
2024-10-11 20:38:40.526,0.25942212,-0.41528526,-0.41252366,0.30095568,0.7480492,-0.2498709,-0.08645598,0.42949745,1.1323615,-0.1146093,0.32350206,0.7664327,0.4688048,-0.123365626,0.20094569,0.3009532,0.027964553,-0.48714432,-0.24756433,-0.12762323,797.8022,797.8022,799.41394,796.5934,631.39197,-0.1707763671875,0.110107421875,0.99755859375,2.729034423828125,-9.151611328125,4.942169189453125,1,1.0,1.0,1.0,1.0,10.00
2024-10-11 20:38:40.526,0.25942212,-0.41528526,-0.41252366,0.30095568,0.7480492,-0.2498709,-0.08645598,0.42949745,1.1323615,-0.1146093,0.32350206,0.7664327,0.4688048,-0.123365626,0.20094569,0.3009532,0.027964553,-0.48714432,-0.24756433,-0.12762323,795.78754,799.81683,805.4579,801.4286,465.3846,-0.1707763671875,0.110107421875,0.99755859375,2.729034423828125,-9.151611328125,4.942169189453125,1,1.0,1.0,1.0,1.0,10.00
2024-10-11 20:38:40.527,0.25942212,-0.41528526,-0.41252366,0.30095568,0.7480492,-0.2498709,-0.08645598,0.42949745,1.1323615,-0.1146093,0.32350206,0.7664327,0.4688048,-0.123365626,0.20094569,0.3009532,0.027964553,-0.48714432,-0.24756433,-0.12762323,796.1905,799.81683,800.6227,801.8315,511.3187,-0.1707763671875,0.110107421875,0.99755859375,2.729034423828125,-9.151611328125,4.942169189453125,1,1.0,1.0,1.0,1.0,10.00
2024-10-11 20:38:40.528,0.25942212,-0.41528526,-0.41252366,0.30095568,0.7480492,-0.2498709,-0.08645598,0.42949745,1.1323615,-0.1146093,0.32350206,0.7664327,0.4688048,-0.123365626,0.20094569,0.3009532,0.027964553,-0.48714432,-0.24756433,-0.12762323,793.36993,797.8022,794.17584,804.65204,747.4359,-0.1707763671875,0.110107421875,0.99755859375,2.729034423828125,-9.151611328125,4.942169189453125,1,1.0,1.0,1.0,1.0,10.00
2024-10-11 20:38:40.528,0.25942212,-0.41528526,-0.41252366,0.30095568,0.7480492,-0.2498709,-0.08645598,0.42949745,1.1323615,-0.1146093,0.32350206,0.7664327,0.4688048,-0.123365626,0.20094569,0.3009532,0.027964553,-0.48714432,-0.24756433,-0.12762323,789.34064,796.1905,801.4286,800.6227,751.06226,-0.1707763671875,0.110107421875,0.99755859375,2.729034423828125,-9.151611328125,4.942169189453125,1,1.0,1.0,1.0,1.0,10.00
2024-10-11 20:38:40.529,0.25942212,-0.41528526,-0.41252366,0.30095568,0.7480492,-0.2498709,-0.08645598,0.42949745,1.1323615,-0.1146093,0.32350206,0.7664327,0.4688048,-0.123365626,0.20094569,0.3009532,0.027964553,-0.48714432,-0.24756433,-0.12762323,787.326,794.9817,800.2198,799.011,624.1392,-0.1707763671875,0.110107421875,0.99755859375,2.729034423828125,-9.151611328125,4.942169189453125,1,1.0,1.0,1.0,1.0,10.00
2024-10-11 20:38:40.529,0.25942212,-0.41528526,-0.41252366,0.30095568,0.7480492,-0.2498709,-0.08645598,0.42949745,1.1323615,-0.1146093,0.32350206,0.7664327,0.4688048,-0.123365626,0.20094569,0.3009532,0.027964553,-0.48714432,-0.24756433,-0.12762323,795.38464,796.1905,797.3993,804.65204,638.24176,-0.1707763671875,0.110107421875,0.99755859375,2.729034423828125,-9.151611328125,4.942169189453125,1,1.0,1.0,1.0,1.0,10.00
2024-10-11 20:38:40.530,0.25942212,-0.41528526,-0.41252366,0.30095568,0.7480492,-0.2498709,-0.08645598,0.42949745,1.1323615,-0.1146093,0.32350206,0.7664327,0.4688048,-0.123365626,0.20094569,0.3009532,0.027964553,-0.48714432,-0.24756433,-0.12762323,796.1905,794.9817,803.0403,806.6667,805.4579,-0.1707763671875,0.110107421875,0.99755859375,2.729034423828125,-9.151611328125,4.942169189453125,1,1.0,1.0,1.0,1.0,10.00
2024-10-11 20:38:40.531,0.25942212,-0.41528526,-0.41252366,0.30095568,0.7480492,-0.2498709,-0.08645598,0.42949745,1.1323615,-0.1146093,0.32350206,0.7664327,0.4688048,-0.123365626,0.20094569,0.3009532,0.027964553,-0.48714432,-0.24756433,-0.12762323,793.7729,796.5934,801.4286,803.0403,527.8388,-0.1707763671875,0.110107421875,0.99755859375,2.729034423828125,-9.151611328125,4.942169189453125,1,1.0,1.0,1.0,1.0,10.00
2024-10-11 20:38:40.531,0.25942212,-0.41528526,-0.41252366,0.30095568,0.7480492,-0.2498709,-0.08645598,0.42949745,1.1323615,-0.1146093,0.32350206,0.7664327,0.4688048,-0.123365626,0.20094569,0.3009532,0.027964553,-0.48714432,-0.24756433,-0.12762323,805.05493,801.8315,799.41394,802.6374,264.72528,-0.1707763671875,0.110107421875,0.99755859375,2.729034423828125,-9.151611328125,4.942169189453125,1,1.0,1.0,1.0,1.0,10.00
2024-10-11 20:38:40.532,0.25942212,-0.41528526,-0.41252366,0.30095568,0.7480492,-0.2498709,-0.08645598,0.42949745,1.1323615,-0.1146093,0.32350206,0.7664327,0.4688048,-0.123365626,0.20094569,0.3009532,0.027964553,-0.48714432,-0.24756433,-0.12762323,802.6374,806.6667,798.60803,803.44324,565.31134,-0.1707763671875,0.110107421875,0.99755859375,2.729034423828125,-9.151611328125,4.942169189453125,1,1.0,1.0,1.0,1.0,10.00
2024-10-11 20:38:40.597,0.25942212,-0.41528526,-0.41252366,0.30095568,0.7480492,-0.2498709,-0.08645598,0.42949745,1.1323615,-0.1146093,0.32350206,0.7664327,0.4688048,-0.123365626,0.20094569,0.3009532,0.027964553,-0.48714432,-0.24756433,-0.12762323,791.3553,803.44324,794.9817,805.8608,954.5421,-0.15777587890625,0.10791015625,0.9959716796875,0.58319091796875,-6.661834716796875,-0.426177978515625,1,1.0,1.0,1.0,1.0,10.00
2024-10-11 20:38:40.598,0.25942212,-0.41528526,-0.41252366,0.30095568,0.7480492,-0.2498709,-0.08645598,0.42949745,1.1323615,-0.1146093,0.32350206,0.7664327,0.4688048,-0.123365626,0.20094569,0.3009532,0.027964553,-0.48714432,-0.24756433,-0.12762323,794.57874,801.4286,797.3993,799.81683,605.6044,-0.15777587890625,0.10791015625,0.9959716796875,0.58319091796875,-6.661834716796875,-0.426177978515625,1,1.0,1.0,1.0,1.0,10.00
2024-10-11 20:38:40.599,0.25942212,-0.41528526,-0.41252366,0.30095568,0.7480492,-0.2498709,-0.08645598,0.42949745,1.1323615,-0.1146093,0.32350206,0.7664327,0.4688048,-0.123365626,0.20094569,0.3009532,0.027964553,-0.48714432,-0.24756433,-0.12762323,792.96704,807.0696,803.0403,796.1905,291.3187,-0.15777587890625,0.10791015625,0.9959716796875,0.58319091796875,-6.661834716796875,-0.426177978515625,1,1.0,1.0,1.0,1.0,10.00
2024-10-11 20:38:40.599,0.25942212,-0.41528526,-0.41252366,0.30095568,0.7480492,-0.2498709,-0.08645598,0.42949745,1.1323615,-0.1146093,0.32350206,0.7664327,0.4688048,-0.123365626,0.20094569,0.3009532,0.027964553,-0.48714432,-0.24756433,-0.12762323,792.96704,799.41394,800.6227,794.17584,550.40295,-0.15777587890625,0.10791015625,0.9959716796875,0.58319091796875,-6.661834716796875,-0.426177978515625,1,1.0,1.0,1.0,1.0,10.00
2024-10-11 20:38:40.600,0.25942212,-0.41528526,-0.41252366,0.30095568,0.7480492,-0.2498709,-0.08645598,0.42949745,1.1323615,-0.1146093,0.32350206,0.7664327,0.4688048,-0.123365626,0.20094569,0.3009532,0.027964553,-0.48714432,-0.24756433,-0.12762323,801.02563,796.5934,797.3993,794.17584,526.2271,-0.15777587890625,0.10791015625,0.9959716796875,0.58319091796875,-6.661834716796875,-0.426177978515625,1,1.0,1.0,1.0,1.0,10.00
2024-10-11 20:38:40.600,0.25942212,-0.41528526,-0.41252366,0.30095568,0.7480492,-0.2498709,-0.08645598,0.42949745,1.1323615,-0.1146093,0.32350206,0.7664327,0.4688048,-0.123365626,0.20094569,0.3009532,0.027964553,-0.48714432,-0.24756433,-0.12762323,794.9817,798.20514,800.2198,795.38464,354.9817,-0.15777587890625,0.10791015625,0.9959716796875,0.58319091796875,-6.661834716796875,-0.426177978515625,1,1.0,1.0,1.0,1.0,10.00
2024-10-11 20:38:40.601,0.25942212,-0.41528526,-0.41252366,0.30095568,0.7480492,-0.2498709,-0.08645598,0.42949745,1.1323615,-0.1146093,0.32350206,0.7664327,0.4688048,-0.123365626,0.20094569,0.3009532,0.027964553,-0.48714432,-0.24756433,-0.12762323,798.60803,796.99634,800.6227,794.17584,482.30768,-0.15777587890625,0.10791015625,0.9959716796875,0.58319091796875,-6.661834716796875,-0.426177978515625,1,1.0,1.0,1.0,1.0,10.00
2024-10-11 20:38:40.601,0.25942212,-0.41528526,-0.41252366,0.30095568,0.7480492,-0.2498709,-0.08645598,0.42949745,1.1323615,-0.1146093,0.32350206,0.7664327,0.4688048,-0.123365626,0.20094569,0.3009532,0.027964553,-0.48714432,-0.24756433,-0.12762323,811.50183,800.6227,801.02563,801.4286,692.23444,-0.15777587890625,0.10791015625,0.9959716796875,0.58319091796875,-6.661834716796875,-0.426177978515625,1,1.0,1.0,1.0,1.0,10.00
2024-10-11 20:38:40.602,0.25942212,-0.41528526,-0.41252366,0.30095568,0.7480492,-0.2498709,-0.08645598,0.42949745,1.1323615,-0.1146093,0.32350206,0.7664327,0.4688048,-0.123365626,0.20094569,0.3009532,0.027964553,-0.48714432,-0.24756433,-0.12762323,803.0403,801.8315,804.65204,799.41394,585.05493,-0.15777587890625,0.10791015625,0.9959716796875,0.58319091796875,-6.661834716796875,-0.426177978515625,1,1.0,1.0,1.0,1.0,10.00
2024-10-11 20:38:40.603,0.23594423,-0.3726881,-0.3543439,0.2817177,0.7226227,-0.2730476,-0.13460171,0.42337412,1.1323615,-0.10935369,0.17106637,0.78022754,0.4740232,-0.12093362,0.16746852,0.29309317,0.035289727,-0.49420977,-0.26122048,-0.11254903,796.5934,798.60803,800.2198,797.8022,514.1392,-0.15777587890625,0.10791015625,0.9959716796875,0.58319091796875,-6.661834716796875,-0.426177978515625,1,1.0,1.0,1.0,1.0,10.00
2024-10-11 20:38:40.608,0.23594423,-0.3726881,-0.3543439,0.2817177,0.7226227,-0.2730476,-0.13460171,0.42337412,1.1323615,-0.10935369,0.17106637,0.78022754,0.4740232,-0.12093362,0.16746852,0.29309317,0.035289727,-0.49420977,-0.26122048,-0.11254903,805.05493,796.1905,792.5641,810.696,579.011,-0.15777587890625,0.10791015625,0.9959716796875,0.58319091796875,-6.661834716796875,-0.426177978515625,1,1.0,1.0,1.0,1.0,10.00
2024-10-11 20:38:40.608,0.23594423,-0.3726881,-0.3543439,0.2817177,0.7226227,-0.2730476,-0.13460171,0.42337412,1.1323615,-0.10935369,0.17106637,0.78022754,0.4740232,-0.12093362,0.16746852,0.29309317,0.035289727,-0.49420977,-0.26122048,-0.11254903,801.8315,793.7729,799.011,816.337,736.55676,-0.15777587890625,0.10791015625,0.9959716796875,0.58319091796875,-6.661834716796875,-0.426177978515625,1,1.0,1.0,1.0,1.0,10.00
2024-10-11 20:38:40.609,0.23594423,-0.3726881,-0.3543439,0.2817177,0.7226227,-0.2730476,-0.13460171,0.42337412,1.1323615,-0.10935369,0.17106637,0.78022754,0.4740232,-0.12093362,0.16746852,0.29309317,0.035289727,-0.49420977,-0.26122048,-0.11254903,797.3993,797.3993,804.65204,807.8755,706.337,-0.15777587890625,0.10791015625,0.9959716796875,0.58319091796875,-6.661834716796875,-0.426177978515625,1,1.0,1.0,1.0,1.0,10.00
2024-10-11 20:38:40.610,0.23594423,-0.3726881,-0.3543439,0.2817177,0.7226227,-0.2730476,-0.13460171,0.42337412,1.1323615,-0.10935369,0.17106637,0.78022754,0.4740232,-0.12093362,0.16746852,0.29309317,0.035289727,-0.49420977,-0.26122048,-0.11254903,804.65204,802.6374,804.2491,809.0842,550.40295,-0.15777587890625,0.10791015625,0.9959716796875,0.58319091796875,-6.661834716796875,-0.426177978515625,1,1.0,1.0,1.0,1.0,10.00
2024-10-11 20:38:40.610,0.23594423,-0.3726881,-0.3543439,0.2817177,0.7226227,-0.2730476,-0.13460171,0.42337412,1.1323615,-0.10935369,0.17106637,0.78022754,0.4740232,-0.12093362,0.16746852,0.29309317,0.035289727,-0.49420977,-0.26122048,-0.11254903,803.44324,797.3993,803.44324,810.293,599.5604,-0.15777587890625,0.10791015625,0.9959716796875,0.58319091796875,-6.661834716796875,-0.426177978515625,1,1.0,1.0,1.0,1.0,10.00
2024-10-11 20:38:40.611,0.23594423,-0.3726881,-0.3543439,0.2817177,0.7226227,-0.2730476,-0.13460171,0.42337412,1.1323615,-0.10935369,0.17106637,0.78022754,0.4740232,-0.12093362,0.16746852,0.29309317,0.035289727,-0.49420977,-0.26122048,-0.11254903,796.1905,791.75824,803.44324,805.8608,951.31866,-0.15777587890625,0.10791015625,0.9959716796875,0.58319091796875,-6.661834716796875,-0.426177978515625,1,1.0,1.0,1.0,1.0,10.00
2024-10-11 20:38:40.611,0.23594423,-0.3726881,-0.3543439,0.2817177,0.7226227,-0.2730476,-0.13460171,0.42337412,1.1323615,-0.10935369,0.17106637,0.78022754,0.4740232,-0.12093362,0.16746852,0.29309317,0.035289727,-0.49420977,-0.26122048,-0.11254903,797.3993,794.17584,803.0403,793.36993,864.2857,-0.15777587890625,0.10791015625,0.9959716796875,0.58319091796875,-6.661834716796875,-0.426177978515625,1,1.0,1.0,1.0,1.0,10.00
2024-10-11 20:38:40.612,0.23594423,-0.3726881,-0.3543439,0.2817177,0.7226227,-0.2730476,-0.13460171,0.42337412,1.1323615,-0.10935369,0.17106637,0.78022754,0.4740232,-0.12093362,0.16746852,0.29309317,0.035289727,-0.49420977,-0.26122048,-0.11254903,797.8022,793.7729,800.2198,788.5348,626.1539,-0.15777587890625,0.10791015625,0.9959716796875,0.58319091796875,-6.661834716796875,-0.426177978515625,1,1.0,1.0,1.0,1.0,10.00
2024-10-11 20:38:40.612,0.23594423,-0.3726881,-0.3543439,0.2817177,0.7226227,-0.2730476,-0.13460171,0.42337412,1.1323615,-0.10935369,0.17106637,0.78022754,0.4740232,-0.12093362,0.16746852,0.29309317,0.035289727,-0.49420977,-0.26122048,-0.11254903,783.2967,788.1319,796.5934,788.1319,735.7509,-0.15777587890625,0.10791015625,0.9959716796875,0.58319091796875,-6.661834716796875,-0.426177978515625,1,1.0,1.0,1.0,1.0,10.00
2024-10-11 20:38:40.613,0.23594423,-0.3726881,-0.3543439,0.2817177,0.7226227,-0.2730476,-0.13460171,0.42337412,1.1323615,-0.10935369,0.17106637,0.78022754,0.4740232,-0.12093362,0.16746852,0.29309317,0.035289727,-0.49420977,-0.26122048,-0.11254903,791.75824,795.78754,800.2198,792.96704,769.59705,-0.15777587890625,0.10791015625,0.9959716796875,0.58319091796875,-6.661834716796875,-0.426177978515625,1,1.0,1.0,1.0,1.0,10.00
2024-10-11 20:38:40.614,0.23594423,-0.3726881,-0.3543439,0.2817177,0.7226227,-0.2730476,-0.13460171,0.42337412,1.1323615,-0.10935369,0.17106637,0.78022754,0.4740232,-0.12093362,0.16746852,0.29309317,0.035289727,-0.49420977,-0.26122048,-0.11254903,799.81683,803.0403,797.8022,798.60803,609.2308,-0.15777587890625,0.10791015625,0.9959716796875,0.58319091796875,-6.661834716796875,-0.426177978515625,1,1.0,1.0,1.0,1.0,10.00
2024-10-11 20:38:40.614,0.23594423,-0.3726881,-0.3543439,0.2817177,0.7226227,-0.2730476,-0.13460171,0.42337412,1.1323615,-0.10935369,0.17106637,0.78022754,0.4740232,-0.12093362,0.16746852,0.29309317,0.035289727,-0.49420977,-0.26122048,-0.11254903,797.3993,799.011,796.1905,794.57874,529.0476,-0.15777587890625,0.10791015625,0.9959716796875,0.58319091796875,-6.661834716796875,-0.426177978515625,1,1.0,1.0,1.0,1.0,10.00
2024-10-11 20:38:40.615,0.23594423,-0.3726881,-0.3543439,0.2817177,0.7226227,-0.2730476,-0.13460171,0.42337412,1.1323615,-0.10935369,0.17106637,0.78022754,0.4740232,-0.12093362,0.16746852,0.29309317,0.035289727,-0.49420977,-0.26122048,-0.11254903,796.99634,796.99634,804.2491,796.5934,627.3626,-0.15777587890625,0.10791015625,0.9959716796875,0.58319091796875,-6.661834716796875,-0.426177978515625,1,1.0,1.0,1.0,1.0,10.00
2024-10-11 20:38:40.615,0.23594423,-0.3726881,-0.3543439,0.2817177,0.7226227,-0.2730476,-0.13460171,0.42337412,1.1323615,-0.10935369,0.17106637,0.78022754,0.4740232,-0.12093362,0.16746852,0.29309317,0.035289727,-0.49420977,-0.26122048,-0.11254903,787.326,792.1612,809.4872,795.38464,703.5165,-0.15777587890625,0.10791015625,0.9959716796875,0.58319091796875,-6.661834716796875,-0.426177978515625,1,1.0,1.0,1.0,1.0,10.00
2024-10-11 20:38:40.665,0.23594423,-0.3726881,-0.3543439,0.2817177,0.7226227,-0.2730476,-0.13460171,0.42337412,1.1323615,-0.10935369,0.17106637,0.78022754,0.4740232,-0.12093362,0.16746852,0.29309317,0.035289727,-0.49420977,-0.26122048,-0.11254903,782.8938,792.5641,813.5165,793.7729,580.6227,-0.15020751953125,0.10540771484375,0.99310302734375,1.577606201171875,-5.136566162109375,-4.5458984375,1,1.0,1.0,1.0,1.0,10.00
2024-10-11 20:38:40.666,0.23594423,-0.3726881,-0.3543439,0.2817177,0.7226227,-0.2730476,-0.13460171,0.42337412,1.1323615,-0.10935369,0.17106637,0.78022754,0.4740232,-0.12093362,0.16746852,0.29309317,0.035289727,-0.49420977,-0.26122048,-0.11254903,792.5641,794.57874,811.50183,803.44324,475.05493,-0.15020751953125,0.10540771484375,0.99310302734375,1.577606201171875,-5.136566162109375,-4.5458984375,1,1.0,1.0,1.0,1.0,10.00
2024-10-11 20:38:40.667,0.23594423,-0.3726881,-0.3543439,0.2817177,0.7226227,-0.2730476,-0.13460171,0.42337412,1.1323615,-0.10935369,0.17106637,0.78022754,0.4740232,-0.12093362,0.16746852,0.29309317,0.035289727,-0.49420977,-0.26122048,-0.11254903,792.1612,792.5641,806.6667,805.8608,644.68866,-0.15020751953125,0.10540771484375,0.99310302734375,1.577606201171875,-5.136566162109375,-4.5458984375,1,1.0,1.0,1.0,1.0,10.00
2024-10-11 20:38:40.667,0.23594423,-0.3726881,-0.3543439,0.2817177,0.7226227,-0.2730476,-0.13460171,0.42337412,1.1323615,-0.10935369,0.17106637,0.78022754,0.4740232,-0.12093362,0.16746852,0.29309317,0.035289727,-0.49420977,-0.26122048,-0.11254903,789.34064,791.3553,802.6374,802.6374,726.8865,-0.15020751953125,0.10540771484375,0.99310302734375,1.577606201171875,-5.136566162109375,-4.5458984375,1,1.0,1.0,1.0,1.0,10.00
2024-10-11 20:38:40.668,0.23594423,-0.3726881,-0.3543439,0.2817177,0.7226227,-0.2730476,-0.13460171,0.42337412,1.1323615,-0.10935369,0.17106637,0.78022754,0.4740232,-0.12093362,0.16746852,0.29309317,0.035289727,-0.49420977,-0.26122048,-0.11254903,788.5348,792.5641,803.8461,794.57874,449.67032,-0.15020751953125,0.10540771484375,0.99310302734375,1.577606201171875,-5.136566162109375,-4.5458984375,1,1.0,1.0,1.0,1.0,10.00
2024-10-11 20:38:40.669,0.23594423,-0.3726881,-0.3543439,0.2817177,0.7226227,-0.2730476,-0.13460171,0.42337412,1.1323615,-0.10935369,0.17106637,0.78022754,0.4740232,-0.12093362,0.16746852,0.29309317,0.035289727,-0.49420977,-0.26122048,-0.11254903,789.34064,794.17584,803.8461,790.14655,482.71063,-0.15020751953125,0.10540771484375,0.99310302734375,1.577606201171875,-5.136566162109375,-4.5458984375,1,1.0,1.0,1.0,1.0,10.00
2024-10-11 20:38:40.669,0.23594423,-0.3726881,-0.3543439,0.2817177,0.7226227,-0.2730476,-0.13460171,0.42337412,1.1323615,-0.10935369,0.17106637,0.78022754,0.4740232,-0.12093362,0.16746852,0.29309317,0.035289727,-0.49420977,-0.26122048,-0.11254903,796.1905,791.3553,795.78754,796.99634,803.0403,-0.15020751953125,0.10540771484375,0.99310302734375,1.577606201171875,-5.136566162109375,-4.5458984375,1,1.0,1.0,1.0,1.0,10.00
2024-10-11 20:38:40.670,0.23594423,-0.3726881,-0.3543439,0.2817177,0.7226227,-0.2730476,-0.13460171,0.42337412,1.1323615,-0.10935369,0.17106637,0.78022754,0.4740232,-0.12093362,0.16746852,0.29309317,0.035289727,-0.49420977,-0.26122048,-0.11254903,792.5641,792.5641,802.6374,799.41394,1115.3114,-0.15020751953125,0.10540771484375,0.99310302734375,1.577606201171875,-5.136566162109375,-4.5458984375,1,1.0,1.0,1.0,1.0,10.00
2024-10-11 20:38:40.670,0.23594423,-0.3726881,-0.3543439,0.2817177,0.7226227,-0.2730476,-0.13460171,0.42337412,1.1323615,-0.10935369,0.17106637,0.78022754,0.4740232,-0.12093362,0.16746852,0.29309317,0.035289727,-0.49420977,-0.26122048,-0.11254903,780.07324,796.5934,809.0842,795.78754,833.2601,-0.15020751953125,0.10540771484375,0.99310302734375,1.577606201171875,-5.136566162109375,-4.5458984375,1,1.0,1.0,1.0,1.0,10.00
2024-10-11 20:38:40.671,0.23594423,-0.3726881,-0.3543439,0.2817177,0.7226227,-0.2730476,-0.13460171,0.42337412,1.1323615,-0.10935369,0.17106637,0.78022754,0.4740232,-0.12093362,0.16746852,0.29309317,0.035289727,-0.49420977,-0.26122048,-0.11254903,788.93774,797.8022,806.6667,796.99634,442.82053,-0.15020751953125,0.10540771484375,0.99310302734375,1.577606201171875,-5.136566162109375,-4.5458984375,1,1.0,1.0,1.0,1.0,10.00
2024-10-11 20:38:40.671,0.23594423,-0.3726881,-0.3543439,0.2817177,0.7226227,-0.2730476,-0.13460171,0.42337412,1.1323615,-0.10935369,0.17106637,0.78022754,0.4740232,-0.12093362,0.16746852,0.29309317,0.035289727,-0.49420977,-0.26122048,-0.11254903,792.1612,796.99634,803.8461,797.3993,488.35165,-0.15020751953125,0.10540771484375,0.99310302734375,1.577606201171875,-5.136566162109375,-4.5458984375,1,1.0,1.0,1.0,1.0,10.00
2024-10-11 20:38:40.672,0.21575451,-0.3430132,-0.27120227,0.25201675,0.69520193,-0.2832773,-0.17302135,0.4026902,1.1323615,-0.100778855,0.00128214,0.7200278,0.47044668,-0.11132839,0.13534963,0.29088312,0.03841226,-0.49439496,-0.26604718,-0.09814397,784.5055,796.99634,800.6227,788.5348,472.63736,-0.15020751953125,0.10540771484375,0.99310302734375,1.577606201171875,-5.136566162109375,-4.5458984375,1,1.0,1.0,1.0,1.0,10.00
2024-10-11 20:38:40.770,0.21575451,-0.3430132,-0.27120227,0.25201675,0.69520193,-0.2832773,-0.17302135,0.4026902,1.1323615,-0.100778855,0.00128214,0.7200278,0.47044668,-0.11132839,0.13534963,0.29088312,0.03841226,-0.49439496,-0.26604718,-0.09814397,795.78754,797.3993,802.6374,790.14655,464.9817,-0.119873046875,0.115966796875,0.99774169921875,2.28790283203125,-4.18701171875,-4.08233642578125,1,1.0,1.0,1.0,1.0,10.00
2024-10-11 20:38:40.771,0.21575451,-0.3430132,-0.27120227,0.25201675,0.69520193,-0.2832773,-0.17302135,0.4026902,1.1323615,-0.100778855,0.00128214,0.7200278,0.47044668,-0.11132839,0.13534963,0.29088312,0.03841226,-0.49439496,-0.26604718,-0.09814397,788.5348,796.99634,803.0403,794.17584,510.1099,-0.119873046875,0.115966796875,0.99774169921875,2.28790283203125,-4.18701171875,-4.08233642578125,1,1.0,1.0,1.0,1.0,10.00
2024-10-11 20:38:40.772,0.21575451,-0.3430132,-0.27120227,0.25201675,0.69520193,-0.2832773,-0.17302135,0.4026902,1.1323615,-0.100778855,0.00128214,0.7200278,0.47044668,-0.11132839,0.13534963,0.29088312,0.03841226,-0.49439496,-0.26604718,-0.09814397,786.1172,798.60803,803.0403,794.9817,504.8718,-0.119873046875,0.115966796875,0.99774169921875,2.28790283203125,-4.18701171875,-4.08233642578125,1,1.0,1.0,1.0,1.0,10.00
2024-10-11 20:38:40.772,0.21575451,-0.3430132,-0.27120227,0.25201675,0.69520193,-0.2832773,-0.17302135,0.4026902,1.1323615,-0.100778855,0.00128214,0.7200278,0.47044668,-0.11132839,0.13534963,0.29088312,0.03841226,-0.49439496,-0.26604718,-0.09814397,799.81683,798.60803,798.20514,792.96704,485.93405,-0.119873046875,0.115966796875,0.99774169921875,2.28790283203125,-4.18701171875,-4.08233642578125,1,1.0,1.0,1.0,1.0,10.00
2024-10-11 20:38:40.773,0.21575451,-0.3430132,-0.27120227,0.25201675,0.69520193,-0.2832773,-0.17302135,0.4026902,1.1323615,-0.100778855,0.00128214,0.7200278,0.47044668,-0.11132839,0.13534963,0.29088312,0.03841226,-0.49439496,-0.26604718,-0.09814397,795.78754,801.02563,795.38464,785.7143,476.66666,-0.119873046875,0.115966796875,0.99774169921875,2.28790283203125,-4.18701171875,-4.08233642578125,1,1.0,1.0,1.0,1.0,10.00
2024-10-11 20:38:40.773,0.21575451,-0.3430132,-0.27120227,0.25201675,0.69520193,-0.2832773,-0.17302135,0.4026902,1.1323615,-0.100778855,0.00128214,0.7200278,0.47044668,-0.11132839,0.13534963,0.29088312,0.03841226,-0.49439496,-0.26604718,-0.09814397,794.9817,799.011,804.2491,790.14655,758.71796,-0.119873046875,0.115966796875,0.99774169921875,2.28790283203125,-4.18701171875,-4.08233642578125,1,1.0,1.0,1.0,1.0,10.00
2024-10-11 20:38:40.774,0.21575451,-0.3430132,-0.27120227,0.25201675,0.69520193,-0.2832773,-0.17302135,0.4026902,1.1323615,-0.100778855,0.00128214,0.7200278,0.47044668,-0.11132839,0.13534963,0.29088312,0.03841226,-0.49439496,-0.26604718,-0.09814397,802.6374,793.7729,803.8461,797.3993,928.7546,-0.119873046875,0.115966796875,0.99774169921875,2.28790283203125,-4.18701171875,-4.08233642578125,1,1.0,1.0,1.0,1.0,10.00
2024-10-11 20:38:40.775,0.21575451,-0.3430132,-0.27120227,0.25201675,0.69520193,-0.2832773,-0.17302135,0.4026902,1.1323615,-0.100778855,0.00128214,0.7200278,0.47044668,-0.11132839,0.13534963,0.29088312,0.03841226,-0.49439496,-0.26604718,-0.09814397,800.2198,795.38464,806.26373,792.1612,652.74725,-0.119873046875,0.115966796875,0.99774169921875,2.28790283203125,-4.18701171875,-4.08233642578125,1,1.0,1.0,1.0,1.0,10.00
2024-10-11 20:38:40.775,0.21575451,-0.3430132,-0.27120227,0.25201675,0.69520193,-0.2832773,-0.17302135,0.4026902,1.1323615,-0.100778855,0.00128214,0.7200278,0.47044668,-0.11132839,0.13534963,0.29088312,0.03841226,-0.49439496,-0.26604718,-0.09814397,803.44324,799.011,808.2784,789.34064,545.9707,-0.119873046875,0.115966796875,0.99774169921875,2.28790283203125,-4.18701171875,-4.08233642578125,1,1.0,1.0,1.0,1.0,10.00
2024-10-11 20:38:40.776,0.21575451,-0.3430132,-0.27120227,0.25201675,0.69520193,-0.2832773,-0.17302135,0.4026902,1.1323615,-0.100778855,0.00128214,0.7200278,0.47044668,-0.11132839,0.13534963,0.29088312,0.03841226,-0.49439496,-0.26604718,-0.09814397,797.8022,797.3993,803.44324,786.9231,539.12085,-0.119873046875,0.115966796875,0.99774169921875,2.28790283203125,-4.18701171875,-4.08233642578125,1,1.0,1.0,1.0,1.0,10.00
2024-10-11 20:38:40.776,0.21575451,-0.3430132,-0.27120227,0.25201675,0.69520193,-0.2832773,-0.17302135,0.4026902,1.1323615,-0.100778855,0.00128214,0.7200278,0.47044668,-0.11132839,0.13534963,0.29088312,0.03841226,-0.49439496,-0.26604718,-0.09814397,797.8022,797.3993,800.2198,794.17584,583.8461,-0.119873046875,0.115966796875,0.99774169921875,2.28790283203125,-4.18701171875,-4.08233642578125,1,1.0,1.0,1.0,1.0,10.00
2024-10-11 20:38:40.777,0.21575451,-0.3430132,-0.27120227,0.25201675,0.69520193,-0.2832773,-0.17302135,0.4026902,1.1323615,-0.100778855,0.00128214,0.7200278,0.47044668,-0.11132839,0.13534963,0.29088312,0.03841226,-0.49439496,-0.26604718,-0.09814397,808.2784,804.2491,796.99634,803.0403,624.94507,-0.119873046875,0.115966796875,0.99774169921875,2.28790283203125,-4.18701171875,-4.08233642578125,1,1.0,1.0,1.0,1.0,10.00
2024-10-11 20:38:40.806,0.21575451,-0.3430132,-0.27120227,0.25201675,0.69520193,-0.2832773,-0.17302135,0.4026902,1.1323615,-0.100778855,0.00128214,0.7200278,0.47044668,-0.11132839,0.13534963,0.29088312,0.03841226,-0.49439496,-0.26604718,-0.09814397,797.3993,800.6227,801.02563,798.20514,520.989,-0.1236572265625,0.11859130859375,0.9937744140625,1.71966552734375,-2.310333251953125,-2.49725341796875,1,1.0,1.0,1.0,1.0,10.00
2024-10-11 20:38:40.807,0.21575451,-0.3430132,-0.27120227,0.25201675,0.69520193,-0.2832773,-0.17302135,0.4026902,1.1323615,-0.100778855,0.00128214,0.7200278,0.47044668,-0.11132839,0.13534963,0.29088312,0.03841226,-0.49439496,-0.26604718,-0.09814397,789.7436,792.1612,801.02563,790.9524,705.12823,-0.1236572265625,0.11859130859375,0.9937744140625,1.71966552734375,-2.310333251953125,-2.49725341796875,1,1.0,1.0,1.0,1.0,10.00
2024-10-11 20:38:40.808,0.21575451,-0.3430132,-0.27120227,0.25201675,0.69520193,-0.2832773,-0.17302135,0.4026902,1.1323615,-0.100778855,0.00128214,0.7200278,0.47044668,-0.11132839,0.13534963,0.29088312,0.03841226,-0.49439496,-0.26604718,-0.09814397,788.1319,795.78754,802.23444,792.1612,960.18317,-0.1236572265625,0.11859130859375,0.9937744140625,1.71966552734375,-2.310333251953125,-2.49725341796875,1,1.0,1.0,1.0,1.0,10.00
2024-10-11 20:38:40.808,0.21575451,-0.3430132,-0.27120227,0.25201675,0.69520193,-0.2832773,-0.17302135,0.4026902,1.1323615,-0.100778855,0.00128214,0.7200278,0.47044668,-0.11132839,0.13534963,0.29088312,0.03841226,-0.49439496,-0.26604718,-0.09814397,790.54944,796.5934,805.8608,795.78754,699.4872,-0.1236572265625,0.11859130859375,0.9937744140625,1.71966552734375,-2.310333251953125,-2.49725341796875,1,1.0,1.0,1.0,1.0,10.00
2024-10-11 20:38:40.809,0.21575451,-0.3430132,-0.27120227,0.25201675,0.69520193,-0.2832773,-0.17302135,0.4026902,1.1323615,-0.100778855,0.00128214,0.7200278,0.47044668,-0.11132839,0.13534963,0.29088312,0.03841226,-0.49439496,-0.26604718,-0.09814397,790.14655,790.9524,805.8608,792.96704,669.2674,-0.1236572265625,0.11859130859375,0.9937744140625,1.71966552734375,-2.310333251953125,-2.49725341796875,1,1.0,1.0,1.0,1.0,10.00
2024-10-11 20:38:40.809,0.21575451,-0.3430132,-0.27120227,0.25201675,0.69520193,-0.2832773,-0.17302135,0.4026902,1.1323615,-0.100778855,0.00128214,0.7200278,0.47044668,-0.11132839,0.13534963,0.29088312,0.03841226,-0.49439496,-0.26604718,-0.09814397,783.2967,785.31134,802.6374,785.7143,1000.87915,-0.1236572265625,0.11859130859375,0.9937744140625,1.71966552734375,-2.310333251953125,-2.49725341796875,1,1.0,1.0,1.0,1.0,10.00
2024-10-11 20:38:40.810,0.21575451,-0.3430132,-0.27120227,0.25201675,0.69520193,-0.2832773,-0.17302135,0.4026902,1.1323615,-0.100778855,0.00128214,0.7200278,0.47044668,-0.11132839,0.13534963,0.29088312,0.03841226,-0.49439496,-0.26604718,-0.09814397,788.5348,788.93774,799.41394,792.1612,1001.28204,-0.1236572265625,0.11859130859375,0.9937744140625,1.71966552734375,-2.310333251953125,-2.49725341796875,1,1.0,1.0,1.0,1.0,10.00
2024-10-11 20:38:40.811,0.21575451,-0.3430132,-0.27120227,0.25201675,0.69520193,-0.2832773,-0.17302135,0.4026902,1.1323615,-0.100778855,0.00128214,0.7200278,0.47044668,-0.11132839,0.13534963,0.29088312,0.03841226,-0.49439496,-0.26604718,-0.09814397,793.36993,793.7729,799.011,795.78754,758.71796,-0.1236572265625,0.11859130859375,0.9937744140625,1.71966552734375,-2.310333251953125,-2.49725341796875,1,1.0,1.0,1.0,1.0,10.00
2024-10-11 20:38:40.811,0.21575451,-0.3430132,-0.27120227,0.25201675,0.69520193,-0.2832773,-0.17302135,0.4026902,1.1323615,-0.100778855,0.00128214,0.7200278,0.47044668,-0.11132839,0.13534963,0.29088312,0.03841226,-0.49439496,-0.26604718,-0.09814397,799.011,791.75824,802.23444,797.8022,714.7985,-0.1236572265625,0.11859130859375,0.9937744140625,1.71966552734375,-2.310333251953125,-2.49725341796875,1,1.0,1.0,1.0,1.0,10.00
2024-10-11 20:38:40.812,0.21575451,-0.3430132,-0.27120227,0.25201675,0.69520193,-0.2832773,-0.17302135,0.4026902,1.1323615,-0.100778855,0.00128214,0.7200278,0.47044668,-0.11132839,0.13534963,0.29088312,0.03841226,-0.49439496,-0.26604718,-0.09814397,803.0403,794.57874,803.0403,802.23444,946.8865,-0.1236572265625,0.11859130859375,0.9937744140625,1.71966552734375,-2.310333251953125,-2.49725341796875,1,1.0,1.0,1.0,1.0,10.00
2024-10-11 20:38:40.812,0.21575451,-0.3430132,-0.27120227,0.25201675,0.69520193,-0.2832773,-0.17302135,0.4026902,1.1323615,-0.100778855,0.00128214,0.7200278,0.47044668,-0.11132839,0.13534963,0.29088312,0.03841226,-0.49439496,-0.26604718,-0.09814397,805.05493,803.0403,800.2198,799.011,887.25275,-0.1236572265625,0.11859130859375,0.9937744140625,1.71966552734375,-2.310333251953125,-2.49725341796875,1,1.0,1.0,1.0,1.0,10.00
2024-10-11 20:38:40.813,0.21575451,-0.3430132,-0.27120227,0.25201675,0.69520193,-0.2832773,-0.17302135,0.4026902,1.1323615,-0.100778855,0.00128214,0.7200278,0.47044668,-0.11132839,0.13534963,0.29088312,0.03841226,-0.49439496,-0.26604718,-0.09814397,811.9048,796.5934,803.44324,794.17584,621.31866,-0.1236572265625,0.11859130859375,0.9937744140625,1.71966552734375,-2.310333251953125,-2.49725341796875,1,1.0,1.0,1.0,1.0,10.00
2024-10-11 20:38:40.933,0.21575451,-0.3430132,-0.27120227,0.25201675,0.69520193,-0.2832773,-0.17302135,0.4026902,1.1323615,-0.100778855,0.00128214,0.7200278,0.47044668,-0.11132839,0.13534963,0.29088312,0.03841226,-0.49439496,-0.26604718,-0.09814397,799.41394,792.1612,807.0696,789.34064,600.3663,-0.1378173828125,0.11932373046875,0.9925537109375,1.6448974609375,-1.233673095703125,-2.46734619140625,1,1.0,1.0,1.0,1.0,10.00
2024-10-11 20:38:40.934,0.19775183,-0.32889852,-0.18725063,0.23663782,0.669881,-0.2733691,-0.20113899,0.3882578,1.1323615,-0.077663824,-0.009392204,0.68831426,0.4600329,-0.09843627,0.11150876,0.29060954,0.03552046,-0.49438572,-0.26455772,-0.07451124,789.7436,797.3993,804.65204,792.1612,800.2198,-0.1378173828125,0.11932373046875,0.9925537109375,1.6448974609375,-1.233673095703125,-2.46734619140625,1,1.0,1.0,1.0,1.0,10.00
2024-10-11 20:38:40.939,0.19775183,-0.32889852,-0.18725063,0.23663782,0.669881,-0.2733691,-0.20113899,0.3882578,1.1323615,-0.077663824,-0.009392204,0.68831426,0.4600329,-0.09843627,0.11150876,0.29060954,0.03552046,-0.49438572,-0.26455772,-0.07451124,789.7436,792.96704,804.65204,795.78754,747.03296,-0.1378173828125,0.11932373046875,0.9925537109375,1.6448974609375,-1.233673095703125,-2.46734619140625,1,1.0,1.0,1.0,1.0,10.00
2024-10-11 20:38:40.940,0.19775183,-0.32889852,-0.18725063,0.23663782,0.669881,-0.2733691,-0.20113899,0.3882578,1.1323615,-0.077663824,-0.009392204,0.68831426,0.4600329,-0.09843627,0.11150876,0.29060954,0.03552046,-0.49438572,-0.26455772,-0.07451124,795.78754,794.9817,808.2784,787.72894,576.99634,-0.1378173828125,0.11932373046875,0.9925537109375,1.6448974609375,-1.233673095703125,-2.46734619140625,1,1.0,1.0,1.0,1.0,10.00
2024-10-11 20:38:40.940,0.19775183,-0.32889852,-0.18725063,0.23663782,0.669881,-0.2733691,-0.20113899,0.3882578,1.1323615,-0.077663824,-0.009392204,0.68831426,0.4600329,-0.09843627,0.11150876,0.29060954,0.03552046,-0.49438572,-0.26455772,-0.07451124,803.8461,799.81683,811.0989,784.5055,666.04395,-0.1378173828125,0.11932373046875,0.9925537109375,1.6448974609375,-1.233673095703125,-2.46734619140625,1,1.0,1.0,1.0,1.0,10.00
2024-10-11 20:38:40.941,0.19775183,-0.32889852,-0.18725063,0.23663782,0.669881,-0.2733691,-0.20113899,0.3882578,1.1323615,-0.077663824,-0.009392204,0.68831426,0.4600329,-0.09843627,0.11150876,0.29060954,0.03552046,-0.49438572,-0.26455772,-0.07451124,791.75824,793.36993,806.26373,790.14655,848.1685,-0.1378173828125,0.11932373046875,0.9925537109375,1.6448974609375,-1.233673095703125,-2.46734619140625,1,1.0,1.0,1.0,1.0,10.00
2024-10-11 20:38:40.941,0.19775183,-0.32889852,-0.18725063,0.23663782,0.669881,-0.2733691,-0.20113899,0.3882578,1.1323615,-0.077663824,-0.009392204,0.68831426,0.4600329,-0.09843627,0.11150876,0.29060954,0.03552046,-0.49438572,-0.26455772,-0.07451124,786.9231,794.17584,806.26373,791.75824,788.5348,-0.1378173828125,0.11932373046875,0.9925537109375,1.6448974609375,-1.233673095703125,-2.46734619140625,1,1.0,1.0,1.0,1.0,10.00
2024-10-11 20:38:40.942,0.19775183,-0.32889852,-0.18725063,0.23663782,0.669881,-0.2733691,-0.20113899,0.3882578,1.1323615,-0.077663824,-0.009392204,0.68831426,0.4600329,-0.09843627,0.11150876,0.29060954,0.03552046,-0.49438572,-0.26455772,-0.07451124,794.9817,801.8315,807.47253,792.5641,693.8461,-0.1378173828125,0.11932373046875,0.9925537109375,1.6448974609375,-1.233673095703125,-2.46734619140625,1,1.0,1.0,1.0,1.0,10.00
2024-10-11 20:38:40.942,0.19775183,-0.32889852,-0.18725063,0.23663782,0.669881,-0.2733691,-0.20113899,0.3882578,1.1323615,-0.077663824,-0.009392204,0.68831426,0.4600329,-0.09843627,0.11150876,0.29060954,0.03552046,-0.49438572,-0.26455772,-0.07451124,802.6374,794.57874,804.65204,796.5934,742.1978,-0.1378173828125,0.11932373046875,0.9925537109375,1.6448974609375,-1.233673095703125,-2.46734619140625,1,1.0,1.0,1.0,1.0,10.00
2024-10-11 20:38:40.943,0.19775183,-0.32889852,-0.18725063,0.23663782,0.669881,-0.2733691,-0.20113899,0.3882578,1.1323615,-0.077663824,-0.009392204,0.68831426,0.4600329,-0.09843627,0.11150876,0.29060954,0.03552046,-0.49438572,-0.26455772,-0.07451124,798.60803,792.5641,807.47253,799.81683,726.8865,-0.1378173828125,0.11932373046875,0.9925537109375,1.6448974609375,-1.233673095703125,-2.46734619140625,1,1.0,1.0,1.0,1.0,10.00
2024-10-11 20:38:40.944,0.19775183,-0.32889852,-0.18725063,0.23663782,0.669881,-0.2733691,-0.20113899,0.3882578,1.1323615,-0.077663824,-0.009392204,0.68831426,0.4600329,-0.09843627,0.11150876,0.29060954,0.03552046,-0.49438572,-0.26455772,-0.07451124,792.5641,793.36993,805.4579,794.17584,620.5128,-0.1378173828125,0.11932373046875,0.9925537109375,1.6448974609375,-1.233673095703125,-2.46734619140625,1,1.0,1.0,1.0,1.0,10.00
2024-10-11 20:38:40.944,0.19775183,-0.32889852,-0.18725063,0.23663782,0.669881,-0.2733691,-0.20113899,0.3882578,1.1323615,-0.077663824,-0.009392204,0.68831426,0.4600329,-0.09843627,0.11150876,0.29060954,0.03552046,-0.49438572,-0.26455772,-0.07451124,800.6227,794.9817,803.44324,793.7729,574.17584,-0.1378173828125,0.11932373046875,0.9925537109375,1.6448974609375,-1.233673095703125,-2.46734619140625,1,1.0,1.0,1.0,1.0,10.00
2024-10-11 20:38:41.035,0.19775183,-0.32889852,-0.18725063,0.23663782,0.669881,-0.2733691,-0.20113899,0.3882578,1.1323615,-0.077663824,-0.009392204,0.68831426,0.4600329,-0.09843627,0.11150876,0.29060954,0.03552046,-0.49438572,-0.26455772,-0.07451124,802.23444,799.011,803.8461,799.81683,690.6227,-0.1483154296875,0.11114501953125,0.9923095703125,0.829925537109375,1.816864013671875,-2.654266357421875,1,1.0,1.0,1.0,1.0,10.00
2024-10-11 20:38:41.036,0.19775183,-0.32889852,-0.18725063,0.23663782,0.669881,-0.2733691,-0.20113899,0.3882578,1.1323615,-0.077663824,-0.009392204,0.68831426,0.4600329,-0.09843627,0.11150876,0.29060954,0.03552046,-0.49438572,-0.26455772,-0.07451124,791.3553,798.60803,804.2491,796.5934,807.0696,-0.1483154296875,0.11114501953125,0.9923095703125,0.829925537109375,1.816864013671875,-2.654266357421875,1,1.0,1.0,1.0,1.0,10.00
2024-10-11 20:38:41.037,0.19775183,-0.32889852,-0.18725063,0.23663782,0.669881,-0.2733691,-0.20113899,0.3882578,1.1323615,-0.077663824,-0.009392204,0.68831426,0.4600329,-0.09843627,0.11150876,0.29060954,0.03552046,-0.49438572,-0.26455772,-0.07451124,799.41394,800.2198,798.60803,789.7436,701.50183,-0.1483154296875,0.11114501953125,0.9923095703125,0.829925537109375,1.816864013671875,-2.654266357421875,1,1.0,1.0,1.0,1.0,10.00
2024-10-11 20:38:41.037,0.19775183,-0.32889852,-0.18725063,0.23663782,0.669881,-0.2733691,-0.20113899,0.3882578,1.1323615,-0.077663824,-0.009392204,0.68831426,0.4600329,-0.09843627,0.11150876,0.29060954,0.03552046,-0.49438572,-0.26455772,-0.07451124,811.9048,801.8315,794.9817,790.54944,690.6227,-0.1483154296875,0.11114501953125,0.9923095703125,0.829925537109375,1.816864013671875,-2.654266357421875,1,1.0,1.0,1.0,1.0,10.00
2024-10-11 20:38:41.038,0.19775183,-0.32889852,-0.18725063,0.23663782,0.669881,-0.2733691,-0.20113899,0.3882578,1.1323615,-0.077663824,-0.009392204,0.68831426,0.4600329,-0.09843627,0.11150876,0.29060954,0.03552046,-0.49438572,-0.26455772,-0.07451124,802.6374,798.60803,802.23444,796.99634,843.73627,-0.1483154296875,0.11114501953125,0.9923095703125,0.829925537109375,1.816864013671875,-2.654266357421875,1,1.0,1.0,1.0,1.0,10.00
2024-10-11 20:38:41.038,0.19775183,-0.32889852,-0.18725063,0.23663782,0.669881,-0.2733691,-0.20113899,0.3882578,1.1323615,-0.077663824,-0.009392204,0.68831426,0.4600329,-0.09843627,0.11150876,0.29060954,0.03552046,-0.49438572,-0.26455772,-0.07451124,799.81683,793.36993,800.6227,801.8315,886.4469,-0.1483154296875,0.11114501953125,0.9923095703125,0.829925537109375,1.816864013671875,-2.654266357421875,1,1.0,1.0,1.0,1.0,10.00
2024-10-11 20:38:41.039,0.19775183,-0.32889852,-0.18725063,0.23663782,0.669881,-0.2733691,-0.20113899,0.3882578,1.1323615,-0.077663824,-0.009392204,0.68831426,0.4600329,-0.09843627,0.11150876,0.29060954,0.03552046,-0.49438572,-0.26455772,-0.07451124,803.8461,796.5934,804.65204,803.0403,786.52014,-0.1483154296875,0.11114501953125,0.9923095703125,0.829925537109375,1.816864013671875,-2.654266357421875,1,1.0,1.0,1.0,1.0,10.00
2024-10-11 20:38:41.040,0.19775183,-0.32889852,-0.18725063,0.23663782,0.669881,-0.2733691,-0.20113899,0.3882578,1.1323615,-0.077663824,-0.009392204,0.68831426,0.4600329,-0.09843627,0.11150876,0.29060954,0.03552046,-0.49438572,-0.26455772,-0.07451124,799.41394,801.4286,806.6667,802.6374,752.27106,-0.1483154296875,0.11114501953125,0.9923095703125,0.829925537109375,1.816864013671875,-2.654266357421875,1,1.0,1.0,1.0,1.0,10.00
2024-10-11 20:38:41.040,0.19775183,-0.32889852,-0.18725063,0.23663782,0.669881,-0.2733691,-0.20113899,0.3882578,1.1323615,-0.077663824,-0.009392204,0.68831426,0.4600329,-0.09843627,0.11150876,0.29060954,0.03552046,-0.49438572,-0.26455772,-0.07451124,795.38464,797.8022,800.6227,799.011,872.74725,-0.1483154296875,0.11114501953125,0.9923095703125,0.829925537109375,1.816864013671875,-2.654266357421875,1,1.0,1.0,1.0,1.0,10.00
2024-10-11 20:38:41.041,0.19775183,-0.32889852,-0.18725063,0.23663782,0.669881,-0.2733691,-0.20113899,0.3882578,1.1323615,-0.077663824,-0.009392204,0.68831426,0.4600329,-0.09843627,0.11150876,0.29060954,0.03552046,-0.49438572,-0.26455772,-0.07451124,798.20514,796.99634,799.81683,801.4286,828.8278,-0.1483154296875,0.11114501953125,0.9923095703125,0.829925537109375,1.816864013671875,-2.654266357421875,1,1.0,1.0,1.0,1.0,10.00
2024-10-11 20:38:41.042,0.19775183,-0.32889852,-0.18725063,0.23663782,0.669881,-0.2733691,-0.20113899,0.3882578,1.1323615,-0.077663824,-0.009392204,0.68831426,0.4600329,-0.09843627,0.11150876,0.29060954,0.03552046,-0.49438572,-0.26455772,-0.07451124,803.8461,803.44324,803.0403,801.8315,576.5934,-0.1483154296875,0.11114501953125,0.9923095703125,0.829925537109375,1.816864013671875,-2.654266357421875,1,1.0,1.0,1.0,1.0,10.00
2024-10-11 20:38:41.042,0.19775183,-0.32889852,-0.18725063,0.23663782,0.669881,-0.2733691,-0.20113899,0.3882578,1.1323615,-0.077663824,-0.009392204,0.68831426,0.4600329,-0.09843627,0.11150876,0.29060954,0.03552046,-0.49438572,-0.26455772,-0.07451124,803.8461,801.4286,802.6374,802.23444,578.60803,-0.1483154296875,0.11114501953125,0.9923095703125,0.829925537109375,1.816864013671875,-2.654266357421875,1,1.0,1.0,1.0,1.0,10.00
2024-10-11 20:38:41.043,0.19775183,-0.32889852,-0.18725063,0.23663782,0.669881,-0.2733691,-0.20113899,0.3882578,1.1323615,-0.077663824,-0.009392204,0.68831426,0.4600329,-0.09843627,0.11150876,0.29060954,0.03552046,-0.49438572,-0.26455772,-0.07451124,805.4579,797.3993,798.60803,812.71063,817.5458,-0.1483154296875,0.11114501953125,0.9923095703125,0.829925537109375,1.816864013671875,-2.654266357421875,1,1.0,1.0,1.0,1.0,10.00
2024-10-11 20:38:41.043,0.19775183,-0.32889852,-0.18725063,0.23663782,0.669881,-0.2733691,-0.20113899,0.3882578,1.1323615,-0.077663824,-0.009392204,0.68831426,0.4600329,-0.09843627,0.11150876,0.29060954,0.03552046,-0.49438572,-0.26455772,-0.07451124,803.44324,801.8315,797.3993,809.4872,766.77655,-0.1483154296875,0.11114501953125,0.9923095703125,0.829925537109375,1.816864013671875,-2.654266357421875,1,1.0,1.0,1.0,1.0,10.00
2024-10-11 20:38:41.044,0.19775183,-0.32889852,-0.18725063,0.23663782,0.669881,-0.2733691,-0.20113899,0.3882578,1.1323615,-0.077663824,-0.009392204,0.68831426,0.4600329,-0.09843627,0.11150876,0.29060954,0.03552046,-0.49438572,-0.26455772,-0.07451124,801.4286,800.2198,800.6227,801.8315,667.6557,-0.1483154296875,0.11114501953125,0.9923095703125,0.829925537109375,1.816864013671875,-2.654266357421875,1,1.0,1.0,1.0,1.0,10.00
2024-10-11 20:38:41.045,0.19219188,-0.32601154,-0.1249338,0.22143139,0.63195956,-0.24774848,-0.22459379,0.37396562,1.1321354,-0.052489895,-0.006325975,0.68640244,0.43481562,-0.08640058,0.095497236,0.2919961,0.034667183,-0.48921692,-0.2641304,-0.050452415,807.47253,794.17584,794.9817,794.57874,761.53845,-0.1483154296875,0.11114501953125,0.9923095703125,0.829925537109375,1.816864013671875,-2.654266357421875,1,1.0,1.0,1.0,1.0,10.00
2024-10-11 20:38:41.050,0.19219188,-0.32601154,-0.1249338,0.22143139,0.63195956,-0.24774848,-0.22459379,0.37396562,1.1321354,-0.052489895,-0.006325975,0.68640244,0.43481562,-0.08640058,0.095497236,0.2919961,0.034667183,-0.48921692,-0.2641304,-0.050452415,802.23444,796.1905,796.1905,787.72894,1053.2601,-0.1483154296875,0.11114501953125,0.9923095703125,0.829925537109375,1.816864013671875,-2.654266357421875,1,1.0,1.0,1.0,1.0,10.00
2024-10-11 20:38:41.051,0.19219188,-0.32601154,-0.1249338,0.22143139,0.63195956,-0.24774848,-0.22459379,0.37396562,1.1321354,-0.052489895,-0.006325975,0.68640244,0.43481562,-0.08640058,0.095497236,0.2919961,0.034667183,-0.48921692,-0.2641304,-0.050452415,791.3553,797.3993,794.9817,792.5641,1034.3224,-0.1483154296875,0.11114501953125,0.9923095703125,0.829925537109375,1.816864013671875,-2.654266357421875,1,1.0,1.0,1.0,1.0,10.00
2024-10-11 20:38:41.051,0.19219188,-0.32601154,-0.1249338,0.22143139,0.63195956,-0.24774848,-0.22459379,0.37396562,1.1321354,-0.052489895,-0.006325975,0.68640244,0.43481562,-0.08640058,0.095497236,0.2919961,0.034667183,-0.48921692,-0.2641304,-0.050452415,801.4286,792.1612,792.5641,792.96704,942.0513,-0.1483154296875,0.11114501953125,0.9923095703125,0.829925537109375,1.816864013671875,-2.654266357421875,1,1.0,1.0,1.0,1.0,10.00
2024-10-11 20:38:41.052,0.19219188,-0.32601154,-0.1249338,0.22143139,0.63195956,-0.24774848,-0.22459379,0.37396562,1.1321354,-0.052489895,-0.006325975,0.68640244,0.43481562,-0.08640058,0.095497236,0.2919961,0.034667183,-0.48921692,-0.2641304,-0.050452415,811.9048,796.5934,800.6227,793.36993,798.20514,-0.1483154296875,0.11114501953125,0.9923095703125,0.829925537109375,1.816864013671875,-2.654266357421875,1,1.0,1.0,1.0,1.0,10.00
