TimeStamp,Delta_TP9,Delta_AF7,Delta_AF8,Delta_TP10,Theta_TP9,Theta_AF7,Theta_AF8,Theta_TP10,Alpha_TP9,Alpha_AF7,Alpha_AF8,Alpha_TP10,Beta_TP9,Beta_AF7,Beta_AF8,Beta_TP10,Gamma_TP9,Gamma_AF7,Gamma_AF8,Gamma_TP10,RAW_TP9,RAW_AF7,RAW_AF8,RAW_TP10,AUX_RIGHT,Accelerometer_X,Accelerometer_Y,Accelerometer_Z,Gyro_X,Gyro_Y,Gyro_Z,HeadBandOn,HSI_TP9,HSI_AF7,HSI_AF8,HSI_TP10,Battery,Elements
2024-10-11 20:47:42.123,0.572981,0.76516443,0.45592037,0.65000194,0.32471696,0.2628195,0.22821568,0.5682236,0.99957776,0.3345058,0.31639346,0.23568414,0.6193723,0.0058277007,0.7165506,0.5612742,0.14924413,-0.37188405,0.35851774,0.12763533,786.52014,796.5934,789.7436,774.83514,615.6777,0.0904541015625,0.18731689453125,0.99041748046875,-1.98883056640625,2.265472412109375,3.42437744140625,1,1.0,1.0,1.0,1.0,10.00
2024-10-11 20:47:42.124,0.572981,0.76516443,0.45592037,0.65000194,0.32471696,0.2628195,0.22821568,0.5682236,0.99957776,0.3345058,0.31639346,0.23568414,0.6193723,0.0058277007,0.7165506,0.5612742,0.14924413,-0.37188405,0.35851774,0.12763533,798.20514,796.1905,786.1172,789.7436,735.7509,0.0904541015625,0.18731689453125,0.99041748046875,-1.98883056640625,2.265472412109375,3.42437744140625,1,1.0,1.0,1.0,1.0,10.00
2024-10-11 20:47:42.125,0.572981,0.76516443,0.45592037,0.65000194,0.32471696,0.2628195,0.22821568,0.5682236,0.99957776,0.3345058,0.31639346,0.23568414,0.6193723,0.0058277007,0.7165506,0.5612742,0.14924413,-0.37188405,0.35851774,0.12763533,792.5641,799.41394,788.93774,787.72894,900.54944,0.0904541015625,0.18731689453125,0.99041748046875,-1.98883056640625,2.265472412109375,3.42437744140625,1,1.0,1.0,1.0,1.0,10.00
2024-10-11 20:47:42.126,0.572981,0.76516443,0.45592037,0.65000194,0.32471696,0.2628195,0.22821568,0.5682236,0.99957776,0.3345058,0.31639346,0.23568414,0.6193723,0.0058277007,0.7165506,0.5612742,0.14924413,-0.37188405,0.35851774,0.12763533,780.07324,801.4286,803.44324,777.6557,789.34064,0.0904541015625,0.18731689453125,0.99041748046875,-1.98883056640625,2.265472412109375,3.42437744140625,1,1.0,1.0,1.0,1.0,10.00
2024-10-11 20:47:42.126,0.572981,0.76516443,0.45592037,0.65000194,0.32471696,0.2628195,0.22821568,0.5682236,0.99957776,0.3345058,0.31639346,0.23568414,0.6193723,0.0058277007,0.7165506,0.5612742,0.14924413,-0.37188405,0.35851774,0.12763533,778.46155,799.81683,817.1429,774.0293,645.89746,0.0904541015625,0.18731689453125,0.99041748046875,-1.98883056640625,2.265472412109375,3.42437744140625,1,1.0,1.0,1.0,1.0,10.00
2024-10-11 20:47:42.127,0.572981,0.76516443,0.45592037,0.65000194,0.32471696,0.2628195,0.22821568,0.5682236,0.99957776,0.3345058,0.31639346,0.23568414,0.6193723,0.0058277007,0.7165506,0.5612742,0.14924413,-0.37188405,0.35851774,0.12763533,771.2088,793.36993,809.4872,767.1795,819.5604,0.0904541015625,0.18731689453125,0.99041748046875,-1.98883056640625,2.265472412109375,3.42437744140625,1,1.0,1.0,1.0,1.0,10.00
2024-10-11 20:47:42.128,0.572981,0.76516443,0.45592037,0.65000194,0.32471696,0.2628195,0.22821568,0.5682236,0.99957776,0.3345058,0.31639346,0.23568414,0.6193723,0.0058277007,0.7165506,0.5612742,0.14924413,-0.37188405,0.35851774,0.12763533,765.9707,789.7436,802.6374,760.7326,1009.7436,0.0904541015625,0.18731689453125,0.99041748046875,-1.98883056640625,2.265472412109375,3.42437744140625,1,1.0,1.0,1.0,1.0,10.00
2024-10-11 20:47:42.129,0.572981,0.76516443,0.45592037,0.65000194,0.32471696,0.2628195,0.22821568,0.5682236,0.99957776,0.3345058,0.31639346,0.23568414,0.6193723,0.0058277007,0.7165506,0.5612742,0.14924413,-0.37188405,0.35851774,0.12763533,769.59705,795.38464,806.26373,757.9121,777.25275,0.0904541015625,0.18731689453125,0.99041748046875,-1.98883056640625,2.265472412109375,3.42437744140625,1,1.0,1.0,1.0,1.0,10.00
2024-10-11 20:47:42.129,0.572981,0.76516443,0.45592037,0.65000194,0.32471696,0.2628195,0.22821568,0.5682236,0.99957776,0.3345058,0.31639346,0.23568414,0.6193723,0.0058277007,0.7165506,0.5612742,0.14924413,-0.37188405,0.35851774,0.12763533,772.4176,792.96704,805.4579,771.6117,577.8022,0.0904541015625,0.18731689453125,0.99041748046875,-1.98883056640625,2.265472412109375,3.42437744140625,1,1.0,1.0,1.0,1.0,10.00
2024-10-11 20:47:42.130,0.572981,0.76516443,0.45592037,0.65000194,0.32471696,0.2628195,0.22821568,0.5682236,0.99957776,0.3345058,0.31639346,0.23568414,0.6193723,0.0058277007,0.7165506,0.5612742,0.14924413,-0.37188405,0.35851774,0.12763533,776.4469,790.54944,795.38464,783.69965,758.315,0.0904541015625,0.18731689453125,0.99041748046875,-1.98883056640625,2.265472412109375,3.42437744140625,1,1.0,1.0,1.0,1.0,10.00
2024-10-11 20:47:42.131,0.572981,0.76516443,0.45592037,0.65000194,0.32471696,0.2628195,0.22821568,0.5682236,0.99957776,0.3345058,0.31639346,0.23568414,0.6193723,0.0058277007,0.7165506,0.5612742,0.14924413,-0.37188405,0.35851774,0.12763533,783.69965,793.36993,782.49084,789.34064,954.1392,0.0904541015625,0.18731689453125,0.99041748046875,-1.98883056640625,2.265472412109375,3.42437744140625,1,1.0,1.0,1.0,1.0,10.00
2024-10-11 20:47:42.131,0.572981,0.76516443,0.45592037,0.65000194,0.32471696,0.2628195,0.22821568,0.5682236,0.99957776,0.3345058,0.31639346,0.23568414,0.6193723,0.0058277007,0.7165506,0.5612742,0.14924413,-0.37188405,0.35851774,0.12763533,799.011,796.5934,778.46155,799.41394,776.04395,0.0904541015625,0.18731689453125,0.99041748046875,-1.98883056640625,2.265472412109375,3.42437744140625,1,1.0,1.0,1.0,1.0,10.00
2024-10-11 20:47:42.237,0.572981,0.76516443,0.45592037,0.65000194,0.32471696,0.2628195,0.22821568,0.5682236,0.99957776,0.3345058,0.31639346,0.23568414,0.6193723,0.0058277007,0.7165506,0.5612742,0.14924413,-0.37188405,0.35851774,0.12763533,802.6374,799.011,788.5348,792.5641,707.1429,0.0955810546875,0.179443359375,0.99273681640625,-4.134674072265625,1.71966552734375,2.998199462890625,1,1.0,1.0,1.0,1.0,10.00
2024-10-11 20:47:42.239,0.572981,0.76516443,0.45592037,0.65000194,0.32471696,0.2628195,0.22821568,0.5682236,0.99957776,0.3345058,0.31639346,0.23568414,0.6193723,0.0058277007,0.7165506,0.5612742,0.14924413,-0.37188405,0.35851774,0.12763533,784.10254,797.8022,796.99634,793.7729,889.67035,0.0955810546875,0.179443359375,0.99273681640625,-4.134674072265625,1.71966552734375,2.998199462890625,1,1.0,1.0,1.0,1.0,10.00
2024-10-11 20:47:42.241,0.572981,0.76516443,0.45592037,0.65000194,0.32471696,0.2628195,0.22821568,0.5682236,0.99957776,0.3345058,0.31639346,0.23568414,0.6193723,0.0058277007,0.7165506,0.5612742,0.14924413,-0.37188405,0.35851774,0.12763533,778.46155,797.3993,790.9524,801.8315,931.5751,0.0955810546875,0.179443359375,0.99273681640625,-4.134674072265625,1.71966552734375,2.998199462890625,1,1.0,1.0,1.0,1.0,10.00
2024-10-11 20:47:42.242,0.5873657,0.6964948,0.5165908,0.606541,0.4514469,0.25617513,0.29789937,0.5268601,1.020146,0.38523388,0.32171643,0.24038902,0.61434615,-0.011746368,0.7209101,0.55702436,0.136568,-0.37650034,0.34746602,0.13421607,787.326,800.2198,799.011,799.41394,802.6374,0.0955810546875,0.179443359375,0.99273681640625,-4.134674072265625,1.71966552734375,2.998199462890625,1,1.0,1.0,1.0,1.0,10.00
2024-10-11 20:47:42.249,0.5873657,0.6964948,0.5165908,0.606541,0.4514469,0.25617513,0.29789937,0.5268601,1.020146,0.38523388,0.32171643,0.24038902,0.61434615,-0.011746368,0.7209101,0.55702436,0.136568,-0.37650034,0.34746602,0.13421607,790.9524,801.02563,803.0403,796.1905,712.7839,0.0955810546875,0.179443359375,0.99273681640625,-4.134674072265625,1.71966552734375,2.998199462890625,1,1.0,1.0,1.0,1.0,10.00
2024-10-11 20:47:42.250,0.5873657,0.6964948,0.5165908,0.606541,0.4514469,0.25617513,0.29789937,0.5268601,1.020146,0.38523388,0.32171643,0.24038902,0.61434615,-0.011746368,0.7209101,0.55702436,0.136568,-0.37650034,0.34746602,0.13421607,788.93774,796.5934,783.69965,794.9817,909.41394,0.0955810546875,0.179443359375,0.99273681640625,-4.134674072265625,1.71966552734375,2.998199462890625,1,1.0,1.0,1.0,1.0,10.00
2024-10-11 20:47:42.251,0.5873657,0.6964948,0.5165908,0.606541,0.4514469,0.25617513,0.29789937,0.5268601,1.020146,0.38523388,0.32171643,0.24038902,0.61434615,-0.011746368,0.7209101,0.55702436,0.136568,-0.37650034,0.34746602,0.13421607,790.9524,799.011,787.326,798.20514,1122.967,0.0955810546875,0.179443359375,0.99273681640625,-4.134674072265625,1.71966552734375,2.998199462890625,1,1.0,1.0,1.0,1.0,10.00
2024-10-11 20:47:42.252,0.5873657,0.6964948,0.5165908,0.606541,0.4514469,0.25617513,0.29789937,0.5268601,1.020146,0.38523388,0.32171643,0.24038902,0.61434615,-0.011746368,0.7209101,0.55702436,0.136568,-0.37650034,0.34746602,0.13421607,791.3553,804.65204,804.65204,801.4286,941.2454,0.0955810546875,0.179443359375,0.99273681640625,-4.134674072265625,1.71966552734375,2.998199462890625,1,1.0,1.0,1.0,1.0,10.00
2024-10-11 20:47:42.253,0.5873657,0.6964948,0.5165908,0.606541,0.4514469,0.25617513,0.29789937,0.5268601,1.020146,0.38523388,0.32171643,0.24038902,0.61434615,-0.011746368,0.7209101,0.55702436,0.136568,-0.37650034,0.34746602,0.13421607,792.96704,801.8315,802.23444,794.57874,805.05493,0.0955810546875,0.179443359375,0.99273681640625,-4.134674072265625,1.71966552734375,2.998199462890625,1,1.0,1.0,1.0,1.0,10.00
2024-10-11 20:47:42.254,0.5873657,0.6964948,0.5165908,0.606541,0.4514469,0.25617513,0.29789937,0.5268601,1.020146,0.38523388,0.32171643,0.24038902,0.61434615,-0.011746368,0.7209101,0.55702436,0.136568,-0.37650034,0.34746602,0.13421607,794.9817,800.2198,796.99634,795.38464,880.80585,0.0955810546875,0.179443359375,0.99273681640625,-4.134674072265625,1.71966552734375,2.998199462890625,1,1.0,1.0,1.0,1.0,10.00
2024-10-11 20:47:42.254,0.5873657,0.6964948,0.5165908,0.606541,0.4514469,0.25617513,0.29789937,0.5268601,1.020146,0.38523388,0.32171643,0.24038902,0.61434615,-0.011746368,0.7209101,0.55702436,0.136568,-0.37650034,0.34746602,0.13421607,787.326,801.02563,798.60803,801.8315,967.03296,0.0955810546875,0.179443359375,0.99273681640625,-4.134674072265625,1.71966552734375,2.998199462890625,1,1.0,1.0,1.0,1.0,10.00
2024-10-11 20:47:42.255,0.5873657,0.6964948,0.5165908,0.606541,0.4514469,0.25617513,0.29789937,0.5268601,1.020146,0.38523388,0.32171643,0.24038902,0.61434615,-0.011746368,0.7209101,0.55702436,0.136568,-0.37650034,0.34746602,0.13421607,784.5055,805.8608,803.44324,803.44324,852.1978,0.0955810546875,0.179443359375,0.99273681640625,-4.134674072265625,1.71966552734375,2.998199462890625,1,1.0,1.0,1.0,1.0,10.00
2024-10-11 20:47:42.291,0.5873657,0.6964948,0.5165908,0.606541,0.4514469,0.25617513,0.29789937,0.5268601,1.020146,0.38523388,0.32171643,0.24038902,0.61434615,-0.011746368,0.7209101,0.55702436,0.136568,-0.37650034,0.34746602,0.13421607,788.93774,801.02563,801.8315,794.57874,972.27106,0.09674072265625,0.1732177734375,0.98907470703125,-5.196380615234375,1.6448974609375,2.863616943359375,1,1.0,1.0,1.0,1.0,10.00
2024-10-11 20:47:42.293,0.5873657,0.6964948,0.5165908,0.606541,0.4514469,0.25617513,0.29789937,0.5268601,1.020146,0.38523388,0.32171643,0.24038902,0.61434615,-0.011746368,0.7209101,0.55702436,0.136568,-0.37650034,0.34746602,0.13421607,792.1612,797.3993,793.36993,788.5348,1183.8096,0.09674072265625,0.1732177734375,0.98907470703125,-5.196380615234375,1.6448974609375,2.863616943359375,1,1.0,1.0,1.0,1.0,10.00
2024-10-11 20:47:42.295,0.5873657,0.6964948,0.5165908,0.606541,0.4514469,0.25617513,0.29789937,0.5268601,1.020146,0.38523388,0.32171643,0.24038902,0.61434615,-0.011746368,0.7209101,0.55702436,0.136568,-0.37650034,0.34746602,0.13421607,789.34064,803.44324,796.5934,799.41394,946.8865,0.09674072265625,0.1732177734375,0.98907470703125,-5.196380615234375,1.6448974609375,2.863616943359375,1,1.0,1.0,1.0,1.0,10.00
2024-10-11 20:47:42.296,0.5873657,0.6964948,0.5165908,0.606541,0.4514469,0.25617513,0.29789937,0.5268601,1.020146,0.38523388,0.32171643,0.24038902,0.61434615,-0.011746368,0.7209101,0.55702436,0.136568,-0.37650034,0.34746602,0.13421607,797.8022,805.05493,805.4579,802.23444,837.28937,0.09674072265625,0.1732177734375,0.98907470703125,-5.196380615234375,1.6448974609375,2.863616943359375,1,1.0,1.0,1.0,1.0,10.00
2024-10-11 20:47:42.297,0.5873657,0.6964948,0.5165908,0.606541,0.4514469,0.25617513,0.29789937,0.5268601,1.020146,0.38523388,0.32171643,0.24038902,0.61434615,-0.011746368,0.7209101,0.55702436,0.136568,-0.37650034,0.34746602,0.13421607,812.71063,805.05493,811.0989,805.05493,955.7509,0.09674072265625,0.1732177734375,0.98907470703125,-5.196380615234375,1.6448974609375,2.863616943359375,1,1.0,1.0,1.0,1.0,10.00
2024-10-11 20:47:42.298,0.5873657,0.6964948,0.5165908,0.606541,0.4514469,0.25617513,0.29789937,0.5268601,1.020146,0.38523388,0.32171643,0.24038902,0.61434615,-0.011746368,0.7209101,0.55702436,0.136568,-0.37650034,0.34746602,0.13421607,807.47253,802.6374,808.68134,805.4579,1037.9487,0.09674072265625,0.1732177734375,0.98907470703125,-5.196380615234375,1.6448974609375,2.863616943359375,1,1.0,1.0,1.0,1.0,10.00
2024-10-11 20:47:42.299,0.5873657,0.6964948,0.5165908,0.606541,0.4514469,0.25617513,0.29789937,0.5268601,1.020146,0.38523388,0.32171643,0.24038902,0.61434615,-0.011746368,0.7209101,0.55702436,0.136568,-0.37650034,0.34746602,0.13421607,792.1612,801.4286,807.8755,800.6227,1059.7069,0.09674072265625,0.1732177734375,0.98907470703125,-5.196380615234375,1.6448974609375,2.863616943359375,1,1.0,1.0,1.0,1.0,10.00
2024-10-11 20:47:42.300,0.5873657,0.6964948,0.5165908,0.606541,0.4514469,0.25617513,0.29789937,0.5268601,1.020146,0.38523388,0.32171643,0.24038902,0.61434615,-0.011746368,0.7209101,0.55702436,0.136568,-0.37650034,0.34746602,0.13421607,793.36993,803.8461,807.8755,799.011,902.96704,0.09674072265625,0.1732177734375,0.98907470703125,-5.196380615234375,1.6448974609375,2.863616943359375,1,1.0,1.0,1.0,1.0,10.00
2024-10-11 20:47:42.300,0.5873657,0.6964948,0.5165908,0.606541,0.4514469,0.25617513,0.29789937,0.5268601,1.020146,0.38523388,0.32171643,0.24038902,0.61434615,-0.011746368,0.7209101,0.55702436,0.136568,-0.37650034,0.34746602,0.13421607,799.41394,800.6227,812.3077,802.6374,858.24176,0.09674072265625,0.1732177734375,0.98907470703125,-5.196380615234375,1.6448974609375,2.863616943359375,1,1.0,1.0,1.0,1.0,10.00
2024-10-11 20:47:42.301,0.5873657,0.6964948,0.5165908,0.606541,0.4514469,0.25617513,0.29789937,0.5268601,1.020146,0.38523388,0.32171643,0.24038902,0.61434615,-0.011746368,0.7209101,0.55702436,0.136568,-0.37650034,0.34746602,0.13421607,792.96704,795.78754,809.4872,801.4286,838.9011,0.09674072265625,0.1732177734375,0.98907470703125,-5.196380615234375,1.6448974609375,2.863616943359375,1,1.0,1.0,1.0,1.0,10.00
2024-10-11 20:47:42.302,0.5873657,0.6964948,0.5165908,0.606541,0.4514469,0.25617513,0.29789937,0.5268601,1.020146,0.38523388,0.32171643,0.24038902,0.61434615,-0.011746368,0.7209101,0.55702436,0.136568,-0.37650034,0.34746602,0.13421607,787.72894,797.8022,807.8755,788.1319,555.2381,0.09674072265625,0.1732177734375,0.98907470703125,-5.196380615234375,1.6448974609375,2.863616943359375,1,1.0,1.0,1.0,1.0,10.00
2024-10-11 20:47:42.303,0.5873657,0.6964948,0.5165908,0.606541,0.4514469,0.25617513,0.29789937,0.5268601,1.020146,0.38523388,0.32171643,0.24038902,0.61434615,-0.011746368,0.7209101,0.55702436,0.136568,-0.37650034,0.34746602,0.13421607,789.7436,798.60803,811.0989,793.7729,527.4359,0.09674072265625,0.1732177734375,0.98907470703125,-5.196380615234375,1.6448974609375,2.863616943359375,1,1.0,1.0,1.0,1.0,10.00
2024-10-11 20:47:42.304,0.5873657,0.6964948,0.5165908,0.606541,0.4514469,0.25617513,0.29789937,0.5268601,1.020146,0.38523388,0.32171643,0.24038902,0.61434615,-0.011746368,0.7209101,0.55702436,0.136568,-0.37650034,0.34746602,0.13421607,794.57874,797.8022,802.23444,803.0403,735.7509,0.09674072265625,0.1732177734375,0.98907470703125,-5.196380615234375,1.6448974609375,2.863616943359375,1,1.0,1.0,1.0,1.0,10.00
2024-10-11 20:47:42.305,0.5873657,0.6964948,0.5165908,0.606541,0.4514469,0.25617513,0.29789937,0.5268601,1.020146,0.38523388,0.32171643,0.24038902,0.61434615,-0.011746368,0.7209101,0.55702436,0.136568,-0.37650034,0.34746602,0.13421607,803.0403,800.6227,791.75824,800.6227,787.326,0.09674072265625,0.1732177734375,0.98907470703125,-5.196380615234375,1.6448974609375,2.863616943359375,1,1.0,1.0,1.0,1.0,10.00
2024-10-11 20:47:42.306,0.5873657,0.6964948,0.5165908,0.606541,0.4514469,0.25617513,0.29789937,0.5268601,1.020146,0.38523388,0.32171643,0.24038902,0.61434615,-0.011746368,0.7209101,0.55702436,0.136568,-0.37650034,0.34746602,0.13421607,813.5165,803.8461,774.83514,797.3993,664.0293,0.09674072265625,0.1732177734375,0.98907470703125,-5.196380615234375,1.6448974609375,2.863616943359375,1,1.0,1.0,1.0,1.0,10.00
2024-10-11 20:47:42.307,0.5873657,0.6964948,0.5165908,0.606541,0.4514469,0.25617513,0.29789937,0.5268601,1.020146,0.38523388,0.32171643,0.24038902,0.61434615,-0.011746368,0.7209101,0.55702436,0.136568,-0.37650034,0.34746602,0.13421607,812.71063,802.23444,788.93774,801.02563,805.8608,0.09674072265625,0.1732177734375,0.98907470703125,-5.196380615234375,1.6448974609375,2.863616943359375,1,1.0,1.0,1.0,1.0,10.00
2024-10-11 20:47:42.308,0.5873657,0.6964948,0.5165908,0.606541,0.4514469,0.25617513,0.29789937,0.5268601,1.020146,0.38523388,0.32171643,0.24038902,0.61434615,-0.011746368,0.7209101,0.55702436,0.136568,-0.37650034,0.34746602,0.13421607,819.15753,801.02563,817.5458,804.2491,1007.326,0.09674072265625,0.1732177734375,0.98907470703125,-5.196380615234375,1.6448974609375,2.863616943359375,1,1.0,1.0,1.0,1.0,10.00
2024-10-11 20:47:42.308,0.63950735,0.6277617,0.55637753,0.5537451,0.5645872,0.2603323,0.33571476,0.48987955,1.0197109,0.42164007,0.32718396,0.2785564,0.61361194,-0.031468704,0.72349674,0.5501138,0.13049689,-0.3811088,0.3272781,0.15114164,811.50183,800.2198,816.7399,806.26373,928.3516,0.09674072265625,0.1732177734375,0.98907470703125,-5.196380615234375,1.6448974609375,2.863616943359375,1,1.0,1.0,1.0,1.0,10.00
2024-10-11 20:47:42.315,0.63950735,0.6277617,0.55637753,0.5537451,0.5645872,0.2603323,0.33571476,0.48987955,1.0197109,0.42164007,0.32718396,0.2785564,0.61361194,-0.031468704,0.72349674,0.5501138,0.13049689,-0.3811088,0.3272781,0.15114164,800.2198,802.23444,815.5311,802.23444,766.3736,0.09674072265625,0.1732177734375,0.98907470703125,-5.196380615234375,1.6448974609375,2.863616943359375,1,1.0,1.0,1.0,1.0,10.00
2024-10-11 20:47:42.316,0.63950735,0.6277617,0.55637753,0.5537451,0.5645872,0.2603323,0.33571476,0.48987955,1.0197109,0.42164007,0.32718396,0.2785564,0.61361194,-0.031468704,0.72349674,0.5501138,0.13049689,-0.3811088,0.3272781,0.15114164,802.23444,802.23444,805.05493,799.011,807.8755,0.09674072265625,0.1732177734375,0.98907470703125,-5.196380615234375,1.6448974609375,2.863616943359375,1,1.0,1.0,1.0,1.0,10.00
2024-10-11 20:47:42.317,0.63950735,0.6277617,0.55637753,0.5537451,0.5645872,0.2603323,0.33571476,0.48987955,1.0197109,0.42164007,0.32718396,0.2785564,0.61361194,-0.031468704,0.72349674,0.5501138,0.13049689,-0.3811088,0.3272781,0.15114164,804.2491,799.011,788.5348,803.0403,939.2308,0.09674072265625,0.1732177734375,0.98907470703125,-5.196380615234375,1.6448974609375,2.863616943359375,1,1.0,1.0,1.0,1.0,10.00
2024-10-11 20:47:42.318,0.63950735,0.6277617,0.55637753,0.5537451,0.5645872,0.2603323,0.33571476,0.48987955,1.0197109,0.42164007,0.32718396,0.2785564,0.61361194,-0.031468704,0.72349674,0.5501138,0.13049689,-0.3811088,0.3272781,0.15114164,806.6667,800.6227,790.9524,811.50183,897.326,0.09674072265625,0.1732177734375,0.98907470703125,-5.196380615234375,1.6448974609375,2.863616943359375,1,1.0,1.0,1.0,1.0,10.00
2024-10-11 20:47:42.319,0.63950735,0.6277617,0.55637753,0.5537451,0.5645872,0.2603323,0.33571476,0.48987955,1.0197109,0.42164007,0.32718396,0.2785564,0.61361194,-0.031468704,0.72349674,0.5501138,0.13049689,-0.3811088,0.3272781,0.15114164,798.20514,801.8315,796.5934,809.89014,627.3626,0.09674072265625,0.1732177734375,0.98907470703125,-5.196380615234375,1.6448974609375,2.863616943359375,1,1.0,1.0,1.0,1.0,10.00
2024-10-11 20:47:42.320,0.63950735,0.6277617,0.55637753,0.5537451,0.5645872,0.2603323,0.33571476,0.48987955,1.0197109,0.42164007,0.32718396,0.2785564,0.61361194,-0.031468704,0.72349674,0.5501138,0.13049689,-0.3811088,0.3272781,0.15114164,795.38464,802.23444,798.20514,805.8608,628.97437,0.09674072265625,0.1732177734375,0.98907470703125,-5.196380615234375,1.6448974609375,2.863616943359375,1,1.0,1.0,1.0,1.0,10.00
2024-10-11 20:47:42.382,0.63950735,0.6277617,0.55637753,0.5537451,0.5645872,0.2603323,0.33571476,0.48987955,1.0197109,0.42164007,0.32718396,0.2785564,0.61361194,-0.031468704,0.72349674,0.5501138,0.13049689,-0.3811088,0.3272781,0.15114164,806.6667,802.23444,794.17584,813.1135,771.6117,0.11053466796875,0.17059326171875,0.99481201171875,-6.572113037109375,3.102874755859375,4.329071044921875,1,1.0,1.0,1.0,1.0,10.00
2024-10-11 20:47:42.383,0.63950735,0.6277617,0.55637753,0.5537451,0.5645872,0.2603323,0.33571476,0.48987955,1.0197109,0.42164007,0.32718396,0.2785564,0.61361194,-0.031468704,0.72349674,0.5501138,0.13049689,-0.3811088,0.3272781,0.15114164,805.4579,802.23444,792.5641,808.2784,680.14655,0.11053466796875,0.17059326171875,0.99481201171875,-6.572113037109375,3.102874755859375,4.329071044921875,1,1.0,1.0,1.0,1.0,10.00
2024-10-11 20:47:42.384,0.63950735,0.6277617,0.55637753,0.5537451,0.5645872,0.2603323,0.33571476,0.48987955,1.0197109,0.42164007,0.32718396,0.2785564,0.61361194,-0.031468704,0.72349674,0.5501138,0.13049689,-0.3811088,0.3272781,0.15114164,796.1905,803.44324,786.9231,792.96704,560.4762,0.11053466796875,0.17059326171875,0.99481201171875,-6.572113037109375,3.102874755859375,4.329071044921875,1,1.0,1.0,1.0,1.0,10.00
2024-10-11 20:47:42.385,0.63950735,0.6277617,0.55637753,0.5537451,0.5645872,0.2603323,0.33571476,0.48987955,1.0197109,0.42164007,0.32718396,0.2785564,0.61361194,-0.031468704,0.72349674,0.5501138,0.13049689,-0.3811088,0.3272781,0.15114164,796.5934,796.5934,785.31134,790.14655,647.1062,0.11053466796875,0.17059326171875,0.99481201171875,-6.572113037109375,3.102874755859375,4.329071044921875,1,1.0,1.0,1.0,1.0,10.00
2024-10-11 20:47:42.386,0.63950735,0.6277617,0.55637753,0.5537451,0.5645872,0.2603323,0.33571476,0.48987955,1.0197109,0.42164007,0.32718396,0.2785564,0.61361194,-0.031468704,0.72349674,0.5501138,0.13049689,-0.3811088,0.3272781,0.15114164,800.6227,793.36993,807.0696,802.6374,821.5751,0.11053466796875,0.17059326171875,0.99481201171875,-6.572113037109375,3.102874755859375,4.329071044921875,1,1.0,1.0,1.0,1.0,10.00
2024-10-11 20:47:42.387,0.63950735,0.6277617,0.55637753,0.5537451,0.5645872,0.2603323,0.33571476,0.48987955,1.0197109,0.42164007,0.32718396,0.2785564,0.61361194,-0.031468704,0.72349674,0.5501138,0.13049689,-0.3811088,0.3272781,0.15114164,799.81683,799.81683,813.5165,806.26373,835.6777,0.11053466796875,0.17059326171875,0.99481201171875,-6.572113037109375,3.102874755859375,4.329071044921875,1,1.0,1.0,1.0,1.0,10.00
2024-10-11 20:47:42.388,0.63950735,0.6277617,0.55637753,0.5537451,0.5645872,0.2603323,0.33571476,0.48987955,1.0197109,0.42164007,0.32718396,0.2785564,0.61361194,-0.031468704,0.72349674,0.5501138,0.13049689,-0.3811088,0.3272781,0.15114164,795.78754,798.60803,800.2198,792.96704,784.5055,0.11053466796875,0.17059326171875,0.99481201171875,-6.572113037109375,3.102874755859375,4.329071044921875,1,1.0,1.0,1.0,1.0,10.00
2024-10-11 20:47:42.389,0.63950735,0.6277617,0.55637753,0.5537451,0.5645872,0.2603323,0.33571476,0.48987955,1.0197109,0.42164007,0.32718396,0.2785564,0.61361194,-0.031468704,0.72349674,0.5501138,0.13049689,-0.3811088,0.3272781,0.15114164,800.2198,798.20514,794.17584,795.38464,990.80585,0.11053466796875,0.17059326171875,0.99481201171875,-6.572113037109375,3.102874755859375,4.329071044921875,1,1.0,1.0,1.0,1.0,10.00
2024-10-11 20:47:42.390,0.63950735,0.6277617,0.55637753,0.5537451,0.5645872,0.2603323,0.33571476,0.48987955,1.0197109,0.42164007,0.32718396,0.2785564,0.61361194,-0.031468704,0.72349674,0.5501138,0.13049689,-0.3811088,0.3272781,0.15114164,806.26373,799.81683,793.7729,800.2198,985.56775,0.11053466796875,0.17059326171875,0.99481201171875,-6.572113037109375,3.102874755859375,4.329071044921875,1,1.0,1.0,1.0,1.0,10.00
2024-10-11 20:47:42.391,0.63950735,0.6277617,0.55637753,0.5537451,0.5645872,0.2603323,0.33571476,0.48987955,1.0197109,0.42164007,0.32718396,0.2785564,0.61361194,-0.031468704,0.72349674,0.5501138,0.13049689,-0.3811088,0.3272781,0.15114164,804.2491,801.8315,799.011,795.78754,712.7839,0.11053466796875,0.17059326171875,0.99481201171875,-6.572113037109375,3.102874755859375,4.329071044921875,1,1.0,1.0,1.0,1.0,10.00
2024-10-11 20:47:42.393,0.63950735,0.6277617,0.55637753,0.5537451,0.5645872,0.2603323,0.33571476,0.48987955,1.0197109,0.42164007,0.32718396,0.2785564,0.61361194,-0.031468704,0.72349674,0.5501138,0.13049689,-0.3811088,0.3272781,0.15114164,803.0403,805.4579,792.96704,796.1905,597.9487,0.11053466796875,0.17059326171875,0.99481201171875,-6.572113037109375,3.102874755859375,4.329071044921875,1,1.0,1.0,1.0,1.0,10.00
2024-10-11 20:47:42.394,0.63950735,0.6277617,0.55637753,0.5537451,0.5645872,0.2603323,0.33571476,0.48987955,1.0197109,0.42164007,0.32718396,0.2785564,0.61361194,-0.031468704,0.72349674,0.5501138,0.13049689,-0.3811088,0.3272781,0.15114164,823.9927,801.02563,798.60803,813.1135,719.2308,0.11053466796875,0.17059326171875,0.99481201171875,-6.572113037109375,3.102874755859375,4.329071044921875,1,1.0,1.0,1.0,1.0,10.00
2024-10-11 20:47:42.427,0.63950735,0.6277617,0.55637753,0.5537451,0.5645872,0.2603323,0.33571476,0.48987955,1.0197109,0.42164007,0.32718396,0.2785564,0.61361194,-0.031468704,0.72349674,0.5501138,0.13049689,-0.3811088,0.3272781,0.15114164,807.8755,801.4286,804.65204,803.44324,911.4286,0.1026611328125,0.16717529296875,0.9951171875,-7.977752685546875,7.110443115234375,6.280517578125,1,1.0,1.0,1.0,1.0,10.00
2024-10-11 20:47:42.428,0.63950735,0.6277617,0.55637753,0.5537451,0.5645872,0.2603323,0.33571476,0.48987955,1.0197109,0.42164007,0.32718396,0.2785564,0.61361194,-0.031468704,0.72349674,0.5501138,0.13049689,-0.3811088,0.3272781,0.15114164,782.49084,800.6227,783.2967,783.69965,794.9817,0.1026611328125,0.16717529296875,0.9951171875,-7.977752685546875,7.110443115234375,6.280517578125,1,1.0,1.0,1.0,1.0,10.00
2024-10-11 20:47:42.430,0.63950735,0.6277617,0.55637753,0.5537451,0.5645872,0.2603323,0.33571476,0.48987955,1.0197109,0.42164007,0.32718396,0.2785564,0.61361194,-0.031468704,0.72349674,0.5501138,0.13049689,-0.3811088,0.3272781,0.15114164,797.3993,793.7729,786.52014,784.90845,751.06226,0.1026611328125,0.16717529296875,0.9951171875,-7.977752685546875,7.110443115234375,6.280517578125,1,1.0,1.0,1.0,1.0,10.00
2024-10-11 20:47:42.430,0.63950735,0.6277617,0.55637753,0.5537451,0.5645872,0.2603323,0.33571476,0.48987955,1.0197109,0.42164007,0.32718396,0.2785564,0.61361194,-0.031468704,0.72349674,0.5501138,0.13049689,-0.3811088,0.3272781,0.15114164,799.41394,799.011,811.9048,795.38464,864.68866,0.1026611328125,0.16717529296875,0.9951171875,-7.977752685546875,7.110443115234375,6.280517578125,1,1.0,1.0,1.0,1.0,10.00
2024-10-11 20:47:42.431,0.63950735,0.6277617,0.55637753,0.5537451,0.5645872,0.2603323,0.33571476,0.48987955,1.0197109,0.42164007,0.32718396,0.2785564,0.61361194,-0.031468704,0.72349674,0.5501138,0.13049689,-0.3811088,0.3272781,0.15114164,783.69965,802.6374,806.6667,791.3553,869.5238,0.1026611328125,0.16717529296875,0.9951171875,-7.977752685546875,7.110443115234375,6.280517578125,1,1.0,1.0,1.0,1.0,10.00
2024-10-11 20:47:42.432,0.63950735,0.6277617,0.55637753,0.5537451,0.5645872,0.2603323,0.33571476,0.48987955,1.0197109,0.42164007,0.32718396,0.2785564,0.61361194,-0.031468704,0.72349674,0.5501138,0.13049689,-0.3811088,0.3272781,0.15114164,767.98535,801.02563,804.2491,772.01465,850.989,0.1026611328125,0.16717529296875,0.9951171875,-7.977752685546875,7.110443115234375,6.280517578125,1,1.0,1.0,1.0,1.0,10.00
2024-10-11 20:47:42.432,0.63950735,0.6277617,0.55637753,0.5537451,0.5645872,0.2603323,0.33571476,0.48987955,1.0197109,0.42164007,0.32718396,0.2785564,0.61361194,-0.031468704,0.72349674,0.5501138,0.13049689,-0.3811088,0.3272781,0.15114164,751.8681,796.1905,813.5165,759.5238,865.4945,0.1026611328125,0.16717529296875,0.9951171875,-7.977752685546875,7.110443115234375,6.280517578125,1,1.0,1.0,1.0,1.0,10.00
2024-10-11 20:47:42.433,0.6903135,0.5361489,0.5701236,0.47574675,0.649288,0.24910264,0.34171203,0.46983874,1.014338,0.41146708,0.32718396,0.377324,0.6150872,-0.052497204,0.72523576,0.5416947,0.13109712,-0.3828733,0.3052434,0.17075272,753.8828,795.78754,812.71063,756.30035,738.5714,0.1026611328125,0.16717529296875,0.9951171875,-7.977752685546875,7.110443115234375,6.280517578125,1,1.0,1.0,1.0,1.0,10.00
2024-10-11 20:47:42.439,0.6903135,0.5361489,0.5701236,0.47574675,0.649288,0.24910264,0.34171203,0.46983874,1.014338,0.41146708,0.32718396,0.377324,0.6150872,-0.052497204,0.72523576,0.5416947,0.13109712,-0.3828733,0.3052434,0.17075272,761.9414,797.3993,809.0842,767.5824,704.7253,0.1026611328125,0.16717529296875,0.9951171875,-7.977752685546875,7.110443115234375,6.280517578125,1,1.0,1.0,1.0,1.0,10.00
2024-10-11 20:47:42.440,0.6903135,0.5361489,0.5701236,0.47574675,0.649288,0.24910264,0.34171203,0.46983874,1.014338,0.41146708,0.32718396,0.377324,0.6150872,-0.052497204,0.72523576,0.5416947,0.13109712,-0.3828733,0.3052434,0.17075272,740.58606,799.011,803.8461,755.4945,696.26373,0.1026611328125,0.16717529296875,0.9951171875,-7.977752685546875,7.110443115234375,6.280517578125,1,1.0,1.0,1.0,1.0,10.00
2024-10-11 20:47:42.441,0.6903135,0.5361489,0.5701236,0.47574675,0.649288,0.24910264,0.34171203,0.46983874,1.014338,0.41146708,0.32718396,0.377324,0.6150872,-0.052497204,0.72523576,0.5416947,0.13109712,-0.3828733,0.3052434,0.17075272,740.18317,799.011,805.8608,750.65936,651.9414,0.1026611328125,0.16717529296875,0.9951171875,-7.977752685546875,7.110443115234375,6.280517578125,1,1.0,1.0,1.0,1.0,10.00
2024-10-11 20:47:42.442,0.6903135,0.5361489,0.5701236,0.47574675,0.649288,0.24910264,0.34171203,0.46983874,1.014338,0.41146708,0.32718396,0.377324,0.6150872,-0.052497204,0.72523576,0.5416947,0.13109712,-0.3828733,0.3052434,0.17075272,750.2564,794.9817,803.44324,752.27106,716.4103,0.1026611328125,0.16717529296875,0.9951171875,-7.977752685546875,7.110443115234375,6.280517578125,1,1.0,1.0,1.0,1.0,10.00
2024-10-11 20:47:42.512,0.6903135,0.5361489,0.5701236,0.47574675,0.649288,0.24910264,0.34171203,0.46983874,1.014338,0.41146708,0.32718396,0.377324,0.6150872,-0.052497204,0.72523576,0.5416947,0.13109712,-0.3828733,0.3052434,0.17075272,740.989,801.02563,797.3993,744.61536,694.65204,0.0897216796875,0.15301513671875,0.99713134765625,-10.3179931640625,11.544189453125,7.947845458984375,1,1.0,1.0,1.0,1.0,10.00
2024-10-11 20:47:42.513,0.6903135,0.5361489,0.5701236,0.47574675,0.649288,0.24910264,0.34171203,0.46983874,1.014338,0.41146708,0.32718396,0.377324,0.6150872,-0.052497204,0.72523576,0.5416947,0.13109712,-0.3828733,0.3052434,0.17075272,743.4066,809.89014,794.57874,748.24176,589.0842,0.0897216796875,0.15301513671875,0.99713134765625,-10.3179931640625,11.544189453125,7.947845458984375,1,1.0,1.0,1.0,1.0,10.00
2024-10-11 20:47:42.514,0.6903135,0.5361489,0.5701236,0.47574675,0.649288,0.24910264,0.34171203,0.46983874,1.014338,0.41146708,0.32718396,0.377324,0.6150872,-0.052497204,0.72523576,0.5416947,0.13109712,-0.3828733,0.3052434,0.17075272,747.8388,804.65204,795.38464,751.4652,689.81683,0.0897216796875,0.15301513671875,0.99713134765625,-10.3179931640625,11.544189453125,7.947845458984375,1,1.0,1.0,1.0,1.0,10.00
2024-10-11 20:47:42.515,0.6903135,0.5361489,0.5701236,0.47574675,0.649288,0.24910264,0.34171203,0.46983874,1.014338,0.41146708,0.32718396,0.377324,0.6150872,-0.052497204,0.72523576,0.5416947,0.13109712,-0.3828733,0.3052434,0.17075272,746.63007,803.8461,781.685,749.85345,826.0073,0.0897216796875,0.15301513671875,0.99713134765625,-10.3179931640625,11.544189453125,7.947845458984375,1,1.0,1.0,1.0,1.0,10.00
2024-10-11 20:47:42.515,0.6903135,0.5361489,0.5701236,0.47574675,0.649288,0.24910264,0.34171203,0.46983874,1.014338,0.41146708,0.32718396,0.377324,0.6150872,-0.052497204,0.72523576,0.5416947,0.13109712,-0.3828733,0.3052434,0.17075272,754.2857,805.05493,784.10254,752.27106,734.94507,0.0897216796875,0.15301513671875,0.99713134765625,-10.3179931640625,11.544189453125,7.947845458984375,1,1.0,1.0,1.0,1.0,10.00
2024-10-11 20:47:42.516,0.6903135,0.5361489,0.5701236,0.47574675,0.649288,0.24910264,0.34171203,0.46983874,1.014338,0.41146708,0.32718396,0.377324,0.6150872,-0.052497204,0.72523576,0.5416947,0.13109712,-0.3828733,0.3052434,0.17075272,755.09155,804.2491,807.47253,762.74725,687.8022,0.0897216796875,0.15301513671875,0.99713134765625,-10.3179931640625,11.544189453125,7.947845458984375,1,1.0,1.0,1.0,1.0,10.00
2024-10-11 20:47:42.517,0.6903135,0.5361489,0.5701236,0.47574675,0.649288,0.24910264,0.34171203,0.46983874,1.014338,0.41146708,0.32718396,0.377324,0.6150872,-0.052497204,0.72523576,0.5416947,0.13109712,-0.3828733,0.3052434,0.17075272,747.8388,801.02563,810.293,767.98535,860.2564,0.0897216796875,0.15301513671875,0.99713134765625,-10.3179931640625,11.544189453125,7.947845458984375,1,1.0,1.0,1.0,1.0,10.00
2024-10-11 20:47:42.518,0.6903135,0.5361489,0.5701236,0.47574675,0.649288,0.24910264,0.34171203,0.46983874,1.014338,0.41146708,0.32718396,0.377324,0.6150872,-0.052497204,0.72523576,0.5416947,0.13109712,-0.3828733,0.3052434,0.17075272,753.8828,799.011,807.8755,770.80585,952.1245,0.0897216796875,0.15301513671875,0.99713134765625,-10.3179931640625,11.544189453125,7.947845458984375,1,1.0,1.0,1.0,1.0,10.00
2024-10-11 20:47:42.519,0.6903135,0.5361489,0.5701236,0.47574675,0.649288,0.24910264,0.34171203,0.46983874,1.014338,0.41146708,0.32718396,0.377324,0.6150872,-0.052497204,0.72523576,0.5416947,0.13109712,-0.3828733,0.3052434,0.17075272,763.5531,806.6667,810.293,759.12085,697.0696,0.0897216796875,0.15301513671875,0.99713134765625,-10.3179931640625,11.544189453125,7.947845458984375,1,1.0,1.0,1.0,1.0,10.00
2024-10-11 20:47:42.519,0.6903135,0.5361489,0.5701236,0.47574675,0.649288,0.24910264,0.34171203,0.46983874,1.014338,0.41146708,0.32718396,0.377324,0.6150872,-0.052497204,0.72523576,0.5416947,0.13109712,-0.3828733,0.3052434,0.17075272,769.19415,807.0696,799.011,749.85345,560.07324,0.0897216796875,0.15301513671875,0.99713134765625,-10.3179931640625,11.544189453125,7.947845458984375,1,1.0,1.0,1.0,1.0,10.00
2024-10-11 20:47:42.520,0.6903135,0.5361489,0.5701236,0.47574675,0.649288,0.24910264,0.34171203,0.46983874,1.014338,0.41146708,0.32718396,0.377324,0.6150872,-0.052497204,0.72523576,0.5416947,0.13109712,-0.3828733,0.3052434,0.17075272,770.0,805.4579,783.2967,773.22345,743.4066,0.0897216796875,0.15301513671875,0.99713134765625,-10.3179931640625,11.544189453125,7.947845458984375,1,1.0,1.0,1.0,1.0,10.00
2024-10-11 20:47:42.521,0.6903135,0.5361489,0.5701236,0.47574675,0.649288,0.24910264,0.34171203,0.46983874,1.014338,0.41146708,0.32718396,0.377324,0.6150872,-0.052497204,0.72523576,0.5416947,0.13109712,-0.3828733,0.3052434,0.17075272,767.5824,806.6667,786.9231,786.1172,891.28204,0.0897216796875,0.15301513671875,0.99713134765625,-10.3179931640625,11.544189453125,7.947845458984375,1,1.0,1.0,1.0,1.0,10.00
2024-10-11 20:47:42.614,0.6903135,0.5361489,0.5701236,0.47574675,0.649288,0.24910264,0.34171203,0.46983874,1.014338,0.41146708,0.32718396,0.377324,0.6150872,-0.052497204,0.72523576,0.5416947,0.13109712,-0.3828733,0.3052434,0.17075272,774.0293,805.4579,799.011,780.87915,756.30035,0.059326171875,0.12872314453125,0.9979248046875,-11.596527099609375,12.538604736328125,8.516082763671875,1,1.0,1.0,1.0,1.0,10.00
2024-10-11 20:47:42.615,0.6903135,0.5361489,0.5701236,0.47574675,0.649288,0.24910264,0.34171203,0.46983874,1.014338,0.41146708,0.32718396,0.377324,0.6150872,-0.052497204,0.72523576,0.5416947,0.13109712,-0.3828733,0.3052434,0.17075272,782.0879,810.696,799.011,776.04395,649.12085,0.059326171875,0.12872314453125,0.9979248046875,-11.596527099609375,12.538604736328125,8.516082763671875,1,1.0,1.0,1.0,1.0,10.00
2024-10-11 20:47:42.615,0.6903135,0.5361489,0.5701236,0.47574675,0.649288,0.24910264,0.34171203,0.46983874,1.014338,0.41146708,0.32718396,0.377324,0.6150872,-0.052497204,0.72523576,0.5416947,0.13109712,-0.3828733,0.3052434,0.17075272,784.5055,807.47253,790.14655,777.6557,888.46155,0.059326171875,0.12872314453125,0.9979248046875,-11.596527099609375,12.538604736328125,8.516082763671875,1,1.0,1.0,1.0,1.0,10.00
2024-10-11 20:47:42.616,0.6903135,0.5361489,0.5701236,0.47574675,0.649288,0.24910264,0.34171203,0.46983874,1.014338,0.41146708,0.32718396,0.377324,0.6150872,-0.052497204,0.72523576,0.5416947,0.13109712,-0.3828733,0.3052434,0.17075272,791.75824,802.23444,800.2198,786.52014,890.87915,0.059326171875,0.12872314453125,0.9979248046875,-11.596527099609375,12.538604736328125,8.516082763671875,1,1.0,1.0,1.0,1.0,10.00
2024-10-11 20:47:42.617,0.6903135,0.5361489,0.5701236,0.47574675,0.649288,0.24910264,0.34171203,0.46983874,1.014338,0.41146708,0.32718396,0.377324,0.6150872,-0.052497204,0.72523576,0.5416947,0.13109712,-0.3828733,0.3052434,0.17075272,796.1905,806.26373,804.65204,788.5348,618.9011,0.059326171875,0.12872314453125,0.9979248046875,-11.596527099609375,12.538604736328125,8.516082763671875,1,1.0,1.0,1.0,1.0,10.00
2024-10-11 20:47:42.618,0.6903135,0.5361489,0.5701236,0.47574675,0.649288,0.24910264,0.34171203,0.46983874,1.014338,0.41146708,0.32718396,0.377324,0.6150872,-0.052497204,0.72523576,0.5416947,0.13109712,-0.3828733,0.3052434,0.17075272,792.5641,807.0696,803.8461,789.7436,830.4396,0.059326171875,0.12872314453125,0.9979248046875,-11.596527099609375,12.538604736328125,8.516082763671875,1,1.0,1.0,1.0,1.0,10.00
2024-10-11 20:47:42.618,0.6903135,0.5361489,0.5701236,0.47574675,0.649288,0.24910264,0.34171203,0.46983874,1.014338,0.41146708,0.32718396,0.377324,0.6150872,-0.052497204,0.72523576,0.5416947,0.13109712,-0.3828733,0.3052434,0.17075272,785.7143,802.23444,796.5934,792.1612,1064.1392,0.059326171875,0.12872314453125,0.9979248046875,-11.596527099609375,12.538604736328125,8.516082763671875,1,1.0,1.0,1.0,1.0,10.00
2024-10-11 20:47:42.619,0.6903135,0.5361489,0.5701236,0.47574675,0.649288,0.24910264,0.34171203,0.46983874,1.014338,0.41146708,0.32718396,0.377324,0.6150872,-0.052497204,0.72523576,0.5416947,0.13109712,-0.3828733,0.3052434,0.17075272,778.46155,803.44324,784.10254,796.1905,915.05493,0.059326171875,0.12872314453125,0.9979248046875,-11.596527099609375,12.538604736328125,8.516082763671875,1,1.0,1.0,1.0,1.0,10.00
2024-10-11 20:47:42.620,0.6903135,0.5361489,0.5701236,0.47574675,0.649288,0.24910264,0.34171203,0.46983874,1.014338,0.41146708,0.32718396,0.377324,0.6150872,-0.052497204,0.72523576,0.5416947,0.13109712,-0.3828733,0.3052434,0.17075272,785.31134,796.99634,792.1612,800.6227,724.87177,0.059326171875,0.12872314453125,0.9979248046875,-11.596527099609375,12.538604736328125,8.516082763671875,1,1.0,1.0,1.0,1.0,10.00
2024-10-11 20:47:42.621,0.72466403,0.40136892,0.56498,0.39111966,0.7122345,0.2062049,0.33097926,0.4794721,1.0063527,0.38234344,0.32718396,0.47475076,0.6180517,-0.075982474,0.7272576,0.5360891,0.12983608,-0.380611,0.2893646,0.181573,783.2967,791.3553,805.05493,796.99634,708.3516,0.059326171875,0.12872314453125,0.9979248046875,-11.596527099609375,12.538604736328125,8.516082763671875,1,1.0,1.0,1.0,1.0,10.00
2024-10-11 20:47:42.627,0.72466403,0.40136892,0.56498,0.39111966,0.7122345,0.2062049,0.33097926,0.4794721,1.0063527,0.38234344,0.32718396,0.47475076,0.6180517,-0.075982474,0.7272576,0.5360891,0.12983608,-0.380611,0.2893646,0.181573,772.4176,796.1905,804.2491,792.5641,863.8828,0.059326171875,0.12872314453125,0.9979248046875,-11.596527099609375,12.538604736328125,8.516082763671875,1,1.0,1.0,1.0,1.0,10.00
2024-10-11 20:47:42.628,0.72466403,0.40136892,0.56498,0.39111966,0.7122345,0.2062049,0.33097926,0.4794721,1.0063527,0.38234344,0.32718396,0.47475076,0.6180517,-0.075982474,0.7272576,0.5360891,0.12983608,-0.380611,0.2893646,0.181573,776.04395,801.4286,803.8461,792.5641,894.5055,0.059326171875,0.12872314453125,0.9979248046875,-11.596527099609375,12.538604736328125,8.516082763671875,1,1.0,1.0,1.0,1.0,10.00
2024-10-11 20:47:42.656,0.72466403,0.40136892,0.56498,0.39111966,0.7122345,0.2062049,0.33097926,0.4794721,1.0063527,0.38234344,0.32718396,0.47475076,0.6180517,-0.075982474,0.7272576,0.5360891,0.12983608,-0.380611,0.2893646,0.181573,790.14655,805.4579,790.9524,792.1612,747.03296,0.059326171875,0.12872314453125,0.9979248046875,-11.596527099609375,12.538604736328125,8.516082763671875,1,1.0,1.0,1.0,1.0,10.00
2024-10-11 20:47:42.657,0.72466403,0.40136892,0.56498,0.39111966,0.7122345,0.2062049,0.33097926,0.4794721,1.0063527,0.38234344,0.32718396,0.47475076,0.6180517,-0.075982474,0.7272576,0.5360891,0.12983608,-0.380611,0.2893646,0.181573,796.99634,803.0403,785.7143,799.011,788.1319,0.059326171875,0.12872314453125,0.9979248046875,-11.596527099609375,12.538604736328125,8.516082763671875,1,1.0,1.0,1.0,1.0,10.00
2024-10-11 20:47:42.658,0.72466403,0.40136892,0.56498,0.39111966,0.7122345,0.2062049,0.33097926,0.4794721,1.0063527,0.38234344,0.32718396,0.47475076,0.6180517,-0.075982474,0.7272576,0.5360891,0.12983608,-0.380611,0.2893646,0.181573,795.78754,796.1905,803.8461,800.2198,922.3077,0.059326171875,0.12872314453125,0.9979248046875,-11.596527099609375,12.538604736328125,8.516082763671875,1,1.0,1.0,1.0,1.0,10.00
2024-10-11 20:47:42.659,0.72466403,0.40136892,0.56498,0.39111966,0.7122345,0.2062049,0.33097926,0.4794721,1.0063527,0.38234344,0.32718396,0.47475076,0.6180517,-0.075982474,0.7272576,0.5360891,0.12983608,-0.380611,0.2893646,0.181573,797.8022,796.99634,802.23444,803.44324,894.10254,0.059326171875,0.12872314453125,0.9979248046875,-11.596527099609375,12.538604736328125,8.516082763671875,1,1.0,1.0,1.0,1.0,10.00
2024-10-11 20:47:42.660,0.72466403,0.40136892,0.56498,0.39111966,0.7122345,0.2062049,0.33097926,0.4794721,1.0063527,0.38234344,0.32718396,0.47475076,0.6180517,-0.075982474,0.7272576,0.5360891,0.12983608,-0.380611,0.2893646,0.181573,802.23444,798.60803,798.60803,807.8755,829.6337,0.059326171875,0.12872314453125,0.9979248046875,-11.596527099609375,12.538604736328125,8.516082763671875,1,1.0,1.0,1.0,1.0,10.00
2024-10-11 20:47:42.661,0.72466403,0.40136892,0.56498,0.39111966,0.7122345,0.2062049,0.33097926,0.4794721,1.0063527,0.38234344,0.32718396,0.47475076,0.6180517,-0.075982474,0.7272576,0.5360891,0.12983608,-0.380611,0.2893646,0.181573,804.2491,794.9817,792.5641,809.89014,1083.4799,0.059326171875,0.12872314453125,0.9979248046875,-11.596527099609375,12.538604736328125,8.516082763671875,1,1.0,1.0,1.0,1.0,10.00
2024-10-11 20:47:42.662,0.72466403,0.40136892,0.56498,0.39111966,0.7122345,0.2062049,0.33097926,0.4794721,1.0063527,0.38234344,0.32718396,0.47475076,0.6180517,-0.075982474,0.7272576,0.5360891,0.12983608,-0.380611,0.2893646,0.181573,790.54944,786.1172,790.54944,800.6227,1128.2051,0.059326171875,0.12872314453125,0.9979248046875,-11.596527099609375,12.538604736328125,8.516082763671875,1,1.0,1.0,1.0,1.0,10.00
2024-10-11 20:47:42.663,0.72466403,0.40136892,0.56498,0.39111966,0.7122345,0.2062049,0.33097926,0.4794721,1.0063527,0.38234344,0.32718396,0.47475076,0.6180517,-0.075982474,0.7272576,0.5360891,0.12983608,-0.380611,0.2893646,0.181573,782.8938,787.326,795.78754,794.9817,828.4249,0.059326171875,0.12872314453125,0.9979248046875,-11.596527099609375,12.538604736328125,8.516082763671875,1,1.0,1.0,1.0,1.0,10.00
2024-10-11 20:47:42.663,0.72466403,0.40136892,0.56498,0.39111966,0.7122345,0.2062049,0.33097926,0.4794721,1.0063527,0.38234344,0.32718396,0.47475076,0.6180517,-0.075982474,0.7272576,0.5360891,0.12983608,-0.380611,0.2893646,0.181573,793.36993,795.38464,792.1612,803.44324,692.23444,0.059326171875,0.12872314453125,0.9979248046875,-11.596527099609375,12.538604736328125,8.516082763671875,1,1.0,1.0,1.0,1.0,10.00
2024-10-11 20:47:42.664,0.72466403,0.40136892,0.56498,0.39111966,0.7122345,0.2062049,0.33097926,0.4794721,1.0063527,0.38234344,0.32718396,0.47475076,0.6180517,-0.075982474,0.7272576,0.5360891,0.12983608,-0.380611,0.2893646,0.181573,794.9817,798.20514,798.20514,809.89014,799.41394,0.059326171875,0.12872314453125,0.9979248046875,-11.596527099609375,12.538604736328125,8.516082763671875,1,1.0,1.0,1.0,1.0,10.00
2024-10-11 20:47:42.665,0.72466403,0.40136892,0.56498,0.39111966,0.7122345,0.2062049,0.33097926,0.4794721,1.0063527,0.38234344,0.32718396,0.47475076,0.6180517,-0.075982474,0.7272576,0.5360891,0.12983608,-0.380611,0.2893646,0.181573,793.36993,800.2198,794.9817,809.0842,853.8095,0.059326171875,0.12872314453125,0.9979248046875,-11.596527099609375,12.538604736328125,8.516082763671875,1,1.0,1.0,1.0,1.0,10.00
2024-10-11 20:47:42.665,0.72466403,0.40136892,0.56498,0.39111966,0.7122345,0.2062049,0.33097926,0.4794721,1.0063527,0.38234344,0.32718396,0.47475076,0.6180517,-0.075982474,0.7272576,0.5360891,0.12983608,-0.380611,0.2893646,0.181573,796.99634,796.1905,788.1319,803.44324,633.00366,0.059326171875,0.12872314453125,0.9979248046875,-11.596527099609375,12.538604736328125,8.516082763671875,1,1.0,1.0,1.0,1.0,10.00
2024-10-11 20:47:42.730,0.72466403,0.40136892,0.56498,0.39111966,0.7122345,0.2062049,0.33097926,0.4794721,1.0063527,0.38234344,0.32718396,0.47475076,0.6180517,-0.075982474,0.7272576,0.5360891,0.12983608,-0.380611,0.2893646,0.181573,802.23444,792.1612,802.23444,806.26373,654.7619,0.04437255859375,0.1063232421875,1.0008544921875,-10.923614501953125,12.12738037109375,8.874969482421875,1,1.0,1.0,1.0,1.0,10.00
2024-10-11 20:47:42.731,0.72466403,0.40136892,0.56498,0.39111966,0.7122345,0.2062049,0.33097926,0.4794721,1.0063527,0.38234344,0.32718396,0.47475076,0.6180517,-0.075982474,0.7272576,0.5360891,0.12983608,-0.380611,0.2893646,0.181573,797.3993,790.9524,809.0842,810.696,883.6264,0.04437255859375,0.1063232421875,1.0008544921875,-10.923614501953125,12.12738037109375,8.874969482421875,1,1.0,1.0,1.0,1.0,10.00
2024-10-11 20:47:42.731,0.72466403,0.40136892,0.56498,0.39111966,0.7122345,0.2062049,0.33097926,0.4794721,1.0063527,0.38234344,0.32718396,0.47475076,0.6180517,-0.075982474,0.7272576,0.5360891,0.12983608,-0.380611,0.2893646,0.181573,796.1905,792.1612,804.2491,806.6667,915.4579,0.04437255859375,0.1063232421875,1.0008544921875,-10.923614501953125,12.12738037109375,8.874969482421875,1,1.0,1.0,1.0,1.0,10.00
2024-10-11 20:47:42.732,0.72466403,0.40136892,0.56498,0.39111966,0.7122345,0.2062049,0.33097926,0.4794721,1.0063527,0.38234344,0.32718396,0.47475076,0.6180517,-0.075982474,0.7272576,0.5360891,0.12983608,-0.380611,0.2893646,0.181573,805.05493,794.57874,792.96704,807.0696,693.8461,0.04437255859375,0.1063232421875,1.0008544921875,-10.923614501953125,12.12738037109375,8.874969482421875,1,1.0,1.0,1.0,1.0,10.00
2024-10-11 20:47:42.733,0.72466403,0.40136892,0.56498,0.39111966,0.7122345,0.2062049,0.33097926,0.4794721,1.0063527,0.38234344,0.32718396,0.47475076,0.6180517,-0.075982474,0.7272576,0.5360891,0.12983608,-0.380611,0.2893646,0.181573,810.696,799.011,787.72894,804.65204,666.04395,0.04437255859375,0.1063232421875,1.0008544921875,-10.923614501953125,12.12738037109375,8.874969482421875,1,1.0,1.0,1.0,1.0,10.00
2024-10-11 20:47:42.734,0.72466403,0.40136892,0.56498,0.39111966,0.7122345,0.2062049,0.33097926,0.4794721,1.0063527,0.38234344,0.32718396,0.47475076,0.6180517,-0.075982474,0.7272576,0.5360891,0.12983608,-0.380611,0.2893646,0.181573,810.696,799.011,788.5348,806.26373,928.3516,0.04437255859375,0.1063232421875,1.0008544921875,-10.923614501953125,12.12738037109375,8.874969482421875,1,1.0,1.0,1.0,1.0,10.00
2024-10-11 20:47:42.734,0.72466403,0.40136892,0.56498,0.39111966,0.7122345,0.2062049,0.33097926,0.4794721,1.0063527,0.38234344,0.32718396,0.47475076,0.6180517,-0.075982474,0.7272576,0.5360891,0.12983608,-0.380611,0.2893646,0.181573,814.7253,794.9817,794.57874,804.2491,972.27106,0.04437255859375,0.1063232421875,1.0008544921875,-10.923614501953125,12.12738037109375,8.874969482421875,1,1.0,1.0,1.0,1.0,10.00
2024-10-11 20:47:42.735,0.72466403,0.40136892,0.56498,0.39111966,0.7122345,0.2062049,0.33097926,0.4794721,1.0063527,0.38234344,0.32718396,0.47475076,0.6180517,-0.075982474,0.7272576,0.5360891,0.12983608,-0.380611,0.2893646,0.181573,813.5165,797.3993,801.8315,799.81683,686.1905,0.04437255859375,0.1063232421875,1.0008544921875,-10.923614501953125,12.12738037109375,8.874969482421875,1,1.0,1.0,1.0,1.0,10.00
2024-10-11 20:47:42.736,0.72466403,0.40136892,0.56498,0.39111966,0.7122345,0.2062049,0.33097926,0.4794721,1.0063527,0.38234344,0.32718396,0.47475076,0.6180517,-0.075982474,0.7272576,0.5360891,0.12983608,-0.380611,0.2893646,0.181573,809.4872,799.81683,789.7436,803.0403,649.5238,0.04437255859375,0.1063232421875,1.0008544921875,-10.923614501953125,12.12738037109375,8.874969482421875,1,1.0,1.0,1.0,1.0,10.00
2024-10-11 20:47:42.736,0.72466403,0.40136892,0.56498,0.39111966,0.7122345,0.2062049,0.33097926,0.4794721,1.0063527,0.38234344,0.32718396,0.47475076,0.6180517,-0.075982474,0.7272576,0.5360891,0.12983608,-0.380611,0.2893646,0.181573,805.05493,799.011,786.52014,803.44324,793.7729,0.04437255859375,0.1063232421875,1.0008544921875,-10.923614501953125,12.12738037109375,8.874969482421875,1,1.0,1.0,1.0,1.0,10.00
2024-10-11 20:47:42.737,0.72466403,0.40136892,0.56498,0.39111966,0.7122345,0.2062049,0.33097926,0.4794721,1.0063527,0.38234344,0.32718396,0.47475076,0.6180517,-0.075982474,0.7272576,0.5360891,0.12983608,-0.380611,0.2893646,0.181573,795.78754,797.8022,793.7729,802.23444,733.73627,0.04437255859375,0.1063232421875,1.0008544921875,-10.923614501953125,12.12738037109375,8.874969482421875,1,1.0,1.0,1.0,1.0,10.00
2024-10-11 20:47:42.738,0.75626683,0.25045636,0.54951775,0.37445498,0.7722573,0.13813867,0.3206776,0.5349704,0.98883474,0.33458102,0.32718396,0.62796897,0.6240058,-0.104060106,0.7303447,0.53823227,0.11807676,-0.3755694,0.28676352,0.1779446,795.78754,799.011,801.02563,796.99634,584.2491,0.04437255859375,0.1063232421875,1.0008544921875,-10.923614501953125,12.12738037109375,8.874969482421875,1,1.0,1.0,1.0,1.0,10.00
2024-10-11 20:47:42.849,0.75626683,0.25045636,0.54951775,0.37445498,0.7722573,0.13813867,0.3206776,0.5349704,0.98883474,0.33458102,0.32718396,0.62796897,0.6240058,-0.104060106,0.7303447,0.53823227,0.11807676,-0.3755694,0.28676352,0.1779446,808.2784,805.8608,812.3077,800.6227,630.989,0.03363037109375,0.0831298828125,1.00823974609375,-11.55914306640625,11.985321044921875,8.336639404296875,1,1.0,1.0,1.0,1.0,10.00
2024-10-11 20:47:42.850,0.75626683,0.25045636,0.54951775,0.37445498,0.7722573,0.13813867,0.3206776,0.5349704,0.98883474,0.33458102,0.32718396,0.62796897,0.6240058,-0.104060106,0.7303447,0.53823227,0.11807676,-0.3755694,0.28676352,0.1779446,809.0842,804.65204,814.3223,807.0696,791.75824,0.03363037109375,0.0831298828125,1.00823974609375,-11.55914306640625,11.985321044921875,8.336639404296875,1,1.0,1.0,1.0,1.0,10.00
2024-10-11 20:47:42.851,0.75626683,0.25045636,0.54951775,0.37445498,0.7722573,0.13813867,0.3206776,0.5349704,0.98883474,0.33458102,0.32718396,0.62796897,0.6240058,-0.104060106,0.7303447,0.53823227,0.11807676,-0.3755694,0.28676352,0.1779446,803.0403,800.2198,807.47253,810.696,801.4286,0.03363037109375,0.0831298828125,1.00823974609375,-11.55914306640625,11.985321044921875,8.336639404296875,1,1.0,1.0,1.0,1.0,10.00
2024-10-11 20:47:42.852,0.75626683,0.25045636,0.54951775,0.37445498,0.7722573,0.13813867,0.3206776,0.5349704,0.98883474,0.33458102,0.32718396,0.62796897,0.6240058,-0.104060106,0.7303447,0.53823227,0.11807676,-0.3755694,0.28676352,0.1779446,810.696,799.81683,799.011,817.5458,663.6264,0.03363037109375,0.0831298828125,1.00823974609375,-11.55914306640625,11.985321044921875,8.336639404296875,1,1.0,1.0,1.0,1.0,10.00
2024-10-11 20:47:42.852,0.75626683,0.25045636,0.54951775,0.37445498,0.7722573,0.13813867,0.3206776,0.5349704,0.98883474,0.33458102,0.32718396,0.62796897,0.6240058,-0.104060106,0.7303447,0.53823227,0.11807676,-0.3755694,0.28676352,0.1779446,816.7399,796.99634,801.8315,817.9487,732.1245,0.03363037109375,0.0831298828125,1.00823974609375,-11.55914306640625,11.985321044921875,8.336639404296875,1,1.0,1.0,1.0,1.0,10.00
2024-10-11 20:47:42.853,0.75626683,0.25045636,0.54951775,0.37445498,0.7722573,0.13813867,0.3206776,0.5349704,0.98883474,0.33458102,0.32718396,0.62796897,0.6240058,-0.104060106,0.7303447,0.53823227,0.11807676,-0.3755694,0.28676352,0.1779446,813.1135,792.96704,804.2491,813.1135,1016.1905,0.03363037109375,0.0831298828125,1.00823974609375,-11.55914306640625,11.985321044921875,8.336639404296875,1,1.0,1.0,1.0,1.0,10.00
2024-10-11 20:47:42.854,0.75626683,0.25045636,0.54951775,0.37445498,0.7722573,0.13813867,0.3206776,0.5349704,0.98883474,0.33458102,0.32718396,0.62796897,0.6240058,-0.104060106,0.7303447,0.53823227,0.11807676,-0.3755694,0.28676352,0.1779446,817.5458,796.1905,796.1905,809.89014,928.3516,0.03363037109375,0.0831298828125,1.00823974609375,-11.55914306640625,11.985321044921875,8.336639404296875,1,1.0,1.0,1.0,1.0,10.00
2024-10-11 20:47:42.855,0.75626683,0.25045636,0.54951775,0.37445498,0.7722573,0.13813867,0.3206776,0.5349704,0.98883474,0.33458102,0.32718396,0.62796897,0.6240058,-0.104060106,0.7303447,0.53823227,0.11807676,-0.3755694,0.28676352,0.1779446,817.1429,798.60803,793.7729,803.0403,679.7436,0.03363037109375,0.0831298828125,1.00823974609375,-11.55914306640625,11.985321044921875,8.336639404296875,1,1.0,1.0,1.0,1.0,10.00
2024-10-11 20:47:42.855,0.75626683,0.25045636,0.54951775,0.37445498,0.7722573,0.13813867,0.3206776,0.5349704,0.98883474,0.33458102,0.32718396,0.62796897,0.6240058,-0.104060106,0.7303447,0.53823227,0.11807676,-0.3755694,0.28676352,0.1779446,814.3223,798.60803,790.9524,800.2198,924.3223,0.03363037109375,0.0831298828125,1.00823974609375,-11.55914306640625,11.985321044921875,8.336639404296875,1,1.0,1.0,1.0,1.0,10.00
2024-10-11 20:47:42.856,0.75626683,0.25045636,0.54951775,0.37445498,0.7722573,0.13813867,0.3206776,0.5349704,0.98883474,0.33458102,0.32718396,0.62796897,0.6240058,-0.104060106,0.7303447,0.53823227,0.11807676,-0.3755694,0.28676352,0.1779446,817.9487,801.4286,805.05493,803.0403,1019.81683,0.03363037109375,0.0831298828125,1.00823974609375,-11.55914306640625,11.985321044921875,8.336639404296875,1,1.0,1.0,1.0,1.0,10.00
2024-10-11 20:47:42.857,0.75626683,0.25045636,0.54951775,0.37445498,0.7722573,0.13813867,0.3206776,0.5349704,0.98883474,0.33458102,0.32718396,0.62796897,0.6240058,-0.104060106,0.7303447,0.53823227,0.11807676,-0.3755694,0.28676352,0.1779446,813.5165,800.2198,817.9487,802.23444,732.9304,0.03363037109375,0.0831298828125,1.00823974609375,-11.55914306640625,11.985321044921875,8.336639404296875,1,1.0,1.0,1.0,1.0,10.00
2024-10-11 20:47:42.858,0.75626683,0.25045636,0.54951775,0.37445498,0.7722573,0.13813867,0.3206776,0.5349704,0.98883474,0.33458102,0.32718396,0.62796897,0.6240058,-0.104060106,0.7303447,0.53823227,0.11807676,-0.3755694,0.28676352,0.1779446,807.0696,798.20514,804.65204,801.8315,579.81683,0.03363037109375,0.0831298828125,1.00823974609375,-11.55914306640625,11.985321044921875,8.336639404296875,1,1.0,1.0,1.0,1.0,10.00
2024-10-11 20:47:42.887,0.75626683,0.25045636,0.54951775,0.37445498,0.7722573,0.13813867,0.3206776,0.5349704,0.98883474,0.33458102,0.32718396,0.62796897,0.6240058,-0.104060106,0.7303447,0.53823227,0.11807676,-0.3755694,0.28676352,0.1779446,811.9048,796.5934,794.9817,807.0696,735.34796,0.01202392578125,0.06500244140625,1.002685546875,-11.581573486328125,13.3685302734375,7.29736328125,1,1.0,1.0,1.0,1.0,10.00
2024-10-11 20:47:42.888,0.75626683,0.25045636,0.54951775,0.37445498,0.7722573,0.13813867,0.3206776,0.5349704,0.98883474,0.33458102,0.32718396,0.62796897,0.6240058,-0.104060106,0.7303447,0.53823227,0.11807676,-0.3755694,0.28676352,0.1779446,816.7399,796.99634,801.4286,815.12823,867.1062,0.01202392578125,0.06500244140625,1.002685546875,-11.581573486328125,13.3685302734375,7.29736328125,1,1.0,1.0,1.0,1.0,10.00
2024-10-11 20:47:42.889,0.75626683,0.25045636,0.54951775,0.37445498,0.7722573,0.13813867,0.3206776,0.5349704,0.98883474,0.33458102,0.32718396,0.62796897,0.6240058,-0.104060106,0.7303447,0.53823227,0.11807676,-0.3755694,0.28676352,0.1779446,817.9487,797.8022,811.50183,816.337,649.5238,0.01202392578125,0.06500244140625,1.002685546875,-11.581573486328125,13.3685302734375,7.29736328125,1,1.0,1.0,1.0,1.0,10.00
2024-10-11 20:47:42.890,0.75626683,0.25045636,0.54951775,0.37445498,0.7722573,0.13813867,0.3206776,0.5349704,0.98883474,0.33458102,0.32718396,0.62796897,0.6240058,-0.104060106,0.7303447,0.53823227,0.11807676,-0.3755694,0.28676352,0.1779446,813.91943,797.3993,808.68134,815.12823,594.7253,0.01202392578125,0.06500244140625,1.002685546875,-11.581573486328125,13.3685302734375,7.29736328125,1,1.0,1.0,1.0,1.0,10.00
2024-10-11 20:47:42.891,0.75626683,0.25045636,0.54951775,0.37445498,0.7722573,0.13813867,0.3206776,0.5349704,0.98883474,0.33458102,0.32718396,0.62796897,0.6240058,-0.104060106,0.7303447,0.53823227,0.11807676,-0.3755694,0.28676352,0.1779446,815.5311,798.20514,785.31134,815.9341,781.685,0.01202392578125,0.06500244140625,1.002685546875,-11.581573486328125,13.3685302734375,7.29736328125,1,1.0,1.0,1.0,1.0,10.00
2024-10-11 20:47:42.891,0.75626683,0.25045636,0.54951775,0.37445498,0.7722573,0.13813867,0.3206776,0.5349704,0.98883474,0.33458102,0.32718396,0.62796897,0.6240058,-0.104060106,0.7303447,0.53823227,0.11807676,-0.3755694,0.28676352,0.1779446,825.2015,796.1905,784.5055,818.3516,973.47986,0.01202392578125,0.06500244140625,1.002685546875,-11.581573486328125,13.3685302734375,7.29736328125,1,1.0,1.0,1.0,1.0,10.00
2024-10-11 20:47:42.892,0.75626683,0.25045636,0.54951775,0.37445498,0.7722573,0.13813867,0.3206776,0.5349704,0.98883474,0.33458102,0.32718396,0.62796897,0.6240058,-0.104060106,0.7303447,0.53823227,0.11807676,-0.3755694,0.28676352,0.1779446,823.1868,794.9817,796.5934,809.4872,921.9048,0.01202392578125,0.06500244140625,1.002685546875,-11.581573486328125,13.3685302734375,7.29736328125,1,1.0,1.0,1.0,1.0,10.00
2024-10-11 20:47:42.893,0.75626683,0.25045636,0.54951775,0.37445498,0.7722573,0.13813867,0.3206776,0.5349704,0.98883474,0.33458102,0.32718396,0.62796897,0.6240058,-0.104060106,0.7303447,0.53823227,0.11807676,-0.3755694,0.28676352,0.1779446,816.337,795.38464,799.81683,794.17584,763.1502,0.01202392578125,0.06500244140625,1.002685546875,-11.581573486328125,13.3685302734375,7.29736328125,1,1.0,1.0,1.0,1.0,10.00
2024-10-11 20:47:42.894,0.75626683,0.25045636,0.54951775,0.37445498,0.7722573,0.13813867,0.3206776,0.5349704,0.98883474,0.33458102,0.32718396,0.62796897,0.6240058,-0.104060106,0.7303447,0.53823227,0.11807676,-0.3755694,0.28676352,0.1779446,814.7253,794.9817,805.8608,799.011,718.4249,0.01202392578125,0.06500244140625,1.002685546875,-11.581573486328125,13.3685302734375,7.29736328125,1,1.0,1.0,1.0,1.0,10.00
2024-10-11 20:47:42.895,0.75626683,0.25045636,0.54951775,0.37445498,0.7722573,0.13813867,0.3206776,0.5349704,0.98883474,0.33458102,0.32718396,0.62796897,0.6240058,-0.104060106,0.7303447,0.53823227,0.11807676,-0.3755694,0.28676352,0.1779446,812.71063,798.20514,807.0696,809.0842,633.4066,0.01202392578125,0.06500244140625,1.002685546875,-11.581573486328125,13.3685302734375,7.29736328125,1,1.0,1.0,1.0,1.0,10.00
2024-10-11 20:47:42.896,0.75626683,0.25045636,0.54951775,0.37445498,0.7722573,0.13813867,0.3206776,0.5349704,0.98883474,0.33458102,0.32718396,0.62796897,0.6240058,-0.104060106,0.7303447,0.53823227,0.11807676,-0.3755694,0.28676352,0.1779446,807.47253,796.5934,805.4579,809.0842,583.44324,0.01202392578125,0.06500244140625,1.002685546875,-11.581573486328125,13.3685302734375,7.29736328125,1,1.0,1.0,1.0,1.0,10.00
2024-10-11 20:47:42.897,0.75626683,0.25045636,0.54951775,0.37445498,0.7722573,0.13813867,0.3206776,0.5349704,0.98883474,0.33458102,0.32718396,0.62796897,0.6240058,-0.104060106,0.7303447,0.53823227,0.11807676,-0.3755694,0.28676352,0.1779446,813.1135,794.57874,793.7729,805.4579,671.685,0.01202392578125,0.06500244140625,1.002685546875,-11.581573486328125,13.3685302734375,7.29736328125,1,1.0,1.0,1.0,1.0,10.00
2024-10-11 20:47:42.965,0.75626683,0.25045636,0.54951775,0.37445498,0.7722573,0.13813867,0.3206776,0.5349704,0.98883474,0.33458102,0.32718396,0.62796897,0.6240058,-0.104060106,0.7303447,0.53823227,0.11807676,-0.3755694,0.28676352,0.1779446,819.15753,798.60803,781.685,801.4286,678.5348,-0.01226806640625,0.04656982421875,0.99951171875,-9.88433837890625,16.262054443359375,5.62255859375,1,1.0,1.0,1.0,1.0,10.00
2024-10-11 20:47:42.966,0.8235307,0.1383256,0.5304172,0.5505536,0.8447145,0.070860036,0.31546637,0.63471967,0.9848686,0.31565592,0.32718396,0.767091,0.63255274,-0.13591772,0.7335805,0.5406515,0.095316954,-0.37064123,0.29892114,0.16994944,811.9048,799.81683,795.38464,801.8315,613.663,-0.01226806640625,0.04656982421875,0.99951171875,-9.88433837890625,16.262054443359375,5.62255859375,1,1.0,1.0,1.0,1.0,10.00
2024-10-11 20:47:42.972,0.8235307,0.1383256,0.5304172,0.5505536,0.8447145,0.070860036,0.31546637,0.63471967,0.9848686,0.31565592,0.32718396,0.767091,0.63255274,-0.13591772,0.7335805,0.5406515,0.095316954,-0.37064123,0.29892114,0.16994944,802.6374,798.60803,810.293,803.0403,578.60803,-0.01226806640625,0.04656982421875,0.99951171875,-9.88433837890625,16.262054443359375,5.62255859375,1,1.0,1.0,1.0,1.0,10.00
2024-10-11 20:47:42.972,0.8235307,0.1383256,0.5304172,0.5505536,0.8447145,0.070860036,0.31546637,0.63471967,0.9848686,0.31565592,0.32718396,0.767091,0.63255274,-0.13591772,0.7335805,0.5406515,0.095316954,-0.37064123,0.29892114,0.16994944,803.0403,793.36993,802.6374,803.0403,645.89746,-0.01226806640625,0.04656982421875,0.99951171875,-9.88433837890625,16.262054443359375,5.62255859375,1,1.0,1.0,1.0,1.0,10.00
2024-10-11 20:47:42.973,0.8235307,0.1383256,0.5304172,0.5505536,0.8447145,0.070860036,0.31546637,0.63471967,0.9848686,0.31565592,0.32718396,0.767091,0.63255274,-0.13591772,0.7335805,0.5406515,0.095316954,-0.37064123,0.29892114,0.16994944,805.8608,792.96704,797.3993,805.05493,803.8461,-0.01226806640625,0.04656982421875,0.99951171875,-9.88433837890625,16.262054443359375,5.62255859375,1,1.0,1.0,1.0,1.0,10.00
2024-10-11 20:47:42.974,0.8235307,0.1383256,0.5304172,0.5505536,0.8447145,0.070860036,0.31546637,0.63471967,0.9848686,0.31565592,0.32718396,0.767091,0.63255274,-0.13591772,0.7335805,0.5406515,0.095316954,-0.37064123,0.29892114,0.16994944,804.2491,799.011,788.1319,801.8315,775.64105,-0.01226806640625,0.04656982421875,0.99951171875,-9.88433837890625,16.262054443359375,5.62255859375,1,1.0,1.0,1.0,1.0,10.00
2024-10-11 20:47:42.975,0.8235307,0.1383256,0.5304172,0.5505536,0.8447145,0.070860036,0.31546637,0.63471967,0.9848686,0.31565592,0.32718396,0.767091,0.63255274,-0.13591772,0.7335805,0.5406515,0.095316954,-0.37064123,0.29892114,0.16994944,801.4286,796.99634,790.54944,801.02563,720.84247,-0.01226806640625,0.04656982421875,0.99951171875,-9.88433837890625,16.262054443359375,5.62255859375,1,1.0,1.0,1.0,1.0,10.00
2024-10-11 20:47:42.976,0.8235307,0.1383256,0.5304172,0.5505536,0.8447145,0.070860036,0.31546637,0.63471967,0.9848686,0.31565592,0.32718396,0.767091,0.63255274,-0.13591772,0.7335805,0.5406515,0.095316954,-0.37064123,0.29892114,0.16994944,798.20514,789.7436,803.44324,805.05493,852.6007,-0.01226806640625,0.04656982421875,0.99951171875,-9.88433837890625,16.262054443359375,5.62255859375,1,1.0,1.0,1.0,1.0,10.00
2024-10-11 20:47:42.977,0.8235307,0.1383256,0.5304172,0.5505536,0.8447145,0.070860036,0.31546637,0.63471967,0.9848686,0.31565592,0.32718396,0.767091,0.63255274,-0.13591772,0.7335805,0.5406515,0.095316954,-0.37064123,0.29892114,0.16994944,797.8022,791.75824,804.65204,803.0403,861.06226,-0.01226806640625,0.04656982421875,0.99951171875,-9.88433837890625,16.262054443359375,5.62255859375,1,1.0,1.0,1.0,1.0,10.00
2024-10-11 20:47:42.978,0.8235307,0.1383256,0.5304172,0.5505536,0.8447145,0.070860036,0.31546637,0.63471967,0.9848686,0.31565592,0.32718396,0.767091,0.63255274,-0.13591772,0.7335805,0.5406515,0.095316954,-0.37064123,0.29892114,0.16994944,805.05493,798.60803,796.1905,801.4286,701.0989,-0.01226806640625,0.04656982421875,0.99951171875,-9.88433837890625,16.262054443359375,5.62255859375,1,1.0,1.0,1.0,1.0,10.00
2024-10-11 20:47:42.979,0.8235307,0.1383256,0.5304172,0.5505536,0.8447145,0.070860036,0.31546637,0.63471967,0.9848686,0.31565592,0.32718396,0.767091,0.63255274,-0.13591772,0.7335805,0.5406515,0.095316954,-0.37064123,0.29892114,0.16994944,805.4579,800.2198,790.54944,802.23444,660.40295,-0.01226806640625,0.04656982421875,0.99951171875,-9.88433837890625,16.262054443359375,5.62255859375,1,1.0,1.0,1.0,1.0,10.00
2024-10-11 20:47:42.979,0.8235307,0.1383256,0.5304172,0.5505536,0.8447145,0.070860036,0.31546637,0.63471967,0.9848686,0.31565592,0.32718396,0.767091,0.63255274,-0.13591772,0.7335805,0.5406515,0.095316954,-0.37064123,0.29892114,0.16994944,802.23444,794.57874,795.38464,805.05493,850.18317,-0.01226806640625,0.04656982421875,0.99951171875,-9.88433837890625,16.262054443359375,5.62255859375,1,1.0,1.0,1.0,1.0,10.00
2024-10-11 20:47:43.082,0.8235307,0.1383256,0.5304172,0.5505536,0.8447145,0.070860036,0.31546637,0.63471967,0.9848686,0.31565592,0.32718396,0.767091,0.63255274,-0.13591772,0.7335805,0.5406515,0.095316954,-0.37064123,0.29892114,0.16994944,808.2784,792.1612,802.23444,811.0989,813.91943,-0.04852294921875,0.03155517578125,0.9981689453125,-7.65625,16.568603515625,4.05242919921875,1,1.0,1.0,1.0,1.0,10.00
2024-10-11 20:47:43.083,0.8235307,0.1383256,0.5304172,0.5505536,0.8447145,0.070860036,0.31546637,0.63471967,0.9848686,0.31565592,0.32718396,0.767091,0.63255274,-0.13591772,0.7335805,0.5406515,0.095316954,-0.37064123,0.29892114,0.16994944,807.8755,789.7436,809.89014,812.71063,539.92676,-0.04852294921875,0.03155517578125,0.9981689453125,-7.65625,16.568603515625,4.05242919921875,1,1.0,1.0,1.0,1.0,10.00
2024-10-11 20:47:43.084,0.8235307,0.1383256,0.5304172,0.5505536,0.8447145,0.070860036,0.31546637,0.63471967,0.9848686,0.31565592,0.32718396,0.767091,0.63255274,-0.13591772,0.7335805,0.5406515,0.095316954,-0.37064123,0.29892114,0.16994944,810.696,790.14655,806.6667,806.6667,527.03296,-0.04852294921875,0.03155517578125,0.9981689453125,-7.65625,16.568603515625,4.05242919921875,1,1.0,1.0,1.0,1.0,10.00
2024-10-11 20:47:43.085,0.8235307,0.1383256,0.5304172,0.5505536,0.8447145,0.070860036,0.31546637,0.63471967,0.9848686,0.31565592,0.32718396,0.767091,0.63255274,-0.13591772,0.7335805,0.5406515,0.095316954,-0.37064123,0.29892114,0.16994944,815.12823,791.75824,797.8022,807.0696,728.49817,-0.04852294921875,0.03155517578125,0.9981689453125,-7.65625,16.568603515625,4.05242919921875,1,1.0,1.0,1.0,1.0,10.00
2024-10-11 20:47:43.085,0.8235307,0.1383256,0.5304172,0.5505536,0.8447145,0.070860036,0.31546637,0.63471967,0.9848686,0.31565592,0.32718396,0.767091,0.63255274,-0.13591772,0.7335805,0.5406515,0.095316954,-0.37064123,0.29892114,0.16994944,806.6667,788.1319,784.90845,810.696,727.6923,-0.04852294921875,0.03155517578125,0.9981689453125,-7.65625,16.568603515625,4.05242919921875,1,1.0,1.0,1.0,1.0,10.00
2024-10-11 20:47:43.086,0.8235307,0.1383256,0.5304172,0.5505536,0.8447145,0.070860036,0.31546637,0.63471967,0.9848686,0.31565592,0.32718396,0.767091,0.63255274,-0.13591772,0.7335805,0.5406515,0.095316954,-0.37064123,0.29892114,0.16994944,803.8461,785.31134,793.36993,807.8755,606.0073,-0.04852294921875,0.03155517578125,0.9981689453125,-7.65625,16.568603515625,4.05242919921875,1,1.0,1.0,1.0,1.0,10.00
2024-10-11 20:47:43.087,0.8235307,0.1383256,0.5304172,0.5505536,0.8447145,0.070860036,0.31546637,0.63471967,0.9848686,0.31565592,0.32718396,0.767091,0.63255274,-0.13591772,0.7335805,0.5406515,0.095316954,-0.37064123,0.29892114,0.16994944,809.0842,794.57874,808.68134,812.3077,654.35895,-0.04852294921875,0.03155517578125,0.9981689453125,-7.65625,16.568603515625,4.05242919921875,1,1.0,1.0,1.0,1.0,10.00
2024-10-11 20:47:43.087,0.8235307,0.1383256,0.5304172,0.5505536,0.8447145,0.070860036,0.31546637,0.63471967,0.9848686,0.31565592,0.32718396,0.767091,0.63255274,-0.13591772,0.7335805,0.5406515,0.095316954,-0.37064123,0.29892114,0.16994944,810.293,799.81683,794.57874,818.7546,796.5934,-0.04852294921875,0.03155517578125,0.9981689453125,-7.65625,16.568603515625,4.05242919921875,1,1.0,1.0,1.0,1.0,10.00
2024-10-11 20:47:43.088,0.8235307,0.1383256,0.5304172,0.5505536,0.8447145,0.070860036,0.31546637,0.63471967,0.9848686,0.31565592,0.32718396,0.767091,0.63255274,-0.13591772,0.7335805,0.5406515,0.095316954,-0.37064123,0.29892114,0.16994944,804.65204,794.9817,788.1319,813.5165,795.78754,-0.04852294921875,0.03155517578125,0.9981689453125,-7.65625,16.568603515625,4.05242919921875,1,1.0,1.0,1.0,1.0,10.00
2024-10-11 20:47:43.089,0.8235307,0.1383256,0.5304172,0.5505536,0.8447145,0.070860036,0.31546637,0.63471967,0.9848686,0.31565592,0.32718396,0.767091,0.63255274,-0.13591772,0.7335805,0.5406515,0.095316954,-0.37064123,0.29892114,0.16994944,808.68134,796.5934,803.44324,806.6667,649.92676,-0.04852294921875,0.03155517578125,0.9981689453125,-7.65625,16.568603515625,4.05242919921875,1,1.0,1.0,1.0,1.0,10.00
2024-10-11 20:47:43.090,0.8235307,0.1383256,0.5304172,0.5505536,0.8447145,0.070860036,0.31546637,0.63471967,0.9848686,0.31565592,0.32718396,0.767091,0.63255274,-0.13591772,0.7335805,0.5406515,0.095316954,-0.37064123,0.29892114,0.16994944,813.1135,796.1905,804.2491,805.8608,680.9524,-0.04852294921875,0.03155517578125,0.9981689453125,-7.65625,16.568603515625,4.05242919921875,1,1.0,1.0,1.0,1.0,10.00
2024-10-11 20:47:43.091,0.8235307,0.1383256,0.5304172,0.5505536,0.8447145,0.070860036,0.31546637,0.63471967,0.9848686,0.31565592,0.32718396,0.767091,0.63255274,-0.13591772,0.7335805,0.5406515,0.095316954,-0.37064123,0.29892114,0.16994944,804.65204,791.75824,795.38464,805.4579,828.8278,-0.04852294921875,0.03155517578125,0.9981689453125,-7.65625,16.568603515625,4.05242919921875,1,1.0,1.0,1.0,1.0,10.00
2024-10-11 20:47:43.118,0.8235307,0.1383256,0.5304172,0.5505536,0.8447145,0.070860036,0.31546637,0.63471967,0.9848686,0.31565592,0.32718396,0.767091,0.63255274,-0.13591772,0.7335805,0.5406515,0.095316954,-0.37064123,0.29892114,0.16994944,806.26373,792.96704,799.011,806.6667,781.28204,-0.04852294921875,0.03155517578125,0.9981689453125,-7.65625,16.568603515625,4.05242919921875,1,1.0,1.0,1.0,1.0,10.00
2024-10-11 20:47:43.119,0.8235307,0.1383256,0.5304172,0.5505536,0.8447145,0.070860036,0.31546637,0.63471967,0.9848686,0.31565592,0.32718396,0.767091,0.63255274,-0.13591772,0.7335805,0.5406515,0.095316954,-0.37064123,0.29892114,0.16994944,817.5458,798.20514,797.8022,806.6667,630.58606,-0.04852294921875,0.03155517578125,0.9981689453125,-7.65625,16.568603515625,4.05242919921875,1,1.0,1.0,1.0,1.0,10.00
2024-10-11 20:47:43.120,0.8235307,0.1383256,0.5304172,0.5505536,0.8447145,0.070860036,0.31546637,0.63471967,0.9848686,0.31565592,0.32718396,0.767091,0.63255274,-0.13591772,0.7335805,0.5406515,0.095316954,-0.37064123,0.29892114,0.16994944,812.71063,796.99634,787.326,804.65204,756.7033,-0.04852294921875,0.03155517578125,0.9981689453125,-7.65625,16.568603515625,4.05242919921875,1,1.0,1.0,1.0,1.0,10.00
2024-10-11 20:47:43.120,0.94172317,0.08166711,0.47871184,0.7454279,0.9260281,0.034145635,0.2914308,0.7399609,1.0024893,0.31287786,0.3224192,0.8248016,0.6405985,-0.1693363,0.7462356,0.53817415,0.07028857,-0.36883166,0.32116836,0.16406722,802.6374,796.99634,796.1905,809.0842,839.304,-0.04852294921875,0.03155517578125,0.9981689453125,-7.65625,16.568603515625,4.05242919921875,1,1.0,1.0,1.0,1.0,10.00
2024-10-11 20:47:43.126,0.94172317,0.08166711,0.47871184,0.7454279,0.9260281,0.034145635,0.2914308,0.7399609,1.0024893,0.31287786,0.3224192,0.8248016,0.6405985,-0.1693363,0.7462356,0.53817415,0.07028857,-0.36883166,0.32116836,0.16406722,801.8315,797.3993,809.4872,807.8755,741.39197,-0.04852294921875,0.03155517578125,0.9981689453125,-7.65625,16.568603515625,4.05242919921875,1,1.0,1.0,1.0,1.0,10.00
2024-10-11 20:47:43.128,0.94172317,0.08166711,0.47871184,0.7454279,0.9260281,0.034145635,0.2914308,0.7399609,1.0024893,0.31287786,0.3224192,0.8248016,0.6405985,-0.1693363,0.7462356,0.53817415,0.07028857,-0.36883166,0.32116836,0.16406722,798.60803,792.5641,782.8938,805.4579,636.2271,-0.04852294921875,0.03155517578125,0.9981689453125,-7.65625,16.568603515625,4.05242919921875,1,1.0,1.0,1.0,1.0,10.00
2024-10-11 20:47:43.128,0.94172317,0.08166711,0.47871184,0.7454279,0.9260281,0.034145635,0.2914308,0.7399609,1.0024893,0.31287786,0.3224192,0.8248016,0.6405985,-0.1693363,0.7462356,0.53817415,0.07028857,-0.36883166,0.32116836,0.16406722,795.38464,792.96704,786.1172,802.23444,814.3223,-0.04852294921875,0.03155517578125,0.9981689453125,-7.65625,16.568603515625,4.05242919921875,1,1.0,1.0,1.0,1.0,10.00
2024-10-11 20:47:43.129,0.94172317,0.08166711,0.47871184,0.7454279,0.9260281,0.034145635,0.2914308,0.7399609,1.0024893,0.31287786,0.3224192,0.8248016,0.6405985,-0.1693363,0.7462356,0.53817415,0.07028857,-0.36883166,0.32116836,0.16406722,794.9817,790.9524,814.3223,799.011,884.0293,-0.04852294921875,0.03155517578125,0.9981689453125,-7.65625,16.568603515625,4.05242919921875,1,1.0,1.0,1.0,1.0,10.00
2024-10-11 20:47:43.130,0.94172317,0.08166711,0.47871184,0.7454279,0.9260281,0.034145635,0.2914308,0.7399609,1.0024893,0.31287786,0.3224192,0.8248016,0.6405985,-0.1693363,0.7462356,0.53817415,0.07028857,-0.36883166,0.32116836,0.16406722,793.7729,786.1172,805.8608,800.6227,643.0769,-0.04852294921875,0.03155517578125,0.9981689453125,-7.65625,16.568603515625,4.05242919921875,1,1.0,1.0,1.0,1.0,10.00
2024-10-11 20:47:43.131,0.94172317,0.08166711,0.47871184,0.7454279,0.9260281,0.034145635,0.2914308,0.7399609,1.0024893,0.31287786,0.3224192,0.8248016,0.6405985,-0.1693363,0.7462356,0.53817415,0.07028857,-0.36883166,0.32116836,0.16406722,798.60803,788.93774,799.81683,799.41394,573.7729,-0.04852294921875,0.03155517578125,0.9981689453125,-7.65625,16.568603515625,4.05242919921875,1,1.0,1.0,1.0,1.0,10.00
2024-10-11 20:47:43.132,0.94172317,0.08166711,0.47871184,0.7454279,0.9260281,0.034145635,0.2914308,0.7399609,1.0024893,0.31287786,0.3224192,0.8248016,0.6405985,-0.1693363,0.7462356,0.53817415,0.07028857,-0.36883166,0.32116836,0.16406722,796.5934,789.7436,797.8022,795.78754,664.43225,-0.04852294921875,0.03155517578125,0.9981689453125,-7.65625,16.568603515625,4.05242919921875,1,1.0,1.0,1.0,1.0,10.00
2024-10-11 20:47:43.133,0.94172317,0.08166711,0.47871184,0.7454279,0.9260281,0.034145635,0.2914308,0.7399609,1.0024893,0.31287786,0.3224192,0.8248016,0.6405985,-0.1693363,0.7462356,0.53817415,0.07028857,-0.36883166,0.32116836,0.16406722,797.3993,790.14655,793.7729,800.6227,761.9414,-0.04852294921875,0.03155517578125,0.9981689453125,-7.65625,16.568603515625,4.05242919921875,1,1.0,1.0,1.0,1.0,10.00
2024-10-11 20:47:43.200,0.94172317,0.08166711,0.47871184,0.7454279,0.9260281,0.034145635,0.2914308,0.7399609,1.0024893,0.31287786,0.3224192,0.8248016,0.6405985,-0.1693363,0.7462356,0.53817415,0.07028857,-0.36883166,0.32116836,0.16406722,797.8022,793.36993,790.14655,806.6667,622.9304,-0.06890869140625,0.023681640625,0.99896240234375,-5.87677001953125,15.970458984375,3.45428466796875,1,1.0,1.0,1.0,1.0,10.00
2024-10-11 20:47:43.201,0.94172317,0.08166711,0.47871184,0.7454279,0.9260281,0.034145635,0.2914308,0.7399609,1.0024893,0.31287786,0.3224192,0.8248016,0.6405985,-0.1693363,0.7462356,0.53817415,0.07028857,-0.36883166,0.32116836,0.16406722,804.2491,795.38464,788.1319,809.89014,524.61536,-0.06890869140625,0.023681640625,0.99896240234375,-5.87677001953125,15.970458984375,3.45428466796875,1,1.0,1.0,1.0,1.0,10.00
2024-10-11 20:47:43.201,0.94172317,0.08166711,0.47871184,0.7454279,0.9260281,0.034145635,0.2914308,0.7399609,1.0024893,0.31287786,0.3224192,0.8248016,0.6405985,-0.1693363,0.7462356,0.53817415,0.07028857,-0.36883166,0.32116836,0.16406722,809.4872,794.17584,790.54944,801.02563,691.02563,-0.06890869140625,0.023681640625,0.99896240234375,-5.87677001953125,15.970458984375,3.45428466796875,1,1.0,1.0,1.0,1.0,10.00
2024-10-11 20:47:43.202,0.94172317,0.08166711,0.47871184,0.7454279,0.9260281,0.034145635,0.2914308,0.7399609,1.0024893,0.31287786,0.3224192,0.8248016,0.6405985,-0.1693363,0.7462356,0.53817415,0.07028857,-0.36883166,0.32116836,0.16406722,810.696,793.36993,804.2491,805.4579,817.9487,-0.06890869140625,0.023681640625,0.99896240234375,-5.87677001953125,15.970458984375,3.45428466796875,1,1.0,1.0,1.0,1.0,10.00
2024-10-11 20:47:43.203,0.94172317,0.08166711,0.47871184,0.7454279,0.9260281,0.034145635,0.2914308,0.7399609,1.0024893,0.31287786,0.3224192,0.8248016,0.6405985,-0.1693363,0.7462356,0.53817415,0.07028857,-0.36883166,0.32116836,0.16406722,814.7253,798.20514,803.44324,812.71063,668.86444,-0.06890869140625,0.023681640625,0.99896240234375,-5.87677001953125,15.970458984375,3.45428466796875,1,1.0,1.0,1.0,1.0,10.00
2024-10-11 20:47:43.203,0.94172317,0.08166711,0.47871184,0.7454279,0.9260281,0.034145635,0.2914308,0.7399609,1.0024893,0.31287786,0.3224192,0.8248016,0.6405985,-0.1693363,0.7462356,0.53817415,0.07028857,-0.36883166,0.32116836,0.16406722,810.293,797.3993,791.3553,814.3223,779.67035,-0.06890869140625,0.023681640625,0.99896240234375,-5.87677001953125,15.970458984375,3.45428466796875,1,1.0,1.0,1.0,1.0,10.00
2024-10-11 20:47:43.204,0.94172317,0.08166711,0.47871184,0.7454279,0.9260281,0.034145635,0.2914308,0.7399609,1.0024893,0.31287786,0.3224192,0.8248016,0.6405985,-0.1693363,0.7462356,0.53817415,0.07028857,-0.36883166,0.32116836,0.16406722,809.0842,787.326,797.3993,816.337,1010.54944,-0.06890869140625,0.023681640625,0.99896240234375,-5.87677001953125,15.970458984375,3.45428466796875,1,1.0,1.0,1.0,1.0,10.00
2024-10-11 20:47:43.205,0.94172317,0.08166711,0.47871184,0.7454279,0.9260281,0.034145635,0.2914308,0.7399609,1.0024893,0.31287786,0.3224192,0.8248016,0.6405985,-0.1693363,0.7462356,0.53817415,0.07028857,-0.36883166,0.32116836,0.16406722,804.65204,782.8938,800.6227,805.05493,928.7546,-0.06890869140625,0.023681640625,0.99896240234375,-5.87677001953125,15.970458984375,3.45428466796875,1,1.0,1.0,1.0,1.0,10.00
2024-10-11 20:47:43.205,0.94172317,0.08166711,0.47871184,0.7454279,0.9260281,0.034145635,0.2914308,0.7399609,1.0024893,0.31287786,0.3224192,0.8248016,0.6405985,-0.1693363,0.7462356,0.53817415,0.07028857,-0.36883166,0.32116836,0.16406722,811.9048,789.34064,802.6374,802.6374,655.56775,-0.06890869140625,0.023681640625,0.99896240234375,-5.87677001953125,15.970458984375,3.45428466796875,1,1.0,1.0,1.0,1.0,10.00
2024-10-11 20:47:43.206,0.94172317,0.08166711,0.47871184,0.7454279,0.9260281,0.034145635,0.2914308,0.7399609,1.0024893,0.31287786,0.3224192,0.8248016,0.6405985,-0.1693363,0.7462356,0.53817415,0.07028857,-0.36883166,0.32116836,0.16406722,815.9341,792.96704,801.8315,804.2491,530.65936,-0.06890869140625,0.023681640625,0.99896240234375,-5.87677001953125,15.970458984375,3.45428466796875,1,1.0,1.0,1.0,1.0,10.00
2024-10-11 20:47:43.207,0.94172317,0.08166711,0.47871184,0.7454279,0.9260281,0.034145635,0.2914308,0.7399609,1.0024893,0.31287786,0.3224192,0.8248016,0.6405985,-0.1693363,0.7462356,0.53817415,0.07028857,-0.36883166,0.32116836,0.16406722,804.65204,788.5348,793.36993,806.26373,653.95605,-0.06890869140625,0.023681640625,0.99896240234375,-5.87677001953125,15.970458984375,3.45428466796875,1,1.0,1.0,1.0,1.0,10.00
2024-10-11 20:47:43.208,0.94172317,0.08166711,0.47871184,0.7454279,0.9260281,0.034145635,0.2914308,0.7399609,1.0024893,0.31287786,0.3224192,0.8248016,0.6405985,-0.1693363,0.7462356,0.53817415,0.07028857,-0.36883166,0.32116836,0.16406722,809.89014,789.7436,790.14655,809.89014,649.92676,-0.06890869140625,0.023681640625,0.99896240234375,-5.87677001953125,15.970458984375,3.45428466796875,1,1.0,1.0,1.0,1.0,10.00
2024-10-11 20:47:43.236,0.94172317,0.08166711,0.47871184,0.7454279,0.9260281,0.034145635,0.2914308,0.7399609,1.0024893,0.31287786,0.3224192,0.8248016,0.6405985,-0.1693363,0.7462356,0.53817415,0.07028857,-0.36883166,0.32116836,0.16406722,816.337,791.75824,788.1319,814.3223,472.63736,-0.0906982421875,0.01800537109375,0.99725341796875,-4.628143310546875,14.362945556640625,4.11224365234375,1,1.0,1.0,1.0,1.0,10.00
2024-10-11 20:47:43.237,0.94172317,0.08166711,0.47871184,0.7454279,0.9260281,0.034145635,0.2914308,0.7399609,1.0024893,0.31287786,0.3224192,0.8248016,0.6405985,-0.1693363,0.7462356,0.53817415,0.07028857,-0.36883166,0.32116836,0.16406722,813.1135,793.7729,782.49084,811.9048,518.1685,-0.0906982421875,0.01800537109375,0.99725341796875,-4.628143310546875,14.362945556640625,4.11224365234375,1,1.0,1.0,1.0,1.0,10.00
2024-10-11 20:47:43.237,0.94172317,0.08166711,0.47871184,0.7454279,0.9260281,0.034145635,0.2914308,0.7399609,1.0024893,0.31287786,0.3224192,0.8248016,0.6405985,-0.1693363,0.7462356,0.53817415,0.07028857,-0.36883166,0.32116836,0.16406722,811.9048,799.011,794.17584,808.2784,693.8461,-0.0906982421875,0.01800537109375,0.99725341796875,-4.628143310546875,14.362945556640625,4.11224365234375,1,1.0,1.0,1.0,1.0,10.00
2024-10-11 20:47:43.238,0.94172317,0.08166711,0.47871184,0.7454279,0.9260281,0.034145635,0.2914308,0.7399609,1.0024893,0.31287786,0.3224192,0.8248016,0.6405985,-0.1693363,0.7462356,0.53817415,0.07028857,-0.36883166,0.32116836,0.16406722,812.71063,797.8022,809.89014,811.9048,651.53845,-0.0906982421875,0.01800537109375,0.99725341796875,-4.628143310546875,14.362945556640625,4.11224365234375,1,1.0,1.0,1.0,1.0,10.00
2024-10-11 20:47:43.239,0.94172317,0.08166711,0.47871184,0.7454279,0.9260281,0.034145635,0.2914308,0.7399609,1.0024893,0.31287786,0.3224192,0.8248016,0.6405985,-0.1693363,0.7462356,0.53817415,0.07028857,-0.36883166,0.32116836,0.16406722,813.1135,799.011,809.0842,814.7253,520.989,-0.0906982421875,0.01800537109375,0.99725341796875,-4.628143310546875,14.362945556640625,4.11224365234375,1,1.0,1.0,1.0,1.0,10.00
2024-10-11 20:47:43.240,1.0759318,0.067650445,0.45718768,0.7454279,0.99558103,0.032123934,0.28578094,0.7399609,1.0517602,0.31287786,0.3224192,0.8248016,0.6433523,-0.19880325,0.75218344,0.53817415,0.05168621,-0.3721233,0.3456647,0.16406722,812.3077,796.5934,810.696,818.3516,705.9341,-0.0906982421875,0.01800537109375,0.99725341796875,-4.628143310546875,14.362945556640625,4.11224365234375,1,1.0,1.0,1.0,1.0,10.00
2024-10-11 20:47:43.246,1.0759318,0.067650445,0.45718768,0.7454279,0.99558103,0.032123934,0.28578094,0.7399609,1.0517602,0.31287786,0.3224192,0.8248016,0.6433523,-0.19880325,0.75218344,0.53817415,0.05168621,-0.3721233,0.3456647,0.16406722,814.3223,792.1612,820.3663,824.3956,971.8681,-0.0906982421875,0.01800537109375,0.99725341796875,-4.628143310546875,14.362945556640625,4.11224365234375,1,1.0,1.0,1.0,1.0,10.00
2024-10-11 20:47:43.247,1.0759318,0.067650445,0.45718768,0.7454279,0.99558103,0.032123934,0.28578094,0.7399609,1.0517602,0.31287786,0.3224192,0.8248016,0.6433523,-0.19880325,0.75218344,0.53817415,0.05168621,-0.3721233,0.3456647,0.16406722,802.6374,799.011,819.5604,813.91943,726.4835,-0.0906982421875,0.01800537109375,0.99725341796875,-4.628143310546875,14.362945556640625,4.11224365234375,1,1.0,1.0,1.0,1.0,10.00
2024-10-11 20:47:43.248,1.0759318,0.067650445,0.45718768,0.7454279,0.99558103,0.032123934,0.28578094,0.7399609,1.0517602,0.31287786,0.3224192,0.8248016,0.6433523,-0.19880325,0.75218344,0.53817415,0.05168621,-0.3721233,0.3456647,0.16406722,803.8461,804.2491,805.4579,809.89014,516.1539,-0.0906982421875,0.01800537109375,0.99725341796875,-4.628143310546875,14.362945556640625,4.11224365234375,1,1.0,1.0,1.0,1.0,10.00
2024-10-11 20:47:43.249,1.0759318,0.067650445,0.45718768,0.7454279,0.99558103,0.032123934,0.28578094,0.7399609,1.0517602,0.31287786,0.3224192,0.8248016,0.6433523,-0.19880325,0.75218344,0.53817415,0.05168621,-0.3721233,0.3456647,0.16406722,811.0989,807.47253,792.96704,812.3077,653.95605,-0.0906982421875,0.01800537109375,0.99725341796875,-4.628143310546875,14.362945556640625,4.11224365234375,1,1.0,1.0,1.0,1.0,10.00
2024-10-11 20:47:43.250,1.0759318,0.067650445,0.45718768,0.7454279,0.99558103,0.032123934,0.28578094,0.7399609,1.0517602,0.31287786,0.3224192,0.8248016,0.6433523,-0.19880325,0.75218344,0.53817415,0.05168621,-0.3721233,0.3456647,0.16406722,795.38464,803.8461,788.93774,802.23444,847.3626,-0.0906982421875,0.01800537109375,0.99725341796875,-4.628143310546875,14.362945556640625,4.11224365234375,1,1.0,1.0,1.0,1.0,10.00
2024-10-11 20:47:43.250,1.0759318,0.067650445,0.45718768,0.7454279,0.99558103,0.032123934,0.28578094,0.7399609,1.0517602,0.31287786,0.3224192,0.8248016,0.6433523,-0.19880325,0.75218344,0.53817415,0.05168621,-0.3721233,0.3456647,0.16406722,792.5641,803.0403,788.5348,793.7729,657.5824,-0.0906982421875,0.01800537109375,0.99725341796875,-4.628143310546875,14.362945556640625,4.11224365234375,1,1.0,1.0,1.0,1.0,10.00
2024-10-11 20:47:43.316,1.0759318,0.067650445,0.45718768,0.7454279,0.99558103,0.032123934,0.28578094,0.7399609,1.0517602,0.31287786,0.3224192,0.8248016,0.6433523,-0.19880325,0.75218344,0.53817415,0.05168621,-0.3721233,0.3456647,0.16406722,802.6374,803.44324,801.4286,791.75824,502.85715,-0.117919921875,0.01605224609375,1.00457763671875,-3.835601806640625,14.048919677734375,5.286102294921875,1,1.0,1.0,1.0,1.0,10.00
2024-10-11 20:47:43.317,1.0759318,0.067650445,0.45718768,0.7454279,0.99558103,0.032123934,0.28578094,0.7399609,1.0517602,0.31287786,0.3224192,0.8248016,0.6433523,-0.19880325,0.75218344,0.53817415,0.05168621,-0.3721233,0.3456647,0.16406722,803.44324,805.8608,800.6227,792.96704,682.5641,-0.117919921875,0.01605224609375,1.00457763671875,-3.835601806640625,14.048919677734375,5.286102294921875,1,1.0,1.0,1.0,1.0,10.00
2024-10-11 20:47:43.318,1.0759318,0.067650445,0.45718768,0.7454279,0.99558103,0.032123934,0.28578094,0.7399609,1.0517602,0.31287786,0.3224192,0.8248016,0.6433523,-0.19880325,0.75218344,0.53817415,0.05168621,-0.3721233,0.3456647,0.16406722,788.5348,808.2784,798.20514,787.326,665.2381,-0.117919921875,0.01605224609375,1.00457763671875,-3.835601806640625,14.048919677734375,5.286102294921875,1,1.0,1.0,1.0,1.0,10.00
2024-10-11 20:47:43.318,1.0759318,0.067650445,0.45718768,0.7454279,0.99558103,0.032123934,0.28578094,0.7399609,1.0517602,0.31287786,0.3224192,0.8248016,0.6433523,-0.19880325,0.75218344,0.53817415,0.05168621,-0.3721233,0.3456647,0.16406722,784.5055,810.696,799.81683,786.1172,567.326,-0.117919921875,0.01605224609375,1.00457763671875,-3.835601806640625,14.048919677734375,5.286102294921875,1,1.0,1.0,1.0,1.0,10.00
2024-10-11 20:47:43.319,1.0759318,0.067650445,0.45718768,0.7454279,0.99558103,0.032123934,0.28578094,0.7399609,1.0517602,0.31287786,0.3224192,0.8248016,0.6433523,-0.19880325,0.75218344,0.53817415,0.05168621,-0.3721233,0.3456647,0.16406722,798.20514,807.8755,798.20514,800.2198,544.7619,-0.117919921875,0.01605224609375,1.00457763671875,-3.835601806640625,14.048919677734375,5.286102294921875,1,1.0,1.0,1.0,1.0,10.00
2024-10-11 20:47:43.320,1.0759318,0.067650445,0.45718768,0.7454279,0.99558103,0.032123934,0.28578094,0.7399609,1.0517602,0.31287786,0.3224192,0.8248016,0.6433523,-0.19880325,0.75218344,0.53817415,0.05168621,-0.3721233,0.3456647,0.16406722,794.17584,802.6374,794.17584,804.65204,886.4469,-0.117919921875,0.01605224609375,1.00457763671875,-3.835601806640625,14.048919677734375,5.286102294921875,1,1.0,1.0,1.0,1.0,10.00
2024-10-11 20:47:43.320,1.0759318,0.067650445,0.45718768,0.7454279,0.99558103,0.032123934,0.28578094,0.7399609,1.0517602,0.31287786,0.3224192,0.8248016,0.6433523,-0.19880325,0.75218344,0.53817415,0.05168621,-0.3721233,0.3456647,0.16406722,785.7143,802.6374,773.6264,806.6667,1026.6666,-0.117919921875,0.01605224609375,1.00457763671875,-3.835601806640625,14.048919677734375,5.286102294921875,1,1.0,1.0,1.0,1.0,10.00
2024-10-11 20:47:43.321,1.0759318,0.067650445,0.45718768,0.7454279,0.99558103,0.032123934,0.28578094,0.7399609,1.0517602,0.31287786,0.3224192,0.8248016,0.6433523,-0.19880325,0.75218344,0.53817415,0.05168621,-0.3721233,0.3456647,0.16406722,794.17584,803.44324,781.28204,814.3223,711.5751,-0.117919921875,0.01605224609375,1.00457763671875,-3.835601806640625,14.048919677734375,5.286102294921875,1,1.0,1.0,1.0,1.0,10.00
2024-10-11 20:47:43.322,1.0759318,0.067650445,0.45718768,0.7454279,0.99558103,0.032123934,0.28578094,0.7399609,1.0517602,0.31287786,0.3224192,0.8248016,0.6433523,-0.19880325,0.75218344,0.53817415,0.05168621,-0.3721233,0.3456647,0.16406722,799.81683,804.2491,811.0989,807.8755,605.2015,-0.117919921875,0.01605224609375,1.00457763671875,-3.835601806640625,14.048919677734375,5.286102294921875,1,1.0,1.0,1.0,1.0,10.00
2024-10-11 20:47:43.322,1.0759318,0.067650445,0.45718768,0.7454279,0.99558103,0.032123934,0.28578094,0.7399609,1.0517602,0.31287786,0.3224192,0.8248016,0.6433523,-0.19880325,0.75218344,0.53817415,0.05168621,-0.3721233,0.3456647,0.16406722,796.1905,800.6227,805.8608,805.4579,738.1685,-0.117919921875,0.01605224609375,1.00457763671875,-3.835601806640625,14.048919677734375,5.286102294921875,1,1.0,1.0,1.0,1.0,10.00
2024-10-11 20:47:43.323,1.0759318,0.067650445,0.45718768,0.7454279,0.99558103,0.032123934,0.28578094,0.7399609,1.0517602,0.31287786,0.3224192,0.8248016,0.6433523,-0.19880325,0.75218344,0.53817415,0.05168621,-0.3721233,0.3456647,0.16406722,803.44324,802.23444,804.2491,815.5311,742.6007,-0.117919921875,0.01605224609375,1.00457763671875,-3.835601806640625,14.048919677734375,5.286102294921875,1,1.0,1.0,1.0,1.0,10.00
2024-10-11 20:47:43.324,1.0759318,0.067650445,0.45718768,0.7454279,0.99558103,0.032123934,0.28578094,0.7399609,1.0517602,0.31287786,0.3224192,0.8248016,0.6433523,-0.19880325,0.75218344,0.53817415,0.05168621,-0.3721233,0.3456647,0.16406722,814.3223,806.26373,806.6667,815.5311,591.50183,-0.117919921875,0.01605224609375,1.00457763671875,-3.835601806640625,14.048919677734375,5.286102294921875,1,1.0,1.0,1.0,1.0,10.00
2024-10-11 20:47:43.351,1.0759318,0.067650445,0.45718768,0.7454279,0.99558103,0.032123934,0.28578094,0.7399609,1.0517602,0.31287786,0.3224192,0.8248016,0.6433523,-0.19880325,0.75218344,0.53817415,0.05168621,-0.3721233,0.3456647,0.16406722,815.12823,804.2491,801.4286,802.6374,676.9231,-0.13458251953125,0.008056640625,0.9969482421875,-4.029998779296875,11.52923583984375,6.0711669921875,1,1.0,1.0,1.0,1.0,10.00
2024-10-11 20:47:43.352,1.0759318,0.067650445,0.45718768,0.7454279,0.99558103,0.032123934,0.28578094,0.7399609,1.0517602,0.31287786,0.3224192,0.8248016,0.6433523,-0.19880325,0.75218344,0.53817415,0.05168621,-0.3721233,0.3456647,0.16406722,813.1135,799.011,803.44324,799.81683,902.5641,-0.13458251953125,0.008056640625,0.9969482421875,-4.029998779296875,11.52923583984375,6.0711669921875,1,1.0,1.0,1.0,1.0,10.00
2024-10-11 20:47:43.353,1.0759318,0.067650445,0.45718768,0.7454279,0.99558103,0.032123934,0.28578094,0.7399609,1.0517602,0.31287786,0.3224192,0.8248016,0.6433523,-0.19880325,0.75218344,0.53817415,0.05168621,-0.3721233,0.3456647,0.16406722,813.91943,801.02563,804.2491,808.2784,802.6374,-0.13458251953125,0.008056640625,0.9969482421875,-4.029998779296875,11.52923583984375,6.0711669921875,1,1.0,1.0,1.0,1.0,10.00
2024-10-11 20:47:43.354,1.0759318,0.067650445,0.45718768,0.7454279,0.99558103,0.032123934,0.28578094,0.7399609,1.0517602,0.31287786,0.3224192,0.8248016,0.6433523,-0.19880325,0.75218344,0.53817415,0.05168621,-0.3721233,0.3456647,0.16406722,817.9487,807.47253,791.75824,802.23444,575.38464,-0.13458251953125,0.008056640625,0.9969482421875,-4.029998779296875,11.52923583984375,6.0711669921875,1,1.0,1.0,1.0,1.0,10.00
2024-10-11 20:47:43.354,1.0759318,0.067650445,0.45718768,0.7454279,0.99558103,0.032123934,0.28578094,0.7399609,1.0517602,0.31287786,0.3224192,0.8248016,0.6433523,-0.19880325,0.75218344,0.53817415,0.05168621,-0.3721233,0.3456647,0.16406722,814.3223,805.4579,788.5348,800.6227,582.6374,-0.13458251953125,0.008056640625,0.9969482421875,-4.029998779296875,11.52923583984375,6.0711669921875,1,1.0,1.0,1.0,1.0,10.00
2024-10-11 20:47:43.355,1.0759318,0.067650445,0.45718768,0.7454279,0.99558103,0.032123934,0.28578094,0.7399609,1.0517602,0.31287786,0.3224192,0.8248016,0.6433523,-0.19880325,0.75218344,0.53817415,0.05168621,-0.3721233,0.3456647,0.16406722,807.8755,804.2491,800.2198,809.4872,674.10254,-0.13458251953125,0.008056640625,0.9969482421875,-4.029998779296875,11.52923583984375,6.0711669921875,1,1.0,1.0,1.0,1.0,10.00
2024-10-11 20:47:43.356,1.0759318,0.067650445,0.45718768,0.7454279,0.99558103,0.032123934,0.28578094,0.7399609,1.0517602,0.31287786,0.3224192,0.8248016,0.6433523,-0.19880325,0.75218344,0.53817415,0.05168621,-0.3721233,0.3456647,0.16406722,803.0403,803.44324,801.4286,807.8755,680.14655,-0.13458251953125,0.008056640625,0.9969482421875,-4.029998779296875,11.52923583984375,6.0711669921875,1,1.0,1.0,1.0,1.0,10.00
2024-10-11 20:47:43.357,1.1895947,0.065382324,0.44099024,0.7737557,1.0405515,0.047567416,0.28595245,0.76221836,1.0713224,0.31287786,0.3212719,0.8248016,0.63762957,-0.21827403,0.7510607,0.54065377,0.040338308,-0.3802258,0.36096507,0.15638478,806.6667,807.47253,797.8022,800.6227,573.7729,-0.13458251953125,0.008056640625,0.9969482421875,-4.029998779296875,11.52923583984375,6.0711669921875,1,1.0,1.0,1.0,1.0,10.00
2024-10-11 20:47:43.363,1.1895947,0.065382324,0.44099024,0.7737557,1.0405515,0.047567416,0.28595245,0.76221836,1.0713224,0.31287786,0.3212719,0.8248016,0.63762957,-0.21827403,0.7510607,0.54065377,0.040338308,-0.3802258,0.36096507,0.15638478,805.4579,809.89014,794.17584,800.6227,596.7399,-0.13458251953125,0.008056640625,0.9969482421875,-4.029998779296875,11.52923583984375,6.0711669921875,1,1.0,1.0,1.0,1.0,10.00
2024-10-11 20:47:43.364,1.1895947,0.065382324,0.44099024,0.7737557,1.0405515,0.047567416,0.28595245,0.76221836,1.0713224,0.31287786,0.3212719,0.8248016,0.63762957,-0.21827403,0.7510607,0.54065377,0.040338308,-0.3802258,0.36096507,0.15638478,803.8461,807.8755,790.9524,804.2491,645.09155,-0.13458251953125,0.008056640625,0.9969482421875,-4.029998779296875,11.52923583984375,6.0711669921875,1,1.0,1.0,1.0,1.0,10.00
2024-10-11 20:47:43.364,1.1895947,0.065382324,0.44099024,0.7737557,1.0405515,0.047567416,0.28595245,0.76221836,1.0713224,0.31287786,0.3212719,0.8248016,0.63762957,-0.21827403,0.7510607,0.54065377,0.040338308,-0.3802258,0.36096507,0.15638478,817.1429,811.9048,797.3993,799.81683,489.1575,-0.13458251953125,0.008056640625,0.9969482421875,-4.029998779296875,11.52923583984375,6.0711669921875,1,1.0,1.0,1.0,1.0,10.00
2024-10-11 20:47:43.365,1.1895947,0.065382324,0.44099024,0.7737557,1.0405515,0.047567416,0.28595245,0.76221836,1.0713224,0.31287786,0.3212719,0.8248016,0.63762957,-0.21827403,0.7510607,0.54065377,0.040338308,-0.3802258,0.36096507,0.15638478,817.5458,813.91943,813.1135,791.75824,516.1539,-0.13458251953125,0.008056640625,0.9969482421875,-4.029998779296875,11.52923583984375,6.0711669921875,1,1.0,1.0,1.0,1.0,10.00
2024-10-11 20:47:43.436,1.1895947,0.065382324,0.44099024,0.7737557,1.0405515,0.047567416,0.28595245,0.76221836,1.0713224,0.31287786,0.3212719,0.8248016,0.63762957,-0.21827403,0.7510607,0.54065377,0.040338308,-0.3802258,0.36096507,0.15638478,814.7253,809.89014,801.8315,797.8022,695.05493,-0.13458251953125,0.008056640625,0.9969482421875,-4.029998779296875,11.52923583984375,6.0711669921875,1,1.0,1.0,1.0,1.0,10.00
2024-10-11 20:47:43.437,1.1895947,0.065382324,0.44099024,0.7737557,1.0405515,0.047567416,0.28595245,0.76221836,1.0713224,0.31287786,0.3212719,0.8248016,0.63762957,-0.21827403,0.7510607,0.54065377,0.040338308,-0.3802258,0.36096507,0.15638478,819.5604,807.47253,797.3993,801.4286,744.21246,-0.13458251953125,0.008056640625,0.9969482421875,-4.029998779296875,11.52923583984375,6.0711669921875,1,1.0,1.0,1.0,1.0,10.00
2024-10-11 20:47:43.438,1.1895947,0.065382324,0.44099024,0.7737557,1.0405515,0.047567416,0.28595245,0.76221836,1.0713224,0.31287786,0.3212719,0.8248016,0.63762957,-0.21827403,0.7510607,0.54065377,0.040338308,-0.3802258,0.36096507,0.15638478,806.6667,806.26373,805.4579,794.9817,504.46887,-0.13458251953125,0.008056640625,0.9969482421875,-4.029998779296875,11.52923583984375,6.0711669921875,1,1.0,1.0,1.0,1.0,10.00
2024-10-11 20:47:43.439,1.1895947,0.065382324,0.44099024,0.7737557,1.0405515,0.047567416,0.28595245,0.76221836,1.0713224,0.31287786,0.3212719,0.8248016,0.63762957,-0.21827403,0.7510607,0.54065377,0.040338308,-0.3802258,0.36096507,0.15638478,807.0696,805.4579,807.8755,794.17584,450.4762,-0.13458251953125,0.008056640625,0.9969482421875,-4.029998779296875,11.52923583984375,6.0711669921875,1,1.0,1.0,1.0,1.0,10.00
2024-10-11 20:47:43.439,1.1895947,0.065382324,0.44099024,0.7737557,1.0405515,0.047567416,0.28595245,0.76221836,1.0713224,0.31287786,0.3212719,0.8248016,0.63762957,-0.21827403,0.7510607,0.54065377,0.040338308,-0.3802258,0.36096507,0.15638478,808.68134,808.2784,806.6667,793.7729,678.1319,-0.13458251953125,0.008056640625,0.9969482421875,-4.029998779296875,11.52923583984375,6.0711669921875,1,1.0,1.0,1.0,1.0,10.00
2024-10-11 20:47:43.440,1.1895947,0.065382324,0.44099024,0.7737557,1.0405515,0.047567416,0.28595245,0.76221836,1.0713224,0.31287786,0.3212719,0.8248016,0.63762957,-0.21827403,0.7510607,0.54065377,0.040338308,-0.3802258,0.36096507,0.15638478,800.6227,804.2491,802.6374,788.1319,797.3993,-0.13458251953125,0.008056640625,0.9969482421875,-4.029998779296875,11.52923583984375,6.0711669921875,1,1.0,1.0,1.0,1.0,10.00
2024-10-11 20:47:43.441,1.1895947,0.065382324,0.44099024,0.7737557,1.0405515,0.047567416,0.28595245,0.76221836,1.0713224,0.31287786,0.3212719,0.8248016,0.63762957,-0.21827403,0.7510607,0.54065377,0.040338308,-0.3802258,0.36096507,0.15638478,794.9817,801.8315,798.60803,786.9231,679.7436,-0.13458251953125,0.008056640625,0.9969482421875,-4.029998779296875,11.52923583984375,6.0711669921875,1,1.0,1.0,1.0,1.0,10.00
2024-10-11 20:47:43.442,1.1895947,0.065382324,0.44099024,0.7737557,1.0405515,0.047567416,0.28595245,0.76221836,1.0713224,0.31287786,0.3212719,0.8248016,0.63762957,-0.21827403,0.7510607,0.54065377,0.040338308,-0.3802258,0.36096507,0.15638478,794.9817,803.8461,793.7729,788.5348,563.69965,-0.13458251953125,0.008056640625,0.9969482421875,-4.029998779296875,11.52923583984375,6.0711669921875,1,1.0,1.0,1.0,1.0,10.00
2024-10-11 20:47:43.442,1.1895947,0.065382324,0.44099024,0.7737557,1.0405515,0.047567416,0.28595245,0.76221836,1.0713224,0.31287786,0.3212719,0.8248016,0.63762957,-0.21827403,0.7510607,0.54065377,0.040338308,-0.3802258,0.36096507,0.15638478,792.96704,800.6227,786.52014,790.14655,651.9414,-0.13458251953125,0.008056640625,0.9969482421875,-4.029998779296875,11.52923583984375,6.0711669921875,1,1.0,1.0,1.0,1.0,10.00
2024-10-11 20:47:43.443,1.1895947,0.065382324,0.44099024,0.7737557,1.0405515,0.047567416,0.28595245,0.76221836,1.0713224,0.31287786,0.3212719,0.8248016,0.63762957,-0.21827403,0.7510607,0.54065377,0.040338308,-0.3802258,0.36096507,0.15638478,797.3993,799.41394,788.5348,788.1319,633.00366,-0.13458251953125,0.008056640625,0.9969482421875,-4.029998779296875,11.52923583984375,6.0711669921875,1,1.0,1.0,1.0,1.0,10.00
2024-10-11 20:47:43.444,1.1895947,0.065382324,0.44099024,0.7737557,1.0405515,0.047567416,0.28595245,0.76221836,1.0713224,0.31287786,0.3212719,0.8248016,0.63762957,-0.21827403,0.7510607,0.54065377,0.040338308,-0.3802258,0.36096507,0.15638478,805.05493,801.4286,793.7729,786.52014,481.0989,-0.13458251953125,0.008056640625,0.9969482421875,-4.029998779296875,11.52923583984375,6.0711669921875,1,1.0,1.0,1.0,1.0,10.00
2024-10-11 20:47:43.445,1.1895947,0.065382324,0.44099024,0.7737557,1.0405515,0.047567416,0.28595245,0.76221836,1.0713224,0.31287786,0.3212719,0.8248016,0.63762957,-0.21827403,0.7510607,0.54065377,0.040338308,-0.3802258,0.36096507,0.15638478,801.8315,803.0403,794.9817,790.9524,521.79486,-0.13458251953125,0.008056640625,0.9969482421875,-4.029998779296875,11.52923583984375,6.0711669921875,1,1.0,1.0,1.0,1.0,10.00
2024-10-11 20:47:43.476,1.1895947,0.065382324,0.44099024,0.7737557,1.0405515,0.047567416,0.28595245,0.76221836,1.0713224,0.31287786,0.3212719,0.8248016,0.63762957,-0.21827403,0.7510607,0.54065377,0.040338308,-0.3802258,0.36096507,0.15638478,797.8022,801.02563,799.011,790.14655,697.47253,-0.13739013671875,0.00970458984375,0.9962158203125,-4.38140869140625,8.994598388671875,8.134765625,1,1.0,1.0,1.0,1.0,10.00
2024-10-11 20:47:43.477,1.1895947,0.065382324,0.44099024,0.7737557,1.0405515,0.047567416,0.28595245,0.76221836,1.0713224,0.31287786,0.3212719,0.8248016,0.63762957,-0.21827403,0.7510607,0.54065377,0.040338308,-0.3802258,0.36096507,0.15638478,795.38464,798.60803,796.1905,788.5348,672.0879,-0.13739013671875,0.00970458984375,0.9962158203125,-4.38140869140625,8.994598388671875,8.134765625,1,1.0,1.0,1.0,1.0,10.00
2024-10-11 20:47:43.478,1.1895947,0.065382324,0.44099024,0.7737557,1.0405515,0.047567416,0.28595245,0.76221836,1.0713224,0.31287786,0.3212719,0.8248016,0.63762957,-0.21827403,0.7510607,0.54065377,0.040338308,-0.3802258,0.36096507,0.15638478,798.20514,798.20514,804.65204,786.52014,492.38095,-0.13739013671875,0.00970458984375,0.9962158203125,-4.38140869140625,8.994598388671875,8.134765625,1,1.0,1.0,1.0,1.0,10.00
2024-10-11 20:47:43.479,1.1895947,0.065382324,0.44099024,0.7737557,1.0405515,0.047567416,0.28595245,0.76221836,1.0713224,0.31287786,0.3212719,0.8248016,0.63762957,-0.21827403,0.7510607,0.54065377,0.040338308,-0.3802258,0.36096507,0.15638478,798.20514,800.2198,806.26373,785.7143,523.4066,-0.13739013671875,0.00970458984375,0.9962158203125,-4.38140869140625,8.994598388671875,8.134765625,1,1.0,1.0,1.0,1.0,10.00
2024-10-11 20:47:43.480,1.1895947,0.065382324,0.44099024,0.7737557,1.0405515,0.047567416,0.28595245,0.76221836,1.0713224,0.31287786,0.3212719,0.8248016,0.63762957,-0.21827403,0.7510607,0.54065377,0.040338308,-0.3802258,0.36096507,0.15638478,799.81683,799.41394,792.1612,788.5348,727.6923,-0.13739013671875,0.00970458984375,0.9962158203125,-4.38140869140625,8.994598388671875,8.134765625,1,1.0,1.0,1.0,1.0,10.00
2024-10-11 20:47:43.481,1.1895947,0.065382324,0.44099024,0.7737557,1.0405515,0.047567416,0.28595245,0.76221836,1.0713224,0.31287786,0.3212719,0.8248016,0.63762957,-0.21827403,0.7510607,0.54065377,0.040338308,-0.3802258,0.36096507,0.15638478,803.44324,793.36993,793.36993,789.7436,747.8388,-0.13739013671875,0.00970458984375,0.9962158203125,-4.38140869140625,8.994598388671875,8.134765625,1,1.0,1.0,1.0,1.0,10.00
2024-10-11 20:47:43.481,1.1895947,0.065382324,0.44099024,0.7737557,1.0405515,0.047567416,0.28595245,0.76221836,1.0713224,0.31287786,0.3212719,0.8248016,0.63762957,-0.21827403,0.7510607,0.54065377,0.040338308,-0.3802258,0.36096507,0.15638478,798.20514,795.38464,788.93774,783.69965,739.3773,-0.13739013671875,0.00970458984375,0.9962158203125,-4.38140869140625,8.994598388671875,8.134765625,1,1.0,1.0,1.0,1.0,10.00
2024-10-11 20:47:43.482,1.1895947,0.065382324,0.44099024,0.7737557,1.0405515,0.047567416,0.28595245,0.76221836,1.0713224,0.31287786,0.3212719,0.8248016,0.63762957,-0.21827403,0.7510607,0.54065377,0.040338308,-0.3802258,0.36096507,0.15638478,796.1905,794.17584,789.7436,784.5055,778.46155,-0.13739013671875,0.00970458984375,0.9962158203125,-4.38140869140625,8.994598388671875,8.134765625,1,1.0,1.0,1.0,1.0,10.00
2024-10-11 20:47:43.483,1.1895947,0.065382324,0.44099024,0.7737557,1.0405515,0.047567416,0.28595245,0.76221836,1.0713224,0.31287786,0.3212719,0.8248016,0.63762957,-0.21827403,0.7510607,0.54065377,0.040338308,-0.3802258,0.36096507,0.15638478,798.60803,789.34064,804.65204,797.3993,701.0989,-0.13739013671875,0.00970458984375,0.9962158203125,-4.38140869140625,8.994598388671875,8.134765625,1,1.0,1.0,1.0,1.0,10.00
2024-10-11 20:47:43.484,1.2167555,0.091245346,0.43137276,0.8072521,1.0674865,0.060789157,0.28748158,0.7865116,1.0713224,0.31287786,0.31453326,0.8248016,0.6293071,-0.22426485,0.7443334,0.5345792,0.04079296,-0.39086187,0.3649429,0.14604804,795.78754,794.17584,799.41394,794.9817,584.65204,-0.13739013671875,0.00970458984375,0.9962158203125,-4.38140869140625,8.994598388671875,8.134765625,1,1.0,1.0,1.0,1.0,10.00
2024-10-11 20:47:43.490,1.2167555,0.091245346,0.43137276,0.8072521,1.0674865,0.060789157,0.28748158,0.7865116,1.0713224,0.31287786,0.31453326,0.8248016,0.6293071,-0.22426485,0.7443334,0.5345792,0.04079296,-0.39086187,0.3649429,0.14604804,796.1905,798.20514,797.8022,794.9817,580.2198,-0.13739013671875,0.00970458984375,0.9962158203125,-4.38140869140625,8.994598388671875,8.134765625,1,1.0,1.0,1.0,1.0,10.00
2024-10-11 20:47:43.491,1.2167555,0.091245346,0.43137276,0.8072521,1.0674865,0.060789157,0.28748158,0.7865116,1.0713224,0.31287786,0.31453326,0.8248016,0.6293071,-0.22426485,0.7443334,0.5345792,0.04079296,-0.39086187,0.3649429,0.14604804,800.6227,800.2198,797.3993,801.8315,808.68134,-0.13739013671875,0.00970458984375,0.9962158203125,-4.38140869140625,8.994598388671875,8.134765625,1,1.0,1.0,1.0,1.0,10.00
2024-10-11 20:47:43.523,1.2167555,0.091245346,0.43137276,0.8072521,1.0674865,0.060789157,0.28748158,0.7865116,1.0713224,0.31287786,0.31453326,0.8248016,0.6293071,-0.22426485,0.7443334,0.5345792,0.04079296,-0.39086187,0.3649429,0.14604804,796.1905,799.41394,784.5055,796.5934,NaN,-0.1668701171875,-0.00189208984375,0.99578857421875,-4.3365478515625,6.9085693359375,9.5703125,1,1.0,1.0,1.0,1.0,10.00
2024-10-11 20:47:43.524,1.2167555,0.091245346,0.43137276,0.8072521,1.0674865,0.060789157,0.28748158,0.7865116,1.0713224,0.31287786,0.31453326,0.8248016,0.6293071,-0.22426485,0.7443334,0.5345792,0.04079296,-0.39086187,0.3649429,0.14604804,791.75824,796.99634,786.1172,792.96704,NaN,-0.1668701171875,-0.00189208984375,0.99578857421875,-4.3365478515625,6.9085693359375,9.5703125,1,1.0,1.0,1.0,1.0,10.00
2024-10-11 20:47:43.525,1.2167555,0.091245346,0.43137276,0.8072521,1.0674865,0.060789157,0.28748158,0.7865116,1.0713224,0.31287786,0.31453326,0.8248016,0.6293071,-0.22426485,0.7443334,0.5345792,0.04079296,-0.39086187,0.3649429,0.14604804,789.34064,800.2198,792.96704,790.9524,NaN,-0.1668701171875,-0.00189208984375,0.99578857421875,-4.3365478515625,6.9085693359375,9.5703125,1,1.0,1.0,1.0,1.0,10.00
2024-10-11 20:47:43.526,1.2167555,0.091245346,0.43137276,0.8072521,1.0674865,0.060789157,0.28748158,0.7865116,1.0713224,0.31287786,0.31453326,0.8248016,0.6293071,-0.22426485,0.7443334,0.5345792,0.04079296,-0.39086187,0.3649429,0.14604804,789.34064,799.81683,797.3993,790.54944,NaN,-0.1668701171875,-0.00189208984375,0.99578857421875,-4.3365478515625,6.9085693359375,9.5703125,1,1.0,1.0,1.0,1.0,10.00
2024-10-11 20:47:43.527,1.2167555,0.091245346,0.43137276,0.8072521,1.0674865,0.060789157,0.28748158,0.7865116,1.0713224,0.31287786,0.31453326,0.8248016,0.6293071,-0.22426485,0.7443334,0.5345792,0.04079296,-0.39086187,0.3649429,0.14604804,792.5641,795.78754,789.34064,782.8938,NaN,-0.1668701171875,-0.00189208984375,0.99578857421875,-4.3365478515625,6.9085693359375,9.5703125,1,1.0,1.0,1.0,1.0,10.00
2024-10-11 20:47:43.528,1.2167555,0.091245346,0.43137276,0.8072521,1.0674865,0.060789157,0.28748158,0.7865116,1.0713224,0.31287786,0.31453326,0.8248016,0.6293071,-0.22426485,0.7443334,0.5345792,0.04079296,-0.39086187,0.3649429,0.14604804,794.9817,800.6227,788.1319,778.86444,NaN,-0.1668701171875,-0.00189208984375,0.99578857421875,-4.3365478515625,6.9085693359375,9.5703125,1,1.0,1.0,1.0,1.0,10.00
2024-10-11 20:47:43.529,1.2167555,0.091245346,0.43137276,0.8072521,1.0674865,0.060789157,0.28748158,0.7865116,1.0713224,0.31287786,0.31453326,0.8248016,0.6293071,-0.22426485,0.7443334,0.5345792,0.04079296,-0.39086187,0.3649429,0.14604804,794.9817,801.4286,807.8755,789.7436,NaN,-0.1668701171875,-0.00189208984375,0.99578857421875,-4.3365478515625,6.9085693359375,9.5703125,1,1.0,1.0,1.0,1.0,10.00
2024-10-11 20:47:43.529,1.2167555,0.091245346,0.43137276,0.8072521,1.0674865,0.060789157,0.28748158,0.7865116,1.0713224,0.31287786,0.31453326,0.8248016,0.6293071,-0.22426485,0.7443334,0.5345792,0.04079296,-0.39086187,0.3649429,0.14604804,799.81683,798.60803,809.4872,796.5934,NaN,-0.1668701171875,-0.00189208984375,0.99578857421875,-4.3365478515625,6.9085693359375,9.5703125,1,1.0,1.0,1.0,1.0,10.00
2024-10-11 20:47:43.530,1.2167555,0.091245346,0.43137276,0.8072521,1.0674865,0.060789157,0.28748158,0.7865116,1.0713224,0.31287786,0.31453326,0.8248016,0.6293071,-0.22426485,0.7443334,0.5345792,0.04079296,-0.39086187,0.3649429,0.14604804,801.4286,799.41394,801.02563,803.8461,NaN,-0.1668701171875,-0.00189208984375,0.99578857421875,-4.3365478515625,6.9085693359375,9.5703125,1,1.0,1.0,1.0,1.0,10.00
2024-10-11 20:47:43.531,1.2167555,0.091245346,0.43137276,0.8072521,1.0674865,0.060789157,0.28748158,0.7865116,1.0713224,0.31287786,0.31453326,0.8248016,0.6293071,-0.22426485,0.7443334,0.5345792,0.04079296,-0.39086187,0.3649429,0.14604804,800.2198,799.41394,799.011,805.4579,NaN,-0.1668701171875,-0.00189208984375,0.99578857421875,-4.3365478515625,6.9085693359375,9.5703125,1,1.0,1.0,1.0,1.0,10.00
2024-10-11 20:47:43.532,1.2167555,0.091245346,0.43137276,0.8072521,1.0674865,0.060789157,0.28748158,0.7865116,1.0713224,0.31287786,0.31453326,0.8248016,0.6293071,-0.22426485,0.7443334,0.5345792,0.04079296,-0.39086187,0.3649429,0.14604804,801.02563,801.8315,808.2784,793.36993,NaN,-0.1668701171875,-0.00189208984375,0.99578857421875,-4.3365478515625,6.9085693359375,9.5703125,1,1.0,1.0,1.0,1.0,10.00
2024-10-11 20:47:43.533,1.2167555,0.091245346,0.43137276,0.8072521,1.0674865,0.060789157,0.28748158,0.7865116,1.0713224,0.31287786,0.31453326,0.8248016,0.6293071,-0.22426485,0.7443334,0.5345792,0.04079296,-0.39086187,0.3649429,0.14604804,798.60803,803.44324,806.6667,790.14655,NaN,-0.1668701171875,-0.00189208984375,0.99578857421875,-4.3365478515625,6.9085693359375,9.5703125,1,1.0,1.0,1.0,1.0,10.00
2024-10-11 20:47:43.571,1.2167555,0.091245346,0.43137276,0.8072521,1.0674865,0.060789157,0.28748158,0.7865116,1.0713224,0.31287786,0.31453326,0.8248016,0.6293071,-0.22426485,0.7443334,0.5345792,0.04079296,-0.39086187,0.3649429,0.14604804,NaN,NaN,797.3993,799.011,NaN,-0.16998291015625,0.001220703125,0.98236083984375,-4.3365478515625,6.9085693359375,9.5703125,1,1.0,1.0,1.0,1.0,10.00
2024-10-11 20:47:43.572,1.2167555,0.091245346,0.43137276,0.8072521,1.0674865,0.060789157,0.28748158,0.7865116,1.0713224,0.31287786,0.31453326,0.8248016,0.6293071,-0.22426485,0.7443334,0.5345792,0.04079296,-0.39086187,0.3649429,0.14604804,NaN,NaN,799.41394,801.02563,NaN,-0.16998291015625,0.001220703125,0.98236083984375,-4.3365478515625,6.9085693359375,9.5703125,1,1.0,1.0,1.0,1.0,10.00
2024-10-11 20:47:43.573,1.2167555,0.091245346,0.43137276,0.8072521,1.0674865,0.060789157,0.28748158,0.7865116,1.0713224,0.31287786,0.31453326,0.8248016,0.6293071,-0.22426485,0.7443334,0.5345792,0.04079296,-0.39086187,0.3649429,0.14604804,NaN,NaN,801.4286,798.60803,NaN,-0.16998291015625,0.001220703125,0.98236083984375,-4.3365478515625,6.9085693359375,9.5703125,1,1.0,1.0,1.0,1.0,10.00
2024-10-11 20:47:43.574,1.2167555,0.091245346,0.43137276,0.8072521,1.0674865,0.060789157,0.28748158,0.7865116,1.0713224,0.31287786,0.31453326,0.8248016,0.6293071,-0.22426485,0.7443334,0.5345792,0.04079296,-0.39086187,0.3649429,0.14604804,NaN,NaN,785.31134,803.44324,NaN,-0.16998291015625,0.001220703125,0.98236083984375,-4.3365478515625,6.9085693359375,9.5703125,1,1.0,1.0,1.0,1.0,10.00
2024-10-11 20:47:43.574,1.2167555,0.091245346,0.43137276,0.8072521,1.0674865,0.060789157,0.28748158,0.7865116,1.0713224,0.31287786,0.31453326,0.8248016,0.6293071,-0.22426485,0.7443334,0.5345792,0.04079296,-0.39086187,0.3649429,0.14604804,NaN,NaN,796.1905,801.02563,NaN,-0.16998291015625,0.001220703125,0.98236083984375,-4.3365478515625,6.9085693359375,9.5703125,1,1.0,1.0,1.0,1.0,10.00
2024-10-11 20:47:43.575,1.2167555,0.091245346,0.43137276,0.8072521,1.0674865,0.060789157,0.28748158,0.7865116,1.0713224,0.31287786,0.31453326,0.8248016,0.6293071,-0.22426485,0.7443334,0.5345792,0.04079296,-0.39086187,0.3649429,0.14604804,NaN,NaN,816.337,799.81683,NaN,-0.16998291015625,0.001220703125,0.98236083984375,-4.3365478515625,6.9085693359375,9.5703125,1,1.0,1.0,1.0,1.0,10.00
2024-10-11 20:47:43.576,1.2167555,0.091245346,0.43137276,0.8072521,1.0674865,0.060789157,0.28748158,0.7865116,1.0713224,0.31287786,0.31453326,0.8248016,0.6293071,-0.22426485,0.7443334,0.5345792,0.04079296,-0.39086187,0.3649429,0.14604804,NaN,NaN,807.8755,810.293,NaN,-0.16998291015625,0.001220703125,0.98236083984375,-4.3365478515625,6.9085693359375,9.5703125,1,1.0,1.0,1.0,1.0,10.00
2024-10-11 20:47:43.578,1.2167555,0.091245346,0.43137276,0.8072521,1.0674865,0.060789157,0.28748158,0.7865116,1.0713224,0.31287786,0.31453326,0.8248016,0.6293071,-0.22426485,0.7443334,0.5345792,0.04079296,-0.39086187,0.3649429,0.14604804,NaN,NaN,805.05493,810.696,NaN,-0.16998291015625,0.001220703125,0.98236083984375,-4.3365478515625,6.9085693359375,9.5703125,1,1.0,1.0,1.0,1.0,10.00
2024-10-11 20:47:43.579,1.2167555,0.091245346,0.43137276,0.8072521,1.0674865,0.060789157,0.28748158,0.7865116,1.0713224,0.31287786,0.31453326,0.8248016,0.6293071,-0.22426485,0.7443334,0.5345792,0.04079296,-0.39086187,0.3649429,0.14604804,NaN,NaN,806.26373,801.8315,NaN,-0.16998291015625,0.001220703125,0.98236083984375,-4.3365478515625,6.9085693359375,9.5703125,1,1.0,1.0,1.0,1.0,10.00
2024-10-11 20:47:43.580,1.2167555,0.091245346,0.43137276,0.8072521,1.0674865,0.060789157,0.28748158,0.7865116,1.0713224,0.31287786,0.31453326,0.8248016,0.6293071,-0.22426485,0.7443334,0.5345792,0.04079296,-0.39086187,0.3649429,0.14604804,NaN,NaN,809.0842,803.44324,NaN,-0.16998291015625,0.001220703125,0.98236083984375,-4.3365478515625,6.9085693359375,9.5703125,1,1.0,1.0,1.0,1.0,10.00
2024-10-11 20:47:43.581,1.2167555,0.091245346,0.43137276,0.8072521,1.0674865,0.060789157,0.28748158,0.7865116,1.0713224,0.31287786,0.31453326,0.8248016,0.6293071,-0.22426485,0.7443334,0.5345792,0.04079296,-0.39086187,0.3649429,0.14604804,NaN,NaN,801.4286,813.5165,NaN,-0.16998291015625,0.001220703125,0.98236083984375,-4.3365478515625,6.9085693359375,9.5703125,1,1.0,1.0,1.0,1.0,10.00
2024-10-11 20:47:43.582,1.2466636,0.8678742,0.4230916,0.84317815,1.0966048,0.5103563,0.28773952,0.8131518,1.0713224,1.423259,0.2753683,0.8248016,0.62523353,0.09946421,0.7348025,0.5260785,0.044025492,-0.20694155,0.36244354,0.13569432,NaN,NaN,797.8022,818.7546,NaN,-0.16998291015625,0.001220703125,0.98236083984375,-4.3365478515625,6.9085693359375,9.5703125,1,1.0,1.0,1.0,1.0,10.00
2024-10-11 20:47:43.618,1.2466636,0.8678742,0.4230916,0.84317815,1.0966048,0.5103563,0.28773952,0.8131518,1.0713224,1.423259,0.2753683,0.8248016,0.62523353,0.09946421,0.7348025,0.5260785,0.044025492,-0.20694155,0.36244354,0.13569432,819.9634,799.41394,805.8608,812.71063,679.34064,-0.16998291015625,0.001220703125,0.98236083984375,-4.3365478515625,6.9085693359375,9.5703125,1,1.0,1.0,1.0,1.0,10.00
2024-10-11 20:47:43.619,1.2466636,0.8678742,0.4230916,0.84317815,1.0966048,0.5103563,0.28773952,0.8131518,1.0713224,1.423259,0.2753683,0.8248016,0.62523353,0.09946421,0.7348025,0.5260785,0.044025492,-0.20694155,0.36244354,0.13569432,819.15753,805.4579,801.4286,808.2784,602.7839,-0.16998291015625,0.001220703125,0.98236083984375,-4.3365478515625,6.9085693359375,9.5703125,1,1.0,1.0,1.0,1.0,10.00
2024-10-11 20:47:43.620,1.2466636,0.8678742,0.4230916,0.84317815,1.0966048,0.5103563,0.28773952,0.8131518,1.0713224,1.423259,0.2753683,0.8248016,0.62523353,0.09946421,0.7348025,0.5260785,0.044025492,-0.20694155,0.36244354,0.13569432,815.9341,805.05493,800.6227,811.9048,706.337,-0.16998291015625,0.001220703125,0.98236083984375,-4.3365478515625,6.9085693359375,9.5703125,1,1.0,1.0,1.0,1.0,10.00
2024-10-11 20:47:43.621,1.2466636,0.8678742,0.4230916,0.84317815,1.0966048,0.5103563,0.28773952,0.8131518,1.0713224,1.423259,0.2753683,0.8248016,0.62523353,0.09946421,0.7348025,0.5260785,0.044025492,-0.20694155,0.36244354,0.13569432,815.9341,803.44324,811.9048,810.293,699.0842,-0.16998291015625,0.001220703125,0.98236083984375,-4.3365478515625,6.9085693359375,9.5703125,1,1.0,1.0,1.0,1.0,10.00
2024-10-11 20:47:43.622,1.2466636,0.8678742,0.4230916,0.84317815,1.0966048,0.5103563,0.28773952,0.8131518,1.0713224,1.423259,0.2753683,0.8248016,0.62523353,0.09946421,0.7348025,0.5260785,0.044025492,-0.20694155,0.36244354,0.13569432,809.4872,803.8461,814.7253,801.8315,620.10986,-0.16998291015625,0.001220703125,0.98236083984375,-4.3365478515625,6.9085693359375,9.5703125,1,1.0,1.0,1.0,1.0,10.00
2024-10-11 20:47:43.622,1.2466636,0.8678742,0.4230916,0.84317815,1.0966048,0.5103563,0.28773952,0.8131518,1.0713224,1.423259,0.2753683,0.8248016,0.62523353,0.09946421,0.7348025,0.5260785,0.044025492,-0.20694155,0.36244354,0.13569432,804.65204,799.41394,804.65204,801.8315,755.09155,-0.16998291015625,0.001220703125,0.98236083984375,-4.3365478515625,6.9085693359375,9.5703125,1,1.0,1.0,1.0,1.0,10.00
2024-10-11 20:47:43.623,1.2466636,0.8678742,0.4230916,0.84317815,1.0966048,0.5103563,0.28773952,0.8131518,1.0713224,1.423259,0.2753683,0.8248016,0.62523353,0.09946421,0.7348025,0.5260785,0.044025492,-0.20694155,0.36244354,0.13569432,799.41394,793.36993,803.44324,805.8608,1006.1172,-0.16998291015625,0.001220703125,0.98236083984375,-4.3365478515625,6.9085693359375,9.5703125,1,1.0,1.0,1.0,1.0,10.00
2024-10-11 20:47:43.624,1.2466636,0.8678742,0.4230916,0.84317815,1.0966048,0.5103563,0.28773952,0.8131518,1.0713224,1.423259,0.2753683,0.8248016,0.62523353,0.09946421,0.7348025,0.5260785,0.044025492,-0.20694155,0.36244354,0.13569432,799.81683,792.1612,802.23444,805.05493,978.71796,-0.16998291015625,0.001220703125,0.98236083984375,-4.3365478515625,6.9085693359375,9.5703125,1,1.0,1.0,1.0,1.0,10.00
2024-10-11 20:47:43.624,1.2466636,0.8678742,0.4230916,0.84317815,1.0966048,0.5103563,0.28773952,0.8131518,1.0713224,1.423259,0.2753683,0.8248016,0.62523353,0.09946421,0.7348025,0.5260785,0.044025492,-0.20694155,0.36244354,0.13569432,811.0989,799.81683,799.011,800.2198,763.5531,-0.16998291015625,0.001220703125,0.98236083984375,-4.3365478515625,6.9085693359375,9.5703125,1,1.0,1.0,1.0,1.0,10.00
2024-10-11 20:47:43.625,1.2466636,0.8678742,0.4230916,0.84317815,1.0966048,0.5103563,0.28773952,0.8131518,1.0713224,1.423259,0.2753683,0.8248016,0.62523353,0.09946421,0.7348025,0.5260785,0.044025492,-0.20694155,0.36244354,0.13569432,812.71063,801.02563,801.02563,799.011,689.011,-0.16998291015625,0.001220703125,0.98236083984375,-4.3365478515625,6.9085693359375,9.5703125,1,1.0,1.0,1.0,1.0,10.00
2024-10-11 20:47:43.626,1.2466636,0.8678742,0.4230916,0.84317815,1.0966048,0.5103563,0.28773952,0.8131518,1.0713224,1.423259,0.2753683,0.8248016,0.62523353,0.09946421,0.7348025,0.5260785,0.044025492,-0.20694155,0.36244354,0.13569432,802.6374,794.57874,798.60803,801.4286,771.2088,-0.16998291015625,0.001220703125,0.98236083984375,-4.3365478515625,6.9085693359375,9.5703125,1,1.0,1.0,1.0,1.0,10.00
2024-10-11 20:47:43.626,1.2466636,0.8678742,0.4230916,0.84317815,1.0966048,0.5103563,0.28773952,0.8131518,1.0713224,1.423259,0.2753683,0.8248016,0.62523353,0.09946421,0.7348025,0.5260785,0.044025492,-0.20694155,0.36244354,0.13569432,802.6374,798.20514,798.60803,802.23444,812.3077,-0.16998291015625,0.001220703125,0.98236083984375,-4.3365478515625,6.9085693359375,9.5703125,1,1.0,1.0,1.0,1.0,10.00
2024-10-11 20:47:43.628,1.2466636,0.8678742,0.4230916,0.84317815,1.0966048,0.5103563,0.28773952,0.8131518,1.0713224,1.423259,0.2753683,0.8248016,0.62523353,0.09946421,0.7348025,0.5260785,0.044025492,-0.20694155,0.36244354,0.13569432,798.60803,797.8022,794.57874,799.81683,698.2784,-0.16998291015625,0.001220703125,0.98236083984375,-4.3365478515625,6.9085693359375,9.5703125,1,1.0,1.0,1.0,1.0,10.00
2024-10-11 20:47:43.628,1.2466636,0.8678742,0.4230916,0.84317815,1.0966048,0.5103563,0.28773952,0.8131518,1.0713224,1.423259,0.2753683,0.8248016,0.62523353,0.09946421,0.7348025,0.5260785,0.044025492,-0.20694155,0.36244354,0.13569432,796.1905,793.7729,794.57874,803.44324,709.5604,-0.16998291015625,0.001220703125,0.98236083984375,-4.3365478515625,6.9085693359375,9.5703125,1,1.0,1.0,1.0,1.0,10.00
2024-10-11 20:47:43.629,1.2466636,0.8678742,0.4230916,0.84317815,1.0966048,0.5103563,0.28773952,0.8131518,1.0713224,1.423259,0.2753683,0.8248016,0.62523353,0.09946421,0.7348025,0.5260785,0.044025492,-0.20694155,0.36244354,0.13569432,795.38464,790.54944,804.2491,805.4579,925.5311,-0.16998291015625,0.001220703125,0.98236083984375,-4.3365478515625,6.9085693359375,9.5703125,1,1.0,1.0,1.0,1.0,10.00
2024-10-11 20:47:43.630,1.2466636,0.8678742,0.4230916,0.84317815,1.0966048,0.5103563,0.28773952,0.8131518,1.0713224,1.423259,0.2753683,0.8248016,0.62523353,0.09946421,0.7348025,0.5260785,0.044025492,-0.20694155,0.36244354,0.13569432,799.81683,792.1612,803.8461,805.4579,853.8095,-0.16998291015625,0.001220703125,0.98236083984375,-4.3365478515625,6.9085693359375,9.5703125,1,1.0,1.0,1.0,1.0,10.00
2024-10-11 20:47:43.631,1.2466636,0.8678742,0.4230916,0.84317815,1.0966048,0.5103563,0.28773952,0.8131518,1.0713224,1.423259,0.2753683,0.8248016,0.62523353,0.09946421,0.7348025,0.5260785,0.044025492,-0.20694155,0.36244354,0.13569432,805.4579,801.02563,798.20514,805.8608,648.315,-0.16998291015625,0.001220703125,0.98236083984375,-4.3365478515625,6.9085693359375,9.5703125,1,1.0,1.0,1.0,1.0,10.00
