TimeStamp,Delta_TP9,Delta_AF7,Delta_AF8,Delta_TP10,Theta_TP9,Theta_AF7,Theta_AF8,Theta_TP10,Alpha_TP9,Alpha_AF7,Alpha_AF8,Alpha_TP10,Beta_TP9,Beta_AF7,Beta_AF8,Beta_TP10,Gamma_TP9,Gamma_AF7,Gamma_AF8,Gamma_TP10,RAW_TP9,RAW_AF7,RAW_AF8,RAW_TP10,AUX_RIGHT,Accelerometer_X,Accelerometer_Y,Accelerometer_Z,Gyro_X,Gyro_Y,Gyro_Z,HeadBandOn,HSI_TP9,HSI_AF7,HSI_AF8,HSI_TP10,Battery,Elements
2024-10-11 20:47:14.549,0.12034369,0.13941008,0.5918639,0.47669476,0.18622935,-0.29523224,0.011470959,0.04479553,0.4810881,0.08193007,0.12529641,0.1584229,0.46542555,-0.25250524,0.73521835,0.40471664,0.23521201,-0.6303088,0.22255912,-0.1402107,714.7985,801.02563,838.49817,752.674,630.989,0.24578857421875,0.19732666015625,0.98748779296875,-1.188812255859375,9.263763427734375,11.85821533203125,1,1.0,1.0,1.0,1.0,10.00
2024-10-11 20:47:14.551,0.12034369,0.11395791,0.5918639,0.47669476,0.18622935,-0.30568448,0.011470959,0.04479553,0.4810881,0.08679005,0.12529641,0.1584229,0.46542555,-0.25561306,0.73521835,0.40471664,0.23521201,-0.59951377,0.22255912,-0.1402107,735.7509,799.41394,833.663,759.92676,693.8461,0.24578857421875,0.19732666015625,0.98748779296875,-1.188812255859375,9.263763427734375,11.85821533203125,1,1.0,1.0,1.0,1.0,10.00
2024-10-11 20:47:14.557,0.12034369,0.11395791,0.5918639,0.47669476,0.18622935,-0.30568448,0.011470959,0.04479553,0.4810881,0.08679005,0.12529641,0.1584229,0.46542555,-0.25561306,0.73521835,0.40471664,0.23521201,-0.59951377,0.22255912,-0.1402107,747.4359,794.17584,842.9304,766.3736,801.02563,0.24578857421875,0.19732666015625,0.98748779296875,-1.188812255859375,9.263763427734375,11.85821533203125,1,1.0,1.0,1.0,1.0,10.00
2024-10-11 20:47:14.559,0.12034369,0.11395791,0.5918639,0.47669476,0.18622935,-0.30568448,0.011470959,0.04479553,0.4810881,0.08679005,0.12529641,0.1584229,0.46542555,-0.25561306,0.73521835,0.40471664,0.23521201,-0.59951377,0.22255912,-0.1402107,729.304,790.9524,832.4542,757.1062,709.15753,0.24578857421875,0.19732666015625,0.98748779296875,-1.188812255859375,9.263763427734375,11.85821533203125,1,1.0,1.0,1.0,1.0,10.00
2024-10-11 20:47:14.560,0.12034369,0.11395791,0.5918639,0.47669476,0.18622935,-0.30568448,0.011470959,0.04479553,0.4810881,0.08679005,0.12529641,0.1584229,0.46542555,-0.25561306,0.73521835,0.40471664,0.23521201,-0.59951377,0.22255912,-0.1402107,745.0183,787.326,825.6044,763.5531,628.5714,0.24578857421875,0.19732666015625,0.98748779296875,-1.188812255859375,9.263763427734375,11.85821533203125,1,1.0,1.0,1.0,1.0,10.00
2024-10-11 20:47:14.561,0.12034369,0.11395791,0.5918639,0.47669476,0.18622935,-0.30568448,0.011470959,0.04479553,0.4810881,0.08679005,0.12529641,0.1584229,0.46542555,-0.25561306,0.73521835,0.40471664,0.23521201,-0.59951377,0.22255912,-0.1402107,746.63007,786.9231,829.2308,767.1795,826.0073,0.24578857421875,0.19732666015625,0.98748779296875,-1.188812255859375,9.263763427734375,11.85821533203125,1,1.0,1.0,1.0,1.0,10.00
2024-10-11 20:47:14.563,0.12034369,0.11395791,0.5918639,0.47669476,0.18622935,-0.30568448,0.011470959,0.04479553,0.4810881,0.08679005,0.12529641,0.1584229,0.46542555,-0.25561306,0.73521835,0.40471664,0.23521201,-0.59951377,0.22255912,-0.1402107,747.4359,787.326,813.91943,764.35895,945.6777,0.24578857421875,0.19732666015625,0.98748779296875,-1.188812255859375,9.263763427734375,11.85821533203125,1,1.0,1.0,1.0,1.0,10.00
2024-10-11 20:47:14.564,0.12034369,0.11395791,0.5918639,0.47669476,0.18622935,-0.30568448,0.011470959,0.04479553,0.4810881,0.08679005,0.12529641,0.1584229,0.46542555,-0.25561306,0.73521835,0.40471664,0.23521201,-0.59951377,0.22255912,-0.1402107,751.8681,788.93774,807.0696,770.80585,762.74725,0.24578857421875,0.19732666015625,0.98748779296875,-1.188812255859375,9.263763427734375,11.85821533203125,1,1.0,1.0,1.0,1.0,10.00
2024-10-11 20:47:14.565,0.12034369,0.11395791,0.5918639,0.47669476,0.18622935,-0.30568448,0.011470959,0.04479553,0.4810881,0.08679005,0.12529641,0.1584229,0.46542555,-0.25561306,0.73521835,0.40471664,0.23521201,-0.59951377,0.22255912,-0.1402107,750.65936,794.17584,819.15753,785.31134,774.43225,0.24578857421875,0.19732666015625,0.98748779296875,-1.188812255859375,9.263763427734375,11.85821533203125,1,1.0,1.0,1.0,1.0,10.00
2024-10-11 20:47:14.566,0.12034369,0.11395791,0.5918639,0.47669476,0.18622935,-0.30568448,0.011470959,0.04479553,0.4810881,0.08679005,0.12529641,0.1584229,0.46542555,-0.25561306,0.73521835,0.40471664,0.23521201,-0.59951377,0.22255912,-0.1402107,765.9707,792.1612,821.1722,788.1319,861.4652,0.24578857421875,0.19732666015625,0.98748779296875,-1.188812255859375,9.263763427734375,11.85821533203125,1,1.0,1.0,1.0,1.0,10.00
2024-10-11 20:47:14.568,0.12034369,0.11395791,0.5918639,0.47669476,0.18622935,-0.30568448,0.011470959,0.04479553,0.4810881,0.08679005,0.12529641,0.1584229,0.46542555,-0.25561306,0.73521835,0.40471664,0.23521201,-0.59951377,0.22255912,-0.1402107,772.8205,789.34064,824.3956,787.326,1191.4652,0.24578857421875,0.19732666015625,0.98748779296875,-1.188812255859375,9.263763427734375,11.85821533203125,1,1.0,1.0,1.0,1.0,10.00
2024-10-11 20:47:14.569,0.12034369,0.11395791,0.5918639,0.47669476,0.18622935,-0.30568448,0.011470959,0.04479553,0.4810881,0.08679005,0.12529641,0.1584229,0.46542555,-0.25561306,0.73521835,0.40471664,0.23521201,-0.59951377,0.22255912,-0.1402107,782.0879,794.17584,820.7692,796.5934,1222.0879,0.24578857421875,0.19732666015625,0.98748779296875,-1.188812255859375,9.263763427734375,11.85821533203125,1,1.0,1.0,1.0,1.0,10.00
2024-10-11 20:47:14.716,0.12034369,0.11395791,0.5918639,0.47669476,0.18622935,-0.30568448,0.011470959,0.04479553,0.4810881,0.08679005,0.12529641,0.1584229,0.46542555,-0.25561306,0.73521835,0.40471664,0.23521201,-0.59951377,0.22255912,-0.1402107,782.8938,794.57874,809.4872,787.72894,740.18317,0.20147705078125,0.18438720703125,0.986083984375,-4.77020263671875,15.372314453125,12.703094482421875,1,1.0,1.0,1.0,1.0,10.00
2024-10-11 20:47:14.717,0.12034369,0.11395791,0.5918639,0.47669476,0.18622935,-0.30568448,0.011470959,0.04479553,0.4810881,0.08679005,0.12529641,0.1584229,0.46542555,-0.25561306,0.73521835,0.40471664,0.23521201,-0.59951377,0.22255912,-0.1402107,777.25275,791.75824,811.50183,780.4762,793.7729,0.20147705078125,0.18438720703125,0.986083984375,-4.77020263671875,15.372314453125,12.703094482421875,1,1.0,1.0,1.0,1.0,10.00
2024-10-11 20:47:14.718,0.12034369,0.11395791,0.5918639,0.47669476,0.18622935,-0.30568448,0.011470959,0.04479553,0.4810881,0.08679005,0.12529641,0.1584229,0.46542555,-0.25561306,0.73521835,0.40471664,0.23521201,-0.59951377,0.22255912,-0.1402107,774.83514,790.54944,804.2491,786.52014,1039.5604,0.20147705078125,0.18438720703125,0.986083984375,-4.77020263671875,15.372314453125,12.703094482421875,1,1.0,1.0,1.0,1.0,10.00
2024-10-11 20:47:14.719,0.12034369,0.11395791,0.5918639,0.47669476,0.18622935,-0.30568448,0.011470959,0.04479553,0.4810881,0.08679005,0.12529641,0.1584229,0.46542555,-0.25561306,0.73521835,0.40471664,0.23521201,-0.59951377,0.22255912,-0.1402107,781.28204,790.14655,793.7729,790.54944,821.1722,0.20147705078125,0.18438720703125,0.986083984375,-4.77020263671875,15.372314453125,12.703094482421875,1,1.0,1.0,1.0,1.0,10.00
2024-10-11 20:47:14.721,0.12034369,0.11395791,0.5918639,0.47669476,0.18622935,-0.30568448,0.011470959,0.04479553,0.4810881,0.08679005,0.12529641,0.1584229,0.46542555,-0.25561306,0.73521835,0.40471664,0.23521201,-0.59951377,0.22255912,-0.1402107,784.10254,791.75824,796.5934,798.20514,612.4542,0.20147705078125,0.18438720703125,0.986083984375,-4.77020263671875,15.372314453125,12.703094482421875,1,1.0,1.0,1.0,1.0,10.00
2024-10-11 20:47:14.722,0.12034369,0.11395791,0.5918639,0.47669476,0.18622935,-0.30568448,0.011470959,0.04479553,0.4810881,0.08679005,0.12529641,0.1584229,0.46542555,-0.25561306,0.73521835,0.40471664,0.23521201,-0.59951377,0.22255912,-0.1402107,781.685,788.93774,807.8755,807.8755,942.4542,0.20147705078125,0.18438720703125,0.986083984375,-4.77020263671875,15.372314453125,12.703094482421875,1,1.0,1.0,1.0,1.0,10.00
2024-10-11 20:47:14.723,0.12034369,0.11395791,0.5918639,0.47669476,0.18622935,-0.30568448,0.011470959,0.04479553,0.4810881,0.08679005,0.12529641,0.1584229,0.46542555,-0.25561306,0.73521835,0.40471664,0.23521201,-0.59951377,0.22255912,-0.1402107,788.93774,792.1612,809.4872,810.696,1089.9268,0.20147705078125,0.18438720703125,0.986083984375,-4.77020263671875,15.372314453125,12.703094482421875,1,1.0,1.0,1.0,1.0,10.00
2024-10-11 20:47:14.724,0.12034369,0.11395791,0.5918639,0.47669476,0.18622935,-0.30568448,0.011470959,0.04479553,0.4810881,0.08679005,0.12529641,0.1584229,0.46542555,-0.25561306,0.73521835,0.40471664,0.23521201,-0.59951377,0.22255912,-0.1402107,793.36993,797.8022,810.696,808.2784,815.12823,0.20147705078125,0.18438720703125,0.986083984375,-4.77020263671875,15.372314453125,12.703094482421875,1,1.0,1.0,1.0,1.0,10.00
2024-10-11 20:47:14.725,0.12034369,0.11395791,0.5918639,0.47669476,0.18622935,-0.30568448,0.011470959,0.04479553,0.4810881,0.08679005,0.12529641,0.1584229,0.46542555,-0.25561306,0.73521835,0.40471664,0.23521201,-0.59951377,0.22255912,-0.1402107,799.41394,794.57874,818.3516,797.8022,606.8132,0.20147705078125,0.18438720703125,0.986083984375,-4.77020263671875,15.372314453125,12.703094482421875,1,1.0,1.0,1.0,1.0,10.00
2024-10-11 20:47:14.726,0.12034369,0.11395791,0.5918639,0.47669476,0.18622935,-0.30568448,0.011470959,0.04479553,0.4810881,0.08679005,0.12529641,0.1584229,0.46542555,-0.25561306,0.73521835,0.40471664,0.23521201,-0.59951377,0.22255912,-0.1402107,795.38464,796.1905,813.91943,800.6227,823.9927,0.20147705078125,0.18438720703125,0.986083984375,-4.77020263671875,15.372314453125,12.703094482421875,1,1.0,1.0,1.0,1.0,10.00
2024-10-11 20:47:14.727,0.12034369,0.11395791,0.5918639,0.47669476,0.18622935,-0.30568448,0.011470959,0.04479553,0.4810881,0.08679005,0.12529641,0.1584229,0.46542555,-0.25561306,0.73521835,0.40471664,0.23521201,-0.59951377,0.22255912,-0.1402107,780.07324,792.96704,807.0696,807.8755,1055.6776,0.20147705078125,0.18438720703125,0.986083984375,-4.77020263671875,15.372314453125,12.703094482421875,1,1.0,1.0,1.0,1.0,10.00
2024-10-11 20:47:14.728,0.12034369,0.11395791,0.5918639,0.47669476,0.18622935,-0.30568448,0.011470959,0.04479553,0.4810881,0.08679005,0.12529641,0.1584229,0.46542555,-0.25561306,0.73521835,0.40471664,0.23521201,-0.59951377,0.22255912,-0.1402107,781.685,792.1612,805.05493,809.4872,866.30035,0.20147705078125,0.18438720703125,0.986083984375,-4.77020263671875,15.372314453125,12.703094482421875,1,1.0,1.0,1.0,1.0,10.00
2024-10-11 20:47:14.766,0.12034369,0.11395791,0.5918639,0.47669476,0.18622935,-0.30568448,0.011470959,0.04479553,0.4810881,0.08679005,0.12529641,0.1584229,0.46542555,-0.25561306,0.73521835,0.40471664,0.23521201,-0.59951377,0.22255912,-0.1402107,790.14655,795.78754,796.1905,810.696,718.8278,0.1673583984375,0.1600341796875,0.98638916015625,-8.695526123046875,14.632110595703125,9.592742919921875,1,1.0,1.0,1.0,1.0,10.00
2024-10-11 20:47:14.767,0.12034369,0.11395791,0.5918639,0.47669476,0.18622935,-0.30568448,0.011470959,0.04479553,0.4810881,0.08679005,0.12529641,0.1584229,0.46542555,-0.25561306,0.73521835,0.40471664,0.23521201,-0.59951377,0.22255912,-0.1402107,792.96704,796.1905,787.72894,803.8461,746.63007,0.1673583984375,0.1600341796875,0.98638916015625,-8.695526123046875,14.632110595703125,9.592742919921875,1,1.0,1.0,1.0,1.0,10.00
2024-10-11 20:47:14.769,0.12034369,0.11395791,0.5918639,0.47669476,0.18622935,-0.30568448,0.011470959,0.04479553,0.4810881,0.08679005,0.12529641,0.1584229,0.46542555,-0.25561306,0.73521835,0.40471664,0.23521201,-0.59951377,0.22255912,-0.1402107,795.38464,798.20514,791.3553,806.6667,780.07324,0.1673583984375,0.1600341796875,0.98638916015625,-8.695526123046875,14.632110595703125,9.592742919921875,1,1.0,1.0,1.0,1.0,10.00
2024-10-11 20:47:14,,,,,,,,,,,,,,,,,,,,,,,,,,,,,,,,,,,,,,/muse/elements/blink
2024-10-11 20:47:14.770,0.12034369,0.09738515,0.5918639,0.47669476,0.18622935,-0.3129367,0.011470959,0.04479553,0.4810881,0.08679005,0.12529641,0.1584229,0.46542555,-0.25751558,0.73521835,0.40471664,0.23521201,-0.5780821,0.22255912,-0.1402107,805.05493,800.2198,794.57874,807.8755,679.7436,0.1673583984375,0.1600341796875,0.98638916015625,-8.695526123046875,14.632110595703125,9.592742919921875,1,1.0,1.0,1.0,1.0,10.00
2024-10-11 20:47:14.775,0.12034369,0.09738515,0.5918639,0.47669476,0.18622935,-0.3129367,0.011470959,0.04479553,0.4810881,0.08679005,0.12529641,0.1584229,0.46542555,-0.25751558,0.73521835,0.40471664,0.23521201,-0.5780821,0.22255912,-0.1402107,822.7839,799.81683,804.2491,801.8315,750.2564,0.1673583984375,0.1600341796875,0.98638916015625,-8.695526123046875,14.632110595703125,9.592742919921875,1,1.0,1.0,1.0,1.0,10.00
2024-10-11 20:47:14.776,0.12034369,0.09738515,0.5918639,0.47669476,0.18622935,-0.3129367,0.011470959,0.04479553,0.4810881,0.08679005,0.12529641,0.1584229,0.46542555,-0.25751558,0.73521835,0.40471664,0.23521201,-0.5780821,0.22255912,-0.1402107,824.3956,798.60803,816.7399,804.2491,917.47253,0.1673583984375,0.1600341796875,0.98638916015625,-8.695526123046875,14.632110595703125,9.592742919921875,1,1.0,1.0,1.0,1.0,10.00
2024-10-11 20:47:14.777,0.12034369,0.09738515,0.5918639,0.47669476,0.18622935,-0.3129367,0.011470959,0.04479553,0.4810881,0.08679005,0.12529641,0.1584229,0.46542555,-0.25751558,0.73521835,0.40471664,0.23521201,-0.5780821,0.22255912,-0.1402107,809.4872,800.6227,804.2491,806.6667,906.99634,0.1673583984375,0.1600341796875,0.98638916015625,-8.695526123046875,14.632110595703125,9.592742919921875,1,1.0,1.0,1.0,1.0,10.00
2024-10-11 20:47:14.778,0.12034369,0.09738515,0.5918639,0.47669476,0.18622935,-0.3129367,0.011470959,0.04479553,0.4810881,0.08679005,0.12529641,0.1584229,0.46542555,-0.25751558,0.73521835,0.40471664,0.23521201,-0.5780821,0.22255912,-0.1402107,807.47253,804.65204,790.14655,808.68134,761.53845,0.1673583984375,0.1600341796875,0.98638916015625,-8.695526123046875,14.632110595703125,9.592742919921875,1,1.0,1.0,1.0,1.0,10.00
2024-10-11 20:47:14.779,0.12034369,0.09738515,0.5918639,0.47669476,0.18622935,-0.3129367,0.011470959,0.04479553,0.4810881,0.08679005,0.12529641,0.1584229,0.46542555,-0.25751558,0.73521835,0.40471664,0.23521201,-0.5780821,0.22255912,-0.1402107,814.3223,803.44324,801.02563,807.8755,713.1868,0.1673583984375,0.1600341796875,0.98638916015625,-8.695526123046875,14.632110595703125,9.592742919921875,1,1.0,1.0,1.0,1.0,10.00
2024-10-11 20:47:14.780,0.12034369,0.09738515,0.5918639,0.47669476,0.18622935,-0.3129367,0.011470959,0.04479553,0.4810881,0.08679005,0.12529641,0.1584229,0.46542555,-0.25751558,0.73521835,0.40471664,0.23521201,-0.5780821,0.22255912,-0.1402107,812.3077,797.3993,801.02563,802.6374,884.83514,0.1673583984375,0.1600341796875,0.98638916015625,-8.695526123046875,14.632110595703125,9.592742919921875,1,1.0,1.0,1.0,1.0,10.00
2024-10-11 20:47:14.781,0.12034369,0.09738515,0.5918639,0.47669476,0.18622935,-0.3129367,0.011470959,0.04479553,0.4810881,0.08679005,0.12529641,0.1584229,0.46542555,-0.25751558,0.73521835,0.40471664,0.23521201,-0.5780821,0.22255912,-0.1402107,812.71063,800.2198,801.4286,799.41394,767.1795,0.1673583984375,0.1600341796875,0.98638916015625,-8.695526123046875,14.632110595703125,9.592742919921875,1,1.0,1.0,1.0,1.0,10.00
2024-10-11 20:47:14.782,0.12034369,0.09738515,0.5918639,0.47669476,0.18622935,-0.3129367,0.011470959,0.04479553,0.4810881,0.08679005,0.12529641,0.1584229,0.46542555,-0.25751558,0.73521835,0.40471664,0.23521201,-0.5780821,0.22255912,-0.1402107,810.696,798.20514,803.8461,804.2491,511.72162,0.1673583984375,0.1600341796875,0.98638916015625,-8.695526123046875,14.632110595703125,9.592742919921875,1,1.0,1.0,1.0,1.0,10.00
2024-10-11 20:47:14.808,0.12034369,0.09738515,0.5918639,0.47669476,0.18622935,-0.3129367,0.011470959,0.04479553,0.4810881,0.08679005,0.12529641,0.1584229,0.46542555,-0.25751558,0.73521835,0.40471664,0.23521201,-0.5780821,0.22255912,-0.1402107,814.3223,795.78754,794.9817,807.0696,668.0586,0.15087890625,0.1243896484375,0.99627685546875,-11.61895751953125,13.50311279296875,6.3702392578125,1,1.0,1.0,1.0,1.0,10.00
2024-10-11 20:47:14.808,0.12034369,0.09738515,0.5918639,0.47669476,0.18622935,-0.3129367,0.011470959,0.04479553,0.4810881,0.08679005,0.12529641,0.1584229,0.46542555,-0.25751558,0.73521835,0.40471664,0.23521201,-0.5780821,0.22255912,-0.1402107,822.7839,801.4286,786.1172,813.1135,899.7436,0.15087890625,0.1243896484375,0.99627685546875,-11.61895751953125,13.50311279296875,6.3702392578125,1,1.0,1.0,1.0,1.0,10.00
2024-10-11 20:47:14.809,0.12034369,0.09738515,0.5918639,0.47669476,0.18622935,-0.3129367,0.011470959,0.04479553,0.4810881,0.08679005,0.12529641,0.1584229,0.46542555,-0.25751558,0.73521835,0.40471664,0.23521201,-0.5780821,0.22255912,-0.1402107,808.68134,800.6227,792.5641,824.7985,792.96704,0.15087890625,0.1243896484375,0.99627685546875,-11.61895751953125,13.50311279296875,6.3702392578125,1,1.0,1.0,1.0,1.0,10.00
2024-10-11 20:47:14.810,0.12034369,0.09738515,0.5918639,0.47669476,0.18622935,-0.3129367,0.011470959,0.04479553,0.4810881,0.08679005,0.12529641,0.1584229,0.46542555,-0.25751558,0.73521835,0.40471664,0.23521201,-0.5780821,0.22255912,-0.1402107,809.4872,800.6227,803.0403,820.3663,634.61536,0.15087890625,0.1243896484375,0.99627685546875,-11.61895751953125,13.50311279296875,6.3702392578125,1,1.0,1.0,1.0,1.0,10.00
2024-10-11 20:47:14.811,0.12034369,0.09738515,0.5918639,0.47669476,0.18622935,-0.3129367,0.011470959,0.04479553,0.4810881,0.08679005,0.12529641,0.1584229,0.46542555,-0.25751558,0.73521835,0.40471664,0.23521201,-0.5780821,0.22255912,-0.1402107,809.89014,805.4579,796.99634,814.7253,718.8278,0.15087890625,0.1243896484375,0.99627685546875,-11.61895751953125,13.50311279296875,6.3702392578125,1,1.0,1.0,1.0,1.0,10.00
2024-10-11 20:47:14.812,0.12034369,0.09738515,0.5918639,0.47669476,0.18622935,-0.3129367,0.011470959,0.04479553,0.4810881,0.08679005,0.12529641,0.1584229,0.46542555,-0.25751558,0.73521835,0.40471664,0.23521201,-0.5780821,0.22255912,-0.1402107,813.5165,803.44324,795.38464,815.5311,813.91943,0.15087890625,0.1243896484375,0.99627685546875,-11.61895751953125,13.50311279296875,6.3702392578125,1,1.0,1.0,1.0,1.0,10.00
2024-10-11 20:47:14.813,0.12034369,0.09738515,0.5918639,0.47669476,0.18622935,-0.3129367,0.011470959,0.04479553,0.4810881,0.08679005,0.12529641,0.1584229,0.46542555,-0.25751558,0.73521835,0.40471664,0.23521201,-0.5780821,0.22255912,-0.1402107,821.1722,803.0403,789.34064,809.89014,718.022,0.15087890625,0.1243896484375,0.99627685546875,-11.61895751953125,13.50311279296875,6.3702392578125,1,1.0,1.0,1.0,1.0,10.00
2024-10-11 20:47:14.814,0.12034369,0.09738515,0.5918639,0.47669476,0.18622935,-0.3129367,0.011470959,0.04479553,0.4810881,0.08679005,0.12529641,0.1584229,0.46542555,-0.25751558,0.73521835,0.40471664,0.23521201,-0.5780821,0.22255912,-0.1402107,814.7253,804.2491,780.87915,813.5165,713.5897,0.15087890625,0.1243896484375,0.99627685546875,-11.61895751953125,13.50311279296875,6.3702392578125,1,1.0,1.0,1.0,1.0,10.00
2024-10-11 20:47:14.814,0.12034369,0.09738515,0.5918639,0.47669476,0.18622935,-0.3129367,0.011470959,0.04479553,0.4810881,0.08679005,0.12529641,0.1584229,0.46542555,-0.25751558,0.73521835,0.40471664,0.23521201,-0.5780821,0.22255912,-0.1402107,811.50183,798.60803,799.81683,819.15753,812.71063,0.15087890625,0.1243896484375,0.99627685546875,-11.61895751953125,13.50311279296875,6.3702392578125,1,1.0,1.0,1.0,1.0,10.00
2024-10-11 20:47:14.815,0.12034369,0.09738515,0.5918639,0.47669476,0.18622935,-0.3129367,0.011470959,0.04479553,0.4810881,0.08679005,0.12529641,0.1584229,0.46542555,-0.25751558,0.73521835,0.40471664,0.23521201,-0.5780821,0.22255912,-0.1402107,817.5458,797.8022,800.2198,817.9487,743.4066,0.15087890625,0.1243896484375,0.99627685546875,-11.61895751953125,13.50311279296875,6.3702392578125,1,1.0,1.0,1.0,1.0,10.00
2024-10-11 20:47:14.815,0.12034369,0.09738515,0.5918639,0.47669476,0.18622935,-0.3129367,0.011470959,0.04479553,0.4810881,0.08679005,0.12529641,0.1584229,0.46542555,-0.25751558,0.73521835,0.40471664,0.23521201,-0.5780821,0.22255912,-0.1402107,819.9634,799.81683,790.14655,816.337,579.41394,0.15087890625,0.1243896484375,0.99627685546875,-11.61895751953125,13.50311279296875,6.3702392578125,1,1.0,1.0,1.0,1.0,10.00
2024-10-11 20:47:14.816,0.12034369,0.09738515,0.5918639,0.47669476,0.18622935,-0.3129367,0.011470959,0.04479553,0.4810881,0.08679005,0.12529641,0.1584229,0.46542555,-0.25751558,0.73521835,0.40471664,0.23521201,-0.5780821,0.22255912,-0.1402107,813.5165,796.1905,797.3993,807.0696,570.14655,0.15087890625,0.1243896484375,0.99627685546875,-11.61895751953125,13.50311279296875,6.3702392578125,1,1.0,1.0,1.0,1.0,10.00
2024-10-11 20:47:14.868,0.12034369,0.09738515,0.5918639,0.47669476,0.18622935,-0.3129367,0.011470959,0.04479553,0.4810881,0.08679005,0.12529641,0.1584229,0.46542555,-0.25751558,0.73521835,0.40471664,0.23521201,-0.5780821,0.22255912,-0.1402107,819.15753,797.3993,794.9817,807.0696,691.02563,0.15087890625,0.1243896484375,0.99627685546875,-11.61895751953125,13.50311279296875,6.3702392578125,1,1.0,1.0,1.0,1.0,10.00
2024-10-11 20:47:14.869,0.12034369,0.09738515,0.5918639,0.47669476,0.18622935,-0.3129367,0.011470959,0.04479553,0.4810881,0.08679005,0.12529641,0.1584229,0.46542555,-0.25751558,0.73521835,0.40471664,0.23521201,-0.5780821,0.22255912,-0.1402107,820.3663,799.41394,800.2198,816.7399,666.4469,0.15087890625,0.1243896484375,0.99627685546875,-11.61895751953125,13.50311279296875,6.3702392578125,1,1.0,1.0,1.0,1.0,10.00
2024-10-11 20:47:14.870,0.12034369,0.09738515,0.5918639,0.47669476,0.18622935,-0.3129367,0.011470959,0.04479553,0.4810881,0.08679005,0.12529641,0.1584229,0.46542555,-0.25751558,0.73521835,0.40471664,0.23521201,-0.5780821,0.22255912,-0.1402107,815.9341,799.41394,809.89014,813.1135,535.09155,0.15087890625,0.1243896484375,0.99627685546875,-11.61895751953125,13.50311279296875,6.3702392578125,1,1.0,1.0,1.0,1.0,10.00
2024-10-11 20:47:14.870,0.12034369,0.09738515,0.5918639,0.47669476,0.18622935,-0.3129367,0.011470959,0.04479553,0.4810881,0.08679005,0.12529641,0.1584229,0.46542555,-0.25751558,0.73521835,0.40471664,0.23521201,-0.5780821,0.22255912,-0.1402107,820.3663,802.23444,803.0403,807.47253,583.0403,0.15087890625,0.1243896484375,0.99627685546875,-11.61895751953125,13.50311279296875,6.3702392578125,1,1.0,1.0,1.0,1.0,10.00
2024-10-11 20:47:14.871,0.12034369,0.09738515,0.5918639,0.47669476,0.18622935,-0.3129367,0.011470959,0.04479553,0.4810881,0.08679005,0.12529641,0.1584229,0.46542555,-0.25751558,0.73521835,0.40471664,0.23521201,-0.5780821,0.22255912,-0.1402107,815.9341,797.3993,796.99634,812.71063,734.94507,0.15087890625,0.1243896484375,0.99627685546875,-11.61895751953125,13.50311279296875,6.3702392578125,1,1.0,1.0,1.0,1.0,10.00
2024-10-11 20:47:14.871,0.12034369,0.09129117,0.5918639,0.47669476,0.18622935,-0.30881134,0.011470959,0.04479553,0.4810881,0.07646585,0.12529641,0.1584229,0.46542555,-0.2585606,0.73521835,0.40471664,0.23521201,-0.5639769,0.22255912,-0.1402107,818.7546,799.011,799.011,812.3077,847.3626,0.15087890625,0.1243896484375,0.99627685546875,-11.61895751953125,13.50311279296875,6.3702392578125,1,1.0,1.0,1.0,1.0,10.00
2024-10-11 20:47:14.875,0.12034369,0.09129117,0.5918639,0.47669476,0.18622935,-0.30881134,0.011470959,0.04479553,0.4810881,0.07646585,0.12529641,0.1584229,0.46542555,-0.2585606,0.73521835,0.40471664,0.23521201,-0.5639769,0.22255912,-0.1402107,823.1868,801.02563,800.6227,806.6667,809.0842,0.15087890625,0.1243896484375,0.99627685546875,-11.61895751953125,13.50311279296875,6.3702392578125,1,1.0,1.0,1.0,1.0,10.00
2024-10-11 20:47:14.876,0.12034369,0.09129117,0.5918639,0.47669476,0.18622935,-0.30881134,0.011470959,0.04479553,0.4810881,0.07646585,0.12529641,0.1584229,0.46542555,-0.2585606,0.73521835,0.40471664,0.23521201,-0.5639769,0.22255912,-0.1402107,813.91943,801.02563,800.2198,808.68134,913.0403,0.15087890625,0.1243896484375,0.99627685546875,-11.61895751953125,13.50311279296875,6.3702392578125,1,1.0,1.0,1.0,1.0,10.00
2024-10-11 20:47:14.876,0.12034369,0.09129117,0.5918639,0.47669476,0.18622935,-0.30881134,0.011470959,0.04479553,0.4810881,0.07646585,0.12529641,0.1584229,0.46542555,-0.2585606,0.73521835,0.40471664,0.23521201,-0.5639769,0.22255912,-0.1402107,809.89014,803.0403,786.9231,818.7546,956.1539,0.15087890625,0.1243896484375,0.99627685546875,-11.61895751953125,13.50311279296875,6.3702392578125,1,1.0,1.0,1.0,1.0,10.00
2024-10-11 20:47:14.877,0.12034369,0.09129117,0.5918639,0.47669476,0.18622935,-0.30881134,0.011470959,0.04479553,0.4810881,0.07646585,0.12529641,0.1584229,0.46542555,-0.2585606,0.73521835,0.40471664,0.23521201,-0.5639769,0.22255912,-0.1402107,814.3223,801.02563,766.3736,817.5458,758.71796,0.15087890625,0.1243896484375,0.99627685546875,-11.61895751953125,13.50311279296875,6.3702392578125,1,1.0,1.0,1.0,1.0,10.00
2024-10-11 20:47:14.877,0.12034369,0.09129117,0.5918639,0.47669476,0.18622935,-0.30881134,0.011470959,0.04479553,0.4810881,0.07646585,0.12529641,0.1584229,0.46542555,-0.2585606,0.73521835,0.40471664,0.23521201,-0.5639769,0.22255912,-0.1402107,815.5311,799.011,782.0879,809.4872,645.89746,0.15087890625,0.1243896484375,0.99627685546875,-11.61895751953125,13.50311279296875,6.3702392578125,1,1.0,1.0,1.0,1.0,10.00
2024-10-11 20:47:14.878,0.12034369,0.09129117,0.5918639,0.47669476,0.18622935,-0.30881134,0.011470959,0.04479553,0.4810881,0.07646585,0.12529641,0.1584229,0.46542555,-0.2585606,0.73521835,0.40471664,0.23521201,-0.5639769,0.22255912,-0.1402107,807.47253,800.2198,807.47253,808.68134,851.79486,0.15087890625,0.1243896484375,0.99627685546875,-11.61895751953125,13.50311279296875,6.3702392578125,1,1.0,1.0,1.0,1.0,10.00
2024-10-11 20:47:14.933,0.12034369,0.09129117,0.5918639,0.47669476,0.18622935,-0.30881134,0.011470959,0.04479553,0.4810881,0.07646585,0.12529641,0.1584229,0.46542555,-0.2585606,0.73521835,0.40471664,0.23521201,-0.5639769,0.22255912,-0.1402107,808.68134,801.02563,805.8608,809.89014,1032.7106,0.15814208984375,0.1021728515625,1.00128173828125,-13.32366943359375,12.134857177734375,6.646881103515625,1,1.0,1.0,1.0,1.0,10.00
2024-10-11 20:47:14.934,0.12034369,0.09129117,0.5918639,0.47669476,0.18622935,-0.30881134,0.011470959,0.04479553,0.4810881,0.07646585,0.12529641,0.1584229,0.46542555,-0.2585606,0.73521835,0.40471664,0.23521201,-0.5639769,0.22255912,-0.1402107,811.9048,800.6227,798.60803,808.2784,762.3443,0.15814208984375,0.1021728515625,1.00128173828125,-13.32366943359375,12.134857177734375,6.646881103515625,1,1.0,1.0,1.0,1.0,10.00
2024-10-11 20:47:14.935,0.12034369,0.09129117,0.5918639,0.47669476,0.18622935,-0.30881134,0.011470959,0.04479553,0.4810881,0.07646585,0.12529641,0.1584229,0.46542555,-0.2585606,0.73521835,0.40471664,0.23521201,-0.5639769,0.22255912,-0.1402107,822.381,801.4286,794.9817,808.2784,545.9707,0.15814208984375,0.1021728515625,1.00128173828125,-13.32366943359375,12.134857177734375,6.646881103515625,1,1.0,1.0,1.0,1.0,10.00
2024-10-11 20:47:14.935,0.12034369,0.09129117,0.5918639,0.47669476,0.18622935,-0.30881134,0.011470959,0.04479553,0.4810881,0.07646585,0.12529641,0.1584229,0.46542555,-0.2585606,0.73521835,0.40471664,0.23521201,-0.5639769,0.22255912,-0.1402107,818.7546,801.8315,796.1905,809.4872,709.5604,0.15814208984375,0.1021728515625,1.00128173828125,-13.32366943359375,12.134857177734375,6.646881103515625,1,1.0,1.0,1.0,1.0,10.00
2024-10-11 20:47:14.936,0.12034369,0.09129117,0.5918639,0.47669476,0.18622935,-0.30881134,0.011470959,0.04479553,0.4810881,0.07646585,0.12529641,0.1584229,0.46542555,-0.2585606,0.73521835,0.40471664,0.23521201,-0.5639769,0.22255912,-0.1402107,817.9487,801.4286,798.60803,809.4872,878.3883,0.15814208984375,0.1021728515625,1.00128173828125,-13.32366943359375,12.134857177734375,6.646881103515625,1,1.0,1.0,1.0,1.0,10.00
2024-10-11 20:47:14.937,0.12034369,0.09129117,0.5918639,0.47669476,0.18622935,-0.30881134,0.011470959,0.04479553,0.4810881,0.07646585,0.12529641,0.1584229,0.46542555,-0.2585606,0.73521835,0.40471664,0.23521201,-0.5639769,0.22255912,-0.1402107,821.5751,801.4286,788.5348,809.4872,740.18317,0.15814208984375,0.1021728515625,1.00128173828125,-13.32366943359375,12.134857177734375,6.646881103515625,1,1.0,1.0,1.0,1.0,10.00
2024-10-11 20:47:14.937,0.12034369,0.09129117,0.5918639,0.47669476,0.18622935,-0.30881134,0.011470959,0.04479553,0.4810881,0.07646585,0.12529641,0.1584229,0.46542555,-0.2585606,0.73521835,0.40471664,0.23521201,-0.5639769,0.22255912,-0.1402107,820.3663,798.20514,778.46155,809.0842,621.7216,0.15814208984375,0.1021728515625,1.00128173828125,-13.32366943359375,12.134857177734375,6.646881103515625,1,1.0,1.0,1.0,1.0,10.00
2024-10-11 20:47:14.938,0.12034369,0.09129117,0.5918639,0.47669476,0.18622935,-0.30881134,0.011470959,0.04479553,0.4810881,0.07646585,0.12529641,0.1584229,0.46542555,-0.2585606,0.73521835,0.40471664,0.23521201,-0.5639769,0.22255912,-0.1402107,819.15753,793.7729,787.72894,805.8608,835.2747,0.15814208984375,0.1021728515625,1.00128173828125,-13.32366943359375,12.134857177734375,6.646881103515625,1,1.0,1.0,1.0,1.0,10.00
2024-10-11 20:47:14.939,0.12034369,0.09129117,0.5918639,0.47669476,0.18622935,-0.30881134,0.011470959,0.04479553,0.4810881,0.07646585,0.12529641,0.1584229,0.46542555,-0.2585606,0.73521835,0.40471664,0.23521201,-0.5639769,0.22255912,-0.1402107,811.0989,792.96704,796.5934,812.71063,927.1429,0.15814208984375,0.1021728515625,1.00128173828125,-13.32366943359375,12.134857177734375,6.646881103515625,1,1.0,1.0,1.0,1.0,10.00
2024-10-11 20:47:14.939,0.12034369,0.09129117,0.5918639,0.47669476,0.18622935,-0.30881134,0.011470959,0.04479553,0.4810881,0.07646585,0.12529641,0.1584229,0.46542555,-0.2585606,0.73521835,0.40471664,0.23521201,-0.5639769,0.22255912,-0.1402107,803.8461,795.78754,794.9817,811.0989,558.0586,0.15814208984375,0.1021728515625,1.00128173828125,-13.32366943359375,12.134857177734375,6.646881103515625,1,1.0,1.0,1.0,1.0,10.00
2024-10-11 20:47:14.940,0.12034369,0.09129117,0.5918639,0.47669476,0.18622935,-0.30881134,0.011470959,0.04479553,0.4810881,0.07646585,0.12529641,0.1584229,0.46542555,-0.2585606,0.73521835,0.40471664,0.23521201,-0.5639769,0.22255912,-0.1402107,806.26373,795.38464,785.7143,804.2491,471.02563,0.15814208984375,0.1021728515625,1.00128173828125,-13.32366943359375,12.134857177734375,6.646881103515625,1,1.0,1.0,1.0,1.0,10.00
2024-10-11 20:47:14.941,0.12034369,0.09129117,0.5918639,0.47669476,0.18622935,-0.30881134,0.011470959,0.04479553,0.4810881,0.07646585,0.12529641,0.1584229,0.46542555,-0.2585606,0.73521835,0.40471664,0.23521201,-0.5639769,0.22255912,-0.1402107,811.50183,794.9817,787.72894,803.0403,679.7436,0.15814208984375,0.1021728515625,1.00128173828125,-13.32366943359375,12.134857177734375,6.646881103515625,1,1.0,1.0,1.0,1.0,10.00
2024-10-11 20:47:14.968,0.12034369,0.09129117,0.5918639,0.47669476,0.18622935,-0.30881134,0.011470959,0.04479553,0.4810881,0.07646585,0.12529641,0.1584229,0.46542555,-0.2585606,0.73521835,0.40471664,0.23521201,-0.5639769,0.22255912,-0.1402107,809.89014,791.75824,801.02563,804.2491,756.7033,0.12957763671875,0.0712890625,1.00360107421875,-16.0302734375,14.108734130859375,8.516082763671875,1,1.0,1.0,1.0,1.0,10.00
2024-10-11 20:47:14.969,0.12034369,0.09129117,0.5918639,0.47669476,0.18622935,-0.30881134,0.011470959,0.04479553,0.4810881,0.07646585,0.12529641,0.1584229,0.46542555,-0.2585606,0.73521835,0.40471664,0.23521201,-0.5639769,0.22255912,-0.1402107,808.2784,790.14655,804.2491,809.89014,614.87177,0.12957763671875,0.0712890625,1.00360107421875,-16.0302734375,14.108734130859375,8.516082763671875,1,1.0,1.0,1.0,1.0,10.00
2024-10-11 20:47:14.969,0.12034369,0.09129117,0.5918639,0.47669476,0.18622935,-0.30881134,0.011470959,0.04479553,0.4810881,0.07646585,0.12529641,0.1584229,0.46542555,-0.2585606,0.73521835,0.40471664,0.23521201,-0.5639769,0.22255912,-0.1402107,807.0696,793.7729,798.60803,812.71063,600.3663,0.12957763671875,0.0712890625,1.00360107421875,-16.0302734375,14.108734130859375,8.516082763671875,1,1.0,1.0,1.0,1.0,10.00
2024-10-11 20:47:14.970,0.12034369,0.09129117,0.5918639,0.47669476,0.18622935,-0.30881134,0.011470959,0.04479553,0.4810881,0.07646585,0.12529641,0.1584229,0.46542555,-0.2585606,0.73521835,0.40471664,0.23521201,-0.5639769,0.22255912,-0.1402107,805.8608,792.5641,795.38464,813.5165,630.989,0.12957763671875,0.0712890625,1.00360107421875,-16.0302734375,14.108734130859375,8.516082763671875,1,1.0,1.0,1.0,1.0,10.00
2024-10-11 20:47:14.970,0.12034369,0.09129117,0.5918639,0.47669476,0.18622935,-0.30881134,0.011470959,0.04479553,0.4810881,0.07646585,0.12529641,0.1584229,0.46542555,-0.2585606,0.73521835,0.40471664,0.23521201,-0.5639769,0.22255912,-0.1402107,811.0989,792.96704,798.60803,817.1429,616.4835,0.12957763671875,0.0712890625,1.00360107421875,-16.0302734375,14.108734130859375,8.516082763671875,1,1.0,1.0,1.0,1.0,10.00
2024-10-11 20:47:14.971,0.12034369,0.09129117,0.5918639,0.47669476,0.18622935,-0.30881134,0.011470959,0.04479553,0.4810881,0.07646585,0.12529641,0.1584229,0.46542555,-0.2585606,0.73521835,0.40471664,0.23521201,-0.5639769,0.22255912,-0.1402107,817.5458,794.17584,796.99634,805.8608,677.326,0.12957763671875,0.0712890625,1.00360107421875,-16.0302734375,14.108734130859375,8.516082763671875,1,1.0,1.0,1.0,1.0,10.00
2024-10-11 20:47:14.971,0.12034369,0.09129117,0.5918639,0.47669476,0.18622935,-0.30881134,0.011470959,0.04479553,0.4810881,0.07646585,0.12529641,0.1584229,0.46542555,-0.2585606,0.73521835,0.40471664,0.23521201,-0.5639769,0.22255912,-0.1402107,819.15753,796.5934,798.60803,809.89014,807.8755,0.12957763671875,0.0712890625,1.00360107421875,-16.0302734375,14.108734130859375,8.516082763671875,1,1.0,1.0,1.0,1.0,10.00
2024-10-11 20:47:14.971,0.12034369,0.080267414,0.55783695,0.4318023,0.18622935,-0.3016922,-0.008608261,0.01393329,0.4810881,0.14767987,0.1202779,0.1584229,0.46542555,-0.2606249,0.74780893,0.37596184,0.23521201,-0.54629016,0.21762975,-0.16153501,816.337,796.1905,791.3553,812.3077,865.09155,0.12957763671875,0.0712890625,1.00360107421875,-16.0302734375,14.108734130859375,8.516082763671875,1,1.0,1.0,1.0,1.0,10.00
2024-10-11 20:47:14.976,0.12034369,0.080267414,0.55783695,0.4318023,0.18622935,-0.3016922,-0.008608261,0.01393329,0.4810881,0.14767987,0.1202779,0.1584229,0.46542555,-0.2606249,0.74780893,0.37596184,0.23521201,-0.54629016,0.21762975,-0.16153501,815.12823,792.5641,784.90845,804.65204,629.7802,0.12957763671875,0.0712890625,1.00360107421875,-16.0302734375,14.108734130859375,8.516082763671875,1,1.0,1.0,1.0,1.0,10.00
2024-10-11 20:47:14.976,0.12034369,0.080267414,0.55783695,0.4318023,0.18622935,-0.3016922,-0.008608261,0.01393329,0.4810881,0.14767987,0.1202779,0.1584229,0.46542555,-0.2606249,0.74780893,0.37596184,0.23521201,-0.54629016,0.21762975,-0.16153501,807.0696,793.36993,785.31134,804.65204,583.8461,0.12957763671875,0.0712890625,1.00360107421875,-16.0302734375,14.108734130859375,8.516082763671875,1,1.0,1.0,1.0,1.0,10.00
2024-10-11 20:47:14.977,0.12034369,0.080267414,0.55783695,0.4318023,0.18622935,-0.3016922,-0.008608261,0.01393329,0.4810881,0.14767987,0.1202779,0.1584229,0.46542555,-0.2606249,0.74780893,0.37596184,0.23521201,-0.54629016,0.21762975,-0.16153501,810.293,793.36993,787.72894,804.2491,857.4359,0.12957763671875,0.0712890625,1.00360107421875,-16.0302734375,14.108734130859375,8.516082763671875,1,1.0,1.0,1.0,1.0,10.00
2024-10-11 20:47:14.977,0.12034369,0.080267414,0.55783695,0.4318023,0.18622935,-0.3016922,-0.008608261,0.01393329,0.4810881,0.14767987,0.1202779,0.1584229,0.46542555,-0.2606249,0.74780893,0.37596184,0.23521201,-0.54629016,0.21762975,-0.16153501,811.50183,795.78754,801.8315,811.0989,932.381,0.12957763671875,0.0712890625,1.00360107421875,-16.0302734375,14.108734130859375,8.516082763671875,1,1.0,1.0,1.0,1.0,10.00
2024-10-11 20:47:14.978,0.12034369,0.080267414,0.55783695,0.4318023,0.18622935,-0.3016922,-0.008608261,0.01393329,0.4810881,0.14767987,0.1202779,0.1584229,0.46542555,-0.2606249,0.74780893,0.37596184,0.23521201,-0.54629016,0.21762975,-0.16153501,799.011,801.4286,815.5311,809.4872,709.15753,0.09002685546875,0.0325927734375,0.99017333984375,-16.2396240234375,19.559326171875,8.98712158203125,1,1.0,1.0,1.0,1.0,10.00
2024-10-11 20:47:14.978,0.12034369,0.080267414,0.55783695,0.4318023,0.18622935,-0.3016922,-0.008608261,0.01393329,0.4810881,0.14767987,0.1202779,0.1584229,0.46542555,-0.2606249,0.74780893,0.37596184,0.23521201,-0.54629016,0.21762975,-0.16153501,803.0403,801.02563,815.9341,803.0403,520.18317,0.09002685546875,0.0325927734375,0.99017333984375,-16.2396240234375,19.559326171875,8.98712158203125,1,1.0,1.0,1.0,1.0,10.00
2024-10-11 20:47:14.979,0.12034369,0.080267414,0.55783695,0.4318023,0.18622935,-0.3016922,-0.008608261,0.01393329,0.4810881,0.14767987,0.1202779,0.1584229,0.46542555,-0.2606249,0.74780893,0.37596184,0.23521201,-0.54629016,0.21762975,-0.16153501,815.5311,799.81683,810.696,804.65204,666.04395,0.09002685546875,0.0325927734375,0.99017333984375,-16.2396240234375,19.559326171875,8.98712158203125,1,1.0,1.0,1.0,1.0,10.00
2024-10-11 20:47:14.979,0.12034369,0.080267414,0.55783695,0.4318023,0.18622935,-0.3016922,-0.008608261,0.01393329,0.4810881,0.14767987,0.1202779,0.1584229,0.46542555,-0.2606249,0.74780893,0.37596184,0.23521201,-0.54629016,0.21762975,-0.16153501,819.15753,792.5641,801.8315,811.0989,882.01465,0.09002685546875,0.0325927734375,0.99017333984375,-16.2396240234375,19.559326171875,8.98712158203125,1,1.0,1.0,1.0,1.0,10.00
2024-10-11 20:47:14.980,0.12034369,0.080267414,0.55783695,0.4318023,0.18622935,-0.3016922,-0.008608261,0.01393329,0.4810881,0.14767987,0.1202779,0.1584229,0.46542555,-0.2606249,0.74780893,0.37596184,0.23521201,-0.54629016,0.21762975,-0.16153501,803.0403,790.9524,797.3993,799.011,662.8205,0.09002685546875,0.0325927734375,0.99017333984375,-16.2396240234375,19.559326171875,8.98712158203125,1,1.0,1.0,1.0,1.0,10.00
2024-10-11 20:47:14.980,0.12034369,0.080267414,0.55783695,0.4318023,0.18622935,-0.3016922,-0.008608261,0.01393329,0.4810881,0.14767987,0.1202779,0.1584229,0.46542555,-0.2606249,0.74780893,0.37596184,0.23521201,-0.54629016,0.21762975,-0.16153501,799.81683,795.78754,800.6227,789.34064,618.9011,0.09002685546875,0.0325927734375,0.99017333984375,-16.2396240234375,19.559326171875,8.98712158203125,1,1.0,1.0,1.0,1.0,10.00
2024-10-11 20:47:14.981,0.12034369,0.080267414,0.55783695,0.4318023,0.18622935,-0.3016922,-0.008608261,0.01393329,0.4810881,0.14767987,0.1202779,0.1584229,0.46542555,-0.2606249,0.74780893,0.37596184,0.23521201,-0.54629016,0.21762975,-0.16153501,808.2784,798.20514,801.02563,803.0403,894.90845,0.09002685546875,0.0325927734375,0.99017333984375,-16.2396240234375,19.559326171875,8.98712158203125,1,1.0,1.0,1.0,1.0,10.00
2024-10-11 20:47:14.981,0.12034369,0.080267414,0.55783695,0.4318023,0.18622935,-0.3016922,-0.008608261,0.01393329,0.4810881,0.14767987,0.1202779,0.1584229,0.46542555,-0.2606249,0.74780893,0.37596184,0.23521201,-0.54629016,0.21762975,-0.16153501,815.9341,800.6227,803.8461,819.15753,857.03296,0.09002685546875,0.0325927734375,0.99017333984375,-16.2396240234375,19.559326171875,8.98712158203125,1,1.0,1.0,1.0,1.0,10.00
2024-10-11 20:47:14.982,0.12034369,0.080267414,0.55783695,0.4318023,0.18622935,-0.3016922,-0.008608261,0.01393329,0.4810881,0.14767987,0.1202779,0.1584229,0.46542555,-0.2606249,0.74780893,0.37596184,0.23521201,-0.54629016,0.21762975,-0.16153501,827.619,800.2198,804.2491,826.8132,549.19415,0.09002685546875,0.0325927734375,0.99017333984375,-16.2396240234375,19.559326171875,8.98712158203125,1,1.0,1.0,1.0,1.0,10.00
2024-10-11 20:47:14.982,0.12034369,0.080267414,0.55783695,0.4318023,0.18622935,-0.3016922,-0.008608261,0.01393329,0.4810881,0.14767987,0.1202779,0.1584229,0.46542555,-0.2606249,0.74780893,0.37596184,0.23521201,-0.54629016,0.21762975,-0.16153501,802.23444,802.23444,795.38464,805.05493,543.1502,0.09002685546875,0.0325927734375,0.99017333984375,-16.2396240234375,19.559326171875,8.98712158203125,1,1.0,1.0,1.0,1.0,10.00
2024-10-11 20:47:14.983,0.12034369,0.080267414,0.55783695,0.4318023,0.18622935,-0.3016922,-0.008608261,0.01393329,0.4810881,0.14767987,0.1202779,0.1584229,0.46542555,-0.2606249,0.74780893,0.37596184,0.23521201,-0.54629016,0.21762975,-0.16153501,791.75824,800.6227,786.9231,794.9817,805.8608,0.09002685546875,0.0325927734375,0.99017333984375,-16.2396240234375,19.559326171875,8.98712158203125,1,1.0,1.0,1.0,1.0,10.00
2024-10-11 20:47:14.983,0.12034369,0.080267414,0.55783695,0.4318023,0.18622935,-0.3016922,-0.008608261,0.01393329,0.4810881,0.14767987,0.1202779,0.1584229,0.46542555,-0.2606249,0.74780893,0.37596184,0.23521201,-0.54629016,0.21762975,-0.16153501,801.8315,796.5934,800.2198,805.05493,873.5531,0.09002685546875,0.0325927734375,0.99017333984375,-16.2396240234375,19.559326171875,8.98712158203125,1,1.0,1.0,1.0,1.0,10.00
2024-10-11 20:47:14.984,0.12034369,0.080267414,0.55783695,0.4318023,0.18622935,-0.3016922,-0.008608261,0.01393329,0.4810881,0.14767987,0.1202779,0.1584229,0.46542555,-0.2606249,0.74780893,0.37596184,0.23521201,-0.54629016,0.21762975,-0.16153501,803.44324,799.011,815.12823,798.60803,632.6007,0.0546875,-8.544921875E-4,0.9786376953125,-13.71246337890625,20.3369140625,9.458160400390625,1,1.0,1.0,1.0,1.0,10.00
2024-10-11 20:47:14.984,0.12034369,0.080267414,0.55783695,0.4318023,0.18622935,-0.3016922,-0.008608261,0.01393329,0.4810881,0.14767987,0.1202779,0.1584229,0.46542555,-0.2606249,0.74780893,0.37596184,0.23521201,-0.54629016,0.21762975,-0.16153501,799.81683,800.2198,819.5604,790.9524,645.89746,0.0546875,-8.544921875E-4,0.9786376953125,-13.71246337890625,20.3369140625,9.458160400390625,1,1.0,1.0,1.0,1.0,10.00
2024-10-11 20:47:14.985,0.12034369,0.080267414,0.55783695,0.4318023,0.18622935,-0.3016922,-0.008608261,0.01393329,0.4810881,0.14767987,0.1202779,0.1584229,0.46542555,-0.2606249,0.74780893,0.37596184,0.23521201,-0.54629016,0.21762975,-0.16153501,785.7143,796.1905,817.9487,790.9524,772.01465,0.0546875,-8.544921875E-4,0.9786376953125,-13.71246337890625,20.3369140625,9.458160400390625,1,1.0,1.0,1.0,1.0,10.00
2024-10-11 20:47:14.985,0.12034369,0.080267414,0.55783695,0.4318023,0.18622935,-0.3016922,-0.008608261,0.01393329,0.4810881,0.14767987,0.1202779,0.1584229,0.46542555,-0.2606249,0.74780893,0.37596184,0.23521201,-0.54629016,0.21762975,-0.16153501,786.1172,796.5934,813.91943,801.4286,681.75824,0.0546875,-8.544921875E-4,0.9786376953125,-13.71246337890625,20.3369140625,9.458160400390625,1,1.0,1.0,1.0,1.0,10.00
2024-10-11 20:47:14.986,0.12034369,0.080267414,0.55783695,0.4318023,0.18622935,-0.3016922,-0.008608261,0.01393329,0.4810881,0.14767987,0.1202779,0.1584229,0.46542555,-0.2606249,0.74780893,0.37596184,0.23521201,-0.54629016,0.21762975,-0.16153501,791.75824,800.2198,811.0989,801.4286,565.31134,0.0546875,-8.544921875E-4,0.9786376953125,-13.71246337890625,20.3369140625,9.458160400390625,1,1.0,1.0,1.0,1.0,10.00
2024-10-11 20:47:14.986,0.12034369,0.080267414,0.55783695,0.4318023,0.18622935,-0.3016922,-0.008608261,0.01393329,0.4810881,0.14767987,0.1202779,0.1584229,0.46542555,-0.2606249,0.74780893,0.37596184,0.23521201,-0.54629016,0.21762975,-0.16153501,772.01465,798.20514,805.8608,792.96704,723.2601,0.0546875,-8.544921875E-4,0.9786376953125,-13.71246337890625,20.3369140625,9.458160400390625,1,1.0,1.0,1.0,1.0,10.00
2024-10-11 20:47:14.987,0.12034369,0.080267414,0.55783695,0.4318023,0.18622935,-0.3016922,-0.008608261,0.01393329,0.4810881,0.14767987,0.1202779,0.1584229,0.46542555,-0.2606249,0.74780893,0.37596184,0.23521201,-0.54629016,0.21762975,-0.16153501,763.5531,794.17584,807.8755,801.02563,974.2857,0.0546875,-8.544921875E-4,0.9786376953125,-13.71246337890625,20.3369140625,9.458160400390625,1,1.0,1.0,1.0,1.0,10.00
2024-10-11 20:47:14.987,0.12034369,0.080267414,0.55783695,0.4318023,0.18622935,-0.3016922,-0.008608261,0.01393329,0.4810881,0.14767987,0.1202779,0.1584229,0.46542555,-0.2606249,0.74780893,0.37596184,0.23521201,-0.54629016,0.21762975,-0.16153501,776.8498,792.1612,806.6667,805.4579,859.45056,0.0546875,-8.544921875E-4,0.9786376953125,-13.71246337890625,20.3369140625,9.458160400390625,1,1.0,1.0,1.0,1.0,10.00
2024-10-11 20:47:14.988,0.12034369,0.080267414,0.55783695,0.4318023,0.18622935,-0.3016922,-0.008608261,0.01393329,0.4810881,0.14767987,0.1202779,0.1584229,0.46542555,-0.2606249,0.74780893,0.37596184,0.23521201,-0.54629016,0.21762975,-0.16153501,787.72894,790.9524,817.9487,790.54944,606.8132,0.0546875,-8.544921875E-4,0.9786376953125,-13.71246337890625,20.3369140625,9.458160400390625,1,1.0,1.0,1.0,1.0,10.00
2024-10-11 20:47:14.988,0.096736565,0.05603817,0.48634833,0.34458664,0.1599621,-0.30299228,-0.046927314,-0.013594071,0.42352313,0.17916724,0.115390785,0.1584229,0.4484825,-0.26061636,0.7589651,0.34584183,0.19344734,-0.5237236,0.22154425,-0.18340456,793.36993,789.7436,821.1722,794.57874,660.80585,0.0546875,-8.544921875E-4,0.9786376953125,-13.71246337890625,20.3369140625,9.458160400390625,1,1.0,1.0,1.0,1.0,10.00
2024-10-11 20:47:14.993,0.096736565,0.05603817,0.48634833,0.34458664,0.1599621,-0.30299228,-0.046927314,-0.013594071,0.42352313,0.17916724,0.115390785,0.1584229,0.4484825,-0.26061636,0.7589651,0.34584183,0.19344734,-0.5237236,0.22154425,-0.18340456,792.5641,793.7729,806.6667,811.50183,828.4249,0.0546875,-8.544921875E-4,0.9786376953125,-13.71246337890625,20.3369140625,9.458160400390625,1,1.0,1.0,1.0,1.0,10.00
2024-10-11 20:47:14.993,0.096736565,0.05603817,0.48634833,0.34458664,0.1599621,-0.30299228,-0.046927314,-0.013594071,0.42352313,0.17916724,0.115390785,0.1584229,0.4484825,-0.26061636,0.7589651,0.34584183,0.19344734,-0.5237236,0.22154425,-0.18340456,796.99634,798.60803,817.1429,804.2491,761.9414,0.0546875,-8.544921875E-4,0.9786376953125,-13.71246337890625,20.3369140625,9.458160400390625,1,1.0,1.0,1.0,1.0,10.00
2024-10-11 20:47:15.020,0.096736565,0.05603817,0.48634833,0.34458664,0.1599621,-0.30299228,-0.046927314,-0.013594071,0.42352313,0.17916724,0.115390785,0.1584229,0.4484825,-0.26061636,0.7589651,0.34584183,0.19344734,-0.5237236,0.22154425,-0.18340456,807.8755,801.4286,817.1429,798.60803,556.04395,0.0546875,-8.544921875E-4,0.9786376953125,-13.71246337890625,20.3369140625,9.458160400390625,1,1.0,1.0,1.0,1.0,10.00
2024-10-11 20:47:15.021,0.096736565,0.05603817,0.48634833,0.34458664,0.1599621,-0.30299228,-0.046927314,-0.013594071,0.42352313,0.17916724,0.115390785,0.1584229,0.4484825,-0.26061636,0.7589651,0.34584183,0.19344734,-0.5237236,0.22154425,-0.18340456,805.05493,799.41394,799.011,798.60803,692.23444,0.0546875,-8.544921875E-4,0.9786376953125,-13.71246337890625,20.3369140625,9.458160400390625,1,1.0,1.0,1.0,1.0,10.00
2024-10-11 20:47:15.023,0.096736565,0.05603817,0.48634833,0.34458664,0.1599621,-0.30299228,-0.046927314,-0.013594071,0.42352313,0.17916724,0.115390785,0.1584229,0.4484825,-0.26061636,0.7589651,0.34584183,0.19344734,-0.5237236,0.22154425,-0.18340456,794.17584,796.5934,807.8755,799.41394,844.5421,0.0546875,-8.544921875E-4,0.9786376953125,-13.71246337890625,20.3369140625,9.458160400390625,1,1.0,1.0,1.0,1.0,10.00
2024-10-11 20:47:15.024,0.096736565,0.05603817,0.48634833,0.34458664,0.1599621,-0.30299228,-0.046927314,-0.013594071,0.42352313,0.17916724,0.115390785,0.1584229,0.4484825,-0.26061636,0.7589651,0.34584183,0.19344734,-0.5237236,0.22154425,-0.18340456,792.96704,796.99634,805.8608,803.8461,730.10986,0.0546875,-8.544921875E-4,0.9786376953125,-13.71246337890625,20.3369140625,9.458160400390625,1,1.0,1.0,1.0,1.0,10.00
2024-10-11 20:47:15.025,0.096736565,0.05603817,0.48634833,0.34458664,0.1599621,-0.30299228,-0.046927314,-0.013594071,0.42352313,0.17916724,0.115390785,0.1584229,0.4484825,-0.26061636,0.7589651,0.34584183,0.19344734,-0.5237236,0.22154425,-0.18340456,800.2198,794.9817,783.69965,812.3077,655.56775,0.0546875,-8.544921875E-4,0.9786376953125,-13.71246337890625,20.3369140625,9.458160400390625,1,1.0,1.0,1.0,1.0,10.00
2024-10-11 20:47:15.026,0.096736565,0.05603817,0.48634833,0.34458664,0.1599621,-0.30299228,-0.046927314,-0.013594071,0.42352313,0.17916724,0.115390785,0.1584229,0.4484825,-0.26061636,0.7589651,0.34584183,0.19344734,-0.5237236,0.22154425,-0.18340456,801.4286,794.17584,790.54944,817.9487,786.9231,0.0546875,-8.544921875E-4,0.9786376953125,-13.71246337890625,20.3369140625,9.458160400390625,1,1.0,1.0,1.0,1.0,10.00
2024-10-11 20:47:15.026,0.096736565,0.05603817,0.48634833,0.34458664,0.1599621,-0.30299228,-0.046927314,-0.013594071,0.42352313,0.17916724,0.115390785,0.1584229,0.4484825,-0.26061636,0.7589651,0.34584183,0.19344734,-0.5237236,0.22154425,-0.18340456,803.0403,795.78754,809.0842,812.71063,934.7985,0.0546875,-8.544921875E-4,0.9786376953125,-13.71246337890625,20.3369140625,9.458160400390625,1,1.0,1.0,1.0,1.0,10.00
2024-10-11 20:47:15.027,0.096736565,0.05603817,0.48634833,0.34458664,0.1599621,-0.30299228,-0.046927314,-0.013594071,0.42352313,0.17916724,0.115390785,0.1584229,0.4484825,-0.26061636,0.7589651,0.34584183,0.19344734,-0.5237236,0.22154425,-0.18340456,801.02563,798.20514,807.8755,802.23444,678.1319,0.0546875,-8.544921875E-4,0.9786376953125,-13.71246337890625,20.3369140625,9.458160400390625,1,1.0,1.0,1.0,1.0,10.00
2024-10-11 20:47:15.027,0.096736565,0.05603817,0.48634833,0.34458664,0.1599621,-0.30299228,-0.046927314,-0.013594071,0.42352313,0.17916724,0.115390785,0.1584229,0.4484825,-0.26061636,0.7589651,0.34584183,0.19344734,-0.5237236,0.22154425,-0.18340456,797.3993,798.60803,810.696,802.23444,621.31866,0.0546875,-8.544921875E-4,0.9786376953125,-13.71246337890625,20.3369140625,9.458160400390625,1,1.0,1.0,1.0,1.0,10.00
2024-10-11 20:47:15.028,0.096736565,0.05603817,0.48634833,0.34458664,0.1599621,-0.30299228,-0.046927314,-0.013594071,0.42352313,0.17916724,0.115390785,0.1584229,0.4484825,-0.26061636,0.7589651,0.34584183,0.19344734,-0.5237236,0.22154425,-0.18340456,807.0696,798.20514,803.8461,796.99634,805.05493,0.0546875,-8.544921875E-4,0.9786376953125,-13.71246337890625,20.3369140625,9.458160400390625,1,1.0,1.0,1.0,1.0,10.00
2024-10-11 20:47:15.028,0.096736565,0.05603817,0.48634833,0.34458664,0.1599621,-0.30299228,-0.046927314,-0.013594071,0.42352313,0.17916724,0.115390785,0.1584229,0.4484825,-0.26061636,0.7589651,0.34584183,0.19344734,-0.5237236,0.22154425,-0.18340456,810.696,803.44324,794.17584,798.60803,743.8095,0.0546875,-8.544921875E-4,0.9786376953125,-13.71246337890625,20.3369140625,9.458160400390625,1,1.0,1.0,1.0,1.0,10.00
2024-10-11 20:47:15.029,0.096736565,0.05603817,0.48634833,0.34458664,0.1599621,-0.30299228,-0.046927314,-0.013594071,0.42352313,0.17916724,0.115390785,0.1584229,0.4484825,-0.26061636,0.7589651,0.34584183,0.19344734,-0.5237236,0.22154425,-0.18340456,801.4286,800.2198,801.8315,806.6667,574.57874,0.0546875,-8.544921875E-4,0.9786376953125,-13.71246337890625,20.3369140625,9.458160400390625,1,1.0,1.0,1.0,1.0,10.00
2024-10-11 20:47:15.029,0.096736565,0.05603817,0.48634833,0.34458664,0.1599621,-0.30299228,-0.046927314,-0.013594071,0.42352313,0.17916724,0.115390785,0.1584229,0.4484825,-0.26061636,0.7589651,0.34584183,0.19344734,-0.5237236,0.22154425,-0.18340456,799.011,792.5641,801.4286,804.2491,587.47253,0.0247802734375,-0.01751708984375,0.9896240234375,-9.099273681640625,16.49383544921875,10.66192626953125,1,1.0,1.0,1.0,1.0,10.00
2024-10-11 20:47:15.030,0.096736565,0.05603817,0.48634833,0.34458664,0.1599621,-0.30299228,-0.046927314,-0.013594071,0.42352313,0.17916724,0.115390785,0.1584229,0.4484825,-0.26061636,0.7589651,0.34584183,0.19344734,-0.5237236,0.22154425,-0.18340456,801.8315,793.7729,808.68134,808.2784,684.9817,0.0247802734375,-0.01751708984375,0.9896240234375,-9.099273681640625,16.49383544921875,10.66192626953125,1,1.0,1.0,1.0,1.0,10.00
2024-10-11 20:47:15.030,0.096736565,0.05603817,0.48634833,0.34458664,0.1599621,-0.30299228,-0.046927314,-0.013594071,0.42352313,0.17916724,0.115390785,0.1584229,0.4484825,-0.26061636,0.7589651,0.34584183,0.19344734,-0.5237236,0.22154425,-0.18340456,801.02563,793.36993,805.05493,807.8755,675.7143,0.0247802734375,-0.01751708984375,0.9896240234375,-9.099273681640625,16.49383544921875,10.66192626953125,1,1.0,1.0,1.0,1.0,10.00
2024-10-11 20:47:15.031,0.096736565,0.05603817,0.48634833,0.34458664,0.1599621,-0.30299228,-0.046927314,-0.013594071,0.42352313,0.17916724,0.115390785,0.1584229,0.4484825,-0.26061636,0.7589651,0.34584183,0.19344734,-0.5237236,0.22154425,-0.18340456,802.6374,791.75824,793.36993,803.8461,519.7802,0.0247802734375,-0.01751708984375,0.9896240234375,-9.099273681640625,16.49383544921875,10.66192626953125,1,1.0,1.0,1.0,1.0,10.00
2024-10-11 20:47:15.031,0.096736565,0.05603817,0.48634833,0.34458664,0.1599621,-0.30299228,-0.046927314,-0.013594071,0.42352313,0.17916724,0.115390785,0.1584229,0.4484825,-0.26061636,0.7589651,0.34584183,0.19344734,-0.5237236,0.22154425,-0.18340456,812.71063,796.99634,800.2198,807.0696,575.78754,0.0247802734375,-0.01751708984375,0.9896240234375,-9.099273681640625,16.49383544921875,10.66192626953125,1,1.0,1.0,1.0,1.0,10.00
2024-10-11 20:47:15.032,0.096736565,0.05603817,0.48634833,0.34458664,0.1599621,-0.30299228,-0.046927314,-0.013594071,0.42352313,0.17916724,0.115390785,0.1584229,0.4484825,-0.26061636,0.7589651,0.34584183,0.19344734,-0.5237236,0.22154425,-0.18340456,808.68134,797.3993,805.4579,805.8608,856.63007,0.0247802734375,-0.01751708984375,0.9896240234375,-9.099273681640625,16.49383544921875,10.66192626953125,1,1.0,1.0,1.0,1.0,10.00
2024-10-11 20:47:15.032,0.096736565,0.05603817,0.48634833,0.34458664,0.1599621,-0.30299228,-0.046927314,-0.013594071,0.42352313,0.17916724,0.115390785,0.1584229,0.4484825,-0.26061636,0.7589651,0.34584183,0.19344734,-0.5237236,0.22154425,-0.18340456,803.44324,794.57874,807.0696,807.0696,781.28204,0.0247802734375,-0.01751708984375,0.9896240234375,-9.099273681640625,16.49383544921875,10.66192626953125,1,1.0,1.0,1.0,1.0,10.00
2024-10-11 20:47:15.033,0.096736565,0.05603817,0.48634833,0.34458664,0.1599621,-0.30299228,-0.046927314,-0.013594071,0.42352313,0.17916724,0.115390785,0.1584229,0.4484825,-0.26061636,0.7589651,0.34584183,0.19344734,-0.5237236,0.22154425,-0.18340456,802.6374,797.3993,807.0696,811.9048,626.55676,0.0247802734375,-0.01751708984375,0.9896240234375,-9.099273681640625,16.49383544921875,10.66192626953125,1,1.0,1.0,1.0,1.0,10.00
2024-10-11 20:47:15.033,0.096736565,0.05603817,0.48634833,0.34458664,0.1599621,-0.30299228,-0.046927314,-0.013594071,0.42352313,0.17916724,0.115390785,0.1584229,0.4484825,-0.26061636,0.7589651,0.34584183,0.19344734,-0.5237236,0.22154425,-0.18340456,804.2491,800.6227,807.8755,810.696,716.8132,0.0247802734375,-0.01751708984375,0.9896240234375,-9.099273681640625,16.49383544921875,10.66192626953125,1,1.0,1.0,1.0,1.0,10.00
2024-10-11 20:47:15.034,0.096736565,0.05603817,0.48634833,0.34458664,0.1599621,-0.30299228,-0.046927314,-0.013594071,0.42352313,0.17916724,0.115390785,0.1584229,0.4484825,-0.26061636,0.7589651,0.34584183,0.19344734,-0.5237236,0.22154425,-0.18340456,806.26373,800.6227,795.38464,818.3516,766.77655,0.0247802734375,-0.01751708984375,0.9896240234375,-9.099273681640625,16.49383544921875,10.66192626953125,1,1.0,1.0,1.0,1.0,10.00
2024-10-11 20:47:15.034,0.096736565,0.05603817,0.48634833,0.34458664,0.1599621,-0.30299228,-0.046927314,-0.013594071,0.42352313,0.17916724,0.115390785,0.1584229,0.4484825,-0.26061636,0.7589651,0.34584183,0.19344734,-0.5237236,0.22154425,-0.18340456,808.68134,797.8022,792.1612,815.12823,687.8022,0.0247802734375,-0.01751708984375,0.9896240234375,-9.099273681640625,16.49383544921875,10.66192626953125,1,1.0,1.0,1.0,1.0,10.00
2024-10-11 20:47:15.035,0.06583911,0.026630158,0.3828637,0.20879525,0.11824059,-0.3145469,-0.091981605,-0.022648744,0.28114808,0.17439206,0.115390785,0.1584229,0.42961848,-0.25861022,0.7665116,0.31899482,0.14013848,-0.50099397,0.22925179,-0.20857804,810.293,798.60803,807.8755,802.23444,602.381,0.0247802734375,-0.01751708984375,0.9896240234375,-9.099273681640625,16.49383544921875,10.66192626953125,1,1.0,1.0,1.0,1.0,10.00
2024-10-11 20:47:15.085,0.06583911,0.026630158,0.3828637,0.20879525,0.11824059,-0.3145469,-0.091981605,-0.022648744,0.28114808,0.17439206,0.115390785,0.1584229,0.42961848,-0.25861022,0.7665116,0.31899482,0.14013848,-0.50099397,0.22925179,-0.20857804,819.15753,803.44324,801.8315,804.65204,672.0879,0.01068115234375,-0.0216064453125,0.99908447265625,-5.72723388671875,14.84893798828125,10.4376220703125,1,1.0,1.0,1.0,1.0,10.00
2024-10-11 20:47:15.086,0.06583911,0.026630158,0.3828637,0.20879525,0.11824059,-0.3145469,-0.091981605,-0.022648744,0.28114808,0.17439206,0.115390785,0.1584229,0.42961848,-0.25861022,0.7665116,0.31899482,0.14013848,-0.50099397,0.22925179,-0.20857804,828.022,800.6227,797.3993,819.5604,973.0769,0.01068115234375,-0.0216064453125,0.99908447265625,-5.72723388671875,14.84893798828125,10.4376220703125,1,1.0,1.0,1.0,1.0,10.00
2024-10-11 20:47:15.086,0.06583911,0.026630158,0.3828637,0.20879525,0.11824059,-0.3145469,-0.091981605,-0.022648744,0.28114808,0.17439206,0.115390785,0.1584229,0.42961848,-0.25861022,0.7665116,0.31899482,0.14013848,-0.50099397,0.22925179,-0.20857804,815.12823,797.3993,806.26373,824.7985,1175.751,0.01068115234375,-0.0216064453125,0.99908447265625,-5.72723388671875,14.84893798828125,10.4376220703125,1,1.0,1.0,1.0,1.0,10.00
2024-10-11 20:47:15.087,0.06583911,0.026630158,0.3828637,0.20879525,0.11824059,-0.3145469,-0.091981605,-0.022648744,0.28114808,0.17439206,0.115390785,0.1584229,0.42961848,-0.25861022,0.7665116,0.31899482,0.14013848,-0.50099397,0.22925179,-0.20857804,807.47253,799.011,799.41394,823.9927,1011.3553,0.01068115234375,-0.0216064453125,0.99908447265625,-5.72723388671875,14.84893798828125,10.4376220703125,1,1.0,1.0,1.0,1.0,10.00
2024-10-11 20:47:15.088,0.06583911,0.026630158,0.3828637,0.20879525,0.11824059,-0.3145469,-0.091981605,-0.022648744,0.28114808,0.17439206,0.115390785,0.1584229,0.42961848,-0.25861022,0.7665116,0.31899482,0.14013848,-0.50099397,0.22925179,-0.20857804,823.1868,799.41394,798.60803,821.978,826.4103,0.01068115234375,-0.0216064453125,0.99908447265625,-5.72723388671875,14.84893798828125,10.4376220703125,1,1.0,1.0,1.0,1.0,10.00
2024-10-11 20:47:15.088,0.06583911,0.026630158,0.3828637,0.20879525,0.11824059,-0.3145469,-0.091981605,-0.022648744,0.28114808,0.17439206,0.115390785,0.1584229,0.42961848,-0.25861022,0.7665116,0.31899482,0.14013848,-0.50099397,0.22925179,-0.20857804,824.3956,796.99634,805.05493,817.5458,1004.10254,0.01068115234375,-0.0216064453125,0.99908447265625,-5.72723388671875,14.84893798828125,10.4376220703125,1,1.0,1.0,1.0,1.0,10.00
2024-10-11 20:47:15.089,0.06583911,0.026630158,0.3828637,0.20879525,0.11824059,-0.3145469,-0.091981605,-0.022648744,0.28114808,0.17439206,0.115390785,0.1584229,0.42961848,-0.25861022,0.7665116,0.31899482,0.14013848,-0.50099397,0.22925179,-0.20857804,809.4872,794.57874,798.20514,811.0989,823.9927,0.01068115234375,-0.0216064453125,0.99908447265625,-5.72723388671875,14.84893798828125,10.4376220703125,1,1.0,1.0,1.0,1.0,10.00
2024-10-11 20:47:15.090,0.06583911,0.026630158,0.3828637,0.20879525,0.11824059,-0.3145469,-0.091981605,-0.022648744,0.28114808,0.17439206,0.115390785,0.1584229,0.42961848,-0.25861022,0.7665116,0.31899482,0.14013848,-0.50099397,0.22925179,-0.20857804,798.60803,795.78754,801.02563,807.0696,498.82785,0.01068115234375,-0.0216064453125,0.99908447265625,-5.72723388671875,14.84893798828125,10.4376220703125,1,1.0,1.0,1.0,1.0,10.00
2024-10-11 20:47:15.091,0.06583911,0.026630158,0.3828637,0.20879525,0.11824059,-0.3145469,-0.091981605,-0.022648744,0.28114808,0.17439206,0.115390785,0.1584229,0.42961848,-0.25861022,0.7665116,0.31899482,0.14013848,-0.50099397,0.22925179,-0.20857804,803.8461,799.011,809.89014,815.9341,643.8828,0.01068115234375,-0.0216064453125,0.99908447265625,-5.72723388671875,14.84893798828125,10.4376220703125,1,1.0,1.0,1.0,1.0,10.00
2024-10-11 20:47:15.091,0.06583911,0.026630158,0.3828637,0.20879525,0.11824059,-0.3145469,-0.091981605,-0.022648744,0.28114808,0.17439206,0.115390785,0.1584229,0.42961848,-0.25861022,0.7665116,0.31899482,0.14013848,-0.50099397,0.22925179,-0.20857804,811.9048,797.3993,790.54944,826.0073,1209.597,0.01068115234375,-0.0216064453125,0.99908447265625,-5.72723388671875,14.84893798828125,10.4376220703125,1,1.0,1.0,1.0,1.0,10.00
2024-10-11 20:47:15.092,0.06583911,0.026630158,0.3828637,0.20879525,0.11824059,-0.3145469,-0.091981605,-0.022648744,0.28114808,0.17439206,0.115390785,0.1584229,0.42961848,-0.25861022,0.7665116,0.31899482,0.14013848,-0.50099397,0.22925179,-0.20857804,803.8461,794.17584,780.07324,811.9048,1060.5128,0.01068115234375,-0.0216064453125,0.99908447265625,-5.72723388671875,14.84893798828125,10.4376220703125,1,1.0,1.0,1.0,1.0,10.00
2024-10-11 20:47:15.092,0.06583911,0.026630158,0.3828637,0.20879525,0.11824059,-0.3145469,-0.091981605,-0.022648744,0.28114808,0.17439206,0.115390785,0.1584229,0.42961848,-0.25861022,0.7665116,0.31899482,0.14013848,-0.50099397,0.22925179,-0.20857804,801.8315,793.7729,801.4286,803.8461,556.4469,0.01068115234375,-0.0216064453125,0.99908447265625,-5.72723388671875,14.84893798828125,10.4376220703125,1,1.0,1.0,1.0,1.0,10.00
2024-10-11 20:47:15.093,0.06583911,0.026630158,0.3828637,0.20879525,0.11824059,-0.3145469,-0.091981605,-0.022648744,0.28114808,0.17439206,0.115390785,0.1584229,0.42961848,-0.25861022,0.7665116,0.31899482,0.14013848,-0.50099397,0.22925179,-0.20857804,804.65204,792.1612,813.91943,802.23444,686.99634,-0.001708984375,-0.0224609375,0.99468994140625,-2.79632568359375,13.50311279296875,11.461944580078125,1,1.0,1.0,1.0,1.0,10.00
2024-10-11 20:47:15.094,0.06583911,0.026630158,0.3828637,0.20879525,0.11824059,-0.3145469,-0.091981605,-0.022648744,0.28114808,0.17439206,0.115390785,0.1584229,0.42961848,-0.25861022,0.7665116,0.31899482,0.14013848,-0.50099397,0.22925179,-0.20857804,807.47253,795.78754,813.91943,796.1905,734.5421,-0.001708984375,-0.0224609375,0.99468994140625,-2.79632568359375,13.50311279296875,11.461944580078125,1,1.0,1.0,1.0,1.0,10.00
2024-10-11 20:47:15.095,0.06583911,0.026630158,0.3828637,0.20879525,0.11824059,-0.3145469,-0.091981605,-0.022648744,0.28114808,0.17439206,0.115390785,0.1584229,0.42961848,-0.25861022,0.7665116,0.31899482,0.14013848,-0.50099397,0.22925179,-0.20857804,803.8461,799.81683,799.81683,798.60803,588.2784,-0.001708984375,-0.0224609375,0.99468994140625,-2.79632568359375,13.50311279296875,11.461944580078125,1,1.0,1.0,1.0,1.0,10.00
2024-10-11 20:47:15.096,0.06583911,0.026630158,0.3828637,0.20879525,0.11824059,-0.3145469,-0.091981605,-0.022648744,0.28114808,0.17439206,0.115390785,0.1584229,0.42961848,-0.25861022,0.7665116,0.31899482,0.14013848,-0.50099397,0.22925179,-0.20857804,803.0403,797.8022,793.36993,800.2198,517.76556,-0.001708984375,-0.0224609375,0.99468994140625,-2.79632568359375,13.50311279296875,11.461944580078125,1,1.0,1.0,1.0,1.0,10.00
2024-10-11 20:47:15.096,0.06583911,0.026630158,0.3828637,0.20879525,0.11824059,-0.3145469,-0.091981605,-0.022648744,0.28114808,0.17439206,0.115390785,0.1584229,0.42961848,-0.25861022,0.7665116,0.31899482,0.14013848,-0.50099397,0.22925179,-0.20857804,809.0842,798.60803,799.81683,803.0403,557.6557,-0.001708984375,-0.0224609375,0.99468994140625,-2.79632568359375,13.50311279296875,11.461944580078125,1,1.0,1.0,1.0,1.0,10.00
2024-10-11 20:47:15.097,0.06583911,0.026630158,0.3828637,0.20879525,0.11824059,-0.3145469,-0.091981605,-0.022648744,0.28114808,0.17439206,0.115390785,0.1584229,0.42961848,-0.25861022,0.7665116,0.31899482,0.14013848,-0.50099397,0.22925179,-0.20857804,813.1135,801.8315,800.6227,811.9048,691.8315,-0.001708984375,-0.0224609375,0.99468994140625,-2.79632568359375,13.50311279296875,11.461944580078125,1,1.0,1.0,1.0,1.0,10.00
2024-10-11 20:47:15.098,0.06583911,0.026630158,0.3828637,0.20879525,0.11824059,-0.3145469,-0.091981605,-0.022648744,0.28114808,0.17439206,0.115390785,0.1584229,0.42961848,-0.25861022,0.7665116,0.31899482,0.14013848,-0.50099397,0.22925179,-0.20857804,809.4872,800.6227,790.9524,811.0989,663.22345,-0.001708984375,-0.0224609375,0.99468994140625,-2.79632568359375,13.50311279296875,11.461944580078125,1,1.0,1.0,1.0,1.0,10.00
2024-10-11 20:47:15.098,0.06583911,0.026630158,0.3828637,0.20879525,0.11824059,-0.3145469,-0.091981605,-0.022648744,0.28114808,0.17439206,0.115390785,0.1584229,0.42961848,-0.25861022,0.7665116,0.31899482,0.14013848,-0.50099397,0.22925179,-0.20857804,810.293,798.20514,786.52014,805.8608,685.38464,-0.001708984375,-0.0224609375,0.99468994140625,-2.79632568359375,13.50311279296875,11.461944580078125,1,1.0,1.0,1.0,1.0,10.00
2024-10-11 20:47:15.099,0.06583911,0.026630158,0.3828637,0.20879525,0.11824059,-0.3145469,-0.091981605,-0.022648744,0.28114808,0.17439206,0.115390785,0.1584229,0.42961848,-0.25861022,0.7665116,0.31899482,0.14013848,-0.50099397,0.22925179,-0.20857804,815.12823,802.23444,788.5348,799.81683,762.3443,-0.001708984375,-0.0224609375,0.99468994140625,-2.79632568359375,13.50311279296875,11.461944580078125,1,1.0,1.0,1.0,1.0,10.00
2024-10-11 20:47:15.100,0.06583911,0.026630158,0.3828637,0.20879525,0.11824059,-0.3145469,-0.091981605,-0.022648744,0.28114808,0.17439206,0.115390785,0.1584229,0.42961848,-0.25861022,0.7665116,0.31899482,0.14013848,-0.50099397,0.22925179,-0.20857804,811.0989,805.8608,801.4286,793.36993,597.1429,-0.001708984375,-0.0224609375,0.99468994140625,-2.79632568359375,13.50311279296875,11.461944580078125,1,1.0,1.0,1.0,1.0,10.00
2024-10-11 20:47:15.101,0.06583911,0.026630158,0.3828637,0.20879525,0.11824059,-0.3145469,-0.091981605,-0.022648744,0.28114808,0.17439206,0.115390785,0.1584229,0.42961848,-0.25861022,0.7665116,0.31899482,0.14013848,-0.50099397,0.22925179,-0.20857804,811.50183,799.81683,809.4872,801.4286,491.5751,-0.001708984375,-0.0224609375,0.99468994140625,-2.79632568359375,13.50311279296875,11.461944580078125,1,1.0,1.0,1.0,1.0,10.00
2024-10-11 20:47:15.101,0.06583911,0.026630158,0.3828637,0.20879525,0.11824059,-0.3145469,-0.091981605,-0.022648744,0.28114808,0.17439206,0.115390785,0.1584229,0.42961848,-0.25861022,0.7665116,0.31899482,0.14013848,-0.50099397,0.22925179,-0.20857804,816.7399,793.36993,805.05493,807.8755,607.619,-0.001708984375,-0.0224609375,0.99468994140625,-2.79632568359375,13.50311279296875,11.461944580078125,1,1.0,1.0,1.0,1.0,10.00
2024-10-11 20:47:15.159,0.06583911,0.026630158,0.3828637,0.20879525,0.11824059,-0.3145469,-0.091981605,-0.022648744,0.28114808,0.17439206,0.115390785,0.1584229,0.42961848,-0.25861022,0.7665116,0.31899482,0.14013848,-0.50099397,0.22925179,-0.20857804,814.3223,795.78754,800.6227,801.8315,825.2015,-0.033935546875,-0.0225830078125,1.00537109375,-0.9869384765625,13.181610107421875,11.67877197265625,1,1.0,1.0,1.0,1.0,10.00
2024-10-11 20:47:15.160,0.0177149,0.0041295453,0.2795815,0.022491345,0.06462805,-0.32404175,-0.123447314,-0.014125105,0.14169525,0.17389555,0.115390785,0.1584229,0.41433665,-0.25865296,0.76724404,0.29355112,0.08971474,-0.47877648,0.23924084,-0.2453548,813.91943,796.5934,796.5934,805.05493,675.7143,-0.033935546875,-0.0225830078125,1.00537109375,-0.9869384765625,13.181610107421875,11.67877197265625,1,1.0,1.0,1.0,1.0,10.00
2024-10-11 20:47:15.166,0.0177149,0.0041295453,0.2795815,0.022491345,0.06462805,-0.32404175,-0.123447314,-0.014125105,0.14169525,0.17389555,0.115390785,0.1584229,0.41433665,-0.25865296,0.76724404,0.29355112,0.08971474,-0.47877648,0.23924084,-0.2453548,817.1429,798.60803,790.54944,812.3077,464.9817,-0.033935546875,-0.0225830078125,1.00537109375,-0.9869384765625,13.181610107421875,11.67877197265625,1,1.0,1.0,1.0,1.0,10.00
2024-10-11 20:47:15.167,0.0177149,0.0041295453,0.2795815,0.022491345,0.06462805,-0.32404175,-0.123447314,-0.014125105,0.14169525,0.17389555,0.115390785,0.1584229,0.41433665,-0.25865296,0.76724404,0.29355112,0.08971474,-0.47877648,0.23924084,-0.2453548,815.5311,798.60803,789.7436,814.7253,601.1722,-0.033935546875,-0.0225830078125,1.00537109375,-0.9869384765625,13.181610107421875,11.67877197265625,1,1.0,1.0,1.0,1.0,10.00
2024-10-11 20:47:15.168,0.0177149,0.0041295453,0.2795815,0.022491345,0.06462805,-0.32404175,-0.123447314,-0.014125105,0.14169525,0.17389555,0.115390785,0.1584229,0.41433665,-0.25865296,0.76724404,0.29355112,0.08971474,-0.47877648,0.23924084,-0.2453548,814.3223,797.8022,776.4469,810.696,603.5897,-0.033935546875,-0.0225830078125,1.00537109375,-0.9869384765625,13.181610107421875,11.67877197265625,1,1.0,1.0,1.0,1.0,10.00
2024-10-11 20:47:15.169,0.0177149,0.0041295453,0.2795815,0.022491345,0.06462805,-0.32404175,-0.123447314,-0.014125105,0.14169525,0.17389555,0.115390785,0.1584229,0.41433665,-0.25865296,0.76724404,0.29355112,0.08971474,-0.47877648,0.23924084,-0.2453548,808.2784,798.60803,766.3736,799.011,588.2784,-0.033935546875,-0.0225830078125,1.00537109375,-0.9869384765625,13.181610107421875,11.67877197265625,1,1.0,1.0,1.0,1.0,10.00
2024-10-11 20:47:15.169,0.0177149,0.0041295453,0.2795815,0.022491345,0.06462805,-0.32404175,-0.123447314,-0.014125105,0.14169525,0.17389555,0.115390785,0.1584229,0.41433665,-0.25865296,0.76724404,0.29355112,0.08971474,-0.47877648,0.23924084,-0.2453548,799.011,800.6227,788.5348,794.9817,603.9927,-0.033935546875,-0.0225830078125,1.00537109375,-0.9869384765625,13.181610107421875,11.67877197265625,1,1.0,1.0,1.0,1.0,10.00
2024-10-11 20:47:15.170,0.0177149,0.0041295453,0.2795815,0.022491345,0.06462805,-0.32404175,-0.123447314,-0.014125105,0.14169525,0.17389555,0.115390785,0.1584229,0.41433665,-0.25865296,0.76724404,0.29355112,0.08971474,-0.47877648,0.23924084,-0.2453548,806.26373,795.38464,812.71063,801.4286,728.9011,-0.033935546875,-0.0225830078125,1.00537109375,-0.9869384765625,13.181610107421875,11.67877197265625,1,1.0,1.0,1.0,1.0,10.00
2024-10-11 20:47:15.171,0.0177149,0.0041295453,0.2795815,0.022491345,0.06462805,-0.32404175,-0.123447314,-0.014125105,0.14169525,0.17389555,0.115390785,0.1584229,0.41433665,-0.25865296,0.76724404,0.29355112,0.08971474,-0.47877648,0.23924084,-0.2453548,814.3223,789.7436,812.3077,811.9048,1166.0806,-0.033935546875,-0.0225830078125,1.00537109375,-0.9869384765625,13.181610107421875,11.67877197265625,1,1.0,1.0,1.0,1.0,10.00
2024-10-11 20:47:15.171,0.0177149,0.0041295453,0.2795815,0.022491345,0.06462805,-0.32404175,-0.123447314,-0.014125105,0.14169525,0.17389555,0.115390785,0.1584229,0.41433665,-0.25865296,0.76724404,0.29355112,0.08971474,-0.47877648,0.23924084,-0.2453548,809.89014,788.93774,805.05493,799.011,931.978,-0.033935546875,-0.0225830078125,1.00537109375,-0.9869384765625,13.181610107421875,11.67877197265625,1,1.0,1.0,1.0,1.0,10.00
2024-10-11 20:47:15.172,0.0177149,0.0041295453,0.2795815,0.022491345,0.06462805,-0.32404175,-0.123447314,-0.014125105,0.14169525,0.17389555,0.115390785,0.1584229,0.41433665,-0.25865296,0.76724404,0.29355112,0.08971474,-0.47877648,0.23924084,-0.2453548,809.89014,790.9524,796.5934,783.69965,475.05493,-0.033935546875,-0.0225830078125,1.00537109375,-0.9869384765625,13.181610107421875,11.67877197265625,1,1.0,1.0,1.0,1.0,10.00
2024-10-11 20:47:15.173,0.0177149,0.0041295453,0.2795815,0.022491345,0.06462805,-0.32404175,-0.123447314,-0.014125105,0.14169525,0.17389555,0.115390785,0.1584229,0.41433665,-0.25865296,0.76724404,0.29355112,0.08971474,-0.47877648,0.23924084,-0.2453548,807.47253,794.17584,794.17584,794.57874,483.51648,-0.033935546875,-0.0225830078125,1.00537109375,-0.9869384765625,13.181610107421875,11.67877197265625,1,1.0,1.0,1.0,1.0,10.00
2024-10-11 20:47:15.198,0.0177149,0.0041295453,0.2795815,0.022491345,0.06462805,-0.32404175,-0.123447314,-0.014125105,0.14169525,0.17389555,0.115390785,0.1584229,0.41433665,-0.25865296,0.76724404,0.29355112,0.08971474,-0.47877648,0.23924084,-0.2453548,807.8755,796.5934,795.38464,807.8755,544.7619,-0.033935546875,-0.0225830078125,1.00537109375,-0.9869384765625,13.181610107421875,11.67877197265625,1,1.0,1.0,1.0,1.0,10.00
2024-10-11 20:47:15.199,0.0177149,0.0041295453,0.2795815,0.022491345,0.06462805,-0.32404175,-0.123447314,-0.014125105,0.14169525,0.17389555,0.115390785,0.1584229,0.41433665,-0.25865296,0.76724404,0.29355112,0.08971474,-0.47877648,0.23924084,-0.2453548,815.9341,795.38464,786.1172,809.89014,494.79852,-0.033935546875,-0.0225830078125,1.00537109375,-0.9869384765625,13.181610107421875,11.67877197265625,1,1.0,1.0,1.0,1.0,10.00
2024-10-11 20:47:15.200,0.0177149,0.0041295453,0.2795815,0.022491345,0.06462805,-0.32404175,-0.123447314,-0.014125105,0.14169525,0.17389555,0.115390785,0.1584229,0.41433665,-0.25865296,0.76724404,0.29355112,0.08971474,-0.47877648,0.23924084,-0.2453548,810.696,796.1905,786.1172,807.0696,435.16483,-0.033935546875,-0.0225830078125,1.00537109375,-0.9869384765625,13.181610107421875,11.67877197265625,1,1.0,1.0,1.0,1.0,10.00
2024-10-11 20:47:15.200,0.0177149,0.0041295453,0.2795815,0.022491345,0.06462805,-0.32404175,-0.123447314,-0.014125105,0.14169525,0.17389555,0.115390785,0.1584229,0.41433665,-0.25865296,0.76724404,0.29355112,0.08971474,-0.47877648,0.23924084,-0.2453548,800.2198,796.99634,795.78754,801.4286,571.3553,-0.033935546875,-0.0225830078125,1.00537109375,-0.9869384765625,13.181610107421875,11.67877197265625,1,1.0,1.0,1.0,1.0,10.00
2024-10-11 20:47:15.201,0.0177149,0.0041295453,0.2795815,0.022491345,0.06462805,-0.32404175,-0.123447314,-0.014125105,0.14169525,0.17389555,0.115390785,0.1584229,0.41433665,-0.25865296,0.76724404,0.29355112,0.08971474,-0.47877648,0.23924084,-0.2453548,805.05493,794.57874,794.9817,800.6227,535.4945,-0.033935546875,-0.0225830078125,1.00537109375,-0.9869384765625,13.181610107421875,11.67877197265625,1,1.0,1.0,1.0,1.0,10.00
2024-10-11 20:47:15.201,0.0177149,0.0041295453,0.2795815,0.022491345,0.06462805,-0.32404175,-0.123447314,-0.014125105,0.14169525,0.17389555,0.115390785,0.1584229,0.41433665,-0.25865296,0.76724404,0.29355112,0.08971474,-0.47877648,0.23924084,-0.2453548,801.8315,796.5934,788.5348,803.0403,464.9817,-0.033935546875,-0.0225830078125,1.00537109375,-0.9869384765625,13.181610107421875,11.67877197265625,1,1.0,1.0,1.0,1.0,10.00
2024-10-11 20:47:15.202,0.0177149,0.0041295453,0.2795815,0.022491345,0.06462805,-0.32404175,-0.123447314,-0.014125105,0.14169525,0.17389555,0.115390785,0.1584229,0.41433665,-0.25865296,0.76724404,0.29355112,0.08971474,-0.47877648,0.23924084,-0.2453548,801.8315,796.1905,793.36993,809.0842,567.326,-0.033935546875,-0.0225830078125,1.00537109375,-0.9869384765625,13.181610107421875,11.67877197265625,1,1.0,1.0,1.0,1.0,10.00
2024-10-11 20:47:15.203,0.0177149,0.0041295453,0.2795815,0.022491345,0.06462805,-0.32404175,-0.123447314,-0.014125105,0.14169525,0.17389555,0.115390785,0.1584229,0.41433665,-0.25865296,0.76724404,0.29355112,0.08971474,-0.47877648,0.23924084,-0.2453548,809.4872,792.96704,802.23444,812.3077,635.0183,-0.033935546875,-0.0225830078125,1.00537109375,-0.9869384765625,13.181610107421875,11.67877197265625,1,1.0,1.0,1.0,1.0,10.00
2024-10-11 20:47:15.204,0.0177149,0.0041295453,0.2795815,0.022491345,0.06462805,-0.32404175,-0.123447314,-0.014125105,0.14169525,0.17389555,0.115390785,0.1584229,0.41433665,-0.25865296,0.76724404,0.29355112,0.08971474,-0.47877648,0.23924084,-0.2453548,807.8755,789.34064,804.65204,812.71063,515.34796,-0.033935546875,-0.0225830078125,1.00537109375,-0.9869384765625,13.181610107421875,11.67877197265625,1,1.0,1.0,1.0,1.0,10.00
2024-10-11 20:47:15.204,0.0177149,0.0041295453,0.2795815,0.022491345,0.06462805,-0.32404175,-0.123447314,-0.014125105,0.14169525,0.17389555,0.115390785,0.1584229,0.41433665,-0.25865296,0.76724404,0.29355112,0.08971474,-0.47877648,0.23924084,-0.2453548,807.0696,790.54944,800.2198,810.696,388.82785,-0.033935546875,-0.0225830078125,1.00537109375,-0.9869384765625,13.181610107421875,11.67877197265625,1,1.0,1.0,1.0,1.0,10.00
2024-10-11 20:47:15.205,0.0177149,0.0041295453,0.2795815,0.022491345,0.06462805,-0.32404175,-0.123447314,-0.014125105,0.14169525,0.17389555,0.115390785,0.1584229,0.41433665,-0.25865296,0.76724404,0.29355112,0.08971474,-0.47877648,0.23924084,-0.2453548,810.293,795.78754,790.54944,807.47253,583.0403,-0.033935546875,-0.0225830078125,1.00537109375,-0.9869384765625,13.181610107421875,11.67877197265625,1,1.0,1.0,1.0,1.0,10.00
2024-10-11 20:47:15.205,0.0177149,0.0041295453,0.2795815,0.022491345,0.06462805,-0.32404175,-0.123447314,-0.014125105,0.14169525,0.17389555,0.115390785,0.1584229,0.41433665,-0.25865296,0.76724404,0.29355112,0.08971474,-0.47877648,0.23924084,-0.2453548,807.0696,799.011,793.36993,803.0403,768.3883,-0.033935546875,-0.0225830078125,1.00537109375,-0.9869384765625,13.181610107421875,11.67877197265625,1,1.0,1.0,1.0,1.0,10.00
2024-10-11 20:47:15.294,0.0177149,0.0041295453,0.2795815,0.022491345,0.06462805,-0.32404175,-0.123447314,-0.014125105,0.14169525,0.17389555,0.115390785,0.1584229,0.41433665,-0.25865296,0.76724404,0.29355112,0.08971474,-0.47877648,0.23924084,-0.2453548,802.6374,802.23444,802.6374,799.011,554.0293,-0.0589599609375,-0.0191650390625,1.007568359375,-0.007476806640625,12.030181884765625,10.228271484375,1,1.0,1.0,1.0,1.0,10.00
2024-10-11 20:47:15.295,0.0177149,0.0041295453,0.2795815,0.022491345,0.06462805,-0.32404175,-0.123447314,-0.014125105,0.14169525,0.17389555,0.115390785,0.1584229,0.41433665,-0.25865296,0.76724404,0.29355112,0.08971474,-0.47877648,0.23924084,-0.2453548,801.8315,803.8461,804.2491,803.44324,446.4469,-0.0589599609375,-0.0191650390625,1.007568359375,-0.007476806640625,12.030181884765625,10.228271484375,1,1.0,1.0,1.0,1.0,10.00
2024-10-11 20:47:15.296,0.0177149,0.0041295453,0.2795815,0.022491345,0.06462805,-0.32404175,-0.123447314,-0.014125105,0.14169525,0.17389555,0.115390785,0.1584229,0.41433665,-0.25865296,0.76724404,0.29355112,0.08971474,-0.47877648,0.23924084,-0.2453548,805.8608,802.23444,781.685,806.26373,604.7985,-0.0589599609375,-0.0191650390625,1.007568359375,-0.007476806640625,12.030181884765625,10.228271484375,1,1.0,1.0,1.0,1.0,10.00
2024-10-11 20:47:15.296,-0.055903334,-0.0020904625,0.20857894,-0.18651111,-2.003436E-5,-0.32250473,-0.12873721,-0.016306859,0.10737955,0.16993308,0.10617496,0.15815963,0.40871772,-0.26251537,0.75991637,0.2668978,0.053279392,-0.45374805,0.25213873,-0.30129194,808.68134,803.44324,778.86444,803.0403,693.0403,-0.0589599609375,-0.0191650390625,1.007568359375,-0.007476806640625,12.030181884765625,10.228271484375,1,1.0,1.0,1.0,1.0,10.00
2024-10-11 20:47:15.303,-0.055903334,-0.0020904625,0.20857894,-0.18651111,-2.003436E-5,-0.32250473,-0.12873721,-0.016306859,0.10737955,0.16993308,0.10617496,0.15815963,0.40871772,-0.26251537,0.75991637,0.2668978,0.053279392,-0.45374805,0.25213873,-0.30129194,806.6667,801.02563,801.02563,796.1905,591.9048,-0.0589599609375,-0.0191650390625,1.007568359375,-0.007476806640625,12.030181884765625,10.228271484375,1,1.0,1.0,1.0,1.0,10.00
2024-10-11 20:47:15.303,-0.055903334,-0.0020904625,0.20857894,-0.18651111,-2.003436E-5,-0.32250473,-0.12873721,-0.016306859,0.10737955,0.16993308,0.10617496,0.15815963,0.40871772,-0.26251537,0.75991637,0.2668978,0.053279392,-0.45374805,0.25213873,-0.30129194,803.8461,798.60803,798.20514,797.3993,653.5531,-0.0589599609375,-0.0191650390625,1.007568359375,-0.007476806640625,12.030181884765625,10.228271484375,1,1.0,1.0,1.0,1.0,10.00
2024-10-11 20:47:15.304,-0.055903334,-0.0020904625,0.20857894,-0.18651111,-2.003436E-5,-0.32250473,-0.12873721,-0.016306859,0.10737955,0.16993308,0.10617496,0.15815963,0.40871772,-0.26251537,0.75991637,0.2668978,0.053279392,-0.45374805,0.25213873,-0.30129194,800.6227,799.81683,794.17584,803.8461,971.8681,-0.0589599609375,-0.0191650390625,1.007568359375,-0.007476806640625,12.030181884765625,10.228271484375,1,1.0,1.0,1.0,1.0,10.00
2024-10-11 20:47:15.305,-0.055903334,-0.0020904625,0.20857894,-0.18651111,-2.003436E-5,-0.32250473,-0.12873721,-0.016306859,0.10737955,0.16993308,0.10617496,0.15815963,0.40871772,-0.26251537,0.75991637,0.2668978,0.053279392,-0.45374805,0.25213873,-0.30129194,803.0403,797.8022,792.1612,799.011,890.4762,-0.0589599609375,-0.0191650390625,1.007568359375,-0.007476806640625,12.030181884765625,10.228271484375,1,1.0,1.0,1.0,1.0,10.00
2024-10-11 20:47:15.306,-0.055903334,-0.0020904625,0.20857894,-0.18651111,-2.003436E-5,-0.32250473,-0.12873721,-0.016306859,0.10737955,0.16993308,0.10617496,0.15815963,0.40871772,-0.26251537,0.75991637,0.2668978,0.053279392,-0.45374805,0.25213873,-0.30129194,800.6227,803.0403,798.20514,794.17584,451.68497,-0.0589599609375,-0.0191650390625,1.007568359375,-0.007476806640625,12.030181884765625,10.228271484375,1,1.0,1.0,1.0,1.0,10.00
2024-10-11 20:47:15.306,-0.055903334,-0.0020904625,0.20857894,-0.18651111,-2.003436E-5,-0.32250473,-0.12873721,-0.016306859,0.10737955,0.16993308,0.10617496,0.15815963,0.40871772,-0.26251537,0.75991637,0.2668978,0.053279392,-0.45374805,0.25213873,-0.30129194,801.8315,799.81683,807.0696,795.78754,330.80585,-0.0589599609375,-0.0191650390625,1.007568359375,-0.007476806640625,12.030181884765625,10.228271484375,1,1.0,1.0,1.0,1.0,10.00
2024-10-11 20:47:15.308,-0.055903334,-0.0020904625,0.20857894,-0.18651111,-2.003436E-5,-0.32250473,-0.12873721,-0.016306859,0.10737955,0.16993308,0.10617496,0.15815963,0.40871772,-0.26251537,0.75991637,0.2668978,0.053279392,-0.45374805,0.25213873,-0.30129194,801.8315,792.96704,797.8022,803.8461,677.326,-0.0589599609375,-0.0191650390625,1.007568359375,-0.007476806640625,12.030181884765625,10.228271484375,1,1.0,1.0,1.0,1.0,10.00
2024-10-11 20:47:15.308,-0.055903334,-0.0020904625,0.20857894,-0.18651111,-2.003436E-5,-0.32250473,-0.12873721,-0.016306859,0.10737955,0.16993308,0.10617496,0.15815963,0.40871772,-0.26251537,0.75991637,0.2668978,0.053279392,-0.45374805,0.25213873,-0.30129194,799.41394,796.5934,795.38464,810.293,822.7839,-0.0589599609375,-0.0191650390625,1.007568359375,-0.007476806640625,12.030181884765625,10.228271484375,1,1.0,1.0,1.0,1.0,10.00
2024-10-11 20:47:15.339,-0.055903334,-0.0020904625,0.20857894,-0.18651111,-2.003436E-5,-0.32250473,-0.12873721,-0.016306859,0.10737955,0.16993308,0.10617496,0.15815963,0.40871772,-0.26251537,0.75991637,0.2668978,0.053279392,-0.45374805,0.25213873,-0.30129194,804.65204,799.81683,794.17584,799.011,475.05493,-0.106201171875,-0.0218505859375,1.01397705078125,-0.351409912109375,12.30682373046875,5.90667724609375,1,1.0,1.0,1.0,1.0,10.00
2024-10-11 20:47:15.340,-0.055903334,-0.0020904625,0.20857894,-0.18651111,-2.003436E-5,-0.32250473,-0.12873721,-0.016306859,0.10737955,0.16993308,0.10617496,0.15815963,0.40871772,-0.26251537,0.75991637,0.2668978,0.053279392,-0.45374805,0.25213873,-0.30129194,802.23444,799.011,793.36993,788.5348,470.2198,-0.106201171875,-0.0218505859375,1.01397705078125,-0.351409912109375,12.30682373046875,5.90667724609375,1,1.0,1.0,1.0,1.0,10.00
2024-10-11 20:47:15.340,-0.055903334,-0.0020904625,0.20857894,-0.18651111,-2.003436E-5,-0.32250473,-0.12873721,-0.016306859,0.10737955,0.16993308,0.10617496,0.15815963,0.40871772,-0.26251537,0.75991637,0.2668978,0.053279392,-0.45374805,0.25213873,-0.30129194,790.54944,795.78754,797.3993,791.3553,720.84247,-0.106201171875,-0.0218505859375,1.01397705078125,-0.351409912109375,12.30682373046875,5.90667724609375,1,1.0,1.0,1.0,1.0,10.00
2024-10-11 20:47:15.341,-0.055903334,-0.0020904625,0.20857894,-0.18651111,-2.003436E-5,-0.32250473,-0.12873721,-0.016306859,0.10737955,0.16993308,0.10617496,0.15815963,0.40871772,-0.26251537,0.75991637,0.2668978,0.053279392,-0.45374805,0.25213873,-0.30129194,784.5055,794.9817,791.75824,792.96704,693.0403,-0.106201171875,-0.0218505859375,1.01397705078125,-0.351409912109375,12.30682373046875,5.90667724609375,1,1.0,1.0,1.0,1.0,10.00
2024-10-11 20:47:15.342,-0.055903334,-0.0020904625,0.20857894,-0.18651111,-2.003436E-5,-0.32250473,-0.12873721,-0.016306859,0.10737955,0.16993308,0.10617496,0.15815963,0.40871772,-0.26251537,0.75991637,0.2668978,0.053279392,-0.45374805,0.25213873,-0.30129194,789.34064,797.8022,793.36993,796.1905,481.0989,-0.106201171875,-0.0218505859375,1.01397705078125,-0.351409912109375,12.30682373046875,5.90667724609375,1,1.0,1.0,1.0,1.0,10.00
2024-10-11 20:47:15.343,-0.055903334,-0.0020904625,0.20857894,-0.18651111,-2.003436E-5,-0.32250473,-0.12873721,-0.016306859,0.10737955,0.16993308,0.10617496,0.15815963,0.40871772,-0.26251537,0.75991637,0.2668978,0.053279392,-0.45374805,0.25213873,-0.30129194,803.44324,797.8022,789.34064,801.02563,625.34796,-0.106201171875,-0.0218505859375,1.01397705078125,-0.351409912109375,12.30682373046875,5.90667724609375,1,1.0,1.0,1.0,1.0,10.00
2024-10-11 20:47:15.344,-0.055903334,-0.0020904625,0.20857894,-0.18651111,-2.003436E-5,-0.32250473,-0.12873721,-0.016306859,0.10737955,0.16993308,0.10617496,0.15815963,0.40871772,-0.26251537,0.75991637,0.2668978,0.053279392,-0.45374805,0.25213873,-0.30129194,792.5641,796.99634,781.685,801.4286,785.7143,-0.106201171875,-0.0218505859375,1.01397705078125,-0.351409912109375,12.30682373046875,5.90667724609375,1,1.0,1.0,1.0,1.0,10.00
2024-10-11 20:47:15.344,-0.055903334,-0.0020904625,0.20857894,-0.18651111,-2.003436E-5,-0.32250473,-0.12873721,-0.016306859,0.10737955,0.16993308,0.10617496,0.15815963,0.40871772,-0.26251537,0.75991637,0.2668978,0.053279392,-0.45374805,0.25213873,-0.30129194,786.9231,797.8022,797.8022,804.65204,626.1539,-0.106201171875,-0.0218505859375,1.01397705078125,-0.351409912109375,12.30682373046875,5.90667724609375,1,1.0,1.0,1.0,1.0,10.00
2024-10-11 20:47:15.345,-0.055903334,-0.0020904625,0.20857894,-0.18651111,-2.003436E-5,-0.32250473,-0.12873721,-0.016306859,0.10737955,0.16993308,0.10617496,0.15815963,0.40871772,-0.26251537,0.75991637,0.2668978,0.053279392,-0.45374805,0.25213873,-0.30129194,799.41394,792.5641,801.4286,803.44324,552.01465,-0.106201171875,-0.0218505859375,1.01397705078125,-0.351409912109375,12.30682373046875,5.90667724609375,1,1.0,1.0,1.0,1.0,10.00
2024-10-11 20:47:15.346,-0.055903334,-0.0020904625,0.20857894,-0.18651111,-2.003436E-5,-0.32250473,-0.12873721,-0.016306859,0.10737955,0.16993308,0.10617496,0.15815963,0.40871772,-0.26251537,0.75991637,0.2668978,0.053279392,-0.45374805,0.25213873,-0.30129194,794.9817,787.72894,790.54944,809.0842,621.7216,-0.106201171875,-0.0218505859375,1.01397705078125,-0.351409912109375,12.30682373046875,5.90667724609375,1,1.0,1.0,1.0,1.0,10.00
2024-10-11 20:47:15.347,-0.055903334,-0.0020904625,0.20857894,-0.18651111,-2.003436E-5,-0.32250473,-0.12873721,-0.016306859,0.10737955,0.16993308,0.10617496,0.15815963,0.40871772,-0.26251537,0.75991637,0.2668978,0.053279392,-0.45374805,0.25213873,-0.30129194,794.57874,789.34064,796.5934,809.0842,673.69965,-0.106201171875,-0.0218505859375,1.01397705078125,-0.351409912109375,12.30682373046875,5.90667724609375,1,1.0,1.0,1.0,1.0,10.00
2024-10-11 20:47:15.348,-0.055903334,-0.0020904625,0.20857894,-0.18651111,-2.003436E-5,-0.32250473,-0.12873721,-0.016306859,0.10737955,0.16993308,0.10617496,0.15815963,0.40871772,-0.26251537,0.75991637,0.2668978,0.053279392,-0.45374805,0.25213873,-0.30129194,797.3993,788.93774,799.41394,797.3993,581.8315,-0.106201171875,-0.0218505859375,1.01397705078125,-0.351409912109375,12.30682373046875,5.90667724609375,1,1.0,1.0,1.0,1.0,10.00
2024-10-11 20:47:15.349,-0.055903334,-0.0020904625,0.20857894,-0.18651111,-2.003436E-5,-0.32250473,-0.12873721,-0.016306859,0.10737955,0.16993308,0.10617496,0.15815963,0.40871772,-0.26251537,0.75991637,0.2668978,0.053279392,-0.45374805,0.25213873,-0.30129194,794.9817,789.34064,794.9817,805.05493,533.0769,-0.094970703125,-0.029296875,0.995361328125,-0.800018310546875,8.785247802734375,0.396270751953125,1,1.0,1.0,1.0,1.0,10.00
2024-10-11 20:47:15.350,-0.055903334,-0.0020904625,0.20857894,-0.18651111,-2.003436E-5,-0.32250473,-0.12873721,-0.016306859,0.10737955,0.16993308,0.10617496,0.15815963,0.40871772,-0.26251537,0.75991637,0.2668978,0.053279392,-0.45374805,0.25213873,-0.30129194,802.6374,794.57874,793.7729,812.3077,781.28204,-0.094970703125,-0.029296875,0.995361328125,-0.800018310546875,8.785247802734375,0.396270751953125,1,1.0,1.0,1.0,1.0,10.00
2024-10-11 20:47:15.350,-0.055903334,-0.0020904625,0.20857894,-0.18651111,-2.003436E-5,-0.32250473,-0.12873721,-0.016306859,0.10737955,0.16993308,0.10617496,0.15815963,0.40871772,-0.26251537,0.75991637,0.2668978,0.053279392,-0.45374805,0.25213873,-0.30129194,809.4872,796.5934,784.90845,808.68134,856.63007,-0.094970703125,-0.029296875,0.995361328125,-0.800018310546875,8.785247802734375,0.396270751953125,1,1.0,1.0,1.0,1.0,10.00
2024-10-11 20:47:15.351,-0.055903334,-0.0020904625,0.20857894,-0.18651111,-2.003436E-5,-0.32250473,-0.12873721,-0.016306859,0.10737955,0.16993308,0.10617496,0.15815963,0.40871772,-0.26251537,0.75991637,0.2668978,0.053279392,-0.45374805,0.25213873,-0.30129194,804.2491,798.20514,785.7143,802.6374,620.5128,-0.094970703125,-0.029296875,0.995361328125,-0.800018310546875,8.785247802734375,0.396270751953125,1,1.0,1.0,1.0,1.0,10.00
2024-10-11 20:47:15.352,-0.055903334,-0.0020904625,0.20857894,-0.18651111,-2.003436E-5,-0.32250473,-0.12873721,-0.016306859,0.10737955,0.16993308,0.10617496,0.15815963,0.40871772,-0.26251537,0.75991637,0.2668978,0.053279392,-0.45374805,0.25213873,-0.30129194,802.23444,795.78754,789.34064,799.011,572.96704,-0.094970703125,-0.029296875,0.995361328125,-0.800018310546875,8.785247802734375,0.396270751953125,1,1.0,1.0,1.0,1.0,10.00
2024-10-11 20:47:15.353,-0.14222832,-0.0017491154,0.17920415,-0.35123995,-0.07347003,-0.3147948,-0.10738423,-0.051088557,0.05455767,0.16350356,0.06044471,0.14407906,0.41363007,-0.26794305,0.74829656,0.240706,0.034220736,-0.42635646,0.2663796,-0.37152454,799.81683,788.1319,800.6227,796.99634,839.304,-0.094970703125,-0.029296875,0.995361328125,-0.800018310546875,8.785247802734375,0.396270751953125,1,1.0,1.0,1.0,1.0,10.00
2024-10-11 20:47:15.359,-0.14222832,-0.0017491154,0.17920415,-0.35123995,-0.07347003,-0.3147948,-0.10738423,-0.051088557,0.05455767,0.16350356,0.06044471,0.14407906,0.41363007,-0.26794305,0.74829656,0.240706,0.034220736,-0.42635646,0.2663796,-0.37152454,801.02563,785.31134,810.293,797.3993,963.4066,-0.094970703125,-0.029296875,0.995361328125,-0.800018310546875,8.785247802734375,0.396270751953125,1,1.0,1.0,1.0,1.0,10.00
2024-10-11 20:47:15.359,-0.14222832,-0.0017491154,0.17920415,-0.35123995,-0.07347003,-0.3147948,-0.10738423,-0.051088557,0.05455767,0.16350356,0.06044471,0.14407906,0.41363007,-0.26794305,0.74829656,0.240706,0.034220736,-0.42635646,0.2663796,-0.37152454,806.26373,791.3553,811.0989,799.011,701.9048,-0.094970703125,-0.029296875,0.995361328125,-0.800018310546875,8.785247802734375,0.396270751953125,1,1.0,1.0,1.0,1.0,10.00
2024-10-11 20:47:15.360,-0.14222832,-0.0017491154,0.17920415,-0.35123995,-0.07347003,-0.3147948,-0.10738423,-0.051088557,0.05455767,0.16350356,0.06044471,0.14407906,0.41363007,-0.26794305,0.74829656,0.240706,0.034220736,-0.42635646,0.2663796,-0.37152454,811.9048,793.7729,798.60803,802.23444,512.52747,-0.094970703125,-0.029296875,0.995361328125,-0.800018310546875,8.785247802734375,0.396270751953125,1,1.0,1.0,1.0,1.0,10.00
2024-10-11 20:47:15.361,-0.14222832,-0.0017491154,0.17920415,-0.35123995,-0.07347003,-0.3147948,-0.10738423,-0.051088557,0.05455767,0.16350356,0.06044471,0.14407906,0.41363007,-0.26794305,0.74829656,0.240706,0.034220736,-0.42635646,0.2663796,-0.37152454,814.7253,794.9817,798.20514,822.381,731.31866,-0.094970703125,-0.029296875,0.995361328125,-0.800018310546875,8.785247802734375,0.396270751953125,1,1.0,1.0,1.0,1.0,10.00
2024-10-11 20:47:15.362,-0.14222832,-0.0017491154,0.17920415,-0.35123995,-0.07347003,-0.3147948,-0.10738423,-0.051088557,0.05455767,0.16350356,0.06044471,0.14407906,0.41363007,-0.26794305,0.74829656,0.240706,0.034220736,-0.42635646,0.2663796,-0.37152454,812.3077,800.6227,815.9341,819.15753,851.79486,-0.094970703125,-0.029296875,0.995361328125,-0.800018310546875,8.785247802734375,0.396270751953125,1,1.0,1.0,1.0,1.0,10.00
2024-10-11 20:47:15.363,-0.14222832,-0.0017491154,0.17920415,-0.35123995,-0.07347003,-0.3147948,-0.10738423,-0.051088557,0.05455767,0.16350356,0.06044471,0.14407906,0.41363007,-0.26794305,0.74829656,0.240706,0.034220736,-0.42635646,0.2663796,-0.37152454,809.0842,798.60803,799.011,803.0403,722.8571,-0.094970703125,-0.029296875,0.995361328125,-0.800018310546875,8.785247802734375,0.396270751953125,1,1.0,1.0,1.0,1.0,10.00
2024-10-11 20:47:15.395,-0.14222832,-0.0017491154,0.17920415,-0.35123995,-0.07347003,-0.3147948,-0.10738423,-0.051088557,0.05455767,0.16350356,0.06044471,0.14407906,0.41363007,-0.26794305,0.74829656,0.240706,0.034220736,-0.42635646,0.2663796,-0.37152454,804.65204,800.6227,788.93774,802.23444,660.80585,-0.088134765625,-0.00494384765625,1.00152587890625,2.811279296875,2.70660400390625,-0.381317138671875,1,1.0,1.0,1.0,1.0,10.00
2024-10-11 20:47:15.396,-0.14222832,-0.0017491154,0.17920415,-0.35123995,-0.07347003,-0.3147948,-0.10738423,-0.051088557,0.05455767,0.16350356,0.06044471,0.14407906,0.41363007,-0.26794305,0.74829656,0.240706,0.034220736,-0.42635646,0.2663796,-0.37152454,804.2491,803.0403,811.0989,811.50183,847.3626,-0.088134765625,-0.00494384765625,1.00152587890625,2.811279296875,2.70660400390625,-0.381317138671875,1,1.0,1.0,1.0,1.0,10.00
2024-10-11 20:47:15.397,-0.14222832,-0.0017491154,0.17920415,-0.35123995,-0.07347003,-0.3147948,-0.10738423,-0.051088557,0.05455767,0.16350356,0.06044471,0.14407906,0.41363007,-0.26794305,0.74829656,0.240706,0.034220736,-0.42635646,0.2663796,-0.37152454,807.0696,799.41394,809.89014,818.3516,1106.8499,-0.088134765625,-0.00494384765625,1.00152587890625,2.811279296875,2.70660400390625,-0.381317138671875,1,1.0,1.0,1.0,1.0,10.00
2024-10-11 20:47:15.398,-0.14222832,-0.0017491154,0.17920415,-0.35123995,-0.07347003,-0.3147948,-0.10738423,-0.051088557,0.05455767,0.16350356,0.06044471,0.14407906,0.41363007,-0.26794305,0.74829656,0.240706,0.034220736,-0.42635646,0.2663796,-0.37152454,813.91943,800.6227,796.5934,817.1429,716.4103,-0.088134765625,-0.00494384765625,1.00152587890625,2.811279296875,2.70660400390625,-0.381317138671875,1,1.0,1.0,1.0,1.0,10.00
2024-10-11 20:47:15.398,-0.14222832,-0.0017491154,0.17920415,-0.35123995,-0.07347003,-0.3147948,-0.10738423,-0.051088557,0.05455767,0.16350356,0.06044471,0.14407906,0.41363007,-0.26794305,0.74829656,0.240706,0.034220736,-0.42635646,0.2663796,-0.37152454,807.8755,799.41394,800.6227,814.7253,615.2747,-0.088134765625,-0.00494384765625,1.00152587890625,2.811279296875,2.70660400390625,-0.381317138671875,1,1.0,1.0,1.0,1.0,10.00
2024-10-11 20:47:15.399,-0.14222832,-0.0017491154,0.17920415,-0.35123995,-0.07347003,-0.3147948,-0.10738423,-0.051088557,0.05455767,0.16350356,0.06044471,0.14407906,0.41363007,-0.26794305,0.74829656,0.240706,0.034220736,-0.42635646,0.2663796,-0.37152454,800.6227,792.5641,806.6667,805.4579,872.74725,-0.088134765625,-0.00494384765625,1.00152587890625,2.811279296875,2.70660400390625,-0.381317138671875,1,1.0,1.0,1.0,1.0,10.00
2024-10-11 20:47:15.400,-0.14222832,-0.0017491154,0.17920415,-0.35123995,-0.07347003,-0.3147948,-0.10738423,-0.051088557,0.05455767,0.16350356,0.06044471,0.14407906,0.41363007,-0.26794305,0.74829656,0.240706,0.034220736,-0.42635646,0.2663796,-0.37152454,805.8608,792.5641,801.02563,806.6667,817.1429,-0.088134765625,-0.00494384765625,1.00152587890625,2.811279296875,2.70660400390625,-0.381317138671875,1,1.0,1.0,1.0,1.0,10.00
2024-10-11 20:47:15.401,-0.14222832,-0.0017491154,0.17920415,-0.35123995,-0.07347003,-0.3147948,-0.10738423,-0.051088557,0.05455767,0.16350356,0.06044471,0.14407906,0.41363007,-0.26794305,0.74829656,0.240706,0.034220736,-0.42635646,0.2663796,-0.37152454,804.2491,796.99634,799.81683,810.696,647.9121,-0.088134765625,-0.00494384765625,1.00152587890625,2.811279296875,2.70660400390625,-0.381317138671875,1,1.0,1.0,1.0,1.0,10.00
2024-10-11 20:47:15.402,-0.14222832,-0.0017491154,0.17920415,-0.35123995,-0.07347003,-0.3147948,-0.10738423,-0.051088557,0.05455767,0.16350356,0.06044471,0.14407906,0.41363007,-0.26794305,0.74829656,0.240706,0.034220736,-0.42635646,0.2663796,-0.37152454,809.0842,794.57874,798.60803,809.0842,643.0769,-0.088134765625,-0.00494384765625,1.00152587890625,2.811279296875,2.70660400390625,-0.381317138671875,1,1.0,1.0,1.0,1.0,10.00
2024-10-11 20:47:15.402,-0.14222832,-0.0017491154,0.17920415,-0.35123995,-0.07347003,-0.3147948,-0.10738423,-0.051088557,0.05455767,0.16350356,0.06044471,0.14407906,0.41363007,-0.26794305,0.74829656,0.240706,0.034220736,-0.42635646,0.2663796,-0.37152454,809.4872,794.57874,805.4579,809.0842,871.53845,-0.088134765625,-0.00494384765625,1.00152587890625,2.811279296875,2.70660400390625,-0.381317138671875,1,1.0,1.0,1.0,1.0,10.00
2024-10-11 20:47:15.403,-0.14222832,-0.0017491154,0.17920415,-0.35123995,-0.07347003,-0.3147948,-0.10738423,-0.051088557,0.05455767,0.16350356,0.06044471,0.14407906,0.41363007,-0.26794305,0.74829656,0.240706,0.034220736,-0.42635646,0.2663796,-0.37152454,801.8315,799.41394,815.5311,807.0696,815.12823,-0.088134765625,-0.00494384765625,1.00152587890625,2.811279296875,2.70660400390625,-0.381317138671875,1,1.0,1.0,1.0,1.0,10.00
2024-10-11 20:47:15.404,-0.14222832,-0.0017491154,0.17920415,-0.35123995,-0.07347003,-0.3147948,-0.10738423,-0.051088557,0.05455767,0.16350356,0.06044471,0.14407906,0.41363007,-0.26794305,0.74829656,0.240706,0.034220736,-0.42635646,0.2663796,-0.37152454,805.05493,796.99634,810.293,803.0403,658.7912,-0.088134765625,-0.00494384765625,1.00152587890625,2.811279296875,2.70660400390625,-0.381317138671875,1,1.0,1.0,1.0,1.0,10.00
2024-10-11 20:47:15.434,-0.14222832,-0.0017491154,0.17920415,-0.35123995,-0.07347003,-0.3147948,-0.10738423,-0.051088557,0.05455767,0.16350356,0.06044471,0.14407906,0.41363007,-0.26794305,0.74829656,0.240706,0.034220736,-0.42635646,0.2663796,-0.37152454,810.293,799.011,807.8755,808.68134,686.1905,-0.07391357421875,0.0157470703125,1.0142822265625,1.9439697265625,1.024322509765625,1.308441162109375,1,1.0,1.0,1.0,1.0,10.00
2024-10-11 20:47:15.435,-0.14222832,-0.0017491154,0.17920415,-0.35123995,-0.07347003,-0.3147948,-0.10738423,-0.051088557,0.05455767,0.16350356,0.06044471,0.14407906,0.41363007,-0.26794305,0.74829656,0.240706,0.034220736,-0.42635646,0.2663796,-0.37152454,809.0842,801.8315,799.41394,807.0696,658.3883,-0.07391357421875,0.0157470703125,1.0142822265625,1.9439697265625,1.024322509765625,1.308441162109375,1,1.0,1.0,1.0,1.0,10.00
2024-10-11 20:47:15.436,-0.14222832,-0.0017491154,0.17920415,-0.35123995,-0.07347003,-0.3147948,-0.10738423,-0.051088557,0.05455767,0.16350356,0.06044471,0.14407906,0.41363007,-0.26794305,0.74829656,0.240706,0.034220736,-0.42635646,0.2663796,-0.37152454,800.2198,798.20514,789.34064,797.8022,751.06226,-0.07391357421875,0.0157470703125,1.0142822265625,1.9439697265625,1.024322509765625,1.308441162109375,1,1.0,1.0,1.0,1.0,10.00
2024-10-11 20:47:15.437,-0.14222832,-0.0017491154,0.17920415,-0.35123995,-0.07347003,-0.3147948,-0.10738423,-0.051088557,0.05455767,0.16350356,0.06044471,0.14407906,0.41363007,-0.26794305,0.74829656,0.240706,0.034220736,-0.42635646,0.2663796,-0.37152454,802.23444,801.8315,788.5348,797.3993,639.0476,-0.07391357421875,0.0157470703125,1.0142822265625,1.9439697265625,1.024322509765625,1.308441162109375,1,1.0,1.0,1.0,1.0,10.00
2024-10-11 20:47:15.438,-0.14222832,-0.0017491154,0.17920415,-0.35123995,-0.07347003,-0.3147948,-0.10738423,-0.051088557,0.05455767,0.16350356,0.06044471,0.14407906,0.41363007,-0.26794305,0.74829656,0.240706,0.034220736,-0.42635646,0.2663796,-0.37152454,806.26373,803.44324,791.3553,804.2491,760.32965,-0.07391357421875,0.0157470703125,1.0142822265625,1.9439697265625,1.024322509765625,1.308441162109375,1,1.0,1.0,1.0,1.0,10.00
2024-10-11 20:47:15.439,-0.14222832,-0.0017491154,0.17920415,-0.35123995,-0.07347003,-0.3147948,-0.10738423,-0.051088557,0.05455767,0.16350356,0.06044471,0.14407906,0.41363007,-0.26794305,0.74829656,0.240706,0.034220736,-0.42635646,0.2663796,-0.37152454,800.2198,794.57874,793.36993,813.1135,984.35895,-0.07391357421875,0.0157470703125,1.0142822265625,1.9439697265625,1.024322509765625,1.308441162109375,1,1.0,1.0,1.0,1.0,10.00
2024-10-11 20:47:15.439,-0.14222832,-0.0017491154,0.17920415,-0.35123995,-0.07347003,-0.3147948,-0.10738423,-0.051088557,0.05455767,0.16350356,0.06044471,0.14407906,0.41363007,-0.26794305,0.74829656,0.240706,0.034220736,-0.42635646,0.2663796,-0.37152454,793.36993,795.78754,794.9817,815.5311,803.8461,-0.07391357421875,0.0157470703125,1.0142822265625,1.9439697265625,1.024322509765625,1.308441162109375,1,1.0,1.0,1.0,1.0,10.00
2024-10-11 20:47:15.440,-0.21817063,-0.008531011,0.16517383,-0.4057365,-0.13002871,-0.30873677,-0.062243685,-0.11635341,-0.010133764,0.16350356,-0.018993989,0.07631934,0.4182344,-0.26815167,0.7379441,0.22022015,0.030642783,-0.4028142,0.2798482,-0.4319339,793.7729,795.38464,817.5458,814.7253,676.9231,-0.07391357421875,0.0157470703125,1.0142822265625,1.9439697265625,1.024322509765625,1.308441162109375,1,1.0,1.0,1.0,1.0,10.00
2024-10-11 20:47:15.446,-0.21817063,-0.008531011,0.16517383,-0.4057365,-0.13002871,-0.30873677,-0.062243685,-0.11635341,-0.010133764,0.16350356,-0.018993989,0.07631934,0.4182344,-0.26815167,0.7379441,0.22022015,0.030642783,-0.4028142,0.2798482,-0.4319339,803.44324,793.36993,818.3516,809.4872,825.2015,-0.07391357421875,0.0157470703125,1.0142822265625,1.9439697265625,1.024322509765625,1.308441162109375,1,1.0,1.0,1.0,1.0,10.00
2024-10-11 20:47:15.447,-0.21817063,-0.008531011,0.16517383,-0.4057365,-0.13002871,-0.30873677,-0.062243685,-0.11635341,-0.010133764,0.16350356,-0.018993989,0.07631934,0.4182344,-0.26815167,0.7379441,0.22022015,0.030642783,-0.4028142,0.2798482,-0.4319339,802.23444,795.78754,803.8461,807.0696,913.8461,-0.07391357421875,0.0157470703125,1.0142822265625,1.9439697265625,1.024322509765625,1.308441162109375,1,1.0,1.0,1.0,1.0,10.00
2024-10-11 20:47:15.448,-0.21817063,-0.008531011,0.16517383,-0.4057365,-0.13002871,-0.30873677,-0.062243685,-0.11635341,-0.010133764,0.16350356,-0.018993989,0.07631934,0.4182344,-0.26815167,0.7379441,0.22022015,0.030642783,-0.4028142,0.2798482,-0.4319339,809.89014,799.011,804.2491,807.47253,704.7253,-0.07391357421875,0.0157470703125,1.0142822265625,1.9439697265625,1.024322509765625,1.308441162109375,1,1.0,1.0,1.0,1.0,10.00
2024-10-11 20:47:15.449,-0.21817063,-0.008531011,0.16517383,-0.4057365,-0.13002871,-0.30873677,-0.062243685,-0.11635341,-0.010133764,0.16350356,-0.018993989,0.07631934,0.4182344,-0.26815167,0.7379441,0.22022015,0.030642783,-0.4028142,0.2798482,-0.4319339,816.7399,799.81683,803.8461,805.05493,725.6777,-0.07391357421875,0.0157470703125,1.0142822265625,1.9439697265625,1.024322509765625,1.308441162109375,1,1.0,1.0,1.0,1.0,10.00
2024-10-11 20:47:15.515,-0.21817063,-0.008531011,0.16517383,-0.4057365,-0.13002871,-0.30873677,-0.062243685,-0.11635341,-0.010133764,0.16350356,-0.018993989,0.07631934,0.4182344,-0.26815167,0.7379441,0.22022015,0.030642783,-0.4028142,0.2798482,-0.4319339,813.1135,796.99634,793.36993,807.47253,903.7729,-0.07391357421875,0.0157470703125,1.0142822265625,1.9439697265625,1.024322509765625,1.308441162109375,1,1.0,1.0,1.0,1.0,10.00
2024-10-11 20:47:15.516,-0.21817063,-0.008531011,0.16517383,-0.4057365,-0.13002871,-0.30873677,-0.062243685,-0.11635341,-0.010133764,0.16350356,-0.018993989,0.07631934,0.4182344,-0.26815167,0.7379441,0.22022015,0.030642783,-0.4028142,0.2798482,-0.4319339,813.1135,796.1905,781.685,807.8755,863.0769,-0.07391357421875,0.0157470703125,1.0142822265625,1.9439697265625,1.024322509765625,1.308441162109375,1,1.0,1.0,1.0,1.0,10.00
2024-10-11 20:47:15.517,-0.21817063,-0.008531011,0.16517383,-0.4057365,-0.13002871,-0.30873677,-0.062243685,-0.11635341,-0.010133764,0.16350356,-0.018993989,0.07631934,0.4182344,-0.26815167,0.7379441,0.22022015,0.030642783,-0.4028142,0.2798482,-0.4319339,807.0696,796.99634,784.90845,804.2491,691.02563,-0.07391357421875,0.0157470703125,1.0142822265625,1.9439697265625,1.024322509765625,1.308441162109375,1,1.0,1.0,1.0,1.0,10.00
2024-10-11 20:47:15.518,-0.21817063,-0.008531011,0.16517383,-0.4057365,-0.13002871,-0.30873677,-0.062243685,-0.11635341,-0.010133764,0.16350356,-0.018993989,0.07631934,0.4182344,-0.26815167,0.7379441,0.22022015,0.030642783,-0.4028142,0.2798482,-0.4319339,807.47253,795.78754,798.20514,808.2784,625.7509,-0.07391357421875,0.0157470703125,1.0142822265625,1.9439697265625,1.024322509765625,1.308441162109375,1,1.0,1.0,1.0,1.0,10.00
2024-10-11 20:47:15.519,-0.21817063,-0.008531011,0.16517383,-0.4057365,-0.13002871,-0.30873677,-0.062243685,-0.11635341,-0.010133764,0.16350356,-0.018993989,0.07631934,0.4182344,-0.26815167,0.7379441,0.22022015,0.030642783,-0.4028142,0.2798482,-0.4319339,807.47253,793.36993,808.2784,806.26373,736.55676,-0.07391357421875,0.0157470703125,1.0142822265625,1.9439697265625,1.024322509765625,1.308441162109375,1,1.0,1.0,1.0,1.0,10.00
2024-10-11 20:47:15.520,-0.21817063,-0.008531011,0.16517383,-0.4057365,-0.13002871,-0.30873677,-0.062243685,-0.11635341,-0.010133764,0.16350356,-0.018993989,0.07631934,0.4182344,-0.26815167,0.7379441,0.22022015,0.030642783,-0.4028142,0.2798482,-0.4319339,801.02563,792.5641,808.2784,802.23444,820.7692,-0.07391357421875,0.0157470703125,1.0142822265625,1.9439697265625,1.024322509765625,1.308441162109375,1,1.0,1.0,1.0,1.0,10.00
2024-10-11 20:47:15.522,-0.21817063,-0.008531011,0.16517383,-0.4057365,-0.13002871,-0.30873677,-0.062243685,-0.11635341,-0.010133764,0.16350356,-0.018993989,0.07631934,0.4182344,-0.26815167,0.7379441,0.22022015,0.030642783,-0.4028142,0.2798482,-0.4319339,799.011,792.96704,807.8755,801.4286,774.43225,-0.07391357421875,0.0157470703125,1.0142822265625,1.9439697265625,1.024322509765625,1.308441162109375,1,1.0,1.0,1.0,1.0,10.00
2024-10-11 20:47:15.523,-0.21817063,-0.008531011,0.16517383,-0.4057365,-0.13002871,-0.30873677,-0.062243685,-0.11635341,-0.010133764,0.16350356,-0.018993989,0.07631934,0.4182344,-0.26815167,0.7379441,0.22022015,0.030642783,-0.4028142,0.2798482,-0.4319339,797.3993,788.1319,812.71063,799.011,712.7839,-0.07391357421875,0.0157470703125,1.0142822265625,1.9439697265625,1.024322509765625,1.308441162109375,1,1.0,1.0,1.0,1.0,10.00
2024-10-11 20:47:15.524,-0.21817063,-0.008531011,0.16517383,-0.4057365,-0.13002871,-0.30873677,-0.062243685,-0.11635341,-0.010133764,0.16350356,-0.018993989,0.07631934,0.4182344,-0.26815167,0.7379441,0.22022015,0.030642783,-0.4028142,0.2798482,-0.4319339,801.02563,788.5348,809.0842,806.26373,954.1392,-0.07391357421875,0.0157470703125,1.0142822265625,1.9439697265625,1.024322509765625,1.308441162109375,1,1.0,1.0,1.0,1.0,10.00
2024-10-11 20:47:15.525,-0.21817063,-0.008531011,0.16517383,-0.4057365,-0.13002871,-0.30873677,-0.062243685,-0.11635341,-0.010133764,0.16350356,-0.018993989,0.07631934,0.4182344,-0.26815167,0.7379441,0.22022015,0.030642783,-0.4028142,0.2798482,-0.4319339,809.89014,793.36993,801.02563,813.1135,1035.1282,-0.07391357421875,0.0157470703125,1.0142822265625,1.9439697265625,1.024322509765625,1.308441162109375,1,1.0,1.0,1.0,1.0,10.00
2024-10-11 20:47:15.526,-0.21817063,-0.008531011,0.16517383,-0.4057365,-0.13002871,-0.30873677,-0.062243685,-0.11635341,-0.010133764,0.16350356,-0.018993989,0.07631934,0.4182344,-0.26815167,0.7379441,0.22022015,0.030642783,-0.4028142,0.2798482,-0.4319339,809.4872,795.78754,796.5934,803.0403,632.1978,-0.07391357421875,0.0157470703125,1.0142822265625,1.9439697265625,1.024322509765625,1.308441162109375,1,1.0,1.0,1.0,1.0,10.00
2024-10-11 20:47:15.527,-0.21817063,-0.008531011,0.16517383,-0.4057365,-0.13002871,-0.30873677,-0.062243685,-0.11635341,-0.010133764,0.16350356,-0.018993989,0.07631934,0.4182344,-0.26815167,0.7379441,0.22022015,0.030642783,-0.4028142,0.2798482,-0.4319339,801.8315,799.011,794.9817,800.6227,696.6667,-0.07391357421875,0.0157470703125,1.0142822265625,1.9439697265625,1.024322509765625,1.308441162109375,1,1.0,1.0,1.0,1.0,10.00
2024-10-11 20:47:15.529,-0.21817063,-0.008531011,0.16517383,-0.4057365,-0.13002871,-0.30873677,-0.062243685,-0.11635341,-0.010133764,0.16350356,-0.018993989,0.07631934,0.4182344,-0.26815167,0.7379441,0.22022015,0.030642783,-0.4028142,0.2798482,-0.4319339,802.6374,799.41394,794.17584,807.0696,793.36993,-0.07958984375,0.00738525390625,1.01141357421875,-1.173858642578125,-1.5252685546875,1.069183349609375,1,1.0,1.0,1.0,1.0,10.00
2024-10-11 20:47:15.530,-0.21817063,-0.008531011,0.16517383,-0.4057365,-0.13002871,-0.30873677,-0.062243685,-0.11635341,-0.010133764,0.16350356,-0.018993989,0.07631934,0.4182344,-0.26815167,0.7379441,0.22022015,0.030642783,-0.4028142,0.2798482,-0.4319339,803.0403,799.41394,804.2491,809.4872,661.6117,-0.07958984375,0.00738525390625,1.01141357421875,-1.173858642578125,-1.5252685546875,1.069183349609375,1,1.0,1.0,1.0,1.0,10.00
2024-10-11 20:47:15.531,-0.21817063,-0.008531011,0.16517383,-0.4057365,-0.13002871,-0.30873677,-0.062243685,-0.11635341,-0.010133764,0.16350356,-0.018993989,0.07631934,0.4182344,-0.26815167,0.7379441,0.22022015,0.030642783,-0.4028142,0.2798482,-0.4319339,806.6667,799.81683,807.0696,802.6374,613.2601,-0.07958984375,0.00738525390625,1.01141357421875,-1.173858642578125,-1.5252685546875,1.069183349609375,1,1.0,1.0,1.0,1.0,10.00
2024-10-11 20:47:15.532,-0.21817063,-0.008531011,0.16517383,-0.4057365,-0.13002871,-0.30873677,-0.062243685,-0.11635341,-0.010133764,0.16350356,-0.018993989,0.07631934,0.4182344,-0.26815167,0.7379441,0.22022015,0.030642783,-0.4028142,0.2798482,-0.4319339,806.26373,794.57874,803.44324,804.65204,689.011,-0.07958984375,0.00738525390625,1.01141357421875,-1.173858642578125,-1.5252685546875,1.069183349609375,1,1.0,1.0,1.0,1.0,10.00
2024-10-11 20:47:15.533,-0.21817063,-0.008531011,0.16517383,-0.4057365,-0.13002871,-0.30873677,-0.062243685,-0.11635341,-0.010133764,0.16350356,-0.018993989,0.07631934,0.4182344,-0.26815167,0.7379441,0.22022015,0.030642783,-0.4028142,0.2798482,-0.4319339,806.6667,794.17584,796.1905,811.50183,665.64105,-0.07958984375,0.00738525390625,1.01141357421875,-1.173858642578125,-1.5252685546875,1.069183349609375,1,1.0,1.0,1.0,1.0,10.00
2024-10-11 20:47:15.533,-0.21817063,-0.008531011,0.16517383,-0.4057365,-0.13002871,-0.30873677,-0.062243685,-0.11635341,-0.010133764,0.16350356,-0.018993989,0.07631934,0.4182344,-0.26815167,0.7379441,0.22022015,0.030642783,-0.4028142,0.2798482,-0.4319339,803.0403,796.5934,793.7729,809.0842,733.3333,-0.07958984375,0.00738525390625,1.01141357421875,-1.173858642578125,-1.5252685546875,1.069183349609375,1,1.0,1.0,1.0,1.0,10.00
2024-10-11 20:47:15.534,-0.21817063,-0.008531011,0.16517383,-0.4057365,-0.13002871,-0.30873677,-0.062243685,-0.11635341,-0.010133764,0.16350356,-0.018993989,0.07631934,0.4182344,-0.26815167,0.7379441,0.22022015,0.030642783,-0.4028142,0.2798482,-0.4319339,794.57874,799.81683,799.81683,806.6667,850.18317,-0.07958984375,0.00738525390625,1.01141357421875,-1.173858642578125,-1.5252685546875,1.069183349609375,1,1.0,1.0,1.0,1.0,10.00
2024-10-11 20:47:15.535,-0.21817063,-0.008531011,0.16517383,-0.4057365,-0.13002871,-0.30873677,-0.062243685,-0.11635341,-0.010133764,0.16350356,-0.018993989,0.07631934,0.4182344,-0.26815167,0.7379441,0.22022015,0.030642783,-0.4028142,0.2798482,-0.4319339,796.99634,801.4286,803.8461,809.0842,959.7802,-0.07958984375,0.00738525390625,1.01141357421875,-1.173858642578125,-1.5252685546875,1.069183349609375,1,1.0,1.0,1.0,1.0,10.00
2024-10-11 20:47:15.536,-0.21817063,-0.008531011,0.16517383,-0.4057365,-0.13002871,-0.30873677,-0.062243685,-0.11635341,-0.010133764,0.16350356,-0.018993989,0.07631934,0.4182344,-0.26815167,0.7379441,0.22022015,0.030642783,-0.4028142,0.2798482,-0.4319339,800.2198,798.60803,796.5934,809.4872,883.22345,-0.07958984375,0.00738525390625,1.01141357421875,-1.173858642578125,-1.5252685546875,1.069183349609375,1,1.0,1.0,1.0,1.0,10.00
2024-10-11 20:47:15.538,-0.21817063,-0.022766924,0.16253136,-0.4057365,-0.13002871,-0.29913598,-0.0034743086,-0.11635341,-0.010133764,0.16350356,-0.08707353,0.07631934,0.4182344,-0.2563815,0.73211044,0.22022015,0.030642783,-0.38749844,0.2922591,-0.4319339,792.96704,798.20514,782.0879,797.3993,664.83514,-0.07958984375,0.00738525390625,1.01141357421875,-1.173858642578125,-1.5252685546875,1.069183349609375,1,1.0,1.0,1.0,1.0,10.00
2024-10-11 20:47:15.543,-0.21817063,-0.022766924,0.16253136,-0.4057365,-0.13002871,-0.29913598,-0.0034743086,-0.11635341,-0.010133764,0.16350356,-0.08707353,0.07631934,0.4182344,-0.2563815,0.73211044,0.22022015,0.030642783,-0.38749844,0.2922591,-0.4319339,793.7729,800.6227,792.1612,794.9817,663.22345,-0.07958984375,0.00738525390625,1.01141357421875,-1.173858642578125,-1.5252685546875,1.069183349609375,1,1.0,1.0,1.0,1.0,10.00
2024-10-11 20:47:15.544,-0.21817063,-0.022766924,0.16253136,-0.4057365,-0.13002871,-0.29913598,-0.0034743086,-0.11635341,-0.010133764,0.16350356,-0.08707353,0.07631934,0.4182344,-0.2563815,0.73211044,0.22022015,0.030642783,-0.38749844,0.2922591,-0.4319339,799.011,799.41394,800.2198,813.91943,836.4835,-0.07958984375,0.00738525390625,1.01141357421875,-1.173858642578125,-1.5252685546875,1.069183349609375,1,1.0,1.0,1.0,1.0,10.00
2024-10-11 20:47:15.582,-0.21817063,-0.022766924,0.16253136,-0.4057365,-0.13002871,-0.29913598,-0.0034743086,-0.11635341,-0.010133764,0.16350356,-0.08707353,0.07631934,0.4182344,-0.2563815,0.73211044,0.22022015,0.030642783,-0.38749844,0.2922591,-0.4319339,796.99634,799.011,800.6227,804.2491,894.10254,-0.07220458984375,-0.00689697265625,1.00750732421875,-1.12152099609375,-1.973876953125,-2.67669677734375,1,1.0,1.0,1.0,1.0,10.00
2024-10-11 20:47:15.584,-0.21817063,-0.022766924,0.16253136,-0.4057365,-0.13002871,-0.29913598,-0.0034743086,-0.11635341,-0.010133764,0.16350356,-0.08707353,0.07631934,0.4182344,-0.2563815,0.73211044,0.22022015,0.030642783,-0.38749844,0.2922591,-0.4319339,802.23444,797.8022,791.75824,778.86444,786.52014,-0.07220458984375,-0.00689697265625,1.00750732421875,-1.12152099609375,-1.973876953125,-2.67669677734375,1,1.0,1.0,1.0,1.0,10.00
2024-10-11 20:47:15.585,-0.21817063,-0.022766924,0.16253136,-0.4057365,-0.13002871,-0.29913598,-0.0034743086,-0.11635341,-0.010133764,0.16350356,-0.08707353,0.07631934,0.4182344,-0.2563815,0.73211044,0.22022015,0.030642783,-0.38749844,0.2922591,-0.4319339,800.2198,798.20514,787.326,784.5055,694.65204,-0.07220458984375,-0.00689697265625,1.00750732421875,-1.12152099609375,-1.973876953125,-2.67669677734375,1,1.0,1.0,1.0,1.0,10.00
2024-10-11 20:47:15.588,-0.21817063,-0.022766924,0.16253136,-0.4057365,-0.13002871,-0.29913598,-0.0034743086,-0.11635341,-0.010133764,0.16350356,-0.08707353,0.07631934,0.4182344,-0.2563815,0.73211044,0.22022015,0.030642783,-0.38749844,0.2922591,-0.4319339,794.17584,796.5934,797.8022,790.9524,807.47253,-0.07220458984375,-0.00689697265625,1.00750732421875,-1.12152099609375,-1.973876953125,-2.67669677734375,1,1.0,1.0,1.0,1.0,10.00
2024-10-11 20:47:15.589,-0.21817063,-0.022766924,0.16253136,-0.4057365,-0.13002871,-0.29913598,-0.0034743086,-0.11635341,-0.010133764,0.16350356,-0.08707353,0.07631934,0.4182344,-0.2563815,0.73211044,0.22022015,0.030642783,-0.38749844,0.2922591,-0.4319339,790.54944,798.60803,808.2784,788.93774,753.0769,-0.07220458984375,-0.00689697265625,1.00750732421875,-1.12152099609375,-1.973876953125,-2.67669677734375,1,1.0,1.0,1.0,1.0,10.00
2024-10-11 20:47:15.590,-0.21817063,-0.022766924,0.16253136,-0.4057365,-0.13002871,-0.29913598,-0.0034743086,-0.11635341,-0.010133764,0.16350356,-0.08707353,0.07631934,0.4182344,-0.2563815,0.73211044,0.22022015,0.030642783,-0.38749844,0.2922591,-0.4319339,783.69965,796.99634,811.50183,794.9817,602.7839,-0.07220458984375,-0.00689697265625,1.00750732421875,-1.12152099609375,-1.973876953125,-2.67669677734375,1,1.0,1.0,1.0,1.0,10.00
2024-10-11 20:47:15.592,-0.21817063,-0.022766924,0.16253136,-0.4057365,-0.13002871,-0.29913598,-0.0034743086,-0.11635341,-0.010133764,0.16350356,-0.08707353,0.07631934,0.4182344,-0.2563815,0.73211044,0.22022015,0.030642783,-0.38749844,0.2922591,-0.4319339,794.17584,795.78754,804.65204,800.6227,803.0403,-0.07220458984375,-0.00689697265625,1.00750732421875,-1.12152099609375,-1.973876953125,-2.67669677734375,1,1.0,1.0,1.0,1.0,10.00
2024-10-11 20:47:15.592,-0.21817063,-0.022766924,0.16253136,-0.4057365,-0.13002871,-0.29913598,-0.0034743086,-0.11635341,-0.010133764,0.16350356,-0.08707353,0.07631934,0.4182344,-0.2563815,0.73211044,0.22022015,0.030642783,-0.38749844,0.2922591,-0.4319339,795.78754,796.5934,801.02563,801.02563,1001.685,-0.07220458984375,-0.00689697265625,1.00750732421875,-1.12152099609375,-1.973876953125,-2.67669677734375,1,1.0,1.0,1.0,1.0,10.00
2024-10-11 20:47:15.593,-0.21817063,-0.022766924,0.16253136,-0.4057365,-0.13002871,-0.29913598,-0.0034743086,-0.11635341,-0.010133764,0.16350356,-0.08707353,0.07631934,0.4182344,-0.2563815,0.73211044,0.22022015,0.030642783,-0.38749844,0.2922591,-0.4319339,788.5348,793.7729,794.9817,801.8315,758.71796,-0.07220458984375,-0.00689697265625,1.00750732421875,-1.12152099609375,-1.973876953125,-2.67669677734375,1,1.0,1.0,1.0,1.0,10.00
2024-10-11 20:47:15.594,-0.21817063,-0.022766924,0.16253136,-0.4057365,-0.13002871,-0.29913598,-0.0034743086,-0.11635341,-0.010133764,0.16350356,-0.08707353,0.07631934,0.4182344,-0.2563815,0.73211044,0.22022015,0.030642783,-0.38749844,0.2922591,-0.4319339,790.9524,796.99634,793.7729,804.65204,572.5641,-0.07220458984375,-0.00689697265625,1.00750732421875,-1.12152099609375,-1.973876953125,-2.67669677734375,1,1.0,1.0,1.0,1.0,10.00
2024-10-11 20:47:15.595,-0.21817063,-0.022766924,0.16253136,-0.4057365,-0.13002871,-0.29913598,-0.0034743086,-0.11635341,-0.010133764,0.16350356,-0.08707353,0.07631934,0.4182344,-0.2563815,0.73211044,0.22022015,0.030642783,-0.38749844,0.2922591,-0.4319339,794.17584,799.011,787.326,808.68134,763.5531,-0.07220458984375,-0.00689697265625,1.00750732421875,-1.12152099609375,-1.973876953125,-2.67669677734375,1,1.0,1.0,1.0,1.0,10.00
2024-10-11 20:47:15.596,-0.21817063,-0.022766924,0.16253136,-0.4057365,-0.13002871,-0.29913598,-0.0034743086,-0.11635341,-0.010133764,0.16350356,-0.08707353,0.07631934,0.4182344,-0.2563815,0.73211044,0.22022015,0.030642783,-0.38749844,0.2922591,-0.4319339,799.41394,793.7729,791.3553,810.696,1110.0732,-0.07220458984375,-0.00689697265625,1.00750732421875,-1.12152099609375,-1.973876953125,-2.67669677734375,1,1.0,1.0,1.0,1.0,10.00
2024-10-11 20:47:15.627,-0.21817063,-0.022766924,0.16253136,-0.4057365,-0.13002871,-0.29913598,-0.0034743086,-0.11635341,-0.010133764,0.16350356,-0.08707353,0.07631934,0.4182344,-0.2563815,0.73211044,0.22022015,0.030642783,-0.38749844,0.2922591,-0.4319339,802.23444,794.9817,806.26373,811.50183,1284.9451,-0.075439453125,-0.02032470703125,0.99859619140625,0.07476806640625,-1.68975830078125,-4.508514404296875,1,1.0,1.0,1.0,1.0,10.00
2024-10-11 20:47:15.628,-0.21817063,-0.022766924,0.16253136,-0.4057365,-0.13002871,-0.29913598,-0.0034743086,-0.11635341,-0.010133764,0.16350356,-0.08707353,0.07631934,0.4182344,-0.2563815,0.73211044,0.22022015,0.030642783,-0.38749844,0.2922591,-0.4319339,804.2491,799.41394,803.8461,803.44324,952.52747,-0.075439453125,-0.02032470703125,0.99859619140625,0.07476806640625,-1.68975830078125,-4.508514404296875,1,1.0,1.0,1.0,1.0,10.00
2024-10-11 20:47:15.629,-0.21817063,-0.022766924,0.16253136,-0.4057365,-0.13002871,-0.29913598,-0.0034743086,-0.11635341,-0.010133764,0.16350356,-0.08707353,0.07631934,0.4182344,-0.2563815,0.73211044,0.22022015,0.030642783,-0.38749844,0.2922591,-0.4319339,802.23444,797.8022,805.4579,796.99634,732.9304,-0.075439453125,-0.02032470703125,0.99859619140625,0.07476806640625,-1.68975830078125,-4.508514404296875,1,1.0,1.0,1.0,1.0,10.00
2024-10-11 20:47:15.630,-0.21817063,-0.022766924,0.16253136,-0.4057365,-0.13002871,-0.29913598,-0.0034743086,-0.11635341,-0.010133764,0.16350356,-0.08707353,0.07631934,0.4182344,-0.2563815,0.73211044,0.22022015,0.030642783,-0.38749844,0.2922591,-0.4319339,803.8461,794.17584,811.0989,804.65204,724.87177,-0.075439453125,-0.02032470703125,0.99859619140625,0.07476806640625,-1.68975830078125,-4.508514404296875,1,1.0,1.0,1.0,1.0,10.00
2024-10-11 20:47:15.631,-0.21817063,-0.022766924,0.16253136,-0.4057365,-0.13002871,-0.29913598,-0.0034743086,-0.11635341,-0.010133764,0.16350356,-0.08707353,0.07631934,0.4182344,-0.2563815,0.73211044,0.22022015,0.030642783,-0.38749844,0.2922591,-0.4319339,812.71063,796.99634,812.71063,808.68134,620.5128,-0.075439453125,-0.02032470703125,0.99859619140625,0.07476806640625,-1.68975830078125,-4.508514404296875,1,1.0,1.0,1.0,1.0,10.00
2024-10-11 20:47:15.631,-0.21817063,-0.022766924,0.16253136,-0.4057365,-0.13002871,-0.29913598,-0.0034743086,-0.11635341,-0.010133764,0.16350356,-0.08707353,0.07631934,0.4182344,-0.2563815,0.73211044,0.22022015,0.030642783,-0.38749844,0.2922591,-0.4319339,812.71063,801.4286,797.3993,804.65204,611.2454,-0.075439453125,-0.02032470703125,0.99859619140625,0.07476806640625,-1.68975830078125,-4.508514404296875,1,1.0,1.0,1.0,1.0,10.00
