TimeStamp,Delta_TP9,Delta_AF7,Delta_AF8,Delta_TP10,Theta_TP9,Theta_AF7,Theta_AF8,Theta_TP10,Alpha_TP9,Alpha_AF7,Alpha_AF8,Alpha_TP10,Beta_TP9,Beta_AF7,Beta_AF8,Beta_TP10,Gamma_TP9,Gamma_AF7,Gamma_AF8,Gamma_TP10,RAW_TP9,RAW_AF7,RAW_AF8,RAW_TP10,AUX_RIGHT,Accelerometer_X,Accelerometer_Y,Accelerometer_Z,Gyro_X,Gyro_Y,Gyro_Z,HeadBandOn,HSI_TP9,HSI_AF7,HSI_AF8,HSI_TP10,Battery,Elements
2024-10-11 20:47:46.450,0.766367,0.93076015,1.0432191,1.0980268,0.79590005,0.3070738,0.8888752,1.1411275,1.1381503,0.24572168,0.6388472,0.93439364,0.7238151,0.005337287,0.72491014,0.8185831,0.23967391,-0.2599229,0.43306717,0.174988,801.8315,797.3993,773.6264,806.6667,961.79486,0.0618896484375,0.1048583984375,1.00982666015625,-7.738494873046875,13.35357666015625,13.989105224609375,1,1.0,1.0,1.0,1.0,10.00
2024-10-11 20:47:46.451,0.766367,0.93076015,1.0432191,1.0980268,0.79590005,0.3070738,0.8888752,1.1411275,1.1381503,0.24572168,0.6388472,0.93439364,0.7238151,0.005337287,0.72491014,0.8185831,0.23967391,-0.2599229,0.43306717,0.174988,812.71063,797.8022,782.0879,813.1135,573.36993,0.0618896484375,0.1048583984375,1.00982666015625,-7.738494873046875,13.35357666015625,13.989105224609375,1,1.0,1.0,1.0,1.0,10.00
2024-10-11 20:47:46.453,0.766367,0.93076015,1.0432191,1.0980268,0.79590005,0.3070738,0.8888752,1.1411275,1.1381503,0.24572168,0.6388472,0.93439364,0.7238151,0.005337287,0.72491014,0.8185831,0.23967391,-0.2599229,0.43306717,0.174988,825.6044,793.7729,799.41394,820.7692,649.12085,0.0618896484375,0.1048583984375,1.00982666015625,-7.738494873046875,13.35357666015625,13.989105224609375,1,1.0,1.0,1.0,1.0,10.00
2024-10-11 20:47:46.455,0.766367,0.93076015,1.0432191,1.0980268,0.79590005,0.3070738,0.8888752,1.1411275,1.1381503,0.24572168,0.6388472,0.93439364,0.7238151,0.005337287,0.72491014,0.8185831,0.23967391,-0.2599229,0.43306717,0.174988,793.7729,799.011,800.2198,790.54944,784.90845,0.0618896484375,0.1048583984375,1.00982666015625,-7.738494873046875,13.35357666015625,13.989105224609375,1,1.0,1.0,1.0,1.0,10.00
2024-10-11 20:47:46.458,0.766367,0.93076015,1.0432191,1.0980268,0.79590005,0.3070738,0.8888752,1.1411275,1.1381503,0.24572168,0.6388472,0.93439364,0.7238151,0.005337287,0.72491014,0.8185831,0.23967391,-0.2599229,0.43306717,0.174988,784.10254,796.5934,791.75824,775.2381,791.75824,0.0618896484375,0.1048583984375,1.00982666015625,-7.738494873046875,13.35357666015625,13.989105224609375,1,1.0,1.0,1.0,1.0,10.00
2024-10-11 20:47:46.459,0.766367,0.8662868,1.0432191,1.0980268,0.79590005,0.2993298,0.8888752,1.1411275,1.1381503,0.2345784,0.6388472,0.93439364,0.7238151,0.0096790185,0.72491014,0.8185831,0.23967391,-0.29842126,0.43306717,0.174988,795.38464,795.38464,800.2198,785.7143,802.6374,0.0618896484375,0.1048583984375,1.00982666015625,-7.738494873046875,13.35357666015625,13.989105224609375,1,1.0,1.0,1.0,1.0,10.00
2024-10-11 20:47:46.467,0.766367,0.8662868,1.0432191,1.0980268,0.79590005,0.2993298,0.8888752,1.1411275,1.1381503,0.2345784,0.6388472,0.93439364,0.7238151,0.0096790185,0.72491014,0.8185831,0.23967391,-0.29842126,0.43306717,0.174988,791.3553,800.6227,801.02563,789.7436,886.04395,0.0618896484375,0.1048583984375,1.00982666015625,-7.738494873046875,13.35357666015625,13.989105224609375,1,1.0,1.0,1.0,1.0,10.00
2024-10-11 20:47:46.468,0.766367,0.8662868,1.0432191,1.0980268,0.79590005,0.2993298,0.8888752,1.1411275,1.1381503,0.2345784,0.6388472,0.93439364,0.7238151,0.0096790185,0.72491014,0.8185831,0.23967391,-0.29842126,0.43306717,0.174988,784.10254,799.41394,784.90845,792.1612,1191.4652,0.0618896484375,0.1048583984375,1.00982666015625,-7.738494873046875,13.35357666015625,13.989105224609375,1,1.0,1.0,1.0,1.0,10.00
2024-10-11 20:47:46.469,0.766367,0.8662868,1.0432191,1.0980268,0.79590005,0.2993298,0.8888752,1.1411275,1.1381503,0.2345784,0.6388472,0.93439364,0.7238151,0.0096790185,0.72491014,0.8185831,0.23967391,-0.29842126,0.43306717,0.174988,780.07324,804.65204,790.14655,792.1612,1015.78754,0.0618896484375,0.1048583984375,1.00982666015625,-7.738494873046875,13.35357666015625,13.989105224609375,1,1.0,1.0,1.0,1.0,10.00
2024-10-11 20:47:46.470,0.766367,0.8662868,1.0432191,1.0980268,0.79590005,0.2993298,0.8888752,1.1411275,1.1381503,0.2345784,0.6388472,0.93439364,0.7238151,0.0096790185,0.72491014,0.8185831,0.23967391,-0.29842126,0.43306717,0.174988,782.49084,807.47253,811.50183,796.1905,645.09155,0.0618896484375,0.1048583984375,1.00982666015625,-7.738494873046875,13.35357666015625,13.989105224609375,1,1.0,1.0,1.0,1.0,10.00
2024-10-11 20:47:46.472,0.766367,0.8662868,1.0432191,1.0980268,0.79590005,0.2993298,0.8888752,1.1411275,1.1381503,0.2345784,0.6388472,0.93439364,0.7238151,0.0096790185,0.72491014,0.8185831,0.23967391,-0.29842126,0.43306717,0.174988,778.46155,799.41394,825.2015,796.99634,687.8022,0.0618896484375,0.1048583984375,1.00982666015625,-7.738494873046875,13.35357666015625,13.989105224609375,1,1.0,1.0,1.0,1.0,10.00
2024-10-11 20:47:46.473,0.766367,0.8662868,1.0432191,1.0980268,0.79590005,0.2993298,0.8888752,1.1411275,1.1381503,0.2345784,0.6388472,0.93439364,0.7238151,0.0096790185,0.72491014,0.8185831,0.23967391,-0.29842126,0.43306717,0.174988,767.98535,802.23444,818.7546,783.69965,684.17584,0.0618896484375,0.1048583984375,1.00982666015625,-7.738494873046875,13.35357666015625,13.989105224609375,1,1.0,1.0,1.0,1.0,10.00
2024-10-11 20:47:46.563,0.766367,0.8662868,1.0432191,1.0980268,0.79590005,0.2993298,0.8888752,1.1411275,1.1381503,0.2345784,0.6388472,0.93439364,0.7238151,0.0096790185,0.72491014,0.8185831,0.23967391,-0.29842126,0.43306717,0.174988,768.7912,807.0696,804.2491,782.49084,628.97437,0.04827880859375,0.10675048828125,1.0174560546875,-12.673187255859375,19.1705322265625,10.826416015625,1,1.0,1.0,1.0,1.0,10.00
2024-10-11 20:47:46.565,0.766367,0.8662868,1.0432191,1.0980268,0.79590005,0.2993298,0.8888752,1.1411275,1.1381503,0.2345784,0.6388472,0.93439364,0.7238151,0.0096790185,0.72491014,0.8185831,0.23967391,-0.29842126,0.43306717,0.174988,778.46155,804.2491,800.2198,784.90845,679.7436,0.04827880859375,0.10675048828125,1.0174560546875,-12.673187255859375,19.1705322265625,10.826416015625,1,1.0,1.0,1.0,1.0,10.00
2024-10-11 20:47:46.566,0.766367,0.8662868,1.0432191,1.0980268,0.79590005,0.2993298,0.8888752,1.1411275,1.1381503,0.2345784,0.6388472,0.93439364,0.7238151,0.0096790185,0.72491014,0.8185831,0.23967391,-0.29842126,0.43306717,0.174988,777.6557,804.2491,809.89014,780.4762,747.03296,0.04827880859375,0.10675048828125,1.0174560546875,-12.673187255859375,19.1705322265625,10.826416015625,1,1.0,1.0,1.0,1.0,10.00
2024-10-11 20:47:46.568,0.766367,0.8662868,1.0432191,1.0980268,0.79590005,0.2993298,0.8888752,1.1411275,1.1381503,0.2345784,0.6388472,0.93439364,0.7238151,0.0096790185,0.72491014,0.8185831,0.23967391,-0.29842126,0.43306717,0.174988,780.07324,804.65204,814.7253,783.2967,740.58606,0.04827880859375,0.10675048828125,1.0174560546875,-12.673187255859375,19.1705322265625,10.826416015625,1,1.0,1.0,1.0,1.0,10.00
2024-10-11 20:47:46.569,0.766367,0.8662868,1.0432191,1.0980268,0.79590005,0.2993298,0.8888752,1.1411275,1.1381503,0.2345784,0.6388472,0.93439364,0.7238151,0.0096790185,0.72491014,0.8185831,0.23967391,-0.29842126,0.43306717,0.174988,783.69965,803.8461,810.293,784.10254,732.1245,0.04827880859375,0.10675048828125,1.0174560546875,-12.673187255859375,19.1705322265625,10.826416015625,1,1.0,1.0,1.0,1.0,10.00
2024-10-11 20:47:46.569,0.766367,0.8662868,1.0432191,1.0980268,0.79590005,0.2993298,0.8888752,1.1411275,1.1381503,0.2345784,0.6388472,0.93439364,0.7238151,0.0096790185,0.72491014,0.8185831,0.23967391,-0.29842126,0.43306717,0.174988,792.5641,801.02563,801.02563,780.87915,774.43225,0.04827880859375,0.10675048828125,1.0174560546875,-12.673187255859375,19.1705322265625,10.826416015625,1,1.0,1.0,1.0,1.0,10.00
2024-10-11 20:47:46.570,0.766367,0.8662868,1.0432191,1.0980268,0.79590005,0.2993298,0.8888752,1.1411275,1.1381503,0.2345784,0.6388472,0.93439364,0.7238151,0.0096790185,0.72491014,0.8185831,0.23967391,-0.29842126,0.43306717,0.174988,784.90845,798.20514,796.1905,781.28204,948.9011,0.04827880859375,0.10675048828125,1.0174560546875,-12.673187255859375,19.1705322265625,10.826416015625,1,1.0,1.0,1.0,1.0,10.00
2024-10-11 20:47:46.571,0.766367,0.8662868,1.0432191,1.0980268,0.79590005,0.2993298,0.8888752,1.1411275,1.1381503,0.2345784,0.6388472,0.93439364,0.7238151,0.0096790185,0.72491014,0.8185831,0.23967391,-0.29842126,0.43306717,0.174988,769.59705,796.5934,803.0403,779.67035,834.87177,0.04827880859375,0.10675048828125,1.0174560546875,-12.673187255859375,19.1705322265625,10.826416015625,1,1.0,1.0,1.0,1.0,10.00
2024-10-11 20:47:46.572,0.766367,0.8662868,1.0432191,1.0980268,0.79590005,0.2993298,0.8888752,1.1411275,1.1381503,0.2345784,0.6388472,0.93439364,0.7238151,0.0096790185,0.72491014,0.8185831,0.23967391,-0.29842126,0.43306717,0.174988,774.83514,799.011,808.2784,786.1172,601.5751,0.04827880859375,0.10675048828125,1.0174560546875,-12.673187255859375,19.1705322265625,10.826416015625,1,1.0,1.0,1.0,1.0,10.00
2024-10-11 20:47:46.573,0.766367,0.8662868,1.0432191,1.0980268,0.79590005,0.2993298,0.8888752,1.1411275,1.1381503,0.2345784,0.6388472,0.93439364,0.7238151,0.0096790185,0.72491014,0.8185831,0.23967391,-0.29842126,0.43306717,0.174988,777.25275,799.81683,785.7143,784.5055,575.38464,0.04827880859375,0.10675048828125,1.0174560546875,-12.673187255859375,19.1705322265625,10.826416015625,1,1.0,1.0,1.0,1.0,10.00
2024-10-11 20:47:46.574,0.766367,0.8662868,1.0432191,1.0980268,0.79590005,0.2993298,0.8888752,1.1411275,1.1381503,0.2345784,0.6388472,0.93439364,0.7238151,0.0096790185,0.72491014,0.8185831,0.23967391,-0.29842126,0.43306717,0.174988,780.4762,794.17584,772.8205,782.0879,940.0366,0.04827880859375,0.10675048828125,1.0174560546875,-12.673187255859375,19.1705322265625,10.826416015625,1,1.0,1.0,1.0,1.0,10.00
2024-10-11 20:47:46.575,0.766367,0.8662868,1.0432191,1.0980268,0.79590005,0.2993298,0.8888752,1.1411275,1.1381503,0.2345784,0.6388472,0.93439364,0.7238151,0.0096790185,0.72491014,0.8185831,0.23967391,-0.29842126,0.43306717,0.174988,784.10254,794.57874,801.8315,790.54944,1091.5385,0.04827880859375,0.10675048828125,1.0174560546875,-12.673187255859375,19.1705322265625,10.826416015625,1,1.0,1.0,1.0,1.0,10.00
2024-10-11 20:47:46.576,0.766367,0.8662868,1.0432191,1.0980268,0.79590005,0.2993298,0.8888752,1.1411275,1.1381503,0.2345784,0.6388472,0.93439364,0.7238151,0.0096790185,0.72491014,0.8185831,0.23967391,-0.29842126,0.43306717,0.174988,788.93774,798.60803,817.5458,783.69965,699.89014,0.01983642578125,0.07733154296875,1.00726318359375,-18.04901123046875,21.929473876953125,12.613372802734375,1,1.0,1.0,1.0,1.0,10.00
2024-10-11 20:47:46.577,0.766367,0.8662868,1.0432191,1.0980268,0.79590005,0.2993298,0.8888752,1.1411275,1.1381503,0.2345784,0.6388472,0.93439364,0.7238151,0.0096790185,0.72491014,0.8185831,0.23967391,-0.29842126,0.43306717,0.174988,790.14655,796.1905,816.337,783.2967,687.8022,0.01983642578125,0.07733154296875,1.00726318359375,-18.04901123046875,21.929473876953125,12.613372802734375,1,1.0,1.0,1.0,1.0,10.00
2024-10-11 20:47:46.578,0.766367,0.8662868,1.0432191,1.0980268,0.79590005,0.2993298,0.8888752,1.1411275,1.1381503,0.2345784,0.6388472,0.93439364,0.7238151,0.0096790185,0.72491014,0.8185831,0.23967391,-0.29842126,0.43306717,0.174988,784.5055,797.8022,811.50183,792.1612,792.1612,0.01983642578125,0.07733154296875,1.00726318359375,-18.04901123046875,21.929473876953125,12.613372802734375,1,1.0,1.0,1.0,1.0,10.00
2024-10-11 20:47:46.579,0.766367,0.8662868,1.0432191,1.0980268,0.79590005,0.2993298,0.8888752,1.1411275,1.1381503,0.2345784,0.6388472,0.93439364,0.7238151,0.0096790185,0.72491014,0.8185831,0.23967391,-0.29842126,0.43306717,0.174988,788.5348,802.6374,800.2198,797.3993,763.1502,0.01983642578125,0.07733154296875,1.00726318359375,-18.04901123046875,21.929473876953125,12.613372802734375,1,1.0,1.0,1.0,1.0,10.00
2024-10-11 20:47:46.580,0.766367,0.8662868,1.0432191,1.0980268,0.79590005,0.2993298,0.8888752,1.1411275,1.1381503,0.2345784,0.6388472,0.93439364,0.7238151,0.0096790185,0.72491014,0.8185831,0.23967391,-0.29842126,0.43306717,0.174988,792.96704,805.05493,791.3553,805.05493,694.2491,0.01983642578125,0.07733154296875,1.00726318359375,-18.04901123046875,21.929473876953125,12.613372802734375,1,1.0,1.0,1.0,1.0,10.00
2024-10-11 20:47:46.581,0.766367,0.8662868,1.0432191,1.0980268,0.79590005,0.2993298,0.8888752,1.1411275,1.1381503,0.2345784,0.6388472,0.93439364,0.7238151,0.0096790185,0.72491014,0.8185831,0.23967391,-0.29842126,0.43306717,0.174988,786.9231,803.44324,792.96704,806.26373,839.304,0.01983642578125,0.07733154296875,1.00726318359375,-18.04901123046875,21.929473876953125,12.613372802734375,1,1.0,1.0,1.0,1.0,10.00
2024-10-11 20:47:46.582,0.766367,0.8662868,1.0432191,1.0980268,0.79590005,0.2993298,0.8888752,1.1411275,1.1381503,0.2345784,0.6388472,0.93439364,0.7238151,0.0096790185,0.72491014,0.8185831,0.23967391,-0.29842126,0.43306717,0.174988,788.1319,796.1905,799.41394,807.47253,1153.1868,0.01983642578125,0.07733154296875,1.00726318359375,-18.04901123046875,21.929473876953125,12.613372802734375,1,1.0,1.0,1.0,1.0,10.00
2024-10-11 20:47:46.583,0.766367,0.78511703,1.0432191,1.0980268,0.79590005,0.28460756,0.8888752,1.1411275,1.1381503,0.23135369,0.6388472,0.93439364,0.7238151,0.011745646,0.72491014,0.8185831,0.23967391,-0.3240283,0.43306717,0.174988,796.5934,795.78754,809.0842,810.696,1014.57874,0.01983642578125,0.07733154296875,1.00726318359375,-18.04901123046875,21.929473876953125,12.613372802734375,1,1.0,1.0,1.0,1.0,10.00
2024-10-11 20:47:46.588,0.766367,0.78511703,1.0432191,1.0980268,0.79590005,0.28460756,0.8888752,1.1411275,1.1381503,0.23135369,0.6388472,0.93439364,0.7238151,0.011745646,0.72491014,0.8185831,0.23967391,-0.3240283,0.43306717,0.174988,799.41394,796.99634,811.9048,808.2784,661.6117,0.01983642578125,0.07733154296875,1.00726318359375,-18.04901123046875,21.929473876953125,12.613372802734375,1,1.0,1.0,1.0,1.0,10.00
2024-10-11 20:47:46.589,0.766367,0.78511703,1.0432191,1.0980268,0.79590005,0.28460756,0.8888752,1.1411275,1.1381503,0.23135369,0.6388472,0.93439364,0.7238151,0.011745646,0.72491014,0.8185831,0.23967391,-0.3240283,0.43306717,0.174988,803.8461,794.57874,812.3077,815.5311,720.0366,0.01983642578125,0.07733154296875,1.00726318359375,-18.04901123046875,21.929473876953125,12.613372802734375,1,1.0,1.0,1.0,1.0,10.00
2024-10-11 20:47:46.590,0.766367,0.78511703,1.0432191,1.0980268,0.79590005,0.28460756,0.8888752,1.1411275,1.1381503,0.23135369,0.6388472,0.93439364,0.7238151,0.011745646,0.72491014,0.8185831,0.23967391,-0.3240283,0.43306717,0.174988,812.71063,797.3993,800.6227,820.3663,933.5897,0.01983642578125,0.07733154296875,1.00726318359375,-18.04901123046875,21.929473876953125,12.613372802734375,1,1.0,1.0,1.0,1.0,10.00
2024-10-11 20:47:46.591,0.766367,0.78511703,1.0432191,1.0980268,0.79590005,0.28460756,0.8888752,1.1411275,1.1381503,0.23135369,0.6388472,0.93439364,0.7238151,0.011745646,0.72491014,0.8185831,0.23967391,-0.3240283,0.43306717,0.174988,809.89014,802.6374,784.90845,818.3516,891.28204,0.01983642578125,0.07733154296875,1.00726318359375,-18.04901123046875,21.929473876953125,12.613372802734375,1,1.0,1.0,1.0,1.0,10.00
2024-10-11 20:47:46.619,0.766367,0.78511703,1.0432191,1.0980268,0.79590005,0.28460756,0.8888752,1.1411275,1.1381503,0.23135369,0.6388472,0.93439364,0.7238151,0.011745646,0.72491014,0.8185831,0.23967391,-0.3240283,0.43306717,0.174988,801.4286,805.8608,787.326,815.12823,688.20514,-0.0196533203125,0.03314208984375,0.9932861328125,-19.163055419921875,17.787322998046875,12.134857177734375,1,1.0,1.0,1.0,1.0,10.00
2024-10-11 20:47:46.620,0.766367,0.78511703,1.0432191,1.0980268,0.79590005,0.28460756,0.8888752,1.1411275,1.1381503,0.23135369,0.6388472,0.93439364,0.7238151,0.011745646,0.72491014,0.8185831,0.23967391,-0.3240283,0.43306717,0.174988,801.02563,805.05493,811.0989,820.7692,798.60803,-0.0196533203125,0.03314208984375,0.9932861328125,-19.163055419921875,17.787322998046875,12.134857177734375,1,1.0,1.0,1.0,1.0,10.00
2024-10-11 20:47:46.621,0.766367,0.78511703,1.0432191,1.0980268,0.79590005,0.28460756,0.8888752,1.1411275,1.1381503,0.23135369,0.6388472,0.93439364,0.7238151,0.011745646,0.72491014,0.8185831,0.23967391,-0.3240283,0.43306717,0.174988,800.2198,802.23444,822.7839,811.9048,902.1612,-0.0196533203125,0.03314208984375,0.9932861328125,-19.163055419921875,17.787322998046875,12.134857177734375,1,1.0,1.0,1.0,1.0,10.00
2024-10-11 20:47:46.622,0.766367,0.78511703,1.0432191,1.0980268,0.79590005,0.28460756,0.8888752,1.1411275,1.1381503,0.23135369,0.6388472,0.93439364,0.7238151,0.011745646,0.72491014,0.8185831,0.23967391,-0.3240283,0.43306717,0.174988,804.65204,800.2198,811.50183,799.41394,715.6044,-0.0196533203125,0.03314208984375,0.9932861328125,-19.163055419921875,17.787322998046875,12.134857177734375,1,1.0,1.0,1.0,1.0,10.00
2024-10-11 20:47:46.623,0.766367,0.78511703,1.0432191,1.0980268,0.79590005,0.28460756,0.8888752,1.1411275,1.1381503,0.23135369,0.6388472,0.93439364,0.7238151,0.011745646,0.72491014,0.8185831,0.23967391,-0.3240283,0.43306717,0.174988,805.8608,800.2198,799.011,803.44324,728.9011,-0.0196533203125,0.03314208984375,0.9932861328125,-19.163055419921875,17.787322998046875,12.134857177734375,1,1.0,1.0,1.0,1.0,10.00
2024-10-11 20:47:46.624,0.766367,0.78511703,1.0432191,1.0980268,0.79590005,0.28460756,0.8888752,1.1411275,1.1381503,0.23135369,0.6388472,0.93439364,0.7238151,0.011745646,0.72491014,0.8185831,0.23967391,-0.3240283,0.43306717,0.174988,802.23444,798.60803,795.78754,807.8755,908.60803,-0.0196533203125,0.03314208984375,0.9932861328125,-19.163055419921875,17.787322998046875,12.134857177734375,1,1.0,1.0,1.0,1.0,10.00
2024-10-11 20:47:46.625,0.766367,0.78511703,1.0432191,1.0980268,0.79590005,0.28460756,0.8888752,1.1411275,1.1381503,0.23135369,0.6388472,0.93439364,0.7238151,0.011745646,0.72491014,0.8185831,0.23967391,-0.3240283,0.43306717,0.174988,802.6374,795.38464,807.47253,811.9048,867.50916,-0.0196533203125,0.03314208984375,0.9932861328125,-19.163055419921875,17.787322998046875,12.134857177734375,1,1.0,1.0,1.0,1.0,10.00
2024-10-11 20:47:46.626,0.766367,0.78511703,1.0432191,1.0980268,0.79590005,0.28460756,0.8888752,1.1411275,1.1381503,0.23135369,0.6388472,0.93439364,0.7238151,0.011745646,0.72491014,0.8185831,0.23967391,-0.3240283,0.43306717,0.174988,801.8315,798.20514,811.9048,811.9048,770.40295,-0.0196533203125,0.03314208984375,0.9932861328125,-19.163055419921875,17.787322998046875,12.134857177734375,1,1.0,1.0,1.0,1.0,10.00
2024-10-11 20:47:46.627,0.766367,0.78511703,1.0432191,1.0980268,0.79590005,0.28460756,0.8888752,1.1411275,1.1381503,0.23135369,0.6388472,0.93439364,0.7238151,0.011745646,0.72491014,0.8185831,0.23967391,-0.3240283,0.43306717,0.174988,802.23444,796.5934,798.20514,818.7546,652.74725,-0.0196533203125,0.03314208984375,0.9932861328125,-19.163055419921875,17.787322998046875,12.134857177734375,1,1.0,1.0,1.0,1.0,10.00
2024-10-11 20:47:46.628,0.766367,0.78511703,1.0432191,1.0980268,0.79590005,0.28460756,0.8888752,1.1411275,1.1381503,0.23135369,0.6388472,0.93439364,0.7238151,0.011745646,0.72491014,0.8185831,0.23967391,-0.3240283,0.43306717,0.174988,805.05493,790.54944,796.99634,829.6337,861.06226,-0.0196533203125,0.03314208984375,0.9932861328125,-19.163055419921875,17.787322998046875,12.134857177734375,1,1.0,1.0,1.0,1.0,10.00
2024-10-11 20:47:46.629,0.766367,0.78511703,1.0432191,1.0980268,0.79590005,0.28460756,0.8888752,1.1411275,1.1381503,0.23135369,0.6388472,0.93439364,0.7238151,0.011745646,0.72491014,0.8185831,0.23967391,-0.3240283,0.43306717,0.174988,801.4286,793.36993,793.7729,829.6337,1035.1282,-0.0196533203125,0.03314208984375,0.9932861328125,-19.163055419921875,17.787322998046875,12.134857177734375,1,1.0,1.0,1.0,1.0,10.00
2024-10-11 20:47:46.630,0.766367,0.78511703,1.0432191,1.0980268,0.79590005,0.28460756,0.8888752,1.1411275,1.1381503,0.23135369,0.6388472,0.93439364,0.7238151,0.011745646,0.72491014,0.8185831,0.23967391,-0.3240283,0.43306717,0.174988,811.9048,796.5934,784.5055,807.8755,740.989,-0.0196533203125,0.03314208984375,0.9932861328125,-19.163055419921875,17.787322998046875,12.134857177734375,1,1.0,1.0,1.0,1.0,10.00
2024-10-11 20:47:46.672,0.766367,0.78511703,1.0432191,1.0980268,0.79590005,0.28460756,0.8888752,1.1411275,1.1381503,0.23135369,0.6388472,0.93439364,0.7238151,0.011745646,0.72491014,0.8185831,0.23967391,-0.3240283,0.43306717,0.174988,816.7399,798.20514,794.57874,804.2491,712.381,-0.04559326171875,-0.0108642578125,0.99420166015625,-16.142425537109375,13.346099853515625,11.7236328125,1,1.0,1.0,1.0,1.0,10.00
2024-10-11 20:47:46.673,0.766367,0.78511703,1.0432191,1.0980268,0.79590005,0.28460756,0.8888752,1.1411275,1.1381503,0.23135369,0.6388472,0.93439364,0.7238151,0.011745646,0.72491014,0.8185831,0.23967391,-0.3240283,0.43306717,0.174988,801.8315,797.8022,797.3993,810.293,872.3443,-0.04559326171875,-0.0108642578125,0.99420166015625,-16.142425537109375,13.346099853515625,11.7236328125,1,1.0,1.0,1.0,1.0,10.00
2024-10-11 20:47:46.675,0.766367,0.78511703,1.0432191,1.0980268,0.79590005,0.28460756,0.8888752,1.1411275,1.1381503,0.23135369,0.6388472,0.93439364,0.7238151,0.011745646,0.72491014,0.8185831,0.23967391,-0.3240283,0.43306717,0.174988,797.8022,796.1905,806.26373,809.4872,821.1722,-0.04559326171875,-0.0108642578125,0.99420166015625,-16.142425537109375,13.346099853515625,11.7236328125,1,1.0,1.0,1.0,1.0,10.00
2024-10-11 20:47:46.677,0.766367,0.78511703,1.0432191,1.0980268,0.79590005,0.28460756,0.8888752,1.1411275,1.1381503,0.23135369,0.6388472,0.93439364,0.7238151,0.011745646,0.72491014,0.8185831,0.23967391,-0.3240283,0.43306717,0.174988,810.293,799.81683,813.91943,803.8461,686.1905,-0.04559326171875,-0.0108642578125,0.99420166015625,-16.142425537109375,13.346099853515625,11.7236328125,1,1.0,1.0,1.0,1.0,10.00
2024-10-11 20:47:46.679,0.766367,0.78511703,1.0432191,1.0980268,0.79590005,0.28460756,0.8888752,1.1411275,1.1381503,0.23135369,0.6388472,0.93439364,0.7238151,0.011745646,0.72491014,0.8185831,0.23967391,-0.3240283,0.43306717,0.174988,818.7546,801.4286,808.68134,808.2784,772.4176,-0.04559326171875,-0.0108642578125,0.99420166015625,-16.142425537109375,13.346099853515625,11.7236328125,1,1.0,1.0,1.0,1.0,10.00
2024-10-11 20:47:46.680,0.766367,0.78511703,1.0432191,1.0980268,0.79590005,0.28460756,0.8888752,1.1411275,1.1381503,0.23135369,0.6388472,0.93439364,0.7238151,0.011745646,0.72491014,0.8185831,0.23967391,-0.3240283,0.43306717,0.174988,809.89014,797.8022,800.2198,813.91943,1002.0879,-0.04559326171875,-0.0108642578125,0.99420166015625,-16.142425537109375,13.346099853515625,11.7236328125,1,1.0,1.0,1.0,1.0,10.00
2024-10-11 20:47:46.681,0.766367,0.78511703,1.0432191,1.0980268,0.79590005,0.28460756,0.8888752,1.1411275,1.1381503,0.23135369,0.6388472,0.93439364,0.7238151,0.011745646,0.72491014,0.8185831,0.23967391,-0.3240283,0.43306717,0.174988,806.6667,796.5934,800.2198,806.6667,927.5458,-0.04559326171875,-0.0108642578125,0.99420166015625,-16.142425537109375,13.346099853515625,11.7236328125,1,1.0,1.0,1.0,1.0,10.00
2024-10-11 20:47:46.682,0.766367,0.78511703,1.0432191,1.0980268,0.79590005,0.28460756,0.8888752,1.1411275,1.1381503,0.23135369,0.6388472,0.93439364,0.7238151,0.011745646,0.72491014,0.8185831,0.23967391,-0.3240283,0.43306717,0.174988,811.0989,799.41394,802.23444,809.0842,660.80585,-0.04559326171875,-0.0108642578125,0.99420166015625,-16.142425537109375,13.346099853515625,11.7236328125,1,1.0,1.0,1.0,1.0,10.00
2024-10-11 20:47:46.683,0.766367,0.78511703,1.0432191,1.0980268,0.79590005,0.28460756,0.8888752,1.1411275,1.1381503,0.23135369,0.6388472,0.93439364,0.7238151,0.011745646,0.72491014,0.8185831,0.23967391,-0.3240283,0.43306717,0.174988,814.7253,801.8315,794.57874,820.7692,620.10986,-0.04559326171875,-0.0108642578125,0.99420166015625,-16.142425537109375,13.346099853515625,11.7236328125,1,1.0,1.0,1.0,1.0,10.00
2024-10-11 20:47:46.684,0.7571553,0.7239647,1.0432191,1.0980268,0.77991235,0.2750958,0.8888752,1.1411275,1.1090928,0.23494609,0.6388472,0.93439364,0.7327711,0.007011334,0.72491014,0.8185831,0.25175235,-0.33470854,0.43306717,0.174988,819.9634,802.6374,793.7729,827.2161,759.92676,-0.04559326171875,-0.0108642578125,0.99420166015625,-16.142425537109375,13.346099853515625,11.7236328125,1,1.0,1.0,1.0,1.0,10.00
2024-10-11 20:47:46.689,0.7571553,0.7239647,1.0432191,1.0980268,0.77991235,0.2750958,0.8888752,1.1411275,1.1090928,0.23494609,0.6388472,0.93439364,0.7327711,0.007011334,0.72491014,0.8185831,0.25175235,-0.33470854,0.43306717,0.174988,817.9487,798.60803,803.8461,822.381,638.6447,-0.04559326171875,-0.0108642578125,0.99420166015625,-16.142425537109375,13.346099853515625,11.7236328125,1,1.0,1.0,1.0,1.0,10.00
2024-10-11 20:47:46.691,0.7571553,0.7239647,1.0432191,1.0980268,0.77991235,0.2750958,0.8888752,1.1411275,1.1090928,0.23494609,0.6388472,0.93439364,0.7327711,0.007011334,0.72491014,0.8185831,0.25175235,-0.33470854,0.43306717,0.174988,814.7253,795.38464,796.99634,822.381,591.50183,-0.04559326171875,-0.0108642578125,0.99420166015625,-16.142425537109375,13.346099853515625,11.7236328125,1,1.0,1.0,1.0,1.0,10.00
2024-10-11 20:47:46.692,0.7571553,0.7239647,1.0432191,1.0980268,0.77991235,0.2750958,0.8888752,1.1411275,1.1090928,0.23494609,0.6388472,0.93439364,0.7327711,0.007011334,0.72491014,0.8185831,0.25175235,-0.33470854,0.43306717,0.174988,815.5311,796.1905,799.41394,821.1722,806.26373,-0.04559326171875,-0.0108642578125,0.99420166015625,-16.142425537109375,13.346099853515625,11.7236328125,1,1.0,1.0,1.0,1.0,10.00
2024-10-11 20:47:46.693,0.7571553,0.7239647,1.0432191,1.0980268,0.77991235,0.2750958,0.8888752,1.1411275,1.1090928,0.23494609,0.6388472,0.93439364,0.7327711,0.007011334,0.72491014,0.8185831,0.25175235,-0.33470854,0.43306717,0.174988,807.8755,792.5641,801.8315,805.8608,823.1868,-0.04559326171875,-0.0108642578125,0.99420166015625,-16.142425537109375,13.346099853515625,11.7236328125,1,1.0,1.0,1.0,1.0,10.00
2024-10-11 20:47:46.694,0.7571553,0.7239647,1.0432191,1.0980268,0.77991235,0.2750958,0.8888752,1.1411275,1.1090928,0.23494609,0.6388472,0.93439364,0.7327711,0.007011334,0.72491014,0.8185831,0.25175235,-0.33470854,0.43306717,0.174988,809.89014,792.96704,799.011,808.68134,678.93774,-0.04559326171875,-0.0108642578125,0.99420166015625,-16.142425537109375,13.346099853515625,11.7236328125,1,1.0,1.0,1.0,1.0,10.00
2024-10-11 20:47:46.695,0.7571553,0.7239647,1.0432191,1.0980268,0.77991235,0.2750958,0.8888752,1.1411275,1.1090928,0.23494609,0.6388472,0.93439364,0.7327711,0.007011334,0.72491014,0.8185831,0.25175235,-0.33470854,0.43306717,0.174988,817.1429,799.011,807.0696,813.91943,684.17584,-0.04559326171875,-0.0108642578125,0.99420166015625,-16.142425537109375,13.346099853515625,11.7236328125,1,1.0,1.0,1.0,1.0,10.00
2024-10-11 20:47:46.696,0.7571553,0.7239647,1.0432191,1.0980268,0.77991235,0.2750958,0.8888752,1.1411275,1.1090928,0.23494609,0.6388472,0.93439364,0.7327711,0.007011334,0.72491014,0.8185831,0.25175235,-0.33470854,0.43306717,0.174988,820.3663,795.78754,797.8022,808.68134,931.978,-0.04559326171875,-0.0108642578125,0.99420166015625,-16.142425537109375,13.346099853515625,11.7236328125,1,1.0,1.0,1.0,1.0,10.00
2024-10-11 20:47:46.697,0.7571553,0.7239647,1.0432191,1.0980268,0.77991235,0.2750958,0.8888752,1.1411275,1.1090928,0.23494609,0.6388472,0.93439364,0.7327711,0.007011334,0.72491014,0.8185831,0.25175235,-0.33470854,0.43306717,0.174988,818.3516,797.3993,783.2967,815.12823,1024.249,-0.04559326171875,-0.0108642578125,0.99420166015625,-16.142425537109375,13.346099853515625,11.7236328125,1,1.0,1.0,1.0,1.0,10.00
2024-10-11 20:47:46.699,0.7571553,0.7239647,1.0432191,1.0980268,0.77991235,0.2750958,0.8888752,1.1411275,1.1090928,0.23494609,0.6388472,0.93439364,0.7327711,0.007011334,0.72491014,0.8185831,0.25175235,-0.33470854,0.43306717,0.174988,820.3663,803.8461,786.9231,817.5458,774.0293,-0.04559326171875,-0.0108642578125,0.99420166015625,-16.142425537109375,13.346099853515625,11.7236328125,1,1.0,1.0,1.0,1.0,10.00
2024-10-11 20:47:46.700,0.7571553,0.7239647,1.0432191,1.0980268,0.77991235,0.2750958,0.8888752,1.1411275,1.1090928,0.23494609,0.6388472,0.93439364,0.7327711,0.007011334,0.72491014,0.8185831,0.25175235,-0.33470854,0.43306717,0.174988,826.0073,803.44324,800.6227,813.91943,684.57874,-0.04559326171875,-0.0108642578125,0.99420166015625,-16.142425537109375,13.346099853515625,11.7236328125,1,1.0,1.0,1.0,1.0,10.00
2024-10-11 20:47:46.701,0.7571553,0.7239647,1.0432191,1.0980268,0.77991235,0.2750958,0.8888752,1.1411275,1.1090928,0.23494609,0.6388472,0.93439364,0.7327711,0.007011334,0.72491014,0.8185831,0.25175235,-0.33470854,0.43306717,0.174988,826.8132,801.4286,808.68134,816.7399,881.2088,-0.04559326171875,-0.0108642578125,0.99420166015625,-16.142425537109375,13.346099853515625,11.7236328125,1,1.0,1.0,1.0,1.0,10.00
2024-10-11 20:47:46.702,0.7571553,0.7239647,1.0432191,1.0980268,0.77991235,0.2750958,0.8888752,1.1411275,1.1090928,0.23494609,0.6388472,0.93439364,0.7327711,0.007011334,0.72491014,0.8185831,0.25175235,-0.33470854,0.43306717,0.174988,819.15753,798.60803,807.47253,808.68134,889.2674,-0.04559326171875,-0.0108642578125,0.99420166015625,-16.142425537109375,13.346099853515625,11.7236328125,1,1.0,1.0,1.0,1.0,10.00
2024-10-11 20:47:46.703,0.7571553,0.7239647,1.0432191,1.0980268,0.77991235,0.2750958,0.8888752,1.1411275,1.1090928,0.23494609,0.6388472,0.93439364,0.7327711,0.007011334,0.72491014,0.8185831,0.25175235,-0.33470854,0.43306717,0.174988,807.47253,801.02563,796.5934,794.9817,649.5238,-0.04559326171875,-0.0108642578125,0.99420166015625,-16.142425537109375,13.346099853515625,11.7236328125,1,1.0,1.0,1.0,1.0,10.00
2024-10-11 20:47:46.704,0.7571553,0.7239647,1.0432191,1.0980268,0.77991235,0.2750958,0.8888752,1.1411275,1.1090928,0.23494609,0.6388472,0.93439364,0.7327711,0.007011334,0.72491014,0.8185831,0.25175235,-0.33470854,0.43306717,0.174988,815.9341,801.02563,803.0403,800.6227,636.2271,-0.04559326171875,-0.0108642578125,0.99420166015625,-16.142425537109375,13.346099853515625,11.7236328125,1,1.0,1.0,1.0,1.0,10.00
2024-10-11 20:47:46.740,0.7571553,0.7239647,1.0432191,1.0980268,0.77991235,0.2750958,0.8888752,1.1411275,1.1090928,0.23494609,0.6388472,0.93439364,0.7327711,0.007011334,0.72491014,0.8185831,0.25175235,-0.33470854,0.43306717,0.174988,814.7253,798.20514,801.4286,818.3516,857.03296,-0.05645751953125,-0.0355224609375,0.992919921875,-13.29376220703125,9.510498046875,11.432037353515625,1,1.0,1.0,1.0,1.0,10.00
2024-10-11 20:47:46.741,0.7571553,0.7239647,1.0432191,1.0980268,0.77991235,0.2750958,0.8888752,1.1411275,1.1090928,0.23494609,0.6388472,0.93439364,0.7327711,0.007011334,0.72491014,0.8185831,0.25175235,-0.33470854,0.43306717,0.174988,815.9341,798.60803,800.2198,813.1135,846.55676,-0.05645751953125,-0.0355224609375,0.992919921875,-13.29376220703125,9.510498046875,11.432037353515625,1,1.0,1.0,1.0,1.0,10.00
2024-10-11 20:47:46.743,0.7571553,0.7239647,1.0432191,1.0980268,0.77991235,0.2750958,0.8888752,1.1411275,1.1090928,0.23494609,0.6388472,0.93439364,0.7327711,0.007011334,0.72491014,0.8185831,0.25175235,-0.33470854,0.43306717,0.174988,815.5311,797.8022,803.44324,800.2198,625.34796,-0.05645751953125,-0.0355224609375,0.992919921875,-13.29376220703125,9.510498046875,11.432037353515625,1,1.0,1.0,1.0,1.0,10.00
2024-10-11 20:47:46.745,0.7571553,0.7239647,1.0432191,1.0980268,0.77991235,0.2750958,0.8888752,1.1411275,1.1090928,0.23494609,0.6388472,0.93439364,0.7327711,0.007011334,0.72491014,0.8185831,0.25175235,-0.33470854,0.43306717,0.174988,810.293,798.60803,798.60803,803.0403,642.27106,-0.05645751953125,-0.0355224609375,0.992919921875,-13.29376220703125,9.510498046875,11.432037353515625,1,1.0,1.0,1.0,1.0,10.00
2024-10-11 20:47:46.747,0.7571553,0.7239647,1.0432191,1.0980268,0.77991235,0.2750958,0.8888752,1.1411275,1.1090928,0.23494609,0.6388472,0.93439364,0.7327711,0.007011334,0.72491014,0.8185831,0.25175235,-0.33470854,0.43306717,0.174988,812.71063,799.011,790.54944,804.2491,808.2784,-0.05645751953125,-0.0355224609375,0.992919921875,-13.29376220703125,9.510498046875,11.432037353515625,1,1.0,1.0,1.0,1.0,10.00
2024-10-11 20:47:46.748,0.7571553,0.7239647,1.0432191,1.0980268,0.77991235,0.2750958,0.8888752,1.1411275,1.1090928,0.23494609,0.6388472,0.93439364,0.7327711,0.007011334,0.72491014,0.8185831,0.25175235,-0.33470854,0.43306717,0.174988,817.5458,794.17584,783.69965,815.5311,923.5165,-0.05645751953125,-0.0355224609375,0.992919921875,-13.29376220703125,9.510498046875,11.432037353515625,1,1.0,1.0,1.0,1.0,10.00
2024-10-11 20:47:46.749,0.7571553,0.7239647,1.0432191,1.0980268,0.77991235,0.2750958,0.8888752,1.1411275,1.1090928,0.23494609,0.6388472,0.93439364,0.7327711,0.007011334,0.72491014,0.8185831,0.25175235,-0.33470854,0.43306717,0.174988,809.0842,796.1905,793.7729,817.9487,841.7216,-0.05645751953125,-0.0355224609375,0.992919921875,-13.29376220703125,9.510498046875,11.432037353515625,1,1.0,1.0,1.0,1.0,10.00
2024-10-11 20:47:46.750,0.7571553,0.7239647,1.0432191,1.0980268,0.77991235,0.2750958,0.8888752,1.1411275,1.1090928,0.23494609,0.6388472,0.93439364,0.7327711,0.007011334,0.72491014,0.8185831,0.25175235,-0.33470854,0.43306717,0.174988,803.0403,796.5934,802.6374,818.3516,808.68134,-0.05645751953125,-0.0355224609375,0.992919921875,-13.29376220703125,9.510498046875,11.432037353515625,1,1.0,1.0,1.0,1.0,10.00
2024-10-11 20:47:46.751,0.7571553,0.7239647,1.0432191,1.0980268,0.77991235,0.2750958,0.8888752,1.1411275,1.1090928,0.23494609,0.6388472,0.93439364,0.7327711,0.007011334,0.72491014,0.8185831,0.25175235,-0.33470854,0.43306717,0.174988,811.50183,794.17584,799.81683,824.7985,775.64105,-0.05645751953125,-0.0355224609375,0.992919921875,-13.29376220703125,9.510498046875,11.432037353515625,1,1.0,1.0,1.0,1.0,10.00
2024-10-11 20:47:46.752,0.7571553,0.7239647,1.0432191,1.0980268,0.77991235,0.2750958,0.8888752,1.1411275,1.1090928,0.23494609,0.6388472,0.93439364,0.7327711,0.007011334,0.72491014,0.8185831,0.25175235,-0.33470854,0.43306717,0.174988,811.50183,799.011,800.2198,819.9634,712.381,-0.05645751953125,-0.0355224609375,0.992919921875,-13.29376220703125,9.510498046875,11.432037353515625,1,1.0,1.0,1.0,1.0,10.00
2024-10-11 20:47:46.752,0.7571553,0.7239647,1.0432191,1.0980268,0.77991235,0.2750958,0.8888752,1.1411275,1.1090928,0.23494609,0.6388472,0.93439364,0.7327711,0.007011334,0.72491014,0.8185831,0.25175235,-0.33470854,0.43306717,0.174988,812.3077,795.78754,804.2491,807.47253,663.6264,-0.05645751953125,-0.0355224609375,0.992919921875,-13.29376220703125,9.510498046875,11.432037353515625,1,1.0,1.0,1.0,1.0,10.00
2024-10-11 20:47:46.753,0.7148247,0.69954735,1.0432191,1.0980268,0.7442474,0.2746717,0.8888752,1.1411275,1.0957948,0.23752642,0.6388472,0.93439364,0.7388333,-0.009285566,0.72491014,0.8185831,0.26911253,-0.3432853,0.43306717,0.174988,813.1135,791.75824,799.011,799.41394,747.8388,-0.05645751953125,-0.0355224609375,0.992919921875,-13.29376220703125,9.510498046875,11.432037353515625,1,1.0,1.0,1.0,1.0,10.00
2024-10-11 20:47:46.758,0.7148247,0.69954735,1.0432191,1.0980268,0.7442474,0.2746717,0.8888752,1.1411275,1.0957948,0.23752642,0.6388472,0.93439364,0.7388333,-0.009285566,0.72491014,0.8185831,0.26911253,-0.3432853,0.43306717,0.174988,815.9341,792.96704,786.52014,807.8755,936.8132,-0.06805419921875,-0.0537109375,0.9925537109375,-9.323577880859375,7.01324462890625,11.065673828125,1,1.0,1.0,1.0,1.0,10.00
2024-10-11 20:47:46.758,0.7148247,0.69954735,1.0432191,1.0980268,0.7442474,0.2746717,0.8888752,1.1411275,1.0957948,0.23752642,0.6388472,0.93439364,0.7388333,-0.009285566,0.72491014,0.8185831,0.26911253,-0.3432853,0.43306717,0.174988,815.5311,793.36993,790.9524,810.293,773.22345,-0.06805419921875,-0.0537109375,0.9925537109375,-9.323577880859375,7.01324462890625,11.065673828125,1,1.0,1.0,1.0,1.0,10.00
2024-10-11 20:47:46.759,0.7148247,0.69954735,1.0432191,1.0980268,0.7442474,0.2746717,0.8888752,1.1411275,1.0957948,0.23752642,0.6388472,0.93439364,0.7388333,-0.009285566,0.72491014,0.8185831,0.26911253,-0.3432853,0.43306717,0.174988,810.696,797.8022,803.0403,804.2491,547.98535,-0.06805419921875,-0.0537109375,0.9925537109375,-9.323577880859375,7.01324462890625,11.065673828125,1,1.0,1.0,1.0,1.0,10.00
2024-10-11 20:47:46.759,0.7148247,0.69954735,1.0432191,1.0980268,0.7442474,0.2746717,0.8888752,1.1411275,1.0957948,0.23752642,0.6388472,0.93439364,0.7388333,-0.009285566,0.72491014,0.8185831,0.26911253,-0.3432853,0.43306717,0.174988,811.9048,798.20514,794.57874,807.47253,693.44324,-0.06805419921875,-0.0537109375,0.9925537109375,-9.323577880859375,7.01324462890625,11.065673828125,1,1.0,1.0,1.0,1.0,10.00
2024-10-11 20:47:46.760,0.7148247,0.69954735,1.0432191,1.0980268,0.7442474,0.2746717,0.8888752,1.1411275,1.0957948,0.23752642,0.6388472,0.93439364,0.7388333,-0.009285566,0.72491014,0.8185831,0.26911253,-0.3432853,0.43306717,0.174988,809.4872,803.44324,785.7143,807.0696,1162.0513,-0.06805419921875,-0.0537109375,0.9925537109375,-9.323577880859375,7.01324462890625,11.065673828125,1,1.0,1.0,1.0,1.0,10.00
2024-10-11 20:47:46.760,0.7148247,0.69954735,1.0432191,1.0980268,0.7442474,0.2746717,0.8888752,1.1411275,1.0957948,0.23752642,0.6388472,0.93439364,0.7388333,-0.009285566,0.72491014,0.8185831,0.26911253,-0.3432853,0.43306717,0.174988,805.05493,803.8461,797.8022,803.8461,1031.0989,-0.06805419921875,-0.0537109375,0.9925537109375,-9.323577880859375,7.01324462890625,11.065673828125,1,1.0,1.0,1.0,1.0,10.00
2024-10-11 20:47:46.761,0.7148247,0.69954735,1.0432191,1.0980268,0.7442474,0.2746717,0.8888752,1.1411275,1.0957948,0.23752642,0.6388472,0.93439364,0.7388333,-0.009285566,0.72491014,0.8185831,0.26911253,-0.3432853,0.43306717,0.174988,800.6227,802.6374,799.011,806.26373,612.8571,-0.06805419921875,-0.0537109375,0.9925537109375,-9.323577880859375,7.01324462890625,11.065673828125,1,1.0,1.0,1.0,1.0,10.00
2024-10-11 20:47:46.761,0.7148247,0.69954735,1.0432191,1.0980268,0.7442474,0.2746717,0.8888752,1.1411275,1.0957948,0.23752642,0.6388472,0.93439364,0.7388333,-0.009285566,0.72491014,0.8185831,0.26911253,-0.3432853,0.43306717,0.174988,806.26373,802.23444,790.9524,808.68134,750.2564,-0.06805419921875,-0.0537109375,0.9925537109375,-9.323577880859375,7.01324462890625,11.065673828125,1,1.0,1.0,1.0,1.0,10.00
2024-10-11 20:47:46.762,0.7148247,0.69954735,1.0432191,1.0980268,0.7442474,0.2746717,0.8888752,1.1411275,1.0957948,0.23752642,0.6388472,0.93439364,0.7388333,-0.009285566,0.72491014,0.8185831,0.26911253,-0.3432853,0.43306717,0.174988,807.47253,796.1905,795.38464,805.4579,838.0952,-0.06805419921875,-0.0537109375,0.9925537109375,-9.323577880859375,7.01324462890625,11.065673828125,1,1.0,1.0,1.0,1.0,10.00
2024-10-11 20:47:46.762,0.7148247,0.69954735,1.0432191,1.0980268,0.7442474,0.2746717,0.8888752,1.1411275,1.0957948,0.23752642,0.6388472,0.93439364,0.7388333,-0.009285566,0.72491014,0.8185831,0.26911253,-0.3432853,0.43306717,0.174988,802.23444,802.23444,802.6374,800.2198,625.34796,-0.06805419921875,-0.0537109375,0.9925537109375,-9.323577880859375,7.01324462890625,11.065673828125,1,1.0,1.0,1.0,1.0,10.00
2024-10-11 20:47:46.763,0.7148247,0.69954735,1.0432191,1.0980268,0.7442474,0.2746717,0.8888752,1.1411275,1.0957948,0.23752642,0.6388472,0.93439364,0.7388333,-0.009285566,0.72491014,0.8185831,0.26911253,-0.3432853,0.43306717,0.174988,808.68134,803.44324,805.4579,799.011,653.5531,-0.06805419921875,-0.0537109375,0.9925537109375,-9.323577880859375,7.01324462890625,11.065673828125,1,1.0,1.0,1.0,1.0,10.00
2024-10-11 20:47:46.763,0.7148247,0.69954735,1.0432191,1.0980268,0.7442474,0.2746717,0.8888752,1.1411275,1.0957948,0.23752642,0.6388472,0.93439364,0.7388333,-0.009285566,0.72491014,0.8185831,0.26911253,-0.3432853,0.43306717,0.174988,814.3223,799.81683,794.57874,799.81683,724.4689,-0.06805419921875,-0.0537109375,0.9925537109375,-9.323577880859375,7.01324462890625,11.065673828125,1,1.0,1.0,1.0,1.0,10.00
2024-10-11 20:47:46.802,0.7148247,0.69954735,1.0432191,1.0980268,0.7442474,0.2746717,0.8888752,1.1411275,1.0957948,0.23752642,0.6388472,0.93439364,0.7388333,-0.009285566,0.72491014,0.8185831,0.26911253,-0.3432853,0.43306717,0.174988,807.47253,799.81683,778.0586,796.5934,665.64105,-0.08612060546875,-0.05474853515625,0.99810791015625,-5.81695556640625,6.228179931640625,10.415191650390625,1,1.0,1.0,1.0,1.0,10.00
2024-10-11 20:47:46.803,0.7148247,0.69954735,1.0432191,1.0980268,0.7442474,0.2746717,0.8888752,1.1411275,1.0957948,0.23752642,0.6388472,0.93439364,0.7388333,-0.009285566,0.72491014,0.8185831,0.26911253,-0.3432853,0.43306717,0.174988,805.05493,800.6227,792.5641,796.99634,589.4872,-0.08612060546875,-0.05474853515625,0.99810791015625,-5.81695556640625,6.228179931640625,10.415191650390625,1,1.0,1.0,1.0,1.0,10.00
2024-10-11 20:47:46.804,0.7148247,0.69954735,1.0432191,1.0980268,0.7442474,0.2746717,0.8888752,1.1411275,1.0957948,0.23752642,0.6388472,0.93439364,0.7388333,-0.009285566,0.72491014,0.8185831,0.26911253,-0.3432853,0.43306717,0.174988,811.0989,804.2491,809.0842,805.4579,675.7143,-0.08612060546875,-0.05474853515625,0.99810791015625,-5.81695556640625,6.228179931640625,10.415191650390625,1,1.0,1.0,1.0,1.0,10.00
2024-10-11 20:47:46.804,0.7148247,0.69954735,1.0432191,1.0980268,0.7442474,0.2746717,0.8888752,1.1411275,1.0957948,0.23752642,0.6388472,0.93439364,0.7388333,-0.009285566,0.72491014,0.8185831,0.26911253,-0.3432853,0.43306717,0.174988,811.50183,806.6667,805.05493,810.293,797.8022,-0.08612060546875,-0.05474853515625,0.99810791015625,-5.81695556640625,6.228179931640625,10.415191650390625,1,1.0,1.0,1.0,1.0,10.00
2024-10-11 20:47:46.805,0.7148247,0.69954735,1.0432191,1.0980268,0.7442474,0.2746717,0.8888752,1.1411275,1.0957948,0.23752642,0.6388472,0.93439364,0.7388333,-0.009285566,0.72491014,0.8185831,0.26911253,-0.3432853,0.43306717,0.174988,814.3223,803.0403,801.8315,807.8755,737.76556,-0.08612060546875,-0.05474853515625,0.99810791015625,-5.81695556640625,6.228179931640625,10.415191650390625,1,1.0,1.0,1.0,1.0,10.00
2024-10-11 20:47:46.805,0.7148247,0.69954735,1.0432191,1.0980268,0.7442474,0.2746717,0.8888752,1.1411275,1.0957948,0.23752642,0.6388472,0.93439364,0.7388333,-0.009285566,0.72491014,0.8185831,0.26911253,-0.3432853,0.43306717,0.174988,815.12823,799.41394,790.54944,797.3993,698.2784,-0.08612060546875,-0.05474853515625,0.99810791015625,-5.81695556640625,6.228179931640625,10.415191650390625,1,1.0,1.0,1.0,1.0,10.00
2024-10-11 20:47:46.806,0.7148247,0.69954735,1.0432191,1.0980268,0.7442474,0.2746717,0.8888752,1.1411275,1.0957948,0.23752642,0.6388472,0.93439364,0.7388333,-0.009285566,0.72491014,0.8185831,0.26911253,-0.3432853,0.43306717,0.174988,810.696,799.011,787.72894,794.9817,782.8938,-0.08612060546875,-0.05474853515625,0.99810791015625,-5.81695556640625,6.228179931640625,10.415191650390625,1,1.0,1.0,1.0,1.0,10.00
2024-10-11 20:47:46.806,0.7148247,0.69954735,1.0432191,1.0980268,0.7442474,0.2746717,0.8888752,1.1411275,1.0957948,0.23752642,0.6388472,0.93439364,0.7388333,-0.009285566,0.72491014,0.8185831,0.26911253,-0.3432853,0.43306717,0.174988,808.2784,796.99634,803.44324,808.2784,1088.3151,-0.08612060546875,-0.05474853515625,0.99810791015625,-5.81695556640625,6.228179931640625,10.415191650390625,1,1.0,1.0,1.0,1.0,10.00
2024-10-11 20:47:46.807,0.7148247,0.69954735,1.0432191,1.0980268,0.7442474,0.2746717,0.8888752,1.1411275,1.0957948,0.23752642,0.6388472,0.93439364,0.7388333,-0.009285566,0.72491014,0.8185831,0.26911253,-0.3432853,0.43306717,0.174988,809.4872,796.99634,800.6227,808.2784,1019.011,-0.08612060546875,-0.05474853515625,0.99810791015625,-5.81695556640625,6.228179931640625,10.415191650390625,1,1.0,1.0,1.0,1.0,10.00
2024-10-11 20:47:46.807,0.7148247,0.69954735,1.0432191,1.0980268,0.7442474,0.2746717,0.8888752,1.1411275,1.0957948,0.23752642,0.6388472,0.93439364,0.7388333,-0.009285566,0.72491014,0.8185831,0.26911253,-0.3432853,0.43306717,0.174988,805.8608,800.6227,793.36993,802.6374,612.4542,-0.08612060546875,-0.05474853515625,0.99810791015625,-5.81695556640625,6.228179931640625,10.415191650390625,1,1.0,1.0,1.0,1.0,10.00
2024-10-11 20:47:46.808,0.7148247,0.69954735,1.0432191,1.0980268,0.7442474,0.2746717,0.8888752,1.1411275,1.0957948,0.23752642,0.6388472,0.93439364,0.7388333,-0.009285566,0.72491014,0.8185831,0.26911253,-0.3432853,0.43306717,0.174988,803.44324,799.41394,805.4579,805.8608,648.315,-0.08612060546875,-0.05474853515625,0.99810791015625,-5.81695556640625,6.228179931640625,10.415191650390625,1,1.0,1.0,1.0,1.0,10.00
2024-10-11 20:47:46.808,0.7148247,0.69954735,1.0432191,1.0980268,0.7442474,0.2746717,0.8888752,1.1411275,1.0957948,0.23752642,0.6388472,0.93439364,0.7388333,-0.009285566,0.72491014,0.8185831,0.26911253,-0.3432853,0.43306717,0.174988,808.68134,802.6374,813.91943,810.293,651.53845,-0.08612060546875,-0.05474853515625,0.99810791015625,-5.81695556640625,6.228179931640625,10.415191650390625,1,1.0,1.0,1.0,1.0,10.00
2024-10-11 20:47:46.809,0.7148247,0.69954735,1.0432191,1.0980268,0.7442474,0.2746717,0.8888752,1.1411275,1.0957948,0.23752642,0.6388472,0.93439364,0.7388333,-0.009285566,0.72491014,0.8185831,0.26911253,-0.3432853,0.43306717,0.174988,815.9341,802.23444,805.8608,814.3223,694.65204,-0.09234619140625,-0.06170654296875,1.00164794921875,-5.076751708984375,5.084228515625,9.099273681640625,1,1.0,1.0,1.0,1.0,10.00
2024-10-11 20:47:46.809,0.62508535,0.6960982,1.0432191,1.0980268,0.670701,0.27282795,0.8888752,1.1411275,1.0927382,0.2137657,0.6388472,0.93439364,0.7432652,-0.034488413,0.72491014,0.8185831,0.2886026,-0.3609007,0.43306717,0.174988,814.7253,796.5934,786.52014,805.05493,669.67035,-0.09234619140625,-0.06170654296875,1.00164794921875,-5.076751708984375,5.084228515625,9.099273681640625,1,1.0,1.0,1.0,1.0,10.00
2024-10-11 20:47:46.813,0.62508535,0.6960982,1.0432191,1.0980268,0.670701,0.27282795,0.8888752,1.1411275,1.0927382,0.2137657,0.6388472,0.93439364,0.7432652,-0.034488413,0.72491014,0.8185831,0.2886026,-0.3609007,0.43306717,0.174988,805.8608,795.38464,794.9817,809.0842,716.8132,-0.09234619140625,-0.06170654296875,1.00164794921875,-5.076751708984375,5.084228515625,9.099273681640625,1,1.0,1.0,1.0,1.0,10.00
2024-10-11 20:47:46.814,0.62508535,0.6960982,1.0432191,1.0980268,0.670701,0.27282795,0.8888752,1.1411275,1.0927382,0.2137657,0.6388472,0.93439364,0.7432652,-0.034488413,0.72491014,0.8185831,0.2886026,-0.3609007,0.43306717,0.174988,802.6374,795.78754,818.7546,812.71063,765.56775,-0.09234619140625,-0.06170654296875,1.00164794921875,-5.076751708984375,5.084228515625,9.099273681640625,1,1.0,1.0,1.0,1.0,10.00
2024-10-11 20:47:46.814,0.62508535,0.6960982,1.0432191,1.0980268,0.670701,0.27282795,0.8888752,1.1411275,1.0927382,0.2137657,0.6388472,0.93439364,0.7432652,-0.034488413,0.72491014,0.8185831,0.2886026,-0.3609007,0.43306717,0.174988,811.50183,799.81683,810.696,802.23444,549.19415,-0.09234619140625,-0.06170654296875,1.00164794921875,-5.076751708984375,5.084228515625,9.099273681640625,1,1.0,1.0,1.0,1.0,10.00
2024-10-11 20:47:46.815,0.62508535,0.6960982,1.0432191,1.0980268,0.670701,0.27282795,0.8888752,1.1411275,1.0927382,0.2137657,0.6388472,0.93439364,0.7432652,-0.034488413,0.72491014,0.8185831,0.2886026,-0.3609007,0.43306717,0.174988,805.4579,796.5934,803.44324,794.57874,582.23444,-0.09234619140625,-0.06170654296875,1.00164794921875,-5.076751708984375,5.084228515625,9.099273681640625,1,1.0,1.0,1.0,1.0,10.00
2024-10-11 20:47:46.815,0.62508535,0.6960982,1.0432191,1.0980268,0.670701,0.27282795,0.8888752,1.1411275,1.0927382,0.2137657,0.6388472,0.93439364,0.7432652,-0.034488413,0.72491014,0.8185831,0.2886026,-0.3609007,0.43306717,0.174988,801.8315,795.78754,799.41394,806.26373,819.15753,-0.09234619140625,-0.06170654296875,1.00164794921875,-5.076751708984375,5.084228515625,9.099273681640625,1,1.0,1.0,1.0,1.0,10.00
2024-10-11 20:47:46.816,0.62508535,0.6960982,1.0432191,1.0980268,0.670701,0.27282795,0.8888752,1.1411275,1.0927382,0.2137657,0.6388472,0.93439364,0.7432652,-0.034488413,0.72491014,0.8185831,0.2886026,-0.3609007,0.43306717,0.174988,810.293,798.60803,799.011,814.7253,786.1172,-0.09234619140625,-0.06170654296875,1.00164794921875,-5.076751708984375,5.084228515625,9.099273681640625,1,1.0,1.0,1.0,1.0,10.00
2024-10-11 20:47:46.816,0.62508535,0.6960982,1.0432191,1.0980268,0.670701,0.27282795,0.8888752,1.1411275,1.0927382,0.2137657,0.6388472,0.93439364,0.7432652,-0.034488413,0.72491014,0.8185831,0.2886026,-0.3609007,0.43306717,0.174988,803.8461,796.5934,801.4286,798.20514,555.2381,-0.09234619140625,-0.06170654296875,1.00164794921875,-5.076751708984375,5.084228515625,9.099273681640625,1,1.0,1.0,1.0,1.0,10.00
2024-10-11 20:47:46.817,0.62508535,0.6960982,1.0432191,1.0980268,0.670701,0.27282795,0.8888752,1.1411275,1.0927382,0.2137657,0.6388472,0.93439364,0.7432652,-0.034488413,0.72491014,0.8185831,0.2886026,-0.3609007,0.43306717,0.174988,797.8022,793.36993,796.5934,789.34064,476.66666,-0.09234619140625,-0.06170654296875,1.00164794921875,-5.076751708984375,5.084228515625,9.099273681640625,1,1.0,1.0,1.0,1.0,10.00
2024-10-11 20:47:46.817,0.62508535,0.6960982,1.0432191,1.0980268,0.670701,0.27282795,0.8888752,1.1411275,1.0927382,0.2137657,0.6388472,0.93439364,0.7432652,-0.034488413,0.72491014,0.8185831,0.2886026,-0.3609007,0.43306717,0.174988,795.38464,790.54944,797.3993,800.2198,702.71063,-0.09234619140625,-0.06170654296875,1.00164794921875,-5.076751708984375,5.084228515625,9.099273681640625,1,1.0,1.0,1.0,1.0,10.00
2024-10-11 20:47:46.818,0.62508535,0.6960982,1.0432191,1.0980268,0.670701,0.27282795,0.8888752,1.1411275,1.0927382,0.2137657,0.6388472,0.93439364,0.7432652,-0.034488413,0.72491014,0.8185831,0.2886026,-0.3609007,0.43306717,0.174988,795.38464,790.54944,790.54944,802.23444,799.41394,-0.09234619140625,-0.06170654296875,1.00164794921875,-5.076751708984375,5.084228515625,9.099273681640625,1,1.0,1.0,1.0,1.0,10.00
2024-10-11 20:47:46.869,0.62508535,0.6960982,1.0432191,1.0980268,0.670701,0.27282795,0.8888752,1.1411275,1.0927382,0.2137657,0.6388472,0.93439364,0.7432652,-0.034488413,0.72491014,0.8185831,0.2886026,-0.3609007,0.43306717,0.174988,808.2784,793.7729,789.7436,804.2491,481.90475,-0.09234619140625,-0.06170654296875,1.00164794921875,-5.076751708984375,5.084228515625,9.099273681640625,1,1.0,1.0,1.0,1.0,10.00
2024-10-11 20:47:46.870,0.62508535,0.6960982,1.0432191,1.0980268,0.670701,0.27282795,0.8888752,1.1411275,1.0927382,0.2137657,0.6388472,0.93439364,0.7432652,-0.034488413,0.72491014,0.8185831,0.2886026,-0.3609007,0.43306717,0.174988,819.15753,799.011,800.2198,813.5165,530.2564,-0.09234619140625,-0.06170654296875,1.00164794921875,-5.076751708984375,5.084228515625,9.099273681640625,1,1.0,1.0,1.0,1.0,10.00
2024-10-11 20:47:46.871,0.62508535,0.6960982,1.0432191,1.0980268,0.670701,0.27282795,0.8888752,1.1411275,1.0927382,0.2137657,0.6388472,0.93439364,0.7432652,-0.034488413,0.72491014,0.8185831,0.2886026,-0.3609007,0.43306717,0.174988,803.0403,799.41394,807.0696,794.17584,659.59705,-0.09234619140625,-0.06170654296875,1.00164794921875,-5.076751708984375,5.084228515625,9.099273681640625,1,1.0,1.0,1.0,1.0,10.00
2024-10-11 20:47:46.871,0.62508535,0.6960982,1.0432191,1.0980268,0.670701,0.27282795,0.8888752,1.1411275,1.0927382,0.2137657,0.6388472,0.93439364,0.7432652,-0.034488413,0.72491014,0.8185831,0.2886026,-0.3609007,0.43306717,0.174988,788.1319,794.17584,813.91943,776.8498,737.3626,-0.09234619140625,-0.06170654296875,1.00164794921875,-5.076751708984375,5.084228515625,9.099273681640625,1,1.0,1.0,1.0,1.0,10.00
2024-10-11 20:47:46.872,0.62508535,0.6960982,1.0432191,1.0980268,0.670701,0.27282795,0.8888752,1.1411275,1.0927382,0.2137657,0.6388472,0.93439364,0.7432652,-0.034488413,0.72491014,0.8185831,0.2886026,-0.3609007,0.43306717,0.174988,799.41394,792.5641,814.3223,792.5641,690.6227,-0.09234619140625,-0.06170654296875,1.00164794921875,-5.076751708984375,5.084228515625,9.099273681640625,1,1.0,1.0,1.0,1.0,10.00
2024-10-11 20:47:46.872,0.62508535,0.6960982,1.0432191,1.0980268,0.670701,0.27282795,0.8888752,1.1411275,1.0927382,0.2137657,0.6388472,0.93439364,0.7432652,-0.034488413,0.72491014,0.8185831,0.2886026,-0.3609007,0.43306717,0.174988,798.20514,794.57874,812.71063,792.5641,650.7326,-0.09234619140625,-0.06170654296875,1.00164794921875,-5.076751708984375,5.084228515625,9.099273681640625,1,1.0,1.0,1.0,1.0,10.00
2024-10-11 20:47:46.873,0.62508535,0.6960982,1.0432191,1.0980268,0.670701,0.27282795,0.8888752,1.1411275,1.0927382,0.2137657,0.6388472,0.93439364,0.7432652,-0.034488413,0.72491014,0.8185831,0.2886026,-0.3609007,0.43306717,0.174988,782.49084,790.9524,804.2491,785.7143,991.2088,-0.09234619140625,-0.06170654296875,1.00164794921875,-5.076751708984375,5.084228515625,9.099273681640625,1,1.0,1.0,1.0,1.0,10.00
2024-10-11 20:47:46.874,0.62508535,0.6960982,1.0432191,1.0980268,0.670701,0.27282795,0.8888752,1.1411275,1.0927382,0.2137657,0.6388472,0.93439364,0.7432652,-0.034488413,0.72491014,0.8185831,0.2886026,-0.3609007,0.43306717,0.174988,788.1319,794.17584,801.4286,796.1905,963.4066,-0.09234619140625,-0.06170654296875,1.00164794921875,-5.076751708984375,5.084228515625,9.099273681640625,1,1.0,1.0,1.0,1.0,10.00
2024-10-11 20:47:46.874,0.62508535,0.6960982,1.0432191,1.0980268,0.670701,0.27282795,0.8888752,1.1411275,1.0927382,0.2137657,0.6388472,0.93439364,0.7432652,-0.034488413,0.72491014,0.8185831,0.2886026,-0.3609007,0.43306717,0.174988,784.90845,796.5934,808.2784,796.99634,532.27106,-0.09234619140625,-0.06170654296875,1.00164794921875,-5.076751708984375,5.084228515625,9.099273681640625,1,1.0,1.0,1.0,1.0,10.00
2024-10-11 20:47:46.875,0.62508535,0.6960982,1.0432191,1.0980268,0.670701,0.27282795,0.8888752,1.1411275,1.0927382,0.2137657,0.6388472,0.93439364,0.7432652,-0.034488413,0.72491014,0.8185831,0.2886026,-0.3609007,0.43306717,0.174988,787.72894,799.011,806.6667,801.4286,546.3736,-0.09234619140625,-0.06170654296875,1.00164794921875,-5.076751708984375,5.084228515625,9.099273681640625,1,1.0,1.0,1.0,1.0,10.00
2024-10-11 20:47:46.875,0.62508535,0.6960982,1.0432191,1.0980268,0.670701,0.27282795,0.8888752,1.1411275,1.0927382,0.2137657,0.6388472,0.93439364,0.7432652,-0.034488413,0.72491014,0.8185831,0.2886026,-0.3609007,0.43306717,0.174988,803.0403,802.6374,796.99634,803.44324,601.1722,-0.09234619140625,-0.06170654296875,1.00164794921875,-5.076751708984375,5.084228515625,9.099273681640625,1,1.0,1.0,1.0,1.0,10.00
2024-10-11 20:47:46.876,0.62508535,0.6960982,1.0432191,1.0980268,0.670701,0.27282795,0.8888752,1.1411275,1.0927382,0.2137657,0.6388472,0.93439364,0.7432652,-0.034488413,0.72491014,0.8185831,0.2886026,-0.3609007,0.43306717,0.174988,799.41394,803.8461,803.44324,796.99634,523.00366,-0.09234619140625,-0.06170654296875,1.00164794921875,-5.076751708984375,5.084228515625,9.099273681640625,1,1.0,1.0,1.0,1.0,10.00
2024-10-11 20:47:46.937,0.62508535,0.6960982,1.0432191,1.0980268,0.670701,0.27282795,0.8888752,1.1411275,1.0927382,0.2137657,0.6388472,0.93439364,0.7432652,-0.034488413,0.72491014,0.8185831,0.2886026,-0.3609007,0.43306717,0.174988,799.011,803.0403,813.91943,796.5934,530.65936,-0.1019287109375,-0.0679931640625,1.00146484375,-5.076751708984375,2.878570556640625,9.144134521484375,1,1.0,1.0,1.0,1.0,10.00
2024-10-11 20:47:46.938,0.62508535,0.6960982,1.0432191,1.0980268,0.670701,0.27282795,0.8888752,1.1411275,1.0927382,0.2137657,0.6388472,0.93439364,0.7432652,-0.034488413,0.72491014,0.8185831,0.2886026,-0.3609007,0.43306717,0.174988,799.011,795.38464,807.0696,794.57874,559.67035,-0.1019287109375,-0.0679931640625,1.00146484375,-5.076751708984375,2.878570556640625,9.144134521484375,1,1.0,1.0,1.0,1.0,10.00
2024-10-11 20:47:46.938,0.62508535,0.6960982,1.0432191,1.0980268,0.670701,0.27282795,0.8888752,1.1411275,1.0927382,0.2137657,0.6388472,0.93439364,0.7432652,-0.034488413,0.72491014,0.8185831,0.2886026,-0.3609007,0.43306717,0.174988,801.8315,799.41394,803.0403,794.57874,541.13556,-0.1019287109375,-0.0679931640625,1.00146484375,-5.076751708984375,2.878570556640625,9.144134521484375,1,1.0,1.0,1.0,1.0,10.00
2024-10-11 20:47:46.939,0.5063636,0.6860001,1.0432191,1.0980268,0.5588016,0.25525382,0.8888752,1.1411275,1.0753484,0.21645613,0.6388472,0.93439364,0.74869335,-0.058948915,0.72491014,0.8185831,0.3023779,-0.39072552,0.43306717,0.174988,803.8461,803.8461,804.65204,797.8022,534.2857,-0.1019287109375,-0.0679931640625,1.00146484375,-5.076751708984375,2.878570556640625,9.144134521484375,1,1.0,1.0,1.0,1.0,10.00
2024-10-11 20:47:46.943,0.5063636,0.6860001,1.0432191,1.0980268,0.5588016,0.25525382,0.8888752,1.1411275,1.0753484,0.21645613,0.6388472,0.93439364,0.74869335,-0.058948915,0.72491014,0.8185831,0.3023779,-0.39072552,0.43306717,0.174988,792.1612,797.3993,804.2491,801.8315,582.23444,-0.1019287109375,-0.0679931640625,1.00146484375,-5.076751708984375,2.878570556640625,9.144134521484375,1,1.0,1.0,1.0,1.0,10.00
2024-10-11 20:47:46.943,0.5063636,0.6860001,1.0432191,1.0980268,0.5588016,0.25525382,0.8888752,1.1411275,1.0753484,0.21645613,0.6388472,0.93439364,0.74869335,-0.058948915,0.72491014,0.8185831,0.3023779,-0.39072552,0.43306717,0.174988,789.7436,795.38464,803.44324,809.4872,779.2674,-0.1019287109375,-0.0679931640625,1.00146484375,-5.076751708984375,2.878570556640625,9.144134521484375,1,1.0,1.0,1.0,1.0,10.00
2024-10-11 20:47:46.944,0.5063636,0.6860001,1.0432191,1.0980268,0.5588016,0.25525382,0.8888752,1.1411275,1.0753484,0.21645613,0.6388472,0.93439364,0.74869335,-0.058948915,0.72491014,0.8185831,0.3023779,-0.39072552,0.43306717,0.174988,796.5934,794.9817,804.65204,801.8315,805.4579,-0.1019287109375,-0.0679931640625,1.00146484375,-5.076751708984375,2.878570556640625,9.144134521484375,1,1.0,1.0,1.0,1.0,10.00
2024-10-11 20:47:46.944,0.5063636,0.6860001,1.0432191,1.0980268,0.5588016,0.25525382,0.8888752,1.1411275,1.0753484,0.21645613,0.6388472,0.93439364,0.74869335,-0.058948915,0.72491014,0.8185831,0.3023779,-0.39072552,0.43306717,0.174988,798.20514,790.54944,803.44324,796.1905,714.7985,-0.1019287109375,-0.0679931640625,1.00146484375,-5.076751708984375,2.878570556640625,9.144134521484375,1,1.0,1.0,1.0,1.0,10.00
2024-10-11 20:47:46.945,0.5063636,0.6860001,1.0432191,1.0980268,0.5588016,0.25525382,0.8888752,1.1411275,1.0753484,0.21645613,0.6388472,0.93439364,0.74869335,-0.058948915,0.72491014,0.8185831,0.3023779,-0.39072552,0.43306717,0.174988,796.5934,792.1612,798.60803,798.60803,612.8571,-0.1019287109375,-0.0679931640625,1.00146484375,-5.076751708984375,2.878570556640625,9.144134521484375,1,1.0,1.0,1.0,1.0,10.00
2024-10-11 20:47:46.945,0.5063636,0.6860001,1.0432191,1.0980268,0.5588016,0.25525382,0.8888752,1.1411275,1.0753484,0.21645613,0.6388472,0.93439364,0.74869335,-0.058948915,0.72491014,0.8185831,0.3023779,-0.39072552,0.43306717,0.174988,801.02563,793.36993,794.17584,812.3077,818.7546,-0.1019287109375,-0.0679931640625,1.00146484375,-5.076751708984375,2.878570556640625,9.144134521484375,1,1.0,1.0,1.0,1.0,10.00
2024-10-11 20:47:46.946,0.5063636,0.6860001,1.0432191,1.0980268,0.5588016,0.25525382,0.8888752,1.1411275,1.0753484,0.21645613,0.6388472,0.93439364,0.74869335,-0.058948915,0.72491014,0.8185831,0.3023779,-0.39072552,0.43306717,0.174988,807.0696,792.1612,792.96704,821.5751,948.49817,-0.1019287109375,-0.0679931640625,1.00146484375,-5.076751708984375,2.878570556640625,9.144134521484375,1,1.0,1.0,1.0,1.0,10.00
2024-10-11 20:47:46.946,0.5063636,0.6860001,1.0432191,1.0980268,0.5588016,0.25525382,0.8888752,1.1411275,1.0753484,0.21645613,0.6388472,0.93439364,0.74869335,-0.058948915,0.72491014,0.8185831,0.3023779,-0.39072552,0.43306717,0.174988,802.6374,795.78754,785.7143,803.8461,515.7509,-0.1019287109375,-0.0679931640625,1.00146484375,-5.076751708984375,2.878570556640625,9.144134521484375,1,1.0,1.0,1.0,1.0,10.00
2024-10-11 20:47:46.976,0.5063636,0.6860001,1.0432191,1.0980268,0.5588016,0.25525382,0.8888752,1.1411275,1.0753484,0.21645613,0.6388472,0.93439364,0.74869335,-0.058948915,0.72491014,0.8185831,0.3023779,-0.39072552,0.43306717,0.174988,796.5934,796.5934,792.5641,799.41394,574.9817,-0.10919189453125,-0.0771484375,1.00030517578125,-5.203857421875,1.6448974609375,9.592742919921875,1,1.0,1.0,1.0,1.0,10.00
2024-10-11 20:47:46.977,0.5063636,0.6860001,1.0432191,1.0980268,0.5588016,0.25525382,0.8888752,1.1411275,1.0753484,0.21645613,0.6388472,0.93439364,0.74869335,-0.058948915,0.72491014,0.8185831,0.3023779,-0.39072552,0.43306717,0.174988,794.9817,792.5641,805.05493,794.9817,706.337,-0.10919189453125,-0.0771484375,1.00030517578125,-5.203857421875,1.6448974609375,9.592742919921875,1,1.0,1.0,1.0,1.0,10.00
2024-10-11 20:47:46.978,0.5063636,0.6860001,1.0432191,1.0980268,0.5588016,0.25525382,0.8888752,1.1411275,1.0753484,0.21645613,0.6388472,0.93439364,0.74869335,-0.058948915,0.72491014,0.8185831,0.3023779,-0.39072552,0.43306717,0.174988,794.9817,795.78754,802.23444,790.9524,595.9341,-0.10919189453125,-0.0771484375,1.00030517578125,-5.203857421875,1.6448974609375,9.592742919921875,1,1.0,1.0,1.0,1.0,10.00
2024-10-11 20:47:46.979,0.5063636,0.6860001,1.0432191,1.0980268,0.5588016,0.25525382,0.8888752,1.1411275,1.0753484,0.21645613,0.6388472,0.93439364,0.74869335,-0.058948915,0.72491014,0.8185831,0.3023779,-0.39072552,0.43306717,0.174988,800.6227,801.4286,808.68134,797.8022,543.1502,-0.10919189453125,-0.0771484375,1.00030517578125,-5.203857421875,1.6448974609375,9.592742919921875,1,1.0,1.0,1.0,1.0,10.00
2024-10-11 20:47:46.979,0.5063636,0.6860001,1.0432191,1.0980268,0.5588016,0.25525382,0.8888752,1.1411275,1.0753484,0.21645613,0.6388472,0.93439364,0.74869335,-0.058948915,0.72491014,0.8185831,0.3023779,-0.39072552,0.43306717,0.174988,792.96704,798.20514,798.20514,796.1905,684.9817,-0.10919189453125,-0.0771484375,1.00030517578125,-5.203857421875,1.6448974609375,9.592742919921875,1,1.0,1.0,1.0,1.0,10.00
2024-10-11 20:47:46.980,0.5063636,0.6860001,1.0432191,1.0980268,0.5588016,0.25525382,0.8888752,1.1411275,1.0753484,0.21645613,0.6388472,0.93439364,0.74869335,-0.058948915,0.72491014,0.8185831,0.3023779,-0.39072552,0.43306717,0.174988,788.1319,796.5934,784.90845,793.7729,885.2381,-0.10919189453125,-0.0771484375,1.00030517578125,-5.203857421875,1.6448974609375,9.592742919921875,1,1.0,1.0,1.0,1.0,10.00
2024-10-11 20:47:46.981,0.5063636,0.6860001,1.0432191,1.0980268,0.5588016,0.25525382,0.8888752,1.1411275,1.0753484,0.21645613,0.6388472,0.93439364,0.74869335,-0.058948915,0.72491014,0.8185831,0.3023779,-0.39072552,0.43306717,0.174988,798.20514,801.4286,801.8315,796.5934,849.3773,-0.10919189453125,-0.0771484375,1.00030517578125,-5.203857421875,1.6448974609375,9.592742919921875,1,1.0,1.0,1.0,1.0,10.00
2024-10-11 20:47:46.981,0.5063636,0.6860001,1.0432191,1.0980268,0.5588016,0.25525382,0.8888752,1.1411275,1.0753484,0.21645613,0.6388472,0.93439364,0.74869335,-0.058948915,0.72491014,0.8185831,0.3023779,-0.39072552,0.43306717,0.174988,810.293,803.44324,806.6667,803.44324,674.90845,-0.10919189453125,-0.0771484375,1.00030517578125,-5.203857421875,1.6448974609375,9.592742919921875,1,1.0,1.0,1.0,1.0,10.00
2024-10-11 20:47:46.982,0.5063636,0.6860001,1.0432191,1.0980268,0.5588016,0.25525382,0.8888752,1.1411275,1.0753484,0.21645613,0.6388472,0.93439364,0.74869335,-0.058948915,0.72491014,0.8185831,0.3023779,-0.39072552,0.43306717,0.174988,815.5311,800.6227,803.8461,807.0696,834.87177,-0.10919189453125,-0.0771484375,1.00030517578125,-5.203857421875,1.6448974609375,9.592742919921875,1,1.0,1.0,1.0,1.0,10.00
2024-10-11 20:47:46.983,0.5063636,0.6860001,1.0432191,1.0980268,0.5588016,0.25525382,0.8888752,1.1411275,1.0753484,0.21645613,0.6388472,0.93439364,0.74869335,-0.058948915,0.72491014,0.8185831,0.3023779,-0.39072552,0.43306717,0.174988,809.89014,794.9817,806.6667,815.12823,1073.4066,-0.10919189453125,-0.0771484375,1.00030517578125,-5.203857421875,1.6448974609375,9.592742919921875,1,1.0,1.0,1.0,1.0,10.00
2024-10-11 20:47:46.984,0.5063636,0.6860001,1.0432191,1.0980268,0.5588016,0.25525382,0.8888752,1.1411275,1.0753484,0.21645613,0.6388472,0.93439364,0.74869335,-0.058948915,0.72491014,0.8185831,0.3023779,-0.39072552,0.43306717,0.174988,810.293,797.8022,805.4579,813.91943,718.8278,-0.10919189453125,-0.0771484375,1.00030517578125,-5.203857421875,1.6448974609375,9.592742919921875,1,1.0,1.0,1.0,1.0,10.00
2024-10-11 20:47:46.984,0.5063636,0.6860001,1.0432191,1.0980268,0.5588016,0.25525382,0.8888752,1.1411275,1.0753484,0.21645613,0.6388472,0.93439364,0.74869335,-0.058948915,0.72491014,0.8185831,0.3023779,-0.39072552,0.43306717,0.174988,808.2784,803.0403,809.89014,796.99634,499.23077,-0.10919189453125,-0.0771484375,1.00030517578125,-5.203857421875,1.6448974609375,9.592742919921875,1,1.0,1.0,1.0,1.0,10.00
2024-10-11 20:47:47.044,0.5063636,0.6860001,1.0432191,1.0980268,0.5588016,0.25525382,0.8888752,1.1411275,1.0753484,0.21645613,0.6388472,0.93439364,0.74869335,-0.058948915,0.72491014,0.8185831,0.3023779,-0.39072552,0.43306717,0.174988,804.65204,796.1905,809.4872,792.1612,693.44324,-0.1162109375,-0.09014892578125,0.99267578125,-4.127197265625,2.848663330078125,11.596527099609375,1,1.0,1.0,1.0,1.0,10.00
2024-10-11 20:47:47.045,0.5063636,0.6860001,1.0432191,1.0980268,0.5588016,0.25525382,0.8888752,1.1411275,1.0753484,0.21645613,0.6388472,0.93439364,0.74869335,-0.058948915,0.72491014,0.8185831,0.3023779,-0.39072552,0.43306717,0.174988,810.696,793.7729,801.8315,809.4872,1006.9231,-0.1162109375,-0.09014892578125,0.99267578125,-4.127197265625,2.848663330078125,11.596527099609375,1,1.0,1.0,1.0,1.0,10.00
2024-10-11 20:47:47.046,0.5063636,0.6860001,1.0432191,1.0980268,0.5588016,0.25525382,0.8888752,1.1411275,1.0753484,0.21645613,0.6388472,0.93439364,0.74869335,-0.058948915,0.72491014,0.8185831,0.3023779,-0.39072552,0.43306717,0.174988,810.696,799.41394,796.99634,802.6374,733.73627,-0.1162109375,-0.09014892578125,0.99267578125,-4.127197265625,2.848663330078125,11.596527099609375,1,1.0,1.0,1.0,1.0,10.00
2024-10-11 20:47:47.047,0.5063636,0.6860001,1.0432191,1.0980268,0.5588016,0.25525382,0.8888752,1.1411275,1.0753484,0.21645613,0.6388472,0.93439364,0.74869335,-0.058948915,0.72491014,0.8185831,0.3023779,-0.39072552,0.43306717,0.174988,809.89014,800.6227,792.1612,790.9524,502.45422,-0.1162109375,-0.09014892578125,0.99267578125,-4.127197265625,2.848663330078125,11.596527099609375,1,1.0,1.0,1.0,1.0,10.00
2024-10-11 20:47:47.048,0.5063636,0.6860001,1.0432191,1.0980268,0.5588016,0.25525382,0.8888752,1.1411275,1.0753484,0.21645613,0.6388472,0.93439364,0.74869335,-0.058948915,0.72491014,0.8185831,0.3023779,-0.39072552,0.43306717,0.174988,809.4872,798.20514,801.02563,798.60803,600.3663,-0.1162109375,-0.09014892578125,0.99267578125,-4.127197265625,2.848663330078125,11.596527099609375,1,1.0,1.0,1.0,1.0,10.00
2024-10-11 20:47:47.048,0.39890105,0.61610866,1.0432191,1.0980268,0.4419601,0.20844954,0.8888752,1.1411275,1.0422642,0.20509927,0.6388472,0.93439364,0.75404966,-0.075518854,0.72491014,0.8185831,0.3027247,-0.4308286,0.43306717,0.174988,809.89014,801.02563,805.8608,805.8608,641.4652,-0.1162109375,-0.09014892578125,0.99267578125,-4.127197265625,2.848663330078125,11.596527099609375,1,1.0,1.0,1.0,1.0,10.00
2024-10-11 20:47:47.054,0.39890105,0.61610866,1.0432191,1.0980268,0.4419601,0.20844954,0.8888752,1.1411275,1.0422642,0.20509927,0.6388472,0.93439364,0.75404966,-0.075518854,0.72491014,0.8185831,0.3027247,-0.4308286,0.43306717,0.174988,806.26373,803.0403,801.4286,794.9817,752.674,-0.1162109375,-0.09014892578125,0.99267578125,-4.127197265625,2.848663330078125,11.596527099609375,1,1.0,1.0,1.0,1.0,10.00
2024-10-11 20:47:47.055,0.39890105,0.61610866,1.0432191,1.0980268,0.4419601,0.20844954,0.8888752,1.1411275,1.0422642,0.20509927,0.6388472,0.93439364,0.75404966,-0.075518854,0.72491014,0.8185831,0.3027247,-0.4308286,0.43306717,0.174988,803.0403,801.02563,803.0403,787.72894,669.67035,-0.1162109375,-0.09014892578125,0.99267578125,-4.127197265625,2.848663330078125,11.596527099609375,1,1.0,1.0,1.0,1.0,10.00
2024-10-11 20:47:47.055,0.39890105,0.61610866,1.0432191,1.0980268,0.4419601,0.20844954,0.8888752,1.1411275,1.0422642,0.20509927,0.6388472,0.93439364,0.75404966,-0.075518854,0.72491014,0.8185831,0.3027247,-0.4308286,0.43306717,0.174988,808.68134,801.4286,807.47253,805.05493,774.83514,-0.1162109375,-0.09014892578125,0.99267578125,-4.127197265625,2.848663330078125,11.596527099609375,1,1.0,1.0,1.0,1.0,10.00
2024-10-11 20:47:47.056,0.39890105,0.61610866,1.0432191,1.0980268,0.4419601,0.20844954,0.8888752,1.1411275,1.0422642,0.20509927,0.6388472,0.93439364,0.75404966,-0.075518854,0.72491014,0.8185831,0.3027247,-0.4308286,0.43306717,0.174988,816.7399,801.02563,807.47253,812.71063,935.2015,-0.1162109375,-0.09014892578125,0.99267578125,-4.127197265625,2.848663330078125,11.596527099609375,1,1.0,1.0,1.0,1.0,10.00
2024-10-11 20:47:47.057,0.39890105,0.61610866,1.0432191,1.0980268,0.4419601,0.20844954,0.8888752,1.1411275,1.0422642,0.20509927,0.6388472,0.93439364,0.75404966,-0.075518854,0.72491014,0.8185831,0.3027247,-0.4308286,0.43306717,0.174988,805.05493,799.81683,806.6667,809.89014,581.8315,-0.1162109375,-0.09014892578125,0.99267578125,-4.127197265625,2.848663330078125,11.596527099609375,1,1.0,1.0,1.0,1.0,10.00
2024-10-11 20:47:47.058,0.39890105,0.61610866,1.0432191,1.0980268,0.4419601,0.20844954,0.8888752,1.1411275,1.0422642,0.20509927,0.6388472,0.93439364,0.75404966,-0.075518854,0.72491014,0.8185831,0.3027247,-0.4308286,0.43306717,0.174988,802.6374,800.6227,811.0989,810.293,578.60803,-0.1162109375,-0.09014892578125,0.99267578125,-4.127197265625,2.848663330078125,11.596527099609375,1,1.0,1.0,1.0,1.0,10.00
2024-10-11 20:47:47.059,0.39890105,0.61610866,1.0432191,1.0980268,0.4419601,0.20844954,0.8888752,1.1411275,1.0422642,0.20509927,0.6388472,0.93439364,0.75404966,-0.075518854,0.72491014,0.8185831,0.3027247,-0.4308286,0.43306717,0.174988,814.3223,802.23444,807.47253,799.81683,749.85345,-0.1192626953125,-0.0986328125,0.99444580078125,-2.908477783203125,2.3028564453125,11.775970458984375,1,1.0,1.0,1.0,1.0,10.00
2024-10-11 20:47:47.059,0.39890105,0.61610866,1.0432191,1.0980268,0.4419601,0.20844954,0.8888752,1.1411275,1.0422642,0.20509927,0.6388472,0.93439364,0.75404966,-0.075518854,0.72491014,0.8185831,0.3027247,-0.4308286,0.43306717,0.174988,814.7253,803.44324,811.0989,794.17584,628.97437,-0.1192626953125,-0.0986328125,0.99444580078125,-2.908477783203125,2.3028564453125,11.775970458984375,1,1.0,1.0,1.0,1.0,10.00
2024-10-11 20:47:47.060,0.39890105,0.61610866,1.0432191,1.0980268,0.4419601,0.20844954,0.8888752,1.1411275,1.0422642,0.20509927,0.6388472,0.93439364,0.75404966,-0.075518854,0.72491014,0.8185831,0.3027247,-0.4308286,0.43306717,0.174988,811.50183,805.8608,799.81683,793.7729,543.1502,-0.1192626953125,-0.0986328125,0.99444580078125,-2.908477783203125,2.3028564453125,11.775970458984375,1,1.0,1.0,1.0,1.0,10.00
2024-10-11 20:47:47.061,0.39890105,0.61610866,1.0432191,1.0980268,0.4419601,0.20844954,0.8888752,1.1411275,1.0422642,0.20509927,0.6388472,0.93439364,0.75404966,-0.075518854,0.72491014,0.8185831,0.3027247,-0.4308286,0.43306717,0.174988,809.89014,804.2491,784.5055,796.5934,587.0696,-0.1192626953125,-0.0986328125,0.99444580078125,-2.908477783203125,2.3028564453125,11.775970458984375,1,1.0,1.0,1.0,1.0,10.00
2024-10-11 20:47:47.062,0.39890105,0.61610866,1.0432191,1.0980268,0.4419601,0.20844954,0.8888752,1.1411275,1.0422642,0.20509927,0.6388472,0.93439364,0.75404966,-0.075518854,0.72491014,0.8185831,0.3027247,-0.4308286,0.43306717,0.174988,808.68134,803.44324,801.8315,793.7729,627.3626,-0.1192626953125,-0.0986328125,0.99444580078125,-2.908477783203125,2.3028564453125,11.775970458984375,1,1.0,1.0,1.0,1.0,10.00
2024-10-11 20:47:47.062,0.39890105,0.61610866,1.0432191,1.0980268,0.4419601,0.20844954,0.8888752,1.1411275,1.0422642,0.20509927,0.6388472,0.93439364,0.75404966,-0.075518854,0.72491014,0.8185831,0.3027247,-0.4308286,0.43306717,0.174988,807.47253,799.011,809.89014,790.54944,772.01465,-0.1192626953125,-0.0986328125,0.99444580078125,-2.908477783203125,2.3028564453125,11.775970458984375,1,1.0,1.0,1.0,1.0,10.00
2024-10-11 20:47:47.063,0.39890105,0.61610866,1.0432191,1.0980268,0.4419601,0.20844954,0.8888752,1.1411275,1.0422642,0.20509927,0.6388472,0.93439364,0.75404966,-0.075518854,0.72491014,0.8185831,0.3027247,-0.4308286,0.43306717,0.174988,808.2784,794.9817,800.6227,799.41394,748.6447,-0.1192626953125,-0.0986328125,0.99444580078125,-2.908477783203125,2.3028564453125,11.775970458984375,1,1.0,1.0,1.0,1.0,10.00
2024-10-11 20:47:47.064,0.39890105,0.61610866,1.0432191,1.0980268,0.4419601,0.20844954,0.8888752,1.1411275,1.0422642,0.20509927,0.6388472,0.93439364,0.75404966,-0.075518854,0.72491014,0.8185831,0.3027247,-0.4308286,0.43306717,0.174988,813.1135,801.4286,802.6374,808.2784,657.98535,-0.1192626953125,-0.0986328125,0.99444580078125,-2.908477783203125,2.3028564453125,11.775970458984375,1,1.0,1.0,1.0,1.0,10.00
2024-10-11 20:47:47.065,0.39890105,0.61610866,1.0432191,1.0980268,0.4419601,0.20844954,0.8888752,1.1411275,1.0422642,0.20509927,0.6388472,0.93439364,0.75404966,-0.075518854,0.72491014,0.8185831,0.3027247,-0.4308286,0.43306717,0.174988,812.3077,798.60803,807.8755,806.26373,747.8388,-0.1192626953125,-0.0986328125,0.99444580078125,-2.908477783203125,2.3028564453125,11.775970458984375,1,1.0,1.0,1.0,1.0,10.00
2024-10-11 20:47:47.065,0.39890105,0.61610866,1.0432191,1.0980268,0.4419601,0.20844954,0.8888752,1.1411275,1.0422642,0.20509927,0.6388472,0.93439364,0.75404966,-0.075518854,0.72491014,0.8185831,0.3027247,-0.4308286,0.43306717,0.174988,807.47253,795.38464,803.44324,787.326,636.63007,-0.1192626953125,-0.0986328125,0.99444580078125,-2.908477783203125,2.3028564453125,11.775970458984375,1,1.0,1.0,1.0,1.0,10.00
2024-10-11 20:47:47.066,0.39890105,0.61610866,1.0432191,1.0980268,0.4419601,0.20844954,0.8888752,1.1411275,1.0422642,0.20509927,0.6388472,0.93439364,0.75404966,-0.075518854,0.72491014,0.8185831,0.3027247,-0.4308286,0.43306717,0.174988,805.05493,796.99634,794.9817,788.1319,485.93405,-0.1192626953125,-0.0986328125,0.99444580078125,-2.908477783203125,2.3028564453125,11.775970458984375,1,1.0,1.0,1.0,1.0,10.00
2024-10-11 20:47:47.067,0.39890105,0.61610866,1.0432191,1.0980268,0.4419601,0.20844954,0.8888752,1.1411275,1.0422642,0.20509927,0.6388472,0.93439364,0.75404966,-0.075518854,0.72491014,0.8185831,0.3027247,-0.4308286,0.43306717,0.174988,806.6667,796.1905,787.326,793.7729,682.96704,-0.1192626953125,-0.0986328125,0.99444580078125,-2.908477783203125,2.3028564453125,11.775970458984375,1,1.0,1.0,1.0,1.0,10.00
2024-10-11 20:47:47.095,0.39890105,0.61610866,1.0432191,1.0980268,0.4419601,0.20844954,0.8888752,1.1411275,1.0422642,0.20509927,0.6388472,0.93439364,0.75404966,-0.075518854,0.72491014,0.8185831,0.3027247,-0.4308286,0.43306717,0.174988,809.89014,799.41394,796.1905,790.9524,792.5641,-0.1234130859375,-0.095458984375,0.9949951171875,-1.996307373046875,-1.024322509765625,11.805877685546875,1,1.0,1.0,1.0,1.0,10.00
2024-10-11 20:47:47.096,0.39890105,0.61610866,1.0432191,1.0980268,0.4419601,0.20844954,0.8888752,1.1411275,1.0422642,0.20509927,0.6388472,0.93439364,0.75404966,-0.075518854,0.72491014,0.8185831,0.3027247,-0.4308286,0.43306717,0.174988,810.696,801.8315,805.4579,793.7729,628.97437,-0.1234130859375,-0.095458984375,0.9949951171875,-1.996307373046875,-1.024322509765625,11.805877685546875,1,1.0,1.0,1.0,1.0,10.00
2024-10-11 20:47:47.096,0.39890105,0.61610866,1.0432191,1.0980268,0.4419601,0.20844954,0.8888752,1.1411275,1.0422642,0.20509927,0.6388472,0.93439364,0.75404966,-0.075518854,0.72491014,0.8185831,0.3027247,-0.4308286,0.43306717,0.174988,803.8461,800.2198,790.14655,790.14655,674.90845,-0.1234130859375,-0.095458984375,0.9949951171875,-1.996307373046875,-1.024322509765625,11.805877685546875,1,1.0,1.0,1.0,1.0,10.00
2024-10-11 20:47:47.097,0.39890105,0.61610866,1.0432191,1.0980268,0.4419601,0.20844954,0.8888752,1.1411275,1.0422642,0.20509927,0.6388472,0.93439364,0.75404966,-0.075518854,0.72491014,0.8185831,0.3027247,-0.4308286,0.43306717,0.174988,807.8755,801.4286,789.34064,801.4286,807.8755,-0.1234130859375,-0.095458984375,0.9949951171875,-1.996307373046875,-1.024322509765625,11.805877685546875,1,1.0,1.0,1.0,1.0,10.00
2024-10-11 20:47:47.098,0.39890105,0.61610866,1.0432191,1.0980268,0.4419601,0.20844954,0.8888752,1.1411275,1.0422642,0.20509927,0.6388472,0.93439364,0.75404966,-0.075518854,0.72491014,0.8185831,0.3027247,-0.4308286,0.43306717,0.174988,807.0696,799.41394,806.26373,812.3077,802.6374,-0.1234130859375,-0.095458984375,0.9949951171875,-1.996307373046875,-1.024322509765625,11.805877685546875,1,1.0,1.0,1.0,1.0,10.00
2024-10-11 20:47:47.098,0.39890105,0.61610866,1.0432191,1.0980268,0.4419601,0.20844954,0.8888752,1.1411275,1.0422642,0.20509927,0.6388472,0.93439364,0.75404966,-0.075518854,0.72491014,0.8185831,0.3027247,-0.4308286,0.43306717,0.174988,798.60803,804.65204,797.8022,803.44324,633.00366,-0.1234130859375,-0.095458984375,0.9949951171875,-1.996307373046875,-1.024322509765625,11.805877685546875,1,1.0,1.0,1.0,1.0,10.00
2024-10-11 20:47:47.099,0.39890105,0.61610866,1.0432191,1.0980268,0.4419601,0.20844954,0.8888752,1.1411275,1.0422642,0.20509927,0.6388472,0.93439364,0.75404966,-0.075518854,0.72491014,0.8185831,0.3027247,-0.4308286,0.43306717,0.174988,803.44324,802.23444,792.96704,791.3553,652.3443,-0.1234130859375,-0.095458984375,0.9949951171875,-1.996307373046875,-1.024322509765625,11.805877685546875,1,1.0,1.0,1.0,1.0,10.00
2024-10-11 20:47:47.099,0.36034396,0.3016809,1.0432191,1.0980268,0.38496107,0.06859464,0.8888752,1.1411275,1.021042,0.21106015,0.6388472,0.93439364,0.7540742,-0.085853025,0.72491014,0.8185831,0.28734884,-0.47599104,0.43306717,0.174988,805.8608,790.54944,792.96704,799.011,892.0879,-0.1234130859375,-0.095458984375,0.9949951171875,-1.996307373046875,-1.024322509765625,11.805877685546875,1,1.0,1.0,1.0,1.0,10.00
2024-10-11 20:47:47.103,0.36034396,0.3016809,1.0432191,1.0980268,0.38496107,0.06859464,0.8888752,1.1411275,1.021042,0.21106015,0.6388472,0.93439364,0.7540742,-0.085853025,0.72491014,0.8185831,0.28734884,-0.47599104,0.43306717,0.174988,800.6227,795.38464,778.0586,808.68134,1201.5385,-0.1234130859375,-0.095458984375,0.9949951171875,-1.996307373046875,-1.024322509765625,11.805877685546875,1,1.0,1.0,1.0,1.0,10.00
2024-10-11 20:47:47.104,0.36034396,0.3016809,1.0432191,1.0980268,0.38496107,0.06859464,0.8888752,1.1411275,1.021042,0.21106015,0.6388472,0.93439364,0.7540742,-0.085853025,0.72491014,0.8185831,0.28734884,-0.47599104,0.43306717,0.174988,798.20514,801.8315,787.326,799.41394,965.0183,-0.1234130859375,-0.095458984375,0.9949951171875,-1.996307373046875,-1.024322509765625,11.805877685546875,1,1.0,1.0,1.0,1.0,10.00
2024-10-11 20:47:47.104,0.36034396,0.3016809,1.0432191,1.0980268,0.38496107,0.06859464,0.8888752,1.1411275,1.021042,0.21106015,0.6388472,0.93439364,0.7540742,-0.085853025,0.72491014,0.8185831,0.28734884,-0.47599104,0.43306717,0.174988,797.8022,800.2198,813.91943,793.36993,523.4066,-0.1234130859375,-0.095458984375,0.9949951171875,-1.996307373046875,-1.024322509765625,11.805877685546875,1,1.0,1.0,1.0,1.0,10.00
2024-10-11 20:47:47.105,0.36034396,0.3016809,1.0432191,1.0980268,0.38496107,0.06859464,0.8888752,1.1411275,1.021042,0.21106015,0.6388472,0.93439364,0.7540742,-0.085853025,0.72491014,0.8185831,0.28734884,-0.47599104,0.43306717,0.174988,794.9817,798.60803,809.4872,789.34064,545.16486,-0.1234130859375,-0.095458984375,0.9949951171875,-1.996307373046875,-1.024322509765625,11.805877685546875,1,1.0,1.0,1.0,1.0,10.00
2024-10-11 20:47:47.127,0.36034396,0.3016809,1.0432191,1.0980268,0.38496107,0.06859464,0.8888752,1.1411275,1.021042,0.21106015,0.6388472,0.93439364,0.7540742,-0.085853025,0.72491014,0.8185831,0.28734884,-0.47599104,0.43306717,0.174988,798.20514,797.8022,792.5641,783.69965,654.7619,-0.1234130859375,-0.095458984375,0.9949951171875,-1.996307373046875,-1.024322509765625,11.805877685546875,1,1.0,1.0,1.0,1.0,10.00
2024-10-11 20:47:47.128,0.36034396,0.3016809,1.0432191,1.0980268,0.38496107,0.06859464,0.8888752,1.1411275,1.021042,0.21106015,0.6388472,0.93439364,0.7540742,-0.085853025,0.72491014,0.8185831,0.28734884,-0.47599104,0.43306717,0.174988,796.99634,798.20514,788.1319,788.5348,674.5055,-0.1234130859375,-0.095458984375,0.9949951171875,-1.996307373046875,-1.024322509765625,11.805877685546875,1,1.0,1.0,1.0,1.0,10.00
2024-10-11 20:47:47.129,0.36034396,0.3016809,1.0432191,1.0980268,0.38496107,0.06859464,0.8888752,1.1411275,1.021042,0.21106015,0.6388472,0.93439364,0.7540742,-0.085853025,0.72491014,0.8185831,0.28734884,-0.47599104,0.43306717,0.174988,801.4286,802.23444,794.57874,799.41394,715.2015,-0.1234130859375,-0.095458984375,0.9949951171875,-1.996307373046875,-1.024322509765625,11.805877685546875,1,1.0,1.0,1.0,1.0,10.00
2024-10-11 20:47:47.129,0.36034396,0.3016809,1.0432191,1.0980268,0.38496107,0.06859464,0.8888752,1.1411275,1.021042,0.21106015,0.6388472,0.93439364,0.7540742,-0.085853025,0.72491014,0.8185831,0.28734884,-0.47599104,0.43306717,0.174988,812.71063,801.8315,799.011,800.2198,754.68866,-0.1234130859375,-0.095458984375,0.9949951171875,-1.996307373046875,-1.024322509765625,11.805877685546875,1,1.0,1.0,1.0,1.0,10.00
2024-10-11 20:47:47.130,0.36034396,0.3016809,1.0432191,1.0980268,0.38496107,0.06859464,0.8888752,1.1411275,1.021042,0.21106015,0.6388472,0.93439364,0.7540742,-0.085853025,0.72491014,0.8185831,0.28734884,-0.47599104,0.43306717,0.174988,811.50183,800.2198,792.96704,802.23444,750.65936,-0.1234130859375,-0.095458984375,0.9949951171875,-1.996307373046875,-1.024322509765625,11.805877685546875,1,1.0,1.0,1.0,1.0,10.00
2024-10-11 20:47:47.131,0.36034396,0.3016809,1.0432191,1.0980268,0.38496107,0.06859464,0.8888752,1.1411275,1.021042,0.21106015,0.6388472,0.93439364,0.7540742,-0.085853025,0.72491014,0.8185831,0.28734884,-0.47599104,0.43306717,0.174988,801.8315,797.3993,783.69965,805.4579,765.16486,-0.1234130859375,-0.095458984375,0.9949951171875,-1.996307373046875,-1.024322509765625,11.805877685546875,1,1.0,1.0,1.0,1.0,10.00
2024-10-11 20:47:47.131,0.36034396,0.3016809,1.0432191,1.0980268,0.38496107,0.06859464,0.8888752,1.1411275,1.021042,0.21106015,0.6388472,0.93439364,0.7540742,-0.085853025,0.72491014,0.8185831,0.28734884,-0.47599104,0.43306717,0.174988,805.4579,794.57874,801.4286,806.6667,863.47986,-0.1234130859375,-0.095458984375,0.9949951171875,-1.996307373046875,-1.024322509765625,11.805877685546875,1,1.0,1.0,1.0,1.0,10.00
2024-10-11 20:47:47.131,0.36034396,0.3016809,1.0432191,1.0980268,0.38496107,0.06859464,0.8888752,1.1411275,1.021042,0.21106015,0.6388472,0.93439364,0.7540742,-0.085853025,0.72491014,0.8185831,0.28734884,-0.47599104,0.43306717,0.174988,797.3993,793.36993,817.9487,811.9048,1213.6263,-0.1234130859375,-0.095458984375,0.9949951171875,-1.996307373046875,-1.024322509765625,11.805877685546875,1,1.0,1.0,1.0,1.0,10.00
2024-10-11 20:47:47.132,0.36034396,0.3016809,1.0432191,1.0980268,0.38496107,0.06859464,0.8888752,1.1411275,1.021042,0.21106015,0.6388472,0.93439364,0.7540742,-0.085853025,0.72491014,0.8185831,0.28734884,-0.47599104,0.43306717,0.174988,796.5934,795.78754,813.91943,808.2784,1097.9854,-0.1234130859375,-0.095458984375,0.9949951171875,-1.996307373046875,-1.024322509765625,11.805877685546875,1,1.0,1.0,1.0,1.0,10.00
2024-10-11 20:47:47.133,0.36034396,0.3016809,1.0432191,1.0980268,0.38496107,0.06859464,0.8888752,1.1411275,1.021042,0.21106015,0.6388472,0.93439364,0.7540742,-0.085853025,0.72491014,0.8185831,0.28734884,-0.47599104,0.43306717,0.174988,804.65204,800.6227,808.68134,804.65204,721.2454,-0.1234130859375,-0.095458984375,0.9949951171875,-1.996307373046875,-1.024322509765625,11.805877685546875,1,1.0,1.0,1.0,1.0,10.00
2024-10-11 20:47:47.133,0.36034396,0.3016809,1.0432191,1.0980268,0.38496107,0.06859464,0.8888752,1.1411275,1.021042,0.21106015,0.6388472,0.93439364,0.7540742,-0.085853025,0.72491014,0.8185831,0.28734884,-0.47599104,0.43306717,0.174988,801.8315,799.81683,801.8315,810.293,786.52014,-0.1234130859375,-0.095458984375,0.9949951171875,-1.996307373046875,-1.024322509765625,11.805877685546875,1,1.0,1.0,1.0,1.0,10.00
2024-10-11 20:47:47.134,0.36034396,0.3016809,1.0432191,1.0980268,0.38496107,0.06859464,0.8888752,1.1411275,1.021042,0.21106015,0.6388472,0.93439364,0.7540742,-0.085853025,0.72491014,0.8185831,0.28734884,-0.47599104,0.43306717,0.174988,799.41394,797.3993,786.52014,803.0403,721.2454,-0.1234130859375,-0.095458984375,0.9949951171875,-1.996307373046875,-1.024322509765625,11.805877685546875,1,1.0,1.0,1.0,1.0,10.00
2024-10-11 20:47:47.230,0.36034396,0.3016809,1.0432191,1.0980268,0.38496107,0.06859464,0.8888752,1.1411275,1.021042,0.21106015,0.6388472,0.93439364,0.7540742,-0.085853025,0.72491014,0.8185831,0.28734884,-0.47599104,0.43306717,0.174988,792.5641,797.8022,786.9231,796.99634,557.6557,-0.1201171875,-0.0950927734375,1.00177001953125,-1.562652587890625,-0.560760498046875,9.966583251953125,1,1.0,1.0,1.0,1.0,10.00
2024-10-11 20:47:47.231,0.36034396,0.3016809,1.0432191,1.0980268,0.38496107,0.06859464,0.8888752,1.1411275,1.021042,0.21106015,0.6388472,0.93439364,0.7540742,-0.085853025,0.72491014,0.8185831,0.28734884,-0.47599104,0.43306717,0.174988,799.011,799.81683,807.47253,799.41394,590.696,-0.1201171875,-0.0950927734375,1.00177001953125,-1.562652587890625,-0.560760498046875,9.966583251953125,1,1.0,1.0,1.0,1.0,10.00
2024-10-11 20:47:47.232,0.36034396,0.3016809,1.0432191,1.0980268,0.38496107,0.06859464,0.8888752,1.1411275,1.021042,0.21106015,0.6388472,0.93439364,0.7540742,-0.085853025,0.72491014,0.8185831,0.28734884,-0.47599104,0.43306717,0.174988,810.293,803.0403,799.81683,805.4579,722.0513,-0.1201171875,-0.0950927734375,1.00177001953125,-1.562652587890625,-0.560760498046875,9.966583251953125,1,1.0,1.0,1.0,1.0,10.00
2024-10-11 20:47:47.233,0.36034396,0.3016809,1.0432191,1.0980268,0.38496107,0.06859464,0.8888752,1.1411275,1.021042,0.21106015,0.6388472,0.93439364,0.7540742,-0.085853025,0.72491014,0.8185831,0.28734884,-0.47599104,0.43306717,0.174988,801.8315,801.4286,794.57874,798.20514,660.40295,-0.1201171875,-0.0950927734375,1.00177001953125,-1.562652587890625,-0.560760498046875,9.966583251953125,1,1.0,1.0,1.0,1.0,10.00
2024-10-11 20:47:47.234,0.36034396,0.3016809,1.0432191,1.0980268,0.38496107,0.06859464,0.8888752,1.1411275,1.021042,0.21106015,0.6388472,0.93439364,0.7540742,-0.085853025,0.72491014,0.8185831,0.28734884,-0.47599104,0.43306717,0.174988,802.23444,801.4286,800.6227,793.36993,670.07324,-0.1201171875,-0.0950927734375,1.00177001953125,-1.562652587890625,-0.560760498046875,9.966583251953125,1,1.0,1.0,1.0,1.0,10.00
2024-10-11 20:47:47.234,0.36034396,0.3016809,1.0432191,1.0980268,0.38496107,0.06859464,0.8888752,1.1411275,1.021042,0.21106015,0.6388472,0.93439364,0.7540742,-0.085853025,0.72491014,0.8185831,0.28734884,-0.47599104,0.43306717,0.174988,809.4872,799.011,784.10254,799.81683,807.0696,-0.1201171875,-0.0950927734375,1.00177001953125,-1.562652587890625,-0.560760498046875,9.966583251953125,1,1.0,1.0,1.0,1.0,10.00
2024-10-11 20:47:47.235,0.36034396,0.3016809,1.0432191,1.0980268,0.38496107,0.06859464,0.8888752,1.1411275,1.021042,0.21106015,0.6388472,0.93439364,0.7540742,-0.085853025,0.72491014,0.8185831,0.28734884,-0.47599104,0.43306717,0.174988,801.8315,798.20514,793.7729,802.23444,930.7692,-0.1201171875,-0.0950927734375,1.00177001953125,-1.562652587890625,-0.560760498046875,9.966583251953125,1,1.0,1.0,1.0,1.0,10.00
2024-10-11 20:47:47.236,0.36034396,0.3016809,1.0432191,1.0980268,0.38496107,0.06859464,0.8888752,1.1411275,1.021042,0.21106015,0.6388472,0.93439364,0.7540742,-0.085853025,0.72491014,0.8185831,0.28734884,-0.47599104,0.43306717,0.174988,803.8461,804.2491,813.5165,806.26373,995.2381,-0.1201171875,-0.0950927734375,1.00177001953125,-1.562652587890625,-0.560760498046875,9.966583251953125,1,1.0,1.0,1.0,1.0,10.00
2024-10-11 20:47:47.237,0.36034396,0.3016809,1.0432191,1.0980268,0.38496107,0.06859464,0.8888752,1.1411275,1.021042,0.21106015,0.6388472,0.93439364,0.7540742,-0.085853025,0.72491014,0.8185831,0.28734884,-0.47599104,0.43306717,0.174988,812.71063,801.4286,807.47253,801.8315,847.76556,-0.1201171875,-0.0950927734375,1.00177001953125,-1.562652587890625,-0.560760498046875,9.966583251953125,1,1.0,1.0,1.0,1.0,10.00
2024-10-11 20:47:47.238,0.36034396,0.26612946,1.0432191,1.0980268,0.38496107,0.04096498,0.8888752,1.1411275,1.021042,0.2193565,0.6388472,0.93439364,0.7540742,-0.087938644,0.72491014,0.8185831,0.28734884,-0.46908778,0.43306717,0.174988,814.7253,799.81683,797.8022,804.2491,740.58606,-0.1201171875,-0.0950927734375,1.00177001953125,-1.562652587890625,-0.560760498046875,9.966583251953125,1,1.0,1.0,1.0,1.0,10.00
2024-10-11 20:47:47.243,0.36034396,0.26612946,1.0432191,1.0980268,0.38496107,0.04096498,0.8888752,1.1411275,1.021042,0.2193565,0.6388472,0.93439364,0.7540742,-0.087938644,0.72491014,0.8185831,0.28734884,-0.46908778,0.43306717,0.174988,807.47253,800.6227,788.1319,811.0989,913.44324,-0.1201171875,-0.0950927734375,1.00177001953125,-1.562652587890625,-0.560760498046875,9.966583251953125,1,1.0,1.0,1.0,1.0,10.00
2024-10-11 20:47:47.244,0.36034396,0.26612946,1.0432191,1.0980268,0.38496107,0.04096498,0.8888752,1.1411275,1.021042,0.2193565,0.6388472,0.93439364,0.7540742,-0.087938644,0.72491014,0.8185831,0.28734884,-0.46908778,0.43306717,0.174988,797.8022,798.20514,800.2198,813.1135,1092.3444,-0.1201171875,-0.0950927734375,1.00177001953125,-1.562652587890625,-0.560760498046875,9.966583251953125,1,1.0,1.0,1.0,1.0,10.00
2024-10-11 20:47:47.272,0.36034396,0.26612946,1.0432191,1.0980268,0.38496107,0.04096498,0.8888752,1.1411275,1.021042,0.2193565,0.6388472,0.93439364,0.7540742,-0.087938644,0.72491014,0.8185831,0.28734884,-0.46908778,0.43306717,0.174988,792.1612,793.7729,804.2491,803.8461,809.89014,-0.1263427734375,-0.0950927734375,1.008544921875,-1.398162841796875,-0.680389404296875,6.8487548828125,1,1.0,1.0,1.0,1.0,10.00
2024-10-11 20:47:47.273,0.36034396,0.26612946,1.0432191,1.0980268,0.38496107,0.04096498,0.8888752,1.1411275,1.021042,0.2193565,0.6388472,0.93439364,0.7540742,-0.087938644,0.72491014,0.8185831,0.28734884,-0.46908778,0.43306717,0.174988,788.5348,793.36993,799.011,790.54944,664.43225,-0.1263427734375,-0.0950927734375,1.008544921875,-1.398162841796875,-0.680389404296875,6.8487548828125,1,1.0,1.0,1.0,1.0,10.00
2024-10-11 20:47:47.274,0.36034396,0.26612946,1.0432191,1.0980268,0.38496107,0.04096498,0.8888752,1.1411275,1.021042,0.2193565,0.6388472,0.93439364,0.7540742,-0.087938644,0.72491014,0.8185831,0.28734884,-0.46908778,0.43306717,0.174988,788.93774,794.57874,802.23444,793.36993,693.0403,-0.1263427734375,-0.0950927734375,1.008544921875,-1.398162841796875,-0.680389404296875,6.8487548828125,1,1.0,1.0,1.0,1.0,10.00
2024-10-11 20:47:47.275,0.36034396,0.26612946,1.0432191,1.0980268,0.38496107,0.04096498,0.8888752,1.1411275,1.021042,0.2193565,0.6388472,0.93439364,0.7540742,-0.087938644,0.72491014,0.8185831,0.28734884,-0.46908778,0.43306717,0.174988,786.52014,796.5934,801.8315,802.6374,690.6227,-0.1263427734375,-0.0950927734375,1.008544921875,-1.398162841796875,-0.680389404296875,6.8487548828125,1,1.0,1.0,1.0,1.0,10.00
2024-10-11 20:47:47.275,0.36034396,0.26612946,1.0432191,1.0980268,0.38496107,0.04096498,0.8888752,1.1411275,1.021042,0.2193565,0.6388472,0.93439364,0.7540742,-0.087938644,0.72491014,0.8185831,0.28734884,-0.46908778,0.43306717,0.174988,787.72894,794.57874,783.69965,796.1905,616.8865,-0.1263427734375,-0.0950927734375,1.008544921875,-1.398162841796875,-0.680389404296875,6.8487548828125,1,1.0,1.0,1.0,1.0,10.00
2024-10-11 20:47:47.276,0.36034396,0.26612946,1.0432191,1.0980268,0.38496107,0.04096498,0.8888752,1.1411275,1.021042,0.2193565,0.6388472,0.93439364,0.7540742,-0.087938644,0.72491014,0.8185831,0.28734884,-0.46908778,0.43306717,0.174988,792.96704,791.3553,780.07324,786.9231,695.05493,-0.1263427734375,-0.0950927734375,1.008544921875,-1.398162841796875,-0.680389404296875,6.8487548828125,1,1.0,1.0,1.0,1.0,10.00
2024-10-11 20:47:47.277,0.36034396,0.26612946,1.0432191,1.0980268,0.38496107,0.04096498,0.8888752,1.1411275,1.021042,0.2193565,0.6388472,0.93439364,0.7540742,-0.087938644,0.72491014,0.8185831,0.28734884,-0.46908778,0.43306717,0.174988,788.93774,794.9817,795.38464,791.75824,921.9048,-0.1263427734375,-0.0950927734375,1.008544921875,-1.398162841796875,-0.680389404296875,6.8487548828125,1,1.0,1.0,1.0,1.0,10.00
2024-10-11 20:47:47.278,0.36034396,0.26612946,1.0432191,1.0980268,0.38496107,0.04096498,0.8888752,1.1411275,1.021042,0.2193565,0.6388472,0.93439364,0.7540742,-0.087938644,0.72491014,0.8185831,0.28734884,-0.46908778,0.43306717,0.174988,791.3553,798.20514,795.78754,792.5641,726.08057,-0.1263427734375,-0.0950927734375,1.008544921875,-1.398162841796875,-0.680389404296875,6.8487548828125,1,1.0,1.0,1.0,1.0,10.00
2024-10-11 20:47:47.278,0.36034396,0.26612946,1.0432191,1.0980268,0.38496107,0.04096498,0.8888752,1.1411275,1.021042,0.2193565,0.6388472,0.93439364,0.7540742,-0.087938644,0.72491014,0.8185831,0.28734884,-0.46908778,0.43306717,0.174988,796.99634,800.6227,788.1319,787.326,432.34433,-0.1263427734375,-0.0950927734375,1.008544921875,-1.398162841796875,-0.680389404296875,6.8487548828125,1,1.0,1.0,1.0,1.0,10.00
2024-10-11 20:47:47.279,0.36034396,0.26612946,1.0432191,1.0980268,0.38496107,0.04096498,0.8888752,1.1411275,1.021042,0.2193565,0.6388472,0.93439364,0.7540742,-0.087938644,0.72491014,0.8185831,0.28734884,-0.46908778,0.43306717,0.174988,794.17584,803.0403,796.99634,794.9817,548.7912,-0.1263427734375,-0.0950927734375,1.008544921875,-1.398162841796875,-0.680389404296875,6.8487548828125,1,1.0,1.0,1.0,1.0,10.00
2024-10-11 20:47:47.280,0.36034396,0.26612946,1.0432191,1.0980268,0.38496107,0.04096498,0.8888752,1.1411275,1.021042,0.2193565,0.6388472,0.93439364,0.7540742,-0.087938644,0.72491014,0.8185831,0.28734884,-0.46908778,0.43306717,0.174988,790.54944,797.3993,815.12823,799.011,678.1319,-0.1263427734375,-0.0950927734375,1.008544921875,-1.398162841796875,-0.680389404296875,6.8487548828125,1,1.0,1.0,1.0,1.0,10.00
2024-10-11 20:47:47.281,0.36034396,0.26612946,1.0432191,1.0980268,0.38496107,0.04096498,0.8888752,1.1411275,1.021042,0.2193565,0.6388472,0.93439364,0.7540742,-0.087938644,0.72491014,0.8185831,0.28734884,-0.46908778,0.43306717,0.174988,787.326,797.3993,816.7399,793.7729,536.30035,-0.1263427734375,-0.0950927734375,1.008544921875,-1.398162841796875,-0.680389404296875,6.8487548828125,1,1.0,1.0,1.0,1.0,10.00
2024-10-11 20:47:47.313,0.36034396,0.26612946,1.0432191,1.0980268,0.38496107,0.04096498,0.8888752,1.1411275,1.021042,0.2193565,0.6388472,0.93439364,0.7540742,-0.087938644,0.72491014,0.8185831,0.28734884,-0.46908778,0.43306717,0.174988,796.1905,805.05493,809.0842,788.93774,442.41757,-0.12322998046875,-0.0889892578125,1.00054931640625,-0.665435791015625,-0.979461669921875,4.747772216796875,1,1.0,1.0,1.0,1.0,10.00
2024-10-11 20:47:47.314,0.36034396,0.26612946,1.0432191,1.0980268,0.38496107,0.04096498,0.8888752,1.1411275,1.021042,0.2193565,0.6388472,0.93439364,0.7540742,-0.087938644,0.72491014,0.8185831,0.28734884,-0.46908778,0.43306717,0.174988,802.23444,803.44324,797.3993,786.52014,611.2454,-0.12322998046875,-0.0889892578125,1.00054931640625,-0.665435791015625,-0.979461669921875,4.747772216796875,1,1.0,1.0,1.0,1.0,10.00
2024-10-11 20:47:47.315,0.36034396,0.26612946,1.0432191,1.0980268,0.38496107,0.04096498,0.8888752,1.1411275,1.021042,0.2193565,0.6388472,0.93439364,0.7540742,-0.087938644,0.72491014,0.8185831,0.28734884,-0.46908778,0.43306717,0.174988,802.23444,799.81683,796.1905,787.326,699.0842,-0.12322998046875,-0.0889892578125,1.00054931640625,-0.665435791015625,-0.979461669921875,4.747772216796875,1,1.0,1.0,1.0,1.0,10.00
2024-10-11 20:47:47.315,0.36034396,0.26612946,1.0432191,1.0980268,0.38496107,0.04096498,0.8888752,1.1411275,1.021042,0.2193565,0.6388472,0.93439364,0.7540742,-0.087938644,0.72491014,0.8185831,0.28734884,-0.46908778,0.43306717,0.174988,802.6374,801.4286,794.57874,794.57874,612.4542,-0.12322998046875,-0.0889892578125,1.00054931640625,-0.665435791015625,-0.979461669921875,4.747772216796875,1,1.0,1.0,1.0,1.0,10.00
2024-10-11 20:47:47.316,0.36034396,0.26612946,1.0432191,1.0980268,0.38496107,0.04096498,0.8888752,1.1411275,1.021042,0.2193565,0.6388472,0.93439364,0.7540742,-0.087938644,0.72491014,0.8185831,0.28734884,-0.46908778,0.43306717,0.174988,801.4286,798.20514,787.72894,797.3993,597.1429,-0.12322998046875,-0.0889892578125,1.00054931640625,-0.665435791015625,-0.979461669921875,4.747772216796875,1,1.0,1.0,1.0,1.0,10.00
2024-10-11 20:47:47.317,0.36034396,0.26612946,1.0432191,1.0980268,0.38496107,0.04096498,0.8888752,1.1411275,1.021042,0.2193565,0.6388472,0.93439364,0.7540742,-0.087938644,0.72491014,0.8185831,0.28734884,-0.46908778,0.43306717,0.174988,804.65204,792.1612,791.3553,792.96704,846.9597,-0.12322998046875,-0.0889892578125,1.00054931640625,-0.665435791015625,-0.979461669921875,4.747772216796875,1,1.0,1.0,1.0,1.0,10.00
2024-10-11 20:47:47.318,0.36034396,0.26612946,1.0432191,1.0980268,0.38496107,0.04096498,0.8888752,1.1411275,1.021042,0.2193565,0.6388472,0.93439364,0.7540742,-0.087938644,0.72491014,0.8185831,0.28734884,-0.46908778,0.43306717,0.174988,806.6667,792.1612,803.8461,797.3993,1097.5824,-0.12322998046875,-0.0889892578125,1.00054931640625,-0.665435791015625,-0.979461669921875,4.747772216796875,1,1.0,1.0,1.0,1.0,10.00
2024-10-11 20:47:47.319,0.36034396,0.26612946,1.0432191,1.0980268,0.38496107,0.04096498,0.8888752,1.1411275,1.021042,0.2193565,0.6388472,0.93439364,0.7540742,-0.087938644,0.72491014,0.8185831,0.28734884,-0.46908778,0.43306717,0.174988,806.6667,797.3993,795.78754,800.2198,696.6667,-0.12322998046875,-0.0889892578125,1.00054931640625,-0.665435791015625,-0.979461669921875,4.747772216796875,1,1.0,1.0,1.0,1.0,10.00
2024-10-11 20:47:47.319,0.36034396,0.26612946,1.0432191,1.0980268,0.38496107,0.04096498,0.8888752,1.1411275,1.021042,0.2193565,0.6388472,0.93439364,0.7540742,-0.087938644,0.72491014,0.8185831,0.28734884,-0.46908778,0.43306717,0.174988,809.4872,802.6374,784.5055,803.8461,442.01465,-0.12322998046875,-0.0889892578125,1.00054931640625,-0.665435791015625,-0.979461669921875,4.747772216796875,1,1.0,1.0,1.0,1.0,10.00
2024-10-11 20:47:47.320,0.36034396,0.26612946,1.0432191,1.0980268,0.38496107,0.04096498,0.8888752,1.1411275,1.021042,0.2193565,0.6388472,0.93439364,0.7540742,-0.087938644,0.72491014,0.8185831,0.28734884,-0.46908778,0.43306717,0.174988,807.8755,799.81683,797.8022,814.3223,805.4579,-0.12322998046875,-0.0889892578125,1.00054931640625,-0.665435791015625,-0.979461669921875,4.747772216796875,1,1.0,1.0,1.0,1.0,10.00
2024-10-11 20:47:47.321,0.36034396,0.26612946,1.0432191,1.0980268,0.38496107,0.04096498,0.8888752,1.1411275,1.021042,0.2193565,0.6388472,0.93439364,0.7540742,-0.087938644,0.72491014,0.8185831,0.28734884,-0.46908778,0.43306717,0.174988,796.99634,796.99634,810.696,816.7399,946.08057,-0.12322998046875,-0.0889892578125,1.00054931640625,-0.665435791015625,-0.979461669921875,4.747772216796875,1,1.0,1.0,1.0,1.0,10.00
2024-10-11 20:47:47.321,0.36034396,0.2363082,1.0432191,1.0980268,0.38496107,0.018577248,0.8888752,1.1411275,1.021042,0.2224497,0.6388472,0.93439364,0.7540742,-0.09091261,0.72491014,0.8185831,0.28734884,-0.46252182,0.43306717,0.174988,798.60803,801.02563,804.65204,813.1135,616.08057,-0.12322998046875,-0.0889892578125,1.00054931640625,-0.665435791015625,-0.979461669921875,4.747772216796875,1,1.0,1.0,1.0,1.0,10.00
2024-10-11 20:47:47.396,0.36034396,0.2363082,1.0432191,1.0980268,0.38496107,0.018577248,0.8888752,1.1411275,1.021042,0.2224497,0.6388472,0.93439364,0.7540742,-0.09091261,0.72491014,0.8185831,0.28734884,-0.46252182,0.43306717,0.174988,804.2491,801.4286,801.8315,817.5458,699.89014,-0.126220703125,-0.083251953125,0.99798583984375,-0.710296630859375,-0.179443359375,2.76641845703125,1,1.0,1.0,1.0,1.0,10.00
2024-10-11 20:47:47.397,0.36034396,0.2363082,1.0432191,1.0980268,0.38496107,0.018577248,0.8888752,1.1411275,1.021042,0.2224497,0.6388472,0.93439364,0.7540742,-0.09091261,0.72491014,0.8185831,0.28734884,-0.46252182,0.43306717,0.174988,809.4872,803.0403,800.6227,812.71063,847.3626,-0.126220703125,-0.083251953125,0.99798583984375,-0.710296630859375,-0.179443359375,2.76641845703125,1,1.0,1.0,1.0,1.0,10.00
2024-10-11 20:47:47.398,0.36034396,0.2363082,1.0432191,1.0980268,0.38496107,0.018577248,0.8888752,1.1411275,1.021042,0.2224497,0.6388472,0.93439364,0.7540742,-0.09091261,0.72491014,0.8185831,0.28734884,-0.46252182,0.43306717,0.174988,811.9048,802.6374,799.81683,802.6374,730.10986,-0.126220703125,-0.083251953125,0.99798583984375,-0.710296630859375,-0.179443359375,2.76641845703125,1,1.0,1.0,1.0,1.0,10.00
2024-10-11 20:47:47.399,0.36034396,0.2363082,1.0432191,1.0980268,0.38496107,0.018577248,0.8888752,1.1411275,1.021042,0.2224497,0.6388472,0.93439364,0.7540742,-0.09091261,0.72491014,0.8185831,0.28734884,-0.46252182,0.43306717,0.174988,805.8608,800.2198,796.99634,800.2198,589.0842,-0.126220703125,-0.083251953125,0.99798583984375,-0.710296630859375,-0.179443359375,2.76641845703125,1,1.0,1.0,1.0,1.0,10.00
2024-10-11 20:47:47.399,0.36034396,0.2363082,1.0432191,1.0980268,0.38496107,0.018577248,0.8888752,1.1411275,1.021042,0.2224497,0.6388472,0.93439364,0.7540742,-0.09091261,0.72491014,0.8185831,0.28734884,-0.46252182,0.43306717,0.174988,814.3223,801.8315,783.2967,813.91943,592.71063,-0.126220703125,-0.083251953125,0.99798583984375,-0.710296630859375,-0.179443359375,2.76641845703125,1,1.0,1.0,1.0,1.0,10.00
2024-10-11 20:47:47.400,0.36034396,0.2363082,1.0432191,1.0980268,0.38496107,0.018577248,0.8888752,1.1411275,1.021042,0.2224497,0.6388472,0.93439364,0.7540742,-0.09091261,0.72491014,0.8185831,0.28734884,-0.46252182,0.43306717,0.174988,818.3516,803.8461,788.5348,816.337,734.94507,-0.126220703125,-0.083251953125,0.99798583984375,-0.710296630859375,-0.179443359375,2.76641845703125,1,1.0,1.0,1.0,1.0,10.00
2024-10-11 20:47:47.401,0.36034396,0.2363082,1.0432191,1.0980268,0.38496107,0.018577248,0.8888752,1.1411275,1.021042,0.2224497,0.6388472,0.93439364,0.7540742,-0.09091261,0.72491014,0.8185831,0.28734884,-0.46252182,0.43306717,0.174988,806.6667,804.65204,798.60803,800.2198,694.65204,-0.126220703125,-0.083251953125,0.99798583984375,-0.710296630859375,-0.179443359375,2.76641845703125,1,1.0,1.0,1.0,1.0,10.00
2024-10-11 20:47:47.401,0.36034396,0.2363082,1.0432191,1.0980268,0.38496107,0.018577248,0.8888752,1.1411275,1.021042,0.2224497,0.6388472,0.93439364,0.7540742,-0.09091261,0.72491014,0.8185831,0.28734884,-0.46252182,0.43306717,0.174988,808.68134,804.65204,808.2784,801.02563,567.326,-0.126220703125,-0.083251953125,0.99798583984375,-0.710296630859375,-0.179443359375,2.76641845703125,1,1.0,1.0,1.0,1.0,10.00
2024-10-11 20:47:47.402,0.36034396,0.2363082,1.0432191,1.0980268,0.38496107,0.018577248,0.8888752,1.1411275,1.021042,0.2224497,0.6388472,0.93439364,0.7540742,-0.09091261,0.72491014,0.8185831,0.28734884,-0.46252182,0.43306717,0.174988,814.7253,807.0696,797.8022,807.47253,589.89014,-0.126220703125,-0.083251953125,0.99798583984375,-0.710296630859375,-0.179443359375,2.76641845703125,1,1.0,1.0,1.0,1.0,10.00
2024-10-11 20:47:47.403,0.36034396,0.2363082,1.0432191,1.0980268,0.38496107,0.018577248,0.8888752,1.1411275,1.021042,0.2224497,0.6388472,0.93439364,0.7540742,-0.09091261,0.72491014,0.8185831,0.28734884,-0.46252182,0.43306717,0.174988,809.4872,808.2784,795.38464,811.9048,799.011,-0.126220703125,-0.083251953125,0.99798583984375,-0.710296630859375,-0.179443359375,2.76641845703125,1,1.0,1.0,1.0,1.0,10.00
2024-10-11 20:47:47.404,0.36034396,0.2363082,1.0432191,1.0980268,0.38496107,0.018577248,0.8888752,1.1411275,1.021042,0.2224497,0.6388472,0.93439364,0.7540742,-0.09091261,0.72491014,0.8185831,0.28734884,-0.46252182,0.43306717,0.174988,803.0403,801.4286,818.7546,808.2784,685.78754,-0.126220703125,-0.083251953125,0.99798583984375,-0.710296630859375,-0.179443359375,2.76641845703125,1,1.0,1.0,1.0,1.0,10.00
2024-10-11 20:47:47.404,0.36034396,0.2363082,1.0432191,1.0980268,0.38496107,0.018577248,0.8888752,1.1411275,1.021042,0.2224497,0.6388472,0.93439364,0.7540742,-0.09091261,0.72491014,0.8185831,0.28734884,-0.46252182,0.43306717,0.174988,808.2784,800.6227,812.3077,807.8755,566.9231,-0.126220703125,-0.083251953125,0.99798583984375,-0.710296630859375,-0.179443359375,2.76641845703125,1,1.0,1.0,1.0,1.0,10.00
2024-10-11 20:47:47.432,0.36034396,0.2363082,1.0432191,1.0980268,0.38496107,0.018577248,0.8888752,1.1411275,1.021042,0.2224497,0.6388472,0.93439364,0.7540742,-0.09091261,0.72491014,0.8185831,0.28734884,-0.46252182,0.43306717,0.174988,813.1135,802.6374,792.96704,809.4872,753.0769,-0.126220703125,-0.083251953125,0.99798583984375,-0.710296630859375,-0.179443359375,2.76641845703125,1,1.0,1.0,1.0,1.0,10.00
2024-10-11 20:47:47.433,0.36034396,0.2363082,1.0432191,1.0980268,0.38496107,0.018577248,0.8888752,1.1411275,1.021042,0.2224497,0.6388472,0.93439364,0.7540742,-0.09091261,0.72491014,0.8185831,0.28734884,-0.46252182,0.43306717,0.174988,811.9048,798.20514,797.8022,808.68134,776.4469,-0.126220703125,-0.083251953125,0.99798583984375,-0.710296630859375,-0.179443359375,2.76641845703125,1,1.0,1.0,1.0,1.0,10.00
2024-10-11 20:47:47.434,0.36034396,0.2363082,1.0432191,1.0980268,0.38496107,0.018577248,0.8888752,1.1411275,1.021042,0.2224497,0.6388472,0.93439364,0.7540742,-0.09091261,0.72491014,0.8185831,0.28734884,-0.46252182,0.43306717,0.174988,803.44324,796.5934,803.8461,809.0842,593.1135,-0.126220703125,-0.083251953125,0.99798583984375,-0.710296630859375,-0.179443359375,2.76641845703125,1,1.0,1.0,1.0,1.0,10.00
2024-10-11 20:47:47.435,0.36034396,0.2363082,1.0432191,1.0980268,0.38496107,0.018577248,0.8888752,1.1411275,1.021042,0.2224497,0.6388472,0.93439364,0.7540742,-0.09091261,0.72491014,0.8185831,0.28734884,-0.46252182,0.43306717,0.174988,799.011,796.1905,803.44324,809.4872,563.2967,-0.126220703125,-0.083251953125,0.99798583984375,-0.710296630859375,-0.179443359375,2.76641845703125,1,1.0,1.0,1.0,1.0,10.00
2024-10-11 20:47:47.436,0.36034396,0.2363082,1.0432191,1.0980268,0.38496107,0.018577248,0.8888752,1.1411275,1.021042,0.2224497,0.6388472,0.93439364,0.7540742,-0.09091261,0.72491014,0.8185831,0.28734884,-0.46252182,0.43306717,0.174988,803.0403,794.57874,807.0696,807.0696,774.43225,-0.126220703125,-0.083251953125,0.99798583984375,-0.710296630859375,-0.179443359375,2.76641845703125,1,1.0,1.0,1.0,1.0,10.00
2024-10-11 20:47:47.436,0.36034396,0.2363082,1.0432191,1.0980268,0.38496107,0.018577248,0.8888752,1.1411275,1.021042,0.2224497,0.6388472,0.93439364,0.7540742,-0.09091261,0.72491014,0.8185831,0.28734884,-0.46252182,0.43306717,0.174988,806.6667,795.38464,796.99634,797.8022,827.2161,-0.126220703125,-0.083251953125,0.99798583984375,-0.710296630859375,-0.179443359375,2.76641845703125,1,1.0,1.0,1.0,1.0,10.00
2024-10-11 20:47:47.437,0.36034396,0.2363082,1.0432191,1.0980268,0.38496107,0.018577248,0.8888752,1.1411275,1.021042,0.2224497,0.6388472,0.93439364,0.7540742,-0.09091261,0.72491014,0.8185831,0.28734884,-0.46252182,0.43306717,0.174988,803.0403,795.38464,808.2784,792.5641,693.44324,-0.126220703125,-0.083251953125,0.99798583984375,-0.710296630859375,-0.179443359375,2.76641845703125,1,1.0,1.0,1.0,1.0,10.00
2024-10-11 20:47:47.438,0.36034396,0.2363082,1.0432191,1.0980268,0.38496107,0.018577248,0.8888752,1.1411275,1.021042,0.2224497,0.6388472,0.93439364,0.7540742,-0.09091261,0.72491014,0.8185831,0.28734884,-0.46252182,0.43306717,0.174988,806.6667,795.38464,803.0403,797.8022,670.4762,-0.126220703125,-0.083251953125,0.99798583984375,-0.710296630859375,-0.179443359375,2.76641845703125,1,1.0,1.0,1.0,1.0,10.00
2024-10-11 20:47:47.439,0.36034396,0.2363082,1.0432191,1.0980268,0.38496107,0.018577248,0.8888752,1.1411275,1.021042,0.2224497,0.6388472,0.93439364,0.7540742,-0.09091261,0.72491014,0.8185831,0.28734884,-0.46252182,0.43306717,0.174988,816.7399,796.1905,796.99634,806.26373,748.6447,-0.126220703125,-0.083251953125,0.99798583984375,-0.710296630859375,-0.179443359375,2.76641845703125,1,1.0,1.0,1.0,1.0,10.00
2024-10-11 20:47:47.439,0.36034396,0.2363082,1.0432191,1.0980268,0.38496107,0.018577248,0.8888752,1.1411275,1.021042,0.2224497,0.6388472,0.93439364,0.7540742,-0.09091261,0.72491014,0.8185831,0.28734884,-0.46252182,0.43306717,0.174988,802.6374,791.75824,815.12823,801.4286,682.5641,-0.126220703125,-0.083251953125,0.99798583984375,-0.710296630859375,-0.179443359375,2.76641845703125,1,1.0,1.0,1.0,1.0,10.00
2024-10-11 20:47:47.440,0.36034396,0.2363082,1.0432191,1.0980268,0.38496107,0.018577248,0.8888752,1.1411275,1.021042,0.2224497,0.6388472,0.93439364,0.7540742,-0.09091261,0.72491014,0.8185831,0.28734884,-0.46252182,0.43306717,0.174988,800.6227,798.20514,806.26373,799.41394,555.2381,-0.126220703125,-0.083251953125,0.99798583984375,-0.710296630859375,-0.179443359375,2.76641845703125,1,1.0,1.0,1.0,1.0,10.00
2024-10-11 20:47:47.441,0.36034396,0.2363082,1.0432191,1.0980268,0.38496107,0.018577248,0.8888752,1.1411275,1.021042,0.2224497,0.6388472,0.93439364,0.7540742,-0.09091261,0.72491014,0.8185831,0.28734884,-0.46252182,0.43306717,0.174988,807.47253,805.4579,795.78754,806.6667,695.4579,-0.126220703125,-0.083251953125,0.99798583984375,-0.710296630859375,-0.179443359375,2.76641845703125,1,1.0,1.0,1.0,1.0,10.00
2024-10-11 20:47:47.442,0.36034396,0.2363082,1.0432191,1.0980268,0.38496107,0.018577248,0.8888752,1.1411275,1.021042,0.2224497,0.6388472,0.93439364,0.7540742,-0.09091261,0.72491014,0.8185831,0.28734884,-0.46252182,0.43306717,0.174988,806.6667,801.8315,796.1905,804.65204,821.1722,-0.12841796875,-0.091552734375,0.99871826171875,-0.680389404296875,-0.179443359375,1.293487548828125,1,1.0,1.0,1.0,1.0,10.00
2024-10-11 20:47:47.443,0.36034396,0.21090584,1.0432191,1.0980268,0.38496107,-0.0034892464,0.8888752,1.1411275,1.021042,0.22527589,0.6388472,0.93439364,0.7540742,-0.09268715,0.72491014,0.8185831,0.28734884,-0.46227473,0.43306717,0.174988,810.293,803.0403,798.20514,806.26373,742.6007,-0.12841796875,-0.091552734375,0.99871826171875,-0.680389404296875,-0.179443359375,1.293487548828125,1,1.0,1.0,1.0,1.0,10.00
2024-10-11 20:47:47.448,0.36034396,0.21090584,1.0432191,1.0980268,0.38496107,-0.0034892464,0.8888752,1.1411275,1.021042,0.22527589,0.6388472,0.93439364,0.7540742,-0.09268715,0.72491014,0.8185831,0.28734884,-0.46227473,0.43306717,0.174988,797.8022,803.8461,805.4579,804.2491,684.9817,-0.12841796875,-0.091552734375,0.99871826171875,-0.680389404296875,-0.179443359375,1.293487548828125,1,1.0,1.0,1.0,1.0,10.00
2024-10-11 20:47:47.448,0.36034396,0.21090584,1.0432191,1.0980268,0.38496107,-0.0034892464,0.8888752,1.1411275,1.021042,0.22527589,0.6388472,0.93439364,0.7540742,-0.09268715,0.72491014,0.8185831,0.28734884,-0.46227473,0.43306717,0.174988,796.99634,805.4579,790.9524,801.02563,764.35895,-0.12841796875,-0.091552734375,0.99871826171875,-0.680389404296875,-0.179443359375,1.293487548828125,1,1.0,1.0,1.0,1.0,10.00
2024-10-11 20:47:47.449,0.36034396,0.21090584,1.0432191,1.0980268,0.38496107,-0.0034892464,0.8888752,1.1411275,1.021042,0.22527589,0.6388472,0.93439364,0.7540742,-0.09268715,0.72491014,0.8185831,0.28734884,-0.46227473,0.43306717,0.174988,799.41394,804.65204,787.72894,804.65204,917.8755,-0.12841796875,-0.091552734375,0.99871826171875,-0.680389404296875,-0.179443359375,1.293487548828125,1,1.0,1.0,1.0,1.0,10.00
2024-10-11 20:47:47.450,0.36034396,0.21090584,1.0432191,1.0980268,0.38496107,-0.0034892464,0.8888752,1.1411275,1.021042,0.22527589,0.6388472,0.93439364,0.7540742,-0.09268715,0.72491014,0.8185831,0.28734884,-0.46227473,0.43306717,0.174988,795.38464,800.6227,804.65204,798.60803,925.9341,-0.12841796875,-0.091552734375,0.99871826171875,-0.680389404296875,-0.179443359375,1.293487548828125,1,1.0,1.0,1.0,1.0,10.00
2024-10-11 20:47:47.450,0.36034396,0.21090584,1.0432191,1.0980268,0.38496107,-0.0034892464,0.8888752,1.1411275,1.021042,0.22527589,0.6388472,0.93439364,0.7540742,-0.09268715,0.72491014,0.8185831,0.28734884,-0.46227473,0.43306717,0.174988,790.9524,797.3993,807.47253,795.78754,772.8205,-0.12841796875,-0.091552734375,0.99871826171875,-0.680389404296875,-0.179443359375,1.293487548828125,1,1.0,1.0,1.0,1.0,10.00
2024-10-11 20:47:47.451,0.36034396,0.21090584,1.0432191,1.0980268,0.38496107,-0.0034892464,0.8888752,1.1411275,1.021042,0.22527589,0.6388472,0.93439364,0.7540742,-0.09268715,0.72491014,0.8185831,0.28734884,-0.46227473,0.43306717,0.174988,783.69965,794.17584,809.4872,799.41394,815.5311,-0.12841796875,-0.091552734375,0.99871826171875,-0.680389404296875,-0.179443359375,1.293487548828125,1,1.0,1.0,1.0,1.0,10.00
2024-10-11 20:47:47.452,0.36034396,0.21090584,1.0432191,1.0980268,0.38496107,-0.0034892464,0.8888752,1.1411275,1.021042,0.22527589,0.6388472,0.93439364,0.7540742,-0.09268715,0.72491014,0.8185831,0.28734884,-0.46227473,0.43306717,0.174988,785.7143,792.96704,802.23444,797.3993,881.6117,-0.12841796875,-0.091552734375,0.99871826171875,-0.680389404296875,-0.179443359375,1.293487548828125,1,1.0,1.0,1.0,1.0,10.00
2024-10-11 20:47:47.453,0.36034396,0.21090584,1.0432191,1.0980268,0.38496107,-0.0034892464,0.8888752,1.1411275,1.021042,0.22527589,0.6388472,0.93439364,0.7540742,-0.09268715,0.72491014,0.8185831,0.28734884,-0.46227473,0.43306717,0.174988,787.72894,794.17584,795.38464,796.1905,714.7985,-0.12841796875,-0.091552734375,0.99871826171875,-0.680389404296875,-0.179443359375,1.293487548828125,1,1.0,1.0,1.0,1.0,10.00
2024-10-11 20:47:47.453,0.36034396,0.21090584,1.0432191,1.0980268,0.38496107,-0.0034892464,0.8888752,1.1411275,1.021042,0.22527589,0.6388472,0.93439364,0.7540742,-0.09268715,0.72491014,0.8185831,0.28734884,-0.46227473,0.43306717,0.174988,791.75824,797.3993,795.78754,795.78754,628.1685,-0.12841796875,-0.091552734375,0.99871826171875,-0.680389404296875,-0.179443359375,1.293487548828125,1,1.0,1.0,1.0,1.0,10.00
2024-10-11 20:47:47.454,0.36034396,0.21090584,1.0432191,1.0980268,0.38496107,-0.0034892464,0.8888752,1.1411275,1.021042,0.22527589,0.6388472,0.93439364,0.7540742,-0.09268715,0.72491014,0.8185831,0.28734884,-0.46227473,0.43306717,0.174988,793.36993,798.60803,792.96704,799.011,655.9707,-0.12841796875,-0.091552734375,0.99871826171875,-0.680389404296875,-0.179443359375,1.293487548828125,1,1.0,1.0,1.0,1.0,10.00
2024-10-11 20:47:47.485,0.36034396,0.21090584,1.0432191,1.0980268,0.38496107,-0.0034892464,0.8888752,1.1411275,1.021042,0.22527589,0.6388472,0.93439364,0.7540742,-0.09268715,0.72491014,0.8185831,0.28734884,-0.46227473,0.43306717,0.174988,793.7729,791.3553,792.5641,805.4579,1045.2014,-0.12969970703125,-0.09423828125,0.9930419921875,0.94207763671875,-1.472930908203125,0.40374755859375,1,1.0,1.0,1.0,1.0,10.00
2024-10-11 20:47:47.486,0.36034396,0.21090584,1.0432191,1.0980268,0.38496107,-0.0034892464,0.8888752,1.1411275,1.021042,0.22527589,0.6388472,0.93439364,0.7540742,-0.09268715,0.72491014,0.8185831,0.28734884,-0.46227473,0.43306717,0.174988,784.90845,790.54944,791.3553,800.6227,1054.4689,-0.12969970703125,-0.09423828125,0.9930419921875,0.94207763671875,-1.472930908203125,0.40374755859375,1,1.0,1.0,1.0,1.0,10.00
2024-10-11 20:47:47.487,0.36034396,0.21090584,1.0432191,1.0980268,0.38496107,-0.0034892464,0.8888752,1.1411275,1.021042,0.22527589,0.6388472,0.93439364,0.7540742,-0.09268715,0.72491014,0.8185831,0.28734884,-0.46227473,0.43306717,0.174988,777.6557,790.14655,793.7729,786.52014,670.07324,-0.12969970703125,-0.09423828125,0.9930419921875,0.94207763671875,-1.472930908203125,0.40374755859375,1,1.0,1.0,1.0,1.0,10.00
2024-10-11 20:47:47.488,0.36034396,0.21090584,1.0432191,1.0980268,0.38496107,-0.0034892464,0.8888752,1.1411275,1.021042,0.22527589,0.6388472,0.93439364,0.7540742,-0.09268715,0.72491014,0.8185831,0.28734884,-0.46227473,0.43306717,0.174988,786.52014,790.9524,794.17584,789.7436,805.4579,-0.12969970703125,-0.09423828125,0.9930419921875,0.94207763671875,-1.472930908203125,0.40374755859375,1,1.0,1.0,1.0,1.0,10.00
2024-10-11 20:47:47.489,0.36034396,0.21090584,1.0432191,1.0980268,0.38496107,-0.0034892464,0.8888752,1.1411275,1.021042,0.22527589,0.6388472,0.93439364,0.7540742,-0.09268715,0.72491014,0.8185831,0.28734884,-0.46227473,0.43306717,0.174988,795.78754,792.96704,775.64105,794.9817,929.5604,-0.12969970703125,-0.09423828125,0.9930419921875,0.94207763671875,-1.472930908203125,0.40374755859375,1,1.0,1.0,1.0,1.0,10.00
2024-10-11 20:47:47.490,0.36034396,0.21090584,1.0432191,1.0980268,0.38496107,-0.0034892464,0.8888752,1.1411275,1.021042,0.22527589,0.6388472,0.93439364,0.7540742,-0.09268715,0.72491014,0.8185831,0.28734884,-0.46227473,0.43306717,0.174988,795.38464,792.1612,791.3553,792.1612,778.0586,-0.12969970703125,-0.09423828125,0.9930419921875,0.94207763671875,-1.472930908203125,0.40374755859375,1,1.0,1.0,1.0,1.0,10.00
2024-10-11 20:47:47.490,0.36034396,0.21090584,1.0432191,1.0980268,0.38496107,-0.0034892464,0.8888752,1.1411275,1.021042,0.22527589,0.6388472,0.93439364,0.7540742,-0.09268715,0.72491014,0.8185831,0.28734884,-0.46227473,0.43306717,0.174988,790.14655,792.1612,809.89014,794.57874,695.05493,-0.12969970703125,-0.09423828125,0.9930419921875,0.94207763671875,-1.472930908203125,0.40374755859375,1,1.0,1.0,1.0,1.0,10.00
2024-10-11 20:47:47.491,0.36034396,0.21090584,1.0432191,1.0980268,0.38496107,-0.0034892464,0.8888752,1.1411275,1.021042,0.22527589,0.6388472,0.93439364,0.7540742,-0.09268715,0.72491014,0.8185831,0.28734884,-0.46227473,0.43306717,0.174988,791.3553,790.9524,807.0696,799.81683,799.011,-0.12969970703125,-0.09423828125,0.9930419921875,0.94207763671875,-1.472930908203125,0.40374755859375,1,1.0,1.0,1.0,1.0,10.00
2024-10-11 20:47:47.493,0.36034396,0.21090584,1.0432191,1.0980268,0.38496107,-0.0034892464,0.8888752,1.1411275,1.021042,0.22527589,0.6388472,0.93439364,0.7540742,-0.09268715,0.72491014,0.8185831,0.28734884,-0.46227473,0.43306717,0.174988,794.57874,789.7436,807.47253,808.68134,1025.4579,-0.12969970703125,-0.09423828125,0.9930419921875,0.94207763671875,-1.472930908203125,0.40374755859375,1,1.0,1.0,1.0,1.0,10.00
2024-10-11 20:47:47.494,0.36034396,0.21090584,1.0432191,1.0980268,0.38496107,-0.0034892464,0.8888752,1.1411275,1.021042,0.22527589,0.6388472,0.93439364,0.7540742,-0.09268715,0.72491014,0.8185831,0.28734884,-0.46227473,0.43306717,0.174988,799.81683,794.57874,804.2491,801.8315,775.64105,-0.12969970703125,-0.09423828125,0.9930419921875,0.94207763671875,-1.472930908203125,0.40374755859375,1,1.0,1.0,1.0,1.0,10.00
2024-10-11 20:47:47.495,0.36034396,0.21090584,1.0432191,1.0980268,0.38496107,-0.0034892464,0.8888752,1.1411275,1.021042,0.22527589,0.6388472,0.93439364,0.7540742,-0.09268715,0.72491014,0.8185831,0.28734884,-0.46227473,0.43306717,0.174988,798.20514,793.7729,795.78754,791.75824,590.293,-0.12969970703125,-0.09423828125,0.9930419921875,0.94207763671875,-1.472930908203125,0.40374755859375,1,1.0,1.0,1.0,1.0,10.00
2024-10-11 20:47:47.495,0.36034396,0.21090584,1.0432191,1.0980268,0.38496107,-0.0034892464,0.8888752,1.1411275,1.021042,0.22527589,0.6388472,0.93439364,0.7540742,-0.09268715,0.72491014,0.8185831,0.28734884,-0.46227473,0.43306717,0.174988,803.0403,788.5348,800.6227,796.99634,674.10254,-0.12969970703125,-0.09423828125,0.9930419921875,0.94207763671875,-1.472930908203125,0.40374755859375,1,1.0,1.0,1.0,1.0,10.00
2024-10-11 20:47:47.599,0.36034396,0.21090584,1.0432191,1.0980268,0.38496107,-0.0034892464,0.8888752,1.1411275,1.021042,0.22527589,0.6388472,0.93439364,0.7540742,-0.09268715,0.72491014,0.8185831,0.28734884,-0.46227473,0.43306717,0.174988,804.2491,788.5348,802.6374,800.2198,646.30035,-0.10955810546875,-0.0762939453125,0.9991455078125,3.648681640625,-2.58697509765625,0.500946044921875,1,1.0,1.0,1.0,1.0,10.00
2024-10-11 20:47:47.600,0.36034396,0.21090584,1.0432191,1.0980268,0.38496107,-0.0034892464,0.8888752,1.1411275,1.021042,0.22527589,0.6388472,0.93439364,0.7540742,-0.09268715,0.72491014,0.8185831,0.28734884,-0.46227473,0.43306717,0.174988,799.81683,791.75824,779.67035,803.44324,534.68866,-0.10955810546875,-0.0762939453125,0.9991455078125,3.648681640625,-2.58697509765625,0.500946044921875,1,1.0,1.0,1.0,1.0,10.00
2024-10-11 20:47:47.600,0.36034396,0.21090584,1.0432191,1.0980268,0.38496107,-0.0034892464,0.8888752,1.1411275,1.021042,0.22527589,0.6388472,0.93439364,0.7540742,-0.09268715,0.72491014,0.8185831,0.28734884,-0.46227473,0.43306717,0.174988,804.65204,796.1905,782.0879,811.0989,610.4396,-0.10955810546875,-0.0762939453125,0.9991455078125,3.648681640625,-2.58697509765625,0.500946044921875,1,1.0,1.0,1.0,1.0,10.00
2024-10-11 20:47:47.601,0.36034396,0.18718405,1.0432191,1.0980268,0.38496107,-0.02691557,0.8888752,1.1411275,1.021042,0.22873956,0.6388472,0.93439364,0.7540742,-0.092453696,0.72491014,0.8185831,0.28734884,-0.469612,0.43306717,0.174988,799.011,795.78754,812.3077,815.5311,747.03296,-0.10955810546875,-0.0762939453125,0.9991455078125,3.648681640625,-2.58697509765625,0.500946044921875,1,1.0,1.0,1.0,1.0,10.00
