TimeStamp,Delta_TP9,Delta_AF7,Delta_AF8,Delta_TP10,Theta_TP9,Theta_AF7,Theta_AF8,Theta_TP10,Alpha_TP9,Alpha_AF7,Alpha_AF8,Alpha_TP10,Beta_TP9,Beta_AF7,Beta_AF8,Beta_TP10,Gamma_TP9,Gamma_AF7,Gamma_AF8,Gamma_TP10,RAW_TP9,RAW_AF7,RAW_AF8,RAW_TP10,AUX_RIGHT,Accelerometer_X,Accelerometer_Y,Accelerometer_Z,Gyro_X,Gyro_Y,Gyro_Z,HeadBandOn,HSI_TP9,HSI_AF7,HSI_AF8,HSI_TP10,Battery,Elements
2024-10-11 20:40:41.803,0.7682378,0.50852245,0.7498091,0.7660351,0.2870979,0.095435955,0.1664383,0.25145474,0.41769752,0.016246367,0.19056062,0.4674067,0.5554971,-0.07534042,0.040313385,0.44333762,0.114005096,-0.2513202,-0.20648713,0.07204089,810.293,800.6227,798.60803,811.9048,921.9048,-0.20538330078125,0.10333251953125,0.97967529296875,-1.084136962890625,-0.85235595703125,0.246734619140625,1,1.0,1.0,1.0,1.0,10.00
2024-10-11 20:40:41.804,0.7682378,0.50852245,0.7498091,0.7660351,0.2870979,0.095435955,0.1664383,0.25145474,0.41769752,0.016246367,0.19056062,0.4674067,0.5554971,-0.07534042,0.040313385,0.44333762,0.114005096,-0.2513202,-0.20648713,0.07204089,803.8461,803.44324,797.3993,805.8608,855.82416,-0.20538330078125,0.10333251953125,0.97967529296875,-1.084136962890625,-0.85235595703125,0.246734619140625,1,1.0,1.0,1.0,1.0,10.00
2024-10-11 20:40:41.805,0.7682378,0.50852245,0.7498091,0.7660351,0.2870979,0.095435955,0.1664383,0.25145474,0.41769752,0.016246367,0.19056062,0.4674067,0.5554971,-0.07534042,0.040313385,0.44333762,0.114005096,-0.2513202,-0.20648713,0.07204089,795.78754,802.23444,801.4286,802.6374,699.4872,-0.20538330078125,0.10333251953125,0.97967529296875,-1.084136962890625,-0.85235595703125,0.246734619140625,1,1.0,1.0,1.0,1.0,10.00
2024-10-11 20:40:41.806,0.7682378,0.50852245,0.7498091,0.7660351,0.2870979,0.095435955,0.1664383,0.25145474,0.41769752,0.016246367,0.19056062,0.4674067,0.5554971,-0.07534042,0.040313385,0.44333762,0.114005096,-0.2513202,-0.20648713,0.07204089,798.60803,800.6227,802.6374,800.6227,703.91943,-0.20538330078125,0.10333251953125,0.97967529296875,-1.084136962890625,-0.85235595703125,0.246734619140625,1,1.0,1.0,1.0,1.0,10.00
2024-10-11 20:40:41.807,0.7682378,0.50852245,0.7498091,0.7660351,0.2870979,0.095435955,0.1664383,0.25145474,0.41769752,0.016246367,0.19056062,0.4674067,0.5554971,-0.07534042,0.040313385,0.44333762,0.114005096,-0.2513202,-0.20648713,0.07204089,797.3993,798.60803,805.8608,803.0403,968.6447,-0.20538330078125,0.10333251953125,0.97967529296875,-1.084136962890625,-0.85235595703125,0.246734619140625,1,1.0,1.0,1.0,1.0,10.00
2024-10-11 20:40:41.808,0.7682378,0.50852245,0.7498091,0.7660351,0.2870979,0.095435955,0.1664383,0.25145474,0.41769752,0.016246367,0.19056062,0.4674067,0.5554971,-0.07534042,0.040313385,0.44333762,0.114005096,-0.2513202,-0.20648713,0.07204089,798.20514,790.9524,806.26373,804.2491,927.9487,-0.20538330078125,0.10333251953125,0.97967529296875,-1.084136962890625,-0.85235595703125,0.246734619140625,1,1.0,1.0,1.0,1.0,10.00
2024-10-11 20:40:41.808,0.7682378,0.50852245,0.7498091,0.7660351,0.2870979,0.095435955,0.1664383,0.25145474,0.41769752,0.016246367,0.19056062,0.4674067,0.5554971,-0.07534042,0.040313385,0.44333762,0.114005096,-0.2513202,-0.20648713,0.07204089,800.6227,790.54944,796.99634,799.81683,733.3333,-0.20538330078125,0.10333251953125,0.97967529296875,-1.084136962890625,-0.85235595703125,0.246734619140625,1,1.0,1.0,1.0,1.0,10.00
2024-10-11 20:40:41.809,0.7682378,0.54560196,0.76958215,0.7660351,0.2870979,0.080420285,0.19423373,0.25145474,0.41769752,0.021965731,0.17868969,0.4674067,0.5554971,-0.06436495,0.037168052,0.44333762,0.114005096,-0.24924855,-0.2115602,0.07204089,810.696,799.011,790.54944,801.4286,722.4542,-0.20538330078125,0.10333251953125,0.97967529296875,-1.084136962890625,-0.85235595703125,0.246734619140625,1,1.0,1.0,1.0,1.0,10.00
2024-10-11 20:40:41.812,0.7682378,0.54560196,0.76958215,0.7660351,0.2870979,0.080420285,0.19423373,0.25145474,0.41769752,0.021965731,0.17868969,0.4674067,0.5554971,-0.06436495,0.037168052,0.44333762,0.114005096,-0.24924855,-0.2115602,0.07204089,817.5458,798.20514,788.93774,810.293,876.3736,-0.20538330078125,0.10333251953125,0.97967529296875,-1.084136962890625,-0.85235595703125,0.246734619140625,1,1.0,1.0,1.0,1.0,10.00
2024-10-11 20:40:41.813,0.7682378,0.54560196,0.76958215,0.7660351,0.2870979,0.080420285,0.19423373,0.25145474,0.41769752,0.021965731,0.17868969,0.4674067,0.5554971,-0.06436495,0.037168052,0.44333762,0.114005096,-0.24924855,-0.2115602,0.07204089,816.7399,794.57874,794.17584,809.89014,752.27106,-0.20538330078125,0.10333251953125,0.97967529296875,-1.084136962890625,-0.85235595703125,0.246734619140625,1,1.0,1.0,1.0,1.0,10.00
2024-10-11 20:40:41.813,0.7682378,0.54560196,0.76958215,0.7660351,0.2870979,0.080420285,0.19423373,0.25145474,0.41769752,0.021965731,0.17868969,0.4674067,0.5554971,-0.06436495,0.037168052,0.44333762,0.114005096,-0.24924855,-0.2115602,0.07204089,827.2161,799.011,796.99634,806.26373,640.2564,-0.20538330078125,0.10333251953125,0.97967529296875,-1.084136962890625,-0.85235595703125,0.246734619140625,1,1.0,1.0,1.0,1.0,10.00
2024-10-11 20:40:41.814,0.7682378,0.54560196,0.76958215,0.7660351,0.2870979,0.080420285,0.19423373,0.25145474,0.41769752,0.021965731,0.17868969,0.4674067,0.5554971,-0.06436495,0.037168052,0.44333762,0.114005096,-0.24924855,-0.2115602,0.07204089,830.0366,801.4286,799.41394,815.5311,728.49817,-0.20538330078125,0.10333251953125,0.97967529296875,-1.084136962890625,-0.85235595703125,0.246734619140625,1,1.0,1.0,1.0,1.0,10.00
2024-10-11 20:40:41.876,0.7682378,0.54560196,0.76958215,0.7660351,0.2870979,0.080420285,0.19423373,0.25145474,0.41769752,0.021965731,0.17868969,0.4674067,0.5554971,-0.06436495,0.037168052,0.44333762,0.114005096,-0.24924855,-0.2115602,0.07204089,816.7399,800.6227,796.5934,825.2015,819.9634,-0.20086669921875,0.0960693359375,0.98663330078125,-1.697235107421875,-1.98883056640625,-0.336456298828125,1,1.0,1.0,1.0,1.0,10.00
2024-10-11 20:40:41.876,0.7682378,0.54560196,0.76958215,0.7660351,0.2870979,0.080420285,0.19423373,0.25145474,0.41769752,0.021965731,0.17868969,0.4674067,0.5554971,-0.06436495,0.037168052,0.44333762,0.114005096,-0.24924855,-0.2115602,0.07204089,815.5311,805.4579,795.38464,819.9634,772.8205,-0.20086669921875,0.0960693359375,0.98663330078125,-1.697235107421875,-1.98883056640625,-0.336456298828125,1,1.0,1.0,1.0,1.0,10.00
2024-10-11 20:40:41.877,0.7682378,0.54560196,0.76958215,0.7660351,0.2870979,0.080420285,0.19423373,0.25145474,0.41769752,0.021965731,0.17868969,0.4674067,0.5554971,-0.06436495,0.037168052,0.44333762,0.114005096,-0.24924855,-0.2115602,0.07204089,811.9048,800.2198,803.44324,813.5165,700.293,-0.20086669921875,0.0960693359375,0.98663330078125,-1.697235107421875,-1.98883056640625,-0.336456298828125,1,1.0,1.0,1.0,1.0,10.00
2024-10-11 20:40:41.878,0.7682378,0.54560196,0.76958215,0.7660351,0.2870979,0.080420285,0.19423373,0.25145474,0.41769752,0.021965731,0.17868969,0.4674067,0.5554971,-0.06436495,0.037168052,0.44333762,0.114005096,-0.24924855,-0.2115602,0.07204089,811.9048,793.7729,802.6374,807.0696,692.23444,-0.20086669921875,0.0960693359375,0.98663330078125,-1.697235107421875,-1.98883056640625,-0.336456298828125,1,1.0,1.0,1.0,1.0,10.00
2024-10-11 20:40:41.878,0.7682378,0.54560196,0.76958215,0.7660351,0.2870979,0.080420285,0.19423373,0.25145474,0.41769752,0.021965731,0.17868969,0.4674067,0.5554971,-0.06436495,0.037168052,0.44333762,0.114005096,-0.24924855,-0.2115602,0.07204089,813.1135,803.44324,804.65204,810.696,869.92676,-0.20086669921875,0.0960693359375,0.98663330078125,-1.697235107421875,-1.98883056640625,-0.336456298828125,1,1.0,1.0,1.0,1.0,10.00
2024-10-11 20:40:41.879,0.7682378,0.54560196,0.76958215,0.7660351,0.2870979,0.080420285,0.19423373,0.25145474,0.41769752,0.021965731,0.17868969,0.4674067,0.5554971,-0.06436495,0.037168052,0.44333762,0.114005096,-0.24924855,-0.2115602,0.07204089,806.6667,805.4579,807.0696,808.2784,849.3773,-0.20086669921875,0.0960693359375,0.98663330078125,-1.697235107421875,-1.98883056640625,-0.336456298828125,1,1.0,1.0,1.0,1.0,10.00
2024-10-11 20:40:41.879,0.7682378,0.54560196,0.76958215,0.7660351,0.2870979,0.080420285,0.19423373,0.25145474,0.41769752,0.021965731,0.17868969,0.4674067,0.5554971,-0.06436495,0.037168052,0.44333762,0.114005096,-0.24924855,-0.2115602,0.07204089,806.26373,799.011,804.2491,800.6227,714.3956,-0.20086669921875,0.0960693359375,0.98663330078125,-1.697235107421875,-1.98883056640625,-0.336456298828125,1,1.0,1.0,1.0,1.0,10.00
2024-10-11 20:40:41.879,0.7682378,0.54560196,0.76958215,0.7660351,0.2870979,0.080420285,0.19423373,0.25145474,0.41769752,0.021965731,0.17868969,0.4674067,0.5554971,-0.06436495,0.037168052,0.44333762,0.114005096,-0.24924855,-0.2115602,0.07204089,803.44324,795.78754,802.23444,798.60803,831.2454,-0.20086669921875,0.0960693359375,0.98663330078125,-1.697235107421875,-1.98883056640625,-0.336456298828125,1,1.0,1.0,1.0,1.0,10.00
2024-10-11 20:40:41.880,0.7682378,0.54560196,0.76958215,0.7660351,0.2870979,0.080420285,0.19423373,0.25145474,0.41769752,0.021965731,0.17868969,0.4674067,0.5554971,-0.06436495,0.037168052,0.44333762,0.114005096,-0.24924855,-0.2115602,0.07204089,794.9817,801.4286,800.2198,802.23444,1198.7179,-0.20086669921875,0.0960693359375,0.98663330078125,-1.697235107421875,-1.98883056640625,-0.336456298828125,1,1.0,1.0,1.0,1.0,10.00
2024-10-11 20:40:41.880,0.7682378,0.54560196,0.76958215,0.7660351,0.2870979,0.080420285,0.19423373,0.25145474,0.41769752,0.021965731,0.17868969,0.4674067,0.5554971,-0.06436495,0.037168052,0.44333762,0.114005096,-0.24924855,-0.2115602,0.07204089,791.3553,803.0403,805.05493,806.6667,1295.4213,-0.20086669921875,0.0960693359375,0.98663330078125,-1.697235107421875,-1.98883056640625,-0.336456298828125,1,1.0,1.0,1.0,1.0,10.00
2024-10-11 20:40:41.881,0.7682378,0.54560196,0.76958215,0.7660351,0.2870979,0.080420285,0.19423373,0.25145474,0.41769752,0.021965731,0.17868969,0.4674067,0.5554971,-0.06436495,0.037168052,0.44333762,0.114005096,-0.24924855,-0.2115602,0.07204089,792.96704,798.20514,804.2491,800.6227,1172.5275,-0.20086669921875,0.0960693359375,0.98663330078125,-1.697235107421875,-1.98883056640625,-0.336456298828125,1,1.0,1.0,1.0,1.0,10.00
2024-10-11 20:40:41.881,0.7682378,0.54560196,0.76958215,0.7660351,0.2870979,0.080420285,0.19423373,0.25145474,0.41769752,0.021965731,0.17868969,0.4674067,0.5554971,-0.06436495,0.037168052,0.44333762,0.114005096,-0.24924855,-0.2115602,0.07204089,785.7143,792.5641,801.4286,786.9231,942.4542,-0.20086669921875,0.0960693359375,0.98663330078125,-1.697235107421875,-1.98883056640625,-0.336456298828125,1,1.0,1.0,1.0,1.0,10.00
2024-10-11 20:40:41.882,0.7682378,0.54560196,0.76958215,0.7660351,0.2870979,0.080420285,0.19423373,0.25145474,0.41769752,0.021965731,0.17868969,0.4674067,0.5554971,-0.06436495,0.037168052,0.44333762,0.114005096,-0.24924855,-0.2115602,0.07204089,778.46155,788.93774,804.2491,783.69965,767.1795,-0.1932373046875,0.0943603515625,0.99298095703125,-1.00189208984375,-2.13836669921875,-0.5084228515625,1,1.0,1.0,1.0,1.0,10.00
2024-10-11 20:40:41.883,0.7682378,0.54560196,0.76958215,0.7660351,0.2870979,0.080420285,0.19423373,0.25145474,0.41769752,0.021965731,0.17868969,0.4674067,0.5554971,-0.06436495,0.037168052,0.44333762,0.114005096,-0.24924855,-0.2115602,0.07204089,783.69965,788.5348,801.8315,785.7143,656.3736,-0.1932373046875,0.0943603515625,0.99298095703125,-1.00189208984375,-2.13836669921875,-0.5084228515625,1,1.0,1.0,1.0,1.0,10.00
2024-10-11 20:40:41.883,0.7682378,0.54560196,0.76958215,0.7660351,0.2870979,0.080420285,0.19423373,0.25145474,0.41769752,0.021965731,0.17868969,0.4674067,0.5554971,-0.06436495,0.037168052,0.44333762,0.114005096,-0.24924855,-0.2115602,0.07204089,804.2491,790.54944,799.41394,797.3993,619.304,-0.1932373046875,0.0943603515625,0.99298095703125,-1.00189208984375,-2.13836669921875,-0.5084228515625,1,1.0,1.0,1.0,1.0,10.00
2024-10-11 20:40:41.884,0.7682378,0.54560196,0.76958215,0.7660351,0.2870979,0.080420285,0.19423373,0.25145474,0.41769752,0.021965731,0.17868969,0.4674067,0.5554971,-0.06436495,0.037168052,0.44333762,0.114005096,-0.24924855,-0.2115602,0.07204089,791.3553,786.9231,797.3993,803.44324,856.2271,-0.1932373046875,0.0943603515625,0.99298095703125,-1.00189208984375,-2.13836669921875,-0.5084228515625,1,1.0,1.0,1.0,1.0,10.00
2024-10-11 20:40:41.885,0.7682378,0.54560196,0.76958215,0.7660351,0.2870979,0.080420285,0.19423373,0.25145474,0.41769752,0.021965731,0.17868969,0.4674067,0.5554971,-0.06436495,0.037168052,0.44333762,0.114005096,-0.24924855,-0.2115602,0.07204089,765.16486,788.5348,792.5641,791.75824,1158.8279,-0.1932373046875,0.0943603515625,0.99298095703125,-1.00189208984375,-2.13836669921875,-0.5084228515625,1,1.0,1.0,1.0,1.0,10.00
2024-10-11 20:40:41.886,0.7682378,0.54560196,0.76958215,0.7660351,0.2870979,0.080420285,0.19423373,0.25145474,0.41769752,0.021965731,0.17868969,0.4674067,0.5554971,-0.06436495,0.037168052,0.44333762,0.114005096,-0.24924855,-0.2115602,0.07204089,772.4176,791.75824,791.75824,782.8938,965.0183,-0.1932373046875,0.0943603515625,0.99298095703125,-1.00189208984375,-2.13836669921875,-0.5084228515625,1,1.0,1.0,1.0,1.0,10.00
2024-10-11 20:40:41.887,0.7682378,0.54560196,0.76958215,0.7660351,0.2870979,0.080420285,0.19423373,0.25145474,0.41769752,0.021965731,0.17868969,0.4674067,0.5554971,-0.06436495,0.037168052,0.44333762,0.114005096,-0.24924855,-0.2115602,0.07204089,775.64105,790.9524,790.9524,779.67035,865.09155,-0.1932373046875,0.0943603515625,0.99298095703125,-1.00189208984375,-2.13836669921875,-0.5084228515625,1,1.0,1.0,1.0,1.0,10.00
2024-10-11 20:40:41.888,0.7682378,0.54560196,0.76958215,0.7660351,0.2870979,0.080420285,0.19423373,0.25145474,0.41769752,0.021965731,0.17868969,0.4674067,0.5554971,-0.06436495,0.037168052,0.44333762,0.114005096,-0.24924855,-0.2115602,0.07204089,791.3553,793.7729,794.9817,788.1319,847.76556,-0.1932373046875,0.0943603515625,0.99298095703125,-1.00189208984375,-2.13836669921875,-0.5084228515625,1,1.0,1.0,1.0,1.0,10.00
2024-10-11 20:40:41.889,0.7682378,0.54560196,0.76958215,0.7660351,0.2870979,0.080420285,0.19423373,0.25145474,0.41769752,0.021965731,0.17868969,0.4674067,0.5554971,-0.06436495,0.037168052,0.44333762,0.114005096,-0.24924855,-0.2115602,0.07204089,789.34064,797.8022,796.5934,777.25275,611.2454,-0.1932373046875,0.0943603515625,0.99298095703125,-1.00189208984375,-2.13836669921875,-0.5084228515625,1,1.0,1.0,1.0,1.0,10.00
2024-10-11 20:40:41.890,0.7682378,0.581761,0.7851838,0.7660351,0.2870979,0.062247515,0.22278799,0.25145474,0.41769752,0.021965731,0.14908545,0.4674067,0.5554971,-0.04770827,0.024955567,0.44333762,0.114005096,-0.24813914,-0.2025896,0.07204089,776.4469,801.8315,792.96704,770.0,585.05493,-0.1932373046875,0.0943603515625,0.99298095703125,-1.00189208984375,-2.13836669921875,-0.5084228515625,1,1.0,1.0,1.0,1.0,10.00
2024-10-11 20:40:41.894,0.7682378,0.581761,0.7851838,0.7660351,0.2870979,0.062247515,0.22278799,0.25145474,0.41769752,0.021965731,0.14908545,0.4674067,0.5554971,-0.04770827,0.024955567,0.44333762,0.114005096,-0.24813914,-0.2025896,0.07204089,792.96704,803.0403,791.75824,787.72894,722.0513,-0.1932373046875,0.0943603515625,0.99298095703125,-1.00189208984375,-2.13836669921875,-0.5084228515625,1,1.0,1.0,1.0,1.0,10.00
2024-10-11 20:40:41.895,0.7682378,0.581761,0.7851838,0.7660351,0.2870979,0.062247515,0.22278799,0.25145474,0.41769752,0.021965731,0.14908545,0.4674067,0.5554971,-0.04770827,0.024955567,0.44333762,0.114005096,-0.24813914,-0.2025896,0.07204089,795.38464,796.5934,788.93774,785.31134,770.0,-0.1932373046875,0.0943603515625,0.99298095703125,-1.00189208984375,-2.13836669921875,-0.5084228515625,1,1.0,1.0,1.0,1.0,10.00
2024-10-11 20:40:41.927,0.7682378,0.581761,0.7851838,0.7660351,0.2870979,0.062247515,0.22278799,0.25145474,0.41769752,0.021965731,0.14908545,0.4674067,0.5554971,-0.04770827,0.024955567,0.44333762,0.114005096,-0.24813914,-0.2025896,0.07204089,789.34064,792.96704,791.75824,783.2967,686.99634,-0.188720703125,0.09332275390625,0.983154296875,-1.00189208984375,-2.310333251953125,0.97198486328125,1,1.0,1.0,1.0,1.0,10.00
2024-10-11 20:40:41.928,0.7682378,0.581761,0.7851838,0.7660351,0.2870979,0.062247515,0.22278799,0.25145474,0.41769752,0.021965731,0.14908545,0.4674067,0.5554971,-0.04770827,0.024955567,0.44333762,0.114005096,-0.24813914,-0.2025896,0.07204089,790.9524,796.1905,799.011,791.3553,549.19415,-0.188720703125,0.09332275390625,0.983154296875,-1.00189208984375,-2.310333251953125,0.97198486328125,1,1.0,1.0,1.0,1.0,10.00
2024-10-11 20:40:41.928,0.7682378,0.581761,0.7851838,0.7660351,0.2870979,0.062247515,0.22278799,0.25145474,0.41769752,0.021965731,0.14908545,0.4674067,0.5554971,-0.04770827,0.024955567,0.44333762,0.114005096,-0.24813914,-0.2025896,0.07204089,792.5641,800.6227,796.99634,794.9817,720.0366,-0.188720703125,0.09332275390625,0.983154296875,-1.00189208984375,-2.310333251953125,0.97198486328125,1,1.0,1.0,1.0,1.0,10.00
2024-10-11 20:40:41.929,0.7682378,0.581761,0.7851838,0.7660351,0.2870979,0.062247515,0.22278799,0.25145474,0.41769752,0.021965731,0.14908545,0.4674067,0.5554971,-0.04770827,0.024955567,0.44333762,0.114005096,-0.24813914,-0.2025896,0.07204089,797.3993,803.44324,791.75824,800.2198,867.9121,-0.188720703125,0.09332275390625,0.983154296875,-1.00189208984375,-2.310333251953125,0.97198486328125,1,1.0,1.0,1.0,1.0,10.00
2024-10-11 20:40:41.930,0.7682378,0.581761,0.7851838,0.7660351,0.2870979,0.062247515,0.22278799,0.25145474,0.41769752,0.021965731,0.14908545,0.4674067,0.5554971,-0.04770827,0.024955567,0.44333762,0.114005096,-0.24813914,-0.2025896,0.07204089,795.38464,799.81683,796.99634,797.3993,653.1502,-0.188720703125,0.09332275390625,0.983154296875,-1.00189208984375,-2.310333251953125,0.97198486328125,1,1.0,1.0,1.0,1.0,10.00
2024-10-11 20:40:41.930,0.7682378,0.581761,0.7851838,0.7660351,0.2870979,0.062247515,0.22278799,0.25145474,0.41769752,0.021965731,0.14908545,0.4674067,0.5554971,-0.04770827,0.024955567,0.44333762,0.114005096,-0.24813914,-0.2025896,0.07204089,805.4579,795.38464,797.3993,800.6227,550.0,-0.188720703125,0.09332275390625,0.983154296875,-1.00189208984375,-2.310333251953125,0.97198486328125,1,1.0,1.0,1.0,1.0,10.00
2024-10-11 20:40:41.931,0.7682378,0.581761,0.7851838,0.7660351,0.2870979,0.062247515,0.22278799,0.25145474,0.41769752,0.021965731,0.14908545,0.4674067,0.5554971,-0.04770827,0.024955567,0.44333762,0.114005096,-0.24813914,-0.2025896,0.07204089,820.3663,793.36993,796.5934,799.81683,806.6667,-0.188720703125,0.09332275390625,0.983154296875,-1.00189208984375,-2.310333251953125,0.97198486328125,1,1.0,1.0,1.0,1.0,10.00
2024-10-11 20:40:41.932,0.7682378,0.581761,0.7851838,0.7660351,0.2870979,0.062247515,0.22278799,0.25145474,0.41769752,0.021965731,0.14908545,0.4674067,0.5554971,-0.04770827,0.024955567,0.44333762,0.114005096,-0.24813914,-0.2025896,0.07204089,808.2784,791.3553,797.3993,803.0403,1137.4725,-0.188720703125,0.09332275390625,0.983154296875,-1.00189208984375,-2.310333251953125,0.97198486328125,1,1.0,1.0,1.0,1.0,10.00
2024-10-11 20:40:41.933,0.7682378,0.581761,0.7851838,0.7660351,0.2870979,0.062247515,0.22278799,0.25145474,0.41769752,0.021965731,0.14908545,0.4674067,0.5554971,-0.04770827,0.024955567,0.44333762,0.114005096,-0.24813914,-0.2025896,0.07204089,790.54944,792.1612,796.1905,799.41394,727.28937,-0.188720703125,0.09332275390625,0.983154296875,-1.00189208984375,-2.310333251953125,0.97198486328125,1,1.0,1.0,1.0,1.0,10.00
2024-10-11 20:40:41.933,0.7682378,0.581761,0.7851838,0.7660351,0.2870979,0.062247515,0.22278799,0.25145474,0.41769752,0.021965731,0.14908545,0.4674067,0.5554971,-0.04770827,0.024955567,0.44333762,0.114005096,-0.24813914,-0.2025896,0.07204089,798.60803,794.9817,798.60803,791.75824,462.56412,-0.188720703125,0.09332275390625,0.983154296875,-1.00189208984375,-2.310333251953125,0.97198486328125,1,1.0,1.0,1.0,1.0,10.00
2024-10-11 20:40:41.934,0.7682378,0.581761,0.7851838,0.7660351,0.2870979,0.062247515,0.22278799,0.25145474,0.41769752,0.021965731,0.14908545,0.4674067,0.5554971,-0.04770827,0.024955567,0.44333762,0.114005096,-0.24813914,-0.2025896,0.07204089,793.7729,794.57874,799.011,795.38464,667.25275,-0.188720703125,0.09332275390625,0.983154296875,-1.00189208984375,-2.310333251953125,0.97198486328125,1,1.0,1.0,1.0,1.0,10.00
2024-10-11 20:40:41.935,0.7682378,0.581761,0.7851838,0.7660351,0.2870979,0.062247515,0.22278799,0.25145474,0.41769752,0.021965731,0.14908545,0.4674067,0.5554971,-0.04770827,0.024955567,0.44333762,0.114005096,-0.24813914,-0.2025896,0.07204089,784.5055,792.96704,796.99634,793.36993,684.57874,-0.188720703125,0.09332275390625,0.983154296875,-1.00189208984375,-2.310333251953125,0.97198486328125,1,1.0,1.0,1.0,1.0,10.00
2024-10-11 20:40:41.936,0.7682378,0.581761,0.7851838,0.7660351,0.2870979,0.062247515,0.22278799,0.25145474,0.41769752,0.021965731,0.14908545,0.4674067,0.5554971,-0.04770827,0.024955567,0.44333762,0.114005096,-0.24813914,-0.2025896,0.07204089,796.5934,794.57874,794.57874,791.75824,621.31866,-0.199951171875,0.09259033203125,0.9852294921875,-0.874786376953125,-1.024322509765625,1.682281494140625,1,1.0,1.0,1.0,1.0,10.00
2024-10-11 20:40:41.937,0.7682378,0.581761,0.7851838,0.7660351,0.2870979,0.062247515,0.22278799,0.25145474,0.41769752,0.021965731,0.14908545,0.4674067,0.5554971,-0.04770827,0.024955567,0.44333762,0.114005096,-0.24813914,-0.2025896,0.07204089,803.44324,796.5934,800.2198,792.5641,610.0366,-0.199951171875,0.09259033203125,0.9852294921875,-0.874786376953125,-1.024322509765625,1.682281494140625,1,1.0,1.0,1.0,1.0,10.00
2024-10-11 20:40:41.937,0.7682378,0.581761,0.7851838,0.7660351,0.2870979,0.062247515,0.22278799,0.25145474,0.41769752,0.021965731,0.14908545,0.4674067,0.5554971,-0.04770827,0.024955567,0.44333762,0.114005096,-0.24813914,-0.2025896,0.07204089,801.02563,797.3993,806.26373,796.1905,848.5714,-0.199951171875,0.09259033203125,0.9852294921875,-0.874786376953125,-1.024322509765625,1.682281494140625,1,1.0,1.0,1.0,1.0,10.00
2024-10-11 20:40:41.938,0.7682378,0.581761,0.7851838,0.7660351,0.2870979,0.062247515,0.22278799,0.25145474,0.41769752,0.021965731,0.14908545,0.4674067,0.5554971,-0.04770827,0.024955567,0.44333762,0.114005096,-0.24813914,-0.2025896,0.07204089,806.26373,800.2198,806.26373,802.23444,799.011,-0.199951171875,0.09259033203125,0.9852294921875,-0.874786376953125,-1.024322509765625,1.682281494140625,1,1.0,1.0,1.0,1.0,10.00
2024-10-11 20:40:41.939,0.7682378,0.581761,0.7851838,0.7660351,0.2870979,0.062247515,0.22278799,0.25145474,0.41769752,0.021965731,0.14908545,0.4674067,0.5554971,-0.04770827,0.024955567,0.44333762,0.114005096,-0.24813914,-0.2025896,0.07204089,810.696,806.26373,809.89014,809.4872,584.2491,-0.199951171875,0.09259033203125,0.9852294921875,-0.874786376953125,-1.024322509765625,1.682281494140625,1,1.0,1.0,1.0,1.0,10.00
2024-10-11 20:40:41.939,0.7682378,0.581761,0.7851838,0.7660351,0.2870979,0.062247515,0.22278799,0.25145474,0.41769752,0.021965731,0.14908545,0.4674067,0.5554971,-0.04770827,0.024955567,0.44333762,0.114005096,-0.24813914,-0.2025896,0.07204089,809.4872,801.02563,805.8608,812.3077,725.6777,-0.199951171875,0.09259033203125,0.9852294921875,-0.874786376953125,-1.024322509765625,1.682281494140625,1,1.0,1.0,1.0,1.0,10.00
2024-10-11 20:40:41.940,0.7682378,0.581761,0.7851838,0.7660351,0.2870979,0.062247515,0.22278799,0.25145474,0.41769752,0.021965731,0.14908545,0.4674067,0.5554971,-0.04770827,0.024955567,0.44333762,0.114005096,-0.24813914,-0.2025896,0.07204089,807.8755,793.7729,805.8608,807.47253,1028.6813,-0.199951171875,0.09259033203125,0.9852294921875,-0.874786376953125,-1.024322509765625,1.682281494140625,1,1.0,1.0,1.0,1.0,10.00
2024-10-11 20:40:41.941,0.7682378,0.581761,0.7851838,0.7660351,0.2870979,0.062247515,0.22278799,0.25145474,0.41769752,0.021965731,0.14908545,0.4674067,0.5554971,-0.04770827,0.024955567,0.44333762,0.114005096,-0.24813914,-0.2025896,0.07204089,808.2784,792.96704,804.2491,800.6227,972.27106,-0.199951171875,0.09259033203125,0.9852294921875,-0.874786376953125,-1.024322509765625,1.682281494140625,1,1.0,1.0,1.0,1.0,10.00
2024-10-11 20:40:41.941,0.7682378,0.581761,0.7851838,0.7660351,0.2870979,0.062247515,0.22278799,0.25145474,0.41769752,0.021965731,0.14908545,0.4674067,0.5554971,-0.04770827,0.024955567,0.44333762,0.114005096,-0.24813914,-0.2025896,0.07204089,799.81683,789.7436,795.38464,800.2198,809.4872,-0.199951171875,0.09259033203125,0.9852294921875,-0.874786376953125,-1.024322509765625,1.682281494140625,1,1.0,1.0,1.0,1.0,10.00
2024-10-11 20:40:41.942,0.7682378,0.581761,0.7851838,0.7660351,0.2870979,0.062247515,0.22278799,0.25145474,0.41769752,0.021965731,0.14908545,0.4674067,0.5554971,-0.04770827,0.024955567,0.44333762,0.114005096,-0.24813914,-0.2025896,0.07204089,794.57874,787.72894,803.8461,799.41394,831.6484,-0.199951171875,0.09259033203125,0.9852294921875,-0.874786376953125,-1.024322509765625,1.682281494140625,1,1.0,1.0,1.0,1.0,10.00
2024-10-11 20:40:41.942,0.7682378,0.581761,0.7851838,0.7660351,0.2870979,0.062247515,0.22278799,0.25145474,0.41769752,0.021965731,0.14908545,0.4674067,0.5554971,-0.04770827,0.024955567,0.44333762,0.114005096,-0.24813914,-0.2025896,0.07204089,792.1612,788.1319,809.0842,801.4286,949.707,-0.199951171875,0.09259033203125,0.9852294921875,-0.874786376953125,-1.024322509765625,1.682281494140625,1,1.0,1.0,1.0,1.0,10.00
2024-10-11 20:40:41.943,0.7682378,0.6073797,0.79238576,0.7660351,0.2870979,0.041880727,0.24368094,0.25145474,0.41769752,0.024259446,0.09840798,0.4674067,0.5554971,-0.033108138,0.007964123,0.44333762,0.114005096,-0.25111693,-0.16359217,0.07204089,785.31134,792.1612,808.2784,801.02563,839.304,-0.199951171875,0.09259033203125,0.9852294921875,-0.874786376953125,-1.024322509765625,1.682281494140625,1,1.0,1.0,1.0,1.0,10.00
2024-10-11 20:40:41.967,0.7682378,0.6073797,0.79238576,0.7660351,0.2870979,0.041880727,0.24368094,0.25145474,0.41769752,0.024259446,0.09840798,0.4674067,0.5554971,-0.033108138,0.007964123,0.44333762,0.114005096,-0.25111693,-0.16359217,0.07204089,790.54944,796.99634,806.6667,800.6227,628.5714,-0.199951171875,0.09259033203125,0.9852294921875,-0.874786376953125,-1.024322509765625,1.682281494140625,1,1.0,1.0,1.0,1.0,10.00
2024-10-11 20:40:41.968,0.7682378,0.6073797,0.79238576,0.7660351,0.2870979,0.041880727,0.24368094,0.25145474,0.41769752,0.024259446,0.09840798,0.4674067,0.5554971,-0.033108138,0.007964123,0.44333762,0.114005096,-0.25111693,-0.16359217,0.07204089,785.7143,796.5934,795.38464,801.02563,632.1978,-0.199951171875,0.09259033203125,0.9852294921875,-0.874786376953125,-1.024322509765625,1.682281494140625,1,1.0,1.0,1.0,1.0,10.00
2024-10-11 20:40:41.969,0.7682378,0.6073797,0.79238576,0.7660351,0.2870979,0.041880727,0.24368094,0.25145474,0.41769752,0.024259446,0.09840798,0.4674067,0.5554971,-0.033108138,0.007964123,0.44333762,0.114005096,-0.25111693,-0.16359217,0.07204089,778.86444,792.5641,792.96704,799.011,801.4286,-0.199951171875,0.09259033203125,0.9852294921875,-0.874786376953125,-1.024322509765625,1.682281494140625,1,1.0,1.0,1.0,1.0,10.00
2024-10-11 20:40:41.970,0.7682378,0.6073797,0.79238576,0.7660351,0.2870979,0.041880727,0.24368094,0.25145474,0.41769752,0.024259446,0.09840798,0.4674067,0.5554971,-0.033108138,0.007964123,0.44333762,0.114005096,-0.25111693,-0.16359217,0.07204089,784.10254,787.326,795.38464,798.20514,769.59705,-0.199951171875,0.09259033203125,0.9852294921875,-0.874786376953125,-1.024322509765625,1.682281494140625,1,1.0,1.0,1.0,1.0,10.00
2024-10-11 20:40:41.970,0.7682378,0.6073797,0.79238576,0.7660351,0.2870979,0.041880727,0.24368094,0.25145474,0.41769752,0.024259446,0.09840798,0.4674067,0.5554971,-0.033108138,0.007964123,0.44333762,0.114005096,-0.25111693,-0.16359217,0.07204089,786.1172,786.1172,796.1905,795.78754,651.13556,-0.199951171875,0.09259033203125,0.9852294921875,-0.874786376953125,-1.024322509765625,1.682281494140625,1,1.0,1.0,1.0,1.0,10.00
2024-10-11 20:40:41.971,0.7682378,0.6073797,0.79238576,0.7660351,0.2870979,0.041880727,0.24368094,0.25145474,0.41769752,0.024259446,0.09840798,0.4674067,0.5554971,-0.033108138,0.007964123,0.44333762,0.114005096,-0.25111693,-0.16359217,0.07204089,791.75824,784.10254,796.5934,794.17584,805.05493,-0.199951171875,0.09259033203125,0.9852294921875,-0.874786376953125,-1.024322509765625,1.682281494140625,1,1.0,1.0,1.0,1.0,10.00
2024-10-11 20:40:41.972,0.7682378,0.6073797,0.79238576,0.7660351,0.2870979,0.041880727,0.24368094,0.25145474,0.41769752,0.024259446,0.09840798,0.4674067,0.5554971,-0.033108138,0.007964123,0.44333762,0.114005096,-0.25111693,-0.16359217,0.07204089,797.3993,784.90845,795.38464,808.2784,1340.5494,-0.199951171875,0.09259033203125,0.9852294921875,-0.874786376953125,-1.024322509765625,1.682281494140625,1,1.0,1.0,1.0,1.0,10.00
2024-10-11 20:40:41.972,0.7682378,0.6073797,0.79238576,0.7660351,0.2870979,0.041880727,0.24368094,0.25145474,0.41769752,0.024259446,0.09840798,0.4674067,0.5554971,-0.033108138,0.007964123,0.44333762,0.114005096,-0.25111693,-0.16359217,0.07204089,792.96704,790.14655,796.99634,809.0842,1145.1282,-0.199951171875,0.09259033203125,0.9852294921875,-0.874786376953125,-1.024322509765625,1.682281494140625,1,1.0,1.0,1.0,1.0,10.00
2024-10-11 20:40:41.973,0.7682378,0.6073797,0.79238576,0.7660351,0.2870979,0.041880727,0.24368094,0.25145474,0.41769752,0.024259446,0.09840798,0.4674067,0.5554971,-0.033108138,0.007964123,0.44333762,0.114005096,-0.25111693,-0.16359217,0.07204089,781.685,792.96704,799.81683,794.17584,633.00366,-0.199951171875,0.09259033203125,0.9852294921875,-0.874786376953125,-1.024322509765625,1.682281494140625,1,1.0,1.0,1.0,1.0,10.00
2024-10-11 20:40:41.974,0.7682378,0.6073797,0.79238576,0.7660351,0.2870979,0.041880727,0.24368094,0.25145474,0.41769752,0.024259446,0.09840798,0.4674067,0.5554971,-0.033108138,0.007964123,0.44333762,0.114005096,-0.25111693,-0.16359217,0.07204089,782.8938,794.17584,798.60803,792.96704,664.83514,-0.199951171875,0.09259033203125,0.9852294921875,-0.874786376953125,-1.024322509765625,1.682281494140625,1,1.0,1.0,1.0,1.0,10.00
2024-10-11 20:40:41.974,0.7682378,0.6073797,0.79238576,0.7660351,0.2870979,0.041880727,0.24368094,0.25145474,0.41769752,0.024259446,0.09840798,0.4674067,0.5554971,-0.033108138,0.007964123,0.44333762,0.114005096,-0.25111693,-0.16359217,0.07204089,790.54944,795.38464,801.02563,789.34064,603.9927,-0.199951171875,0.09259033203125,0.9852294921875,-0.874786376953125,-1.024322509765625,1.682281494140625,1,1.0,1.0,1.0,1.0,10.00
2024-10-11 20:40:41.975,0.7682378,0.6073797,0.79238576,0.7660351,0.2870979,0.041880727,0.24368094,0.25145474,0.41769752,0.024259446,0.09840798,0.4674067,0.5554971,-0.033108138,0.007964123,0.44333762,0.114005096,-0.25111693,-0.16359217,0.07204089,789.34064,798.60803,807.47253,788.1319,626.9597,-0.199951171875,0.09259033203125,0.9852294921875,-0.874786376953125,-1.024322509765625,1.682281494140625,1,1.0,1.0,1.0,1.0,10.00
2024-10-11 20:40:42.054,0.7682378,0.6073797,0.79238576,0.7660351,0.2870979,0.041880727,0.24368094,0.25145474,0.41769752,0.024259446,0.09840798,0.4674067,0.5554971,-0.033108138,0.007964123,0.44333762,0.114005096,-0.25111693,-0.16359217,0.07204089,791.3553,799.81683,807.47253,795.38464,710.7692,-0.203857421875,0.09039306640625,0.97808837890625,-1.203765869140625,-1.577606201171875,0.82244873046875,1,1.0,1.0,1.0,1.0,10.00
2024-10-11 20:40:42.055,0.7682378,0.6073797,0.79238576,0.7660351,0.2870979,0.041880727,0.24368094,0.25145474,0.41769752,0.024259446,0.09840798,0.4674067,0.5554971,-0.033108138,0.007964123,0.44333762,0.114005096,-0.25111693,-0.16359217,0.07204089,788.5348,794.9817,804.2491,793.7729,781.28204,-0.203857421875,0.09039306640625,0.97808837890625,-1.203765869140625,-1.577606201171875,0.82244873046875,1,1.0,1.0,1.0,1.0,10.00
2024-10-11 20:40:42.056,0.7682378,0.6073797,0.79238576,0.7660351,0.2870979,0.041880727,0.24368094,0.25145474,0.41769752,0.024259446,0.09840798,0.4674067,0.5554971,-0.033108138,0.007964123,0.44333762,0.114005096,-0.25111693,-0.16359217,0.07204089,789.34064,798.20514,800.6227,790.14655,704.7253,-0.203857421875,0.09039306640625,0.97808837890625,-1.203765869140625,-1.577606201171875,0.82244873046875,1,1.0,1.0,1.0,1.0,10.00
2024-10-11 20:40:42.056,0.7682378,0.6073797,0.79238576,0.7660351,0.2870979,0.041880727,0.24368094,0.25145474,0.41769752,0.024259446,0.09840798,0.4674067,0.5554971,-0.033108138,0.007964123,0.44333762,0.114005096,-0.25111693,-0.16359217,0.07204089,796.99634,800.6227,795.78754,794.57874,588.2784,-0.203857421875,0.09039306640625,0.97808837890625,-1.203765869140625,-1.577606201171875,0.82244873046875,1,1.0,1.0,1.0,1.0,10.00
2024-10-11 20:40:42.057,0.7682378,0.6073797,0.79238576,0.7660351,0.2870979,0.041880727,0.24368094,0.25145474,0.41769752,0.024259446,0.09840798,0.4674067,0.5554971,-0.033108138,0.007964123,0.44333762,0.114005096,-0.25111693,-0.16359217,0.07204089,803.0403,796.99634,799.41394,802.23444,689.81683,-0.203857421875,0.09039306640625,0.97808837890625,-1.203765869140625,-1.577606201171875,0.82244873046875,1,1.0,1.0,1.0,1.0,10.00
2024-10-11 20:40:42.058,0.7682378,0.6073797,0.79238576,0.7660351,0.2870979,0.041880727,0.24368094,0.25145474,0.41769752,0.024259446,0.09840798,0.4674067,0.5554971,-0.033108138,0.007964123,0.44333762,0.114005096,-0.25111693,-0.16359217,0.07204089,804.2491,799.011,803.0403,805.8608,911.02563,-0.203857421875,0.09039306640625,0.97808837890625,-1.203765869140625,-1.577606201171875,0.82244873046875,1,1.0,1.0,1.0,1.0,10.00
2024-10-11 20:40:42.059,0.7682378,0.6073797,0.79238576,0.7660351,0.2870979,0.041880727,0.24368094,0.25145474,0.41769752,0.024259446,0.09840798,0.4674067,0.5554971,-0.033108138,0.007964123,0.44333762,0.114005096,-0.25111693,-0.16359217,0.07204089,808.68134,795.78754,801.4286,810.696,851.39197,-0.203857421875,0.09039306640625,0.97808837890625,-1.203765869140625,-1.577606201171875,0.82244873046875,1,1.0,1.0,1.0,1.0,10.00
2024-10-11 20:40:42.059,0.7682378,0.6073797,0.79238576,0.7660351,0.2870979,0.041880727,0.24368094,0.25145474,0.41769752,0.024259446,0.09840798,0.4674067,0.5554971,-0.033108138,0.007964123,0.44333762,0.114005096,-0.25111693,-0.16359217,0.07204089,811.0989,798.20514,799.011,807.8755,715.6044,-0.203857421875,0.09039306640625,0.97808837890625,-1.203765869140625,-1.577606201171875,0.82244873046875,1,1.0,1.0,1.0,1.0,10.00
2024-10-11 20:40:42.059,0.7682378,0.6073797,0.79238576,0.7660351,0.2870979,0.041880727,0.24368094,0.25145474,0.41769752,0.024259446,0.09840798,0.4674067,0.5554971,-0.033108138,0.007964123,0.44333762,0.114005096,-0.25111693,-0.16359217,0.07204089,808.2784,804.2491,801.02563,811.9048,699.89014,-0.203857421875,0.09039306640625,0.97808837890625,-1.203765869140625,-1.577606201171875,0.82244873046875,1,1.0,1.0,1.0,1.0,10.00
2024-10-11 20:40:42.060,0.7682378,0.6073797,0.79238576,0.7660351,0.2870979,0.041880727,0.24368094,0.25145474,0.41769752,0.024259446,0.09840798,0.4674067,0.5554971,-0.033108138,0.007964123,0.44333762,0.114005096,-0.25111693,-0.16359217,0.07204089,807.8755,800.6227,798.20514,816.7399,1023.8461,-0.203857421875,0.09039306640625,0.97808837890625,-1.203765869140625,-1.577606201171875,0.82244873046875,1,1.0,1.0,1.0,1.0,10.00
2024-10-11 20:40:42.060,0.7682378,0.6073797,0.79238576,0.7660351,0.2870979,0.041880727,0.24368094,0.25145474,0.41769752,0.024259446,0.09840798,0.4674067,0.5554971,-0.033108138,0.007964123,0.44333762,0.114005096,-0.25111693,-0.16359217,0.07204089,809.89014,804.65204,799.011,804.65204,930.3663,-0.203857421875,0.09039306640625,0.97808837890625,-1.203765869140625,-1.577606201171875,0.82244873046875,1,1.0,1.0,1.0,1.0,10.00
2024-10-11 20:40:42.061,0.7682378,0.6073797,0.79238576,0.7660351,0.2870979,0.041880727,0.24368094,0.25145474,0.41769752,0.024259446,0.09840798,0.4674067,0.5554971,-0.033108138,0.007964123,0.44333762,0.114005096,-0.25111693,-0.16359217,0.07204089,807.0696,810.293,804.65204,798.60803,596.337,-0.203857421875,0.09039306640625,0.97808837890625,-1.203765869140625,-1.577606201171875,0.82244873046875,1,1.0,1.0,1.0,1.0,10.00
2024-10-11 20:40:42.088,0.7682378,0.6073797,0.79238576,0.7660351,0.2870979,0.041880727,0.24368094,0.25145474,0.41769752,0.024259446,0.09840798,0.4674067,0.5554971,-0.033108138,0.007964123,0.44333762,0.114005096,-0.25111693,-0.16359217,0.07204089,810.293,805.4579,804.2491,799.011,661.2088,-0.20391845703125,0.09027099609375,0.9920654296875,-0.46356201171875,-2.27294921875,-0.515899658203125,1,1.0,1.0,1.0,1.0,10.00
2024-10-11 20:40:42.089,0.7682378,0.60980165,0.7785234,0.7660351,0.2870979,0.019117342,0.24966171,0.25145474,0.41769752,0.05026176,0.06164651,0.4674067,0.5554971,-0.01981608,-0.0034624864,0.44333762,0.114005096,-0.2604218,-0.10129367,0.07204089,815.5311,803.0403,797.3993,792.96704,719.6337,-0.20391845703125,0.09027099609375,0.9920654296875,-0.46356201171875,-2.27294921875,-0.515899658203125,1,1.0,1.0,1.0,1.0,10.00
2024-10-11 20:40:42.093,0.7682378,0.60980165,0.7785234,0.7660351,0.2870979,0.019117342,0.24966171,0.25145474,0.41769752,0.05026176,0.06164651,0.4674067,0.5554971,-0.01981608,-0.0034624864,0.44333762,0.114005096,-0.2604218,-0.10129367,0.07204089,815.12823,800.2198,793.36993,794.57874,665.2381,-0.20391845703125,0.09027099609375,0.9920654296875,-0.46356201171875,-2.27294921875,-0.515899658203125,1,1.0,1.0,1.0,1.0,10.00
2024-10-11 20:40:42.093,0.7682378,0.60980165,0.7785234,0.7660351,0.2870979,0.019117342,0.24966171,0.25145474,0.41769752,0.05026176,0.06164651,0.4674067,0.5554971,-0.01981608,-0.0034624864,0.44333762,0.114005096,-0.2604218,-0.10129367,0.07204089,809.4872,803.0403,799.41394,796.99634,639.0476,-0.20391845703125,0.09027099609375,0.9920654296875,-0.46356201171875,-2.27294921875,-0.515899658203125,1,1.0,1.0,1.0,1.0,10.00
2024-10-11 20:40:42.094,0.7682378,0.60980165,0.7785234,0.7660351,0.2870979,0.019117342,0.24966171,0.25145474,0.41769752,0.05026176,0.06164651,0.4674067,0.5554971,-0.01981608,-0.0034624864,0.44333762,0.114005096,-0.2604218,-0.10129367,0.07204089,808.2784,801.02563,801.4286,804.65204,673.2967,-0.20391845703125,0.09027099609375,0.9920654296875,-0.46356201171875,-2.27294921875,-0.515899658203125,1,1.0,1.0,1.0,1.0,10.00
2024-10-11 20:40:42.094,0.7682378,0.60980165,0.7785234,0.7660351,0.2870979,0.019117342,0.24966171,0.25145474,0.41769752,0.05026176,0.06164651,0.4674067,0.5554971,-0.01981608,-0.0034624864,0.44333762,0.114005096,-0.2604218,-0.10129367,0.07204089,809.4872,793.7729,794.17584,807.8755,879.59705,-0.20391845703125,0.09027099609375,0.9920654296875,-0.46356201171875,-2.27294921875,-0.515899658203125,1,1.0,1.0,1.0,1.0,10.00
2024-10-11 20:40:42.095,0.7682378,0.60980165,0.7785234,0.7660351,0.2870979,0.019117342,0.24966171,0.25145474,0.41769752,0.05026176,0.06164651,0.4674067,0.5554971,-0.01981608,-0.0034624864,0.44333762,0.114005096,-0.2604218,-0.10129367,0.07204089,801.8315,796.5934,790.9524,803.8461,909.81683,-0.20391845703125,0.09027099609375,0.9920654296875,-0.46356201171875,-2.27294921875,-0.515899658203125,1,1.0,1.0,1.0,1.0,10.00
2024-10-11 20:40:42.095,0.7682378,0.60980165,0.7785234,0.7660351,0.2870979,0.019117342,0.24966171,0.25145474,0.41769752,0.05026176,0.06164651,0.4674067,0.5554971,-0.01981608,-0.0034624864,0.44333762,0.114005096,-0.2604218,-0.10129367,0.07204089,798.20514,795.38464,794.17584,796.5934,658.7912,-0.20391845703125,0.09027099609375,0.9920654296875,-0.46356201171875,-2.27294921875,-0.515899658203125,1,1.0,1.0,1.0,1.0,10.00
2024-10-11 20:40:42.096,0.7682378,0.60980165,0.7785234,0.7660351,0.2870979,0.019117342,0.24966171,0.25145474,0.41769752,0.05026176,0.06164651,0.4674067,0.5554971,-0.01981608,-0.0034624864,0.44333762,0.114005096,-0.2604218,-0.10129367,0.07204089,808.2784,798.60803,794.57874,795.78754,804.2491,-0.20391845703125,0.09027099609375,0.9920654296875,-0.46356201171875,-2.27294921875,-0.515899658203125,1,1.0,1.0,1.0,1.0,10.00
2024-10-11 20:40:42.096,0.7682378,0.60980165,0.7785234,0.7660351,0.2870979,0.019117342,0.24966171,0.25145474,0.41769752,0.05026176,0.06164651,0.4674067,0.5554971,-0.01981608,-0.0034624864,0.44333762,0.114005096,-0.2604218,-0.10129367,0.07204089,815.5311,800.6227,796.5934,799.81683,888.46155,-0.20391845703125,0.09027099609375,0.9920654296875,-0.46356201171875,-2.27294921875,-0.515899658203125,1,1.0,1.0,1.0,1.0,10.00
2024-10-11 20:40:42.097,0.7682378,0.60980165,0.7785234,0.7660351,0.2870979,0.019117342,0.24966171,0.25145474,0.41769752,0.05026176,0.06164651,0.4674067,0.5554971,-0.01981608,-0.0034624864,0.44333762,0.114005096,-0.2604218,-0.10129367,0.07204089,815.12823,803.8461,799.81683,800.2198,660.0,-0.20391845703125,0.09027099609375,0.9920654296875,-0.46356201171875,-2.27294921875,-0.515899658203125,1,1.0,1.0,1.0,1.0,10.00
2024-10-11 20:40:42.097,0.7682378,0.60980165,0.7785234,0.7660351,0.2870979,0.019117342,0.24966171,0.25145474,0.41769752,0.05026176,0.06164651,0.4674067,0.5554971,-0.01981608,-0.0034624864,0.44333762,0.114005096,-0.2604218,-0.10129367,0.07204089,821.5751,804.2491,791.3553,796.1905,675.31134,-0.20391845703125,0.09027099609375,0.9920654296875,-0.46356201171875,-2.27294921875,-0.515899658203125,1,1.0,1.0,1.0,1.0,10.00
2024-10-11 20:40:42.193,0.7682378,0.60980165,0.7785234,0.7660351,0.2870979,0.019117342,0.24966171,0.25145474,0.41769752,0.05026176,0.06164651,0.4674067,0.5554971,-0.01981608,-0.0034624864,0.44333762,0.114005096,-0.2604218,-0.10129367,0.07204089,828.8278,801.02563,790.9524,796.1905,873.5531,-0.2005615234375,0.0870361328125,0.97723388671875,0.5084228515625,-2.67669677734375,-1.742095947265625,1,1.0,1.0,1.0,1.0,10.00
2024-10-11 20:40:42.194,0.7682378,0.60980165,0.7785234,0.7660351,0.2870979,0.019117342,0.24966171,0.25145474,0.41769752,0.05026176,0.06164651,0.4674067,0.5554971,-0.01981608,-0.0034624864,0.44333762,0.114005096,-0.2604218,-0.10129367,0.07204089,815.9341,800.6227,792.1612,796.1905,892.0879,-0.2005615234375,0.0870361328125,0.97723388671875,0.5084228515625,-2.67669677734375,-1.742095947265625,1,1.0,1.0,1.0,1.0,10.00
2024-10-11 20:40:42.195,0.7682378,0.60980165,0.7785234,0.7660351,0.2870979,0.019117342,0.24966171,0.25145474,0.41769752,0.05026176,0.06164651,0.4674067,0.5554971,-0.01981608,-0.0034624864,0.44333762,0.114005096,-0.2604218,-0.10129367,0.07204089,794.9817,796.99634,786.1172,795.78754,760.32965,-0.2005615234375,0.0870361328125,0.97723388671875,0.5084228515625,-2.67669677734375,-1.742095947265625,1,1.0,1.0,1.0,1.0,10.00
2024-10-11 20:40:42.195,0.7682378,0.60980165,0.7785234,0.7660351,0.2870979,0.019117342,0.24966171,0.25145474,0.41769752,0.05026176,0.06164651,0.4674067,0.5554971,-0.01981608,-0.0034624864,0.44333762,0.114005096,-0.2604218,-0.10129367,0.07204089,793.36993,794.9817,788.93774,798.20514,770.0,-0.2005615234375,0.0870361328125,0.97723388671875,0.5084228515625,-2.67669677734375,-1.742095947265625,1,1.0,1.0,1.0,1.0,10.00
2024-10-11 20:40:42.196,0.7682378,0.60980165,0.7785234,0.7660351,0.2870979,0.019117342,0.24966171,0.25145474,0.41769752,0.05026176,0.06164651,0.4674067,0.5554971,-0.01981608,-0.0034624864,0.44333762,0.114005096,-0.2604218,-0.10129367,0.07204089,797.3993,799.011,792.5641,806.26373,904.57874,-0.2005615234375,0.0870361328125,0.97723388671875,0.5084228515625,-2.67669677734375,-1.742095947265625,1,1.0,1.0,1.0,1.0,10.00
2024-10-11 20:40:42.196,0.7682378,0.60980165,0.7785234,0.7660351,0.2870979,0.019117342,0.24966171,0.25145474,0.41769752,0.05026176,0.06164651,0.4674067,0.5554971,-0.01981608,-0.0034624864,0.44333762,0.114005096,-0.2604218,-0.10129367,0.07204089,801.4286,799.011,797.8022,805.4579,978.71796,-0.2005615234375,0.0870361328125,0.97723388671875,0.5084228515625,-2.67669677734375,-1.742095947265625,1,1.0,1.0,1.0,1.0,10.00
2024-10-11 20:40:42.197,0.7682378,0.60980165,0.7785234,0.7660351,0.2870979,0.019117342,0.24966171,0.25145474,0.41769752,0.05026176,0.06164651,0.4674067,0.5554971,-0.01981608,-0.0034624864,0.44333762,0.114005096,-0.2604218,-0.10129367,0.07204089,799.81683,789.7436,799.011,795.38464,909.81683,-0.2005615234375,0.0870361328125,0.97723388671875,0.5084228515625,-2.67669677734375,-1.742095947265625,1,1.0,1.0,1.0,1.0,10.00
2024-10-11 20:40:42.197,0.7682378,0.60980165,0.7785234,0.7660351,0.2870979,0.019117342,0.24966171,0.25145474,0.41769752,0.05026176,0.06164651,0.4674067,0.5554971,-0.01981608,-0.0034624864,0.44333762,0.114005096,-0.2604218,-0.10129367,0.07204089,791.75824,793.7729,800.6227,801.02563,823.1868,-0.2005615234375,0.0870361328125,0.97723388671875,0.5084228515625,-2.67669677734375,-1.742095947265625,1,1.0,1.0,1.0,1.0,10.00
2024-10-11 20:40:42.198,0.7682378,0.60980165,0.7785234,0.7660351,0.2870979,0.019117342,0.24966171,0.25145474,0.41769752,0.05026176,0.06164651,0.4674067,0.5554971,-0.01981608,-0.0034624864,0.44333762,0.114005096,-0.2604218,-0.10129367,0.07204089,795.78754,798.60803,803.0403,808.2784,967.4359,-0.2005615234375,0.0870361328125,0.97723388671875,0.5084228515625,-2.67669677734375,-1.742095947265625,1,1.0,1.0,1.0,1.0,10.00
2024-10-11 20:40:42.198,0.7682378,0.60980165,0.7785234,0.7660351,0.2870979,0.019117342,0.24966171,0.25145474,0.41769752,0.05026176,0.06164651,0.4674067,0.5554971,-0.01981608,-0.0034624864,0.44333762,0.114005096,-0.2604218,-0.10129367,0.07204089,792.5641,797.3993,805.4579,807.47253,864.68866,-0.2005615234375,0.0870361328125,0.97723388671875,0.5084228515625,-2.67669677734375,-1.742095947265625,1,1.0,1.0,1.0,1.0,10.00
2024-10-11 20:40:42.199,0.7682378,0.60980165,0.7785234,0.7660351,0.2870979,0.019117342,0.24966171,0.25145474,0.41769752,0.05026176,0.06164651,0.4674067,0.5554971,-0.01981608,-0.0034624864,0.44333762,0.114005096,-0.2604218,-0.10129367,0.07204089,795.38464,798.60803,804.65204,808.2784,710.7692,-0.2005615234375,0.0870361328125,0.97723388671875,0.5084228515625,-2.67669677734375,-1.742095947265625,1,1.0,1.0,1.0,1.0,10.00
2024-10-11 20:40:42.199,0.7682378,0.60980165,0.7785234,0.7660351,0.2870979,0.019117342,0.24966171,0.25145474,0.41769752,0.05026176,0.06164651,0.4674067,0.5554971,-0.01981608,-0.0034624864,0.44333762,0.114005096,-0.2604218,-0.10129367,0.07204089,800.2198,795.78754,801.8315,805.8608,885.64105,-0.2005615234375,0.0870361328125,0.97723388671875,0.5084228515625,-2.67669677734375,-1.742095947265625,1,1.0,1.0,1.0,1.0,10.00
2024-10-11 20:40:42.225,0.7682378,0.60980165,0.7785234,0.7660351,0.2870979,0.019117342,0.24966171,0.25145474,0.41769752,0.05026176,0.06164651,0.4674067,0.5554971,-0.01981608,-0.0034624864,0.44333762,0.114005096,-0.2604218,-0.10129367,0.07204089,784.90845,790.14655,804.2491,798.60803,1192.2711,-0.19976806640625,0.08935546875,0.9852294921875,-0.2093505859375,-3.51409912109375,-1.831817626953125,1,1.0,1.0,1.0,1.0,10.00
2024-10-11 20:40:42.226,0.7682378,0.60980165,0.7785234,0.7660351,0.2870979,0.019117342,0.24966171,0.25145474,0.41769752,0.05026176,0.06164651,0.4674067,0.5554971,-0.01981608,-0.0034624864,0.44333762,0.114005096,-0.2604218,-0.10129367,0.07204089,787.72894,786.1172,803.8461,809.0842,1188.2417,-0.19976806640625,0.08935546875,0.9852294921875,-0.2093505859375,-3.51409912109375,-1.831817626953125,1,1.0,1.0,1.0,1.0,10.00
2024-10-11 20:40:42.227,0.7682378,0.60980165,0.7785234,0.7660351,0.2870979,0.019117342,0.24966171,0.25145474,0.41769752,0.05026176,0.06164651,0.4674067,0.5554971,-0.01981608,-0.0034624864,0.44333762,0.114005096,-0.2604218,-0.10129367,0.07204089,819.5604,792.1612,810.293,831.2454,801.8315,-0.19976806640625,0.08935546875,0.9852294921875,-0.2093505859375,-3.51409912109375,-1.831817626953125,1,1.0,1.0,1.0,1.0,10.00
2024-10-11 20:40:42.228,1.4211435,0.5781344,0.7360176,0.7660351,1.1494162,-0.028883133,0.22779045,0.25145474,0.9913888,0.09110969,0.09493129,0.4674067,0.6640262,-0.002651476,-0.0023884228,0.44333762,0.2808953,-0.27502477,-0.040419754,0.07204089,803.0403,802.23444,808.2784,804.2491,723.663,-0.19976806640625,0.08935546875,0.9852294921875,-0.2093505859375,-3.51409912109375,-1.831817626953125,1,1.0,1.0,1.0,1.0,10.00
2024-10-11 20:40:42.233,1.4211435,0.5781344,0.7360176,0.7660351,1.1494162,-0.028883133,0.22779045,0.25145474,0.9913888,0.09110969,0.09493129,0.4674067,0.6640262,-0.002651476,-0.0023884228,0.44333762,0.2808953,-0.27502477,-0.040419754,0.07204089,779.2674,801.4286,799.41394,771.6117,730.10986,-0.19976806640625,0.08935546875,0.9852294921875,-0.2093505859375,-3.51409912109375,-1.831817626953125,1,1.0,1.0,1.0,1.0,10.00
2024-10-11 20:40:42.233,1.4211435,0.5781344,0.7360176,0.7660351,1.1494162,-0.028883133,0.22779045,0.25145474,0.9913888,0.09110969,0.09493129,0.4674067,0.6640262,-0.002651476,-0.0023884228,0.44333762,0.2808953,-0.27502477,-0.040419754,0.07204089,802.6374,802.23444,796.5934,788.1319,733.73627,-0.19976806640625,0.08935546875,0.9852294921875,-0.2093505859375,-3.51409912109375,-1.831817626953125,1,1.0,1.0,1.0,1.0,10.00
2024-10-11 20:40:42.234,1.4211435,0.5781344,0.7360176,0.7660351,1.1494162,-0.028883133,0.22779045,0.25145474,0.9913888,0.09110969,0.09493129,0.4674067,0.6640262,-0.002651476,-0.0023884228,0.44333762,0.2808953,-0.27502477,-0.040419754,0.07204089,801.8315,801.02563,799.41394,786.52014,838.0952,-0.19976806640625,0.08935546875,0.9852294921875,-0.2093505859375,-3.51409912109375,-1.831817626953125,1,1.0,1.0,1.0,1.0,10.00
2024-10-11 20:40:42.234,1.4211435,0.5781344,0.7360176,0.7660351,1.1494162,-0.028883133,0.22779045,0.25145474,0.9913888,0.09110969,0.09493129,0.4674067,0.6640262,-0.002651476,-0.0023884228,0.44333762,0.2808953,-0.27502477,-0.040419754,0.07204089,785.7143,800.6227,798.20514,773.6264,830.84247,-0.19976806640625,0.08935546875,0.9852294921875,-0.2093505859375,-3.51409912109375,-1.831817626953125,1,1.0,1.0,1.0,1.0,10.00
2024-10-11 20:40:42.235,1.4211435,0.5781344,0.7360176,0.7660351,1.1494162,-0.028883133,0.22779045,0.25145474,0.9913888,0.09110969,0.09493129,0.4674067,0.6640262,-0.002651476,-0.0023884228,0.44333762,0.2808953,-0.27502477,-0.040419754,0.07204089,788.5348,808.68134,791.75824,772.4176,803.8461,-0.19976806640625,0.08935546875,0.9852294921875,-0.2093505859375,-3.51409912109375,-1.831817626953125,1,1.0,1.0,1.0,1.0,10.00
2024-10-11 20:40:42.236,1.4211435,0.5781344,0.7360176,0.7660351,1.1494162,-0.028883133,0.22779045,0.25145474,0.9913888,0.09110969,0.09493129,0.4674067,0.6640262,-0.002651476,-0.0023884228,0.44333762,0.2808953,-0.27502477,-0.040419754,0.07204089,787.326,809.89014,789.34064,767.1795,636.2271,-0.19976806640625,0.08935546875,0.9852294921875,-0.2093505859375,-3.51409912109375,-1.831817626953125,1,1.0,1.0,1.0,1.0,10.00
2024-10-11 20:40:42.236,1.4211435,0.5781344,0.7360176,0.7660351,1.1494162,-0.028883133,0.22779045,0.25145474,0.9913888,0.09110969,0.09493129,0.4674067,0.6640262,-0.002651476,-0.0023884228,0.44333762,0.2808953,-0.27502477,-0.040419754,0.07204089,776.04395,801.8315,783.69965,770.0,615.6777,-0.19976806640625,0.08935546875,0.9852294921875,-0.2093505859375,-3.51409912109375,-1.831817626953125,1,1.0,1.0,1.0,1.0,10.00
2024-10-11 20:40:42.237,1.4211435,0.5781344,0.7360176,0.7660351,1.1494162,-0.028883133,0.22779045,0.25145474,0.9913888,0.09110969,0.09493129,0.4674067,0.6640262,-0.002651476,-0.0023884228,0.44333762,0.2808953,-0.27502477,-0.040419754,0.07204089,777.6557,794.17584,780.07324,777.6557,850.989,-0.19976806640625,0.08935546875,0.9852294921875,-0.2093505859375,-3.51409912109375,-1.831817626953125,1,1.0,1.0,1.0,1.0,10.00
2024-10-11 20:40:42.238,1.4211435,0.5781344,0.7360176,0.7660351,1.1494162,-0.028883133,0.22779045,0.25145474,0.9913888,0.09110969,0.09493129,0.4674067,0.6640262,-0.002651476,-0.0023884228,0.44333762,0.2808953,-0.27502477,-0.040419754,0.07204089,783.2967,799.011,784.5055,772.8205,744.61536,-0.1832275390625,0.10174560546875,0.99365234375,1.353302001953125,-4.104766845703125,-1.338348388671875,1,1.0,1.0,1.0,1.0,10.00
2024-10-11 20:40:42.239,1.4211435,0.5781344,0.7360176,0.7660351,1.1494162,-0.028883133,0.22779045,0.25145474,0.9913888,0.09110969,0.09493129,0.4674067,0.6640262,-0.002651476,-0.0023884228,0.44333762,0.2808953,-0.27502477,-0.040419754,0.07204089,789.7436,801.8315,791.3553,776.04395,562.8938,-0.1832275390625,0.10174560546875,0.99365234375,1.353302001953125,-4.104766845703125,-1.338348388671875,1,1.0,1.0,1.0,1.0,10.00
2024-10-11 20:40:42.240,1.4211435,0.5781344,0.7360176,0.7660351,1.1494162,-0.028883133,0.22779045,0.25145474,0.9913888,0.09110969,0.09493129,0.4674067,0.6640262,-0.002651476,-0.0023884228,0.44333762,0.2808953,-0.27502477,-0.040419754,0.07204089,800.2198,794.57874,795.78754,786.9231,762.3443,-0.1832275390625,0.10174560546875,0.99365234375,1.353302001953125,-4.104766845703125,-1.338348388671875,1,1.0,1.0,1.0,1.0,10.00
2024-10-11 20:40:42.240,1.4211435,0.5781344,0.7360176,0.7660351,1.1494162,-0.028883133,0.22779045,0.25145474,0.9913888,0.09110969,0.09493129,0.4674067,0.6640262,-0.002651476,-0.0023884228,0.44333762,0.2808953,-0.27502477,-0.040419754,0.07204089,798.20514,798.20514,799.41394,791.3553,877.1795,-0.1832275390625,0.10174560546875,0.99365234375,1.353302001953125,-4.104766845703125,-1.338348388671875,1,1.0,1.0,1.0,1.0,10.00
2024-10-11 20:40:42.241,1.4211435,0.5781344,0.7360176,0.7660351,1.1494162,-0.028883133,0.22779045,0.25145474,0.9913888,0.09110969,0.09493129,0.4674067,0.6640262,-0.002651476,-0.0023884228,0.44333762,0.2808953,-0.27502477,-0.040419754,0.07204089,787.326,802.23444,795.38464,789.34064,643.8828,-0.1832275390625,0.10174560546875,0.99365234375,1.353302001953125,-4.104766845703125,-1.338348388671875,1,1.0,1.0,1.0,1.0,10.00
2024-10-11 20:40:42.242,1.4211435,0.5781344,0.7360176,0.7660351,1.1494162,-0.028883133,0.22779045,0.25145474,0.9913888,0.09110969,0.09493129,0.4674067,0.6640262,-0.002651476,-0.0023884228,0.44333762,0.2808953,-0.27502477,-0.040419754,0.07204089,787.326,799.81683,794.57874,787.72894,500.8425,-0.1832275390625,0.10174560546875,0.99365234375,1.353302001953125,-4.104766845703125,-1.338348388671875,1,1.0,1.0,1.0,1.0,10.00
2024-10-11 20:40:42.243,1.4211435,0.5781344,0.7360176,0.7660351,1.1494162,-0.028883133,0.22779045,0.25145474,0.9913888,0.09110969,0.09493129,0.4674067,0.6640262,-0.002651476,-0.0023884228,0.44333762,0.2808953,-0.27502477,-0.040419754,0.07204089,793.36993,799.011,799.41394,793.7729,750.2564,-0.1832275390625,0.10174560546875,0.99365234375,1.353302001953125,-4.104766845703125,-1.338348388671875,1,1.0,1.0,1.0,1.0,10.00
2024-10-11 20:40:42.243,1.4211435,0.5781344,0.7360176,0.7660351,1.1494162,-0.028883133,0.22779045,0.25145474,0.9913888,0.09110969,0.09493129,0.4674067,0.6640262,-0.002651476,-0.0023884228,0.44333762,0.2808953,-0.27502477,-0.040419754,0.07204089,785.31134,794.9817,792.1612,795.38464,864.68866,-0.1832275390625,0.10174560546875,0.99365234375,1.353302001953125,-4.104766845703125,-1.338348388671875,1,1.0,1.0,1.0,1.0,10.00
2024-10-11 20:40:42.244,1.4211435,0.5781344,0.7360176,0.7660351,1.1494162,-0.028883133,0.22779045,0.25145474,0.9913888,0.09110969,0.09493129,0.4674067,0.6640262,-0.002651476,-0.0023884228,0.44333762,0.2808953,-0.27502477,-0.040419754,0.07204089,785.7143,794.9817,794.17584,794.9817,674.90845,-0.1832275390625,0.10174560546875,0.99365234375,1.353302001953125,-4.104766845703125,-1.338348388671875,1,1.0,1.0,1.0,1.0,10.00
2024-10-11 20:40:42.245,1.4211435,0.5781344,0.7360176,0.7660351,1.1494162,-0.028883133,0.22779045,0.25145474,0.9913888,0.09110969,0.09493129,0.4674067,0.6640262,-0.002651476,-0.0023884228,0.44333762,0.2808953,-0.27502477,-0.040419754,0.07204089,798.60803,801.02563,802.6374,796.99634,556.4469,-0.1832275390625,0.10174560546875,0.99365234375,1.353302001953125,-4.104766845703125,-1.338348388671875,1,1.0,1.0,1.0,1.0,10.00
2024-10-11 20:40:42.245,1.4211435,0.5781344,0.7360176,0.7660351,1.1494162,-0.028883133,0.22779045,0.25145474,0.9913888,0.09110969,0.09493129,0.4674067,0.6640262,-0.002651476,-0.0023884228,0.44333762,0.2808953,-0.27502477,-0.040419754,0.07204089,794.17584,799.81683,809.89014,797.3993,711.1722,-0.1832275390625,0.10174560546875,0.99365234375,1.353302001953125,-4.104766845703125,-1.338348388671875,1,1.0,1.0,1.0,1.0,10.00
2024-10-11 20:40:42.246,1.4211435,0.5781344,0.7360176,0.7660351,1.1494162,-0.028883133,0.22779045,0.25145474,0.9913888,0.09110969,0.09493129,0.4674067,0.6640262,-0.002651476,-0.0023884228,0.44333762,0.2808953,-0.27502477,-0.040419754,0.07204089,787.72894,795.78754,811.9048,796.99634,859.45056,-0.1832275390625,0.10174560546875,0.99365234375,1.353302001953125,-4.104766845703125,-1.338348388671875,1,1.0,1.0,1.0,1.0,10.00
2024-10-11 20:40:42.271,1.4211435,0.5781344,0.7360176,0.7660351,1.1494162,-0.028883133,0.22779045,0.25145474,0.9913888,0.09110969,0.09493129,0.4674067,0.6640262,-0.002651476,-0.0023884228,0.44333762,0.2808953,-0.27502477,-0.040419754,0.07204089,793.36993,797.8022,802.6374,803.44324,708.3516,-0.1832275390625,0.10174560546875,0.99365234375,1.353302001953125,-4.104766845703125,-1.338348388671875,1,1.0,1.0,1.0,1.0,10.00
2024-10-11 20:40:42.272,1.4211435,0.5781344,0.7360176,0.7660351,1.1494162,-0.028883133,0.22779045,0.25145474,0.9913888,0.09110969,0.09493129,0.4674067,0.6640262,-0.002651476,-0.0023884228,0.44333762,0.2808953,-0.27502477,-0.040419754,0.07204089,793.7729,794.17584,796.5934,808.68134,585.4579,-0.1832275390625,0.10174560546875,0.99365234375,1.353302001953125,-4.104766845703125,-1.338348388671875,1,1.0,1.0,1.0,1.0,10.00
2024-10-11 20:40:42.273,1.4211435,0.5781344,0.7360176,0.7660351,1.1494162,-0.028883133,0.22779045,0.25145474,0.9913888,0.09110969,0.09493129,0.4674067,0.6640262,-0.002651476,-0.0023884228,0.44333762,0.2808953,-0.27502477,-0.040419754,0.07204089,790.9524,792.1612,795.78754,809.89014,792.5641,-0.1832275390625,0.10174560546875,0.99365234375,1.353302001953125,-4.104766845703125,-1.338348388671875,1,1.0,1.0,1.0,1.0,10.00
2024-10-11 20:40:42.273,1.4211435,0.5781344,0.7360176,0.7660351,1.1494162,-0.028883133,0.22779045,0.25145474,0.9913888,0.09110969,0.09493129,0.4674067,0.6640262,-0.002651476,-0.0023884228,0.44333762,0.2808953,-0.27502477,-0.040419754,0.07204089,805.05493,795.78754,792.96704,807.0696,848.5714,-0.1832275390625,0.10174560546875,0.99365234375,1.353302001953125,-4.104766845703125,-1.338348388671875,1,1.0,1.0,1.0,1.0,10.00
2024-10-11 20:40:42.274,1.4211435,0.5781344,0.7360176,0.7660351,1.1494162,-0.028883133,0.22779045,0.25145474,0.9913888,0.09110969,0.09493129,0.4674067,0.6640262,-0.002651476,-0.0023884228,0.44333762,0.2808953,-0.27502477,-0.040419754,0.07204089,818.7546,798.20514,785.7143,801.8315,668.46155,-0.1832275390625,0.10174560546875,0.99365234375,1.353302001953125,-4.104766845703125,-1.338348388671875,1,1.0,1.0,1.0,1.0,10.00
2024-10-11 20:40:42.274,1.3591596,0.44439286,0.6234307,1.0594264,1.1255573,-0.18665051,0.15182413,0.6537551,1.0172144,0.12012857,0.1651823,0.7154392,0.6531593,0.01897238,0.009314378,0.5308915,0.2617302,-0.2916501,0.0010974474,0.06392867,823.1868,801.4286,787.326,809.4872,656.3736,-0.1832275390625,0.10174560546875,0.99365234375,1.353302001953125,-4.104766845703125,-1.338348388671875,1,1.0,1.0,1.0,1.0,10.00
2024-10-11 20:40:42.280,1.3591596,0.44439286,0.6234307,1.0594264,1.1255573,-0.18665051,0.15182413,0.6537551,1.0172144,0.12012857,0.1651823,0.7154392,0.6531593,0.01897238,0.009314378,0.5308915,0.2617302,-0.2916501,0.0010974474,0.06392867,827.2161,802.6374,796.1905,817.5458,989.19415,-0.1832275390625,0.10174560546875,0.99365234375,1.353302001953125,-4.104766845703125,-1.338348388671875,1,1.0,1.0,1.0,1.0,10.00
2024-10-11 20:40:42.280,1.3591596,0.44439286,0.6234307,1.0594264,1.1255573,-0.18665051,0.15182413,0.6537551,1.0172144,0.12012857,0.1651823,0.7154392,0.6531593,0.01897238,0.009314378,0.5308915,0.2617302,-0.2916501,0.0010974474,0.06392867,823.9927,802.6374,793.36993,817.5458,983.5531,-0.1832275390625,0.10174560546875,0.99365234375,1.353302001953125,-4.104766845703125,-1.338348388671875,1,1.0,1.0,1.0,1.0,10.00
2024-10-11 20:40:42.281,1.3591596,0.44439286,0.6234307,1.0594264,1.1255573,-0.18665051,0.15182413,0.6537551,1.0172144,0.12012857,0.1651823,0.7154392,0.6531593,0.01897238,0.009314378,0.5308915,0.2617302,-0.2916501,0.0010974474,0.06392867,822.381,807.8755,786.52014,812.71063,559.67035,-0.1832275390625,0.10174560546875,0.99365234375,1.353302001953125,-4.104766845703125,-1.338348388671875,1,1.0,1.0,1.0,1.0,10.00
2024-10-11 20:40:42.281,1.3591596,0.44439286,0.6234307,1.0594264,1.1255573,-0.18665051,0.15182413,0.6537551,1.0172144,0.12012857,0.1651823,0.7154392,0.6531593,0.01897238,0.009314378,0.5308915,0.2617302,-0.2916501,0.0010974474,0.06392867,817.9487,803.0403,793.36993,814.7253,609.2308,-0.1832275390625,0.10174560546875,0.99365234375,1.353302001953125,-4.104766845703125,-1.338348388671875,1,1.0,1.0,1.0,1.0,10.00
2024-10-11 20:40:42.282,1.3591596,0.44439286,0.6234307,1.0594264,1.1255573,-0.18665051,0.15182413,0.6537551,1.0172144,0.12012857,0.1651823,0.7154392,0.6531593,0.01897238,0.009314378,0.5308915,0.2617302,-0.2916501,0.0010974474,0.06392867,815.12823,800.2198,803.8461,815.9341,683.36993,-0.1832275390625,0.10174560546875,0.99365234375,1.353302001953125,-4.104766845703125,-1.338348388671875,1,1.0,1.0,1.0,1.0,10.00
2024-10-11 20:40:42.283,1.3591596,0.44439286,0.6234307,1.0594264,1.1255573,-0.18665051,0.15182413,0.6537551,1.0172144,0.12012857,0.1651823,0.7154392,0.6531593,0.01897238,0.009314378,0.5308915,0.2617302,-0.2916501,0.0010974474,0.06392867,814.3223,803.8461,805.8608,811.9048,580.6227,-0.1832275390625,0.10174560546875,0.99365234375,1.353302001953125,-4.104766845703125,-1.338348388671875,1,1.0,1.0,1.0,1.0,10.00
2024-10-11 20:40:42.312,1.3591596,0.44439286,0.6234307,1.0594264,1.1255573,-0.18665051,0.15182413,0.6537551,1.0172144,0.12012857,0.1651823,0.7154392,0.6531593,0.01897238,0.009314378,0.5308915,0.2617302,-0.2916501,0.0010974474,0.06392867,802.6374,805.8608,809.89014,815.12823,501.24542,-0.1904296875,0.0994873046875,0.9788818359375,0.515899658203125,-3.03558349609375,-0.097198486328125,1,1.0,1.0,1.0,1.0,10.00
2024-10-11 20:40:42.313,1.3591596,0.44439286,0.6234307,1.0594264,1.1255573,-0.18665051,0.15182413,0.6537551,1.0172144,0.12012857,0.1651823,0.7154392,0.6531593,0.01897238,0.009314378,0.5308915,0.2617302,-0.2916501,0.0010974474,0.06392867,793.7729,802.6374,811.0989,817.9487,568.1319,-0.1904296875,0.0994873046875,0.9788818359375,0.515899658203125,-3.03558349609375,-0.097198486328125,1,1.0,1.0,1.0,1.0,10.00
2024-10-11 20:40:42.314,1.3591596,0.44439286,0.6234307,1.0594264,1.1255573,-0.18665051,0.15182413,0.6537551,1.0172144,0.12012857,0.1651823,0.7154392,0.6531593,0.01897238,0.009314378,0.5308915,0.2617302,-0.2916501,0.0010974474,0.06392867,781.685,793.36993,806.6667,810.293,1011.3553,-0.1904296875,0.0994873046875,0.9788818359375,0.515899658203125,-3.03558349609375,-0.097198486328125,1,1.0,1.0,1.0,1.0,10.00
2024-10-11 20:40:42.314,1.3591596,0.44439286,0.6234307,1.0594264,1.1255573,-0.18665051,0.15182413,0.6537551,1.0172144,0.12012857,0.1651823,0.7154392,0.6531593,0.01897238,0.009314378,0.5308915,0.2617302,-0.2916501,0.0010974474,0.06392867,783.2967,797.8022,805.05493,799.81683,1070.586,-0.1904296875,0.0994873046875,0.9788818359375,0.515899658203125,-3.03558349609375,-0.097198486328125,1,1.0,1.0,1.0,1.0,10.00
2024-10-11 20:40:42.315,1.3591596,0.44439286,0.6234307,1.0594264,1.1255573,-0.18665051,0.15182413,0.6537551,1.0172144,0.12012857,0.1651823,0.7154392,0.6531593,0.01897238,0.009314378,0.5308915,0.2617302,-0.2916501,0.0010974474,0.06392867,788.5348,801.8315,804.65204,794.9817,685.38464,-0.1904296875,0.0994873046875,0.9788818359375,0.515899658203125,-3.03558349609375,-0.097198486328125,1,1.0,1.0,1.0,1.0,10.00
2024-10-11 20:40:42.316,1.3591596,0.44439286,0.6234307,1.0594264,1.1255573,-0.18665051,0.15182413,0.6537551,1.0172144,0.12012857,0.1651823,0.7154392,0.6531593,0.01897238,0.009314378,0.5308915,0.2617302,-0.2916501,0.0010974474,0.06392867,782.8938,798.20514,810.696,791.75824,875.56775,-0.1904296875,0.0994873046875,0.9788818359375,0.515899658203125,-3.03558349609375,-0.097198486328125,1,1.0,1.0,1.0,1.0,10.00
2024-10-11 20:40:42.316,1.3591596,0.44439286,0.6234307,1.0594264,1.1255573,-0.18665051,0.15182413,0.6537551,1.0172144,0.12012857,0.1651823,0.7154392,0.6531593,0.01897238,0.009314378,0.5308915,0.2617302,-0.2916501,0.0010974474,0.06392867,781.685,794.57874,807.8755,790.14655,1033.5165,-0.1904296875,0.0994873046875,0.9788818359375,0.515899658203125,-3.03558349609375,-0.097198486328125,1,1.0,1.0,1.0,1.0,10.00
2024-10-11 20:40:42.317,1.3591596,0.44439286,0.6234307,1.0594264,1.1255573,-0.18665051,0.15182413,0.6537551,1.0172144,0.12012857,0.1651823,0.7154392,0.6531593,0.01897238,0.009314378,0.5308915,0.2617302,-0.2916501,0.0010974474,0.06392867,784.5055,794.9817,803.44324,791.3553,779.2674,-0.1904296875,0.0994873046875,0.9788818359375,0.515899658203125,-3.03558349609375,-0.097198486328125,1,1.0,1.0,1.0,1.0,10.00
2024-10-11 20:40:42.317,1.3591596,0.44439286,0.6234307,1.0594264,1.1255573,-0.18665051,0.15182413,0.6537551,1.0172144,0.12012857,0.1651823,0.7154392,0.6531593,0.01897238,0.009314378,0.5308915,0.2617302,-0.2916501,0.0010974474,0.06392867,778.86444,799.011,805.4579,790.9524,597.9487,-0.1904296875,0.0994873046875,0.9788818359375,0.515899658203125,-3.03558349609375,-0.097198486328125,1,1.0,1.0,1.0,1.0,10.00
2024-10-11 20:40:42.318,1.3591596,0.44439286,0.6234307,1.0594264,1.1255573,-0.18665051,0.15182413,0.6537551,1.0172144,0.12012857,0.1651823,0.7154392,0.6531593,0.01897238,0.009314378,0.5308915,0.2617302,-0.2916501,0.0010974474,0.06392867,772.8205,799.011,809.89014,791.3553,605.6044,-0.1904296875,0.0994873046875,0.9788818359375,0.515899658203125,-3.03558349609375,-0.097198486328125,1,1.0,1.0,1.0,1.0,10.00
2024-10-11 20:40:42.318,1.3591596,0.44439286,0.6234307,1.0594264,1.1255573,-0.18665051,0.15182413,0.6537551,1.0172144,0.12012857,0.1651823,0.7154392,0.6531593,0.01897238,0.009314378,0.5308915,0.2617302,-0.2916501,0.0010974474,0.06392867,784.5055,800.6227,805.8608,787.326,520.18317,-0.1904296875,0.0994873046875,0.9788818359375,0.515899658203125,-3.03558349609375,-0.097198486328125,1,1.0,1.0,1.0,1.0,10.00
2024-10-11 20:40:42.319,1.3591596,0.44439286,0.6234307,1.0594264,1.1255573,-0.18665051,0.15182413,0.6537551,1.0172144,0.12012857,0.1651823,0.7154392,0.6531593,0.01897238,0.009314378,0.5308915,0.2617302,-0.2916501,0.0010974474,0.06392867,792.96704,801.02563,799.41394,784.90845,335.64102,-0.1904296875,0.0994873046875,0.9788818359375,0.515899658203125,-3.03558349609375,-0.097198486328125,1,1.0,1.0,1.0,1.0,10.00
2024-10-11 20:40:42.378,1.3591596,0.44439286,0.6234307,1.0594264,1.1255573,-0.18665051,0.15182413,0.6537551,1.0172144,0.12012857,0.1651823,0.7154392,0.6531593,0.01897238,0.009314378,0.5308915,0.2617302,-0.2916501,0.0010974474,0.06392867,786.52014,800.2198,798.20514,788.5348,422.67398,-0.1844482421875,0.1014404296875,0.988037109375,1.435546875,-1.77947998046875,0.9271240234375,1,1.0,1.0,1.0,1.0,10.00
2024-10-11 20:40:42.379,1.3591596,0.44439286,0.6234307,1.0594264,1.1255573,-0.18665051,0.15182413,0.6537551,1.0172144,0.12012857,0.1651823,0.7154392,0.6531593,0.01897238,0.009314378,0.5308915,0.2617302,-0.2916501,0.0010974474,0.06392867,792.96704,801.4286,800.2198,795.38464,602.7839,-0.1844482421875,0.1014404296875,0.988037109375,1.435546875,-1.77947998046875,0.9271240234375,1,1.0,1.0,1.0,1.0,10.00
2024-10-11 20:40:42.380,1.3591596,0.44439286,0.6234307,1.0594264,1.1255573,-0.18665051,0.15182413,0.6537551,1.0172144,0.12012857,0.1651823,0.7154392,0.6531593,0.01897238,0.009314378,0.5308915,0.2617302,-0.2916501,0.0010974474,0.06392867,800.6227,795.38464,804.2491,796.99634,578.60803,-0.1844482421875,0.1014404296875,0.988037109375,1.435546875,-1.77947998046875,0.9271240234375,1,1.0,1.0,1.0,1.0,10.00
2024-10-11 20:40:42.380,1.3591596,0.44439286,0.6234307,1.0594264,1.1255573,-0.18665051,0.15182413,0.6537551,1.0172144,0.12012857,0.1651823,0.7154392,0.6531593,0.01897238,0.009314378,0.5308915,0.2617302,-0.2916501,0.0010974474,0.06392867,798.20514,793.36993,804.2491,796.1905,437.58243,-0.1844482421875,0.1014404296875,0.988037109375,1.435546875,-1.77947998046875,0.9271240234375,1,1.0,1.0,1.0,1.0,10.00
2024-10-11 20:40:42.381,1.3591596,0.44439286,0.6234307,1.0594264,1.1255573,-0.18665051,0.15182413,0.6537551,1.0172144,0.12012857,0.1651823,0.7154392,0.6531593,0.01897238,0.009314378,0.5308915,0.2617302,-0.2916501,0.0010974474,0.06392867,801.4286,794.57874,803.44324,806.26373,428.71796,-0.1844482421875,0.1014404296875,0.988037109375,1.435546875,-1.77947998046875,0.9271240234375,1,1.0,1.0,1.0,1.0,10.00
2024-10-11 20:40:42.381,1.3591596,0.44439286,0.6234307,1.0594264,1.1255573,-0.18665051,0.15182413,0.6537551,1.0172144,0.12012857,0.1651823,0.7154392,0.6531593,0.01897238,0.009314378,0.5308915,0.2617302,-0.2916501,0.0010974474,0.06392867,801.4286,788.1319,799.41394,811.50183,825.2015,-0.1844482421875,0.1014404296875,0.988037109375,1.435546875,-1.77947998046875,0.9271240234375,1,1.0,1.0,1.0,1.0,10.00
2024-10-11 20:40:42.382,1.3591596,0.44439286,0.6234307,1.0594264,1.1255573,-0.18665051,0.15182413,0.6537551,1.0172144,0.12012857,0.1651823,0.7154392,0.6531593,0.01897238,0.009314378,0.5308915,0.2617302,-0.2916501,0.0010974474,0.06392867,803.0403,788.1319,791.3553,804.65204,944.87177,-0.1844482421875,0.1014404296875,0.988037109375,1.435546875,-1.77947998046875,0.9271240234375,1,1.0,1.0,1.0,1.0,10.00
2024-10-11 20:40:42.383,1.3014175,0.417039,0.59410673,1.0240566,1.1140274,-0.17038657,0.13299939,0.64602304,1.0333462,0.13282558,0.26518214,0.7570059,0.6543466,0.044468056,0.013726968,0.53331083,0.2449552,-0.28684455,0.0065972786,0.07642359,805.05493,793.7729,795.78754,798.60803,552.4176,-0.1844482421875,0.1014404296875,0.988037109375,1.435546875,-1.77947998046875,0.9271240234375,1,1.0,1.0,1.0,1.0,10.00
2024-10-11 20:40:42.388,1.3014175,0.417039,0.59410673,1.0240566,1.1140274,-0.17038657,0.13299939,0.64602304,1.0333462,0.13282558,0.26518214,0.7570059,0.6543466,0.044468056,0.013726968,0.53331083,0.2449552,-0.28684455,0.0065972786,0.07642359,815.9341,798.20514,802.6374,807.8755,535.4945,-0.1844482421875,0.1014404296875,0.988037109375,1.435546875,-1.77947998046875,0.9271240234375,1,1.0,1.0,1.0,1.0,10.00
2024-10-11 20:40:42.388,1.3014175,0.417039,0.59410673,1.0240566,1.1140274,-0.17038657,0.13299939,0.64602304,1.0333462,0.13282558,0.26518214,0.7570059,0.6543466,0.044468056,0.013726968,0.53331083,0.2449552,-0.28684455,0.0065972786,0.07642359,815.12823,800.2198,797.8022,817.5458,873.5531,-0.1844482421875,0.1014404296875,0.988037109375,1.435546875,-1.77947998046875,0.9271240234375,1,1.0,1.0,1.0,1.0,10.00
2024-10-11 20:40:42.389,1.3014175,0.417039,0.59410673,1.0240566,1.1140274,-0.17038657,0.13299939,0.64602304,1.0333462,0.13282558,0.26518214,0.7570059,0.6543466,0.044468056,0.013726968,0.53331083,0.2449552,-0.28684455,0.0065972786,0.07642359,802.6374,802.6374,801.8315,808.2784,786.1172,-0.1844482421875,0.1014404296875,0.988037109375,1.435546875,-1.77947998046875,0.9271240234375,1,1.0,1.0,1.0,1.0,10.00
2024-10-11 20:40:42.389,1.3014175,0.417039,0.59410673,1.0240566,1.1140274,-0.17038657,0.13299939,0.64602304,1.0333462,0.13282558,0.26518214,0.7570059,0.6543466,0.044468056,0.013726968,0.53331083,0.2449552,-0.28684455,0.0065972786,0.07642359,807.47253,805.4579,805.05493,803.8461,409.7802,-0.1844482421875,0.1014404296875,0.988037109375,1.435546875,-1.77947998046875,0.9271240234375,1,1.0,1.0,1.0,1.0,10.00
2024-10-11 20:40:42.445,1.3014175,0.417039,0.59410673,1.0240566,1.1140274,-0.17038657,0.13299939,0.64602304,1.0333462,0.13282558,0.26518214,0.7570059,0.6543466,0.044468056,0.013726968,0.53331083,0.2449552,-0.28684455,0.0065972786,0.07642359,811.9048,799.41394,805.4579,809.0842,442.41757,-0.17877197265625,0.1007080078125,0.99053955078125,-0.515899658203125,-2.235565185546875,4.762725830078125,1,1.0,1.0,1.0,1.0,10.00
2024-10-11 20:40:42.446,1.3014175,0.417039,0.59410673,1.0240566,1.1140274,-0.17038657,0.13299939,0.64602304,1.0333462,0.13282558,0.26518214,0.7570059,0.6543466,0.044468056,0.013726968,0.53331083,0.2449552,-0.28684455,0.0065972786,0.07642359,807.47253,794.9817,806.26373,818.7546,853.4066,-0.17877197265625,0.1007080078125,0.99053955078125,-0.515899658203125,-2.235565185546875,4.762725830078125,1,1.0,1.0,1.0,1.0,10.00
2024-10-11 20:40:42.447,1.3014175,0.417039,0.59410673,1.0240566,1.1140274,-0.17038657,0.13299939,0.64602304,1.0333462,0.13282558,0.26518214,0.7570059,0.6543466,0.044468056,0.013726968,0.53331083,0.2449552,-0.28684455,0.0065972786,0.07642359,801.02563,794.9817,805.05493,810.696,753.8828,-0.17877197265625,0.1007080078125,0.99053955078125,-0.515899658203125,-2.235565185546875,4.762725830078125,1,1.0,1.0,1.0,1.0,10.00
2024-10-11 20:40:42.448,1.3014175,0.417039,0.59410673,1.0240566,1.1140274,-0.17038657,0.13299939,0.64602304,1.0333462,0.13282558,0.26518214,0.7570059,0.6543466,0.044468056,0.013726968,0.53331083,0.2449552,-0.28684455,0.0065972786,0.07642359,802.6374,793.7729,801.8315,800.2198,386.41025,-0.17877197265625,0.1007080078125,0.99053955078125,-0.515899658203125,-2.235565185546875,4.762725830078125,1,1.0,1.0,1.0,1.0,10.00
2024-10-11 20:40:42.448,1.3014175,0.417039,0.59410673,1.0240566,1.1140274,-0.17038657,0.13299939,0.64602304,1.0333462,0.13282558,0.26518214,0.7570059,0.6543466,0.044468056,0.013726968,0.53331083,0.2449552,-0.28684455,0.0065972786,0.07642359,803.44324,792.5641,801.8315,801.8315,524.61536,-0.17877197265625,0.1007080078125,0.99053955078125,-0.515899658203125,-2.235565185546875,4.762725830078125,1,1.0,1.0,1.0,1.0,10.00
2024-10-11 20:40:42.449,1.3014175,0.417039,0.59410673,1.0240566,1.1140274,-0.17038657,0.13299939,0.64602304,1.0333462,0.13282558,0.26518214,0.7570059,0.6543466,0.044468056,0.013726968,0.53331083,0.2449552,-0.28684455,0.0065972786,0.07642359,801.4286,798.60803,796.5934,800.6227,685.78754,-0.17877197265625,0.1007080078125,0.99053955078125,-0.515899658203125,-2.235565185546875,4.762725830078125,1,1.0,1.0,1.0,1.0,10.00
2024-10-11 20:40:42.449,1.3014175,0.417039,0.59410673,1.0240566,1.1140274,-0.17038657,0.13299939,0.64602304,1.0333462,0.13282558,0.26518214,0.7570059,0.6543466,0.044468056,0.013726968,0.53331083,0.2449552,-0.28684455,0.0065972786,0.07642359,803.44324,800.6227,796.99634,803.44324,701.50183,-0.17877197265625,0.1007080078125,0.99053955078125,-0.515899658203125,-2.235565185546875,4.762725830078125,1,1.0,1.0,1.0,1.0,10.00
2024-10-11 20:40:42.450,1.3014175,0.417039,0.59410673,1.0240566,1.1140274,-0.17038657,0.13299939,0.64602304,1.0333462,0.13282558,0.26518214,0.7570059,0.6543466,0.044468056,0.013726968,0.53331083,0.2449552,-0.28684455,0.0065972786,0.07642359,803.8461,800.2198,804.65204,802.6374,552.8205,-0.17877197265625,0.1007080078125,0.99053955078125,-0.515899658203125,-2.235565185546875,4.762725830078125,1,1.0,1.0,1.0,1.0,10.00
2024-10-11 20:40:42.450,1.3014175,0.417039,0.59410673,1.0240566,1.1140274,-0.17038657,0.13299939,0.64602304,1.0333462,0.13282558,0.26518214,0.7570059,0.6543466,0.044468056,0.013726968,0.53331083,0.2449552,-0.28684455,0.0065972786,0.07642359,801.4286,799.81683,798.60803,799.81683,639.85345,-0.17877197265625,0.1007080078125,0.99053955078125,-0.515899658203125,-2.235565185546875,4.762725830078125,1,1.0,1.0,1.0,1.0,10.00
2024-10-11 20:40:42.451,1.3014175,0.417039,0.59410673,1.0240566,1.1140274,-0.17038657,0.13299939,0.64602304,1.0333462,0.13282558,0.26518214,0.7570059,0.6543466,0.044468056,0.013726968,0.53331083,0.2449552,-0.28684455,0.0065972786,0.07642359,800.2198,798.20514,796.1905,802.6374,722.8571,-0.17877197265625,0.1007080078125,0.99053955078125,-0.515899658203125,-2.235565185546875,4.762725830078125,1,1.0,1.0,1.0,1.0,10.00
2024-10-11 20:40:42.452,1.3014175,0.417039,0.59410673,1.0240566,1.1140274,-0.17038657,0.13299939,0.64602304,1.0333462,0.13282558,0.26518214,0.7570059,0.6543466,0.044468056,0.013726968,0.53331083,0.2449552,-0.28684455,0.0065972786,0.07642359,803.8461,801.02563,794.9817,805.8608,519.3773,-0.17877197265625,0.1007080078125,0.99053955078125,-0.515899658203125,-2.235565185546875,4.762725830078125,1,1.0,1.0,1.0,1.0,10.00
2024-10-11 20:40:42.452,1.3014175,0.417039,0.59410673,1.0240566,1.1140274,-0.17038657,0.13299939,0.64602304,1.0333462,0.13282558,0.26518214,0.7570059,0.6543466,0.044468056,0.013726968,0.53331083,0.2449552,-0.28684455,0.0065972786,0.07642359,806.26373,805.8608,790.9524,803.0403,496.41025,-0.17877197265625,0.1007080078125,0.99053955078125,-0.515899658203125,-2.235565185546875,4.762725830078125,1,1.0,1.0,1.0,1.0,10.00
2024-10-11 20:40:42.480,1.3014175,0.417039,0.59410673,1.0240566,1.1140274,-0.17038657,0.13299939,0.64602304,1.0333462,0.13282558,0.26518214,0.7570059,0.6543466,0.044468056,0.013726968,0.53331083,0.2449552,-0.28684455,0.0065972786,0.07642359,802.23444,801.02563,788.1319,795.38464,697.0696,-0.177734375,0.092041015625,0.98260498046875,-1.1065673828125,-3.87298583984375,7.10296630859375,1,1.0,1.0,1.0,1.0,10.00
2024-10-11 20:40:42.481,1.3014175,0.417039,0.59410673,1.0240566,1.1140274,-0.17038657,0.13299939,0.64602304,1.0333462,0.13282558,0.26518214,0.7570059,0.6543466,0.044468056,0.013726968,0.53331083,0.2449552,-0.28684455,0.0065972786,0.07642359,796.1905,793.36993,794.17584,796.5934,744.21246,-0.177734375,0.092041015625,0.98260498046875,-1.1065673828125,-3.87298583984375,7.10296630859375,1,1.0,1.0,1.0,1.0,10.00
2024-10-11 20:40:42.482,1.3014175,0.417039,0.59410673,1.0240566,1.1140274,-0.17038657,0.13299939,0.64602304,1.0333462,0.13282558,0.26518214,0.7570059,0.6543466,0.044468056,0.013726968,0.53331083,0.2449552,-0.28684455,0.0065972786,0.07642359,784.5055,788.5348,798.60803,794.9817,481.50183,-0.177734375,0.092041015625,0.98260498046875,-1.1065673828125,-3.87298583984375,7.10296630859375,1,1.0,1.0,1.0,1.0,10.00
2024-10-11 20:40:42.482,1.3014175,0.417039,0.59410673,1.0240566,1.1140274,-0.17038657,0.13299939,0.64602304,1.0333462,0.13282558,0.26518214,0.7570059,0.6543466,0.044468056,0.013726968,0.53331083,0.2449552,-0.28684455,0.0065972786,0.07642359,790.14655,784.5055,805.05493,813.5165,487.14285,-0.177734375,0.092041015625,0.98260498046875,-1.1065673828125,-3.87298583984375,7.10296630859375,1,1.0,1.0,1.0,1.0,10.00
2024-10-11 20:40:42.483,1.3014175,0.417039,0.59410673,1.0240566,1.1140274,-0.17038657,0.13299939,0.64602304,1.0333462,0.13282558,0.26518214,0.7570059,0.6543466,0.044468056,0.013726968,0.53331083,0.2449552,-0.28684455,0.0065972786,0.07642359,792.5641,798.20514,804.2491,814.3223,639.0476,-0.177734375,0.092041015625,0.98260498046875,-1.1065673828125,-3.87298583984375,7.10296630859375,1,1.0,1.0,1.0,1.0,10.00
2024-10-11 20:40:42.483,1.3014175,0.417039,0.59410673,1.0240566,1.1140274,-0.17038657,0.13299939,0.64602304,1.0333462,0.13282558,0.26518214,0.7570059,0.6543466,0.044468056,0.013726968,0.53331083,0.2449552,-0.28684455,0.0065972786,0.07642359,767.5824,800.6227,788.93774,777.25275,673.2967,-0.177734375,0.092041015625,0.98260498046875,-1.1065673828125,-3.87298583984375,7.10296630859375,1,1.0,1.0,1.0,1.0,10.00
2024-10-11 20:40:42.484,1.3014175,0.417039,0.59410673,1.0240566,1.1140274,-0.17038657,0.13299939,0.64602304,1.0333462,0.13282558,0.26518214,0.7570059,0.6543466,0.044468056,0.013726968,0.53331083,0.2449552,-0.28684455,0.0065972786,0.07642359,763.1502,796.5934,784.10254,754.2857,547.1795,-0.177734375,0.092041015625,0.98260498046875,-1.1065673828125,-3.87298583984375,7.10296630859375,1,1.0,1.0,1.0,1.0,10.00
2024-10-11 20:40:42.484,1.3014175,0.417039,0.59410673,1.0240566,1.1140274,-0.17038657,0.13299939,0.64602304,1.0333462,0.13282558,0.26518214,0.7570059,0.6543466,0.044468056,0.013726968,0.53331083,0.2449552,-0.28684455,0.0065972786,0.07642359,758.315,800.6227,785.31134,741.79486,432.34433,-0.177734375,0.092041015625,0.98260498046875,-1.1065673828125,-3.87298583984375,7.10296630859375,1,1.0,1.0,1.0,1.0,10.00
2024-10-11 20:40:42.485,1.3014175,0.417039,0.59410673,1.0240566,1.1140274,-0.17038657,0.13299939,0.64602304,1.0333462,0.13282558,0.26518214,0.7570059,0.6543466,0.044468056,0.013726968,0.53331083,0.2449552,-0.28684455,0.0065972786,0.07642359,764.35895,803.0403,784.90845,748.6447,538.315,-0.177734375,0.092041015625,0.98260498046875,-1.1065673828125,-3.87298583984375,7.10296630859375,1,1.0,1.0,1.0,1.0,10.00
2024-10-11 20:40:42.486,1.250034,0.39321712,0.5655618,0.9819172,1.1061404,-0.14136231,0.1174827,0.6474529,1.0454227,0.15372546,0.33855033,0.82753634,0.6625035,0.06535775,0.029959401,0.54158443,0.23263487,-0.28439376,0.00105244,0.0729685,765.9707,804.2491,780.4762,737.76556,471.02563,-0.177734375,0.092041015625,0.98260498046875,-1.1065673828125,-3.87298583984375,7.10296630859375,1,1.0,1.0,1.0,1.0,10.00
2024-10-11 20:40:42.491,1.250034,0.39321712,0.5655618,0.9819172,1.1061404,-0.14136231,0.1174827,0.6474529,1.0454227,0.15372546,0.33855033,0.82753634,0.6625035,0.06535775,0.029959401,0.54158443,0.23263487,-0.28439376,0.00105244,0.0729685,755.89746,807.47253,774.43225,728.0952,411.39194,-0.177734375,0.092041015625,0.98260498046875,-1.1065673828125,-3.87298583984375,7.10296630859375,1,1.0,1.0,1.0,1.0,10.00
2024-10-11 20:40:42.491,1.250034,0.39321712,0.5655618,0.9819172,1.1061404,-0.14136231,0.1174827,0.6474529,1.0454227,0.15372546,0.33855033,0.82753634,0.6625035,0.06535775,0.029959401,0.54158443,0.23263487,-0.28439376,0.00105244,0.0729685,761.53845,812.71063,769.59705,742.1978,601.5751,-0.177734375,0.092041015625,0.98260498046875,-1.1065673828125,-3.87298583984375,7.10296630859375,1,1.0,1.0,1.0,1.0,10.00
2024-10-11 20:40:42.492,1.250034,0.39321712,0.5655618,0.9819172,1.1061404,-0.14136231,0.1174827,0.6474529,1.0454227,0.15372546,0.33855033,0.82753634,0.6625035,0.06535775,0.029959401,0.54158443,0.23263487,-0.28439376,0.00105244,0.0729685,760.32965,814.3223,768.3883,737.3626,633.8095,-0.177734375,0.092041015625,0.98260498046875,-1.1065673828125,-3.87298583984375,7.10296630859375,1,1.0,1.0,1.0,1.0,10.00
2024-10-11 20:40:42.492,1.250034,0.39321712,0.5655618,0.9819172,1.1061404,-0.14136231,0.1174827,0.6474529,1.0454227,0.15372546,0.33855033,0.82753634,0.6625035,0.06535775,0.029959401,0.54158443,0.23263487,-0.28439376,0.00105244,0.0729685,763.1502,810.696,766.3736,733.3333,457.32602,-0.177734375,0.092041015625,0.98260498046875,-1.1065673828125,-3.87298583984375,7.10296630859375,1,1.0,1.0,1.0,1.0,10.00
2024-10-11 20:40:42.493,1.250034,0.39321712,0.5655618,0.9819172,1.1061404,-0.14136231,0.1174827,0.6474529,1.0454227,0.15372546,0.33855033,0.82753634,0.6625035,0.06535775,0.029959401,0.54158443,0.23263487,-0.28439376,0.00105244,0.0729685,768.3883,809.4872,767.5824,749.0476,406.15384,-0.177734375,0.092041015625,0.98260498046875,-1.1065673828125,-3.87298583984375,7.10296630859375,1,1.0,1.0,1.0,1.0,10.00
2024-10-11 20:40:42.494,1.250034,0.39321712,0.5655618,0.9819172,1.1061404,-0.14136231,0.1174827,0.6474529,1.0454227,0.15372546,0.33855033,0.82753634,0.6625035,0.06535775,0.029959401,0.54158443,0.23263487,-0.28439376,0.00105244,0.0729685,765.9707,812.3077,773.6264,754.2857,635.82416,-0.177734375,0.092041015625,0.98260498046875,-1.1065673828125,-3.87298583984375,7.10296630859375,1,1.0,1.0,1.0,1.0,10.00
2024-10-11 20:40:42.494,1.250034,0.39321712,0.5655618,0.9819172,1.1061404,-0.14136231,0.1174827,0.6474529,1.0454227,0.15372546,0.33855033,0.82753634,0.6625035,0.06535775,0.029959401,0.54158443,0.23263487,-0.28439376,0.00105244,0.0729685,768.7912,805.05493,769.59705,748.6447,677.326,-0.177734375,0.092041015625,0.98260498046875,-1.1065673828125,-3.87298583984375,7.10296630859375,1,1.0,1.0,1.0,1.0,10.00
2024-10-11 20:40:42.495,1.250034,0.39321712,0.5655618,0.9819172,1.1061404,-0.14136231,0.1174827,0.6474529,1.0454227,0.15372546,0.33855033,0.82753634,0.6625035,0.06535775,0.029959401,0.54158443,0.23263487,-0.28439376,0.00105244,0.0729685,769.19415,801.4286,764.7619,757.50916,510.91574,-0.177734375,0.092041015625,0.98260498046875,-1.1065673828125,-3.87298583984375,7.10296630859375,1,1.0,1.0,1.0,1.0,10.00
2024-10-11 20:40:42.495,1.250034,0.39321712,0.5655618,0.9819172,1.1061404,-0.14136231,0.1174827,0.6474529,1.0454227,0.15372546,0.33855033,0.82753634,0.6625035,0.06535775,0.029959401,0.54158443,0.23263487,-0.28439376,0.00105244,0.0729685,774.83514,809.0842,772.4176,761.53845,554.83514,-0.177734375,0.092041015625,0.98260498046875,-1.1065673828125,-3.87298583984375,7.10296630859375,1,1.0,1.0,1.0,1.0,10.00
2024-10-11 20:40:42.496,1.250034,0.39321712,0.5655618,0.9819172,1.1061404,-0.14136231,0.1174827,0.6474529,1.0454227,0.15372546,0.33855033,0.82753634,0.6625035,0.06535775,0.029959401,0.54158443,0.23263487,-0.28439376,0.00105244,0.0729685,776.4469,809.4872,780.4762,765.16486,622.1245,-0.177734375,0.092041015625,0.98260498046875,-1.1065673828125,-3.87298583984375,7.10296630859375,1,1.0,1.0,1.0,1.0,10.00
2024-10-11 20:40:42.496,1.250034,0.39321712,0.5655618,0.9819172,1.1061404,-0.14136231,0.1174827,0.6474529,1.0454227,0.15372546,0.33855033,0.82753634,0.6625035,0.06535775,0.029959401,0.54158443,0.23263487,-0.28439376,0.00105244,0.0729685,765.9707,803.44324,774.0293,777.6557,632.1978,-0.177734375,0.092041015625,0.98260498046875,-1.1065673828125,-3.87298583984375,7.10296630859375,1,1.0,1.0,1.0,1.0,10.00
2024-10-11 20:40:42.497,1.250034,0.39321712,0.5655618,0.9819172,1.1061404,-0.14136231,0.1174827,0.6474529,1.0454227,0.15372546,0.33855033,0.82753634,0.6625035,0.06535775,0.029959401,0.54158443,0.23263487,-0.28439376,0.00105244,0.0729685,774.83514,803.0403,776.04395,774.83514,451.68497,-0.177734375,0.092041015625,0.98260498046875,-1.1065673828125,-3.87298583984375,7.10296630859375,1,1.0,1.0,1.0,1.0,10.00
2024-10-11 20:40:42.498,1.250034,0.39321712,0.5655618,0.9819172,1.1061404,-0.14136231,0.1174827,0.6474529,1.0454227,0.15372546,0.33855033,0.82753634,0.6625035,0.06535775,0.029959401,0.54158443,0.23263487,-0.28439376,0.00105244,0.0729685,792.96704,807.8755,778.86444,775.2381,366.66666,-0.177734375,0.092041015625,0.98260498046875,-1.1065673828125,-3.87298583984375,7.10296630859375,1,1.0,1.0,1.0,1.0,10.00
2024-10-11 20:40:42.498,1.250034,0.39321712,0.5655618,0.9819172,1.1061404,-0.14136231,0.1174827,0.6474529,1.0454227,0.15372546,0.33855033,0.82753634,0.6625035,0.06535775,0.029959401,0.54158443,0.23263487,-0.28439376,0.00105244,0.0729685,782.8938,804.2491,775.2381,783.69965,699.0842,-0.177734375,0.092041015625,0.98260498046875,-1.1065673828125,-3.87298583984375,7.10296630859375,1,1.0,1.0,1.0,1.0,10.00
2024-10-11 20:40:42.563,1.250034,0.39321712,0.5655618,0.9819172,1.1061404,-0.14136231,0.1174827,0.6474529,1.0454227,0.15372546,0.33855033,0.82753634,0.6625035,0.06535775,0.029959401,0.54158443,0.23263487,-0.28439376,0.00105244,0.0729685,772.8205,795.78754,785.7143,790.9524,730.9158,-0.182373046875,0.0933837890625,0.99456787109375,-1.233673095703125,-3.7384033203125,7.394561767578125,1,1.0,1.0,1.0,1.0,10.00
2024-10-11 20:40:42.564,1.250034,0.39321712,0.5655618,0.9819172,1.1061404,-0.14136231,0.1174827,0.6474529,1.0454227,0.15372546,0.33855033,0.82753634,0.6625035,0.06535775,0.029959401,0.54158443,0.23263487,-0.28439376,0.00105244,0.0729685,788.5348,794.57874,796.5934,791.3553,424.2857,-0.182373046875,0.0933837890625,0.99456787109375,-1.233673095703125,-3.7384033203125,7.394561767578125,1,1.0,1.0,1.0,1.0,10.00
2024-10-11 20:40:42.564,1.250034,0.39321712,0.5655618,0.9819172,1.1061404,-0.14136231,0.1174827,0.6474529,1.0454227,0.15372546,0.33855033,0.82753634,0.6625035,0.06535775,0.029959401,0.54158443,0.23263487,-0.28439376,0.00105244,0.0729685,792.5641,792.5641,789.34064,793.36993,408.1685,-0.182373046875,0.0933837890625,0.99456787109375,-1.233673095703125,-3.7384033203125,7.394561767578125,1,1.0,1.0,1.0,1.0,10.00
2024-10-11 20:40:42.565,1.250034,0.39321712,0.5655618,0.9819172,1.1061404,-0.14136231,0.1174827,0.6474529,1.0454227,0.15372546,0.33855033,0.82753634,0.6625035,0.06535775,0.029959401,0.54158443,0.23263487,-0.28439376,0.00105244,0.0729685,783.2967,790.9524,782.8938,792.5641,577.8022,-0.182373046875,0.0933837890625,0.99456787109375,-1.233673095703125,-3.7384033203125,7.394561767578125,1,1.0,1.0,1.0,1.0,10.00
2024-10-11 20:40:42.566,1.250034,0.39321712,0.5655618,0.9819172,1.1061404,-0.14136231,0.1174827,0.6474529,1.0454227,0.15372546,0.33855033,0.82753634,0.6625035,0.06535775,0.029959401,0.54158443,0.23263487,-0.28439376,0.00105244,0.0729685,788.1319,799.011,794.17584,792.1612,596.337,-0.182373046875,0.0933837890625,0.99456787109375,-1.233673095703125,-3.7384033203125,7.394561767578125,1,1.0,1.0,1.0,1.0,10.00
2024-10-11 20:40:42.566,1.250034,0.39321712,0.5655618,0.9819172,1.1061404,-0.14136231,0.1174827,0.6474529,1.0454227,0.15372546,0.33855033,0.82753634,0.6625035,0.06535775,0.029959401,0.54158443,0.23263487,-0.28439376,0.00105244,0.0729685,786.9231,802.23444,792.96704,792.96704,490.3663,-0.182373046875,0.0933837890625,0.99456787109375,-1.233673095703125,-3.7384033203125,7.394561767578125,1,1.0,1.0,1.0,1.0,10.00
2024-10-11 20:40:42.567,1.250034,0.39321712,0.5655618,0.9819172,1.1061404,-0.14136231,0.1174827,0.6474529,1.0454227,0.15372546,0.33855033,0.82753634,0.6625035,0.06535775,0.029959401,0.54158443,0.23263487,-0.28439376,0.00105244,0.0729685,787.326,794.57874,785.7143,789.34064,601.1722,-0.182373046875,0.0933837890625,0.99456787109375,-1.233673095703125,-3.7384033203125,7.394561767578125,1,1.0,1.0,1.0,1.0,10.00
2024-10-11 20:40:42.567,1.250034,0.39321712,0.5655618,0.9819172,1.1061404,-0.14136231,0.1174827,0.6474529,1.0454227,0.15372546,0.33855033,0.82753634,0.6625035,0.06535775,0.029959401,0.54158443,0.23263487,-0.28439376,0.00105244,0.0729685,798.60803,792.1612,787.326,796.5934,984.7619,-0.182373046875,0.0933837890625,0.99456787109375,-1.233673095703125,-3.7384033203125,7.394561767578125,1,1.0,1.0,1.0,1.0,10.00
2024-10-11 20:40:42.568,1.250034,0.39321712,0.5655618,0.9819172,1.1061404,-0.14136231,0.1174827,0.6474529,1.0454227,0.15372546,0.33855033,0.82753634,0.6625035,0.06535775,0.029959401,0.54158443,0.23263487,-0.28439376,0.00105244,0.0729685,804.65204,793.36993,792.1612,812.3077,1204.762,-0.182373046875,0.0933837890625,0.99456787109375,-1.233673095703125,-3.7384033203125,7.394561767578125,1,1.0,1.0,1.0,1.0,10.00
2024-10-11 20:40:42.568,1.250034,0.39321712,0.5655618,0.9819172,1.1061404,-0.14136231,0.1174827,0.6474529,1.0454227,0.15372546,0.33855033,0.82753634,0.6625035,0.06535775,0.029959401,0.54158443,0.23263487,-0.28439376,0.00105244,0.0729685,811.0989,803.44324,795.78754,806.6667,761.53845,-0.182373046875,0.0933837890625,0.99456787109375,-1.233673095703125,-3.7384033203125,7.394561767578125,1,1.0,1.0,1.0,1.0,10.00
2024-10-11 20:40:42.569,1.250034,0.39321712,0.5655618,0.9819172,1.1061404,-0.14136231,0.1174827,0.6474529,1.0454227,0.15372546,0.33855033,0.82753634,0.6625035,0.06535775,0.029959401,0.54158443,0.23263487,-0.28439376,0.00105244,0.0729685,800.6227,803.8461,792.1612,799.41394,480.69598,-0.182373046875,0.0933837890625,0.99456787109375,-1.233673095703125,-3.7384033203125,7.394561767578125,1,1.0,1.0,1.0,1.0,10.00
2024-10-11 20:40:42.570,1.2067575,0.36934572,0.54228896,0.94543874,1.0998421,-0.11732307,0.10720233,0.6855753,1.0579714,0.15693484,0.4465714,0.91110086,0.67318505,0.079614624,0.060783774,0.5570868,0.22563297,-0.2859189,-0.0057839053,0.060666393,795.38464,797.3993,790.14655,805.4579,520.58606,-0.182373046875,0.0933837890625,0.99456787109375,-1.233673095703125,-3.7384033203125,7.394561767578125,1,1.0,1.0,1.0,1.0,10.00
2024-10-11 20:40:42.630,1.2067575,0.36934572,0.54228896,0.94543874,1.0998421,-0.11732307,0.10720233,0.6855753,1.0579714,0.15693484,0.4465714,0.91110086,0.67318505,0.079614624,0.060783774,0.5570868,0.22563297,-0.2859189,-0.0057839053,0.060666393,799.81683,801.4286,790.54944,801.02563,416.2271,-0.188232421875,0.0850830078125,0.99755859375,-1.435546875,-4.0374755859375,4.366455078125,1,1.0,1.0,1.0,1.0,10.00
2024-10-11 20:40:42.631,1.2067575,0.36934572,0.54228896,0.94543874,1.0998421,-0.11732307,0.10720233,0.6855753,1.0579714,0.15693484,0.4465714,0.91110086,0.67318505,0.079614624,0.060783774,0.5570868,0.22563297,-0.2859189,-0.0057839053,0.060666393,801.8315,801.4286,796.1905,804.2491,403.33334,-0.188232421875,0.0850830078125,0.99755859375,-1.435546875,-4.0374755859375,4.366455078125,1,1.0,1.0,1.0,1.0,10.00
2024-10-11 20:40:42.632,1.2067575,0.36934572,0.54228896,0.94543874,1.0998421,-0.11732307,0.10720233,0.6855753,1.0579714,0.15693484,0.4465714,0.91110086,0.67318505,0.079614624,0.060783774,0.5570868,0.22563297,-0.2859189,-0.0057839053,0.060666393,795.78754,798.60803,796.99634,804.65204,464.1758,-0.188232421875,0.0850830078125,0.99755859375,-1.435546875,-4.0374755859375,4.366455078125,1,1.0,1.0,1.0,1.0,10.00
2024-10-11 20:40:42.632,1.2067575,0.36934572,0.54228896,0.94543874,1.0998421,-0.11732307,0.10720233,0.6855753,1.0579714,0.15693484,0.4465714,0.91110086,0.67318505,0.079614624,0.060783774,0.5570868,0.22563297,-0.2859189,-0.0057839053,0.060666393,794.9817,800.6227,796.1905,800.6227,430.7326,-0.188232421875,0.0850830078125,0.99755859375,-1.435546875,-4.0374755859375,4.366455078125,1,1.0,1.0,1.0,1.0,10.00
2024-10-11 20:40:42.633,1.2067575,0.36934572,0.54228896,0.94543874,1.0998421,-0.11732307,0.10720233,0.6855753,1.0579714,0.15693484,0.4465714,0.91110086,0.67318505,0.079614624,0.060783774,0.5570868,0.22563297,-0.2859189,-0.0057839053,0.060666393,797.3993,804.65204,795.78754,792.96704,380.3663,-0.188232421875,0.0850830078125,0.99755859375,-1.435546875,-4.0374755859375,4.366455078125,1,1.0,1.0,1.0,1.0,10.00
2024-10-11 20:40:42.633,1.2067575,0.36934572,0.54228896,0.94543874,1.0998421,-0.11732307,0.10720233,0.6855753,1.0579714,0.15693484,0.4465714,0.91110086,0.67318505,0.079614624,0.060783774,0.5570868,0.22563297,-0.2859189,-0.0057839053,0.060666393,788.93774,801.4286,798.20514,792.1612,535.89746,-0.188232421875,0.0850830078125,0.99755859375,-1.435546875,-4.0374755859375,4.366455078125,1,1.0,1.0,1.0,1.0,10.00
2024-10-11 20:40:42.634,1.2067575,0.36934572,0.54228896,0.94543874,1.0998421,-0.11732307,0.10720233,0.6855753,1.0579714,0.15693484,0.4465714,0.91110086,0.67318505,0.079614624,0.060783774,0.5570868,0.22563297,-0.2859189,-0.0057839053,0.060666393,794.57874,800.2198,800.2198,798.60803,692.23444,-0.188232421875,0.0850830078125,0.99755859375,-1.435546875,-4.0374755859375,4.366455078125,1,1.0,1.0,1.0,1.0,10.00
2024-10-11 20:40:42.634,1.2067575,0.36934572,0.54228896,0.94543874,1.0998421,-0.11732307,0.10720233,0.6855753,1.0579714,0.15693484,0.4465714,0.91110086,0.67318505,0.079614624,0.060783774,0.5570868,0.22563297,-0.2859189,-0.0057839053,0.060666393,801.8315,807.0696,789.7436,796.99634,567.326,-0.188232421875,0.0850830078125,0.99755859375,-1.435546875,-4.0374755859375,4.366455078125,1,1.0,1.0,1.0,1.0,10.00
2024-10-11 20:40:42.635,1.2067575,0.36934572,0.54228896,0.94543874,1.0998421,-0.11732307,0.10720233,0.6855753,1.0579714,0.15693484,0.4465714,0.91110086,0.67318505,0.079614624,0.060783774,0.5570868,0.22563297,-0.2859189,-0.0057839053,0.060666393,792.5641,806.6667,794.9817,792.5641,403.73627,-0.188232421875,0.0850830078125,0.99755859375,-1.435546875,-4.0374755859375,4.366455078125,1,1.0,1.0,1.0,1.0,10.00
2024-10-11 20:40:42.636,1.2067575,0.36934572,0.54228896,0.94543874,1.0998421,-0.11732307,0.10720233,0.6855753,1.0579714,0.15693484,0.4465714,0.91110086,0.67318505,0.079614624,0.060783774,0.5570868,0.22563297,-0.2859189,-0.0057839053,0.060666393,789.34064,798.60803,799.41394,788.93774,439.59708,-0.188232421875,0.0850830078125,0.99755859375,-1.435546875,-4.0374755859375,4.366455078125,1,1.0,1.0,1.0,1.0,10.00
2024-10-11 20:40:42.636,1.2067575,0.36934572,0.54228896,0.94543874,1.0998421,-0.11732307,0.10720233,0.6855753,1.0579714,0.15693484,0.4465714,0.91110086,0.67318505,0.079614624,0.060783774,0.5570868,0.22563297,-0.2859189,-0.0057839053,0.060666393,795.78754,795.78754,790.9524,796.99634,572.1612,-0.188232421875,0.0850830078125,0.99755859375,-1.435546875,-4.0374755859375,4.366455078125,1,1.0,1.0,1.0,1.0,10.00
2024-10-11 20:40:42.637,1.2067575,0.36934572,0.54228896,0.94543874,1.0998421,-0.11732307,0.10720233,0.6855753,1.0579714,0.15693484,0.4465714,0.91110086,0.67318505,0.079614624,0.060783774,0.5570868,0.22563297,-0.2859189,-0.0057839053,0.060666393,796.1905,801.02563,800.6227,792.96704,535.89746,-0.188232421875,0.0850830078125,0.99755859375,-1.435546875,-4.0374755859375,4.366455078125,1,1.0,1.0,1.0,1.0,10.00
2024-10-11 20:40:42.701,1.2067575,0.36934572,0.54228896,0.94543874,1.0998421,-0.11732307,0.10720233,0.6855753,1.0579714,0.15693484,0.4465714,0.91110086,0.67318505,0.079614624,0.060783774,0.5570868,0.22563297,-0.2859189,-0.0057839053,0.060666393,794.57874,802.6374,797.3993,780.07324,303.8095,-0.166015625,0.0833740234375,0.99102783203125,-0.740203857421875,-4.717864990234375,2.07855224609375,1,1.0,1.0,1.0,1.0,10.00
2024-10-11 20:40:42.702,1.2067575,0.36934572,0.54228896,0.94543874,1.0998421,-0.11732307,0.10720233,0.6855753,1.0579714,0.15693484,0.4465714,0.91110086,0.67318505,0.079614624,0.060783774,0.5570868,0.22563297,-0.2859189,-0.0057839053,0.060666393,784.5055,794.9817,793.7729,781.685,278.82785,-0.166015625,0.0833740234375,0.99102783203125,-0.740203857421875,-4.717864990234375,2.07855224609375,1,1.0,1.0,1.0,1.0,10.00
2024-10-11 20:40:42.703,1.2067575,0.36934572,0.54228896,0.94543874,1.0998421,-0.11732307,0.10720233,0.6855753,1.0579714,0.15693484,0.4465714,0.91110086,0.67318505,0.079614624,0.060783774,0.5570868,0.22563297,-0.2859189,-0.0057839053,0.060666393,790.54944,790.14655,799.81683,793.7729,452.08792,-0.166015625,0.0833740234375,0.99102783203125,-0.740203857421875,-4.717864990234375,2.07855224609375,1,1.0,1.0,1.0,1.0,10.00
2024-10-11 20:40:42.704,1.2067575,0.36934572,0.54228896,0.94543874,1.0998421,-0.11732307,0.10720233,0.6855753,1.0579714,0.15693484,0.4465714,0.91110086,0.67318505,0.079614624,0.060783774,0.5570868,0.22563297,-0.2859189,-0.0057839053,0.060666393,798.20514,792.96704,798.60803,795.78754,463.7729,-0.166015625,0.0833740234375,0.99102783203125,-0.740203857421875,-4.717864990234375,2.07855224609375,1,1.0,1.0,1.0,1.0,10.00
2024-10-11 20:40:42.704,1.2067575,0.36934572,0.54228896,0.94543874,1.0998421,-0.11732307,0.10720233,0.6855753,1.0579714,0.15693484,0.4465714,0.91110086,0.67318505,0.079614624,0.060783774,0.5570868,0.22563297,-0.2859189,-0.0057839053,0.060666393,787.326,794.17584,796.5934,788.1319,321.53845,-0.166015625,0.0833740234375,0.99102783203125,-0.740203857421875,-4.717864990234375,2.07855224609375,1,1.0,1.0,1.0,1.0,10.00
2024-10-11 20:40:42.705,1.2067575,0.36934572,0.54228896,0.94543874,1.0998421,-0.11732307,0.10720233,0.6855753,1.0579714,0.15693484,0.4465714,0.91110086,0.67318505,0.079614624,0.060783774,0.5570868,0.22563297,-0.2859189,-0.0057839053,0.060666393,789.34064,794.57874,795.38464,800.6227,405.348,-0.166015625,0.0833740234375,0.99102783203125,-0.740203857421875,-4.717864990234375,2.07855224609375,1,1.0,1.0,1.0,1.0,10.00
2024-10-11 20:40:42.705,1.2067575,0.36934572,0.54228896,0.94543874,1.0998421,-0.11732307,0.10720233,0.6855753,1.0579714,0.15693484,0.4465714,0.91110086,0.67318505,0.079614624,0.060783774,0.5570868,0.22563297,-0.2859189,-0.0057839053,0.060666393,792.96704,792.96704,796.5934,808.68134,529.85345,-0.166015625,0.0833740234375,0.99102783203125,-0.740203857421875,-4.717864990234375,2.07855224609375,1,1.0,1.0,1.0,1.0,10.00
2024-10-11 20:40:42.706,1.2067575,0.36934572,0.54228896,0.94543874,1.0998421,-0.11732307,0.10720233,0.6855753,1.0579714,0.15693484,0.4465714,0.91110086,0.67318505,0.079614624,0.060783774,0.5570868,0.22563297,-0.2859189,-0.0057839053,0.060666393,797.3993,784.90845,795.78754,792.96704,421.86813,-0.166015625,0.0833740234375,0.99102783203125,-0.740203857421875,-4.717864990234375,2.07855224609375,1,1.0,1.0,1.0,1.0,10.00
2024-10-11 20:40:42.707,1.2067575,0.36934572,0.54228896,0.94543874,1.0998421,-0.11732307,0.10720233,0.6855753,1.0579714,0.15693484,0.4465714,0.91110086,0.67318505,0.079614624,0.060783774,0.5570868,0.22563297,-0.2859189,-0.0057839053,0.060666393,800.6227,789.34064,804.65204,792.96704,261.90475,-0.166015625,0.0833740234375,0.99102783203125,-0.740203857421875,-4.717864990234375,2.07855224609375,1,1.0,1.0,1.0,1.0,10.00
2024-10-11 20:40:42.707,1.2067575,0.36934572,0.54228896,0.94543874,1.0998421,-0.11732307,0.10720233,0.6855753,1.0579714,0.15693484,0.4465714,0.91110086,0.67318505,0.079614624,0.060783774,0.5570868,0.22563297,-0.2859189,-0.0057839053,0.060666393,793.36993,793.7729,799.81683,794.17584,369.08426,-0.166015625,0.0833740234375,0.99102783203125,-0.740203857421875,-4.717864990234375,2.07855224609375,1,1.0,1.0,1.0,1.0,10.00
2024-10-11 20:40:42.708,1.2067575,0.36934572,0.54228896,0.94543874,1.0998421,-0.11732307,0.10720233,0.6855753,1.0579714,0.15693484,0.4465714,0.91110086,0.67318505,0.079614624,0.060783774,0.5570868,0.22563297,-0.2859189,-0.0057839053,0.060666393,800.2198,791.75824,792.5641,791.3553,529.45056,-0.166015625,0.0833740234375,0.99102783203125,-0.740203857421875,-4.717864990234375,2.07855224609375,1,1.0,1.0,1.0,1.0,10.00
2024-10-11 20:40:42.709,1.2067575,0.36934572,0.54228896,0.94543874,1.0998421,-0.11732307,0.10720233,0.6855753,1.0579714,0.15693484,0.4465714,0.91110086,0.67318505,0.079614624,0.060783774,0.5570868,0.22563297,-0.2859189,-0.0057839053,0.060666393,807.8755,792.1612,808.68134,798.20514,489.1575,-0.166015625,0.0833740234375,0.99102783203125,-0.740203857421875,-4.717864990234375,2.07855224609375,1,1.0,1.0,1.0,1.0,10.00
2024-10-11 20:40:42.800,1.2067575,0.36934572,0.54228896,0.94543874,1.0998421,-0.11732307,0.10720233,0.6855753,1.0579714,0.15693484,0.4465714,0.91110086,0.67318505,0.079614624,0.060783774,0.5570868,0.22563297,-0.2859189,-0.0057839053,0.060666393,804.65204,792.1612,804.65204,796.5934,415.8242,-0.151611328125,0.0758056640625,0.98565673828125,-0.2093505859375,-5.076751708984375,1.614990234375,1,1.0,1.0,1.0,1.0,10.00
2024-10-11 20:40:42.801,1.1755537,0.3438226,0.536549,0.94368964,1.1006666,-0.10711809,0.11263252,0.77912396,1.0839794,0.1881227,0.55276597,1.0436834,0.684126,0.09055886,0.10028158,0.58394605,0.2192298,-0.28991845,-0.009566565,0.055267926,805.8608,796.5934,790.9524,793.7729,513.73627,-0.151611328125,0.0758056640625,0.98565673828125,-0.2093505859375,-5.076751708984375,1.614990234375,1,1.0,1.0,1.0,1.0,10.00
2024-10-11 20:40:42.807,1.1755537,0.3438226,0.536549,0.94368964,1.1006666,-0.10711809,0.11263252,0.77912396,1.0839794,0.1881227,0.55276597,1.0436834,0.684126,0.09055886,0.10028158,0.58394605,0.2192298,-0.28991845,-0.009566565,0.055267926,809.89014,795.38464,791.75824,799.011,676.9231,-0.151611328125,0.0758056640625,0.98565673828125,-0.2093505859375,-5.076751708984375,1.614990234375,1,1.0,1.0,1.0,1.0,10.00
2024-10-11 20:40:42.807,1.1755537,0.3438226,0.536549,0.94368964,1.1006666,-0.10711809,0.11263252,0.77912396,1.0839794,0.1881227,0.55276597,1.0436834,0.684126,0.09055886,0.10028158,0.58394605,0.2192298,-0.28991845,-0.009566565,0.055267926,803.0403,794.9817,792.1612,792.5641,519.7802,-0.151611328125,0.0758056640625,0.98565673828125,-0.2093505859375,-5.076751708984375,1.614990234375,1,1.0,1.0,1.0,1.0,10.00
2024-10-11 20:40:42.808,1.1755537,0.3438226,0.536549,0.94368964,1.1006666,-0.10711809,0.11263252,0.77912396,1.0839794,0.1881227,0.55276597,1.0436834,0.684126,0.09055886,0.10028158,0.58394605,0.2192298,-0.28991845,-0.009566565,0.055267926,798.20514,797.8022,790.54944,787.72894,394.06595,-0.151611328125,0.0758056640625,0.98565673828125,-0.2093505859375,-5.076751708984375,1.614990234375,1,1.0,1.0,1.0,1.0,10.00
2024-10-11 20:40:42.809,1.1755537,0.3438226,0.536549,0.94368964,1.1006666,-0.10711809,0.11263252,0.77912396,1.0839794,0.1881227,0.55276597,1.0436834,0.684126,0.09055886,0.10028158,0.58394605,0.2192298,-0.28991845,-0.009566565,0.055267926,808.2784,790.14655,792.96704,795.78754,767.1795,-0.151611328125,0.0758056640625,0.98565673828125,-0.2093505859375,-5.076751708984375,1.614990234375,1,1.0,1.0,1.0,1.0,10.00
2024-10-11 20:40:42.810,1.1755537,0.3438226,0.536549,0.94368964,1.1006666,-0.10711809,0.11263252,0.77912396,1.0839794,0.1881227,0.55276597,1.0436834,0.684126,0.09055886,0.10028158,0.58394605,0.2192298,-0.28991845,-0.009566565,0.055267926,796.5934,790.14655,790.54944,790.9524,891.28204,-0.151611328125,0.0758056640625,0.98565673828125,-0.2093505859375,-5.076751708984375,1.614990234375,1,1.0,1.0,1.0,1.0,10.00
2024-10-11 20:40:42.811,1.1755537,0.3438226,0.536549,0.94368964,1.1006666,-0.10711809,0.11263252,0.77912396,1.0839794,0.1881227,0.55276597,1.0436834,0.684126,0.09055886,0.10028158,0.58394605,0.2192298,-0.28991845,-0.009566565,0.055267926,784.90845,796.99634,799.011,784.90845,546.3736,-0.151611328125,0.0758056640625,0.98565673828125,-0.2093505859375,-5.076751708984375,1.614990234375,1,1.0,1.0,1.0,1.0,10.00
2024-10-11 20:40:42.811,1.1755537,0.3438226,0.536549,0.94368964,1.1006666,-0.10711809,0.11263252,0.77912396,1.0839794,0.1881227,0.55276597,1.0436834,0.684126,0.09055886,0.10028158,0.58394605,0.2192298,-0.28991845,-0.009566565,0.055267926,788.1319,797.3993,801.02563,784.10254,464.57877,-0.151611328125,0.0758056640625,0.98565673828125,-0.2093505859375,-5.076751708984375,1.614990234375,1,1.0,1.0,1.0,1.0,10.00
2024-10-11 20:40:42.812,1.1755537,0.3438226,0.536549,0.94368964,1.1006666,-0.10711809,0.11263252,0.77912396,1.0839794,0.1881227,0.55276597,1.0436834,0.684126,0.09055886,0.10028158,0.58394605,0.2192298,-0.28991845,-0.009566565,0.055267926,792.96704,801.8315,790.14655,794.57874,656.3736,-0.151611328125,0.0758056640625,0.98565673828125,-0.2093505859375,-5.076751708984375,1.614990234375,1,1.0,1.0,1.0,1.0,10.00
2024-10-11 20:40:42.813,1.1755537,0.3438226,0.536549,0.94368964,1.1006666,-0.10711809,0.11263252,0.77912396,1.0839794,0.1881227,0.55276597,1.0436834,0.684126,0.09055886,0.10028158,0.58394605,0.2192298,-0.28991845,-0.009566565,0.055267926,799.011,800.6227,787.326,805.8608,730.9158,-0.151611328125,0.0758056640625,0.98565673828125,-0.2093505859375,-5.076751708984375,1.614990234375,1,1.0,1.0,1.0,1.0,10.00
2024-10-11 20:40:42.814,1.1755537,0.3438226,0.536549,0.94368964,1.1006666,-0.10711809,0.11263252,0.77912396,1.0839794,0.1881227,0.55276597,1.0436834,0.684126,0.09055886,0.10028158,0.58394605,0.2192298,-0.28991845,-0.009566565,0.055267926,806.6667,802.23444,790.54944,799.81683,577.8022,-0.151611328125,0.0758056640625,0.98565673828125,-0.2093505859375,-5.076751708984375,1.614990234375,1,1.0,1.0,1.0,1.0,10.00
2024-10-11 20:40:42.840,1.1755537,0.3438226,0.536549,0.94368964,1.1006666,-0.10711809,0.11263252,0.77912396,1.0839794,0.1881227,0.55276597,1.0436834,0.684126,0.09055886,0.10028158,0.58394605,0.2192298,-0.28991845,-0.009566565,0.055267926,813.1135,805.05493,800.6227,803.0403,514.1392,-0.151611328125,0.0758056640625,0.98565673828125,-0.2093505859375,-5.076751708984375,1.614990234375,1,1.0,1.0,1.0,1.0,10.00
2024-10-11 20:40:42.841,1.1755537,0.3438226,0.536549,0.94368964,1.1006666,-0.10711809,0.11263252,0.77912396,1.0839794,0.1881227,0.55276597,1.0436834,0.684126,0.09055886,0.10028158,0.58394605,0.2192298,-0.28991845,-0.009566565,0.055267926,810.293,799.011,803.0403,804.2491,597.5458,-0.151611328125,0.0758056640625,0.98565673828125,-0.2093505859375,-5.076751708984375,1.614990234375,1,1.0,1.0,1.0,1.0,10.00
2024-10-11 20:40:42.842,1.1755537,0.3438226,0.536549,0.94368964,1.1006666,-0.10711809,0.11263252,0.77912396,1.0839794,0.1881227,0.55276597,1.0436834,0.684126,0.09055886,0.10028158,0.58394605,0.2192298,-0.28991845,-0.009566565,0.055267926,814.7253,797.8022,796.99634,805.4579,696.26373,-0.151611328125,0.0758056640625,0.98565673828125,-0.2093505859375,-5.076751708984375,1.614990234375,1,1.0,1.0,1.0,1.0,10.00
2024-10-11 20:40:42.842,1.1755537,0.3438226,0.536549,0.94368964,1.1006666,-0.10711809,0.11263252,0.77912396,1.0839794,0.1881227,0.55276597,1.0436834,0.684126,0.09055886,0.10028158,0.58394605,0.2192298,-0.28991845,-0.009566565,0.055267926,816.337,800.6227,796.1905,808.68134,587.8755,-0.151611328125,0.0758056640625,0.98565673828125,-0.2093505859375,-5.076751708984375,1.614990234375,1,1.0,1.0,1.0,1.0,10.00
2024-10-11 20:40:42.843,1.1755537,0.3438226,0.536549,0.94368964,1.1006666,-0.10711809,0.11263252,0.77912396,1.0839794,0.1881227,0.55276597,1.0436834,0.684126,0.09055886,0.10028158,0.58394605,0.2192298,-0.28991845,-0.009566565,0.055267926,805.05493,799.41394,801.4286,806.6667,533.0769,-0.151611328125,0.0758056640625,0.98565673828125,-0.2093505859375,-5.076751708984375,1.614990234375,1,1.0,1.0,1.0,1.0,10.00
2024-10-11 20:40:42.844,1.1755537,0.3438226,0.536549,0.94368964,1.1006666,-0.10711809,0.11263252,0.77912396,1.0839794,0.1881227,0.55276597,1.0436834,0.684126,0.09055886,0.10028158,0.58394605,0.2192298,-0.28991845,-0.009566565,0.055267926,807.8755,799.41394,804.2491,814.7253,762.3443,-0.151611328125,0.0758056640625,0.98565673828125,-0.2093505859375,-5.076751708984375,1.614990234375,1,1.0,1.0,1.0,1.0,10.00
2024-10-11 20:40:42.845,1.1755537,0.3438226,0.536549,0.94368964,1.1006666,-0.10711809,0.11263252,0.77912396,1.0839794,0.1881227,0.55276597,1.0436834,0.684126,0.09055886,0.10028158,0.58394605,0.2192298,-0.28991845,-0.009566565,0.055267926,812.3077,799.81683,801.8315,807.0696,726.8865,-0.151611328125,0.0758056640625,0.98565673828125,-0.2093505859375,-5.076751708984375,1.614990234375,1,1.0,1.0,1.0,1.0,10.00
2024-10-11 20:40:42.845,1.1755537,0.3438226,0.536549,0.94368964,1.1006666,-0.10711809,0.11263252,0.77912396,1.0839794,0.1881227,0.55276597,1.0436834,0.684126,0.09055886,0.10028158,0.58394605,0.2192298,-0.28991845,-0.009566565,0.055267926,809.89014,803.44324,799.81683,810.293,476.26373,-0.151611328125,0.0758056640625,0.98565673828125,-0.2093505859375,-5.076751708984375,1.614990234375,1,1.0,1.0,1.0,1.0,10.00
2024-10-11 20:40:42.846,1.1755537,0.3438226,0.536549,0.94368964,1.1006666,-0.10711809,0.11263252,0.77912396,1.0839794,0.1881227,0.55276597,1.0436834,0.684126,0.09055886,0.10028158,0.58394605,0.2192298,-0.28991845,-0.009566565,0.055267926,801.8315,804.65204,805.4579,819.15753,526.63007,-0.151611328125,0.0758056640625,0.98565673828125,-0.2093505859375,-5.076751708984375,1.614990234375,1,1.0,1.0,1.0,1.0,10.00
2024-10-11 20:40:42.847,1.1755537,0.3438226,0.536549,0.94368964,1.1006666,-0.10711809,0.11263252,0.77912396,1.0839794,0.1881227,0.55276597,1.0436834,0.684126,0.09055886,0.10028158,0.58394605,0.2192298,-0.28991845,-0.009566565,0.055267926,801.8315,803.8461,804.65204,821.5751,658.3883,-0.151611328125,0.0758056640625,0.98565673828125,-0.2093505859375,-5.076751708984375,1.614990234375,1,1.0,1.0,1.0,1.0,10.00
2024-10-11 20:40:42.848,1.1755537,0.3438226,0.536549,0.94368964,1.1006666,-0.10711809,0.11263252,0.77912396,1.0839794,0.1881227,0.55276597,1.0436834,0.684126,0.09055886,0.10028158,0.58394605,0.2192298,-0.28991845,-0.009566565,0.055267926,809.4872,806.26373,799.41394,821.1722,599.15753,-0.151611328125,0.0758056640625,0.98565673828125,-0.2093505859375,-5.076751708984375,1.614990234375,1,1.0,1.0,1.0,1.0,10.00
2024-10-11 20:40:42.849,1.1755537,0.3438226,0.536549,0.94368964,1.1006666,-0.10711809,0.11263252,0.77912396,1.0839794,0.1881227,0.55276597,1.0436834,0.684126,0.09055886,0.10028158,0.58394605,0.2192298,-0.28991845,-0.009566565,0.055267926,805.8608,805.8608,799.41394,814.7253,533.8828,-0.151611328125,0.0758056640625,0.98565673828125,-0.2093505859375,-5.076751708984375,1.614990234375,1,1.0,1.0,1.0,1.0,10.00
2024-10-11 20:40:42.849,1.1755537,0.3438226,0.536549,0.94368964,1.1006666,-0.10711809,0.11263252,0.77912396,1.0839794,0.1881227,0.55276597,1.0436834,0.684126,0.09055886,0.10028158,0.58394605,0.2192298,-0.28991845,-0.009566565,0.055267926,806.26373,800.6227,802.6374,815.9341,625.7509,-0.14727783203125,0.06707763671875,0.9776611328125,0.67291259765625,-5.196380615234375,3.686065673828125,1,1.0,1.0,1.0,1.0,10.00
2024-10-11 20:40:42.850,1.1755537,0.3438226,0.536549,0.94368964,1.1006666,-0.10711809,0.11263252,0.77912396,1.0839794,0.1881227,0.55276597,1.0436834,0.684126,0.09055886,0.10028158,0.58394605,0.2192298,-0.28991845,-0.009566565,0.055267926,815.9341,799.41394,805.8608,817.1429,774.0293,-0.14727783203125,0.06707763671875,0.9776611328125,0.67291259765625,-5.196380615234375,3.686065673828125,1,1.0,1.0,1.0,1.0,10.00
2024-10-11 20:40:42.851,1.1755537,0.3438226,0.536549,0.94368964,1.1006666,-0.10711809,0.11263252,0.77912396,1.0839794,0.1881227,0.55276597,1.0436834,0.684126,0.09055886,0.10028158,0.58394605,0.2192298,-0.28991845,-0.009566565,0.055267926,810.293,799.41394,810.696,807.8755,653.5531,-0.14727783203125,0.06707763671875,0.9776611328125,0.67291259765625,-5.196380615234375,3.686065673828125,1,1.0,1.0,1.0,1.0,10.00
2024-10-11 20:40:42.851,1.1603198,0.32059935,0.47122025,0.9916484,1.1146197,-0.10477165,0.091677465,0.9134084,1.1097909,0.26165852,0.59477663,1.1594718,0.6914746,0.100858375,0.1390897,0.6214417,0.20834838,-0.29295096,2.7772793E-4,0.06562073,807.47253,796.99634,810.293,804.2491,550.80585,-0.14727783203125,0.06707763671875,0.9776611328125,0.67291259765625,-5.196380615234375,3.686065673828125,1,1.0,1.0,1.0,1.0,10.00
2024-10-11 20:40:42.856,1.1603198,0.32059935,0.47122025,0.9916484,1.1146197,-0.10477165,0.091677465,0.9134084,1.1097909,0.26165852,0.59477663,1.1594718,0.6914746,0.100858375,0.1390897,0.6214417,0.20834838,-0.29295096,2.7772793E-4,0.06562073,800.6227,792.5641,802.23444,805.8608,711.1722,-0.14727783203125,0.06707763671875,0.9776611328125,0.67291259765625,-5.196380615234375,3.686065673828125,1,1.0,1.0,1.0,1.0,10.00
2024-10-11 20:40:42.857,1.1603198,0.32059935,0.47122025,0.9916484,1.1146197,-0.10477165,0.091677465,0.9134084,1.1097909,0.26165852,0.59477663,1.1594718,0.6914746,0.100858375,0.1390897,0.6214417,0.20834838,-0.29295096,2.7772793E-4,0.06562073,794.57874,792.1612,803.44324,803.8461,822.381,-0.14727783203125,0.06707763671875,0.9776611328125,0.67291259765625,-5.196380615234375,3.686065673828125,1,1.0,1.0,1.0,1.0,10.00
2024-10-11 20:40:42.858,1.1603198,0.32059935,0.47122025,0.9916484,1.1146197,-0.10477165,0.091677465,0.9134084,1.1097909,0.26165852,0.59477663,1.1594718,0.6914746,0.100858375,0.1390897,0.6214417,0.20834838,-0.29295096,2.7772793E-4,0.06562073,801.4286,797.8022,809.4872,791.3553,647.9121,-0.14727783203125,0.06707763671875,0.9776611328125,0.67291259765625,-5.196380615234375,3.686065673828125,1,1.0,1.0,1.0,1.0,10.00
2024-10-11 20:40:42.858,1.1603198,0.32059935,0.47122025,0.9916484,1.1146197,-0.10477165,0.091677465,0.9134084,1.1097909,0.26165852,0.59477663,1.1594718,0.6914746,0.100858375,0.1390897,0.6214417,0.20834838,-0.29295096,2.7772793E-4,0.06562073,797.8022,795.78754,808.2784,782.49084,713.9927,-0.14727783203125,0.06707763671875,0.9776611328125,0.67291259765625,-5.196380615234375,3.686065673828125,1,1.0,1.0,1.0,1.0,10.00
2024-10-11 20:40:42.859,1.1603198,0.32059935,0.47122025,0.9916484,1.1146197,-0.10477165,0.091677465,0.9134084,1.1097909,0.26165852,0.59477663,1.1594718,0.6914746,0.100858375,0.1390897,0.6214417,0.20834838,-0.29295096,2.7772793E-4,0.06562073,793.7729,793.7729,805.05493,786.9231,767.98535,-0.14727783203125,0.06707763671875,0.9776611328125,0.67291259765625,-5.196380615234375,3.686065673828125,1,1.0,1.0,1.0,1.0,10.00
2024-10-11 20:40:42.860,1.1603198,0.32059935,0.47122025,0.9916484,1.1146197,-0.10477165,0.091677465,0.9134084,1.1097909,0.26165852,0.59477663,1.1594718,0.6914746,0.100858375,0.1390897,0.6214417,0.20834838,-0.29295096,2.7772793E-4,0.06562073,786.9231,798.60803,801.8315,781.685,591.9048,-0.14727783203125,0.06707763671875,0.9776611328125,0.67291259765625,-5.196380615234375,3.686065673828125,1,1.0,1.0,1.0,1.0,10.00
2024-10-11 20:40:42.861,1.1603198,0.32059935,0.47122025,0.9916484,1.1146197,-0.10477165,0.091677465,0.9134084,1.1097909,0.26165852,0.59477663,1.1594718,0.6914746,0.100858375,0.1390897,0.6214417,0.20834838,-0.29295096,2.7772793E-4,0.06562073,794.17584,801.02563,798.20514,780.4762,453.2967,-0.14727783203125,0.06707763671875,0.9776611328125,0.67291259765625,-5.196380615234375,3.686065673828125,1,1.0,1.0,1.0,1.0,10.00
2024-10-11 20:40:42.862,1.1603198,0.32059935,0.47122025,0.9916484,1.1146197,-0.10477165,0.091677465,0.9134084,1.1097909,0.26165852,0.59477663,1.1594718,0.6914746,0.100858375,0.1390897,0.6214417,0.20834838,-0.29295096,2.7772793E-4,0.06562073,799.011,801.02563,799.011,781.28204,432.74725,-0.14727783203125,0.06707763671875,0.9776611328125,0.67291259765625,-5.196380615234375,3.686065673828125,1,1.0,1.0,1.0,1.0,10.00
2024-10-11 20:40:42.891,1.1603198,0.32059935,0.47122025,0.9916484,1.1146197,-0.10477165,0.091677465,0.9134084,1.1097909,0.26165852,0.59477663,1.1594718,0.6914746,0.100858375,0.1390897,0.6214417,0.20834838,-0.29295096,2.7772793E-4,0.06562073,794.57874,798.60803,799.81683,772.8205,580.6227,-0.16192626953125,0.07470703125,0.98297119140625,4.964599609375,-3.850555419921875,7.469329833984375,1,1.0,1.0,1.0,1.0,10.00
2024-10-11 20:40:42.892,1.1603198,0.32059935,0.47122025,0.9916484,1.1146197,-0.10477165,0.091677465,0.9134084,1.1097909,0.26165852,0.59477663,1.1594718,0.6914746,0.100858375,0.1390897,0.6214417,0.20834838,-0.29295096,2.7772793E-4,0.06562073,785.31134,793.7729,799.81683,772.4176,645.09155,-0.16192626953125,0.07470703125,0.98297119140625,4.964599609375,-3.850555419921875,7.469329833984375,1,1.0,1.0,1.0,1.0,10.00
2024-10-11 20:40:42.893,1.1603198,0.32059935,0.47122025,0.9916484,1.1146197,-0.10477165,0.091677465,0.9134084,1.1097909,0.26165852,0.59477663,1.1594718,0.6914746,0.100858375,0.1390897,0.6214417,0.20834838,-0.29295096,2.7772793E-4,0.06562073,783.2967,795.78754,801.02563,776.4469,577.8022,-0.16192626953125,0.07470703125,0.98297119140625,4.964599609375,-3.850555419921875,7.469329833984375,1,1.0,1.0,1.0,1.0,10.00
2024-10-11 20:40:42.894,1.1603198,0.32059935,0.47122025,0.9916484,1.1146197,-0.10477165,0.091677465,0.9134084,1.1097909,0.26165852,0.59477663,1.1594718,0.6914746,0.100858375,0.1390897,0.6214417,0.20834838,-0.29295096,2.7772793E-4,0.06562073,794.17584,805.4579,801.4286,776.8498,632.1978,-0.16192626953125,0.07470703125,0.98297119140625,4.964599609375,-3.850555419921875,7.469329833984375,1,1.0,1.0,1.0,1.0,10.00
2024-10-11 20:40:42.895,1.1603198,0.32059935,0.47122025,0.9916484,1.1146197,-0.10477165,0.091677465,0.9134084,1.1097909,0.26165852,0.59477663,1.1594718,0.6914746,0.100858375,0.1390897,0.6214417,0.20834838,-0.29295096,2.7772793E-4,0.06562073,777.25275,802.6374,800.2198,780.87915,826.0073,-0.16192626953125,0.07470703125,0.98297119140625,4.964599609375,-3.850555419921875,7.469329833984375,1,1.0,1.0,1.0,1.0,10.00
2024-10-11 20:40:42.896,1.1603198,0.32059935,0.47122025,0.9916484,1.1146197,-0.10477165,0.091677465,0.9134084,1.1097909,0.26165852,0.59477663,1.1594718,0.6914746,0.100858375,0.1390897,0.6214417,0.20834838,-0.29295096,2.7772793E-4,0.06562073,769.19415,791.3553,797.8022,783.2967,1000.87915,-0.16192626953125,0.07470703125,0.98297119140625,4.964599609375,-3.850555419921875,7.469329833984375,1,1.0,1.0,1.0,1.0,10.00
2024-10-11 20:40:42.896,1.1603198,0.32059935,0.47122025,0.9916484,1.1146197,-0.10477165,0.091677465,0.9134084,1.1097909,0.26165852,0.59477663,1.1594718,0.6914746,0.100858375,0.1390897,0.6214417,0.20834838,-0.29295096,2.7772793E-4,0.06562073,776.4469,790.54944,793.7729,787.72894,795.78754,-0.16192626953125,0.07470703125,0.98297119140625,4.964599609375,-3.850555419921875,7.469329833984375,1,1.0,1.0,1.0,1.0,10.00
2024-10-11 20:40:42.897,1.1603198,0.32059935,0.47122025,0.9916484,1.1146197,-0.10477165,0.091677465,0.9134084,1.1097909,0.26165852,0.59477663,1.1594718,0.6914746,0.100858375,0.1390897,0.6214417,0.20834838,-0.29295096,2.7772793E-4,0.06562073,776.04395,791.3553,797.3993,800.2198,664.83514,-0.16192626953125,0.07470703125,0.98297119140625,4.964599609375,-3.850555419921875,7.469329833984375,1,1.0,1.0,1.0,1.0,10.00
2024-10-11 20:40:42.898,1.1603198,0.32059935,0.47122025,0.9916484,1.1146197,-0.10477165,0.091677465,0.9134084,1.1097909,0.26165852,0.59477663,1.1594718,0.6914746,0.100858375,0.1390897,0.6214417,0.20834838,-0.29295096,2.7772793E-4,0.06562073,779.2674,788.5348,799.011,807.8755,833.663,-0.16192626953125,0.07470703125,0.98297119140625,4.964599609375,-3.850555419921875,7.469329833984375,1,1.0,1.0,1.0,1.0,10.00
2024-10-11 20:40:42.899,1.1603198,0.32059935,0.47122025,0.9916484,1.1146197,-0.10477165,0.091677465,0.9134084,1.1097909,0.26165852,0.59477663,1.1594718,0.6914746,0.100858375,0.1390897,0.6214417,0.20834838,-0.29295096,2.7772793E-4,0.06562073,780.07324,794.9817,788.93774,797.3993,803.0403,-0.16192626953125,0.07470703125,0.98297119140625,4.964599609375,-3.850555419921875,7.469329833984375,1,1.0,1.0,1.0,1.0,10.00
2024-10-11 20:40:42.899,1.1603198,0.32059935,0.47122025,0.9916484,1.1146197,-0.10477165,0.091677465,0.9134084,1.1097909,0.26165852,0.59477663,1.1594718,0.6914746,0.100858375,0.1390897,0.6214417,0.20834838,-0.29295096,2.7772793E-4,0.06562073,783.69965,793.7729,790.9524,790.14655,616.4835,-0.16192626953125,0.07470703125,0.98297119140625,4.964599609375,-3.850555419921875,7.469329833984375,1,1.0,1.0,1.0,1.0,10.00
2024-10-11 20:40:42.900,1.1603198,0.32059935,0.47122025,0.9916484,1.1146197,-0.10477165,0.091677465,0.9134084,1.1097909,0.26165852,0.59477663,1.1594718,0.6914746,0.100858375,0.1390897,0.6214417,0.20834838,-0.29295096,2.7772793E-4,0.06562073,784.5055,792.5641,801.4286,794.17584,653.95605,-0.16192626953125,0.07470703125,0.98297119140625,4.964599609375,-3.850555419921875,7.469329833984375,1,1.0,1.0,1.0,1.0,10.00
