TimeStamp,Delta_TP9,Delta_AF7,Delta_AF8,Delta_TP10,Theta_TP9,Theta_AF7,Theta_AF8,Theta_TP10,Alpha_TP9,Alpha_AF7,Alpha_AF8,Alpha_TP10,Beta_TP9,Beta_AF7,Beta_AF8,Beta_TP10,Gamma_TP9,Gamma_AF7,Gamma_AF8,Gamma_TP10,RAW_TP9,RAW_AF7,RAW_AF8,RAW_TP10,AUX_RIGHT,Accelerometer_X,Accelerometer_Y,Accelerometer_Z,Gyro_X,Gyro_Y,Gyro_Z,HeadBandOn,HSI_TP9,HSI_AF7,HSI_AF8,HSI_TP10,Battery,Elements
2024-09-29 18:19:47.022,0.64859384,-0.015864508,-0.16728058,0.4731651,0.568035,-0.20517178,-0.059632584,0.640253,1.0368035,0.103316344,0.32221544,0.7671821,0.7149263,-0.12108103,-0.10376661,0.38490158,0.28497484,-0.44767982,-0.27853185,-0.06921796,809.0842,792.96704,785.7143,808.68134,689.011,-0.0784912109375,0.1478271484375,0.99560546875,0.441131591796875,-0.620574951171875,-0.396270751953125,1,1.0,1.0,1.0,1.0,20.00
2024-09-29 18:19:47.024,0.64859384,-0.015864508,-0.16728058,0.4731651,0.568035,-0.20517178,-0.059632584,0.640253,1.0368035,0.103316344,0.32221544,0.7671821,0.7149263,-0.12108103,-0.10376661,0.38490158,0.28497484,-0.44767982,-0.27853185,-0.06921796,815.5311,796.5934,790.14655,811.0989,655.56775,-0.0784912109375,0.1478271484375,0.99560546875,0.441131591796875,-0.620574951171875,-0.396270751953125,1,1.0,1.0,1.0,1.0,20.00
2024-09-29 18:19:47.025,0.64859384,-0.015864508,-0.16728058,0.4731651,0.568035,-0.20517178,-0.059632584,0.640253,1.0368035,0.103316344,0.32221544,0.7671821,0.7149263,-0.12108103,-0.10376661,0.38490158,0.28497484,-0.44767982,-0.27853185,-0.06921796,810.696,798.20514,790.14655,812.71063,794.9817,-0.0784912109375,0.1478271484375,0.99560546875,0.441131591796875,-0.620574951171875,-0.396270751953125,1,1.0,1.0,1.0,1.0,20.00
2024-09-29 18:19:47.026,0.64859384,-0.015864508,-0.16728058,0.4731651,0.568035,-0.20517178,-0.059632584,0.640253,1.0368035,0.103316344,0.32221544,0.7671821,0.7149263,-0.12108103,-0.10376661,0.38490158,0.28497484,-0.44767982,-0.27853185,-0.06921796,815.5311,794.17584,787.326,809.89014,822.7839,-0.0784912109375,0.1478271484375,0.99560546875,0.441131591796875,-0.620574951171875,-0.396270751953125,1,1.0,1.0,1.0,1.0,20.00
2024-09-29 18:19:47.027,0.64859384,-0.015864508,-0.16728058,0.4731651,0.568035,-0.20517178,-0.059632584,0.640253,1.0368035,0.103316344,0.32221544,0.7671821,0.7149263,-0.12108103,-0.10376661,0.38490158,0.28497484,-0.44767982,-0.27853185,-0.06921796,823.9927,794.9817,788.93774,807.0696,686.99634,-0.0784912109375,0.1478271484375,0.99560546875,0.441131591796875,-0.620574951171875,-0.396270751953125,1,1.0,1.0,1.0,1.0,20.00
2024-09-29 18:19:47.029,0.64859384,-0.015864508,-0.16728058,0.4731651,0.568035,-0.20517178,-0.059632584,0.640253,1.0368035,0.103316344,0.32221544,0.7671821,0.7149263,-0.12108103,-0.10376661,0.38490158,0.28497484,-0.44767982,-0.27853185,-0.06921796,808.2784,797.8022,779.67035,801.02563,780.87915,-0.0784912109375,0.1478271484375,0.99560546875,0.441131591796875,-0.620574951171875,-0.396270751953125,1,1.0,1.0,1.0,1.0,20.00
2024-09-29 18:19:47.030,0.64859384,-0.015864508,-0.16728058,0.4731651,0.568035,-0.20517178,-0.059632584,0.640253,1.0368035,0.103316344,0.32221544,0.7671821,0.7149263,-0.12108103,-0.10376661,0.38490158,0.28497484,-0.44767982,-0.27853185,-0.06921796,803.44324,792.96704,775.64105,805.4579,887.6557,-0.0784912109375,0.1478271484375,0.99560546875,0.441131591796875,-0.620574951171875,-0.396270751953125,1,1.0,1.0,1.0,1.0,20.00
2024-09-29 18:19:47.031,0.64859384,-0.015864508,-0.16728058,0.4731651,0.568035,-0.20517178,-0.059632584,0.640253,1.0368035,0.103316344,0.32221544,0.7671821,0.7149263,-0.12108103,-0.10376661,0.38490158,0.28497484,-0.44767982,-0.27853185,-0.06921796,808.68134,791.3553,782.49084,811.50183,917.8755,-0.0784912109375,0.1478271484375,0.99560546875,0.441131591796875,-0.620574951171875,-0.396270751953125,1,1.0,1.0,1.0,1.0,20.00
2024-09-29 18:19:47.032,0.64859384,-0.015864508,-0.16728058,0.4731651,0.568035,-0.20517178,-0.059632584,0.640253,1.0368035,0.103316344,0.32221544,0.7671821,0.7149263,-0.12108103,-0.10376661,0.38490158,0.28497484,-0.44767982,-0.27853185,-0.06921796,808.2784,792.96704,782.49084,808.68134,721.6484,-0.0784912109375,0.1478271484375,0.99560546875,0.441131591796875,-0.620574951171875,-0.396270751953125,1,1.0,1.0,1.0,1.0,20.00
2024-09-29 18:19:47.033,0.64859384,-0.015864508,-0.16728058,0.4731651,0.568035,-0.20517178,-0.059632584,0.640253,1.0368035,0.103316344,0.32221544,0.7671821,0.7149263,-0.12108103,-0.10376661,0.38490158,0.28497484,-0.44767982,-0.27853185,-0.06921796,816.7399,795.38464,785.7143,810.293,518.1685,-0.0784912109375,0.1478271484375,0.99560546875,0.441131591796875,-0.620574951171875,-0.396270751953125,1,1.0,1.0,1.0,1.0,20.00
2024-09-29 18:19:47.034,0.64859384,-0.015864508,-0.16728058,0.4731651,0.568035,-0.20517178,-0.059632584,0.640253,1.0368035,0.103316344,0.32221544,0.7671821,0.7149263,-0.12108103,-0.10376661,0.38490158,0.28497484,-0.44767982,-0.27853185,-0.06921796,821.5751,795.78754,788.1319,814.3223,626.9597,-0.0784912109375,0.1478271484375,0.99560546875,0.441131591796875,-0.620574951171875,-0.396270751953125,1,1.0,1.0,1.0,1.0,20.00
2024-09-29 18:19:47.035,0.64859384,-0.015864508,-0.16728058,0.4731651,0.568035,-0.20517178,-0.059632584,0.640253,1.0368035,0.103316344,0.32221544,0.7671821,0.7149263,-0.12108103,-0.10376661,0.38490158,0.28497484,-0.44767982,-0.27853185,-0.06921796,823.9927,794.9817,778.86444,812.71063,880.0,-0.0784912109375,0.1478271484375,0.99560546875,0.441131591796875,-0.620574951171875,-0.396270751953125,1,1.0,1.0,1.0,1.0,20.00
2024-09-29 18:19:47.121,0.64859384,-0.015864508,-0.16728058,0.4731651,0.568035,-0.20517178,-0.059632584,0.640253,1.0368035,0.103316344,0.32221544,0.7671821,0.7149263,-0.12108103,-0.10376661,0.38490158,0.28497484,-0.44767982,-0.27853185,-0.06921796,820.3663,792.1612,776.4469,810.696,800.6227,-0.07916259765625,0.14398193359375,0.99212646484375,0.43365478515625,-0.8074951171875,-1.084136962890625,1,1.0,1.0,1.0,1.0,20.00
2024-09-29 18:19:47.122,0.6723881,0.16633089,-0.104589134,0.49939796,0.5799345,-0.10205292,-1.2580586E-4,0.65031123,1.0368035,0.21443821,0.3241027,0.7671821,0.718964,-0.11323219,-0.115479894,0.39855614,0.2736413,-0.4473538,-0.2813604,-0.08221286,811.9048,794.57874,779.2674,813.91943,538.71796,-0.07916259765625,0.14398193359375,0.99212646484375,0.43365478515625,-0.8074951171875,-1.084136962890625,1,1.0,1.0,1.0,1.0,20.00
2024-09-29 18:19:47.128,0.6723881,0.16633089,-0.104589134,0.49939796,0.5799345,-0.10205292,-1.2580586E-4,0.65031123,1.0368035,0.21443821,0.3241027,0.7671821,0.718964,-0.11323219,-0.115479894,0.39855614,0.2736413,-0.4473538,-0.2813604,-0.08221286,810.293,794.17584,780.4762,814.3223,606.4103,-0.07916259765625,0.14398193359375,0.99212646484375,0.43365478515625,-0.8074951171875,-1.084136962890625,1,1.0,1.0,1.0,1.0,20.00
2024-09-29 18:19:47.129,0.6723881,0.16633089,-0.104589134,0.49939796,0.5799345,-0.10205292,-1.2580586E-4,0.65031123,1.0368035,0.21443821,0.3241027,0.7671821,0.718964,-0.11323219,-0.115479894,0.39855614,0.2736413,-0.4473538,-0.2813604,-0.08221286,808.68134,788.93774,784.5055,824.3956,1110.8792,-0.07916259765625,0.14398193359375,0.99212646484375,0.43365478515625,-0.8074951171875,-1.084136962890625,1,1.0,1.0,1.0,1.0,20.00
2024-09-29 18:19:47.130,0.6723881,0.16633089,-0.104589134,0.49939796,0.5799345,-0.10205292,-1.2580586E-4,0.65031123,1.0368035,0.21443821,0.3241027,0.7671821,0.718964,-0.11323219,-0.115479894,0.39855614,0.2736413,-0.4473538,-0.2813604,-0.08221286,803.44324,793.7729,788.5348,825.2015,1138.2784,-0.07916259765625,0.14398193359375,0.99212646484375,0.43365478515625,-0.8074951171875,-1.084136962890625,1,1.0,1.0,1.0,1.0,20.00
2024-09-29 18:19:47.131,0.6723881,0.16633089,-0.104589134,0.49939796,0.5799345,-0.10205292,-1.2580586E-4,0.65031123,1.0368035,0.21443821,0.3241027,0.7671821,0.718964,-0.11323219,-0.115479894,0.39855614,0.2736413,-0.4473538,-0.2813604,-0.08221286,802.23444,790.54944,786.1172,806.6667,713.1868,-0.07916259765625,0.14398193359375,0.99212646484375,0.43365478515625,-0.8074951171875,-1.084136962890625,1,1.0,1.0,1.0,1.0,20.00
2024-09-29 18:19:47.132,0.6723881,0.16633089,-0.104589134,0.49939796,0.5799345,-0.10205292,-1.2580586E-4,0.65031123,1.0368035,0.21443821,0.3241027,0.7671821,0.718964,-0.11323219,-0.115479894,0.39855614,0.2736413,-0.4473538,-0.2813604,-0.08221286,805.05493,784.90845,780.87915,807.0696,778.86444,-0.07916259765625,0.14398193359375,0.99212646484375,0.43365478515625,-0.8074951171875,-1.084136962890625,1,1.0,1.0,1.0,1.0,20.00
2024-09-29 18:19:47.133,0.6723881,0.16633089,-0.104589134,0.49939796,0.5799345,-0.10205292,-1.2580586E-4,0.65031123,1.0368035,0.21443821,0.3241027,0.7671821,0.718964,-0.11323219,-0.115479894,0.39855614,0.2736413,-0.4473538,-0.2813604,-0.08221286,807.47253,786.9231,782.49084,821.5751,1138.2784,-0.07916259765625,0.14398193359375,0.99212646484375,0.43365478515625,-0.8074951171875,-1.084136962890625,1,1.0,1.0,1.0,1.0,20.00
2024-09-29 18:19:47.133,0.6723881,0.16633089,-0.104589134,0.49939796,0.5799345,-0.10205292,-1.2580586E-4,0.65031123,1.0368035,0.21443821,0.3241027,0.7671821,0.718964,-0.11323219,-0.115479894,0.39855614,0.2736413,-0.4473538,-0.2813604,-0.08221286,807.47253,793.36993,780.07324,814.7253,923.91943,-0.07916259765625,0.14398193359375,0.99212646484375,0.43365478515625,-0.8074951171875,-1.084136962890625,1,1.0,1.0,1.0,1.0,20.00
2024-09-29 18:19:47.134,0.6723881,0.16633089,-0.104589134,0.49939796,0.5799345,-0.10205292,-1.2580586E-4,0.65031123,1.0368035,0.21443821,0.3241027,0.7671821,0.718964,-0.11323219,-0.115479894,0.39855614,0.2736413,-0.4473538,-0.2813604,-0.08221286,815.9341,800.2198,773.22345,808.2784,570.14655,-0.07916259765625,0.14398193359375,0.99212646484375,0.43365478515625,-0.8074951171875,-1.084136962890625,1,1.0,1.0,1.0,1.0,20.00
2024-09-29 18:19:47.135,0.6723881,0.16633089,-0.104589134,0.49939796,0.5799345,-0.10205292,-1.2580586E-4,0.65031123,1.0368035,0.21443821,0.3241027,0.7671821,0.718964,-0.11323219,-0.115479894,0.39855614,0.2736413,-0.4473538,-0.2813604,-0.08221286,826.0073,796.5934,778.0586,819.9634,572.1612,-0.07916259765625,0.14398193359375,0.99212646484375,0.43365478515625,-0.8074951171875,-1.084136962890625,1,1.0,1.0,1.0,1.0,20.00
2024-09-29 18:19:47.136,0.6723881,0.16633089,-0.104589134,0.49939796,0.5799345,-0.10205292,-1.2580586E-4,0.65031123,1.0368035,0.21443821,0.3241027,0.7671821,0.718964,-0.11323219,-0.115479894,0.39855614,0.2736413,-0.4473538,-0.2813604,-0.08221286,822.381,792.96704,782.8938,825.2015,757.9121,-0.07916259765625,0.14398193359375,0.99212646484375,0.43365478515625,-0.8074951171875,-1.084136962890625,1,1.0,1.0,1.0,1.0,20.00
2024-09-29 18:19:47.172,0.6723881,0.16633089,-0.104589134,0.49939796,0.5799345,-0.10205292,-1.2580586E-4,0.65031123,1.0368035,0.21443821,0.3241027,0.7671821,0.718964,-0.11323219,-0.115479894,0.39855614,0.2736413,-0.4473538,-0.2813604,-0.08221286,823.5897,794.9817,780.07324,820.3663,859.0476,-0.07916259765625,0.14398193359375,0.99212646484375,0.43365478515625,-0.8074951171875,-1.084136962890625,1,1.0,1.0,1.0,1.0,20.00
2024-09-29 18:19:47.172,0.6723881,0.16633089,-0.104589134,0.49939796,0.5799345,-0.10205292,-1.2580586E-4,0.65031123,1.0368035,0.21443821,0.3241027,0.7671821,0.718964,-0.11323219,-0.115479894,0.39855614,0.2736413,-0.4473538,-0.2813604,-0.08221286,829.6337,795.78754,779.2674,817.9487,794.17584,-0.07916259765625,0.14398193359375,0.99212646484375,0.43365478515625,-0.8074951171875,-1.084136962890625,1,1.0,1.0,1.0,1.0,20.00
2024-09-29 18:19:47.173,0.6723881,0.16633089,-0.104589134,0.49939796,0.5799345,-0.10205292,-1.2580586E-4,0.65031123,1.0368035,0.21443821,0.3241027,0.7671821,0.718964,-0.11323219,-0.115479894,0.39855614,0.2736413,-0.4473538,-0.2813604,-0.08221286,824.7985,796.5934,772.01465,813.91943,902.1612,-0.07916259765625,0.14398193359375,0.99212646484375,0.43365478515625,-0.8074951171875,-1.084136962890625,1,1.0,1.0,1.0,1.0,20.00
2024-09-29 18:19:47.174,0.6723881,0.16633089,-0.104589134,0.49939796,0.5799345,-0.10205292,-1.2580586E-4,0.65031123,1.0368035,0.21443821,0.3241027,0.7671821,0.718964,-0.11323219,-0.115479894,0.39855614,0.2736413,-0.4473538,-0.2813604,-0.08221286,816.337,794.57874,769.19415,817.9487,950.9158,-0.07916259765625,0.14398193359375,0.99212646484375,0.43365478515625,-0.8074951171875,-1.084136962890625,1,1.0,1.0,1.0,1.0,20.00
2024-09-29 18:19:47.175,0.6723881,0.16633089,-0.104589134,0.49939796,0.5799345,-0.10205292,-1.2580586E-4,0.65031123,1.0368035,0.21443821,0.3241027,0.7671821,0.718964,-0.11323219,-0.115479894,0.39855614,0.2736413,-0.4473538,-0.2813604,-0.08221286,817.5458,795.78754,772.8205,826.4103,888.86444,-0.07916259765625,0.14398193359375,0.99212646484375,0.43365478515625,-0.8074951171875,-1.084136962890625,1,1.0,1.0,1.0,1.0,20.00
2024-09-29 18:19:47.176,0.6723881,0.16633089,-0.104589134,0.49939796,0.5799345,-0.10205292,-1.2580586E-4,0.65031123,1.0368035,0.21443821,0.3241027,0.7671821,0.718964,-0.11323219,-0.115479894,0.39855614,0.2736413,-0.4473538,-0.2813604,-0.08221286,826.4103,792.96704,776.04395,825.2015,965.42126,-0.07916259765625,0.14398193359375,0.99212646484375,0.43365478515625,-0.8074951171875,-1.084136962890625,1,1.0,1.0,1.0,1.0,20.00
2024-09-29 18:19:47.177,0.6723881,0.16633089,-0.104589134,0.49939796,0.5799345,-0.10205292,-1.2580586E-4,0.65031123,1.0368035,0.21443821,0.3241027,0.7671821,0.718964,-0.11323219,-0.115479894,0.39855614,0.2736413,-0.4473538,-0.2813604,-0.08221286,829.2308,797.3993,772.01465,824.7985,1150.7693,-0.07916259765625,0.14398193359375,0.99212646484375,0.43365478515625,-0.8074951171875,-1.084136962890625,1,1.0,1.0,1.0,1.0,20.00
2024-09-29 18:19:47.178,0.6723881,0.16633089,-0.104589134,0.49939796,0.5799345,-0.10205292,-1.2580586E-4,0.65031123,1.0368035,0.21443821,0.3241027,0.7671821,0.718964,-0.11323219,-0.115479894,0.39855614,0.2736413,-0.4473538,-0.2813604,-0.08221286,831.2454,804.65204,769.59705,829.6337,1343.773,-0.07916259765625,0.14398193359375,0.99212646484375,0.43365478515625,-0.8074951171875,-1.084136962890625,1,1.0,1.0,1.0,1.0,20.00
2024-09-29 18:19:47.179,0.6723881,0.16633089,-0.104589134,0.49939796,0.5799345,-0.10205292,-1.2580586E-4,0.65031123,1.0368035,0.21443821,0.3241027,0.7671821,0.718964,-0.11323219,-0.115479894,0.39855614,0.2736413,-0.4473538,-0.2813604,-0.08221286,832.0513,803.8461,776.8498,826.8132,958.5714,-0.07916259765625,0.14398193359375,0.99212646484375,0.43365478515625,-0.8074951171875,-1.084136962890625,1,1.0,1.0,1.0,1.0,20.00
2024-09-29 18:19:47.180,0.6723881,0.16633089,-0.104589134,0.49939796,0.5799345,-0.10205292,-1.2580586E-4,0.65031123,1.0368035,0.21443821,0.3241027,0.7671821,0.718964,-0.11323219,-0.115479894,0.39855614,0.2736413,-0.4473538,-0.2813604,-0.08221286,835.2747,801.8315,780.87915,825.2015,715.2015,-0.07916259765625,0.14398193359375,0.99212646484375,0.43365478515625,-0.8074951171875,-1.084136962890625,1,1.0,1.0,1.0,1.0,20.00
2024-09-29 18:19:47.180,0.6723881,0.16633089,-0.104589134,0.49939796,0.5799345,-0.10205292,-1.2580586E-4,0.65031123,1.0368035,0.21443821,0.3241027,0.7671821,0.718964,-0.11323219,-0.115479894,0.39855614,0.2736413,-0.4473538,-0.2813604,-0.08221286,833.663,800.2198,779.67035,822.381,738.97437,-0.07916259765625,0.14398193359375,0.99212646484375,0.43365478515625,-0.8074951171875,-1.084136962890625,1,1.0,1.0,1.0,1.0,20.00
2024-09-29 18:19:47.181,0.6723881,0.16633089,-0.104589134,0.49939796,0.5799345,-0.10205292,-1.2580586E-4,0.65031123,1.0368035,0.21443821,0.3241027,0.7671821,0.718964,-0.11323219,-0.115479894,0.39855614,0.2736413,-0.4473538,-0.2813604,-0.08221286,826.0073,798.20514,776.04395,813.1135,671.28204,-0.07916259765625,0.14398193359375,0.99212646484375,0.43365478515625,-0.8074951171875,-1.084136962890625,1,1.0,1.0,1.0,1.0,20.00
2024-09-29 18:19:47.182,0.6723881,0.16633089,-0.104589134,0.49939796,0.5799345,-0.10205292,-1.2580586E-4,0.65031123,1.0368035,0.21443821,0.3241027,0.7671821,0.718964,-0.11323219,-0.115479894,0.39855614,0.2736413,-0.4473538,-0.2813604,-0.08221286,829.6337,794.57874,776.4469,820.7692,699.89014,-0.0830078125,0.14453125,0.99932861328125,0.73272705078125,-0.456085205078125,-1.114044189453125,1,1.0,1.0,1.0,1.0,20.00
2024-09-29 18:19:47.183,0.6723881,0.16633089,-0.104589134,0.49939796,0.5799345,-0.10205292,-1.2580586E-4,0.65031123,1.0368035,0.21443821,0.3241027,0.7671821,0.718964,-0.11323219,-0.115479894,0.39855614,0.2736413,-0.4473538,-0.2813604,-0.08221286,829.2308,792.5641,776.4469,825.6044,730.5128,-0.0830078125,0.14453125,0.99932861328125,0.73272705078125,-0.456085205078125,-1.114044189453125,1,1.0,1.0,1.0,1.0,20.00
2024-09-29 18:19:47.184,0.6723881,0.16633089,-0.104589134,0.49939796,0.5799345,-0.10205292,-1.2580586E-4,0.65031123,1.0368035,0.21443821,0.3241027,0.7671821,0.718964,-0.11323219,-0.115479894,0.39855614,0.2736413,-0.4473538,-0.2813604,-0.08221286,822.381,792.5641,774.43225,812.3077,722.8571,-0.0830078125,0.14453125,0.99932861328125,0.73272705078125,-0.456085205078125,-1.114044189453125,1,1.0,1.0,1.0,1.0,20.00
2024-09-29 18:19:47.185,0.69538754,0.30165285,-0.049406867,0.51062346,0.5933415,-0.020127602,0.04473466,0.6503716,1.02938,0.23905434,0.3294049,0.75479895,0.7166125,-0.109391995,-0.13192786,0.40580788,0.26084703,-0.44409212,-0.28999084,-0.08077444,818.7546,793.7729,774.43225,803.0403,687.8022,-0.0830078125,0.14453125,0.99932861328125,0.73272705078125,-0.456085205078125,-1.114044189453125,1,1.0,1.0,1.0,1.0,20.00
2024-09-29 18:19:47.189,0.69538754,0.30165285,-0.049406867,0.51062346,0.5933415,-0.020127602,0.04473466,0.6503716,1.02938,0.23905434,0.3294049,0.75479895,0.7166125,-0.109391995,-0.13192786,0.40580788,0.26084703,-0.44409212,-0.28999084,-0.08077444,814.3223,794.9817,776.04395,800.2198,695.8608,-0.0830078125,0.14453125,0.99932861328125,0.73272705078125,-0.456085205078125,-1.114044189453125,1,1.0,1.0,1.0,1.0,20.00
2024-09-29 18:19:47.190,0.69538754,0.30165285,-0.049406867,0.51062346,0.5933415,-0.020127602,0.04473466,0.6503716,1.02938,0.23905434,0.3294049,0.75479895,0.7166125,-0.109391995,-0.13192786,0.40580788,0.26084703,-0.44409212,-0.28999084,-0.08077444,818.3516,792.96704,773.6264,804.2491,722.4542,-0.0830078125,0.14453125,0.99932861328125,0.73272705078125,-0.456085205078125,-1.114044189453125,1,1.0,1.0,1.0,1.0,20.00
2024-09-29 18:19:47.191,0.69538754,0.30165285,-0.049406867,0.51062346,0.5933415,-0.020127602,0.04473466,0.6503716,1.02938,0.23905434,0.3294049,0.75479895,0.7166125,-0.109391995,-0.13192786,0.40580788,0.26084703,-0.44409212,-0.28999084,-0.08077444,819.5604,794.17584,776.4469,811.9048,763.1502,-0.0830078125,0.14453125,0.99932861328125,0.73272705078125,-0.456085205078125,-1.114044189453125,1,1.0,1.0,1.0,1.0,20.00
2024-09-29 18:19:47.192,0.69538754,0.30165285,-0.049406867,0.51062346,0.5933415,-0.020127602,0.04473466,0.6503716,1.02938,0.23905434,0.3294049,0.75479895,0.7166125,-0.109391995,-0.13192786,0.40580788,0.26084703,-0.44409212,-0.28999084,-0.08077444,805.8608,792.1612,776.8498,803.44324,722.8571,-0.0830078125,0.14453125,0.99932861328125,0.73272705078125,-0.456085205078125,-1.114044189453125,1,1.0,1.0,1.0,1.0,20.00
2024-09-29 18:19:47.193,0.69538754,0.30165285,-0.049406867,0.51062346,0.5933415,-0.020127602,0.04473466,0.6503716,1.02938,0.23905434,0.3294049,0.75479895,0.7166125,-0.109391995,-0.13192786,0.40580788,0.26084703,-0.44409212,-0.28999084,-0.08077444,809.0842,790.14655,776.4469,804.65204,653.95605,-0.0830078125,0.14453125,0.99932861328125,0.73272705078125,-0.456085205078125,-1.114044189453125,1,1.0,1.0,1.0,1.0,20.00
2024-09-29 18:19:47.194,0.69538754,0.30165285,-0.049406867,0.51062346,0.5933415,-0.020127602,0.04473466,0.6503716,1.02938,0.23905434,0.3294049,0.75479895,0.7166125,-0.109391995,-0.13192786,0.40580788,0.26084703,-0.44409212,-0.28999084,-0.08077444,823.5897,794.57874,779.2674,819.15753,773.22345,-0.0830078125,0.14453125,0.99932861328125,0.73272705078125,-0.456085205078125,-1.114044189453125,1,1.0,1.0,1.0,1.0,20.00
2024-09-29 18:19:47.195,0.69538754,0.30165285,-0.049406867,0.51062346,0.5933415,-0.020127602,0.04473466,0.6503716,1.02938,0.23905434,0.3294049,0.75479895,0.7166125,-0.109391995,-0.13192786,0.40580788,0.26084703,-0.44409212,-0.28999084,-0.08077444,828.8278,794.17584,779.2674,817.5458,793.7729,-0.0830078125,0.14453125,0.99932861328125,0.73272705078125,-0.456085205078125,-1.114044189453125,1,1.0,1.0,1.0,1.0,20.00
2024-09-29 18:19:47.196,0.69538754,0.30165285,-0.049406867,0.51062346,0.5933415,-0.020127602,0.04473466,0.6503716,1.02938,0.23905434,0.3294049,0.75479895,0.7166125,-0.109391995,-0.13192786,0.40580788,0.26084703,-0.44409212,-0.28999084,-0.08077444,824.3956,795.78754,779.2674,808.2784,620.5128,-0.0830078125,0.14453125,0.99932861328125,0.73272705078125,-0.456085205078125,-1.114044189453125,1,1.0,1.0,1.0,1.0,20.00
2024-09-29 18:19:47.230,0.69538754,0.30165285,-0.049406867,0.51062346,0.5933415,-0.020127602,0.04473466,0.6503716,1.02938,0.23905434,0.3294049,0.75479895,0.7166125,-0.109391995,-0.13192786,0.40580788,0.26084703,-0.44409212,-0.28999084,-0.08077444,815.12823,798.20514,780.07324,805.4579,623.3333,-0.0816650390625,0.1536865234375,1.00048828125,1.547698974609375,-0.88226318359375,0.5682373046875,1,1.0,1.0,1.0,1.0,20.00
2024-09-29 18:19:47.232,0.69538754,0.30165285,-0.049406867,0.51062346,0.5933415,-0.020127602,0.04473466,0.6503716,1.02938,0.23905434,0.3294049,0.75479895,0.7166125,-0.109391995,-0.13192786,0.40580788,0.26084703,-0.44409212,-0.28999084,-0.08077444,816.337,795.38464,780.87915,810.293,744.21246,-0.0816650390625,0.1536865234375,1.00048828125,1.547698974609375,-0.88226318359375,0.5682373046875,1,1.0,1.0,1.0,1.0,20.00
2024-09-29 18:19:47.233,0.69538754,0.30165285,-0.049406867,0.51062346,0.5933415,-0.020127602,0.04473466,0.6503716,1.02938,0.23905434,0.3294049,0.75479895,0.7166125,-0.109391995,-0.13192786,0.40580788,0.26084703,-0.44409212,-0.28999084,-0.08077444,811.50183,791.75824,780.07324,810.696,788.5348,-0.0816650390625,0.1536865234375,1.00048828125,1.547698974609375,-0.88226318359375,0.5682373046875,1,1.0,1.0,1.0,1.0,20.00
2024-09-29 18:19:47.235,0.69538754,0.30165285,-0.049406867,0.51062346,0.5933415,-0.020127602,0.04473466,0.6503716,1.02938,0.23905434,0.3294049,0.75479895,0.7166125,-0.109391995,-0.13192786,0.40580788,0.26084703,-0.44409212,-0.28999084,-0.08077444,790.14655,792.5641,778.46155,805.4579,669.67035,-0.0816650390625,0.1536865234375,1.00048828125,1.547698974609375,-0.88226318359375,0.5682373046875,1,1.0,1.0,1.0,1.0,20.00
2024-09-29 18:19:47.236,0.69538754,0.30165285,-0.049406867,0.51062346,0.5933415,-0.020127602,0.04473466,0.6503716,1.02938,0.23905434,0.3294049,0.75479895,0.7166125,-0.109391995,-0.13192786,0.40580788,0.26084703,-0.44409212,-0.28999084,-0.08077444,782.8938,791.75824,771.2088,796.5934,637.03296,-0.0816650390625,0.1536865234375,1.00048828125,1.547698974609375,-0.88226318359375,0.5682373046875,1,1.0,1.0,1.0,1.0,20.00
2024-09-29 18:19:47.237,0.69538754,0.30165285,-0.049406867,0.51062346,0.5933415,-0.020127602,0.04473466,0.6503716,1.02938,0.23905434,0.3294049,0.75479895,0.7166125,-0.109391995,-0.13192786,0.40580788,0.26084703,-0.44409212,-0.28999084,-0.08077444,799.81683,789.7436,770.0,805.05493,986.77655,-0.0816650390625,0.1536865234375,1.00048828125,1.547698974609375,-0.88226318359375,0.5682373046875,1,1.0,1.0,1.0,1.0,20.00
2024-09-29 18:19:47.237,0.69538754,0.30165285,-0.049406867,0.51062346,0.5933415,-0.020127602,0.04473466,0.6503716,1.02938,0.23905434,0.3294049,0.75479895,0.7166125,-0.109391995,-0.13192786,0.40580788,0.26084703,-0.44409212,-0.28999084,-0.08077444,809.4872,792.5641,778.46155,811.9048,1093.956,-0.0816650390625,0.1536865234375,1.00048828125,1.547698974609375,-0.88226318359375,0.5682373046875,1,1.0,1.0,1.0,1.0,20.00
2024-09-29 18:19:47.238,0.69538754,0.30165285,-0.049406867,0.51062346,0.5933415,-0.020127602,0.04473466,0.6503716,1.02938,0.23905434,0.3294049,0.75479895,0.7166125,-0.109391995,-0.13192786,0.40580788,0.26084703,-0.44409212,-0.28999084,-0.08077444,802.23444,792.5641,782.0879,794.57874,721.6484,-0.0816650390625,0.1536865234375,1.00048828125,1.547698974609375,-0.88226318359375,0.5682373046875,1,1.0,1.0,1.0,1.0,20.00
2024-09-29 18:19:47.239,0.69538754,0.30165285,-0.049406867,0.51062346,0.5933415,-0.020127602,0.04473466,0.6503716,1.02938,0.23905434,0.3294049,0.75479895,0.7166125,-0.109391995,-0.13192786,0.40580788,0.26084703,-0.44409212,-0.28999084,-0.08077444,805.05493,788.5348,777.25275,793.36993,756.30035,-0.0816650390625,0.1536865234375,1.00048828125,1.547698974609375,-0.88226318359375,0.5682373046875,1,1.0,1.0,1.0,1.0,20.00
2024-09-29 18:19:47.240,0.69538754,0.30165285,-0.049406867,0.51062346,0.5933415,-0.020127602,0.04473466,0.6503716,1.02938,0.23905434,0.3294049,0.75479895,0.7166125,-0.109391995,-0.13192786,0.40580788,0.26084703,-0.44409212,-0.28999084,-0.08077444,815.9341,790.14655,775.2381,811.0989,947.6923,-0.0816650390625,0.1536865234375,1.00048828125,1.547698974609375,-0.88226318359375,0.5682373046875,1,1.0,1.0,1.0,1.0,20.00
2024-09-29 18:19:47.240,0.69538754,0.30165285,-0.049406867,0.51062346,0.5933415,-0.020127602,0.04473466,0.6503716,1.02938,0.23905434,0.3294049,0.75479895,0.7166125,-0.109391995,-0.13192786,0.40580788,0.26084703,-0.44409212,-0.28999084,-0.08077444,821.978,796.1905,778.46155,818.7546,776.4469,-0.0816650390625,0.1536865234375,1.00048828125,1.547698974609375,-0.88226318359375,0.5682373046875,1,1.0,1.0,1.0,1.0,20.00
2024-09-29 18:19:47.241,0.69538754,0.30165285,-0.049406867,0.51062346,0.5933415,-0.020127602,0.04473466,0.6503716,1.02938,0.23905434,0.3294049,0.75479895,0.7166125,-0.109391995,-0.13192786,0.40580788,0.26084703,-0.44409212,-0.28999084,-0.08077444,817.5458,794.17584,781.685,810.696,612.8571,-0.0816650390625,0.1536865234375,1.00048828125,1.547698974609375,-0.88226318359375,0.5682373046875,1,1.0,1.0,1.0,1.0,20.00
2024-09-29 18:19:47.282,0.69538754,0.30165285,-0.049406867,0.51062346,0.5933415,-0.020127602,0.04473466,0.6503716,1.02938,0.23905434,0.3294049,0.75479895,0.7166125,-0.109391995,-0.13192786,0.40580788,0.26084703,-0.44409212,-0.28999084,-0.08077444,809.4872,788.93774,784.10254,810.696,591.0989,-0.0819091796875,0.15460205078125,0.98968505859375,1.323394775390625,-1.188812255859375,1.428070068359375,1,1.0,1.0,1.0,1.0,20.00
2024-09-29 18:19:47.283,0.69538754,0.30165285,-0.049406867,0.51062346,0.5933415,-0.020127602,0.04473466,0.6503716,1.02938,0.23905434,0.3294049,0.75479895,0.7166125,-0.109391995,-0.13192786,0.40580788,0.26084703,-0.44409212,-0.28999084,-0.08077444,812.3077,783.69965,778.86444,817.9487,724.0659,-0.0819091796875,0.15460205078125,0.98968505859375,1.323394775390625,-1.188812255859375,1.428070068359375,1,1.0,1.0,1.0,1.0,20.00
2024-09-29 18:19:47.283,0.69538754,0.30165285,-0.049406867,0.51062346,0.5933415,-0.020127602,0.04473466,0.6503716,1.02938,0.23905434,0.3294049,0.75479895,0.7166125,-0.109391995,-0.13192786,0.40580788,0.26084703,-0.44409212,-0.28999084,-0.08077444,817.9487,780.87915,775.64105,818.3516,780.07324,-0.0819091796875,0.15460205078125,0.98968505859375,1.323394775390625,-1.188812255859375,1.428070068359375,1,1.0,1.0,1.0,1.0,20.00
2024-09-29 18:19:47.284,0.69538754,0.30165285,-0.049406867,0.51062346,0.5933415,-0.020127602,0.04473466,0.6503716,1.02938,0.23905434,0.3294049,0.75479895,0.7166125,-0.109391995,-0.13192786,0.40580788,0.26084703,-0.44409212,-0.28999084,-0.08077444,828.8278,784.10254,772.8205,821.978,713.5897,-0.0819091796875,0.15460205078125,0.98968505859375,1.323394775390625,-1.188812255859375,1.428070068359375,1,1.0,1.0,1.0,1.0,20.00
2024-09-29 18:19:47.284,0.69538754,0.30165285,-0.049406867,0.51062346,0.5933415,-0.020127602,0.04473466,0.6503716,1.02938,0.23905434,0.3294049,0.75479895,0.7166125,-0.109391995,-0.13192786,0.40580788,0.26084703,-0.44409212,-0.28999084,-0.08077444,840.10986,788.1319,770.40295,827.619,701.0989,-0.0819091796875,0.15460205078125,0.98968505859375,1.323394775390625,-1.188812255859375,1.428070068359375,1,1.0,1.0,1.0,1.0,20.00
2024-09-29 18:19:47.285,0.711231,0.38842845,-0.0212754,0.50540566,0.6132151,0.027506784,0.07022752,0.64145994,1.01424,0.23905434,0.3255954,0.73459715,0.70769763,-0.1091214,-0.1517659,0.4058662,0.2571202,-0.44066325,-0.30203822,-0.06269943,836.4835,790.14655,779.2674,830.4396,870.7326,-0.0819091796875,0.15460205078125,0.98968505859375,1.323394775390625,-1.188812255859375,1.428070068359375,1,1.0,1.0,1.0,1.0,20.00
2024-09-29 18:19:47.289,0.711231,0.38842845,-0.0212754,0.50540566,0.6132151,0.027506784,0.07022752,0.64145994,1.01424,0.23905434,0.3255954,0.73459715,0.70769763,-0.1091214,-0.1517659,0.4058662,0.2571202,-0.44066325,-0.30203822,-0.06269943,829.6337,789.7436,782.0879,824.7985,1100.403,-0.0819091796875,0.15460205078125,0.98968505859375,1.323394775390625,-1.188812255859375,1.428070068359375,1,1.0,1.0,1.0,1.0,20.00
2024-09-29 18:19:47.289,0.711231,0.38842845,-0.0212754,0.50540566,0.6132151,0.027506784,0.07022752,0.64145994,1.01424,0.23905434,0.3255954,0.73459715,0.70769763,-0.1091214,-0.1517659,0.4058662,0.2571202,-0.44066325,-0.30203822,-0.06269943,825.2015,785.7143,778.86444,819.9634,1033.5165,-0.0819091796875,0.15460205078125,0.98968505859375,1.323394775390625,-1.188812255859375,1.428070068359375,1,1.0,1.0,1.0,1.0,20.00
2024-09-29 18:19:47.290,0.711231,0.38842845,-0.0212754,0.50540566,0.6132151,0.027506784,0.07022752,0.64145994,1.01424,0.23905434,0.3255954,0.73459715,0.70769763,-0.1091214,-0.1517659,0.4058662,0.2571202,-0.44066325,-0.30203822,-0.06269943,825.6044,782.8938,780.07324,825.6044,805.05493,-0.0819091796875,0.15460205078125,0.98968505859375,1.323394775390625,-1.188812255859375,1.428070068359375,1,1.0,1.0,1.0,1.0,20.00
2024-09-29 18:19:47.290,0.711231,0.38842845,-0.0212754,0.50540566,0.6132151,0.027506784,0.07022752,0.64145994,1.01424,0.23905434,0.3255954,0.73459715,0.70769763,-0.1091214,-0.1517659,0.4058662,0.2571202,-0.44066325,-0.30203822,-0.06269943,830.84247,792.5641,774.0293,829.2308,812.3077,-0.0819091796875,0.15460205078125,0.98968505859375,1.323394775390625,-1.188812255859375,1.428070068359375,1,1.0,1.0,1.0,1.0,20.00
2024-09-29 18:19:47.291,0.711231,0.38842845,-0.0212754,0.50540566,0.6132151,0.027506784,0.07022752,0.64145994,1.01424,0.23905434,0.3255954,0.73459715,0.70769763,-0.1091214,-0.1517659,0.4058662,0.2571202,-0.44066325,-0.30203822,-0.06269943,835.2747,792.1612,774.83514,832.0513,818.7546,-0.0819091796875,0.15460205078125,0.98968505859375,1.323394775390625,-1.188812255859375,1.428070068359375,1,1.0,1.0,1.0,1.0,20.00
2024-09-29 18:19:47.291,0.711231,0.38842845,-0.0212754,0.50540566,0.6132151,0.027506784,0.07022752,0.64145994,1.01424,0.23905434,0.3255954,0.73459715,0.70769763,-0.1091214,-0.1517659,0.4058662,0.2571202,-0.44066325,-0.30203822,-0.06269943,824.7985,782.49084,777.6557,824.7985,906.5934,-0.0819091796875,0.15460205078125,0.98968505859375,1.323394775390625,-1.188812255859375,1.428070068359375,1,1.0,1.0,1.0,1.0,20.00
2024-09-29 18:19:47.292,0.711231,0.38842845,-0.0212754,0.50540566,0.6132151,0.027506784,0.07022752,0.64145994,1.01424,0.23905434,0.3255954,0.73459715,0.70769763,-0.1091214,-0.1517659,0.4058662,0.2571202,-0.44066325,-0.30203822,-0.06269943,815.5311,781.685,776.04395,814.3223,796.1905,-0.0819091796875,0.15631103515625,0.99407958984375,0.55328369140625,-1.42059326171875,0.366363525390625,1,1.0,1.0,1.0,1.0,20.00
2024-09-29 18:19:47.292,0.711231,0.38842845,-0.0212754,0.50540566,0.6132151,0.027506784,0.07022752,0.64145994,1.01424,0.23905434,0.3255954,0.73459715,0.70769763,-0.1091214,-0.1517659,0.4058662,0.2571202,-0.44066325,-0.30203822,-0.06269943,825.2015,786.52014,780.87915,826.0073,715.2015,-0.0819091796875,0.15631103515625,0.99407958984375,0.55328369140625,-1.42059326171875,0.366363525390625,1,1.0,1.0,1.0,1.0,20.00
2024-09-29 18:19:47.293,0.711231,0.38842845,-0.0212754,0.50540566,0.6132151,0.027506784,0.07022752,0.64145994,1.01424,0.23905434,0.3255954,0.73459715,0.70769763,-0.1091214,-0.1517659,0.4058662,0.2571202,-0.44066325,-0.30203822,-0.06269943,824.3956,787.72894,784.5055,836.08057,729.707,-0.0819091796875,0.15631103515625,0.99407958984375,0.55328369140625,-1.42059326171875,0.366363525390625,1,1.0,1.0,1.0,1.0,20.00
2024-09-29 18:19:47.293,0.711231,0.38842845,-0.0212754,0.50540566,0.6132151,0.027506784,0.07022752,0.64145994,1.01424,0.23905434,0.3255954,0.73459715,0.70769763,-0.1091214,-0.1517659,0.4058662,0.2571202,-0.44066325,-0.30203822,-0.06269943,807.47253,786.52014,777.6557,831.2454,749.45056,-0.0819091796875,0.15631103515625,0.99407958984375,0.55328369140625,-1.42059326171875,0.366363525390625,1,1.0,1.0,1.0,1.0,20.00
2024-09-29 18:19:47.293,0.711231,0.38842845,-0.0212754,0.50540566,0.6132151,0.027506784,0.07022752,0.64145994,1.01424,0.23905434,0.3255954,0.73459715,0.70769763,-0.1091214,-0.1517659,0.4058662,0.2571202,-0.44066325,-0.30203822,-0.06269943,799.81683,785.7143,774.0293,829.6337,841.7216,-0.0819091796875,0.15631103515625,0.99407958984375,0.55328369140625,-1.42059326171875,0.366363525390625,1,1.0,1.0,1.0,1.0,20.00
2024-09-29 18:19:47.294,0.711231,0.38842845,-0.0212754,0.50540566,0.6132151,0.027506784,0.07022752,0.64145994,1.01424,0.23905434,0.3255954,0.73459715,0.70769763,-0.1091214,-0.1517659,0.4058662,0.2571202,-0.44066325,-0.30203822,-0.06269943,805.8608,781.685,776.4469,829.6337,852.6007,-0.0819091796875,0.15631103515625,0.99407958984375,0.55328369140625,-1.42059326171875,0.366363525390625,1,1.0,1.0,1.0,1.0,20.00
2024-09-29 18:19:47.294,0.711231,0.38842845,-0.0212754,0.50540566,0.6132151,0.027506784,0.07022752,0.64145994,1.01424,0.23905434,0.3255954,0.73459715,0.70769763,-0.1091214,-0.1517659,0.4058662,0.2571202,-0.44066325,-0.30203822,-0.06269943,811.50183,780.87915,778.46155,830.0366,807.47253,-0.0819091796875,0.15631103515625,0.99407958984375,0.55328369140625,-1.42059326171875,0.366363525390625,1,1.0,1.0,1.0,1.0,20.00
2024-09-29 18:19:47.295,0.711231,0.38842845,-0.0212754,0.50540566,0.6132151,0.027506784,0.07022752,0.64145994,1.01424,0.23905434,0.3255954,0.73459715,0.70769763,-0.1091214,-0.1517659,0.4058662,0.2571202,-0.44066325,-0.30203822,-0.06269943,813.5165,786.52014,781.28204,834.0659,760.7326,-0.0819091796875,0.15631103515625,0.99407958984375,0.55328369140625,-1.42059326171875,0.366363525390625,1,1.0,1.0,1.0,1.0,20.00
2024-09-29 18:19:47.296,0.711231,0.38842845,-0.0212754,0.50540566,0.6132151,0.027506784,0.07022752,0.64145994,1.01424,0.23905434,0.3255954,0.73459715,0.70769763,-0.1091214,-0.1517659,0.4058662,0.2571202,-0.44066325,-0.30203822,-0.06269943,818.3516,785.7143,780.07324,838.0952,940.0366,-0.0819091796875,0.15631103515625,0.99407958984375,0.55328369140625,-1.42059326171875,0.366363525390625,1,1.0,1.0,1.0,1.0,20.00
2024-09-29 18:19:47.296,0.711231,0.38842845,-0.0212754,0.50540566,0.6132151,0.027506784,0.07022752,0.64145994,1.01424,0.23905434,0.3255954,0.73459715,0.70769763,-0.1091214,-0.1517659,0.4058662,0.2571202,-0.44066325,-0.30203822,-0.06269943,819.9634,787.72894,780.4762,830.4396,881.6117,-0.0819091796875,0.15631103515625,0.99407958984375,0.55328369140625,-1.42059326171875,0.366363525390625,1,1.0,1.0,1.0,1.0,20.00
2024-09-29 18:19:47.297,0.711231,0.38842845,-0.0212754,0.50540566,0.6132151,0.027506784,0.07022752,0.64145994,1.01424,0.23905434,0.3255954,0.73459715,0.70769763,-0.1091214,-0.1517659,0.4058662,0.2571202,-0.44066325,-0.30203822,-0.06269943,817.1429,790.9524,777.6557,816.7399,635.0183,-0.0819091796875,0.15631103515625,0.99407958984375,0.55328369140625,-1.42059326171875,0.366363525390625,1,1.0,1.0,1.0,1.0,20.00
2024-09-29 18:19:47.297,0.711231,0.38842845,-0.0212754,0.50540566,0.6132151,0.027506784,0.07022752,0.64145994,1.01424,0.23905434,0.3255954,0.73459715,0.70769763,-0.1091214,-0.1517659,0.4058662,0.2571202,-0.44066325,-0.30203822,-0.06269943,823.5897,789.7436,779.2674,827.2161,844.1392,-0.0819091796875,0.15631103515625,0.99407958984375,0.55328369140625,-1.42059326171875,0.366363525390625,1,1.0,1.0,1.0,1.0,20.00
2024-09-29 18:19:47.298,0.711231,0.38842845,-0.0212754,0.50540566,0.6132151,0.027506784,0.07022752,0.64145994,1.01424,0.23905434,0.3255954,0.73459715,0.70769763,-0.1091214,-0.1517659,0.4058662,0.2571202,-0.44066325,-0.30203822,-0.06269943,833.663,786.1172,776.8498,840.10986,958.1685,-0.08465576171875,0.1513671875,0.99359130859375,0.13458251953125,-1.09161376953125,-1.861724853515625,1,1.0,1.0,1.0,1.0,20.00
2024-09-29 18:19:47.298,0.711231,0.38842845,-0.0212754,0.50540566,0.6132151,0.027506784,0.07022752,0.64145994,1.01424,0.23905434,0.3255954,0.73459715,0.70769763,-0.1091214,-0.1517659,0.4058662,0.2571202,-0.44066325,-0.30203822,-0.06269943,834.0659,787.326,771.2088,831.2454,792.1612,-0.08465576171875,0.1513671875,0.99359130859375,0.13458251953125,-1.09161376953125,-1.861724853515625,1,1.0,1.0,1.0,1.0,20.00
2024-09-29 18:19:47.299,0.711231,0.38842845,-0.0212754,0.50540566,0.6132151,0.027506784,0.07022752,0.64145994,1.01424,0.23905434,0.3255954,0.73459715,0.70769763,-0.1091214,-0.1517659,0.4058662,0.2571202,-0.44066325,-0.30203822,-0.06269943,833.2601,785.7143,774.83514,829.6337,743.00366,-0.08465576171875,0.1513671875,0.99359130859375,0.13458251953125,-1.09161376953125,-1.861724853515625,1,1.0,1.0,1.0,1.0,20.00
2024-09-29 18:19:47.299,0.711231,0.38842845,-0.0212754,0.50540566,0.6132151,0.027506784,0.07022752,0.64145994,1.01424,0.23905434,0.3255954,0.73459715,0.70769763,-0.1091214,-0.1517659,0.4058662,0.2571202,-0.44066325,-0.30203822,-0.06269943,836.08057,786.52014,776.8498,834.0659,753.47986,-0.08465576171875,0.1513671875,0.99359130859375,0.13458251953125,-1.09161376953125,-1.861724853515625,1,1.0,1.0,1.0,1.0,20.00
2024-09-29 18:19:47.300,0.711231,0.38842845,-0.0212754,0.50540566,0.6132151,0.027506784,0.07022752,0.64145994,1.01424,0.23905434,0.3255954,0.73459715,0.70769763,-0.1091214,-0.1517659,0.4058662,0.2571202,-0.44066325,-0.30203822,-0.06269943,835.2747,787.326,773.6264,830.0366,1163.663,-0.08465576171875,0.1513671875,0.99359130859375,0.13458251953125,-1.09161376953125,-1.861724853515625,1,1.0,1.0,1.0,1.0,20.00
2024-09-29 18:19:47.300,0.711231,0.38842845,-0.0212754,0.50540566,0.6132151,0.027506784,0.07022752,0.64145994,1.01424,0.23905434,0.3255954,0.73459715,0.70769763,-0.1091214,-0.1517659,0.4058662,0.2571202,-0.44066325,-0.30203822,-0.06269943,836.4835,786.52014,779.2674,830.84247,1197.1062,-0.08465576171875,0.1513671875,0.99359130859375,0.13458251953125,-1.09161376953125,-1.861724853515625,1,1.0,1.0,1.0,1.0,20.00
2024-09-29 18:19:47.301,0.711231,0.38842845,-0.0212754,0.50540566,0.6132151,0.027506784,0.07022752,0.64145994,1.01424,0.23905434,0.3255954,0.73459715,0.70769763,-0.1091214,-0.1517659,0.4058662,0.2571202,-0.44066325,-0.30203822,-0.06269943,836.08057,787.326,783.69965,831.6484,732.9304,-0.08465576171875,0.1513671875,0.99359130859375,0.13458251953125,-1.09161376953125,-1.861724853515625,1,1.0,1.0,1.0,1.0,20.00
2024-09-29 18:19:47.301,0.71151114,0.43653986,-0.005437363,0.49697888,0.6470651,0.044336583,0.08218922,0.63533604,1.0031973,0.23905434,0.32171598,0.7278519,0.6933122,-0.110945575,-0.17527948,0.40333772,0.26767725,-0.43642607,-0.31028846,-0.036028065,832.0513,785.7143,780.4762,825.6044,871.53845,-0.08465576171875,0.1513671875,0.99359130859375,0.13458251953125,-1.09161376953125,-1.861724853515625,1,1.0,1.0,1.0,1.0,20.00
2024-09-29 18:19:47.305,0.71151114,0.43653986,-0.005437363,0.49697888,0.6470651,0.044336583,0.08218922,0.63533604,1.0031973,0.23905434,0.32171598,0.7278519,0.6933122,-0.110945575,-0.17527948,0.40333772,0.26767725,-0.43642607,-0.31028846,-0.036028065,825.6044,786.9231,780.87915,820.7692,965.42126,-0.08465576171875,0.1513671875,0.99359130859375,0.13458251953125,-1.09161376953125,-1.861724853515625,1,1.0,1.0,1.0,1.0,20.00
2024-09-29 18:19:47.306,0.71151114,0.43653986,-0.005437363,0.49697888,0.6470651,0.044336583,0.08218922,0.63533604,1.0031973,0.23905434,0.32171598,0.7278519,0.6933122,-0.110945575,-0.17527948,0.40333772,0.26767725,-0.43642607,-0.31028846,-0.036028065,828.022,789.34064,781.28204,820.3663,786.52014,-0.08465576171875,0.1513671875,0.99359130859375,0.13458251953125,-1.09161376953125,-1.861724853515625,1,1.0,1.0,1.0,1.0,20.00
2024-09-29 18:19:47.306,0.71151114,0.43653986,-0.005437363,0.49697888,0.6470651,0.044336583,0.08218922,0.63533604,1.0031973,0.23905434,0.32171598,0.7278519,0.6933122,-0.110945575,-0.17527948,0.40333772,0.26767725,-0.43642607,-0.31028846,-0.036028065,826.4103,788.93774,776.4469,818.3516,666.04395,-0.08465576171875,0.1513671875,0.99359130859375,0.13458251953125,-1.09161376953125,-1.861724853515625,1,1.0,1.0,1.0,1.0,20.00
2024-09-29 18:19:47.307,0.71151114,0.43653986,-0.005437363,0.49697888,0.6470651,0.044336583,0.08218922,0.63533604,1.0031973,0.23905434,0.32171598,0.7278519,0.6933122,-0.110945575,-0.17527948,0.40333772,0.26767725,-0.43642607,-0.31028846,-0.036028065,822.381,785.31134,778.0586,823.1868,773.6264,-0.08465576171875,0.1513671875,0.99359130859375,0.13458251953125,-1.09161376953125,-1.861724853515625,1,1.0,1.0,1.0,1.0,20.00
2024-09-29 18:19:47.307,0.71151114,0.43653986,-0.005437363,0.49697888,0.6470651,0.044336583,0.08218922,0.63533604,1.0031973,0.23905434,0.32171598,0.7278519,0.6933122,-0.110945575,-0.17527948,0.40333772,0.26767725,-0.43642607,-0.31028846,-0.036028065,813.91943,783.2967,781.28204,824.3956,983.1502,-0.08465576171875,0.1513671875,0.99359130859375,0.13458251953125,-1.09161376953125,-1.861724853515625,1,1.0,1.0,1.0,1.0,20.00
2024-09-29 18:19:47.308,0.71151114,0.43653986,-0.005437363,0.49697888,0.6470651,0.044336583,0.08218922,0.63533604,1.0031973,0.23905434,0.32171598,0.7278519,0.6933122,-0.110945575,-0.17527948,0.40333772,0.26767725,-0.43642607,-0.31028846,-0.036028065,812.71063,784.10254,774.43225,819.5604,899.34064,-0.08465576171875,0.1513671875,0.99359130859375,0.13458251953125,-1.09161376953125,-1.861724853515625,1,1.0,1.0,1.0,1.0,20.00
2024-09-29 18:19:47.308,0.71151114,0.43653986,-0.005437363,0.49697888,0.6470651,0.044336583,0.08218922,0.63533604,1.0031973,0.23905434,0.32171598,0.7278519,0.6933122,-0.110945575,-0.17527948,0.40333772,0.26767725,-0.43642607,-0.31028846,-0.036028065,812.71063,783.2967,774.0293,816.337,714.3956,-0.08465576171875,0.1513671875,0.99359130859375,0.13458251953125,-1.09161376953125,-1.861724853515625,1,1.0,1.0,1.0,1.0,20.00
2024-09-29 18:19:47.309,0.71151114,0.43653986,-0.005437363,0.49697888,0.6470651,0.044336583,0.08218922,0.63533604,1.0031973,0.23905434,0.32171598,0.7278519,0.6933122,-0.110945575,-0.17527948,0.40333772,0.26767725,-0.43642607,-0.31028846,-0.036028065,799.41394,782.49084,780.87915,815.5311,790.9524,-0.08465576171875,0.1513671875,0.99359130859375,0.13458251953125,-1.09161376953125,-1.861724853515625,1,1.0,1.0,1.0,1.0,20.00
2024-09-29 18:19:47.309,0.71151114,0.43653986,-0.005437363,0.49697888,0.6470651,0.044336583,0.08218922,0.63533604,1.0031973,0.23905434,0.32171598,0.7278519,0.6933122,-0.110945575,-0.17527948,0.40333772,0.26767725,-0.43642607,-0.31028846,-0.036028065,808.2784,785.7143,780.87915,819.9634,1028.6813,-0.08465576171875,0.1513671875,0.99359130859375,0.13458251953125,-1.09161376953125,-1.861724853515625,1,1.0,1.0,1.0,1.0,20.00
2024-09-29 18:19:47.310,0.71151114,0.43653986,-0.005437363,0.49697888,0.6470651,0.044336583,0.08218922,0.63533604,1.0031973,0.23905434,0.32171598,0.7278519,0.6933122,-0.110945575,-0.17527948,0.40333772,0.26767725,-0.43642607,-0.31028846,-0.036028065,823.1868,784.10254,780.87915,826.4103,1008.5348,-0.08465576171875,0.1513671875,0.99359130859375,0.13458251953125,-1.09161376953125,-1.861724853515625,1,1.0,1.0,1.0,1.0,20.00
2024-09-29 18:19:47.310,0.71151114,0.43653986,-0.005437363,0.49697888,0.6470651,0.044336583,0.08218922,0.63533604,1.0031973,0.23905434,0.32171598,0.7278519,0.6933122,-0.110945575,-0.17527948,0.40333772,0.26767725,-0.43642607,-0.31028846,-0.036028065,817.5458,784.10254,780.4762,826.8132,949.304,-0.08465576171875,0.1513671875,0.99359130859375,0.13458251953125,-1.09161376953125,-1.861724853515625,1,1.0,1.0,1.0,1.0,20.00
2024-09-29 18:19:47.310,0.71151114,0.43653986,-0.005437363,0.49697888,0.6470651,0.044336583,0.08218922,0.63533604,1.0031973,0.23905434,0.32171598,0.7278519,0.6933122,-0.110945575,-0.17527948,0.40333772,0.26767725,-0.43642607,-0.31028846,-0.036028065,823.5897,788.93774,781.685,831.6484,966.63007,-0.08465576171875,0.1513671875,0.99359130859375,0.13458251953125,-1.09161376953125,-1.861724853515625,1,1.0,1.0,1.0,1.0,20.00
2024-09-29 18:19:47.311,0.71151114,0.43653986,-0.005437363,0.49697888,0.6470651,0.044336583,0.08218922,0.63533604,1.0031973,0.23905434,0.32171598,0.7278519,0.6933122,-0.110945575,-0.17527948,0.40333772,0.26767725,-0.43642607,-0.31028846,-0.036028065,834.87177,790.54944,780.87915,834.87177,855.0183,-0.08465576171875,0.1513671875,0.99359130859375,0.13458251953125,-1.09161376953125,-1.861724853515625,1,1.0,1.0,1.0,1.0,20.00
2024-09-29 18:19:47.311,0.71151114,0.43653986,-0.005437363,0.49697888,0.6470651,0.044336583,0.08218922,0.63533604,1.0031973,0.23905434,0.32171598,0.7278519,0.6933122,-0.110945575,-0.17527948,0.40333772,0.26767725,-0.43642607,-0.31028846,-0.036028065,833.663,783.69965,771.2088,828.8278,763.1502,-0.08465576171875,0.1513671875,0.99359130859375,0.13458251953125,-1.09161376953125,-1.861724853515625,1,1.0,1.0,1.0,1.0,20.00
2024-09-29 18:19:47.312,0.71151114,0.43653986,-0.005437363,0.49697888,0.6470651,0.044336583,0.08218922,0.63533604,1.0031973,0.23905434,0.32171598,0.7278519,0.6933122,-0.110945575,-0.17527948,0.40333772,0.26767725,-0.43642607,-0.31028846,-0.036028065,835.2747,783.2967,769.59705,829.6337,654.7619,-0.08465576171875,0.1513671875,0.99359130859375,0.13458251953125,-1.09161376953125,-1.861724853515625,1,1.0,1.0,1.0,1.0,20.00
2024-09-29 18:19:47.312,0.71151114,0.43653986,-0.005437363,0.49697888,0.6470651,0.044336583,0.08218922,0.63533604,1.0031973,0.23905434,0.32171598,0.7278519,0.6933122,-0.110945575,-0.17527948,0.40333772,0.26767725,-0.43642607,-0.31028846,-0.036028065,846.1539,785.7143,770.0,837.28937,927.1429,-0.08465576171875,0.1513671875,0.99359130859375,0.13458251953125,-1.09161376953125,-1.861724853515625,1,1.0,1.0,1.0,1.0,20.00
2024-09-29 18:19:47.469,0.71151114,0.43653986,-0.005437363,0.49697888,0.6470651,0.044336583,0.08218922,0.63533604,1.0031973,0.23905434,0.32171598,0.7278519,0.6933122,-0.110945575,-0.17527948,0.40333772,0.26767725,-0.43642607,-0.31028846,-0.036028065,861.06226,782.8938,761.13556,850.58606,1307.9121,-0.07708740234375,0.1478271484375,0.99285888671875,0.396270751953125,-1.2860107421875,-1.801910400390625,1,1.0,1.0,1.0,1.0,20.00
2024-09-29 18:19:47.470,0.71151114,0.43653986,-0.005437363,0.49697888,0.6470651,0.044336583,0.08218922,0.63533604,1.0031973,0.23905434,0.32171598,0.7278519,0.6933122,-0.110945575,-0.17527948,0.40333772,0.26767725,-0.43642607,-0.31028846,-0.036028065,850.989,784.10254,763.5531,855.82416,1365.5311,-0.07708740234375,0.1478271484375,0.99285888671875,0.396270751953125,-1.2860107421875,-1.801910400390625,1,1.0,1.0,1.0,1.0,20.00
2024-09-29 18:19:47.470,0.71151114,0.43653986,-0.005437363,0.49697888,0.6470651,0.044336583,0.08218922,0.63533604,1.0031973,0.23905434,0.32171598,0.7278519,0.6933122,-0.110945575,-0.17527948,0.40333772,0.26767725,-0.43642607,-0.31028846,-0.036028065,843.73627,784.10254,770.80585,850.989,1085.4945,-0.07708740234375,0.1478271484375,0.99285888671875,0.396270751953125,-1.2860107421875,-1.801910400390625,1,1.0,1.0,1.0,1.0,20.00
2024-09-29 18:19:47.471,0.71151114,0.43653986,-0.005437363,0.49697888,0.6470651,0.044336583,0.08218922,0.63533604,1.0031973,0.23905434,0.32171598,0.7278519,0.6933122,-0.110945575,-0.17527948,0.40333772,0.26767725,-0.43642607,-0.31028846,-0.036028065,855.82416,782.49084,770.80585,850.58606,844.1392,-0.07708740234375,0.1478271484375,0.99285888671875,0.396270751953125,-1.2860107421875,-1.801910400390625,1,1.0,1.0,1.0,1.0,20.00
2024-09-29 18:19:47.471,0.71151114,0.43653986,-0.005437363,0.49697888,0.6470651,0.044336583,0.08218922,0.63533604,1.0031973,0.23905434,0.32171598,0.7278519,0.6933122,-0.110945575,-0.17527948,0.40333772,0.26767725,-0.43642607,-0.31028846,-0.036028065,860.65936,780.4762,771.6117,851.79486,689.011,-0.07708740234375,0.1478271484375,0.99285888671875,0.396270751953125,-1.2860107421875,-1.801910400390625,1,1.0,1.0,1.0,1.0,20.00
2024-09-29 18:19:47.472,0.71151114,0.43653986,-0.005437363,0.49697888,0.6470651,0.044336583,0.08218922,0.63533604,1.0031973,0.23905434,0.32171598,0.7278519,0.6933122,-0.110945575,-0.17527948,0.40333772,0.26767725,-0.43642607,-0.31028846,-0.036028065,859.85345,782.0879,775.2381,855.42126,763.95605,-0.07708740234375,0.1478271484375,0.99285888671875,0.396270751953125,-1.2860107421875,-1.801910400390625,1,1.0,1.0,1.0,1.0,20.00
2024-09-29 18:19:47.472,0.71151114,0.43653986,-0.005437363,0.49697888,0.6470651,0.044336583,0.08218922,0.63533604,1.0031973,0.23905434,0.32171598,0.7278519,0.6933122,-0.110945575,-0.17527948,0.40333772,0.26767725,-0.43642607,-0.31028846,-0.036028065,856.63007,784.10254,775.2381,859.85345,960.58606,-0.07708740234375,0.1478271484375,0.99285888671875,0.396270751953125,-1.2860107421875,-1.801910400390625,1,1.0,1.0,1.0,1.0,20.00
2024-09-29 18:19:47.473,0.71151114,0.43653986,-0.005437363,0.49697888,0.6470651,0.044336583,0.08218922,0.63533604,1.0031973,0.23905434,0.32171598,0.7278519,0.6933122,-0.110945575,-0.17527948,0.40333772,0.26767725,-0.43642607,-0.31028846,-0.036028065,859.0476,781.28204,776.4469,862.27106,1236.5934,-0.07708740234375,0.1478271484375,0.99285888671875,0.396270751953125,-1.2860107421875,-1.801910400390625,1,1.0,1.0,1.0,1.0,20.00
2024-09-29 18:19:47.474,0.71151114,0.43653986,-0.005437363,0.49697888,0.6470651,0.044336583,0.08218922,0.63533604,1.0031973,0.23905434,0.32171598,0.7278519,0.6933122,-0.110945575,-0.17527948,0.40333772,0.26767725,-0.43642607,-0.31028846,-0.036028065,857.03296,784.10254,777.25275,861.8681,1268.8279,-0.07708740234375,0.1478271484375,0.99285888671875,0.396270751953125,-1.2860107421875,-1.801910400390625,1,1.0,1.0,1.0,1.0,20.00
2024-09-29 18:19:47.474,0.68453205,0.45939147,0.022776572,0.50300896,0.69972605,0.045621313,0.08649597,0.6474101,0.99411213,0.23905434,0.3210318,0.72211903,0.6749603,-0.1125414,-0.20246863,0.40120023,0.2857069,-0.43249035,-0.3087251,-0.0071063675,851.79486,788.1319,779.67035,860.65936,863.47986,-0.07708740234375,0.1478271484375,0.99285888671875,0.396270751953125,-1.2860107421875,-1.801910400390625,1,1.0,1.0,1.0,1.0,20.00
2024-09-29 18:19:47.479,0.68453205,0.45939147,0.022776572,0.50300896,0.69972605,0.045621313,0.08649597,0.6474101,0.99411213,0.23905434,0.3210318,0.72211903,0.6749603,-0.1125414,-0.20246863,0.40120023,0.2857069,-0.43249035,-0.3087251,-0.0071063675,854.61536,790.54944,780.87915,851.79486,697.0696,-0.07708740234375,0.1478271484375,0.99285888671875,0.396270751953125,-1.2860107421875,-1.801910400390625,1,1.0,1.0,1.0,1.0,20.00
2024-09-29 18:19:47.480,0.68453205,0.45939147,0.022776572,0.50300896,0.69972605,0.045621313,0.08649597,0.6474101,0.99411213,0.23905434,0.3210318,0.72211903,0.6749603,-0.1125414,-0.20246863,0.40120023,0.2857069,-0.43249035,-0.3087251,-0.0071063675,852.6007,790.9524,778.46155,842.52747,661.6117,-0.07708740234375,0.1478271484375,0.99285888671875,0.396270751953125,-1.2860107421875,-1.801910400390625,1,1.0,1.0,1.0,1.0,20.00
2024-09-29 18:19:47.480,0.68453205,0.45939147,0.022776572,0.50300896,0.69972605,0.045621313,0.08649597,0.6474101,0.99411213,0.23905434,0.3210318,0.72211903,0.6749603,-0.1125414,-0.20246863,0.40120023,0.2857069,-0.43249035,-0.3087251,-0.0071063675,845.34796,790.14655,778.46155,838.0952,563.69965,-0.08544921875,0.1490478515625,0.99346923828125,0.7177734375,-0.889739990234375,-0.2093505859375,1,1.0,1.0,1.0,1.0,20.00
2024-09-29 18:19:47.481,0.68453205,0.45939147,0.022776572,0.50300896,0.69972605,0.045621313,0.08649597,0.6474101,0.99411213,0.23905434,0.3210318,0.72211903,0.6749603,-0.1125414,-0.20246863,0.40120023,0.2857069,-0.43249035,-0.3087251,-0.0071063675,839.707,786.9231,778.86444,833.663,634.61536,-0.08544921875,0.1490478515625,0.99346923828125,0.7177734375,-0.889739990234375,-0.2093505859375,1,1.0,1.0,1.0,1.0,20.00
2024-09-29 18:19:47.482,0.68453205,0.45939147,0.022776572,0.50300896,0.69972605,0.045621313,0.08649597,0.6474101,0.99411213,0.23905434,0.3210318,0.72211903,0.6749603,-0.1125414,-0.20246863,0.40120023,0.2857069,-0.43249035,-0.3087251,-0.0071063675,834.0659,783.2967,781.685,838.0952,729.304,-0.08544921875,0.1490478515625,0.99346923828125,0.7177734375,-0.889739990234375,-0.2093505859375,1,1.0,1.0,1.0,1.0,20.00
2024-09-29 18:19:47.482,0.68453205,0.45939147,0.022776572,0.50300896,0.69972605,0.045621313,0.08649597,0.6474101,0.99411213,0.23905434,0.3210318,0.72211903,0.6749603,-0.1125414,-0.20246863,0.40120023,0.2857069,-0.43249035,-0.3087251,-0.0071063675,828.4249,780.87915,778.86444,833.663,650.32965,-0.08544921875,0.1490478515625,0.99346923828125,0.7177734375,-0.889739990234375,-0.2093505859375,1,1.0,1.0,1.0,1.0,20.00
2024-09-29 18:19:47.483,0.68453205,0.45939147,0.022776572,0.50300896,0.69972605,0.045621313,0.08649597,0.6474101,0.99411213,0.23905434,0.3210318,0.72211903,0.6749603,-0.1125414,-0.20246863,0.40120023,0.2857069,-0.43249035,-0.3087251,-0.0071063675,825.6044,780.07324,774.83514,828.8278,528.6447,-0.08544921875,0.1490478515625,0.99346923828125,0.7177734375,-0.889739990234375,-0.2093505859375,1,1.0,1.0,1.0,1.0,20.00
2024-09-29 18:19:47.483,0.68453205,0.45939147,0.022776572,0.50300896,0.69972605,0.045621313,0.08649597,0.6474101,0.99411213,0.23905434,0.3210318,0.72211903,0.6749603,-0.1125414,-0.20246863,0.40120023,0.2857069,-0.43249035,-0.3087251,-0.0071063675,832.8571,782.0879,777.6557,839.707,725.2747,-0.08544921875,0.1490478515625,0.99346923828125,0.7177734375,-0.889739990234375,-0.2093505859375,1,1.0,1.0,1.0,1.0,20.00
2024-09-29 18:19:47.484,0.68453205,0.45939147,0.022776572,0.50300896,0.69972605,0.045621313,0.08649597,0.6474101,0.99411213,0.23905434,0.3210318,0.72211903,0.6749603,-0.1125414,-0.20246863,0.40120023,0.2857069,-0.43249035,-0.3087251,-0.0071063675,834.0659,784.5055,781.28204,848.5714,978.71796,-0.08544921875,0.1490478515625,0.99346923828125,0.7177734375,-0.889739990234375,-0.2093505859375,1,1.0,1.0,1.0,1.0,20.00
2024-09-29 18:19:47.484,0.68453205,0.45939147,0.022776572,0.50300896,0.69972605,0.045621313,0.08649597,0.6474101,0.99411213,0.23905434,0.3210318,0.72211903,0.6749603,-0.1125414,-0.20246863,0.40120023,0.2857069,-0.43249035,-0.3087251,-0.0071063675,830.0366,784.5055,782.8938,842.9304,796.5934,-0.08544921875,0.1490478515625,0.99346923828125,0.7177734375,-0.889739990234375,-0.2093505859375,1,1.0,1.0,1.0,1.0,20.00
2024-09-29 18:19:47.485,0.68453205,0.45939147,0.022776572,0.50300896,0.69972605,0.045621313,0.08649597,0.6474101,0.99411213,0.23905434,0.3210318,0.72211903,0.6749603,-0.1125414,-0.20246863,0.40120023,0.2857069,-0.43249035,-0.3087251,-0.0071063675,836.4835,786.1172,786.9231,832.8571,527.4359,-0.08544921875,0.1490478515625,0.99346923828125,0.7177734375,-0.889739990234375,-0.2093505859375,1,1.0,1.0,1.0,1.0,20.00
2024-09-29 18:19:47.485,0.68453205,0.45939147,0.022776572,0.50300896,0.69972605,0.045621313,0.08649597,0.6474101,0.99411213,0.23905434,0.3210318,0.72211903,0.6749603,-0.1125414,-0.20246863,0.40120023,0.2857069,-0.43249035,-0.3087251,-0.0071063675,847.3626,785.31134,784.90845,832.8571,609.6337,-0.08544921875,0.1490478515625,0.99346923828125,0.7177734375,-0.889739990234375,-0.2093505859375,1,1.0,1.0,1.0,1.0,20.00
2024-09-29 18:19:47.486,0.68453205,0.45939147,0.022776572,0.50300896,0.69972605,0.045621313,0.08649597,0.6474101,0.99411213,0.23905434,0.3210318,0.72211903,0.6749603,-0.1125414,-0.20246863,0.40120023,0.2857069,-0.43249035,-0.3087251,-0.0071063675,845.34796,783.69965,783.2967,835.6777,912.23444,-0.08544921875,0.1490478515625,0.99346923828125,0.7177734375,-0.889739990234375,-0.2093505859375,1,1.0,1.0,1.0,1.0,20.00
2024-09-29 18:19:47.487,0.68453205,0.45939147,0.022776572,0.50300896,0.69972605,0.045621313,0.08649597,0.6474101,0.99411213,0.23905434,0.3210318,0.72211903,0.6749603,-0.1125414,-0.20246863,0.40120023,0.2857069,-0.43249035,-0.3087251,-0.0071063675,828.022,781.685,784.90845,829.6337,833.2601,-0.08544921875,0.1490478515625,0.99346923828125,0.7177734375,-0.889739990234375,-0.2093505859375,1,1.0,1.0,1.0,1.0,20.00
2024-09-29 18:19:47.487,0.68453205,0.45939147,0.022776572,0.50300896,0.69972605,0.045621313,0.08649597,0.6474101,0.99411213,0.23905434,0.3210318,0.72211903,0.6749603,-0.1125414,-0.20246863,0.40120023,0.2857069,-0.43249035,-0.3087251,-0.0071063675,824.3956,782.0879,778.86444,827.619,636.63007,-0.0931396484375,0.1514892578125,0.99444580078125,0.994415283203125,-1.48040771484375,-0.097198486328125,1,1.0,1.0,1.0,1.0,20.00
2024-09-29 18:19:47.488,0.68453205,0.45939147,0.022776572,0.50300896,0.69972605,0.045621313,0.08649597,0.6474101,0.99411213,0.23905434,0.3210318,0.72211903,0.6749603,-0.1125414,-0.20246863,0.40120023,0.2857069,-0.43249035,-0.3087251,-0.0071063675,827.2161,788.5348,779.67035,831.6484,662.4176,-0.0931396484375,0.1514892578125,0.99444580078125,0.994415283203125,-1.48040771484375,-0.097198486328125,1,1.0,1.0,1.0,1.0,20.00
2024-09-29 18:19:47.489,0.68453205,0.45939147,0.022776572,0.50300896,0.69972605,0.045621313,0.08649597,0.6474101,0.99411213,0.23905434,0.3210318,0.72211903,0.6749603,-0.1125414,-0.20246863,0.40120023,0.2857069,-0.43249035,-0.3087251,-0.0071063675,819.5604,784.10254,780.4762,833.2601,844.94507,-0.0931396484375,0.1514892578125,0.99444580078125,0.994415283203125,-1.48040771484375,-0.097198486328125,1,1.0,1.0,1.0,1.0,20.00
2024-09-29 18:19:47.489,0.68453205,0.45939147,0.022776572,0.50300896,0.69972605,0.045621313,0.08649597,0.6474101,0.99411213,0.23905434,0.3210318,0.72211903,0.6749603,-0.1125414,-0.20246863,0.40120023,0.2857069,-0.43249035,-0.3087251,-0.0071063675,815.9341,778.46155,780.07324,830.0366,774.43225,-0.0931396484375,0.1514892578125,0.99444580078125,0.994415283203125,-1.48040771484375,-0.097198486328125,1,1.0,1.0,1.0,1.0,20.00
2024-09-29 18:19:47.490,0.68453205,0.45939147,0.022776572,0.50300896,0.69972605,0.045621313,0.08649597,0.6474101,0.99411213,0.23905434,0.3210318,0.72211903,0.6749603,-0.1125414,-0.20246863,0.40120023,0.2857069,-0.43249035,-0.3087251,-0.0071063675,817.9487,779.67035,779.67035,825.2015,586.6667,-0.0931396484375,0.1514892578125,0.99444580078125,0.994415283203125,-1.48040771484375,-0.097198486328125,1,1.0,1.0,1.0,1.0,20.00
2024-09-29 18:19:47.490,0.68453205,0.45939147,0.022776572,0.50300896,0.69972605,0.045621313,0.08649597,0.6474101,0.99411213,0.23905434,0.3210318,0.72211903,0.6749603,-0.1125414,-0.20246863,0.40120023,0.2857069,-0.43249035,-0.3087251,-0.0071063675,822.7839,778.46155,778.86444,821.1722,690.6227,-0.0931396484375,0.1514892578125,0.99444580078125,0.994415283203125,-1.48040771484375,-0.097198486328125,1,1.0,1.0,1.0,1.0,20.00
2024-09-29 18:19:47.491,0.68453205,0.45939147,0.022776572,0.50300896,0.69972605,0.045621313,0.08649597,0.6474101,0.99411213,0.23905434,0.3210318,0.72211903,0.6749603,-0.1125414,-0.20246863,0.40120023,0.2857069,-0.43249035,-0.3087251,-0.0071063675,825.2015,778.46155,778.86444,825.6044,877.5824,-0.0931396484375,0.1514892578125,0.99444580078125,0.994415283203125,-1.48040771484375,-0.097198486328125,1,1.0,1.0,1.0,1.0,20.00
2024-09-29 18:19:47.491,0.68453205,0.45939147,0.022776572,0.50300896,0.69972605,0.045621313,0.08649597,0.6474101,0.99411213,0.23905434,0.3210318,0.72211903,0.6749603,-0.1125414,-0.20246863,0.40120023,0.2857069,-0.43249035,-0.3087251,-0.0071063675,826.4103,780.87915,778.86444,828.022,875.16486,-0.0931396484375,0.1514892578125,0.99444580078125,0.994415283203125,-1.48040771484375,-0.097198486328125,1,1.0,1.0,1.0,1.0,20.00
2024-09-29 18:19:47.492,0.68453205,0.45939147,0.022776572,0.50300896,0.69972605,0.045621313,0.08649597,0.6474101,0.99411213,0.23905434,0.3210318,0.72211903,0.6749603,-0.1125414,-0.20246863,0.40120023,0.2857069,-0.43249035,-0.3087251,-0.0071063675,827.2161,784.10254,782.49084,823.1868,675.7143,-0.0931396484375,0.1514892578125,0.99444580078125,0.994415283203125,-1.48040771484375,-0.097198486328125,1,1.0,1.0,1.0,1.0,20.00
2024-09-29 18:19:47.493,0.68453205,0.45939147,0.022776572,0.50300896,0.69972605,0.045621313,0.08649597,0.6474101,0.99411213,0.23905434,0.3210318,0.72211903,0.6749603,-0.1125414,-0.20246863,0.40120023,0.2857069,-0.43249035,-0.3087251,-0.0071063675,828.8278,784.90845,781.685,818.7546,624.5421,-0.0931396484375,0.1514892578125,0.99444580078125,0.994415283203125,-1.48040771484375,-0.097198486328125,1,1.0,1.0,1.0,1.0,20.00
2024-09-29 18:19:47.493,0.68453205,0.45939147,0.022776572,0.50300896,0.69972605,0.045621313,0.08649597,0.6474101,0.99411213,0.23905434,0.3210318,0.72211903,0.6749603,-0.1125414,-0.20246863,0.40120023,0.2857069,-0.43249035,-0.3087251,-0.0071063675,831.2454,782.49084,780.87915,822.7839,860.65936,-0.0931396484375,0.1514892578125,0.99444580078125,0.994415283203125,-1.48040771484375,-0.097198486328125,1,1.0,1.0,1.0,1.0,20.00
2024-09-29 18:19:47.494,0.6228087,0.47721985,0.05848456,0.5255614,0.7693956,0.045364514,0.08308456,0.6828797,0.9719976,0.23885223,0.3210318,0.71932495,0.6554688,-0.11175573,-0.22782096,0.39537174,0.30084908,-0.43193352,-0.29812068,0.023455413,831.2454,776.04395,785.7143,825.2015,935.6044,-0.0931396484375,0.1514892578125,0.99444580078125,0.994415283203125,-1.48040771484375,-0.097198486328125,1,1.0,1.0,1.0,1.0,20.00
2024-09-29 18:19:47.521,0.6228087,0.47721985,0.05848456,0.5255614,0.7693956,0.045364514,0.08308456,0.6828797,0.9719976,0.23885223,0.3210318,0.71932495,0.6554688,-0.11175573,-0.22782096,0.39537174,0.30084908,-0.43193352,-0.29812068,0.023455413,833.2601,778.0586,784.90845,826.8132,826.8132,-0.08441162109375,0.1529541015625,0.9930419921875,0.874786376953125,-1.86920166015625,-0.231781005859375,1,1.0,1.0,1.0,1.0,20.00
2024-09-29 18:19:47.522,0.6228087,0.47721985,0.05848456,0.5255614,0.7693956,0.045364514,0.08308456,0.6828797,0.9719976,0.23885223,0.3210318,0.71932495,0.6554688,-0.11175573,-0.22782096,0.39537174,0.30084908,-0.43193352,-0.29812068,0.023455413,815.9341,778.86444,784.90845,831.2454,867.1062,-0.08441162109375,0.1529541015625,0.9930419921875,0.874786376953125,-1.86920166015625,-0.231781005859375,1,1.0,1.0,1.0,1.0,20.00
2024-09-29 18:19:47.523,0.6228087,0.47721985,0.05848456,0.5255614,0.7693956,0.045364514,0.08308456,0.6828797,0.9719976,0.23885223,0.3210318,0.71932495,0.6554688,-0.11175573,-0.22782096,0.39537174,0.30084908,-0.43193352,-0.29812068,0.023455413,803.44324,778.0586,781.28204,834.0659,807.0696,-0.08441162109375,0.1529541015625,0.9930419921875,0.874786376953125,-1.86920166015625,-0.231781005859375,1,1.0,1.0,1.0,1.0,20.00
2024-09-29 18:19:47.523,0.6228087,0.47721985,0.05848456,0.5255614,0.7693956,0.045364514,0.08308456,0.6828797,0.9719976,0.23885223,0.3210318,0.71932495,0.6554688,-0.11175573,-0.22782096,0.39537174,0.30084908,-0.43193352,-0.29812068,0.023455413,816.7399,780.87915,781.28204,839.304,748.24176,-0.08441162109375,0.1529541015625,0.9930419921875,0.874786376953125,-1.86920166015625,-0.231781005859375,1,1.0,1.0,1.0,1.0,20.00
2024-09-29 18:19:47.524,0.6228087,0.47721985,0.05848456,0.5255614,0.7693956,0.045364514,0.08308456,0.6828797,0.9719976,0.23885223,0.3210318,0.71932495,0.6554688,-0.11175573,-0.22782096,0.39537174,0.30084908,-0.43193352,-0.29812068,0.023455413,811.9048,776.4469,785.31134,836.8865,820.3663,-0.08441162109375,0.1529541015625,0.9930419921875,0.874786376953125,-1.86920166015625,-0.231781005859375,1,1.0,1.0,1.0,1.0,20.00
2024-09-29 18:19:47.524,0.6228087,0.47721985,0.05848456,0.5255614,0.7693956,0.045364514,0.08308456,0.6828797,0.9719976,0.23885223,0.3210318,0.71932495,0.6554688,-0.11175573,-0.22782096,0.39537174,0.30084908,-0.43193352,-0.29812068,0.023455413,807.8755,775.64105,784.10254,833.663,906.5934,-0.08441162109375,0.1529541015625,0.9930419921875,0.874786376953125,-1.86920166015625,-0.231781005859375,1,1.0,1.0,1.0,1.0,20.00
2024-09-29 18:19:47.525,0.6228087,0.47721985,0.05848456,0.5255614,0.7693956,0.045364514,0.08308456,0.6828797,0.9719976,0.23885223,0.3210318,0.71932495,0.6554688,-0.11175573,-0.22782096,0.39537174,0.30084908,-0.43193352,-0.29812068,0.023455413,815.9341,778.0586,780.4762,834.87177,926.337,-0.08441162109375,0.1529541015625,0.9930419921875,0.874786376953125,-1.86920166015625,-0.231781005859375,1,1.0,1.0,1.0,1.0,20.00
2024-09-29 18:19:47.525,0.6228087,0.47721985,0.05848456,0.5255614,0.7693956,0.045364514,0.08308456,0.6828797,0.9719976,0.23885223,0.3210318,0.71932495,0.6554688,-0.11175573,-0.22782096,0.39537174,0.30084908,-0.43193352,-0.29812068,0.023455413,821.978,781.685,785.31134,836.8865,812.3077,-0.08441162109375,0.1529541015625,0.9930419921875,0.874786376953125,-1.86920166015625,-0.231781005859375,1,1.0,1.0,1.0,1.0,20.00
2024-09-29 18:19:47.525,0.6228087,0.47721985,0.05848456,0.5255614,0.7693956,0.045364514,0.08308456,0.6828797,0.9719976,0.23885223,0.3210318,0.71932495,0.6554688,-0.11175573,-0.22782096,0.39537174,0.30084908,-0.43193352,-0.29812068,0.023455413,821.5751,784.10254,788.93774,832.4542,757.50916,-0.08441162109375,0.1529541015625,0.9930419921875,0.874786376953125,-1.86920166015625,-0.231781005859375,1,1.0,1.0,1.0,1.0,20.00
2024-09-29 18:19:47.526,0.6228087,0.47721985,0.05848456,0.5255614,0.7693956,0.045364514,0.08308456,0.6828797,0.9719976,0.23885223,0.3210318,0.71932495,0.6554688,-0.11175573,-0.22782096,0.39537174,0.30084908,-0.43193352,-0.29812068,0.023455413,820.7692,781.28204,786.9231,823.9927,944.87177,-0.08441162109375,0.1529541015625,0.9930419921875,0.874786376953125,-1.86920166015625,-0.231781005859375,1,1.0,1.0,1.0,1.0,20.00
2024-09-29 18:19:47.526,0.6228087,0.47721985,0.05848456,0.5255614,0.7693956,0.045364514,0.08308456,0.6828797,0.9719976,0.23885223,0.3210318,0.71932495,0.6554688,-0.11175573,-0.22782096,0.39537174,0.30084908,-0.43193352,-0.29812068,0.023455413,823.9927,777.25275,787.326,817.1429,927.9487,-0.08441162109375,0.1529541015625,0.9930419921875,0.874786376953125,-1.86920166015625,-0.231781005859375,1,1.0,1.0,1.0,1.0,20.00
2024-09-29 18:19:47.527,0.6228087,0.47721985,0.05848456,0.5255614,0.7693956,0.045364514,0.08308456,0.6828797,0.9719976,0.23885223,0.3210318,0.71932495,0.6554688,-0.11175573,-0.22782096,0.39537174,0.30084908,-0.43193352,-0.29812068,0.023455413,827.2161,776.4469,786.52014,814.7253,771.2088,-0.08441162109375,0.1529541015625,0.9930419921875,0.874786376953125,-1.86920166015625,-0.231781005859375,1,1.0,1.0,1.0,1.0,20.00
2024-09-29 18:19:47.551,0.6228087,0.47721985,0.05848456,0.5255614,0.7693956,0.045364514,0.08308456,0.6828797,0.9719976,0.23885223,0.3210318,0.71932495,0.6554688,-0.11175573,-0.22782096,0.39537174,0.30084908,-0.43193352,-0.29812068,0.023455413,829.6337,778.86444,784.5055,818.7546,828.8278,-0.08441162109375,0.1529541015625,0.9930419921875,0.874786376953125,-1.86920166015625,-0.231781005859375,1,1.0,1.0,1.0,1.0,20.00
2024-09-29 18:19:47.551,0.6228087,0.47721985,0.05848456,0.5255614,0.7693956,0.045364514,0.08308456,0.6828797,0.9719976,0.23885223,0.3210318,0.71932495,0.6554688,-0.11175573,-0.22782096,0.39537174,0.30084908,-0.43193352,-0.29812068,0.023455413,826.4103,782.0879,786.9231,820.7692,879.59705,-0.08441162109375,0.1529541015625,0.9930419921875,0.874786376953125,-1.86920166015625,-0.231781005859375,1,1.0,1.0,1.0,1.0,20.00
2024-09-29 18:19:47.552,0.6228087,0.47721985,0.05848456,0.5255614,0.7693956,0.045364514,0.08308456,0.6828797,0.9719976,0.23885223,0.3210318,0.71932495,0.6554688,-0.11175573,-0.22782096,0.39537174,0.30084908,-0.43193352,-0.29812068,0.023455413,819.5604,785.7143,786.1172,812.71063,681.3553,-0.08441162109375,0.1529541015625,0.9930419921875,0.874786376953125,-1.86920166015625,-0.231781005859375,1,1.0,1.0,1.0,1.0,20.00
2024-09-29 18:19:47.553,0.6228087,0.47721985,0.05848456,0.5255614,0.7693956,0.045364514,0.08308456,0.6828797,0.9719976,0.23885223,0.3210318,0.71932495,0.6554688,-0.11175573,-0.22782096,0.39537174,0.30084908,-0.43193352,-0.29812068,0.023455413,817.1429,783.2967,783.69965,815.9341,690.2198,-0.08441162109375,0.1529541015625,0.9930419921875,0.874786376953125,-1.86920166015625,-0.231781005859375,1,1.0,1.0,1.0,1.0,20.00
2024-09-29 18:19:47.553,0.6228087,0.47721985,0.05848456,0.5255614,0.7693956,0.045364514,0.08308456,0.6828797,0.9719976,0.23885223,0.3210318,0.71932495,0.6554688,-0.11175573,-0.22782096,0.39537174,0.30084908,-0.43193352,-0.29812068,0.023455413,815.12823,777.25275,778.86444,815.9341,921.50183,-0.08441162109375,0.1529541015625,0.9930419921875,0.874786376953125,-1.86920166015625,-0.231781005859375,1,1.0,1.0,1.0,1.0,20.00
2024-09-29 18:19:47.554,0.6228087,0.47721985,0.05848456,0.5255614,0.7693956,0.045364514,0.08308456,0.6828797,0.9719976,0.23885223,0.3210318,0.71932495,0.6554688,-0.11175573,-0.22782096,0.39537174,0.30084908,-0.43193352,-0.29812068,0.023455413,816.337,780.4762,775.64105,821.1722,1214.8352,-0.08441162109375,0.1529541015625,0.9930419921875,0.874786376953125,-1.86920166015625,-0.231781005859375,1,1.0,1.0,1.0,1.0,20.00
2024-09-29 18:19:47.554,0.6228087,0.47721985,0.05848456,0.5255614,0.7693956,0.045364514,0.08308456,0.6828797,0.9719976,0.23885223,0.3210318,0.71932495,0.6554688,-0.11175573,-0.22782096,0.39537174,0.30084908,-0.43193352,-0.29812068,0.023455413,819.5604,788.93774,779.67035,826.4103,967.4359,-0.08441162109375,0.1529541015625,0.9930419921875,0.874786376953125,-1.86920166015625,-0.231781005859375,1,1.0,1.0,1.0,1.0,20.00
2024-09-29 18:19:47.555,0.6228087,0.47721985,0.05848456,0.5255614,0.7693956,0.045364514,0.08308456,0.6828797,0.9719976,0.23885223,0.3210318,0.71932495,0.6554688,-0.11175573,-0.22782096,0.39537174,0.30084908,-0.43193352,-0.29812068,0.023455413,816.7399,788.5348,779.67035,815.12823,608.8278,-0.08441162109375,0.1529541015625,0.9930419921875,0.874786376953125,-1.86920166015625,-0.231781005859375,1,1.0,1.0,1.0,1.0,20.00
2024-09-29 18:19:47.555,0.6228087,0.47721985,0.05848456,0.5255614,0.7693956,0.045364514,0.08308456,0.6828797,0.9719976,0.23885223,0.3210318,0.71932495,0.6554688,-0.11175573,-0.22782096,0.39537174,0.30084908,-0.43193352,-0.29812068,0.023455413,818.7546,784.90845,782.49084,816.337,807.0696,-0.08441162109375,0.1529541015625,0.9930419921875,0.874786376953125,-1.86920166015625,-0.231781005859375,1,1.0,1.0,1.0,1.0,20.00
2024-09-29 18:19:47.556,0.6228087,0.47721985,0.05848456,0.5255614,0.7693956,0.045364514,0.08308456,0.6828797,0.9719976,0.23885223,0.3210318,0.71932495,0.6554688,-0.11175573,-0.22782096,0.39537174,0.30084908,-0.43193352,-0.29812068,0.023455413,824.3956,782.49084,788.5348,828.022,1154.3956,-0.08441162109375,0.1529541015625,0.9930419921875,0.874786376953125,-1.86920166015625,-0.231781005859375,1,1.0,1.0,1.0,1.0,20.00
2024-09-29 18:19:47.556,0.6228087,0.47721985,0.05848456,0.5255614,0.7693956,0.045364514,0.08308456,0.6828797,0.9719976,0.23885223,0.3210318,0.71932495,0.6554688,-0.11175573,-0.22782096,0.39537174,0.30084908,-0.43193352,-0.29812068,0.023455413,822.7839,784.10254,787.72894,828.8278,1249.0842,-0.08441162109375,0.1529541015625,0.9930419921875,0.874786376953125,-1.86920166015625,-0.231781005859375,1,1.0,1.0,1.0,1.0,20.00
2024-09-29 18:19:47.557,0.6228087,0.47721985,0.05848456,0.5255614,0.7693956,0.045364514,0.08308456,0.6828797,0.9719976,0.23885223,0.3210318,0.71932495,0.6554688,-0.11175573,-0.22782096,0.39537174,0.30084908,-0.43193352,-0.29812068,0.023455413,823.1868,784.90845,781.28204,827.2161,1219.2675,-0.08441162109375,0.1529541015625,0.9930419921875,0.874786376953125,-1.86920166015625,-0.231781005859375,1,1.0,1.0,1.0,1.0,20.00
2024-09-29 18:19:47.621,0.6228087,0.47721985,0.05848456,0.5255614,0.7693956,0.045364514,0.08308456,0.6828797,0.9719976,0.23885223,0.3210318,0.71932495,0.6554688,-0.11175573,-0.22782096,0.39537174,0.30084908,-0.43193352,-0.29812068,0.023455413,825.2015,778.0586,778.46155,822.7839,995.64105,-0.08648681640625,0.15264892578125,0.99359130859375,0.351409912109375,-2.160797119140625,0.456085205078125,1,1.0,1.0,1.0,1.0,20.00
2024-09-29 18:19:47.622,0.51309574,0.5007384,0.088286944,0.5524346,0.8537682,0.046322543,0.073111475,0.738051,0.9340855,0.22479805,0.31849808,0.71932495,0.64011526,-0.10744353,-0.23802279,0.37737203,0.3098227,-0.43550757,-0.2862696,0.061465304,817.9487,779.67035,780.4762,820.7692,812.71063,-0.08648681640625,0.15264892578125,0.99359130859375,0.351409912109375,-2.160797119140625,0.456085205078125,1,1.0,1.0,1.0,1.0,20.00
2024-09-29 18:19:47.627,0.51309574,0.5007384,0.088286944,0.5524346,0.8537682,0.046322543,0.073111475,0.738051,0.9340855,0.22479805,0.31849808,0.71932495,0.64011526,-0.10744353,-0.23802279,0.37737203,0.3098227,-0.43550757,-0.2862696,0.061465304,803.0403,780.4762,778.86444,823.5897,645.4945,-0.08648681640625,0.15264892578125,0.99359130859375,0.351409912109375,-2.160797119140625,0.456085205078125,1,1.0,1.0,1.0,1.0,20.00
2024-09-29 18:19:47.628,0.51309574,0.5007384,0.088286944,0.5524346,0.8537682,0.046322543,0.073111475,0.738051,0.9340855,0.22479805,0.31849808,0.71932495,0.64011526,-0.10744353,-0.23802279,0.37737203,0.3098227,-0.43550757,-0.2862696,0.061465304,799.011,774.43225,778.86444,823.1868,524.21246,-0.08648681640625,0.15264892578125,0.99359130859375,0.351409912109375,-2.160797119140625,0.456085205078125,1,1.0,1.0,1.0,1.0,20.00
2024-09-29 18:19:47.629,0.51309574,0.5007384,0.088286944,0.5524346,0.8537682,0.046322543,0.073111475,0.738051,0.9340855,0.22479805,0.31849808,0.71932495,0.64011526,-0.10744353,-0.23802279,0.37737203,0.3098227,-0.43550757,-0.2862696,0.061465304,806.26373,775.2381,778.0586,830.0366,751.8681,-0.08648681640625,0.15264892578125,0.99359130859375,0.351409912109375,-2.160797119140625,0.456085205078125,1,1.0,1.0,1.0,1.0,20.00
2024-09-29 18:19:47.629,0.51309574,0.5007384,0.088286944,0.5524346,0.8537682,0.046322543,0.073111475,0.738051,0.9340855,0.22479805,0.31849808,0.71932495,0.64011526,-0.10744353,-0.23802279,0.37737203,0.3098227,-0.43550757,-0.2862696,0.061465304,811.0989,775.64105,778.86444,830.4396,1023.0403,-0.08648681640625,0.15264892578125,0.99359130859375,0.351409912109375,-2.160797119140625,0.456085205078125,1,1.0,1.0,1.0,1.0,20.00
2024-09-29 18:19:47.630,0.51309574,0.5007384,0.088286944,0.5524346,0.8537682,0.046322543,0.073111475,0.738051,0.9340855,0.22479805,0.31849808,0.71932495,0.64011526,-0.10744353,-0.23802279,0.37737203,0.3098227,-0.43550757,-0.2862696,0.061465304,811.9048,772.01465,780.4762,821.978,814.3223,-0.08648681640625,0.15264892578125,0.99359130859375,0.351409912109375,-2.160797119140625,0.456085205078125,1,1.0,1.0,1.0,1.0,20.00
2024-09-29 18:19:47.630,0.51309574,0.5007384,0.088286944,0.5524346,0.8537682,0.046322543,0.073111475,0.738051,0.9340855,0.22479805,0.31849808,0.71932495,0.64011526,-0.10744353,-0.23802279,0.37737203,0.3098227,-0.43550757,-0.2862696,0.061465304,817.1429,769.59705,780.4762,828.4249,707.9487,-0.08648681640625,0.15264892578125,0.99359130859375,0.351409912109375,-2.160797119140625,0.456085205078125,1,1.0,1.0,1.0,1.0,20.00
2024-09-29 18:19:47.631,0.51309574,0.5007384,0.088286944,0.5524346,0.8537682,0.046322543,0.073111475,0.738051,0.9340855,0.22479805,0.31849808,0.71932495,0.64011526,-0.10744353,-0.23802279,0.37737203,0.3098227,-0.43550757,-0.2862696,0.061465304,823.9927,780.07324,776.8498,834.4689,926.337,-0.08648681640625,0.15264892578125,0.99359130859375,0.351409912109375,-2.160797119140625,0.456085205078125,1,1.0,1.0,1.0,1.0,20.00
2024-09-29 18:19:47.632,0.51309574,0.5007384,0.088286944,0.5524346,0.8537682,0.046322543,0.073111475,0.738051,0.9340855,0.22479805,0.31849808,0.71932495,0.64011526,-0.10744353,-0.23802279,0.37737203,0.3098227,-0.43550757,-0.2862696,0.061465304,815.5311,788.1319,769.19415,817.9487,1009.34064,-0.08648681640625,0.15264892578125,0.99359130859375,0.351409912109375,-2.160797119140625,0.456085205078125,1,1.0,1.0,1.0,1.0,20.00
2024-09-29 18:19:47.632,0.51309574,0.5007384,0.088286944,0.5524346,0.8537682,0.046322543,0.073111475,0.738051,0.9340855,0.22479805,0.31849808,0.71932495,0.64011526,-0.10744353,-0.23802279,0.37737203,0.3098227,-0.43550757,-0.2862696,0.061465304,814.3223,786.1172,769.19415,804.2491,838.49817,-0.08648681640625,0.15264892578125,0.99359130859375,0.351409912109375,-2.160797119140625,0.456085205078125,1,1.0,1.0,1.0,1.0,20.00
2024-09-29 18:19:47.633,0.51309574,0.5007384,0.088286944,0.5524346,0.8537682,0.046322543,0.073111475,0.738051,0.9340855,0.22479805,0.31849808,0.71932495,0.64011526,-0.10744353,-0.23802279,0.37737203,0.3098227,-0.43550757,-0.2862696,0.061465304,821.978,787.72894,771.6117,811.50183,694.65204,-0.08648681640625,0.15264892578125,0.99359130859375,0.351409912109375,-2.160797119140625,0.456085205078125,1,1.0,1.0,1.0,1.0,20.00
2024-09-29 18:19:47.634,0.51309574,0.5007384,0.088286944,0.5524346,0.8537682,0.046322543,0.073111475,0.738051,0.9340855,0.22479805,0.31849808,0.71932495,0.64011526,-0.10744353,-0.23802279,0.37737203,0.3098227,-0.43550757,-0.2862696,0.061465304,821.5751,788.5348,772.01465,821.978,805.05493,-0.08758544921875,0.15069580078125,0.99200439453125,0.76263427734375,-1.4654541015625,0.5084228515625,1,1.0,1.0,1.0,1.0,20.00
2024-09-29 18:19:47.634,0.51309574,0.5007384,0.088286944,0.5524346,0.8537682,0.046322543,0.073111475,0.738051,0.9340855,0.22479805,0.31849808,0.71932495,0.64011526,-0.10744353,-0.23802279,0.37737203,0.3098227,-0.43550757,-0.2862696,0.061465304,823.5897,788.1319,772.4176,818.7546,864.68866,-0.08758544921875,0.15069580078125,0.99200439453125,0.76263427734375,-1.4654541015625,0.5084228515625,1,1.0,1.0,1.0,1.0,20.00
2024-09-29 18:19:47.635,0.51309574,0.5007384,0.088286944,0.5524346,0.8537682,0.046322543,0.073111475,0.738051,0.9340855,0.22479805,0.31849808,0.71932495,0.64011526,-0.10744353,-0.23802279,0.37737203,0.3098227,-0.43550757,-0.2862696,0.061465304,829.6337,795.38464,771.6117,815.12823,774.43225,-0.08758544921875,0.15069580078125,0.99200439453125,0.76263427734375,-1.4654541015625,0.5084228515625,1,1.0,1.0,1.0,1.0,20.00
2024-09-29 18:19:47.635,0.51309574,0.5007384,0.088286944,0.5524346,0.8537682,0.046322543,0.073111475,0.738051,0.9340855,0.22479805,0.31849808,0.71932495,0.64011526,-0.10744353,-0.23802279,0.37737203,0.3098227,-0.43550757,-0.2862696,0.061465304,830.4396,795.78754,770.0,818.3516,657.98535,-0.08758544921875,0.15069580078125,0.99200439453125,0.76263427734375,-1.4654541015625,0.5084228515625,1,1.0,1.0,1.0,1.0,20.00
2024-09-29 18:19:47.636,0.51309574,0.5007384,0.088286944,0.5524346,0.8537682,0.046322543,0.073111475,0.738051,0.9340855,0.22479805,0.31849808,0.71932495,0.64011526,-0.10744353,-0.23802279,0.37737203,0.3098227,-0.43550757,-0.2862696,0.061465304,831.2454,795.38464,761.9414,813.1135,682.5641,-0.08758544921875,0.15069580078125,0.99200439453125,0.76263427734375,-1.4654541015625,0.5084228515625,1,1.0,1.0,1.0,1.0,20.00
2024-09-29 18:19:47.637,0.51309574,0.5007384,0.088286944,0.5524346,0.8537682,0.046322543,0.073111475,0.738051,0.9340855,0.22479805,0.31849808,0.71932495,0.64011526,-0.10744353,-0.23802279,0.37737203,0.3098227,-0.43550757,-0.2862696,0.061465304,836.08057,792.1612,759.5238,814.7253,855.0183,-0.08758544921875,0.15069580078125,0.99200439453125,0.76263427734375,-1.4654541015625,0.5084228515625,1,1.0,1.0,1.0,1.0,20.00
2024-09-29 18:19:47.637,0.51309574,0.5007384,0.088286944,0.5524346,0.8537682,0.046322543,0.073111475,0.738051,0.9340855,0.22479805,0.31849808,0.71932495,0.64011526,-0.10744353,-0.23802279,0.37737203,0.3098227,-0.43550757,-0.2862696,0.061465304,835.2747,787.326,766.77655,817.9487,941.6484,-0.08758544921875,0.15069580078125,0.99200439453125,0.76263427734375,-1.4654541015625,0.5084228515625,1,1.0,1.0,1.0,1.0,20.00
2024-09-29 18:19:47.638,0.51309574,0.5007384,0.088286944,0.5524346,0.8537682,0.046322543,0.073111475,0.738051,0.9340855,0.22479805,0.31849808,0.71932495,0.64011526,-0.10744353,-0.23802279,0.37737203,0.3098227,-0.43550757,-0.2862696,0.061465304,837.6923,790.14655,767.1795,821.1722,809.89014,-0.08758544921875,0.15069580078125,0.99200439453125,0.76263427734375,-1.4654541015625,0.5084228515625,1,1.0,1.0,1.0,1.0,20.00
2024-09-29 18:19:47.639,0.51309574,0.5007384,0.088286944,0.5524346,0.8537682,0.046322543,0.073111475,0.738051,0.9340855,0.22479805,0.31849808,0.71932495,0.64011526,-0.10744353,-0.23802279,0.37737203,0.3098227,-0.43550757,-0.2862696,0.061465304,844.5421,792.5641,764.35895,830.84247,772.8205,-0.08758544921875,0.15069580078125,0.99200439453125,0.76263427734375,-1.4654541015625,0.5084228515625,1,1.0,1.0,1.0,1.0,20.00
2024-09-29 18:19:47.639,0.51309574,0.5007384,0.088286944,0.5524346,0.8537682,0.046322543,0.073111475,0.738051,0.9340855,0.22479805,0.31849808,0.71932495,0.64011526,-0.10744353,-0.23802279,0.37737203,0.3098227,-0.43550757,-0.2862696,0.061465304,845.7509,793.36993,766.77655,834.87177,811.9048,-0.08758544921875,0.15069580078125,0.99200439453125,0.76263427734375,-1.4654541015625,0.5084228515625,1,1.0,1.0,1.0,1.0,20.00
2024-09-29 18:19:47.640,0.51309574,0.5007384,0.088286944,0.5524346,0.8537682,0.046322543,0.073111475,0.738051,0.9340855,0.22479805,0.31849808,0.71932495,0.64011526,-0.10744353,-0.23802279,0.37737203,0.3098227,-0.43550757,-0.2862696,0.061465304,844.5421,794.57874,774.83514,840.9158,858.24176,-0.08758544921875,0.15069580078125,0.99200439453125,0.76263427734375,-1.4654541015625,0.5084228515625,1,1.0,1.0,1.0,1.0,20.00
2024-09-29 18:19:47.640,0.51309574,0.5007384,0.088286944,0.5524346,0.8537682,0.046322543,0.073111475,0.738051,0.9340855,0.22479805,0.31849808,0.71932495,0.64011526,-0.10744353,-0.23802279,0.37737203,0.3098227,-0.43550757,-0.2862696,0.061465304,846.9597,791.75824,776.8498,843.3333,833.2601,-0.08758544921875,0.15069580078125,0.99200439453125,0.76263427734375,-1.4654541015625,0.5084228515625,1,1.0,1.0,1.0,1.0,20.00
2024-09-29 18:19:47.773,0.51309574,0.5007384,0.088286944,0.5524346,0.8537682,0.046322543,0.073111475,0.738051,0.9340855,0.22479805,0.31849808,0.71932495,0.64011526,-0.10744353,-0.23802279,0.37737203,0.3098227,-0.43550757,-0.2862696,0.061465304,847.3626,793.7729,774.83514,832.0513,802.6374,-0.07489013671875,0.1539306640625,0.98968505859375,0.575714111328125,-2.4822998046875,0.575714111328125,1,1.0,1.0,1.0,1.0,20.00
2024-09-29 18:19:47.774,0.51309574,0.5007384,0.088286944,0.5524346,0.8537682,0.046322543,0.073111475,0.738051,0.9340855,0.22479805,0.31849808,0.71932495,0.64011526,-0.10744353,-0.23802279,0.37737203,0.3098227,-0.43550757,-0.2862696,0.061465304,838.9011,793.36993,774.83514,831.2454,670.4762,-0.07489013671875,0.1539306640625,0.98968505859375,0.575714111328125,-2.4822998046875,0.575714111328125,1,1.0,1.0,1.0,1.0,20.00
2024-09-29 18:19:47.775,0.51309574,0.5007384,0.088286944,0.5524346,0.8537682,0.046322543,0.073111475,0.738051,0.9340855,0.22479805,0.31849808,0.71932495,0.64011526,-0.10744353,-0.23802279,0.37737203,0.3098227,-0.43550757,-0.2862696,0.061465304,840.10986,791.3553,775.64105,836.08057,713.9927,-0.07489013671875,0.1539306640625,0.98968505859375,0.575714111328125,-2.4822998046875,0.575714111328125,1,1.0,1.0,1.0,1.0,20.00
2024-09-29 18:19:47.775,0.51309574,0.5272659,0.105486356,0.5524346,0.8537682,0.048203103,0.06249357,0.738051,0.9340855,0.20607795,0.31270134,0.71932495,0.64011526,-0.10003062,-0.2235341,0.37737203,0.3098227,-0.4412749,-0.28220809,0.061465304,842.1245,787.72894,775.2381,836.4835,836.8865,-0.07489013671875,0.1539306640625,0.98968505859375,0.575714111328125,-2.4822998046875,0.575714111328125,1,1.0,1.0,1.0,1.0,20.00
2024-09-29 18:19:47.780,0.51309574,0.5272659,0.105486356,0.5524346,0.8537682,0.048203103,0.06249357,0.738051,0.9340855,0.20607795,0.31270134,0.71932495,0.64011526,-0.10003062,-0.2235341,0.37737203,0.3098227,-0.4412749,-0.28220809,0.061465304,839.304,788.1319,776.04395,839.304,753.0769,-0.07489013671875,0.1539306640625,0.98968505859375,0.575714111328125,-2.4822998046875,0.575714111328125,1,1.0,1.0,1.0,1.0,20.00
2024-09-29 18:19:47.780,0.51309574,0.5272659,0.105486356,0.5524346,0.8537682,0.048203103,0.06249357,0.738051,0.9340855,0.20607795,0.31270134,0.71932495,0.64011526,-0.10003062,-0.2235341,0.37737203,0.3098227,-0.4412749,-0.28220809,0.061465304,841.7216,790.14655,776.8498,834.87177,698.68134,-0.07489013671875,0.1539306640625,0.98968505859375,0.575714111328125,-2.4822998046875,0.575714111328125,1,1.0,1.0,1.0,1.0,20.00
2024-09-29 18:19:47.781,0.51309574,0.5272659,0.105486356,0.5524346,0.8537682,0.048203103,0.06249357,0.738051,0.9340855,0.20607795,0.31270134,0.71932495,0.64011526,-0.10003062,-0.2235341,0.37737203,0.3098227,-0.4412749,-0.28220809,0.061465304,842.9304,789.7436,778.46155,829.2308,884.0293,-0.07489013671875,0.1539306640625,0.98968505859375,0.575714111328125,-2.4822998046875,0.575714111328125,1,1.0,1.0,1.0,1.0,20.00
2024-09-29 18:19:47.781,0.51309574,0.5272659,0.105486356,0.5524346,0.8537682,0.048203103,0.06249357,0.738051,0.9340855,0.20607795,0.31270134,0.71932495,0.64011526,-0.10003062,-0.2235341,0.37737203,0.3098227,-0.4412749,-0.28220809,0.061465304,831.6484,788.5348,779.67035,828.8278,1052.8572,-0.07489013671875,0.1539306640625,0.98968505859375,0.575714111328125,-2.4822998046875,0.575714111328125,1,1.0,1.0,1.0,1.0,20.00
2024-09-29 18:19:47.782,0.51309574,0.5272659,0.105486356,0.5524346,0.8537682,0.048203103,0.06249357,0.738051,0.9340855,0.20607795,0.31270134,0.71932495,0.64011526,-0.10003062,-0.2235341,0.37737203,0.3098227,-0.4412749,-0.28220809,0.061465304,821.978,786.1172,779.2674,830.4396,1213.2234,-0.07489013671875,0.1539306640625,0.98968505859375,0.575714111328125,-2.4822998046875,0.575714111328125,1,1.0,1.0,1.0,1.0,20.00
2024-09-29 18:19:47.783,0.51309574,0.5272659,0.105486356,0.5524346,0.8537682,0.048203103,0.06249357,0.738051,0.9340855,0.20607795,0.31270134,0.71932495,0.64011526,-0.10003062,-0.2235341,0.37737203,0.3098227,-0.4412749,-0.28220809,0.061465304,820.7692,788.5348,781.28204,826.0073,1054.4689,-0.07489013671875,0.1539306640625,0.98968505859375,0.575714111328125,-2.4822998046875,0.575714111328125,1,1.0,1.0,1.0,1.0,20.00
2024-09-29 18:19:47.783,0.51309574,0.5272659,0.105486356,0.5524346,0.8537682,0.048203103,0.06249357,0.738051,0.9340855,0.20607795,0.31270134,0.71932495,0.64011526,-0.10003062,-0.2235341,0.37737203,0.3098227,-0.4412749,-0.28220809,0.061465304,821.5751,788.5348,781.685,818.3516,734.94507,-0.07489013671875,0.1539306640625,0.98968505859375,0.575714111328125,-2.4822998046875,0.575714111328125,1,1.0,1.0,1.0,1.0,20.00
2024-09-29 18:19:47.784,0.51309574,0.5272659,0.105486356,0.5524346,0.8537682,0.048203103,0.06249357,0.738051,0.9340855,0.20607795,0.31270134,0.71932495,0.64011526,-0.10003062,-0.2235341,0.37737203,0.3098227,-0.4412749,-0.28220809,0.061465304,829.6337,786.52014,780.87915,815.5311,830.4396,-0.07489013671875,0.1539306640625,0.98968505859375,0.575714111328125,-2.4822998046875,0.575714111328125,1,1.0,1.0,1.0,1.0,20.00
2024-09-29 18:19:47.786,0.51309574,0.5272659,0.105486356,0.5524346,0.8537682,0.048203103,0.06249357,0.738051,0.9340855,0.20607795,0.31270134,0.71932495,0.64011526,-0.10003062,-0.2235341,0.37737203,0.3098227,-0.4412749,-0.28220809,0.061465304,826.4103,787.72894,780.87915,809.89014,884.43225,-0.07763671875,0.15020751953125,0.99420166015625,0.34393310546875,-1.33087158203125,0.67291259765625,1,1.0,1.0,1.0,1.0,20.00
2024-09-29 18:19:47.787,0.51309574,0.5272659,0.105486356,0.5524346,0.8537682,0.048203103,0.06249357,0.738051,0.9340855,0.20607795,0.31270134,0.71932495,0.64011526,-0.10003062,-0.2235341,0.37737203,0.3098227,-0.4412749,-0.28220809,0.061465304,820.7692,788.5348,782.0879,800.6227,631.39197,-0.07763671875,0.15020751953125,0.99420166015625,0.34393310546875,-1.33087158203125,0.67291259765625,1,1.0,1.0,1.0,1.0,20.00
2024-09-29 18:19:47.788,0.51309574,0.5272659,0.105486356,0.5524346,0.8537682,0.048203103,0.06249357,0.738051,0.9340855,0.20607795,0.31270134,0.71932495,0.64011526,-0.10003062,-0.2235341,0.37737203,0.3098227,-0.4412749,-0.28220809,0.061465304,822.7839,782.8938,786.9231,806.26373,635.82416,-0.07763671875,0.15020751953125,0.99420166015625,0.34393310546875,-1.33087158203125,0.67291259765625,1,1.0,1.0,1.0,1.0,20.00
2024-09-29 18:19:47.788,0.51309574,0.5272659,0.105486356,0.5524346,0.8537682,0.048203103,0.06249357,0.738051,0.9340855,0.20607795,0.31270134,0.71932495,0.64011526,-0.10003062,-0.2235341,0.37737203,0.3098227,-0.4412749,-0.28220809,0.061465304,819.15753,776.4469,783.2967,810.696,865.4945,-0.07763671875,0.15020751953125,0.99420166015625,0.34393310546875,-1.33087158203125,0.67291259765625,1,1.0,1.0,1.0,1.0,20.00
2024-09-29 18:19:47.789,0.51309574,0.5272659,0.105486356,0.5524346,0.8537682,0.048203103,0.06249357,0.738051,0.9340855,0.20607795,0.31270134,0.71932495,0.64011526,-0.10003062,-0.2235341,0.37737203,0.3098227,-0.4412749,-0.28220809,0.061465304,819.9634,778.86444,781.28204,808.68134,737.3626,-0.07763671875,0.15020751953125,0.99420166015625,0.34393310546875,-1.33087158203125,0.67291259765625,1,1.0,1.0,1.0,1.0,20.00
2024-09-29 18:19:47.789,0.51309574,0.5272659,0.105486356,0.5524346,0.8537682,0.048203103,0.06249357,0.738051,0.9340855,0.20607795,0.31270134,0.71932495,0.64011526,-0.10003062,-0.2235341,0.37737203,0.3098227,-0.4412749,-0.28220809,0.061465304,823.1868,783.69965,782.8938,808.68134,577.3993,-0.07763671875,0.15020751953125,0.99420166015625,0.34393310546875,-1.33087158203125,0.67291259765625,1,1.0,1.0,1.0,1.0,20.00
2024-09-29 18:19:47.790,0.51309574,0.5272659,0.105486356,0.5524346,0.8537682,0.048203103,0.06249357,0.738051,0.9340855,0.20607795,0.31270134,0.71932495,0.64011526,-0.10003062,-0.2235341,0.37737203,0.3098227,-0.4412749,-0.28220809,0.061465304,825.6044,787.326,778.46155,813.5165,790.54944,-0.07763671875,0.15020751953125,0.99420166015625,0.34393310546875,-1.33087158203125,0.67291259765625,1,1.0,1.0,1.0,1.0,20.00
2024-09-29 18:19:47.791,0.51309574,0.5272659,0.105486356,0.5524346,0.8537682,0.048203103,0.06249357,0.738051,0.9340855,0.20607795,0.31270134,0.71932495,0.64011526,-0.10003062,-0.2235341,0.37737203,0.3098227,-0.4412749,-0.28220809,0.061465304,828.8278,788.93774,780.07324,819.15753,990.40295,-0.07763671875,0.15020751953125,0.99420166015625,0.34393310546875,-1.33087158203125,0.67291259765625,1,1.0,1.0,1.0,1.0,20.00
2024-09-29 18:19:47.791,0.51309574,0.5272659,0.105486356,0.5524346,0.8537682,0.048203103,0.06249357,0.738051,0.9340855,0.20607795,0.31270134,0.71932495,0.64011526,-0.10003062,-0.2235341,0.37737203,0.3098227,-0.4412749,-0.28220809,0.061465304,832.4542,790.9524,786.1172,823.9927,749.0476,-0.07763671875,0.15020751953125,0.99420166015625,0.34393310546875,-1.33087158203125,0.67291259765625,1,1.0,1.0,1.0,1.0,20.00
2024-09-29 18:19:47.792,0.51309574,0.5272659,0.105486356,0.5524346,0.8537682,0.048203103,0.06249357,0.738051,0.9340855,0.20607795,0.31270134,0.71932495,0.64011526,-0.10003062,-0.2235341,0.37737203,0.3098227,-0.4412749,-0.28220809,0.061465304,836.8865,794.17584,786.1172,827.2161,545.16486,-0.07763671875,0.15020751953125,0.99420166015625,0.34393310546875,-1.33087158203125,0.67291259765625,1,1.0,1.0,1.0,1.0,20.00
2024-09-29 18:19:47.792,0.51309574,0.5272659,0.105486356,0.5524346,0.8537682,0.048203103,0.06249357,0.738051,0.9340855,0.20607795,0.31270134,0.71932495,0.64011526,-0.10003062,-0.2235341,0.37737203,0.3098227,-0.4412749,-0.28220809,0.061465304,841.7216,793.7729,788.5348,830.0366,687.3993,-0.07763671875,0.15020751953125,0.99420166015625,0.34393310546875,-1.33087158203125,0.67291259765625,1,1.0,1.0,1.0,1.0,20.00
2024-09-29 18:19:47.793,0.51309574,0.5272659,0.105486356,0.5524346,0.8537682,0.048203103,0.06249357,0.738051,0.9340855,0.20607795,0.31270134,0.71932495,0.64011526,-0.10003062,-0.2235341,0.37737203,0.3098227,-0.4412749,-0.28220809,0.061465304,839.304,794.9817,789.7436,833.2601,838.49817,-0.07763671875,0.15020751953125,0.99420166015625,0.34393310546875,-1.33087158203125,0.67291259765625,1,1.0,1.0,1.0,1.0,20.00
2024-09-29 18:19:47.819,0.51309574,0.5272659,0.105486356,0.5524346,0.8537682,0.048203103,0.06249357,0.738051,0.9340855,0.20607795,0.31270134,0.71932495,0.64011526,-0.10003062,-0.2235341,0.37737203,0.3098227,-0.4412749,-0.28220809,0.061465304,817.1429,790.14655,786.1172,829.2308,821.1722,-0.07763671875,0.15020751953125,0.99420166015625,0.34393310546875,-1.33087158203125,0.67291259765625,1,1.0,1.0,1.0,1.0,20.00
2024-09-29 18:19:47.820,0.51309574,0.5272659,0.105486356,0.5524346,0.8537682,0.048203103,0.06249357,0.738051,0.9340855,0.20607795,0.31270134,0.71932495,0.64011526,-0.10003062,-0.2235341,0.37737203,0.3098227,-0.4412749,-0.28220809,0.061465304,807.0696,786.52014,779.67035,820.7692,709.9634,-0.07763671875,0.15020751953125,0.99420166015625,0.34393310546875,-1.33087158203125,0.67291259765625,1,1.0,1.0,1.0,1.0,20.00
2024-09-29 18:19:47.821,0.51309574,0.5272659,0.105486356,0.5524346,0.8537682,0.048203103,0.06249357,0.738051,0.9340855,0.20607795,0.31270134,0.71932495,0.64011526,-0.10003062,-0.2235341,0.37737203,0.3098227,-0.4412749,-0.28220809,0.061465304,815.9341,793.7729,781.685,823.1868,775.2381,-0.07763671875,0.15020751953125,0.99420166015625,0.34393310546875,-1.33087158203125,0.67291259765625,1,1.0,1.0,1.0,1.0,20.00
2024-09-29 18:19:47.821,0.51309574,0.5272659,0.105486356,0.5524346,0.8537682,0.048203103,0.06249357,0.738051,0.9340855,0.20607795,0.31270134,0.71932495,0.64011526,-0.10003062,-0.2235341,0.37737203,0.3098227,-0.4412749,-0.28220809,0.061465304,809.4872,796.5934,784.5055,823.5897,896.1172,-0.07763671875,0.15020751953125,0.99420166015625,0.34393310546875,-1.33087158203125,0.67291259765625,1,1.0,1.0,1.0,1.0,20.00
2024-09-29 18:19:47.822,0.51309574,0.5272659,0.105486356,0.5524346,0.8537682,0.048203103,0.06249357,0.738051,0.9340855,0.20607795,0.31270134,0.71932495,0.64011526,-0.10003062,-0.2235341,0.37737203,0.3098227,-0.4412749,-0.28220809,0.061465304,803.8461,792.5641,778.46155,811.9048,749.85345,-0.07763671875,0.15020751953125,0.99420166015625,0.34393310546875,-1.33087158203125,0.67291259765625,1,1.0,1.0,1.0,1.0,20.00
2024-09-29 18:19:47.822,0.51309574,0.5522398,0.1283646,0.5524346,0.8537682,0.050177697,0.05772584,0.738051,0.9340855,0.20149405,0.30867895,0.71932495,0.64011526,-0.09112729,-0.19077565,0.37737203,0.3098227,-0.44748375,-0.29022184,0.061465304,803.44324,792.96704,777.6557,809.4872,695.8608,-0.07763671875,0.15020751953125,0.99420166015625,0.34393310546875,-1.33087158203125,0.67291259765625,1,1.0,1.0,1.0,1.0,20.00
2024-09-29 18:19:47.827,0.51309574,0.5522398,0.1283646,0.5524346,0.8537682,0.050177697,0.05772584,0.738051,0.9340855,0.20149405,0.30867895,0.71932495,0.64011526,-0.09112729,-0.19077565,0.37737203,0.3098227,-0.44748375,-0.29022184,0.061465304,807.0696,795.38464,782.49084,813.5165,894.5055,-0.07763671875,0.15020751953125,0.99420166015625,0.34393310546875,-1.33087158203125,0.67291259765625,1,1.0,1.0,1.0,1.0,20.00
2024-09-29 18:19:47.827,0.51309574,0.5522398,0.1283646,0.5524346,0.8537682,0.050177697,0.05772584,0.738051,0.9340855,0.20149405,0.30867895,0.71932495,0.64011526,-0.09112729,-0.19077565,0.37737203,0.3098227,-0.44748375,-0.29022184,0.061465304,811.50183,794.57874,780.07324,809.89014,834.4689,-0.07763671875,0.15020751953125,0.99420166015625,0.34393310546875,-1.33087158203125,0.67291259765625,1,1.0,1.0,1.0,1.0,20.00
2024-09-29 18:19:47.828,0.51309574,0.5522398,0.1283646,0.5524346,0.8537682,0.050177697,0.05772584,0.738051,0.9340855,0.20149405,0.30867895,0.71932495,0.64011526,-0.09112729,-0.19077565,0.37737203,0.3098227,-0.44748375,-0.29022184,0.061465304,809.0842,795.38464,781.28204,810.696,718.8278,-0.07763671875,0.15020751953125,0.99420166015625,0.34393310546875,-1.33087158203125,0.67291259765625,1,1.0,1.0,1.0,1.0,20.00
2024-09-29 18:19:47.829,0.51309574,0.5522398,0.1283646,0.5524346,0.8537682,0.050177697,0.05772584,0.738051,0.9340855,0.20149405,0.30867895,0.71932495,0.64011526,-0.09112729,-0.19077565,0.37737203,0.3098227,-0.44748375,-0.29022184,0.061465304,813.1135,796.1905,788.1319,809.4872,808.68134,-0.07763671875,0.15020751953125,0.99420166015625,0.34393310546875,-1.33087158203125,0.67291259765625,1,1.0,1.0,1.0,1.0,20.00
2024-09-29 18:19:47.829,0.51309574,0.5522398,0.1283646,0.5524346,0.8537682,0.050177697,0.05772584,0.738051,0.9340855,0.20149405,0.30867895,0.71932495,0.64011526,-0.09112729,-0.19077565,0.37737203,0.3098227,-0.44748375,-0.29022184,0.061465304,813.5165,796.1905,788.5348,804.65204,911.8315,-0.07763671875,0.15020751953125,0.99420166015625,0.34393310546875,-1.33087158203125,0.67291259765625,1,1.0,1.0,1.0,1.0,20.00
2024-09-29 18:19:47.830,0.51309574,0.5522398,0.1283646,0.5524346,0.8537682,0.050177697,0.05772584,0.738051,0.9340855,0.20149405,0.30867895,0.71932495,0.64011526,-0.09112729,-0.19077565,0.37737203,0.3098227,-0.44748375,-0.29022184,0.061465304,808.2784,795.38464,786.9231,804.2491,780.87915,-0.07763671875,0.15020751953125,0.99420166015625,0.34393310546875,-1.33087158203125,0.67291259765625,1,1.0,1.0,1.0,1.0,20.00
2024-09-29 18:19:47.831,0.51309574,0.5522398,0.1283646,0.5524346,0.8537682,0.050177697,0.05772584,0.738051,0.9340855,0.20149405,0.30867895,0.71932495,0.64011526,-0.09112729,-0.19077565,0.37737203,0.3098227,-0.44748375,-0.29022184,0.061465304,807.0696,790.54944,789.7436,804.65204,782.0879,-0.0782470703125,0.1531982421875,0.99273681640625,0.34393310546875,-0.919647216796875,0.11962890625,1,1.0,1.0,1.0,1.0,20.00
2024-09-29 18:19:47.831,0.51309574,0.5522398,0.1283646,0.5524346,0.8537682,0.050177697,0.05772584,0.738051,0.9340855,0.20149405,0.30867895,0.71932495,0.64011526,-0.09112729,-0.19077565,0.37737203,0.3098227,-0.44748375,-0.29022184,0.061465304,805.05493,786.52014,788.93774,802.6374,864.68866,-0.0782470703125,0.1531982421875,0.99273681640625,0.34393310546875,-0.919647216796875,0.11962890625,1,1.0,1.0,1.0,1.0,20.00
2024-09-29 18:19:47.832,0.51309574,0.5522398,0.1283646,0.5524346,0.8537682,0.050177697,0.05772584,0.738051,0.9340855,0.20149405,0.30867895,0.71932495,0.64011526,-0.09112729,-0.19077565,0.37737203,0.3098227,-0.44748375,-0.29022184,0.061465304,808.2784,787.72894,789.34064,799.41394,800.2198,-0.0782470703125,0.1531982421875,0.99273681640625,0.34393310546875,-0.919647216796875,0.11962890625,1,1.0,1.0,1.0,1.0,20.00
2024-09-29 18:19:47.833,0.51309574,0.5522398,0.1283646,0.5524346,0.8537682,0.050177697,0.05772584,0.738051,0.9340855,0.20149405,0.30867895,0.71932495,0.64011526,-0.09112729,-0.19077565,0.37737203,0.3098227,-0.44748375,-0.29022184,0.061465304,811.0989,785.7143,789.7436,803.0403,737.76556,-0.0782470703125,0.1531982421875,0.99273681640625,0.34393310546875,-0.919647216796875,0.11962890625,1,1.0,1.0,1.0,1.0,20.00
2024-09-29 18:19:47.833,0.51309574,0.5522398,0.1283646,0.5524346,0.8537682,0.050177697,0.05772584,0.738051,0.9340855,0.20149405,0.30867895,0.71932495,0.64011526,-0.09112729,-0.19077565,0.37737203,0.3098227,-0.44748375,-0.29022184,0.061465304,820.7692,791.3553,788.5348,812.71063,832.4542,-0.0782470703125,0.1531982421875,0.99273681640625,0.34393310546875,-0.919647216796875,0.11962890625,1,1.0,1.0,1.0,1.0,20.00
2024-09-29 18:19:47.834,0.51309574,0.5522398,0.1283646,0.5524346,0.8537682,0.050177697,0.05772584,0.738051,0.9340855,0.20149405,0.30867895,0.71932495,0.64011526,-0.09112729,-0.19077565,0.37737203,0.3098227,-0.44748375,-0.29022184,0.061465304,829.2308,790.9524,786.9231,815.5311,996.8498,-0.0782470703125,0.1531982421875,0.99273681640625,0.34393310546875,-0.919647216796875,0.11962890625,1,1.0,1.0,1.0,1.0,20.00
2024-09-29 18:19:47.834,0.51309574,0.5522398,0.1283646,0.5524346,0.8537682,0.050177697,0.05772584,0.738051,0.9340855,0.20149405,0.30867895,0.71932495,0.64011526,-0.09112729,-0.19077565,0.37737203,0.3098227,-0.44748375,-0.29022184,0.061465304,831.6484,787.72894,780.4762,811.9048,1053.663,-0.0782470703125,0.1531982421875,0.99273681640625,0.34393310546875,-0.919647216796875,0.11962890625,1,1.0,1.0,1.0,1.0,20.00
2024-09-29 18:19:47.835,0.51309574,0.5522398,0.1283646,0.5524346,0.8537682,0.050177697,0.05772584,0.738051,0.9340855,0.20149405,0.30867895,0.71932495,0.64011526,-0.09112729,-0.19077565,0.37737203,0.3098227,-0.44748375,-0.29022184,0.061465304,836.08057,793.7729,780.4762,809.0842,848.1685,-0.0782470703125,0.1531982421875,0.99273681640625,0.34393310546875,-0.919647216796875,0.11962890625,1,1.0,1.0,1.0,1.0,20.00
2024-09-29 18:19:47.836,0.51309574,0.5522398,0.1283646,0.5524346,0.8537682,0.050177697,0.05772584,0.738051,0.9340855,0.20149405,0.30867895,0.71932495,0.64011526,-0.09112729,-0.19077565,0.37737203,0.3098227,-0.44748375,-0.29022184,0.061465304,838.0952,799.41394,784.5055,817.9487,743.00366,-0.0782470703125,0.1531982421875,0.99273681640625,0.34393310546875,-0.919647216796875,0.11962890625,1,1.0,1.0,1.0,1.0,20.00
2024-09-29 18:19:47.837,0.51309574,0.5522398,0.1283646,0.5524346,0.8537682,0.050177697,0.05772584,0.738051,0.9340855,0.20149405,0.30867895,0.71932495,0.64011526,-0.09112729,-0.19077565,0.37737203,0.3098227,-0.44748375,-0.29022184,0.061465304,837.28937,792.5641,786.1172,827.619,805.4579,-0.0782470703125,0.1531982421875,0.99273681640625,0.34393310546875,-0.919647216796875,0.11962890625,1,1.0,1.0,1.0,1.0,20.00
2024-09-29 18:19:47.838,0.51309574,0.5522398,0.1283646,0.5524346,0.8537682,0.050177697,0.05772584,0.738051,0.9340855,0.20149405,0.30867895,0.71932495,0.64011526,-0.09112729,-0.19077565,0.37737203,0.3098227,-0.44748375,-0.29022184,0.061465304,834.0659,788.93774,787.326,830.4396,1103.6263,-0.0782470703125,0.1531982421875,0.99273681640625,0.34393310546875,-0.919647216796875,0.11962890625,1,1.0,1.0,1.0,1.0,20.00
2024-09-29 18:19:47.838,0.51309574,0.5522398,0.1283646,0.5524346,0.8537682,0.050177697,0.05772584,0.738051,0.9340855,0.20149405,0.30867895,0.71932495,0.64011526,-0.09112729,-0.19077565,0.37737203,0.3098227,-0.44748375,-0.29022184,0.061465304,836.8865,796.1905,790.54944,830.4396,1197.9121,-0.0782470703125,0.1531982421875,0.99273681640625,0.34393310546875,-0.919647216796875,0.11962890625,1,1.0,1.0,1.0,1.0,20.00
2024-09-29 18:19:47.839,0.51309574,0.5522398,0.1283646,0.5524346,0.8537682,0.050177697,0.05772584,0.738051,0.9340855,0.20149405,0.30867895,0.71932495,0.64011526,-0.09112729,-0.19077565,0.37737203,0.3098227,-0.44748375,-0.29022184,0.061465304,833.663,797.8022,793.36993,832.0513,868.71796,-0.08099365234375,0.15185546875,0.99420166015625,0.246734619140625,-0.740203857421875,0.097198486328125,1,1.0,1.0,1.0,1.0,20.00
2024-09-29 18:19:47.840,0.51309574,0.5522398,0.1283646,0.5524346,0.8537682,0.050177697,0.05772584,0.738051,0.9340855,0.20149405,0.30867895,0.71932495,0.64011526,-0.09112729,-0.19077565,0.37737203,0.3098227,-0.44748375,-0.29022184,0.061465304,810.696,795.78754,790.9524,826.0073,839.707,-0.08099365234375,0.15185546875,0.99420166015625,0.246734619140625,-0.740203857421875,0.097198486328125,1,1.0,1.0,1.0,1.0,20.00
2024-09-29 18:19:47.840,0.51309574,0.5522398,0.1283646,0.5524346,0.8537682,0.050177697,0.05772584,0.738051,0.9340855,0.20149405,0.30867895,0.71932495,0.64011526,-0.09112729,-0.19077565,0.37737203,0.3098227,-0.44748375,-0.29022184,0.061465304,808.68134,798.60803,788.5348,823.9927,889.2674,-0.08099365234375,0.15185546875,0.99420166015625,0.246734619140625,-0.740203857421875,0.097198486328125,1,1.0,1.0,1.0,1.0,20.00
2024-09-29 18:19:47.841,0.51309574,0.5522398,0.1283646,0.5524346,0.8537682,0.050177697,0.05772584,0.738051,0.9340855,0.20149405,0.30867895,0.71932495,0.64011526,-0.09112729,-0.19077565,0.37737203,0.3098227,-0.44748375,-0.29022184,0.061465304,817.5458,802.23444,790.54944,821.978,647.1062,-0.08099365234375,0.15185546875,0.99420166015625,0.246734619140625,-0.740203857421875,0.097198486328125,1,1.0,1.0,1.0,1.0,20.00
2024-09-29 18:19:47.842,0.51309574,0.5522398,0.1283646,0.5524346,0.8537682,0.050177697,0.05772584,0.738051,0.9340855,0.20149405,0.30867895,0.71932495,0.64011526,-0.09112729,-0.19077565,0.37737203,0.3098227,-0.44748375,-0.29022184,0.061465304,817.1429,802.6374,789.34064,811.50183,612.0513,-0.08099365234375,0.15185546875,0.99420166015625,0.246734619140625,-0.740203857421875,0.097198486328125,1,1.0,1.0,1.0,1.0,20.00
2024-09-29 18:19:47.842,0.51309574,0.5522398,0.1283646,0.5524346,0.8537682,0.050177697,0.05772584,0.738051,0.9340855,0.20149405,0.30867895,0.71932495,0.64011526,-0.09112729,-0.19077565,0.37737203,0.3098227,-0.44748375,-0.29022184,0.061465304,818.7546,799.81683,786.1172,809.89014,964.61536,-0.08099365234375,0.15185546875,0.99420166015625,0.246734619140625,-0.740203857421875,0.097198486328125,1,1.0,1.0,1.0,1.0,20.00
2024-09-29 18:19:47.843,0.51309574,0.5522398,0.1283646,0.5524346,0.8537682,0.050177697,0.05772584,0.738051,0.9340855,0.20149405,0.30867895,0.71932495,0.64011526,-0.09112729,-0.19077565,0.37737203,0.3098227,-0.44748375,-0.29022184,0.061465304,812.3077,801.02563,785.31134,807.47253,1026.2638,-0.08099365234375,0.15185546875,0.99420166015625,0.246734619140625,-0.740203857421875,0.097198486328125,1,1.0,1.0,1.0,1.0,20.00
2024-09-29 18:19:47.843,0.51309574,0.57764137,0.16815498,0.5524346,0.8537682,0.052770708,0.061993144,0.738051,0.9340855,0.19788918,0.27659956,0.71932495,0.64011526,-0.08308194,-0.15615706,0.37737203,0.3098227,-0.45315915,-0.30641443,0.061465304,808.2784,797.8022,784.90845,803.0403,691.4286,-0.08099365234375,0.15185546875,0.99420166015625,0.246734619140625,-0.740203857421875,0.097198486328125,1,1.0,1.0,1.0,1.0,20.00
2024-09-29 18:19:47.848,0.51309574,0.57764137,0.16815498,0.5524346,0.8537682,0.052770708,0.061993144,0.738051,0.9340855,0.19788918,0.27659956,0.71932495,0.64011526,-0.08308194,-0.15615706,0.37737203,0.3098227,-0.45315915,-0.30641443,0.061465304,804.2491,791.3553,784.10254,809.0842,729.304,-0.08099365234375,0.15185546875,0.99420166015625,0.246734619140625,-0.740203857421875,0.097198486328125,1,1.0,1.0,1.0,1.0,20.00
2024-09-29 18:19:47.849,0.51309574,0.57764137,0.16815498,0.5524346,0.8537682,0.052770708,0.061993144,0.738051,0.9340855,0.19788918,0.27659956,0.71932495,0.64011526,-0.08308194,-0.15615706,0.37737203,0.3098227,-0.45315915,-0.30641443,0.061465304,794.57874,791.3553,783.69965,813.91943,880.0,-0.08099365234375,0.15185546875,0.99420166015625,0.246734619140625,-0.740203857421875,0.097198486328125,1,1.0,1.0,1.0,1.0,20.00
2024-09-29 18:19:47.849,0.51309574,0.57764137,0.16815498,0.5524346,0.8537682,0.052770708,0.061993144,0.738051,0.9340855,0.19788918,0.27659956,0.71932495,0.64011526,-0.08308194,-0.15615706,0.37737203,0.3098227,-0.45315915,-0.30641443,0.061465304,793.36993,792.1612,784.10254,810.696,798.20514,-0.08099365234375,0.15185546875,0.99420166015625,0.246734619140625,-0.740203857421875,0.097198486328125,1,1.0,1.0,1.0,1.0,20.00
2024-09-29 18:19:47.850,0.51309574,0.57764137,0.16815498,0.5524346,0.8537682,0.052770708,0.061993144,0.738051,0.9340855,0.19788918,0.27659956,0.71932495,0.64011526,-0.08308194,-0.15615706,0.37737203,0.3098227,-0.45315915,-0.30641443,0.061465304,801.4286,792.96704,784.5055,805.8608,621.31866,-0.08099365234375,0.15185546875,0.99420166015625,0.246734619140625,-0.740203857421875,0.097198486328125,1,1.0,1.0,1.0,1.0,20.00
2024-09-29 18:19:47.877,0.51309574,0.57764137,0.16815498,0.5524346,0.8537682,0.052770708,0.061993144,0.738051,0.9340855,0.19788918,0.27659956,0.71932495,0.64011526,-0.08308194,-0.15615706,0.37737203,0.3098227,-0.45315915,-0.30641443,0.061465304,803.8461,794.57874,784.90845,798.60803,438.7912,-0.08538818359375,0.1568603515625,0.99664306640625,0.2691650390625,-0.291595458984375,0.171966552734375,1,1.0,1.0,1.0,1.0,20.00
2024-09-29 18:19:47.878,0.51309574,0.57764137,0.16815498,0.5524346,0.8537682,0.052770708,0.061993144,0.738051,0.9340855,0.19788918,0.27659956,0.71932495,0.64011526,-0.08308194,-0.15615706,0.37737203,0.3098227,-0.45315915,-0.30641443,0.061465304,812.71063,796.1905,784.10254,807.47253,837.28937,-0.08538818359375,0.1568603515625,0.99664306640625,0.2691650390625,-0.291595458984375,0.171966552734375,1,1.0,1.0,1.0,1.0,20.00
2024-09-29 18:19:47.878,0.51309574,0.57764137,0.16815498,0.5524346,0.8537682,0.052770708,0.061993144,0.738051,0.9340855,0.19788918,0.27659956,0.71932495,0.64011526,-0.08308194,-0.15615706,0.37737203,0.3098227,-0.45315915,-0.30641443,0.061465304,819.5604,793.36993,783.2967,817.9487,1033.1135,-0.08538818359375,0.1568603515625,0.99664306640625,0.2691650390625,-0.291595458984375,0.171966552734375,1,1.0,1.0,1.0,1.0,20.00
2024-09-29 18:19:47.879,0.51309574,0.57764137,0.16815498,0.5524346,0.8537682,0.052770708,0.061993144,0.738051,0.9340855,0.19788918,0.27659956,0.71932495,0.64011526,-0.08308194,-0.15615706,0.37737203,0.3098227,-0.45315915,-0.30641443,0.061465304,819.5604,794.9817,782.8938,811.9048,718.4249,-0.08538818359375,0.1568603515625,0.99664306640625,0.2691650390625,-0.291595458984375,0.171966552734375,1,1.0,1.0,1.0,1.0,20.00
2024-09-29 18:19:47.880,0.51309574,0.57764137,0.16815498,0.5524346,0.8537682,0.052770708,0.061993144,0.738051,0.9340855,0.19788918,0.27659956,0.71932495,0.64011526,-0.08308194,-0.15615706,0.37737203,0.3098227,-0.45315915,-0.30641443,0.061465304,823.1868,796.99634,784.10254,808.2784,515.34796,-0.08538818359375,0.1568603515625,0.99664306640625,0.2691650390625,-0.291595458984375,0.171966552734375,1,1.0,1.0,1.0,1.0,20.00
2024-09-29 18:19:47.880,0.51309574,0.57764137,0.16815498,0.5524346,0.8537682,0.052770708,0.061993144,0.738051,0.9340855,0.19788918,0.27659956,0.71932495,0.64011526,-0.08308194,-0.15615706,0.37737203,0.3098227,-0.45315915,-0.30641443,0.061465304,824.7985,798.60803,783.69965,817.9487,1006.52014,-0.08538818359375,0.1568603515625,0.99664306640625,0.2691650390625,-0.291595458984375,0.171966552734375,1,1.0,1.0,1.0,1.0,20.00
2024-09-29 18:19:47.881,0.51309574,0.57764137,0.16815498,0.5524346,0.8537682,0.052770708,0.061993144,0.738051,0.9340855,0.19788918,0.27659956,0.71932495,0.64011526,-0.08308194,-0.15615706,0.37737203,0.3098227,-0.45315915,-0.30641443,0.061465304,821.5751,800.2198,782.49084,828.8278,1469.8901,-0.08538818359375,0.1568603515625,0.99664306640625,0.2691650390625,-0.291595458984375,0.171966552734375,1,1.0,1.0,1.0,1.0,20.00
2024-09-29 18:19:47.881,0.51309574,0.57764137,0.16815498,0.5524346,0.8537682,0.052770708,0.061993144,0.738051,0.9340855,0.19788918,0.27659956,0.71932495,0.64011526,-0.08308194,-0.15615706,0.37737203,0.3098227,-0.45315915,-0.30641443,0.061465304,817.1429,796.99634,778.86444,817.1429,1141.5018,-0.08538818359375,0.1568603515625,0.99664306640625,0.2691650390625,-0.291595458984375,0.171966552734375,1,1.0,1.0,1.0,1.0,20.00
2024-09-29 18:19:47.882,0.51309574,0.57764137,0.16815498,0.5524346,0.8537682,0.052770708,0.061993144,0.738051,0.9340855,0.19788918,0.27659956,0.71932495,0.64011526,-0.08308194,-0.15615706,0.37737203,0.3098227,-0.45315915,-0.30641443,0.061465304,827.2161,800.6227,778.46155,809.89014,561.685,-0.08538818359375,0.1568603515625,0.99664306640625,0.2691650390625,-0.291595458984375,0.171966552734375,1,1.0,1.0,1.0,1.0,20.00
2024-09-29 18:19:47.882,0.51309574,0.57764137,0.16815498,0.5524346,0.8537682,0.052770708,0.061993144,0.738051,0.9340855,0.19788918,0.27659956,0.71932495,0.64011526,-0.08308194,-0.15615706,0.37737203,0.3098227,-0.45315915,-0.30641443,0.061465304,837.28937,799.81683,788.93774,821.5751,465.78754,-0.08538818359375,0.1568603515625,0.99664306640625,0.2691650390625,-0.291595458984375,0.171966552734375,1,1.0,1.0,1.0,1.0,20.00
2024-09-29 18:19:47.883,0.51309574,0.57764137,0.16815498,0.5524346,0.8537682,0.052770708,0.061993144,0.738051,0.9340855,0.19788918,0.27659956,0.71932495,0.64011526,-0.08308194,-0.15615706,0.37737203,0.3098227,-0.45315915,-0.30641443,0.061465304,823.9927,797.8022,792.96704,822.7839,665.64105,-0.08538818359375,0.1568603515625,0.99664306640625,0.2691650390625,-0.291595458984375,0.171966552734375,1,1.0,1.0,1.0,1.0,20.00
2024-09-29 18:19:47.883,0.51309574,0.57764137,0.16815498,0.5524346,0.8537682,0.052770708,0.061993144,0.738051,0.9340855,0.19788918,0.27659956,0.71932495,0.64011526,-0.08308194,-0.15615706,0.37737203,0.3098227,-0.45315915,-0.30641443,0.061465304,824.3956,797.8022,796.99634,829.6337,797.8022,-0.08538818359375,0.1568603515625,0.99664306640625,0.2691650390625,-0.291595458984375,0.171966552734375,1,1.0,1.0,1.0,1.0,20.00
2024-09-29 18:19:48.041,0.51309574,0.57764137,0.16815498,0.5524346,0.8537682,0.052770708,0.061993144,0.738051,0.9340855,0.19788918,0.27659956,0.71932495,0.64011526,-0.08308194,-0.15615706,0.37737203,0.3098227,-0.45315915,-0.30641443,0.061465304,812.3077,794.9817,799.011,825.6044,686.99634,-0.09185791015625,0.150390625,0.99444580078125,-0.037384033203125,-0.55328369140625,-0.07476806640625,1,1.0,1.0,1.0,1.0,20.00
2024-09-29 18:19:48.042,0.51309574,0.57764137,0.16815498,0.5524346,0.8537682,0.052770708,0.061993144,0.738051,0.9340855,0.19788918,0.27659956,0.71932495,0.64011526,-0.08308194,-0.15615706,0.37737203,0.3098227,-0.45315915,-0.30641443,0.061465304,792.5641,790.54944,796.99634,814.3223,599.15753,-0.09185791015625,0.150390625,0.99444580078125,-0.037384033203125,-0.55328369140625,-0.07476806640625,1,1.0,1.0,1.0,1.0,20.00
2024-09-29 18:19:48.043,0.51309574,0.57764137,0.16815498,0.5524346,0.8537682,0.052770708,0.061993144,0.738051,0.9340855,0.19788918,0.27659956,0.71932495,0.64011526,-0.08308194,-0.15615706,0.37737203,0.3098227,-0.45315915,-0.30641443,0.061465304,788.93774,785.31134,802.6374,814.7253,642.674,-0.09185791015625,0.150390625,0.99444580078125,-0.037384033203125,-0.55328369140625,-0.07476806640625,1,1.0,1.0,1.0,1.0,20.00
2024-09-29 18:19:48.043,0.51309574,0.57764137,0.16815498,0.5524346,0.8537682,0.052770708,0.061993144,0.738051,0.9340855,0.19788918,0.27659956,0.71932495,0.64011526,-0.08308194,-0.15615706,0.37737203,0.3098227,-0.45315915,-0.30641443,0.061465304,790.9524,782.49084,805.8608,815.5311,708.3516,-0.09185791015625,0.150390625,0.99444580078125,-0.037384033203125,-0.55328369140625,-0.07476806640625,1,1.0,1.0,1.0,1.0,20.00
2024-09-29 18:19:48.044,0.51309574,0.57764137,0.16815498,0.5524346,0.8537682,0.052770708,0.061993144,0.738051,0.9340855,0.19788918,0.27659956,0.71932495,0.64011526,-0.08308194,-0.15615706,0.37737203,0.3098227,-0.45315915,-0.30641443,0.061465304,798.60803,783.2967,807.8755,823.5897,770.40295,-0.09185791015625,0.150390625,0.99444580078125,-0.037384033203125,-0.55328369140625,-0.07476806640625,1,1.0,1.0,1.0,1.0,20.00
2024-09-29 18:19:48.044,0.51309574,0.57764137,0.16815498,0.5524346,0.8537682,0.052770708,0.061993144,0.738051,0.9340855,0.19788918,0.27659956,0.71932495,0.64011526,-0.08308194,-0.15615706,0.37737203,0.3098227,-0.45315915,-0.30641443,0.061465304,797.8022,785.31134,811.50183,827.619,782.8938,-0.09185791015625,0.150390625,0.99444580078125,-0.037384033203125,-0.55328369140625,-0.07476806640625,1,1.0,1.0,1.0,1.0,20.00
2024-09-29 18:19:48.045,0.51309574,0.57764137,0.16815498,0.5524346,0.8537682,0.052770708,0.061993144,0.738051,0.9340855,0.19788918,0.27659956,0.71932495,0.64011526,-0.08308194,-0.15615706,0.37737203,0.3098227,-0.45315915,-0.30641443,0.061465304,807.0696,780.4762,809.89014,830.0366,749.45056,-0.09185791015625,0.150390625,0.99444580078125,-0.037384033203125,-0.55328369140625,-0.07476806640625,1,1.0,1.0,1.0,1.0,20.00
2024-09-29 18:19:48.045,0.51309574,0.57764137,0.16815498,0.5524346,0.8537682,0.052770708,0.061993144,0.738051,0.9340855,0.19788918,0.27659956,0.71932495,0.64011526,-0.08308194,-0.15615706,0.37737203,0.3098227,-0.45315915,-0.30641443,0.061465304,817.9487,780.4762,806.26373,834.87177,716.4103,-0.09185791015625,0.150390625,0.99444580078125,-0.037384033203125,-0.55328369140625,-0.07476806640625,1,1.0,1.0,1.0,1.0,20.00
2024-09-29 18:19:48.046,0.51309574,0.57764137,0.16815498,0.5524346,0.8537682,0.052770708,0.061993144,0.738051,0.9340855,0.19788918,0.27659956,0.71932495,0.64011526,-0.08308194,-0.15615706,0.37737203,0.3098227,-0.45315915,-0.30641443,0.061465304,817.9487,780.4762,805.8608,832.8571,942.0513,-0.09185791015625,0.150390625,0.99444580078125,-0.037384033203125,-0.55328369140625,-0.07476806640625,1,1.0,1.0,1.0,1.0,20.00
2024-09-29 18:19:48.047,0.51309574,0.6037945,0.22452487,0.5524346,0.8537682,0.058898572,0.07828123,0.738051,0.9340855,0.21381196,0.25271547,0.71932495,0.64011526,-0.076600514,-0.1307936,0.37737203,0.3098227,-0.45714274,-0.32118082,0.061465304,810.293,780.07324,805.05493,828.022,1004.5055,-0.09185791015625,0.150390625,0.99444580078125,-0.037384033203125,-0.55328369140625,-0.07476806640625,1,1.0,1.0,1.0,1.0,20.00
2024-09-29 18:19:48.051,0.51309574,0.6037945,0.22452487,0.5524346,0.8537682,0.058898572,0.07828123,0.738051,0.9340855,0.21381196,0.25271547,0.71932495,0.64011526,-0.076600514,-0.1307936,0.37737203,0.3098227,-0.45714274,-0.32118082,0.061465304,809.0842,783.69965,800.2198,824.3956,653.1502,-0.09185791015625,0.150390625,0.99444580078125,-0.037384033203125,-0.55328369140625,-0.07476806640625,1,1.0,1.0,1.0,1.0,20.00
2024-09-29 18:19:48.052,0.51309574,0.6037945,0.22452487,0.5524346,0.8537682,0.058898572,0.07828123,0.738051,0.9340855,0.21381196,0.25271547,0.71932495,0.64011526,-0.076600514,-0.1307936,0.37737203,0.3098227,-0.45714274,-0.32118082,0.061465304,810.696,784.5055,800.6227,825.6044,727.28937,-0.09185791015625,0.150390625,0.99444580078125,-0.037384033203125,-0.55328369140625,-0.07476806640625,1,1.0,1.0,1.0,1.0,20.00
2024-09-29 18:19:48.108,0.51309574,0.6037945,0.22452487,0.5524346,0.8537682,0.058898572,0.07828123,0.738051,0.9340855,0.21381196,0.25271547,0.71932495,0.64011526,-0.076600514,-0.1307936,0.37737203,0.3098227,-0.45714274,-0.32118082,0.061465304,805.8608,785.31134,802.23444,820.7692,820.7692,-0.092529296875,0.1502685546875,0.99395751953125,0.037384033203125,-0.949554443359375,-0.097198486328125,1,1.0,1.0,1.0,1.0,20.00
2024-09-29 18:19:48.109,0.51309574,0.6037945,0.22452487,0.5524346,0.8537682,0.058898572,0.07828123,0.738051,0.9340855,0.21381196,0.25271547,0.71932495,0.64011526,-0.076600514,-0.1307936,0.37737203,0.3098227,-0.45714274,-0.32118082,0.061465304,802.23444,787.72894,799.81683,810.293,626.55676,-0.092529296875,0.1502685546875,0.99395751953125,0.037384033203125,-0.949554443359375,-0.097198486328125,1,1.0,1.0,1.0,1.0,20.00
2024-09-29 18:19:48.110,0.51309574,0.6037945,0.22452487,0.5524346,0.8537682,0.058898572,0.07828123,0.738051,0.9340855,0.21381196,0.25271547,0.71932495,0.64011526,-0.076600514,-0.1307936,0.37737203,0.3098227,-0.45714274,-0.32118082,0.061465304,809.0842,790.14655,796.99634,808.68134,622.9304,-0.092529296875,0.1502685546875,0.99395751953125,0.037384033203125,-0.949554443359375,-0.097198486328125,1,1.0,1.0,1.0,1.0,20.00
2024-09-29 18:19:48.110,0.51309574,0.6037945,0.22452487,0.5524346,0.8537682,0.058898572,0.07828123,0.738051,0.9340855,0.21381196,0.25271547,0.71932495,0.64011526,-0.076600514,-0.1307936,0.37737203,0.3098227,-0.45714274,-0.32118082,0.061465304,812.3077,792.96704,797.3993,815.9341,781.28204,-0.092529296875,0.1502685546875,0.99395751953125,0.037384033203125,-0.949554443359375,-0.097198486328125,1,1.0,1.0,1.0,1.0,20.00
2024-09-29 18:19:48.111,0.51309574,0.6037945,0.22452487,0.5524346,0.8537682,0.058898572,0.07828123,0.738051,0.9340855,0.21381196,0.25271547,0.71932495,0.64011526,-0.076600514,-0.1307936,0.37737203,0.3098227,-0.45714274,-0.32118082,0.061465304,815.12823,790.54944,797.8022,818.7546,836.08057,-0.092529296875,0.1502685546875,0.99395751953125,0.037384033203125,-0.949554443359375,-0.097198486328125,1,1.0,1.0,1.0,1.0,20.00
2024-09-29 18:19:48.111,0.51309574,0.6037945,0.22452487,0.5524346,0.8537682,0.058898572,0.07828123,0.738051,0.9340855,0.21381196,0.25271547,0.71932495,0.64011526,-0.076600514,-0.1307936,0.37737203,0.3098227,-0.45714274,-0.32118082,0.061465304,815.5311,790.9524,795.78754,813.91943,778.86444,-0.092529296875,0.1502685546875,0.99395751953125,0.037384033203125,-0.949554443359375,-0.097198486328125,1,1.0,1.0,1.0,1.0,20.00
2024-09-29 18:19:48.112,0.51309574,0.6037945,0.22452487,0.5524346,0.8537682,0.058898572,0.07828123,0.738051,0.9340855,0.21381196,0.25271547,0.71932495,0.64011526,-0.076600514,-0.1307936,0.37737203,0.3098227,-0.45714274,-0.32118082,0.061465304,810.696,790.9524,796.5934,814.7253,795.38464,-0.092529296875,0.1502685546875,0.99395751953125,0.037384033203125,-0.949554443359375,-0.097198486328125,1,1.0,1.0,1.0,1.0,20.00
2024-09-29 18:19:48.112,0.51309574,0.6037945,0.22452487,0.5524346,0.8537682,0.058898572,0.07828123,0.738051,0.9340855,0.21381196,0.25271547,0.71932495,0.64011526,-0.076600514,-0.1307936,0.37737203,0.3098227,-0.45714274,-0.32118082,0.061465304,816.7399,789.7436,796.1905,825.6044,894.90845,-0.092529296875,0.1502685546875,0.99395751953125,0.037384033203125,-0.949554443359375,-0.097198486328125,1,1.0,1.0,1.0,1.0,20.00
2024-09-29 18:19:48.113,0.51309574,0.6037945,0.22452487,0.5524346,0.8537682,0.058898572,0.07828123,0.738051,0.9340855,0.21381196,0.25271547,0.71932495,0.64011526,-0.076600514,-0.1307936,0.37737203,0.3098227,-0.45714274,-0.32118082,0.061465304,817.9487,790.54944,790.54944,825.6044,907.8022,-0.092529296875,0.1502685546875,0.99395751953125,0.037384033203125,-0.949554443359375,-0.097198486328125,1,1.0,1.0,1.0,1.0,20.00
2024-09-29 18:19:48.113,0.51309574,0.6037945,0.22452487,0.5524346,0.8537682,0.058898572,0.07828123,0.738051,0.9340855,0.21381196,0.25271547,0.71932495,0.64011526,-0.076600514,-0.1307936,0.37737203,0.3098227,-0.45714274,-0.32118082,0.061465304,810.696,785.7143,790.9524,821.1722,761.53845,-0.092529296875,0.1502685546875,0.99395751953125,0.037384033203125,-0.949554443359375,-0.097198486328125,1,1.0,1.0,1.0,1.0,20.00
