TimeStamp,Delta_TP9,Delta_AF7,Delta_AF8,Delta_TP10,Theta_TP9,Theta_AF7,Theta_AF8,Theta_TP10,Alpha_TP9,Alpha_AF7,Alpha_AF8,Alpha_TP10,Beta_TP9,Beta_AF7,Beta_AF8,Beta_TP10,Gamma_TP9,Gamma_AF7,Gamma_AF8,Gamma_TP10,RAW_TP9,RAW_AF7,RAW_AF8,RAW_TP10,AUX_RIGHT,Accelerometer_X,Accelerometer_Y,Accelerometer_Z,Gyro_X,Gyro_Y,Gyro_Z,HeadBandOn,HSI_TP9,HSI_AF7,HSI_AF8,HSI_TP10,Battery,Elements
2024-09-29 18:17:04.843,1.1199005,2.4841244,0.58033365,1.8381914,0.791853,1.5593472,0.30786592,1.1426914,1.6870611,2.1235163,1.2115164,1.4420325,0.9886233,1.088997,0.2740356,0.85399026,0.5609746,0.53811204,-0.24059463,0.20838915,814.3223,801.8315,796.1905,815.9341,804.65204,-0.12310791015625,0.134033203125,1.0029296875,-0.11962890625,-0.321502685546875,-0.097198486328125,1,1.0,1.0,1.0,1.0,20.00
2024-09-29 18:17:04.844,1.1199005,2.4841244,0.58033365,1.8381914,0.791853,1.5593472,0.30786592,1.1426914,1.6870611,2.1235163,1.2115164,1.4420325,0.9886233,1.088997,0.2740356,0.85399026,0.5609746,0.53811204,-0.24059463,0.20838915,818.7546,799.41394,804.65204,820.7692,798.60803,-0.12310791015625,0.134033203125,1.0029296875,-0.11962890625,-0.321502685546875,-0.097198486328125,1,1.0,1.0,1.0,1.0,20.00
2024-09-29 18:17:04.844,1.1199005,2.4841244,0.58033365,1.8381914,0.791853,1.5593472,0.30786592,1.1426914,1.6870611,2.1235163,1.2115164,1.4420325,0.9886233,1.088997,0.2740356,0.85399026,0.5609746,0.53811204,-0.24059463,0.20838915,805.4579,797.8022,807.0696,804.65204,741.79486,-0.12310791015625,0.134033203125,1.0029296875,-0.11962890625,-0.321502685546875,-0.097198486328125,1,1.0,1.0,1.0,1.0,20.00
2024-09-29 18:17:04.845,1.1199005,2.4841244,0.58033365,1.8381914,0.791853,1.5593472,0.30786592,1.1426914,1.6870611,2.1235163,1.2115164,1.4420325,0.9886233,1.088997,0.2740356,0.85399026,0.5609746,0.53811204,-0.24059463,0.20838915,799.41394,794.17584,801.8315,801.8315,812.71063,-0.12310791015625,0.134033203125,1.0029296875,-0.11962890625,-0.321502685546875,-0.097198486328125,1,1.0,1.0,1.0,1.0,20.00
2024-09-29 18:17:04.845,1.1199005,2.4841244,0.58033365,1.8381914,0.791853,1.5593472,0.30786592,1.1426914,1.6870611,2.1235163,1.2115164,1.4420325,0.9886233,1.088997,0.2740356,0.85399026,0.5609746,0.53811204,-0.24059463,0.20838915,807.0696,793.36993,801.02563,817.5458,823.5897,-0.12310791015625,0.134033203125,1.0029296875,-0.11962890625,-0.321502685546875,-0.097198486328125,1,1.0,1.0,1.0,1.0,20.00
2024-09-29 18:17:04.846,1.1199005,2.4841244,0.58033365,1.8381914,0.791853,1.5593472,0.30786592,1.1426914,1.6870611,2.1235163,1.2115164,1.4420325,0.9886233,1.088997,0.2740356,0.85399026,0.5609746,0.53811204,-0.24059463,0.20838915,807.0696,794.57874,804.65204,824.7985,895.31134,-0.12310791015625,0.134033203125,1.0029296875,-0.11962890625,-0.321502685546875,-0.097198486328125,1,1.0,1.0,1.0,1.0,20.00
2024-09-29 18:17:04.846,1.1199005,2.4841244,0.58033365,1.8381914,0.791853,1.5593472,0.30786592,1.1426914,1.6870611,2.1235163,1.2115164,1.4420325,0.9886233,1.088997,0.2740356,0.85399026,0.5609746,0.53811204,-0.24059463,0.20838915,811.0989,794.57874,806.26373,821.978,1006.52014,-0.12310791015625,0.134033203125,1.0029296875,-0.11962890625,-0.321502685546875,-0.097198486328125,1,1.0,1.0,1.0,1.0,20.00
2024-09-29 18:17:04.847,1.1199005,2.4841244,0.58033365,1.8381914,0.791853,1.5593472,0.30786592,1.1426914,1.6870611,2.1235163,1.2115164,1.4420325,0.9886233,1.088997,0.2740356,0.85399026,0.5609746,0.53811204,-0.24059463,0.20838915,827.2161,798.20514,805.8608,822.7839,973.0769,-0.12310791015625,0.134033203125,1.0029296875,-0.11962890625,-0.321502685546875,-0.097198486328125,1,1.0,1.0,1.0,1.0,20.00
2024-09-29 18:17:04.847,1.1199005,2.4841244,0.58033365,1.8381914,0.791853,1.5593472,0.30786592,1.1426914,1.6870611,2.1235163,1.2115164,1.4420325,0.9886233,1.088997,0.2740356,0.85399026,0.5609746,0.53811204,-0.24059463,0.20838915,830.0366,801.8315,806.6667,824.7985,828.4249,-0.12310791015625,0.134033203125,1.0029296875,-0.11962890625,-0.321502685546875,-0.097198486328125,1,1.0,1.0,1.0,1.0,20.00
2024-09-29 18:17:04.848,1.1199005,2.4841244,0.58033365,1.8381914,0.791853,1.5593472,0.30786592,1.1426914,1.6870611,2.1235163,1.2115164,1.4420325,0.9886233,1.088997,0.2740356,0.85399026,0.5609746,0.53811204,-0.24059463,0.20838915,825.6044,801.8315,800.6227,819.5604,757.50916,-0.12310791015625,0.134033203125,1.0029296875,-0.11962890625,-0.321502685546875,-0.097198486328125,1,1.0,1.0,1.0,1.0,20.00
2024-09-29 18:17:04.848,1.1199005,2.4841244,0.58033365,1.8381914,0.791853,1.5593472,0.30786592,1.1426914,1.6870611,2.1235163,1.2115164,1.4420325,0.9886233,1.088997,0.2740356,0.85399026,0.5609746,0.53811204,-0.24059463,0.20838915,828.4249,797.8022,798.60803,821.5751,732.1245,-0.12310791015625,0.134033203125,1.0029296875,-0.11962890625,-0.321502685546875,-0.097198486328125,1,1.0,1.0,1.0,1.0,20.00
2024-09-29 18:17:04.849,1.1199005,2.4841244,0.58033365,1.8381914,0.791853,1.5593472,0.30786592,1.1426914,1.6870611,2.1235163,1.2115164,1.4420325,0.9886233,1.088997,0.2740356,0.85399026,0.5609746,0.53811204,-0.24059463,0.20838915,819.5604,794.57874,806.6667,817.9487,722.4542,-0.12310791015625,0.134033203125,1.0029296875,-0.11962890625,-0.321502685546875,-0.097198486328125,1,1.0,1.0,1.0,1.0,20.00
2024-09-29 18:17:04.893,1.1199005,2.4841244,0.58033365,1.8381914,0.791853,1.5593472,0.30786592,1.1426914,1.6870611,2.1235163,1.2115164,1.4420325,0.9886233,1.088997,0.2740356,0.85399026,0.5609746,0.53811204,-0.24059463,0.20838915,808.2784,797.8022,800.2198,809.0842,676.9231,-0.123779296875,0.1331787109375,0.9971923828125,0.620574951171875,0.07476806640625,0.19439697265625,1,1.0,1.0,1.0,1.0,20.00
2024-09-29 18:17:04.894,1.1199005,2.4841244,0.58033365,1.8381914,0.791853,1.5593472,0.30786592,1.1426914,1.6870611,2.1235163,1.2115164,1.4420325,0.9886233,1.088997,0.2740356,0.85399026,0.5609746,0.53811204,-0.24059463,0.20838915,816.7399,801.8315,796.5934,819.15753,681.3553,-0.123779296875,0.1331787109375,0.9971923828125,0.620574951171875,0.07476806640625,0.19439697265625,1,1.0,1.0,1.0,1.0,20.00
2024-09-29 18:17:04.895,1.1199005,2.4841244,0.58033365,1.8381914,0.791853,1.5593472,0.30786592,1.1426914,1.6870611,2.1235163,1.2115164,1.4420325,0.9886233,1.088997,0.2740356,0.85399026,0.5609746,0.53811204,-0.24059463,0.20838915,825.2015,803.0403,796.99634,825.2015,823.1868,-0.123779296875,0.1331787109375,0.9971923828125,0.620574951171875,0.07476806640625,0.19439697265625,1,1.0,1.0,1.0,1.0,20.00
2024-09-29 18:17:04.895,1.1199005,2.4841244,0.58033365,1.8381914,0.791853,1.5593472,0.30786592,1.1426914,1.6870611,2.1235163,1.2115164,1.4420325,0.9886233,1.088997,0.2740356,0.85399026,0.5609746,0.53811204,-0.24059463,0.20838915,824.7985,805.05493,791.75824,821.978,940.0366,-0.123779296875,0.1331787109375,0.9971923828125,0.620574951171875,0.07476806640625,0.19439697265625,1,1.0,1.0,1.0,1.0,20.00
2024-09-29 18:17:04.896,1.1199005,2.4841244,0.58033365,1.8381914,0.791853,1.5593472,0.30786592,1.1426914,1.6870611,2.1235163,1.2115164,1.4420325,0.9886233,1.088997,0.2740356,0.85399026,0.5609746,0.53811204,-0.24059463,0.20838915,825.2015,807.0696,789.34064,826.0073,832.0513,-0.123779296875,0.1331787109375,0.9971923828125,0.620574951171875,0.07476806640625,0.19439697265625,1,1.0,1.0,1.0,1.0,20.00
2024-09-29 18:17:04.896,1.1199005,2.4841244,0.58033365,1.8381914,0.791853,1.5593472,0.30786592,1.1426914,1.6870611,2.1235163,1.2115164,1.4420325,0.9886233,1.088997,0.2740356,0.85399026,0.5609746,0.53811204,-0.24059463,0.20838915,823.9927,802.6374,795.78754,833.2601,816.337,-0.123779296875,0.1331787109375,0.9971923828125,0.620574951171875,0.07476806640625,0.19439697265625,1,1.0,1.0,1.0,1.0,20.00
2024-09-29 18:17:04.897,1.1199005,2.4841244,0.58033365,1.8381914,0.791853,1.5593472,0.30786592,1.1426914,1.6870611,2.1235163,1.2115164,1.4420325,0.9886233,1.088997,0.2740356,0.85399026,0.5609746,0.53811204,-0.24059463,0.20838915,821.978,800.6227,796.1905,832.8571,1010.54944,-0.123779296875,0.1331787109375,0.9971923828125,0.620574951171875,0.07476806640625,0.19439697265625,1,1.0,1.0,1.0,1.0,20.00
2024-09-29 18:17:04.898,1.1199005,2.4841244,0.58033365,1.8381914,0.791853,1.5593472,0.30786592,1.1426914,1.6870611,2.1235163,1.2115164,1.4420325,0.9886233,1.088997,0.2740356,0.85399026,0.5609746,0.53811204,-0.24059463,0.20838915,818.3516,797.8022,791.75824,830.84247,1102.4176,-0.123779296875,0.1331787109375,0.9971923828125,0.620574951171875,0.07476806640625,0.19439697265625,1,1.0,1.0,1.0,1.0,20.00
2024-09-29 18:17:04.898,1.1199005,2.4841244,0.58033365,1.8381914,0.791853,1.5593472,0.30786592,1.1426914,1.6870611,2.1235163,1.2115164,1.4420325,0.9886233,1.088997,0.2740356,0.85399026,0.5609746,0.53811204,-0.24059463,0.20838915,806.26373,792.96704,794.17584,825.2015,792.1612,-0.123779296875,0.1331787109375,0.9971923828125,0.620574951171875,0.07476806640625,0.19439697265625,1,1.0,1.0,1.0,1.0,20.00
2024-09-29 18:17:04.899,1.1199005,2.4841244,0.58033365,1.8381914,0.791853,1.5593472,0.30786592,1.1426914,1.6870611,2.1235163,1.2115164,1.4420325,0.9886233,1.088997,0.2740356,0.85399026,0.5609746,0.53811204,-0.24059463,0.20838915,809.0842,795.78754,796.5934,824.3956,694.65204,-0.123779296875,0.1331787109375,0.9971923828125,0.620574951171875,0.07476806640625,0.19439697265625,1,1.0,1.0,1.0,1.0,20.00
2024-09-29 18:17:04.899,1.1199005,2.4841244,0.58033365,1.8381914,0.791853,1.5593472,0.30786592,1.1426914,1.6870611,2.1235163,1.2115164,1.4420325,0.9886233,1.088997,0.2740356,0.85399026,0.5609746,0.53811204,-0.24059463,0.20838915,817.5458,799.81683,788.93774,819.5604,813.5165,-0.123779296875,0.1331787109375,0.9971923828125,0.620574951171875,0.07476806640625,0.19439697265625,1,1.0,1.0,1.0,1.0,20.00
2024-09-29 18:17:04.900,1.1199005,2.5037594,0.5780148,1.8957328,0.791853,1.6022426,0.31420553,1.1995248,1.6870611,2.1235163,1.2115164,1.4420325,0.9886233,1.1127031,0.27488527,0.8888259,0.5609746,0.5648476,-0.24875052,0.24394178,821.5751,800.6227,788.1319,821.5751,922.71063,-0.123779296875,0.1331787109375,0.9971923828125,0.620574951171875,0.07476806640625,0.19439697265625,1,1.0,1.0,1.0,1.0,20.00
2024-09-29 18:17:04.932,1.1199005,2.5037594,0.5780148,1.8957328,0.791853,1.6022426,0.31420553,1.1995248,1.6870611,2.1235163,1.2115164,1.4420325,0.9886233,1.1127031,0.27488527,0.8888259,0.5609746,0.5648476,-0.24875052,0.24394178,814.7253,798.60803,792.1612,819.5604,951.31866,-0.12274169921875,0.13250732421875,0.9888916015625,0.336456298828125,-0.8673095703125,-0.022430419921875,1,1.0,1.0,1.0,1.0,20.00
2024-09-29 18:17:04.933,1.1199005,2.5037594,0.5780148,1.8957328,0.791853,1.6022426,0.31420553,1.1995248,1.6870611,2.1235163,1.2115164,1.4420325,0.9886233,1.1127031,0.27488527,0.8888259,0.5609746,0.5648476,-0.24875052,0.24394178,809.0842,796.1905,792.5641,815.9341,955.34796,-0.12274169921875,0.13250732421875,0.9888916015625,0.336456298828125,-0.8673095703125,-0.022430419921875,1,1.0,1.0,1.0,1.0,20.00
2024-09-29 18:17:04.934,1.1199005,2.5037594,0.5780148,1.8957328,0.791853,1.6022426,0.31420553,1.1995248,1.6870611,2.1235163,1.2115164,1.4420325,0.9886233,1.1127031,0.27488527,0.8888259,0.5609746,0.5648476,-0.24875052,0.24394178,816.337,799.41394,796.99634,824.3956,1055.2748,-0.12274169921875,0.13250732421875,0.9888916015625,0.336456298828125,-0.8673095703125,-0.022430419921875,1,1.0,1.0,1.0,1.0,20.00
2024-09-29 18:17:04.934,1.1199005,2.5037594,0.5780148,1.8957328,0.791853,1.6022426,0.31420553,1.1995248,1.6870611,2.1235163,1.2115164,1.4420325,0.9886233,1.1127031,0.27488527,0.8888259,0.5609746,0.5648476,-0.24875052,0.24394178,816.337,799.011,798.20514,818.3516,1085.4945,-0.12274169921875,0.13250732421875,0.9888916015625,0.336456298828125,-0.8673095703125,-0.022430419921875,1,1.0,1.0,1.0,1.0,20.00
2024-09-29 18:17:04.935,1.1199005,2.5037594,0.5780148,1.8957328,0.791853,1.6022426,0.31420553,1.1995248,1.6870611,2.1235163,1.2115164,1.4420325,0.9886233,1.1127031,0.27488527,0.8888259,0.5609746,0.5648476,-0.24875052,0.24394178,807.8755,797.3993,797.8022,816.7399,925.12823,-0.12274169921875,0.13250732421875,0.9888916015625,0.336456298828125,-0.8673095703125,-0.022430419921875,1,1.0,1.0,1.0,1.0,20.00
2024-09-29 18:17:04.936,1.1199005,2.5037594,0.5780148,1.8957328,0.791853,1.6022426,0.31420553,1.1995248,1.6870611,2.1235163,1.2115164,1.4420325,0.9886233,1.1127031,0.27488527,0.8888259,0.5609746,0.5648476,-0.24875052,0.24394178,812.71063,798.60803,796.99634,819.9634,1005.7143,-0.12274169921875,0.13250732421875,0.9888916015625,0.336456298828125,-0.8673095703125,-0.022430419921875,1,1.0,1.0,1.0,1.0,20.00
2024-09-29 18:17:04.936,1.1199005,2.5037594,0.5780148,1.8957328,0.791853,1.6022426,0.31420553,1.1995248,1.6870611,2.1235163,1.2115164,1.4420325,0.9886233,1.1127031,0.27488527,0.8888259,0.5609746,0.5648476,-0.24875052,0.24394178,817.9487,802.23444,795.78754,819.9634,1235.7876,-0.12274169921875,0.13250732421875,0.9888916015625,0.336456298828125,-0.8673095703125,-0.022430419921875,1,1.0,1.0,1.0,1.0,20.00
2024-09-29 18:17:04.937,1.1199005,2.5037594,0.5780148,1.8957328,0.791853,1.6022426,0.31420553,1.1995248,1.6870611,2.1235163,1.2115164,1.4420325,0.9886233,1.1127031,0.27488527,0.8888259,0.5609746,0.5648476,-0.24875052,0.24394178,811.0989,799.81683,797.8022,822.7839,1184.2124,-0.12274169921875,0.13250732421875,0.9888916015625,0.336456298828125,-0.8673095703125,-0.022430419921875,1,1.0,1.0,1.0,1.0,20.00
2024-09-29 18:17:04.937,1.1199005,2.5037594,0.5780148,1.8957328,0.791853,1.6022426,0.31420553,1.1995248,1.6870611,2.1235163,1.2115164,1.4420325,0.9886233,1.1127031,0.27488527,0.8888259,0.5609746,0.5648476,-0.24875052,0.24394178,815.9341,796.1905,800.2198,828.8278,980.7326,-0.12274169921875,0.13250732421875,0.9888916015625,0.336456298828125,-0.8673095703125,-0.022430419921875,1,1.0,1.0,1.0,1.0,20.00
2024-09-29 18:17:04.938,1.1199005,2.5037594,0.5780148,1.8957328,0.791853,1.6022426,0.31420553,1.1995248,1.6870611,2.1235163,1.2115164,1.4420325,0.9886233,1.1127031,0.27488527,0.8888259,0.5609746,0.5648476,-0.24875052,0.24394178,829.2308,800.6227,796.5934,826.0073,828.4249,-0.12274169921875,0.13250732421875,0.9888916015625,0.336456298828125,-0.8673095703125,-0.022430419921875,1,1.0,1.0,1.0,1.0,20.00
2024-09-29 18:17:04.938,1.1199005,2.5037594,0.5780148,1.8957328,0.791853,1.6022426,0.31420553,1.1995248,1.6870611,2.1235163,1.2115164,1.4420325,0.9886233,1.1127031,0.27488527,0.8888259,0.5609746,0.5648476,-0.24875052,0.24394178,829.2308,807.8755,791.75824,822.7839,981.9414,-0.12274169921875,0.13250732421875,0.9888916015625,0.336456298828125,-0.8673095703125,-0.022430419921875,1,1.0,1.0,1.0,1.0,20.00
2024-09-29 18:17:04.939,1.1199005,2.5037594,0.5780148,1.8957328,0.791853,1.6022426,0.31420553,1.1995248,1.6870611,2.1235163,1.2115164,1.4420325,0.9886233,1.1127031,0.27488527,0.8888259,0.5609746,0.5648476,-0.24875052,0.24394178,823.5897,810.696,789.7436,826.0073,1098.7913,-0.12274169921875,0.13250732421875,0.9888916015625,0.336456298828125,-0.8673095703125,-0.022430419921875,1,1.0,1.0,1.0,1.0,20.00
2024-09-29 18:17:05.008,1.1199005,2.5037594,0.5780148,1.8957328,0.791853,1.6022426,0.31420553,1.1995248,1.6870611,2.1235163,1.2115164,1.4420325,0.9886233,1.1127031,0.27488527,0.8888259,0.5609746,0.5648476,-0.24875052,0.24394178,823.1868,809.0842,798.20514,827.2161,900.9524,-0.129150390625,0.13232421875,0.99188232421875,-0.366363525390625,-0.635528564453125,-0.49346923828125,1,1.0,1.0,1.0,1.0,20.00
2024-09-29 18:17:05.009,1.1199005,2.5037594,0.5780148,1.8957328,0.791853,1.6022426,0.31420553,1.1995248,1.6870611,2.1235163,1.2115164,1.4420325,0.9886233,1.1127031,0.27488527,0.8888259,0.5609746,0.5648476,-0.24875052,0.24394178,812.71063,800.2198,796.99634,823.9927,779.67035,-0.129150390625,0.13232421875,0.99188232421875,-0.366363525390625,-0.635528564453125,-0.49346923828125,1,1.0,1.0,1.0,1.0,20.00
2024-09-29 18:17:05.010,1.1199005,2.5037594,0.5780148,1.8957328,0.791853,1.6022426,0.31420553,1.1995248,1.6870611,2.1235163,1.2115164,1.4420325,0.9886233,1.1127031,0.27488527,0.8888259,0.5609746,0.5648476,-0.24875052,0.24394178,808.2784,799.011,791.3553,826.8132,997.25275,-0.129150390625,0.13232421875,0.99188232421875,-0.366363525390625,-0.635528564453125,-0.49346923828125,1,1.0,1.0,1.0,1.0,20.00
2024-09-29 18:17:05.011,1.1199005,2.5037594,0.5780148,1.8957328,0.791853,1.6022426,0.31420553,1.1995248,1.6870611,2.1235163,1.2115164,1.4420325,0.9886233,1.1127031,0.27488527,0.8888259,0.5609746,0.5648476,-0.24875052,0.24394178,819.5604,799.011,803.44324,828.8278,1004.10254,-0.129150390625,0.13232421875,0.99188232421875,-0.366363525390625,-0.635528564453125,-0.49346923828125,1,1.0,1.0,1.0,1.0,20.00
2024-09-29 18:17:05.012,1.1199005,2.5037594,0.5780148,1.8957328,0.791853,1.6022426,0.31420553,1.1995248,1.6870611,2.1235163,1.2115164,1.4420325,0.9886233,1.1127031,0.27488527,0.8888259,0.5609746,0.5648476,-0.24875052,0.24394178,827.2161,801.02563,802.23444,827.619,865.4945,-0.129150390625,0.13232421875,0.99188232421875,-0.366363525390625,-0.635528564453125,-0.49346923828125,1,1.0,1.0,1.0,1.0,20.00
2024-09-29 18:17:05.013,1.1199005,2.5037594,0.5780148,1.8957328,0.791853,1.6022426,0.31420553,1.1995248,1.6870611,2.1235163,1.2115164,1.4420325,0.9886233,1.1127031,0.27488527,0.8888259,0.5609746,0.5648476,-0.24875052,0.24394178,826.0073,802.23444,796.99634,828.022,895.31134,-0.129150390625,0.13232421875,0.99188232421875,-0.366363525390625,-0.635528564453125,-0.49346923828125,1,1.0,1.0,1.0,1.0,20.00
2024-09-29 18:17:05.014,1.1199005,2.5037594,0.5780148,1.8957328,0.791853,1.6022426,0.31420553,1.1995248,1.6870611,2.1235163,1.2115164,1.4420325,0.9886233,1.1127031,0.27488527,0.8888259,0.5609746,0.5648476,-0.24875052,0.24394178,816.7399,796.5934,798.20514,820.7692,1056.8865,-0.129150390625,0.13232421875,0.99188232421875,-0.366363525390625,-0.635528564453125,-0.49346923828125,1,1.0,1.0,1.0,1.0,20.00
2024-09-29 18:17:05.015,1.1199005,2.5037594,0.5780148,1.8957328,0.791853,1.6022426,0.31420553,1.1995248,1.6870611,2.1235163,1.2115164,1.4420325,0.9886233,1.1127031,0.27488527,0.8888259,0.5609746,0.5648476,-0.24875052,0.24394178,811.50183,795.78754,796.1905,820.3663,982.3443,-0.129150390625,0.13232421875,0.99188232421875,-0.366363525390625,-0.635528564453125,-0.49346923828125,1,1.0,1.0,1.0,1.0,20.00
2024-09-29 18:17:05.016,1.1199005,2.5037594,0.5780148,1.8957328,0.791853,1.6022426,0.31420553,1.1995248,1.6870611,2.1235163,1.2115164,1.4420325,0.9886233,1.1127031,0.27488527,0.8888259,0.5609746,0.5648476,-0.24875052,0.24394178,823.9927,798.60803,797.3993,828.022,712.7839,-0.129150390625,0.13232421875,0.99188232421875,-0.366363525390625,-0.635528564453125,-0.49346923828125,1,1.0,1.0,1.0,1.0,20.00
2024-09-29 18:17:05.017,1.1199005,2.5037594,0.5780148,1.8957328,0.791853,1.6022426,0.31420553,1.1995248,1.6870611,2.1235163,1.2115164,1.4420325,0.9886233,1.1127031,0.27488527,0.8888259,0.5609746,0.5648476,-0.24875052,0.24394178,829.6337,799.41394,799.41394,827.619,758.71796,-0.129150390625,0.13232421875,0.99188232421875,-0.366363525390625,-0.635528564453125,-0.49346923828125,1,1.0,1.0,1.0,1.0,20.00
2024-09-29 18:17:05.018,1.1199005,2.5037594,0.5780148,1.8957328,0.791853,1.6022426,0.31420553,1.1995248,1.6870611,2.1235163,1.2115164,1.4420325,0.9886233,1.1127031,0.27488527,0.8888259,0.5609746,0.5648476,-0.24875052,0.24394178,824.3956,795.38464,797.8022,823.9927,892.8938,-0.129150390625,0.13232421875,0.99188232421875,-0.366363525390625,-0.635528564453125,-0.49346923828125,1,1.0,1.0,1.0,1.0,20.00
2024-09-29 18:17:05.019,1.1199005,2.5037594,0.5780148,1.8957328,0.791853,1.6022426,0.31420553,1.1995248,1.6870611,2.1235163,1.2115164,1.4420325,0.9886233,1.1127031,0.27488527,0.8888259,0.5609746,0.5648476,-0.24875052,0.24394178,826.4103,795.38464,800.6227,823.1868,829.6337,-0.129150390625,0.13232421875,0.99188232421875,-0.366363525390625,-0.635528564453125,-0.49346923828125,1,1.0,1.0,1.0,1.0,20.00
2024-09-29 18:17:05.107,1.1199005,2.5037594,0.5780148,1.8957328,0.791853,1.6022426,0.31420553,1.1995248,1.6870611,2.1235163,1.2115164,1.4420325,0.9886233,1.1127031,0.27488527,0.8888259,0.5609746,0.5648476,-0.24875052,0.24394178,839.304,798.20514,801.4286,829.6337,731.31866,-0.1318359375,0.13177490234375,0.9913330078125,-0.16448974609375,-0.22430419921875,-0.478515625,1,1.0,1.0,1.0,1.0,20.00
2024-09-29 18:17:05.108,1.1199005,2.5039182,0.57813454,1.9617555,0.791853,1.6021358,0.3208125,1.2644297,1.6870611,2.1235163,1.2115164,1.4420325,0.9886233,1.1128024,0.27470312,0.93195325,0.5609746,0.5656611,-0.25346553,0.28907052,851.39197,797.3993,797.3993,830.0366,717.619,-0.1318359375,0.13177490234375,0.9913330078125,-0.16448974609375,-0.22430419921875,-0.478515625,1,1.0,1.0,1.0,1.0,20.00
2024-09-29 18:17:05.113,1.1199005,2.5039182,0.57813454,1.9617555,0.791853,1.6021358,0.3208125,1.2644297,1.6870611,2.1235163,1.2115164,1.4420325,0.9886233,1.1128024,0.27470312,0.93195325,0.5609746,0.5656611,-0.25346553,0.28907052,854.21246,796.1905,794.9817,828.8278,714.3956,-0.1318359375,0.13177490234375,0.9913330078125,-0.16448974609375,-0.22430419921875,-0.478515625,1,1.0,1.0,1.0,1.0,20.00
2024-09-29 18:17:05.113,1.1199005,2.5039182,0.57813454,1.9617555,0.791853,1.6021358,0.3208125,1.2644297,1.6870611,2.1235163,1.2115164,1.4420325,0.9886233,1.1128024,0.27470312,0.93195325,0.5609746,0.5656611,-0.25346553,0.28907052,846.55676,798.60803,794.57874,834.87177,657.1795,-0.1318359375,0.13177490234375,0.9913330078125,-0.16448974609375,-0.22430419921875,-0.478515625,1,1.0,1.0,1.0,1.0,20.00
2024-09-29 18:17:05.114,1.1199005,2.5039182,0.57813454,1.9617555,0.791853,1.6021358,0.3208125,1.2644297,1.6870611,2.1235163,1.2115164,1.4420325,0.9886233,1.1128024,0.27470312,0.93195325,0.5609746,0.5656611,-0.25346553,0.28907052,840.9158,796.99634,797.8022,843.3333,648.315,-0.1318359375,0.13177490234375,0.9913330078125,-0.16448974609375,-0.22430419921875,-0.478515625,1,1.0,1.0,1.0,1.0,20.00
2024-09-29 18:17:05.114,1.1199005,2.5039182,0.57813454,1.9617555,0.791853,1.6021358,0.3208125,1.2644297,1.6870611,2.1235163,1.2115164,1.4420325,0.9886233,1.1128024,0.27470312,0.93195325,0.5609746,0.5656611,-0.25346553,0.28907052,839.304,792.96704,799.81683,838.9011,882.01465,-0.1318359375,0.13177490234375,0.9913330078125,-0.16448974609375,-0.22430419921875,-0.478515625,1,1.0,1.0,1.0,1.0,20.00
2024-09-29 18:17:05.115,1.1199005,2.5039182,0.57813454,1.9617555,0.791853,1.6021358,0.3208125,1.2644297,1.6870611,2.1235163,1.2115164,1.4420325,0.9886233,1.1128024,0.27470312,0.93195325,0.5609746,0.5656611,-0.25346553,0.28907052,839.304,796.1905,797.8022,833.663,895.31134,-0.1318359375,0.13177490234375,0.9913330078125,-0.16448974609375,-0.22430419921875,-0.478515625,1,1.0,1.0,1.0,1.0,20.00
2024-09-29 18:17:05.115,1.1199005,2.5039182,0.57813454,1.9617555,0.791853,1.6021358,0.3208125,1.2644297,1.6870611,2.1235163,1.2115164,1.4420325,0.9886233,1.1128024,0.27470312,0.93195325,0.5609746,0.5656611,-0.25346553,0.28907052,844.94507,799.41394,798.20514,838.0952,687.3993,-0.1318359375,0.13177490234375,0.9913330078125,-0.16448974609375,-0.22430419921875,-0.478515625,1,1.0,1.0,1.0,1.0,20.00
2024-09-29 18:17:05.116,1.1199005,2.5039182,0.57813454,1.9617555,0.791853,1.6021358,0.3208125,1.2644297,1.6870611,2.1235163,1.2115164,1.4420325,0.9886233,1.1128024,0.27470312,0.93195325,0.5609746,0.5656611,-0.25346553,0.28907052,844.94507,796.5934,800.6227,841.7216,812.3077,-0.1318359375,0.13177490234375,0.9913330078125,-0.16448974609375,-0.22430419921875,-0.478515625,1,1.0,1.0,1.0,1.0,20.00
2024-09-29 18:17:05.116,1.1199005,2.5039182,0.57813454,1.9617555,0.791853,1.6021358,0.3208125,1.2644297,1.6870611,2.1235163,1.2115164,1.4420325,0.9886233,1.1128024,0.27470312,0.93195325,0.5609746,0.5656611,-0.25346553,0.28907052,833.663,793.7729,797.3993,833.2601,1030.2931,-0.1318359375,0.13177490234375,0.9913330078125,-0.16448974609375,-0.22430419921875,-0.478515625,1,1.0,1.0,1.0,1.0,20.00
2024-09-29 18:17:05.117,1.1199005,2.5039182,0.57813454,1.9617555,0.791853,1.6021358,0.3208125,1.2644297,1.6870611,2.1235163,1.2115164,1.4420325,0.9886233,1.1128024,0.27470312,0.93195325,0.5609746,0.5656611,-0.25346553,0.28907052,828.8278,800.6227,801.4286,828.022,885.64105,-0.1318359375,0.13177490234375,0.9913330078125,-0.16448974609375,-0.22430419921875,-0.478515625,1,1.0,1.0,1.0,1.0,20.00
2024-09-29 18:17:05.117,1.1199005,2.5039182,0.57813454,1.9617555,0.791853,1.6021358,0.3208125,1.2644297,1.6870611,2.1235163,1.2115164,1.4420325,0.9886233,1.1128024,0.27470312,0.93195325,0.5609746,0.5656611,-0.25346553,0.28907052,819.9634,802.6374,799.41394,819.5604,709.9634,-0.1318359375,0.13177490234375,0.9913330078125,-0.16448974609375,-0.22430419921875,-0.478515625,1,1.0,1.0,1.0,1.0,20.00
2024-09-29 18:17:05.142,1.1199005,2.5039182,0.57813454,1.9617555,0.791853,1.6021358,0.3208125,1.2644297,1.6870611,2.1235163,1.2115164,1.4420325,0.9886233,1.1128024,0.27470312,0.93195325,0.5609746,0.5656611,-0.25346553,0.28907052,811.0989,795.38464,793.7729,817.1429,861.4652,-0.13525390625,0.1270751953125,0.99053955078125,-0.201873779296875,-0.231781005859375,0.34393310546875,1,1.0,1.0,1.0,1.0,20.00
2024-09-29 18:17:05.143,1.1199005,2.5039182,0.57813454,1.9617555,0.791853,1.6021358,0.3208125,1.2644297,1.6870611,2.1235163,1.2115164,1.4420325,0.9886233,1.1128024,0.27470312,0.93195325,0.5609746,0.5656611,-0.25346553,0.28907052,813.1135,794.9817,799.81683,828.022,1102.0146,-0.13525390625,0.1270751953125,0.99053955078125,-0.201873779296875,-0.231781005859375,0.34393310546875,1,1.0,1.0,1.0,1.0,20.00
2024-09-29 18:17:05.144,1.1199005,2.5039182,0.57813454,1.9617555,0.791853,1.6021358,0.3208125,1.2644297,1.6870611,2.1235163,1.2115164,1.4420325,0.9886233,1.1128024,0.27470312,0.93195325,0.5609746,0.5656611,-0.25346553,0.28907052,808.2784,799.011,804.65204,822.7839,981.9414,-0.13525390625,0.1270751953125,0.99053955078125,-0.201873779296875,-0.231781005859375,0.34393310546875,1,1.0,1.0,1.0,1.0,20.00
2024-09-29 18:17:05.144,1.1199005,2.5039182,0.57813454,1.9617555,0.791853,1.6021358,0.3208125,1.2644297,1.6870611,2.1235163,1.2115164,1.4420325,0.9886233,1.1128024,0.27470312,0.93195325,0.5609746,0.5656611,-0.25346553,0.28907052,809.89014,795.78754,800.2198,815.9341,746.2271,-0.13525390625,0.1270751953125,0.99053955078125,-0.201873779296875,-0.231781005859375,0.34393310546875,1,1.0,1.0,1.0,1.0,20.00
2024-09-29 18:17:05.145,1.1199005,2.5039182,0.57813454,1.9617555,0.791853,1.6021358,0.3208125,1.2644297,1.6870611,2.1235163,1.2115164,1.4420325,0.9886233,1.1128024,0.27470312,0.93195325,0.5609746,0.5656611,-0.25346553,0.28907052,814.3223,793.36993,799.81683,822.381,836.8865,-0.13525390625,0.1270751953125,0.99053955078125,-0.201873779296875,-0.231781005859375,0.34393310546875,1,1.0,1.0,1.0,1.0,20.00
2024-09-29 18:17:05.145,1.1199005,2.5039182,0.57813454,1.9617555,0.791853,1.6021358,0.3208125,1.2644297,1.6870611,2.1235163,1.2115164,1.4420325,0.9886233,1.1128024,0.27470312,0.93195325,0.5609746,0.5656611,-0.25346553,0.28907052,813.1135,796.1905,800.6227,823.5897,1163.2601,-0.13525390625,0.1270751953125,0.99053955078125,-0.201873779296875,-0.231781005859375,0.34393310546875,1,1.0,1.0,1.0,1.0,20.00
2024-09-29 18:17:05.146,1.1199005,2.5039182,0.57813454,1.9617555,0.791853,1.6021358,0.3208125,1.2644297,1.6870611,2.1235163,1.2115164,1.4420325,0.9886233,1.1128024,0.27470312,0.93195325,0.5609746,0.5656611,-0.25346553,0.28907052,811.50183,796.1905,794.57874,803.44324,986.77655,-0.13525390625,0.1270751953125,0.99053955078125,-0.201873779296875,-0.231781005859375,0.34393310546875,1,1.0,1.0,1.0,1.0,20.00
2024-09-29 18:17:05.146,1.1199005,2.5039182,0.57813454,1.9617555,0.791853,1.6021358,0.3208125,1.2644297,1.6870611,2.1235163,1.2115164,1.4420325,0.9886233,1.1128024,0.27470312,0.93195325,0.5609746,0.5656611,-0.25346553,0.28907052,814.3223,796.5934,791.3553,800.2198,682.96704,-0.13525390625,0.1270751953125,0.99053955078125,-0.201873779296875,-0.231781005859375,0.34393310546875,1,1.0,1.0,1.0,1.0,20.00
2024-09-29 18:17:05.147,1.1199005,2.5039182,0.57813454,1.9617555,0.791853,1.6021358,0.3208125,1.2644297,1.6870611,2.1235163,1.2115164,1.4420325,0.9886233,1.1128024,0.27470312,0.93195325,0.5609746,0.5656611,-0.25346553,0.28907052,818.3516,796.99634,796.1905,811.9048,796.5934,-0.13525390625,0.1270751953125,0.99053955078125,-0.201873779296875,-0.231781005859375,0.34393310546875,1,1.0,1.0,1.0,1.0,20.00
2024-09-29 18:17:05.147,1.1199005,2.5039182,0.57813454,1.9617555,0.791853,1.6021358,0.3208125,1.2644297,1.6870611,2.1235163,1.2115164,1.4420325,0.9886233,1.1128024,0.27470312,0.93195325,0.5609746,0.5656611,-0.25346553,0.28907052,822.381,793.36993,797.8022,815.5311,943.2601,-0.13525390625,0.1270751953125,0.99053955078125,-0.201873779296875,-0.231781005859375,0.34393310546875,1,1.0,1.0,1.0,1.0,20.00
2024-09-29 18:17:05.148,1.1199005,2.5039182,0.57813454,1.9617555,0.791853,1.6021358,0.3208125,1.2644297,1.6870611,2.1235163,1.2115164,1.4420325,0.9886233,1.1128024,0.27470312,0.93195325,0.5609746,0.5656611,-0.25346553,0.28907052,815.5311,795.38464,790.14655,811.9048,837.28937,-0.13525390625,0.1270751953125,0.99053955078125,-0.201873779296875,-0.231781005859375,0.34393310546875,1,1.0,1.0,1.0,1.0,20.00
2024-09-29 18:17:05.148,1.1199005,2.5039182,0.57813454,1.9617555,0.791853,1.6021358,0.3208125,1.2644297,1.6870611,2.1235163,1.2115164,1.4420325,0.9886233,1.1128024,0.27470312,0.93195325,0.5609746,0.5656611,-0.25346553,0.28907052,814.7253,801.02563,788.93774,812.71063,618.0952,-0.13525390625,0.1270751953125,0.99053955078125,-0.201873779296875,-0.231781005859375,0.34393310546875,1,1.0,1.0,1.0,1.0,20.00
2024-09-29 18:17:05.210,1.1199005,2.5039182,0.57813454,1.9617555,0.791853,1.6021358,0.3208125,1.2644297,1.6870611,2.1235163,1.2115164,1.4420325,0.9886233,1.1128024,0.27470312,0.93195325,0.5609746,0.5656611,-0.25346553,0.28907052,823.5897,801.4286,799.011,828.8278,730.10986,-0.13525390625,0.1270751953125,0.99053955078125,-0.201873779296875,-0.231781005859375,0.34393310546875,1,1.0,1.0,1.0,1.0,20.00
2024-09-29 18:17:05.211,1.1199005,2.5039182,0.57813454,1.9617555,0.791853,1.6021358,0.3208125,1.2644297,1.6870611,2.1235163,1.2115164,1.4420325,0.9886233,1.1128024,0.27470312,0.93195325,0.5609746,0.5656611,-0.25346553,0.28907052,825.6044,802.23444,803.44324,838.9011,976.30035,-0.13525390625,0.1270751953125,0.99053955078125,-0.201873779296875,-0.231781005859375,0.34393310546875,1,1.0,1.0,1.0,1.0,20.00
2024-09-29 18:17:05.212,1.1199005,2.5039182,0.57813454,1.9617555,0.791853,1.6021358,0.3208125,1.2644297,1.6870611,2.1235163,1.2115164,1.4420325,0.9886233,1.1128024,0.27470312,0.93195325,0.5609746,0.5656611,-0.25346553,0.28907052,832.0513,804.65204,799.011,834.87177,853.4066,-0.13525390625,0.1270751953125,0.99053955078125,-0.201873779296875,-0.231781005859375,0.34393310546875,1,1.0,1.0,1.0,1.0,20.00
2024-09-29 18:17:05.212,1.1199005,2.4967973,0.5812155,2.03969,0.791853,1.5826341,0.3292231,1.3404511,1.6870611,2.1235163,1.2115164,1.4420325,0.9886233,1.0862505,0.27045608,0.990062,0.5609746,0.5339611,-0.2531106,0.3434314,843.3333,803.0403,794.9817,829.6337,662.4176,-0.13525390625,0.1270751953125,0.99053955078125,-0.201873779296875,-0.231781005859375,0.34393310546875,1,1.0,1.0,1.0,1.0,20.00
2024-09-29 18:17:05.216,1.1199005,2.4967973,0.5812155,2.03969,0.791853,1.5826341,0.3292231,1.3404511,1.6870611,2.1235163,1.2115164,1.4420325,0.9886233,1.0862505,0.27045608,0.990062,0.5609746,0.5339611,-0.2531106,0.3434314,840.9158,798.20514,793.36993,826.8132,746.2271,-0.13525390625,0.1270751953125,0.99053955078125,-0.201873779296875,-0.231781005859375,0.34393310546875,1,1.0,1.0,1.0,1.0,20.00
2024-09-29 18:17:05.217,1.1199005,2.4967973,0.5812155,2.03969,0.791853,1.5826341,0.3292231,1.3404511,1.6870611,2.1235163,1.2115164,1.4420325,0.9886233,1.0862505,0.27045608,0.990062,0.5609746,0.5339611,-0.2531106,0.3434314,827.2161,799.011,793.36993,827.2161,1053.2601,-0.13525390625,0.1270751953125,0.99053955078125,-0.201873779296875,-0.231781005859375,0.34393310546875,1,1.0,1.0,1.0,1.0,20.00
2024-09-29 18:17:05.218,1.1199005,2.4967973,0.5812155,2.03969,0.791853,1.5826341,0.3292231,1.3404511,1.6870611,2.1235163,1.2115164,1.4420325,0.9886233,1.0862505,0.27045608,0.990062,0.5609746,0.5339611,-0.2531106,0.3434314,828.4249,795.78754,797.3993,826.0073,977.50916,-0.13525390625,0.1270751953125,0.99053955078125,-0.201873779296875,-0.231781005859375,0.34393310546875,1,1.0,1.0,1.0,1.0,20.00
2024-09-29 18:17:05.218,1.1199005,2.4967973,0.5812155,2.03969,0.791853,1.5826341,0.3292231,1.3404511,1.6870611,2.1235163,1.2115164,1.4420325,0.9886233,1.0862505,0.27045608,0.990062,0.5609746,0.5339611,-0.2531106,0.3434314,834.0659,797.3993,802.23444,822.381,757.9121,-0.13525390625,0.1270751953125,0.99053955078125,-0.201873779296875,-0.231781005859375,0.34393310546875,1,1.0,1.0,1.0,1.0,20.00
2024-09-29 18:17:05.219,1.1199005,2.4967973,0.5812155,2.03969,0.791853,1.5826341,0.3292231,1.3404511,1.6870611,2.1235163,1.2115164,1.4420325,0.9886233,1.0862505,0.27045608,0.990062,0.5609746,0.5339611,-0.2531106,0.3434314,834.87177,800.2198,801.02563,819.5604,798.20514,-0.13525390625,0.1270751953125,0.99053955078125,-0.201873779296875,-0.231781005859375,0.34393310546875,1,1.0,1.0,1.0,1.0,20.00
2024-09-29 18:17:05.219,1.1199005,2.4967973,0.5812155,2.03969,0.791853,1.5826341,0.3292231,1.3404511,1.6870611,2.1235163,1.2115164,1.4420325,0.9886233,1.0862505,0.27045608,0.990062,0.5609746,0.5339611,-0.2531106,0.3434314,828.022,798.60803,801.8315,826.4103,869.92676,-0.13525390625,0.1270751953125,0.99053955078125,-0.201873779296875,-0.231781005859375,0.34393310546875,1,1.0,1.0,1.0,1.0,20.00
2024-09-29 18:17:05.220,1.1199005,2.4967973,0.5812155,2.03969,0.791853,1.5826341,0.3292231,1.3404511,1.6870611,2.1235163,1.2115164,1.4420325,0.9886233,1.0862505,0.27045608,0.990062,0.5609746,0.5339611,-0.2531106,0.3434314,817.9487,802.23444,802.23444,829.6337,848.5714,-0.13525390625,0.1270751953125,0.99053955078125,-0.201873779296875,-0.231781005859375,0.34393310546875,1,1.0,1.0,1.0,1.0,20.00
2024-09-29 18:17:05.220,1.1199005,2.4967973,0.5812155,2.03969,0.791853,1.5826341,0.3292231,1.3404511,1.6870611,2.1235163,1.2115164,1.4420325,0.9886233,1.0862505,0.27045608,0.990062,0.5609746,0.5339611,-0.2531106,0.3434314,813.91943,802.6374,801.4286,829.6337,738.1685,-0.13525390625,0.1270751953125,0.99053955078125,-0.201873779296875,-0.231781005859375,0.34393310546875,1,1.0,1.0,1.0,1.0,20.00
2024-09-29 18:17:05.345,1.1199005,2.4967973,0.5812155,2.03969,0.791853,1.5826341,0.3292231,1.3404511,1.6870611,2.1235163,1.2115164,1.4420325,0.9886233,1.0862505,0.27045608,0.990062,0.5609746,0.5339611,-0.2531106,0.3434314,813.5165,797.3993,803.0403,832.0513,803.0403,-0.14312744140625,0.1309814453125,0.98846435546875,-0.396270751953125,-1.143951416015625,0.351409912109375,1,1.0,1.0,1.0,1.0,20.00
2024-09-29 18:17:05.346,1.1199005,2.4967973,0.5812155,2.03969,0.791853,1.5826341,0.3292231,1.3404511,1.6870611,2.1235163,1.2115164,1.4420325,0.9886233,1.0862505,0.27045608,0.990062,0.5609746,0.5339611,-0.2531106,0.3434314,813.5165,795.38464,800.2198,828.8278,860.2564,-0.14312744140625,0.1309814453125,0.98846435546875,-0.396270751953125,-1.143951416015625,0.351409912109375,1,1.0,1.0,1.0,1.0,20.00
2024-09-29 18:17:05.347,1.1199005,2.4967973,0.5812155,2.03969,0.791853,1.5826341,0.3292231,1.3404511,1.6870611,2.1235163,1.2115164,1.4420325,0.9886233,1.0862505,0.27045608,0.990062,0.5609746,0.5339611,-0.2531106,0.3434314,812.71063,799.41394,796.5934,819.5604,761.13556,-0.14312744140625,0.1309814453125,0.98846435546875,-0.396270751953125,-1.143951416015625,0.351409912109375,1,1.0,1.0,1.0,1.0,20.00
2024-09-29 18:17:05.347,1.1199005,2.4967973,0.5812155,2.03969,0.791853,1.5826341,0.3292231,1.3404511,1.6870611,2.1235163,1.2115164,1.4420325,0.9886233,1.0862505,0.27045608,0.990062,0.5609746,0.5339611,-0.2531106,0.3434314,812.3077,802.23444,798.60803,807.47253,803.44324,-0.14312744140625,0.1309814453125,0.98846435546875,-0.396270751953125,-1.143951416015625,0.351409912109375,1,1.0,1.0,1.0,1.0,20.00
2024-09-29 18:17:05.348,1.1199005,2.4967973,0.5812155,2.03969,0.791853,1.5826341,0.3292231,1.3404511,1.6870611,2.1235163,1.2115164,1.4420325,0.9886233,1.0862505,0.27045608,0.990062,0.5609746,0.5339611,-0.2531106,0.3434314,814.7253,801.4286,800.2198,807.0696,935.2015,-0.14312744140625,0.1309814453125,0.98846435546875,-0.396270751953125,-1.143951416015625,0.351409912109375,1,1.0,1.0,1.0,1.0,20.00
2024-09-29 18:17:05.348,1.1199005,2.4967973,0.5812155,2.03969,0.791853,1.5826341,0.3292231,1.3404511,1.6870611,2.1235163,1.2115164,1.4420325,0.9886233,1.0862505,0.27045608,0.990062,0.5609746,0.5339611,-0.2531106,0.3434314,814.3223,803.8461,799.011,801.02563,974.2857,-0.14312744140625,0.1309814453125,0.98846435546875,-0.396270751953125,-1.143951416015625,0.351409912109375,1,1.0,1.0,1.0,1.0,20.00
2024-09-29 18:17:05.349,1.1199005,2.4967973,0.5812155,2.03969,0.791853,1.5826341,0.3292231,1.3404511,1.6870611,2.1235163,1.2115164,1.4420325,0.9886233,1.0862505,0.27045608,0.990062,0.5609746,0.5339611,-0.2531106,0.3434314,806.26373,803.8461,801.02563,796.5934,912.6374,-0.14312744140625,0.1309814453125,0.98846435546875,-0.396270751953125,-1.143951416015625,0.351409912109375,1,1.0,1.0,1.0,1.0,20.00
2024-09-29 18:17:05.349,1.1199005,2.4967973,0.5812155,2.03969,0.791853,1.5826341,0.3292231,1.3404511,1.6870611,2.1235163,1.2115164,1.4420325,0.9886233,1.0862505,0.27045608,0.990062,0.5609746,0.5339611,-0.2531106,0.3434314,798.60803,798.60803,800.6227,798.60803,1006.1172,-0.14312744140625,0.1309814453125,0.98846435546875,-0.396270751953125,-1.143951416015625,0.351409912109375,1,1.0,1.0,1.0,1.0,20.00
2024-09-29 18:17:05.350,1.1199005,2.4967973,0.5812155,2.03969,0.791853,1.5826341,0.3292231,1.3404511,1.6870611,2.1235163,1.2115164,1.4420325,0.9886233,1.0862505,0.27045608,0.990062,0.5609746,0.5339611,-0.2531106,0.3434314,795.38464,796.5934,798.20514,794.17584,968.24176,-0.14312744140625,0.1309814453125,0.98846435546875,-0.396270751953125,-1.143951416015625,0.351409912109375,1,1.0,1.0,1.0,1.0,20.00
2024-09-29 18:17:05.351,1.1199005,2.4967973,0.5812155,2.03969,0.791853,1.5826341,0.3292231,1.3404511,1.6870611,2.1235163,1.2115164,1.4420325,0.9886233,1.0862505,0.27045608,0.990062,0.5609746,0.5339611,-0.2531106,0.3434314,793.7729,798.60803,796.99634,793.7729,707.9487,-0.14312744140625,0.1309814453125,0.98846435546875,-0.396270751953125,-1.143951416015625,0.351409912109375,1,1.0,1.0,1.0,1.0,20.00
2024-09-29 18:17:05.351,1.1199005,2.4967973,0.5812155,2.03969,0.791853,1.5826341,0.3292231,1.3404511,1.6870611,2.1235163,1.2115164,1.4420325,0.9886233,1.0862505,0.27045608,0.990062,0.5609746,0.5339611,-0.2531106,0.3434314,788.1319,795.38464,796.5934,801.02563,791.75824,-0.14312744140625,0.1309814453125,0.98846435546875,-0.396270751953125,-1.143951416015625,0.351409912109375,1,1.0,1.0,1.0,1.0,20.00
2024-09-29 18:17:05.352,1.1199005,2.4967973,0.5812155,2.03969,0.791853,1.5826341,0.3292231,1.3404511,1.6870611,2.1235163,1.2115164,1.4420325,0.9886233,1.0862505,0.27045608,0.990062,0.5609746,0.5339611,-0.2531106,0.3434314,782.8938,793.36993,800.2198,811.50183,1050.0366,-0.14312744140625,0.1309814453125,0.98846435546875,-0.396270751953125,-1.143951416015625,0.351409912109375,1,1.0,1.0,1.0,1.0,20.00
2024-09-29 18:17:05.352,1.1199005,2.4967973,0.5812155,2.03969,0.791853,1.5826341,0.3292231,1.3404511,1.6870611,2.1235163,1.2115164,1.4420325,0.9886233,1.0862505,0.27045608,0.990062,0.5609746,0.5339611,-0.2531106,0.3434314,785.31134,794.57874,801.02563,809.0842,1040.3663,-0.13818359375,0.1304931640625,0.99432373046875,-0.097198486328125,-0.97198486328125,-0.49346923828125,1,1.0,1.0,1.0,1.0,20.00
2024-09-29 18:17:05.353,1.1199005,2.4967973,0.5812155,2.03969,0.791853,1.5826341,0.3292231,1.3404511,1.6870611,2.1235163,1.2115164,1.4420325,0.9886233,1.0862505,0.27045608,0.990062,0.5609746,0.5339611,-0.2531106,0.3434314,798.60803,795.38464,801.4286,813.1135,753.0769,-0.13818359375,0.1304931640625,0.99432373046875,-0.097198486328125,-0.97198486328125,-0.49346923828125,1,1.0,1.0,1.0,1.0,20.00
2024-09-29 18:17:05.353,1.1199005,2.4967973,0.5812155,2.03969,0.791853,1.5826341,0.3292231,1.3404511,1.6870611,2.1235163,1.2115164,1.4420325,0.9886233,1.0862505,0.27045608,0.990062,0.5609746,0.5339611,-0.2531106,0.3434314,808.2784,799.81683,801.02563,825.2015,724.87177,-0.13818359375,0.1304931640625,0.99432373046875,-0.097198486328125,-0.97198486328125,-0.49346923828125,1,1.0,1.0,1.0,1.0,20.00
2024-09-29 18:17:05.354,1.1199005,2.4967973,0.5812155,2.03969,0.791853,1.5826341,0.3292231,1.3404511,1.6870611,2.1235163,1.2115164,1.4420325,0.9886233,1.0862505,0.27045608,0.990062,0.5609746,0.5339611,-0.2531106,0.3434314,803.8461,801.02563,798.60803,833.663,889.2674,-0.13818359375,0.1304931640625,0.99432373046875,-0.097198486328125,-0.97198486328125,-0.49346923828125,1,1.0,1.0,1.0,1.0,20.00
2024-09-29 18:17:05.354,1.1199005,2.4967973,0.5812155,2.03969,0.791853,1.5826341,0.3292231,1.3404511,1.6870611,2.1235163,1.2115164,1.4420325,0.9886233,1.0862505,0.27045608,0.990062,0.5609746,0.5339611,-0.2531106,0.3434314,796.5934,794.9817,804.65204,832.4542,858.24176,-0.13818359375,0.1304931640625,0.99432373046875,-0.097198486328125,-0.97198486328125,-0.49346923828125,1,1.0,1.0,1.0,1.0,20.00
2024-09-29 18:17:05.355,1.1199005,2.3528786,0.5861667,1.1576047,0.791853,1.4668798,0.33865494,0.73061895,1.6870611,2.1081538,1.2115164,1.3212334,0.9886233,0.96273935,0.26069254,0.70197594,0.5609746,0.4107454,-0.24733959,0.111889035,807.8755,792.96704,808.2784,831.6484,699.0842,-0.13818359375,0.1304931640625,0.99432373046875,-0.097198486328125,-0.97198486328125,-0.49346923828125,1,1.0,1.0,1.0,1.0,20.00
2024-09-29 18:17:05.360,1.1199005,2.3528786,0.5861667,1.1576047,0.791853,1.4668798,0.33865494,0.73061895,1.6870611,2.1081538,1.2115164,1.3212334,0.9886233,0.96273935,0.26069254,0.70197594,0.5609746,0.4107454,-0.24733959,0.111889035,822.7839,797.8022,799.81683,839.304,811.50183,-0.13818359375,0.1304931640625,0.99432373046875,-0.097198486328125,-0.97198486328125,-0.49346923828125,1,1.0,1.0,1.0,1.0,20.00
2024-09-29 18:17:05.360,1.1199005,2.3528786,0.5861667,1.1576047,0.791853,1.4668798,0.33865494,0.73061895,1.6870611,2.1081538,1.2115164,1.3212334,0.9886233,0.96273935,0.26069254,0.70197594,0.5609746,0.4107454,-0.24733959,0.111889035,825.2015,798.60803,793.7729,843.3333,997.25275,-0.13818359375,0.1304931640625,0.99432373046875,-0.097198486328125,-0.97198486328125,-0.49346923828125,1,1.0,1.0,1.0,1.0,20.00
2024-09-29 18:17:05.361,1.1199005,2.3528786,0.5861667,1.1576047,0.791853,1.4668798,0.33865494,0.73061895,1.6870611,2.1081538,1.2115164,1.3212334,0.9886233,0.96273935,0.26069254,0.70197594,0.5609746,0.4107454,-0.24733959,0.111889035,815.12823,802.6374,799.41394,838.0952,945.2747,-0.13818359375,0.1304931640625,0.99432373046875,-0.097198486328125,-0.97198486328125,-0.49346923828125,1,1.0,1.0,1.0,1.0,20.00
2024-09-29 18:17:05.361,1.1199005,2.3528786,0.5861667,1.1576047,0.791853,1.4668798,0.33865494,0.73061895,1.6870611,2.1081538,1.2115164,1.3212334,0.9886233,0.96273935,0.26069254,0.70197594,0.5609746,0.4107454,-0.24733959,0.111889035,806.6667,799.41394,804.2491,835.2747,723.2601,-0.13818359375,0.1304931640625,0.99432373046875,-0.097198486328125,-0.97198486328125,-0.49346923828125,1,1.0,1.0,1.0,1.0,20.00
2024-09-29 18:17:05.362,1.1199005,2.3528786,0.5861667,1.1576047,0.791853,1.4668798,0.33865494,0.73061895,1.6870611,2.1081538,1.2115164,1.3212334,0.9886233,0.96273935,0.26069254,0.70197594,0.5609746,0.4107454,-0.24733959,0.111889035,817.9487,799.41394,802.23444,844.1392,720.84247,-0.13818359375,0.1304931640625,0.99432373046875,-0.097198486328125,-0.97198486328125,-0.49346923828125,1,1.0,1.0,1.0,1.0,20.00
2024-09-29 18:17:05.362,1.1199005,2.3528786,0.5861667,1.1576047,0.791853,1.4668798,0.33865494,0.73061895,1.6870611,2.1081538,1.2115164,1.3212334,0.9886233,0.96273935,0.26069254,0.70197594,0.5609746,0.4107454,-0.24733959,0.111889035,833.2601,809.0842,802.23444,848.97437,939.6337,-0.13818359375,0.1304931640625,0.99432373046875,-0.097198486328125,-0.97198486328125,-0.49346923828125,1,1.0,1.0,1.0,1.0,20.00
2024-09-29 18:17:05.389,1.1199005,2.3528786,0.5861667,1.1576047,0.791853,1.4668798,0.33865494,0.73061895,1.6870611,2.1081538,1.2115164,1.3212334,0.9886233,0.96273935,0.26069254,0.70197594,0.5609746,0.4107454,-0.24733959,0.111889035,834.4689,809.4872,800.6227,843.3333,963.00366,-0.13446044921875,0.12396240234375,0.99005126953125,-0.13458251953125,-1.443023681640625,-0.88226318359375,1,1.0,1.0,1.0,1.0,20.00
2024-09-29 18:17:05.389,1.1199005,2.3528786,0.5861667,1.1576047,0.791853,1.4668798,0.33865494,0.73061895,1.6870611,2.1081538,1.2115164,1.3212334,0.9886233,0.96273935,0.26069254,0.70197594,0.5609746,0.4107454,-0.24733959,0.111889035,829.2308,806.6667,799.81683,834.0659,776.04395,-0.13446044921875,0.12396240234375,0.99005126953125,-0.13458251953125,-1.443023681640625,-0.88226318359375,1,1.0,1.0,1.0,1.0,20.00
2024-09-29 18:17:05.390,1.1199005,2.3528786,0.5861667,1.1576047,0.791853,1.4668798,0.33865494,0.73061895,1.6870611,2.1081538,1.2115164,1.3212334,0.9886233,0.96273935,0.26069254,0.70197594,0.5609746,0.4107454,-0.24733959,0.111889035,826.0073,802.23444,800.6227,817.1429,689.41394,-0.13446044921875,0.12396240234375,0.99005126953125,-0.13458251953125,-1.443023681640625,-0.88226318359375,1,1.0,1.0,1.0,1.0,20.00
2024-09-29 18:17:05.391,1.1199005,2.3528786,0.5861667,1.1576047,0.791853,1.4668798,0.33865494,0.73061895,1.6870611,2.1081538,1.2115164,1.3212334,0.9886233,0.96273935,0.26069254,0.70197594,0.5609746,0.4107454,-0.24733959,0.111889035,816.7399,799.011,795.78754,817.9487,1073.8096,-0.13446044921875,0.12396240234375,0.99005126953125,-0.13458251953125,-1.443023681640625,-0.88226318359375,1,1.0,1.0,1.0,1.0,20.00
2024-09-29 18:17:05.391,1.1199005,2.3528786,0.5861667,1.1576047,0.791853,1.4668798,0.33865494,0.73061895,1.6870611,2.1081538,1.2115164,1.3212334,0.9886233,0.96273935,0.26069254,0.70197594,0.5609746,0.4107454,-0.24733959,0.111889035,809.89014,804.2491,795.38464,819.5604,1288.5714,-0.13446044921875,0.12396240234375,0.99005126953125,-0.13458251953125,-1.443023681640625,-0.88226318359375,1,1.0,1.0,1.0,1.0,20.00
2024-09-29 18:17:05.392,1.1199005,2.3528786,0.5861667,1.1576047,0.791853,1.4668798,0.33865494,0.73061895,1.6870611,2.1081538,1.2115164,1.3212334,0.9886233,0.96273935,0.26069254,0.70197594,0.5609746,0.4107454,-0.24733959,0.111889035,811.0989,803.8461,796.99634,804.65204,985.16486,-0.13446044921875,0.12396240234375,0.99005126953125,-0.13458251953125,-1.443023681640625,-0.88226318359375,1,1.0,1.0,1.0,1.0,20.00
2024-09-29 18:17:05.392,1.1199005,2.3528786,0.5861667,1.1576047,0.791853,1.4668798,0.33865494,0.73061895,1.6870611,2.1081538,1.2115164,1.3212334,0.9886233,0.96273935,0.26069254,0.70197594,0.5609746,0.4107454,-0.24733959,0.111889035,809.0842,798.60803,796.99634,799.81683,838.0952,-0.13446044921875,0.12396240234375,0.99005126953125,-0.13458251953125,-1.443023681640625,-0.88226318359375,1,1.0,1.0,1.0,1.0,20.00
2024-09-29 18:17:05.393,1.1199005,2.3528786,0.5861667,1.1576047,0.791853,1.4668798,0.33865494,0.73061895,1.6870611,2.1081538,1.2115164,1.3212334,0.9886233,0.96273935,0.26069254,0.70197594,0.5609746,0.4107454,-0.24733959,0.111889035,800.6227,797.3993,800.2198,805.05493,970.65936,-0.13446044921875,0.12396240234375,0.99005126953125,-0.13458251953125,-1.443023681640625,-0.88226318359375,1,1.0,1.0,1.0,1.0,20.00
2024-09-29 18:17:05.393,1.1199005,2.3528786,0.5861667,1.1576047,0.791853,1.4668798,0.33865494,0.73061895,1.6870611,2.1081538,1.2115164,1.3212334,0.9886233,0.96273935,0.26069254,0.70197594,0.5609746,0.4107454,-0.24733959,0.111889035,796.1905,798.60803,803.8461,811.0989,954.5421,-0.13446044921875,0.12396240234375,0.99005126953125,-0.13458251953125,-1.443023681640625,-0.88226318359375,1,1.0,1.0,1.0,1.0,20.00
2024-09-29 18:17:05.394,1.1199005,2.3528786,0.5861667,1.1576047,0.791853,1.4668798,0.33865494,0.73061895,1.6870611,2.1081538,1.2115164,1.3212334,0.9886233,0.96273935,0.26069254,0.70197594,0.5609746,0.4107454,-0.24733959,0.111889035,803.0403,799.011,801.02563,813.5165,757.1062,-0.13446044921875,0.12396240234375,0.99005126953125,-0.13458251953125,-1.443023681640625,-0.88226318359375,1,1.0,1.0,1.0,1.0,20.00
2024-09-29 18:17:05.394,1.1199005,2.3528786,0.5861667,1.1576047,0.791853,1.4668798,0.33865494,0.73061895,1.6870611,2.1081538,1.2115164,1.3212334,0.9886233,0.96273935,0.26069254,0.70197594,0.5609746,0.4107454,-0.24733959,0.111889035,806.26373,802.23444,797.3993,814.7253,751.4652,-0.13446044921875,0.12396240234375,0.99005126953125,-0.13458251953125,-1.443023681640625,-0.88226318359375,1,1.0,1.0,1.0,1.0,20.00
2024-09-29 18:17:05.395,1.1199005,2.3528786,0.5861667,1.1576047,0.791853,1.4668798,0.33865494,0.73061895,1.6870611,2.1081538,1.2115164,1.3212334,0.9886233,0.96273935,0.26069254,0.70197594,0.5609746,0.4107454,-0.24733959,0.111889035,804.2491,801.4286,799.41394,815.5311,890.4762,-0.13446044921875,0.12396240234375,0.99005126953125,-0.13458251953125,-1.443023681640625,-0.88226318359375,1,1.0,1.0,1.0,1.0,20.00
2024-09-29 18:17:05.395,1.1199005,2.3528786,0.5861667,1.1576047,0.791853,1.4668798,0.33865494,0.73061895,1.6870611,2.1081538,1.2115164,1.3212334,0.9886233,0.96273935,0.26069254,0.70197594,0.5609746,0.4107454,-0.24733959,0.111889035,801.8315,797.3993,798.60803,816.337,841.7216,-0.13629150390625,0.128173828125,0.98223876953125,0.740203857421875,-0.418701171875,-0.964508056640625,1,1.0,1.0,1.0,1.0,20.00
2024-09-29 18:17:05.396,1.1199005,2.3528786,0.5861667,1.1576047,0.791853,1.4668798,0.33865494,0.73061895,1.6870611,2.1081538,1.2115164,1.3212334,0.9886233,0.96273935,0.26069254,0.70197594,0.5609746,0.4107454,-0.24733959,0.111889035,803.0403,794.17584,796.5934,824.3956,848.5714,-0.13629150390625,0.128173828125,0.98223876953125,0.740203857421875,-0.418701171875,-0.964508056640625,1,1.0,1.0,1.0,1.0,20.00
2024-09-29 18:17:05.396,1.1199005,2.3528786,0.5861667,1.1576047,0.791853,1.4668798,0.33865494,0.73061895,1.6870611,2.1081538,1.2115164,1.3212334,0.9886233,0.96273935,0.26069254,0.70197594,0.5609746,0.4107454,-0.24733959,0.111889035,801.8315,794.57874,807.0696,827.619,786.9231,-0.13629150390625,0.128173828125,0.98223876953125,0.740203857421875,-0.418701171875,-0.964508056640625,1,1.0,1.0,1.0,1.0,20.00
2024-09-29 18:17:05.397,1.1199005,2.3528786,0.5861667,1.1576047,0.791853,1.4668798,0.33865494,0.73061895,1.6870611,2.1081538,1.2115164,1.3212334,0.9886233,0.96273935,0.26069254,0.70197594,0.5609746,0.4107454,-0.24733959,0.111889035,807.47253,799.81683,808.2784,826.8132,718.022,-0.13629150390625,0.128173828125,0.98223876953125,0.740203857421875,-0.418701171875,-0.964508056640625,1,1.0,1.0,1.0,1.0,20.00
2024-09-29 18:17:05.398,1.1199005,2.3528786,0.5861667,1.1576047,0.791853,1.4668798,0.33865494,0.73061895,1.6870611,2.1081538,1.2115164,1.3212334,0.9886233,0.96273935,0.26069254,0.70197594,0.5609746,0.4107454,-0.24733959,0.111889035,817.5458,796.1905,804.65204,835.2747,746.2271,-0.13629150390625,0.128173828125,0.98223876953125,0.740203857421875,-0.418701171875,-0.964508056640625,1,1.0,1.0,1.0,1.0,20.00
2024-09-29 18:17:05.398,1.1199005,2.3528786,0.5861667,1.1576047,0.791853,1.4668798,0.33865494,0.73061895,1.6870611,2.1081538,1.2115164,1.3212334,0.9886233,0.96273935,0.26069254,0.70197594,0.5609746,0.4107454,-0.24733959,0.111889035,809.0842,792.1612,804.65204,822.381,809.89014,-0.13629150390625,0.128173828125,0.98223876953125,0.740203857421875,-0.418701171875,-0.964508056640625,1,1.0,1.0,1.0,1.0,20.00
2024-09-29 18:17:05.399,1.1199005,2.3528786,0.5861667,1.1576047,0.791853,1.4668798,0.33865494,0.73061895,1.6870611,2.1081538,1.2115164,1.3212334,0.9886233,0.96273935,0.26069254,0.70197594,0.5609746,0.4107454,-0.24733959,0.111889035,794.17584,796.1905,802.23444,809.4872,938.8278,-0.13629150390625,0.128173828125,0.98223876953125,0.740203857421875,-0.418701171875,-0.964508056640625,1,1.0,1.0,1.0,1.0,20.00
2024-09-29 18:17:05.399,1.1199005,2.352893,0.5911796,1.1576047,0.791853,1.4666846,0.34708643,0.73061895,1.6870611,2.1081538,1.2115164,1.3212334,0.9886233,0.9616683,0.24769603,0.70197594,0.5609746,0.41452074,-0.23898305,0.111889035,804.65204,795.38464,805.8608,817.9487,875.9707,-0.13629150390625,0.128173828125,0.98223876953125,0.740203857421875,-0.418701171875,-0.964508056640625,1,1.0,1.0,1.0,1.0,20.00
2024-09-29 18:17:05.403,1.1199005,2.352893,0.5911796,1.1576047,0.791853,1.4666846,0.34708643,0.73061895,1.6870611,2.1081538,1.2115164,1.3212334,0.9886233,0.9616683,0.24769603,0.70197594,0.5609746,0.41452074,-0.23898305,0.111889035,821.978,792.5641,813.1135,828.8278,796.1905,-0.13629150390625,0.128173828125,0.98223876953125,0.740203857421875,-0.418701171875,-0.964508056640625,1,1.0,1.0,1.0,1.0,20.00
2024-09-29 18:17:05.404,1.1199005,2.352893,0.5911796,1.1576047,0.791853,1.4666846,0.34708643,0.73061895,1.6870611,2.1081538,1.2115164,1.3212334,0.9886233,0.9616683,0.24769603,0.70197594,0.5609746,0.41452074,-0.23898305,0.111889035,817.1429,791.75824,813.1135,825.6044,939.2308,-0.13629150390625,0.128173828125,0.98223876953125,0.740203857421875,-0.418701171875,-0.964508056640625,1,1.0,1.0,1.0,1.0,20.00
2024-09-29 18:17:05.404,1.1199005,2.352893,0.5911796,1.1576047,0.791853,1.4666846,0.34708643,0.73061895,1.6870611,2.1081538,1.2115164,1.3212334,0.9886233,0.9616683,0.24769603,0.70197594,0.5609746,0.41452074,-0.23898305,0.111889035,814.3223,793.7729,813.91943,817.5458,969.0476,-0.13629150390625,0.128173828125,0.98223876953125,0.740203857421875,-0.418701171875,-0.964508056640625,1,1.0,1.0,1.0,1.0,20.00
2024-09-29 18:17:05.405,1.1199005,2.352893,0.5911796,1.1576047,0.791853,1.4666846,0.34708643,0.73061895,1.6870611,2.1081538,1.2115164,1.3212334,0.9886233,0.9616683,0.24769603,0.70197594,0.5609746,0.41452074,-0.23898305,0.111889035,821.1722,797.3993,811.9048,815.9341,783.69965,-0.13629150390625,0.128173828125,0.98223876953125,0.740203857421875,-0.418701171875,-0.964508056640625,1,1.0,1.0,1.0,1.0,20.00
2024-09-29 18:17:05.405,1.1199005,2.352893,0.5911796,1.1576047,0.791853,1.4666846,0.34708643,0.73061895,1.6870611,2.1081538,1.2115164,1.3212334,0.9886233,0.9616683,0.24769603,0.70197594,0.5609746,0.41452074,-0.23898305,0.111889035,818.3516,796.99634,810.293,823.5897,732.52747,-0.13629150390625,0.128173828125,0.98223876953125,0.740203857421875,-0.418701171875,-0.964508056640625,1,1.0,1.0,1.0,1.0,20.00
2024-09-29 18:17:05.406,1.1199005,2.352893,0.5911796,1.1576047,0.791853,1.4666846,0.34708643,0.73061895,1.6870611,2.1081538,1.2115164,1.3212334,0.9886233,0.9616683,0.24769603,0.70197594,0.5609746,0.41452074,-0.23898305,0.111889035,811.50183,790.9524,811.0989,825.2015,828.022,-0.13629150390625,0.128173828125,0.98223876953125,0.740203857421875,-0.418701171875,-0.964508056640625,1,1.0,1.0,1.0,1.0,20.00
2024-09-29 18:17:05.406,1.1199005,2.352893,0.5911796,1.1576047,0.791853,1.4666846,0.34708643,0.73061895,1.6870611,2.1081538,1.2115164,1.3212334,0.9886233,0.9616683,0.24769603,0.70197594,0.5609746,0.41452074,-0.23898305,0.111889035,809.4872,792.5641,808.68134,825.2015,971.4652,-0.13629150390625,0.128173828125,0.98223876953125,0.740203857421875,-0.418701171875,-0.964508056640625,1,1.0,1.0,1.0,1.0,20.00
2024-09-29 18:17:05.407,1.1199005,2.352893,0.5911796,1.1576047,0.791853,1.4666846,0.34708643,0.73061895,1.6870611,2.1081538,1.2115164,1.3212334,0.9886233,0.9616683,0.24769603,0.70197594,0.5609746,0.41452074,-0.23898305,0.111889035,812.3077,800.2198,808.2784,820.3663,919.0842,-0.13629150390625,0.128173828125,0.98223876953125,0.740203857421875,-0.418701171875,-0.964508056640625,1,1.0,1.0,1.0,1.0,20.00
2024-09-29 18:17:05.407,1.1199005,2.352893,0.5911796,1.1576047,0.791853,1.4666846,0.34708643,0.73061895,1.6870611,2.1081538,1.2115164,1.3212334,0.9886233,0.9616683,0.24769603,0.70197594,0.5609746,0.41452074,-0.23898305,0.111889035,814.7253,800.6227,811.9048,814.7253,799.011,-0.13629150390625,0.128173828125,0.98223876953125,0.740203857421875,-0.418701171875,-0.964508056640625,1,1.0,1.0,1.0,1.0,20.00
2024-09-29 18:17:05.408,1.1199005,2.352893,0.5911796,1.1576047,0.791853,1.4666846,0.34708643,0.73061895,1.6870611,2.1081538,1.2115164,1.3212334,0.9886233,0.9616683,0.24769603,0.70197594,0.5609746,0.41452074,-0.23898305,0.111889035,809.0842,792.5641,807.8755,813.91943,979.5238,-0.13629150390625,0.128173828125,0.98223876953125,0.740203857421875,-0.418701171875,-0.964508056640625,1,1.0,1.0,1.0,1.0,20.00
2024-09-29 18:17:05.408,1.1199005,2.352893,0.5911796,1.1576047,0.791853,1.4666846,0.34708643,0.73061895,1.6870611,2.1081538,1.2115164,1.3212334,0.9886233,0.9616683,0.24769603,0.70197594,0.5609746,0.41452074,-0.23898305,0.111889035,800.6227,790.9524,802.23444,810.293,1206.7766,-0.13629150390625,0.128173828125,0.98223876953125,0.740203857421875,-0.418701171875,-0.964508056640625,1,1.0,1.0,1.0,1.0,20.00
2024-09-29 18:17:05.409,1.1199005,2.352893,0.5911796,1.1576047,0.791853,1.4666846,0.34708643,0.73061895,1.6870611,2.1081538,1.2115164,1.3212334,0.9886233,0.9616683,0.24769603,0.70197594,0.5609746,0.41452074,-0.23898305,0.111889035,800.2198,800.2198,801.4286,803.0403,900.54944,-0.13629150390625,0.128173828125,0.98223876953125,0.740203857421875,-0.418701171875,-0.964508056640625,1,1.0,1.0,1.0,1.0,20.00
2024-09-29 18:17:05.409,1.1199005,2.352893,0.5911796,1.1576047,0.791853,1.4666846,0.34708643,0.73061895,1.6870611,2.1081538,1.2115164,1.3212334,0.9886233,0.9616683,0.24769603,0.70197594,0.5609746,0.41452074,-0.23898305,0.111889035,812.71063,801.8315,801.02563,807.0696,629.3773,-0.13629150390625,0.128173828125,0.98223876953125,0.740203857421875,-0.418701171875,-0.964508056640625,1,1.0,1.0,1.0,1.0,20.00
2024-09-29 18:17:05.410,1.1199005,2.352893,0.5911796,1.1576047,0.791853,1.4666846,0.34708643,0.73061895,1.6870611,2.1081538,1.2115164,1.3212334,0.9886233,0.9616683,0.24769603,0.70197594,0.5609746,0.41452074,-0.23898305,0.111889035,821.978,798.60803,803.44324,819.5604,772.01465,-0.13629150390625,0.128173828125,0.98223876953125,0.740203857421875,-0.418701171875,-0.964508056640625,1,1.0,1.0,1.0,1.0,20.00
2024-09-29 18:17:05.410,1.1199005,2.352893,0.5911796,1.1576047,0.791853,1.4666846,0.34708643,0.73061895,1.6870611,2.1081538,1.2115164,1.3212334,0.9886233,0.9616683,0.24769603,0.70197594,0.5609746,0.41452074,-0.23898305,0.111889035,827.2161,794.17584,807.0696,825.2015,1028.2784,-0.13629150390625,0.128173828125,0.98223876953125,0.740203857421875,-0.418701171875,-0.964508056640625,1,1.0,1.0,1.0,1.0,20.00
2024-09-29 18:17:05.411,1.1199005,2.352893,0.5911796,1.1576047,0.791853,1.4666846,0.34708643,0.73061895,1.6870611,2.1081538,1.2115164,1.3212334,0.9886233,0.9616683,0.24769603,0.70197594,0.5609746,0.41452074,-0.23898305,0.111889035,831.2454,794.9817,807.0696,823.1868,826.0073,-0.13629150390625,0.128173828125,0.98223876953125,0.740203857421875,-0.418701171875,-0.964508056640625,1,1.0,1.0,1.0,1.0,20.00
2024-09-29 18:17:05.412,1.1199005,2.352893,0.5911796,1.1576047,0.791853,1.4666846,0.34708643,0.73061895,1.6870611,2.1081538,1.2115164,1.3212334,0.9886233,0.9616683,0.24769603,0.70197594,0.5609746,0.41452074,-0.23898305,0.111889035,828.022,796.99634,805.4579,828.022,561.685,-0.134765625,0.13330078125,0.98846435546875,0.538330078125,-1.55517578125,0.059814453125,1,1.0,1.0,1.0,1.0,20.00
2024-09-29 18:17:05.412,1.1199005,2.352893,0.5911796,1.1576047,0.791853,1.4666846,0.34708643,0.73061895,1.6870611,2.1081538,1.2115164,1.3212334,0.9886233,0.9616683,0.24769603,0.70197594,0.5609746,0.41452074,-0.23898305,0.111889035,817.1429,794.17584,805.8608,834.0659,759.92676,-0.134765625,0.13330078125,0.98846435546875,0.538330078125,-1.55517578125,0.059814453125,1,1.0,1.0,1.0,1.0,20.00
2024-09-29 18:17:05.413,1.1199005,2.352893,0.5911796,1.1576047,0.791853,1.4666846,0.34708643,0.73061895,1.6870611,2.1081538,1.2115164,1.3212334,0.9886233,0.9616683,0.24769603,0.70197594,0.5609746,0.41452074,-0.23898305,0.111889035,810.696,795.38464,804.65204,832.4542,939.2308,-0.134765625,0.13330078125,0.98846435546875,0.538330078125,-1.55517578125,0.059814453125,1,1.0,1.0,1.0,1.0,20.00
2024-09-29 18:17:05.413,1.1199005,2.352893,0.5911796,1.1576047,0.791853,1.4666846,0.34708643,0.73061895,1.6870611,2.1081538,1.2115164,1.3212334,0.9886233,0.9616683,0.24769603,0.70197594,0.5609746,0.41452074,-0.23898305,0.111889035,807.0696,796.1905,800.6227,819.5604,836.4835,-0.134765625,0.13330078125,0.98846435546875,0.538330078125,-1.55517578125,0.059814453125,1,1.0,1.0,1.0,1.0,20.00
2024-09-29 18:17:05.414,1.1199005,2.352893,0.5911796,1.1576047,0.791853,1.4666846,0.34708643,0.73061895,1.6870611,2.1081538,1.2115164,1.3212334,0.9886233,0.9616683,0.24769603,0.70197594,0.5609746,0.41452074,-0.23898305,0.111889035,812.71063,795.38464,797.8022,809.89014,709.15753,-0.134765625,0.13330078125,0.98846435546875,0.538330078125,-1.55517578125,0.059814453125,1,1.0,1.0,1.0,1.0,20.00
2024-09-29 18:17:05.414,1.1199005,2.352893,0.5911796,1.1576047,0.791853,1.4666846,0.34708643,0.73061895,1.6870611,2.1081538,1.2115164,1.3212334,0.9886233,0.9616683,0.24769603,0.70197594,0.5609746,0.41452074,-0.23898305,0.111889035,825.2015,790.9524,798.20514,814.7253,987.5824,-0.134765625,0.13330078125,0.98846435546875,0.538330078125,-1.55517578125,0.059814453125,1,1.0,1.0,1.0,1.0,20.00
2024-09-29 18:17:05.415,1.1199005,2.352893,0.5911796,1.1576047,0.791853,1.4666846,0.34708643,0.73061895,1.6870611,2.1081538,1.2115164,1.3212334,0.9886233,0.9616683,0.24769603,0.70197594,0.5609746,0.41452074,-0.23898305,0.111889035,826.0073,790.14655,803.44324,820.3663,1243.0403,-0.134765625,0.13330078125,0.98846435546875,0.538330078125,-1.55517578125,0.059814453125,1,1.0,1.0,1.0,1.0,20.00
2024-09-29 18:17:05.415,1.1199005,2.352893,0.5911796,1.1576047,0.791853,1.4666846,0.34708643,0.73061895,1.6870611,2.1081538,1.2115164,1.3212334,0.9886233,0.9616683,0.24769603,0.70197594,0.5609746,0.41452074,-0.23898305,0.111889035,825.6044,795.78754,806.26373,821.1722,983.5531,-0.134765625,0.13330078125,0.98846435546875,0.538330078125,-1.55517578125,0.059814453125,1,1.0,1.0,1.0,1.0,20.00
2024-09-29 18:17:05.416,1.1199005,2.352893,0.5911796,1.1576047,0.791853,1.4666846,0.34708643,0.73061895,1.6870611,2.1081538,1.2115164,1.3212334,0.9886233,0.9616683,0.24769603,0.70197594,0.5609746,0.41452074,-0.23898305,0.111889035,829.6337,798.60803,806.6667,820.7692,762.74725,-0.134765625,0.13330078125,0.98846435546875,0.538330078125,-1.55517578125,0.059814453125,1,1.0,1.0,1.0,1.0,20.00
2024-09-29 18:17:05.416,1.1199005,2.3275216,0.5944749,1.1576047,0.791853,1.4105021,0.3512759,0.73061895,1.6870611,2.1081538,1.2115164,1.3212334,0.9886233,0.92748016,0.23587303,0.70197594,0.5609746,0.38121557,-0.23192906,0.111889035,832.4542,794.57874,804.65204,817.1429,861.06226,-0.134765625,0.13330078125,0.98846435546875,0.538330078125,-1.55517578125,0.059814453125,1,1.0,1.0,1.0,1.0,20.00
2024-09-29 18:17:05.420,1.1199005,2.3275216,0.5944749,1.1576047,0.791853,1.4105021,0.3512759,0.73061895,1.6870611,2.1081538,1.2115164,1.3212334,0.9886233,0.92748016,0.23587303,0.70197594,0.5609746,0.38121557,-0.23192906,0.111889035,818.7546,794.57874,799.011,815.9341,962.1978,-0.134765625,0.13330078125,0.98846435546875,0.538330078125,-1.55517578125,0.059814453125,1,1.0,1.0,1.0,1.0,20.00
2024-09-29 18:17:05.421,1.1199005,2.3275216,0.5944749,1.1576047,0.791853,1.4105021,0.3512759,0.73061895,1.6870611,2.1081538,1.2115164,1.3212334,0.9886233,0.92748016,0.23587303,0.70197594,0.5609746,0.38121557,-0.23192906,0.111889035,812.71063,796.1905,793.7729,813.91943,794.57874,-0.134765625,0.13330078125,0.98846435546875,0.538330078125,-1.55517578125,0.059814453125,1,1.0,1.0,1.0,1.0,20.00
2024-09-29 18:17:05.422,1.1199005,2.3275216,0.5944749,1.1576047,0.791853,1.4105021,0.3512759,0.73061895,1.6870611,2.1081538,1.2115164,1.3212334,0.9886233,0.92748016,0.23587303,0.70197594,0.5609746,0.38121557,-0.23192906,0.111889035,817.1429,794.57874,796.99634,815.9341,771.2088,-0.133056640625,0.13201904296875,0.991455078125,0.665435791015625,-1.256103515625,0.665435791015625,1,1.0,1.0,1.0,1.0,20.00
2024-09-29 18:17:05.422,1.1199005,2.3275216,0.5944749,1.1576047,0.791853,1.4105021,0.3512759,0.73061895,1.6870611,2.1081538,1.2115164,1.3212334,0.9886233,0.92748016,0.23587303,0.70197594,0.5609746,0.38121557,-0.23192906,0.111889035,818.3516,794.57874,800.6227,825.2015,970.2564,-0.133056640625,0.13201904296875,0.991455078125,0.665435791015625,-1.256103515625,0.665435791015625,1,1.0,1.0,1.0,1.0,20.00
2024-09-29 18:17:05.423,1.1199005,2.3275216,0.5944749,1.1576047,0.791853,1.4105021,0.3512759,0.73061895,1.6870611,2.1081538,1.2115164,1.3212334,0.9886233,0.92748016,0.23587303,0.70197594,0.5609746,0.38121557,-0.23192906,0.111889035,817.5458,799.41394,799.41394,821.1722,911.4286,-0.133056640625,0.13201904296875,0.991455078125,0.665435791015625,-1.256103515625,0.665435791015625,1,1.0,1.0,1.0,1.0,20.00
2024-09-29 18:17:05.423,1.1199005,2.3275216,0.5944749,1.1576047,0.791853,1.4105021,0.3512759,0.73061895,1.6870611,2.1081538,1.2115164,1.3212334,0.9886233,0.92748016,0.23587303,0.70197594,0.5609746,0.38121557,-0.23192906,0.111889035,814.7253,798.60803,806.26373,821.1722,755.4945,-0.133056640625,0.13201904296875,0.991455078125,0.665435791015625,-1.256103515625,0.665435791015625,1,1.0,1.0,1.0,1.0,20.00
2024-09-29 18:17:05.424,1.1199005,2.3275216,0.5944749,1.1576047,0.791853,1.4105021,0.3512759,0.73061895,1.6870611,2.1081538,1.2115164,1.3212334,0.9886233,0.92748016,0.23587303,0.70197594,0.5609746,0.38121557,-0.23192906,0.111889035,815.5311,794.57874,807.47253,820.7692,677.326,-0.133056640625,0.13201904296875,0.991455078125,0.665435791015625,-1.256103515625,0.665435791015625,1,1.0,1.0,1.0,1.0,20.00
2024-09-29 18:17:05.424,1.1199005,2.3275216,0.5944749,1.1576047,0.791853,1.4105021,0.3512759,0.73061895,1.6870611,2.1081538,1.2115164,1.3212334,0.9886233,0.92748016,0.23587303,0.70197594,0.5609746,0.38121557,-0.23192906,0.111889035,811.50183,796.1905,800.6227,812.71063,863.47986,-0.133056640625,0.13201904296875,0.991455078125,0.665435791015625,-1.256103515625,0.665435791015625,1,1.0,1.0,1.0,1.0,20.00
2024-09-29 18:17:05.425,1.1199005,2.3275216,0.5944749,1.1576047,0.791853,1.4105021,0.3512759,0.73061895,1.6870611,2.1081538,1.2115164,1.3212334,0.9886233,0.92748016,0.23587303,0.70197594,0.5609746,0.38121557,-0.23192906,0.111889035,807.8755,792.96704,799.011,810.293,886.8498,-0.133056640625,0.13201904296875,0.991455078125,0.665435791015625,-1.256103515625,0.665435791015625,1,1.0,1.0,1.0,1.0,20.00
2024-09-29 18:17:05.425,1.1199005,2.3275216,0.5944749,1.1576047,0.791853,1.4105021,0.3512759,0.73061895,1.6870611,2.1081538,1.2115164,1.3212334,0.9886233,0.92748016,0.23587303,0.70197594,0.5609746,0.38121557,-0.23192906,0.111889035,807.47253,791.75824,799.41394,810.696,723.2601,-0.133056640625,0.13201904296875,0.991455078125,0.665435791015625,-1.256103515625,0.665435791015625,1,1.0,1.0,1.0,1.0,20.00
2024-09-29 18:17:05.426,1.1199005,2.3275216,0.5944749,1.1576047,0.791853,1.4105021,0.3512759,0.73061895,1.6870611,2.1081538,1.2115164,1.3212334,0.9886233,0.92748016,0.23587303,0.70197594,0.5609746,0.38121557,-0.23192906,0.111889035,804.2491,796.99634,800.2198,816.7399,721.6484,-0.133056640625,0.13201904296875,0.991455078125,0.665435791015625,-1.256103515625,0.665435791015625,1,1.0,1.0,1.0,1.0,20.00
2024-09-29 18:17:05.426,1.1199005,2.3275216,0.5944749,1.1576047,0.791853,1.4105021,0.3512759,0.73061895,1.6870611,2.1081538,1.2115164,1.3212334,0.9886233,0.92748016,0.23587303,0.70197594,0.5609746,0.38121557,-0.23192906,0.111889035,803.0403,797.3993,802.6374,824.7985,832.4542,-0.133056640625,0.13201904296875,0.991455078125,0.665435791015625,-1.256103515625,0.665435791015625,1,1.0,1.0,1.0,1.0,20.00
2024-09-29 18:17:05.427,1.1199005,2.3275216,0.5944749,1.1576047,0.791853,1.4105021,0.3512759,0.73061895,1.6870611,2.1081538,1.2115164,1.3212334,0.9886233,0.92748016,0.23587303,0.70197594,0.5609746,0.38121557,-0.23192906,0.111889035,811.50183,801.4286,801.4286,825.2015,694.2491,-0.133056640625,0.13201904296875,0.991455078125,0.665435791015625,-1.256103515625,0.665435791015625,1,1.0,1.0,1.0,1.0,20.00
2024-09-29 18:17:05.427,1.1199005,2.3275216,0.5944749,1.1576047,0.791853,1.4105021,0.3512759,0.73061895,1.6870611,2.1081538,1.2115164,1.3212334,0.9886233,0.92748016,0.23587303,0.70197594,0.5609746,0.38121557,-0.23192906,0.111889035,811.50183,803.44324,800.2198,829.2308,620.10986,-0.133056640625,0.13201904296875,0.991455078125,0.665435791015625,-1.256103515625,0.665435791015625,1,1.0,1.0,1.0,1.0,20.00
2024-09-29 18:17:05.454,1.1199005,2.3275216,0.5944749,1.1576047,0.791853,1.4105021,0.3512759,0.73061895,1.6870611,2.1081538,1.2115164,1.3212334,0.9886233,0.92748016,0.23587303,0.70197594,0.5609746,0.38121557,-0.23192906,0.111889035,802.6374,800.2198,801.02563,824.3956,716.8132,-0.13067626953125,0.13323974609375,0.991455078125,0.336456298828125,-1.0467529296875,1.57012939453125,1,1.0,1.0,1.0,1.0,20.00
2024-09-29 18:17:05.455,1.1199005,2.3275216,0.5944749,1.1576047,0.791853,1.4105021,0.3512759,0.73061895,1.6870611,2.1081538,1.2115164,1.3212334,0.9886233,0.92748016,0.23587303,0.70197594,0.5609746,0.38121557,-0.23192906,0.111889035,801.8315,800.2198,799.011,820.7692,791.3553,-0.13067626953125,0.13323974609375,0.991455078125,0.336456298828125,-1.0467529296875,1.57012939453125,1,1.0,1.0,1.0,1.0,20.00
2024-09-29 18:17:05.455,1.1199005,2.3275216,0.5944749,1.1576047,0.791853,1.4105021,0.3512759,0.73061895,1.6870611,2.1081538,1.2115164,1.3212334,0.9886233,0.92748016,0.23587303,0.70197594,0.5609746,0.38121557,-0.23192906,0.111889035,799.81683,800.2198,799.81683,819.5604,633.8095,-0.13067626953125,0.13323974609375,0.991455078125,0.336456298828125,-1.0467529296875,1.57012939453125,1,1.0,1.0,1.0,1.0,20.00
2024-09-29 18:17:05.456,1.1199005,2.3275216,0.5944749,1.1576047,0.791853,1.4105021,0.3512759,0.73061895,1.6870611,2.1081538,1.2115164,1.3212334,0.9886233,0.92748016,0.23587303,0.70197594,0.5609746,0.38121557,-0.23192906,0.111889035,802.6374,798.20514,801.8315,821.5751,635.42126,-0.13067626953125,0.13323974609375,0.991455078125,0.336456298828125,-1.0467529296875,1.57012939453125,1,1.0,1.0,1.0,1.0,20.00
2024-09-29 18:17:05.456,1.1199005,2.3275216,0.5944749,1.1576047,0.791853,1.4105021,0.3512759,0.73061895,1.6870611,2.1081538,1.2115164,1.3212334,0.9886233,0.92748016,0.23587303,0.70197594,0.5609746,0.38121557,-0.23192906,0.111889035,813.5165,800.6227,801.8315,825.6044,804.2491,-0.13067626953125,0.13323974609375,0.991455078125,0.336456298828125,-1.0467529296875,1.57012939453125,1,1.0,1.0,1.0,1.0,20.00
2024-09-29 18:17:05.457,1.1199005,2.3275216,0.5944749,1.1576047,0.791853,1.4105021,0.3512759,0.73061895,1.6870611,2.1081538,1.2115164,1.3212334,0.9886233,0.92748016,0.23587303,0.70197594,0.5609746,0.38121557,-0.23192906,0.111889035,813.5165,801.4286,796.5934,817.1429,830.0366,-0.13067626953125,0.13323974609375,0.991455078125,0.336456298828125,-1.0467529296875,1.57012939453125,1,1.0,1.0,1.0,1.0,20.00
2024-09-29 18:17:05.457,1.1199005,2.3275216,0.5944749,1.1576047,0.791853,1.4105021,0.3512759,0.73061895,1.6870611,2.1081538,1.2115164,1.3212334,0.9886233,0.92748016,0.23587303,0.70197594,0.5609746,0.38121557,-0.23192906,0.111889035,808.2784,796.1905,794.57874,815.12823,718.4249,-0.13067626953125,0.13323974609375,0.991455078125,0.336456298828125,-1.0467529296875,1.57012939453125,1,1.0,1.0,1.0,1.0,20.00
2024-09-29 18:17:05.458,1.1199005,2.3275216,0.5944749,1.1576047,0.791853,1.4105021,0.3512759,0.73061895,1.6870611,2.1081538,1.2115164,1.3212334,0.9886233,0.92748016,0.23587303,0.70197594,0.5609746,0.38121557,-0.23192906,0.111889035,807.0696,793.7729,798.60803,816.337,789.34064,-0.13067626953125,0.13323974609375,0.991455078125,0.336456298828125,-1.0467529296875,1.57012939453125,1,1.0,1.0,1.0,1.0,20.00
2024-09-29 18:17:05.458,1.1199005,2.3275216,0.5944749,1.1576047,0.791853,1.4105021,0.3512759,0.73061895,1.6870611,2.1081538,1.2115164,1.3212334,0.9886233,0.92748016,0.23587303,0.70197594,0.5609746,0.38121557,-0.23192906,0.111889035,801.4286,793.36993,796.99634,821.5751,1000.07324,-0.13067626953125,0.13323974609375,0.991455078125,0.336456298828125,-1.0467529296875,1.57012939453125,1,1.0,1.0,1.0,1.0,20.00
2024-09-29 18:17:05.459,1.1199005,2.3275216,0.5944749,1.1576047,0.791853,1.4105021,0.3512759,0.73061895,1.6870611,2.1081538,1.2115164,1.3212334,0.9886233,0.92748016,0.23587303,0.70197594,0.5609746,0.38121557,-0.23192906,0.111889035,796.1905,794.57874,796.1905,815.12823,905.78754,-0.13067626953125,0.13323974609375,0.991455078125,0.336456298828125,-1.0467529296875,1.57012939453125,1,1.0,1.0,1.0,1.0,20.00
2024-09-29 18:17:05.459,1.1199005,2.3275216,0.5944749,1.1576047,0.791853,1.4105021,0.3512759,0.73061895,1.6870611,2.1081538,1.2115164,1.3212334,0.9886233,0.92748016,0.23587303,0.70197594,0.5609746,0.38121557,-0.23192906,0.111889035,801.4286,795.38464,796.99634,806.26373,668.86444,-0.13067626953125,0.13323974609375,0.991455078125,0.336456298828125,-1.0467529296875,1.57012939453125,1,1.0,1.0,1.0,1.0,20.00
2024-09-29 18:17:05.460,1.1199005,2.3275282,0.59597456,1.1576047,0.791853,1.4106075,0.34997964,0.73061895,1.6870611,2.1081538,1.2115164,1.3212334,0.9886233,0.9274527,0.22856054,0.70197594,0.5609746,0.38541013,-0.228365,0.111889035,809.0842,791.3553,796.1905,817.5458,730.10986,-0.13067626953125,0.13323974609375,0.991455078125,0.336456298828125,-1.0467529296875,1.57012939453125,1,1.0,1.0,1.0,1.0,20.00
2024-09-29 18:17:05.464,1.1199005,2.3275282,0.59597456,1.1576047,0.791853,1.4106075,0.34997964,0.73061895,1.6870611,2.1081538,1.2115164,1.3212334,0.9886233,0.9274527,0.22856054,0.70197594,0.5609746,0.38541013,-0.228365,0.111889035,807.8755,792.96704,801.4286,830.84247,957.76556,-0.13494873046875,0.130859375,0.99822998046875,-0.216827392578125,-0.58319091796875,1.86920166015625,1,1.0,1.0,1.0,1.0,20.00
2024-09-29 18:17:05.465,1.1199005,2.3275282,0.59597456,1.1576047,0.791853,1.4106075,0.34997964,0.73061895,1.6870611,2.1081538,1.2115164,1.3212334,0.9886233,0.9274527,0.22856054,0.70197594,0.5609746,0.38541013,-0.228365,0.111889035,801.4286,797.3993,806.6667,827.619,823.1868,-0.13494873046875,0.130859375,0.99822998046875,-0.216827392578125,-0.58319091796875,1.86920166015625,1,1.0,1.0,1.0,1.0,20.00
2024-09-29 18:17:05.465,1.1199005,2.3275282,0.59597456,1.1576047,0.791853,1.4106075,0.34997964,0.73061895,1.6870611,2.1081538,1.2115164,1.3212334,0.9886233,0.9274527,0.22856054,0.70197594,0.5609746,0.38541013,-0.228365,0.111889035,802.23444,795.38464,800.6227,821.5751,655.9707,-0.13494873046875,0.130859375,0.99822998046875,-0.216827392578125,-0.58319091796875,1.86920166015625,1,1.0,1.0,1.0,1.0,20.00
2024-09-29 18:17:05.466,1.1199005,2.3275282,0.59597456,1.1576047,0.791853,1.4106075,0.34997964,0.73061895,1.6870611,2.1081538,1.2115164,1.3212334,0.9886233,0.9274527,0.22856054,0.70197594,0.5609746,0.38541013,-0.228365,0.111889035,801.8315,794.57874,799.81683,827.619,744.61536,-0.13494873046875,0.130859375,0.99822998046875,-0.216827392578125,-0.58319091796875,1.86920166015625,1,1.0,1.0,1.0,1.0,20.00
2024-09-29 18:17:05.466,1.1199005,2.3275282,0.59597456,1.1576047,0.791853,1.4106075,0.34997964,0.73061895,1.6870611,2.1081538,1.2115164,1.3212334,0.9886233,0.9274527,0.22856054,0.70197594,0.5609746,0.38541013,-0.228365,0.111889035,794.9817,794.9817,803.44324,832.0513,950.9158,-0.13494873046875,0.130859375,0.99822998046875,-0.216827392578125,-0.58319091796875,1.86920166015625,1,1.0,1.0,1.0,1.0,20.00
2024-09-29 18:17:05.467,1.1199005,2.3275282,0.59597456,1.1576047,0.791853,1.4106075,0.34997964,0.73061895,1.6870611,2.1081538,1.2115164,1.3212334,0.9886233,0.9274527,0.22856054,0.70197594,0.5609746,0.38541013,-0.228365,0.111889035,797.8022,790.14655,802.23444,826.0073,942.0513,-0.13494873046875,0.130859375,0.99822998046875,-0.216827392578125,-0.58319091796875,1.86920166015625,1,1.0,1.0,1.0,1.0,20.00
2024-09-29 18:17:05.467,1.1199005,2.3275282,0.59597456,1.1576047,0.791853,1.4106075,0.34997964,0.73061895,1.6870611,2.1081538,1.2115164,1.3212334,0.9886233,0.9274527,0.22856054,0.70197594,0.5609746,0.38541013,-0.228365,0.111889035,805.8608,791.3553,801.4286,821.978,712.381,-0.13494873046875,0.130859375,0.99822998046875,-0.216827392578125,-0.58319091796875,1.86920166015625,1,1.0,1.0,1.0,1.0,20.00
2024-09-29 18:17:05.468,1.1199005,2.3275282,0.59597456,1.1576047,0.791853,1.4106075,0.34997964,0.73061895,1.6870611,2.1081538,1.2115164,1.3212334,0.9886233,0.9274527,0.22856054,0.70197594,0.5609746,0.38541013,-0.228365,0.111889035,805.4579,791.75824,798.60803,823.1868,770.80585,-0.13494873046875,0.130859375,0.99822998046875,-0.216827392578125,-0.58319091796875,1.86920166015625,1,1.0,1.0,1.0,1.0,20.00
2024-09-29 18:17:05.469,1.1199005,2.3275282,0.59597456,1.1576047,0.791853,1.4106075,0.34997964,0.73061895,1.6870611,2.1081538,1.2115164,1.3212334,0.9886233,0.9274527,0.22856054,0.70197594,0.5609746,0.38541013,-0.228365,0.111889035,806.26373,790.54944,800.6227,832.0513,1030.6959,-0.13494873046875,0.130859375,0.99822998046875,-0.216827392578125,-0.58319091796875,1.86920166015625,1,1.0,1.0,1.0,1.0,20.00
2024-09-29 18:17:05.469,1.1199005,2.3275282,0.59597456,1.1576047,0.791853,1.4106075,0.34997964,0.73061895,1.6870611,2.1081538,1.2115164,1.3212334,0.9886233,0.9274527,0.22856054,0.70197594,0.5609746,0.38541013,-0.228365,0.111889035,805.8608,796.99634,805.4579,833.663,871.13556,-0.13494873046875,0.130859375,0.99822998046875,-0.216827392578125,-0.58319091796875,1.86920166015625,1,1.0,1.0,1.0,1.0,20.00
2024-09-29 18:17:05.470,1.1199005,2.3275282,0.59597456,1.1576047,0.791853,1.4106075,0.34997964,0.73061895,1.6870611,2.1081538,1.2115164,1.3212334,0.9886233,0.9274527,0.22856054,0.70197594,0.5609746,0.38541013,-0.228365,0.111889035,805.05493,798.60803,804.65204,831.6484,678.1319,-0.13494873046875,0.130859375,0.99822998046875,-0.216827392578125,-0.58319091796875,1.86920166015625,1,1.0,1.0,1.0,1.0,20.00
2024-09-29 18:17:05.470,1.1199005,2.3275282,0.59597456,1.1576047,0.791853,1.4106075,0.34997964,0.73061895,1.6870611,2.1081538,1.2115164,1.3212334,0.9886233,0.9274527,0.22856054,0.70197594,0.5609746,0.38541013,-0.228365,0.111889035,806.26373,797.8022,804.2491,835.6777,705.12823,-0.13494873046875,0.130859375,0.99822998046875,-0.216827392578125,-0.58319091796875,1.86920166015625,1,1.0,1.0,1.0,1.0,20.00
2024-09-29 18:17:05.471,1.1199005,2.3275282,0.59597456,1.1576047,0.791853,1.4106075,0.34997964,0.73061895,1.6870611,2.1081538,1.2115164,1.3212334,0.9886233,0.9274527,0.22856054,0.70197594,0.5609746,0.38541013,-0.228365,0.111889035,803.8461,797.3993,801.8315,838.9011,913.8461,-0.13494873046875,0.130859375,0.99822998046875,-0.216827392578125,-0.58319091796875,1.86920166015625,1,1.0,1.0,1.0,1.0,20.00
2024-09-29 18:17:05.471,1.1199005,2.3275282,0.59597456,1.1576047,0.791853,1.4106075,0.34997964,0.73061895,1.6870611,2.1081538,1.2115164,1.3212334,0.9886233,0.9274527,0.22856054,0.70197594,0.5609746,0.38541013,-0.228365,0.111889035,802.23444,795.78754,802.23444,830.84247,931.5751,-0.13494873046875,0.130859375,0.99822998046875,-0.216827392578125,-0.58319091796875,1.86920166015625,1,1.0,1.0,1.0,1.0,20.00
2024-09-29 18:17:05.472,1.1199005,2.3275282,0.59597456,1.1576047,0.791853,1.4106075,0.34997964,0.73061895,1.6870611,2.1081538,1.2115164,1.3212334,0.9886233,0.9274527,0.22856054,0.70197594,0.5609746,0.38541013,-0.228365,0.111889035,800.6227,794.9817,802.23444,815.12823,771.2088,-0.13494873046875,0.130859375,0.99822998046875,-0.216827392578125,-0.58319091796875,1.86920166015625,1,1.0,1.0,1.0,1.0,20.00
2024-09-29 18:17:05.472,1.1199005,2.3275282,0.59597456,1.1576047,0.791853,1.4106075,0.34997964,0.73061895,1.6870611,2.1081538,1.2115164,1.3212334,0.9886233,0.9274527,0.22856054,0.70197594,0.5609746,0.38541013,-0.228365,0.111889035,800.2198,795.38464,799.011,811.50183,819.5604,-0.13494873046875,0.130859375,0.99822998046875,-0.216827392578125,-0.58319091796875,1.86920166015625,1,1.0,1.0,1.0,1.0,20.00
2024-09-29 18:17:05.473,1.1199005,2.3275282,0.59597456,1.1576047,0.791853,1.4106075,0.34997964,0.73061895,1.6870611,2.1081538,1.2115164,1.3212334,0.9886233,0.9274527,0.22856054,0.70197594,0.5609746,0.38541013,-0.228365,0.111889035,807.0696,794.57874,801.4286,822.381,897.72894,-0.13494873046875,0.130859375,0.99822998046875,-0.216827392578125,-0.58319091796875,1.86920166015625,1,1.0,1.0,1.0,1.0,20.00
2024-09-29 18:17:05.473,1.1199005,2.3275282,0.59597456,1.1576047,0.791853,1.4106075,0.34997964,0.73061895,1.6870611,2.1081538,1.2115164,1.3212334,0.9886233,0.9274527,0.22856054,0.70197594,0.5609746,0.38541013,-0.228365,0.111889035,809.0842,794.9817,804.65204,825.2015,911.8315,-0.13494873046875,0.130859375,0.99822998046875,-0.216827392578125,-0.58319091796875,1.86920166015625,1,1.0,1.0,1.0,1.0,20.00
2024-09-29 18:17:05.474,1.1199005,2.3275282,0.59597456,1.1576047,0.791853,1.4106075,0.34997964,0.73061895,1.6870611,2.1081538,1.2115164,1.3212334,0.9886233,0.9274527,0.22856054,0.70197594,0.5609746,0.38541013,-0.228365,0.111889035,804.2491,796.99634,803.44324,809.4872,909.41394,-0.13494873046875,0.130859375,0.99822998046875,-0.216827392578125,-0.58319091796875,1.86920166015625,1,1.0,1.0,1.0,1.0,20.00
2024-09-29 18:17:05.474,1.1199005,2.3275282,0.59597456,1.1576047,0.791853,1.4106075,0.34997964,0.73061895,1.6870611,2.1081538,1.2115164,1.3212334,0.9886233,0.9274527,0.22856054,0.70197594,0.5609746,0.38541013,-0.228365,0.111889035,813.5165,798.60803,801.4286,806.6667,853.8095,-0.13494873046875,0.130859375,0.99822998046875,-0.216827392578125,-0.58319091796875,1.86920166015625,1,1.0,1.0,1.0,1.0,20.00
2024-09-29 18:17:05.475,1.1199005,2.3275282,0.59597456,1.1576047,0.791853,1.4106075,0.34997964,0.73061895,1.6870611,2.1081538,1.2115164,1.3212334,0.9886233,0.9274527,0.22856054,0.70197594,0.5609746,0.38541013,-0.228365,0.111889035,820.7692,799.41394,807.47253,828.022,1139.4872,-0.13494873046875,0.130859375,0.99822998046875,-0.216827392578125,-0.58319091796875,1.86920166015625,1,1.0,1.0,1.0,1.0,20.00
2024-09-29 18:17:05.475,1.1199005,2.3275282,0.59597456,1.1576047,0.791853,1.4106075,0.34997964,0.73061895,1.6870611,2.1081538,1.2115164,1.3212334,0.9886233,0.9274527,0.22856054,0.70197594,0.5609746,0.38541013,-0.228365,0.111889035,810.696,798.60803,811.0989,835.2747,1326.8499,-0.13494873046875,0.130859375,0.99822998046875,-0.216827392578125,-0.58319091796875,1.86920166015625,1,1.0,1.0,1.0,1.0,20.00
2024-09-29 18:17:05.476,1.1199005,2.3275282,0.59597456,1.1576047,0.791853,1.4106075,0.34997964,0.73061895,1.6870611,2.1081538,1.2115164,1.3212334,0.9886233,0.9274527,0.22856054,0.70197594,0.5609746,0.38541013,-0.228365,0.111889035,802.6374,799.41394,807.0696,829.2308,1219.2675,-0.13494873046875,0.130859375,0.99822998046875,-0.216827392578125,-0.58319091796875,1.86920166015625,1,1.0,1.0,1.0,1.0,20.00
2024-09-29 18:17:05.476,1.1199005,2.3275282,0.59597456,1.1576047,0.791853,1.4106075,0.34997964,0.73061895,1.6870611,2.1081538,1.2115164,1.3212334,0.9886233,0.9274527,0.22856054,0.70197594,0.5609746,0.38541013,-0.228365,0.111889035,801.4286,800.6227,805.4579,824.3956,1059.7069,-0.13494873046875,0.130859375,0.99822998046875,-0.216827392578125,-0.58319091796875,1.86920166015625,1,1.0,1.0,1.0,1.0,20.00
2024-09-29 18:17:05.564,1.1199005,2.3275282,0.59597456,1.1576047,0.791853,1.4106075,0.34997964,0.73061895,1.6870611,2.1081538,1.2115164,1.3212334,0.9886233,0.9274527,0.22856054,0.70197594,0.5609746,0.38541013,-0.228365,0.111889035,798.20514,797.8022,805.05493,822.7839,833.2601,-0.1414794921875,0.1260986328125,0.99334716796875,-0.022430419921875,-0.777587890625,1.0467529296875,1,1.0,1.0,1.0,1.0,20.00
2024-09-29 18:17:05.565,1.1199005,2.3275301,0.59737223,1.1576047,0.791853,1.4108577,0.3467649,0.73061895,1.6870611,2.1081538,1.2115164,1.3212334,0.9886233,0.928085,0.22558972,0.70197594,0.5609746,0.388996,-0.22885294,0.111889035,799.011,794.9817,805.05493,823.5897,761.53845,-0.1414794921875,0.1260986328125,0.99334716796875,-0.022430419921875,-0.777587890625,1.0467529296875,1,1.0,1.0,1.0,1.0,20.00
2024-09-29 18:17:05.569,1.1199005,2.3275301,0.59737223,1.1576047,0.791853,1.4108577,0.3467649,0.73061895,1.6870611,2.1081538,1.2115164,1.3212334,0.9886233,0.928085,0.22558972,0.70197594,0.5609746,0.388996,-0.22885294,0.111889035,801.02563,790.9524,800.2198,818.7546,830.0366,-0.1414794921875,0.1260986328125,0.99334716796875,-0.022430419921875,-0.777587890625,1.0467529296875,1,1.0,1.0,1.0,1.0,20.00
2024-09-29 18:17:05.569,1.1199005,2.3275301,0.59737223,1.1576047,0.791853,1.4108577,0.3467649,0.73061895,1.6870611,2.1081538,1.2115164,1.3212334,0.9886233,0.928085,0.22558972,0.70197594,0.5609746,0.388996,-0.22885294,0.111889035,797.8022,793.36993,797.3993,813.91943,1077.8389,-0.1414794921875,0.1260986328125,0.99334716796875,-0.022430419921875,-0.777587890625,1.0467529296875,1,1.0,1.0,1.0,1.0,20.00
2024-09-29 18:17:05.570,1.1199005,2.3275301,0.59737223,1.1576047,0.791853,1.4108577,0.3467649,0.73061895,1.6870611,2.1081538,1.2115164,1.3212334,0.9886233,0.928085,0.22558972,0.70197594,0.5609746,0.388996,-0.22885294,0.111889035,799.011,797.8022,799.011,811.50183,1248.6813,-0.1414794921875,0.1260986328125,0.99334716796875,-0.022430419921875,-0.777587890625,1.0467529296875,1,1.0,1.0,1.0,1.0,20.00
2024-09-29 18:17:05.570,1.1199005,2.3275301,0.59737223,1.1576047,0.791853,1.4108577,0.3467649,0.73061895,1.6870611,2.1081538,1.2115164,1.3212334,0.9886233,0.928085,0.22558972,0.70197594,0.5609746,0.388996,-0.22885294,0.111889035,798.60803,794.57874,802.23444,815.5311,1361.5018,-0.1414794921875,0.1260986328125,0.99334716796875,-0.022430419921875,-0.777587890625,1.0467529296875,1,1.0,1.0,1.0,1.0,20.00
2024-09-29 18:17:05.571,1.1199005,2.3275301,0.59737223,1.1576047,0.791853,1.4108577,0.3467649,0.73061895,1.6870611,2.1081538,1.2115164,1.3212334,0.9886233,0.928085,0.22558972,0.70197594,0.5609746,0.388996,-0.22885294,0.111889035,799.81683,798.60803,803.44324,817.9487,1423.956,-0.1414794921875,0.1260986328125,0.99334716796875,-0.022430419921875,-0.777587890625,1.0467529296875,1,1.0,1.0,1.0,1.0,20.00
2024-09-29 18:17:05.571,1.1199005,2.3275301,0.59737223,1.1576047,0.791853,1.4108577,0.3467649,0.73061895,1.6870611,2.1081538,1.2115164,1.3212334,0.9886233,0.928085,0.22558972,0.70197594,0.5609746,0.388996,-0.22885294,0.111889035,799.011,798.60803,805.4579,813.91943,1102.8206,-0.1414794921875,0.1260986328125,0.99334716796875,-0.022430419921875,-0.777587890625,1.0467529296875,1,1.0,1.0,1.0,1.0,20.00
2024-09-29 18:17:05.572,1.1199005,2.3275301,0.59737223,1.1576047,0.791853,1.4108577,0.3467649,0.73061895,1.6870611,2.1081538,1.2115164,1.3212334,0.9886233,0.928085,0.22558972,0.70197594,0.5609746,0.388996,-0.22885294,0.111889035,790.54944,793.7729,807.47253,811.9048,758.71796,-0.1414794921875,0.1260986328125,0.99334716796875,-0.022430419921875,-0.777587890625,1.0467529296875,1,1.0,1.0,1.0,1.0,20.00
2024-09-29 18:17:05.572,1.1199005,2.3275301,0.59737223,1.1576047,0.791853,1.4108577,0.3467649,0.73061895,1.6870611,2.1081538,1.2115164,1.3212334,0.9886233,0.928085,0.22558972,0.70197594,0.5609746,0.388996,-0.22885294,0.111889035,784.5055,793.36993,803.8461,814.3223,674.5055,-0.1414794921875,0.1260986328125,0.99334716796875,-0.022430419921875,-0.777587890625,1.0467529296875,1,1.0,1.0,1.0,1.0,20.00
2024-09-29 18:17:05.573,1.1199005,2.3275301,0.59737223,1.1576047,0.791853,1.4108577,0.3467649,0.73061895,1.6870611,2.1081538,1.2115164,1.3212334,0.9886233,0.928085,0.22558972,0.70197594,0.5609746,0.388996,-0.22885294,0.111889035,788.93774,794.9817,799.011,812.3077,779.67035,-0.1414794921875,0.1260986328125,0.99334716796875,-0.022430419921875,-0.777587890625,1.0467529296875,1,1.0,1.0,1.0,1.0,20.00
2024-09-29 18:17:05.573,1.1199005,2.3275301,0.59737223,1.1576047,0.791853,1.4108577,0.3467649,0.73061895,1.6870611,2.1081538,1.2115164,1.3212334,0.9886233,0.928085,0.22558972,0.70197594,0.5609746,0.388996,-0.22885294,0.111889035,802.23444,797.3993,798.20514,827.2161,1023.44324,-0.1414794921875,0.1260986328125,0.99334716796875,-0.022430419921875,-0.777587890625,1.0467529296875,1,1.0,1.0,1.0,1.0,20.00
2024-09-29 18:17:05.599,1.1199005,2.3275301,0.59737223,1.1576047,0.791853,1.4108577,0.3467649,0.73061895,1.6870611,2.1081538,1.2115164,1.3212334,0.9886233,0.928085,0.22558972,0.70197594,0.5609746,0.388996,-0.22885294,0.111889035,810.696,799.81683,805.4579,837.6923,1086.3004,-0.138671875,0.12548828125,0.99017333984375,0.299072265625,-1.158905029296875,-0.157012939453125,1,1.0,1.0,1.0,1.0,20.00
2024-09-29 18:17:05.600,1.1199005,2.3275301,0.59737223,1.1576047,0.791853,1.4108577,0.3467649,0.73061895,1.6870611,2.1081538,1.2115164,1.3212334,0.9886233,0.928085,0.22558972,0.70197594,0.5609746,0.388996,-0.22885294,0.111889035,813.5165,801.02563,808.68134,821.5751,863.47986,-0.138671875,0.12548828125,0.99017333984375,0.299072265625,-1.158905029296875,-0.157012939453125,1,1.0,1.0,1.0,1.0,20.00
2024-09-29 18:17:05.600,1.1199005,2.3275301,0.59737223,1.1576047,0.791853,1.4108577,0.3467649,0.73061895,1.6870611,2.1081538,1.2115164,1.3212334,0.9886233,0.928085,0.22558972,0.70197594,0.5609746,0.388996,-0.22885294,0.111889035,807.47253,801.8315,804.65204,813.5165,674.10254,-0.138671875,0.12548828125,0.99017333984375,0.299072265625,-1.158905029296875,-0.157012939453125,1,1.0,1.0,1.0,1.0,20.00
2024-09-29 18:17:05.601,1.1199005,2.3275301,0.59737223,1.1576047,0.791853,1.4108577,0.3467649,0.73061895,1.6870611,2.1081538,1.2115164,1.3212334,0.9886233,0.928085,0.22558972,0.70197594,0.5609746,0.388996,-0.22885294,0.111889035,806.6667,799.81683,801.4286,813.5165,643.8828,-0.138671875,0.12548828125,0.99017333984375,0.299072265625,-1.158905029296875,-0.157012939453125,1,1.0,1.0,1.0,1.0,20.00
2024-09-29 18:17:05.601,1.1199005,2.3275301,0.59737223,1.1576047,0.791853,1.4108577,0.3467649,0.73061895,1.6870611,2.1081538,1.2115164,1.3212334,0.9886233,0.928085,0.22558972,0.70197594,0.5609746,0.388996,-0.22885294,0.111889035,814.7253,795.38464,809.89014,817.1429,498.4249,-0.138671875,0.12548828125,0.99017333984375,0.299072265625,-1.158905029296875,-0.157012939453125,1,1.0,1.0,1.0,1.0,20.00
2024-09-29 18:17:05.602,1.1199005,2.3275301,0.59737223,1.1576047,0.791853,1.4108577,0.3467649,0.73061895,1.6870611,2.1081538,1.2115164,1.3212334,0.9886233,0.928085,0.22558972,0.70197594,0.5609746,0.388996,-0.22885294,0.111889035,824.3956,803.8461,810.293,821.978,484.72528,-0.138671875,0.12548828125,0.99017333984375,0.299072265625,-1.158905029296875,-0.157012939453125,1,1.0,1.0,1.0,1.0,20.00
2024-09-29 18:17:05.602,1.1199005,2.3275301,0.59737223,1.1576047,0.791853,1.4108577,0.3467649,0.73061895,1.6870611,2.1081538,1.2115164,1.3212334,0.9886233,0.928085,0.22558972,0.70197594,0.5609746,0.388996,-0.22885294,0.111889035,815.5311,809.89014,797.8022,813.1135,842.52747,-0.138671875,0.12548828125,0.99017333984375,0.299072265625,-1.158905029296875,-0.157012939453125,1,1.0,1.0,1.0,1.0,20.00
2024-09-29 18:17:05.603,1.1199005,2.3275301,0.59737223,1.1576047,0.791853,1.4108577,0.3467649,0.73061895,1.6870611,2.1081538,1.2115164,1.3212334,0.9886233,0.928085,0.22558972,0.70197594,0.5609746,0.388996,-0.22885294,0.111889035,809.0842,805.8608,797.3993,808.68134,1014.9817,-0.138671875,0.12548828125,0.99017333984375,0.299072265625,-1.158905029296875,-0.157012939453125,1,1.0,1.0,1.0,1.0,20.00
2024-09-29 18:17:05.603,1.1199005,2.3275301,0.59737223,1.1576047,0.791853,1.4108577,0.3467649,0.73061895,1.6870611,2.1081538,1.2115164,1.3212334,0.9886233,0.928085,0.22558972,0.70197594,0.5609746,0.388996,-0.22885294,0.111889035,820.3663,806.6667,796.1905,811.9048,757.1062,-0.138671875,0.12548828125,0.99017333984375,0.299072265625,-1.158905029296875,-0.157012939453125,1,1.0,1.0,1.0,1.0,20.00
2024-09-29 18:17:05.604,1.1199005,2.3275301,0.59737223,1.1576047,0.791853,1.4108577,0.3467649,0.73061895,1.6870611,2.1081538,1.2115164,1.3212334,0.9886233,0.928085,0.22558972,0.70197594,0.5609746,0.388996,-0.22885294,0.111889035,819.9634,809.0842,799.011,813.91943,503.26007,-0.138671875,0.12548828125,0.99017333984375,0.299072265625,-1.158905029296875,-0.157012939453125,1,1.0,1.0,1.0,1.0,20.00
2024-09-29 18:17:05.604,1.1199005,2.3275301,0.59737223,1.1576047,0.791853,1.4108577,0.3467649,0.73061895,1.6870611,2.1081538,1.2115164,1.3212334,0.9886233,0.928085,0.22558972,0.70197594,0.5609746,0.388996,-0.22885294,0.111889035,817.9487,808.2784,798.20514,820.7692,774.43225,-0.138671875,0.12548828125,0.99017333984375,0.299072265625,-1.158905029296875,-0.157012939453125,1,1.0,1.0,1.0,1.0,20.00
2024-09-29 18:17:05.605,1.1199005,2.3275301,0.59737223,1.1576047,0.791853,1.4108577,0.3467649,0.73061895,1.6870611,2.1081538,1.2115164,1.3212334,0.9886233,0.928085,0.22558972,0.70197594,0.5609746,0.388996,-0.22885294,0.111889035,816.337,806.6667,789.34064,830.0366,1170.5128,-0.138671875,0.12548828125,0.99017333984375,0.299072265625,-1.158905029296875,-0.157012939453125,1,1.0,1.0,1.0,1.0,20.00
2024-09-29 18:17:05.606,1.1199005,2.3275301,0.59737223,1.1576047,0.791853,1.4108577,0.3467649,0.73061895,1.6870611,2.1081538,1.2115164,1.3212334,0.9886233,0.928085,0.22558972,0.70197594,0.5609746,0.388996,-0.22885294,0.111889035,813.1135,811.9048,785.7143,817.9487,726.8865,-0.13525390625,0.129638671875,0.9901123046875,0.2392578125,-1.532745361328125,0.0897216796875,1,1.0,1.0,1.0,1.0,20.00
2024-09-29 18:17:05.606,1.1199005,2.3275301,0.59737223,1.1576047,0.791853,1.4108577,0.3467649,0.73061895,1.6870611,2.1081538,1.2115164,1.3212334,0.9886233,0.928085,0.22558972,0.70197594,0.5609746,0.388996,-0.22885294,0.111889035,823.5897,813.91943,788.1319,814.7253,480.29303,-0.13525390625,0.129638671875,0.9901123046875,0.2392578125,-1.532745361328125,0.0897216796875,1,1.0,1.0,1.0,1.0,20.00
2024-09-29 18:17:05.607,1.1199005,2.3275301,0.59737223,1.1576047,0.791853,1.4108577,0.3467649,0.73061895,1.6870611,2.1081538,1.2115164,1.3212334,0.9886233,0.928085,0.22558972,0.70197594,0.5609746,0.388996,-0.22885294,0.111889035,834.87177,806.26373,787.326,827.2161,713.1868,-0.13525390625,0.129638671875,0.9901123046875,0.2392578125,-1.532745361328125,0.0897216796875,1,1.0,1.0,1.0,1.0,20.00
2024-09-29 18:17:05.607,1.1199005,2.3274965,0.5998631,1.1576047,0.791853,1.4110892,0.34595525,0.73061895,1.6870611,2.1081538,1.2115164,1.3212334,0.9886233,0.9291112,0.2246077,0.70197594,0.5609746,0.39202094,-0.23263662,0.111889035,841.31866,807.0696,785.7143,835.6777,721.2454,-0.13525390625,0.129638671875,0.9901123046875,0.2392578125,-1.532745361328125,0.0897216796875,1,1.0,1.0,1.0,1.0,20.00
2024-09-29 18:17:05.611,1.1199005,2.3274965,0.5998631,1.1576047,0.791853,1.4110892,0.34595525,0.73061895,1.6870611,2.1081538,1.2115164,1.3212334,0.9886233,0.9291112,0.2246077,0.70197594,0.5609746,0.39202094,-0.23263662,0.111889035,836.8865,809.89014,786.52014,835.6777,631.79486,-0.13525390625,0.129638671875,0.9901123046875,0.2392578125,-1.532745361328125,0.0897216796875,1,1.0,1.0,1.0,1.0,20.00
2024-09-29 18:17:05.612,1.1199005,2.3274965,0.5998631,1.1576047,0.791853,1.4110892,0.34595525,0.73061895,1.6870611,2.1081538,1.2115164,1.3212334,0.9886233,0.9291112,0.2246077,0.70197594,0.5609746,0.39202094,-0.23263662,0.111889035,832.0513,804.65204,786.1172,823.5897,640.65936,-0.13525390625,0.129638671875,0.9901123046875,0.2392578125,-1.532745361328125,0.0897216796875,1,1.0,1.0,1.0,1.0,20.00
2024-09-29 18:17:05.612,1.1199005,2.3274965,0.5998631,1.1576047,0.791853,1.4110892,0.34595525,0.73061895,1.6870611,2.1081538,1.2115164,1.3212334,0.9886233,0.9291112,0.2246077,0.70197594,0.5609746,0.39202094,-0.23263662,0.111889035,837.28937,806.26373,788.1319,829.2308,985.9707,-0.13525390625,0.129638671875,0.9901123046875,0.2392578125,-1.532745361328125,0.0897216796875,1,1.0,1.0,1.0,1.0,20.00
2024-09-29 18:17:05.613,1.1199005,2.3274965,0.5998631,1.1576047,0.791853,1.4110892,0.34595525,0.73061895,1.6870611,2.1081538,1.2115164,1.3212334,0.9886233,0.9291112,0.2246077,0.70197594,0.5609746,0.39202094,-0.23263662,0.111889035,842.9304,809.89014,791.3553,833.2601,1076.227,-0.13525390625,0.129638671875,0.9901123046875,0.2392578125,-1.532745361328125,0.0897216796875,1,1.0,1.0,1.0,1.0,20.00
2024-09-29 18:17:05.613,1.1199005,2.3274965,0.5998631,1.1576047,0.791853,1.4110892,0.34595525,0.73061895,1.6870611,2.1081538,1.2115164,1.3212334,0.9886233,0.9291112,0.2246077,0.70197594,0.5609746,0.39202094,-0.23263662,0.111889035,840.5128,807.0696,795.78754,828.022,747.8388,-0.13525390625,0.129638671875,0.9901123046875,0.2392578125,-1.532745361328125,0.0897216796875,1,1.0,1.0,1.0,1.0,20.00
2024-09-29 18:17:05.614,1.1199005,2.3274965,0.5998631,1.1576047,0.791853,1.4110892,0.34595525,0.73061895,1.6870611,2.1081538,1.2115164,1.3212334,0.9886233,0.9291112,0.2246077,0.70197594,0.5609746,0.39202094,-0.23263662,0.111889035,832.8571,811.9048,791.75824,833.2601,566.1172,-0.13525390625,0.129638671875,0.9901123046875,0.2392578125,-1.532745361328125,0.0897216796875,1,1.0,1.0,1.0,1.0,20.00
2024-09-29 18:17:05.614,1.1199005,2.3274965,0.5998631,1.1576047,0.791853,1.4110892,0.34595525,0.73061895,1.6870611,2.1081538,1.2115164,1.3212334,0.9886233,0.9291112,0.2246077,0.70197594,0.5609746,0.39202094,-0.23263662,0.111889035,822.7839,806.6667,787.72894,830.4396,522.1978,-0.13525390625,0.129638671875,0.9901123046875,0.2392578125,-1.532745361328125,0.0897216796875,1,1.0,1.0,1.0,1.0,20.00
2024-09-29 18:17:05.615,1.1199005,2.3274965,0.5998631,1.1576047,0.791853,1.4110892,0.34595525,0.73061895,1.6870611,2.1081538,1.2115164,1.3212334,0.9886233,0.9291112,0.2246077,0.70197594,0.5609746,0.39202094,-0.23263662,0.111889035,818.3516,796.99634,792.96704,830.0366,627.3626,-0.13525390625,0.129638671875,0.9901123046875,0.2392578125,-1.532745361328125,0.0897216796875,1,1.0,1.0,1.0,1.0,20.00
2024-09-29 18:17:05.616,1.1199005,2.3274965,0.5998631,1.1576047,0.791853,1.4110892,0.34595525,0.73061895,1.6870611,2.1081538,1.2115164,1.3212334,0.9886233,0.9291112,0.2246077,0.70197594,0.5609746,0.39202094,-0.23263662,0.111889035,823.1868,802.23444,793.36993,829.6337,739.7802,-0.143310546875,0.1263427734375,0.990478515625,-0.10467529296875,-0.964508056640625,-0.306549072265625,1,1.0,1.0,1.0,1.0,20.00
2024-09-29 18:17:05.616,1.1199005,2.3274965,0.5998631,1.1576047,0.791853,1.4110892,0.34595525,0.73061895,1.6870611,2.1081538,1.2115164,1.3212334,0.9886233,0.9291112,0.2246077,0.70197594,0.5609746,0.39202094,-0.23263662,0.111889035,822.381,803.44324,791.3553,820.3663,842.1245,-0.143310546875,0.1263427734375,0.990478515625,-0.10467529296875,-0.964508056640625,-0.306549072265625,1,1.0,1.0,1.0,1.0,20.00
2024-09-29 18:17:05.617,1.1199005,2.3274965,0.5998631,1.1576047,0.791853,1.4110892,0.34595525,0.73061895,1.6870611,2.1081538,1.2115164,1.3212334,0.9886233,0.9291112,0.2246077,0.70197594,0.5609746,0.39202094,-0.23263662,0.111889035,822.7839,801.02563,788.5348,819.9634,856.2271,-0.143310546875,0.1263427734375,0.990478515625,-0.10467529296875,-0.964508056640625,-0.306549072265625,1,1.0,1.0,1.0,1.0,20.00
2024-09-29 18:17:05.617,1.1199005,2.3274965,0.5998631,1.1576047,0.791853,1.4110892,0.34595525,0.73061895,1.6870611,2.1081538,1.2115164,1.3212334,0.9886233,0.9291112,0.2246077,0.70197594,0.5609746,0.39202094,-0.23263662,0.111889035,829.6337,803.8461,793.7729,825.2015,728.0952,-0.143310546875,0.1263427734375,0.990478515625,-0.10467529296875,-0.964508056640625,-0.306549072265625,1,1.0,1.0,1.0,1.0,20.00
2024-09-29 18:17:05.618,1.1199005,2.3274965,0.5998631,1.1576047,0.791853,1.4110892,0.34595525,0.73061895,1.6870611,2.1081538,1.2115164,1.3212334,0.9886233,0.9291112,0.2246077,0.70197594,0.5609746,0.39202094,-0.23263662,0.111889035,826.8132,802.6374,797.3993,828.022,757.1062,-0.143310546875,0.1263427734375,0.990478515625,-0.10467529296875,-0.964508056640625,-0.306549072265625,1,1.0,1.0,1.0,1.0,20.00
2024-09-29 18:17:05.618,1.1199005,2.3274965,0.5998631,1.1576047,0.791853,1.4110892,0.34595525,0.73061895,1.6870611,2.1081538,1.2115164,1.3212334,0.9886233,0.9291112,0.2246077,0.70197594,0.5609746,0.39202094,-0.23263662,0.111889035,831.2454,800.6227,795.78754,832.4542,1021.02563,-0.143310546875,0.1263427734375,0.990478515625,-0.10467529296875,-0.964508056640625,-0.306549072265625,1,1.0,1.0,1.0,1.0,20.00
2024-09-29 18:17:05.619,1.1199005,2.3274965,0.5998631,1.1576047,0.791853,1.4110892,0.34595525,0.73061895,1.6870611,2.1081538,1.2115164,1.3212334,0.9886233,0.9291112,0.2246077,0.70197594,0.5609746,0.39202094,-0.23263662,0.111889035,834.87177,798.20514,797.3993,827.2161,967.8388,-0.143310546875,0.1263427734375,0.990478515625,-0.10467529296875,-0.964508056640625,-0.306549072265625,1,1.0,1.0,1.0,1.0,20.00
2024-09-29 18:17:05.619,1.1199005,2.3274965,0.5998631,1.1576047,0.791853,1.4110892,0.34595525,0.73061895,1.6870611,2.1081538,1.2115164,1.3212334,0.9886233,0.9291112,0.2246077,0.70197594,0.5609746,0.39202094,-0.23263662,0.111889035,822.381,803.0403,801.02563,823.5897,626.1539,-0.143310546875,0.1263427734375,0.990478515625,-0.10467529296875,-0.964508056640625,-0.306549072265625,1,1.0,1.0,1.0,1.0,20.00
2024-09-29 18:17:05.620,1.1199005,2.3274965,0.5998631,1.1576047,0.791853,1.4110892,0.34595525,0.73061895,1.6870611,2.1081538,1.2115164,1.3212334,0.9886233,0.9291112,0.2246077,0.70197594,0.5609746,0.39202094,-0.23263662,0.111889035,820.7692,805.8608,801.8315,826.4103,721.2454,-0.143310546875,0.1263427734375,0.990478515625,-0.10467529296875,-0.964508056640625,-0.306549072265625,1,1.0,1.0,1.0,1.0,20.00
2024-09-29 18:17:05.620,1.1199005,2.3274965,0.5998631,1.1576047,0.791853,1.4110892,0.34595525,0.73061895,1.6870611,2.1081538,1.2115164,1.3212334,0.9886233,0.9291112,0.2246077,0.70197594,0.5609746,0.39202094,-0.23263662,0.111889035,825.2015,802.23444,797.8022,825.2015,973.8828,-0.143310546875,0.1263427734375,0.990478515625,-0.10467529296875,-0.964508056640625,-0.306549072265625,1,1.0,1.0,1.0,1.0,20.00
2024-09-29 18:17:05.621,1.1199005,2.3274965,0.5998631,1.1576047,0.791853,1.4110892,0.34595525,0.73061895,1.6870611,2.1081538,1.2115164,1.3212334,0.9886233,0.9291112,0.2246077,0.70197594,0.5609746,0.39202094,-0.23263662,0.111889035,828.8278,803.8461,794.9817,827.619,816.7399,-0.143310546875,0.1263427734375,0.990478515625,-0.10467529296875,-0.964508056640625,-0.306549072265625,1,1.0,1.0,1.0,1.0,20.00
2024-09-29 18:17:05.621,1.1199005,2.3274965,0.5998631,1.1576047,0.791853,1.4110892,0.34595525,0.73061895,1.6870611,2.1081538,1.2115164,1.3212334,0.9886233,0.9291112,0.2246077,0.70197594,0.5609746,0.39202094,-0.23263662,0.111889035,827.619,801.4286,794.9817,825.6044,600.3663,-0.143310546875,0.1263427734375,0.990478515625,-0.10467529296875,-0.964508056640625,-0.306549072265625,1,1.0,1.0,1.0,1.0,20.00
2024-09-29 18:17:05.646,1.1199005,2.3274965,0.5998631,1.1576047,0.791853,1.4110892,0.34595525,0.73061895,1.6870611,2.1081538,1.2115164,1.3212334,0.9886233,0.9291112,0.2246077,0.70197594,0.5609746,0.39202094,-0.23263662,0.111889035,821.1722,795.38464,795.78754,818.7546,742.6007,-0.1416015625,0.11944580078125,0.989013671875,0.276641845703125,-0.79254150390625,-1.4056396484375,1,1.0,1.0,1.0,1.0,20.00
2024-09-29 18:17:05.647,1.1199005,2.3274965,0.5998631,1.1576047,0.791853,1.4110892,0.34595525,0.73061895,1.6870611,2.1081538,1.2115164,1.3212334,0.9886233,0.9291112,0.2246077,0.70197594,0.5609746,0.39202094,-0.23263662,0.111889035,822.381,794.57874,798.20514,826.8132,1113.2968,-0.1416015625,0.11944580078125,0.989013671875,0.276641845703125,-0.79254150390625,-1.4056396484375,1,1.0,1.0,1.0,1.0,20.00
2024-09-29 18:17:05.648,1.1199005,2.3274965,0.5998631,1.1576047,0.791853,1.4110892,0.34595525,0.73061895,1.6870611,2.1081538,1.2115164,1.3212334,0.9886233,0.9291112,0.2246077,0.70197594,0.5609746,0.39202094,-0.23263662,0.111889035,826.0073,795.78754,800.6227,828.022,1034.3224,-0.1416015625,0.11944580078125,0.989013671875,0.276641845703125,-0.79254150390625,-1.4056396484375,1,1.0,1.0,1.0,1.0,20.00
2024-09-29 18:17:05.648,1.1199005,2.3274965,0.5998631,1.1576047,0.791853,1.4110892,0.34595525,0.73061895,1.6870611,2.1081538,1.2115164,1.3212334,0.9886233,0.9291112,0.2246077,0.70197594,0.5609746,0.39202094,-0.23263662,0.111889035,828.8278,802.23444,798.60803,821.1722,705.12823,-0.1416015625,0.11944580078125,0.989013671875,0.276641845703125,-0.79254150390625,-1.4056396484375,1,1.0,1.0,1.0,1.0,20.00
2024-09-29 18:17:05.649,1.1199005,2.3274965,0.5998631,1.1576047,0.791853,1.4110892,0.34595525,0.73061895,1.6870611,2.1081538,1.2115164,1.3212334,0.9886233,0.9291112,0.2246077,0.70197594,0.5609746,0.39202094,-0.23263662,0.111889035,837.28937,806.26373,799.81683,827.619,712.381,-0.1416015625,0.11944580078125,0.989013671875,0.276641845703125,-0.79254150390625,-1.4056396484375,1,1.0,1.0,1.0,1.0,20.00
2024-09-29 18:17:05.649,1.1199005,2.3274114,0.60584193,1.1576047,0.791853,1.4111589,0.34785292,0.73061895,1.6870611,2.1081538,1.2115164,1.3212334,0.9886233,0.9302015,0.22303234,0.70197594,0.5609746,0.39478695,-0.23887211,0.111889035,833.2601,801.4286,801.02563,840.9158,1222.8938,-0.1416015625,0.11944580078125,0.989013671875,0.276641845703125,-0.79254150390625,-1.4056396484375,1,1.0,1.0,1.0,1.0,20.00
2024-09-29 18:17:05.654,1.1199005,2.3274114,0.60584193,1.1576047,0.791853,1.4111589,0.34785292,0.73061895,1.6870611,2.1081538,1.2115164,1.3212334,0.9886233,0.9302015,0.22303234,0.70197594,0.5609746,0.39478695,-0.23887211,0.111889035,819.5604,795.78754,792.5641,840.10986,1448.9377,-0.1416015625,0.11944580078125,0.989013671875,0.276641845703125,-0.79254150390625,-1.4056396484375,1,1.0,1.0,1.0,1.0,20.00
2024-09-29 18:17:05.655,1.1199005,2.3274114,0.60584193,1.1576047,0.791853,1.4111589,0.34785292,0.73061895,1.6870611,2.1081538,1.2115164,1.3212334,0.9886233,0.9302015,0.22303234,0.70197594,0.5609746,0.39478695,-0.23887211,0.111889035,822.381,794.17584,791.3553,835.2747,1174.9451,-0.1416015625,0.11944580078125,0.989013671875,0.276641845703125,-0.79254150390625,-1.4056396484375,1,1.0,1.0,1.0,1.0,20.00
2024-09-29 18:17:05.655,1.1199005,2.3274114,0.60584193,1.1576047,0.791853,1.4111589,0.34785292,0.73061895,1.6870611,2.1081538,1.2115164,1.3212334,0.9886233,0.9302015,0.22303234,0.70197594,0.5609746,0.39478695,-0.23887211,0.111889035,823.9927,799.41394,796.1905,831.6484,882.01465,-0.1416015625,0.11944580078125,0.989013671875,0.276641845703125,-0.79254150390625,-1.4056396484375,1,1.0,1.0,1.0,1.0,20.00
2024-09-29 18:17:05.656,1.1199005,2.3274114,0.60584193,1.1576047,0.791853,1.4111589,0.34785292,0.73061895,1.6870611,2.1081538,1.2115164,1.3212334,0.9886233,0.9302015,0.22303234,0.70197594,0.5609746,0.39478695,-0.23887211,0.111889035,821.5751,799.011,797.8022,823.1868,786.52014,-0.1416015625,0.11944580078125,0.989013671875,0.276641845703125,-0.79254150390625,-1.4056396484375,1,1.0,1.0,1.0,1.0,20.00
2024-09-29 18:17:05.657,1.1199005,2.3274114,0.60584193,1.1576047,0.791853,1.4111589,0.34785292,0.73061895,1.6870611,2.1081538,1.2115164,1.3212334,0.9886233,0.9302015,0.22303234,0.70197594,0.5609746,0.39478695,-0.23887211,0.111889035,827.2161,799.011,798.20514,819.15753,723.663,-0.1416015625,0.11944580078125,0.989013671875,0.276641845703125,-0.79254150390625,-1.4056396484375,1,1.0,1.0,1.0,1.0,20.00
2024-09-29 18:17:05.657,1.1199005,2.3274114,0.60584193,1.1576047,0.791853,1.4111589,0.34785292,0.73061895,1.6870611,2.1081538,1.2115164,1.3212334,0.9886233,0.9302015,0.22303234,0.70197594,0.5609746,0.39478695,-0.23887211,0.111889035,825.2015,803.44324,794.9817,811.0989,540.7326,-0.1416015625,0.11944580078125,0.989013671875,0.276641845703125,-0.79254150390625,-1.4056396484375,1,1.0,1.0,1.0,1.0,20.00
2024-09-29 18:17:05.684,1.1199005,2.3274114,0.60584193,1.1576047,0.791853,1.4111589,0.34785292,0.73061895,1.6870611,2.1081538,1.2115164,1.3212334,0.9886233,0.9302015,0.22303234,0.70197594,0.5609746,0.39478695,-0.23887211,0.111889035,832.0513,803.44324,794.57874,810.696,640.65936,-0.1416015625,0.11944580078125,0.989013671875,0.276641845703125,-0.79254150390625,-1.4056396484375,1,1.0,1.0,1.0,1.0,20.00
2024-09-29 18:17:05.685,1.1199005,2.3274114,0.60584193,1.1576047,0.791853,1.4111589,0.34785292,0.73061895,1.6870611,2.1081538,1.2115164,1.3212334,0.9886233,0.9302015,0.22303234,0.70197594,0.5609746,0.39478695,-0.23887211,0.111889035,834.0659,803.44324,798.20514,826.4103,1035.5311,-0.1416015625,0.11944580078125,0.989013671875,0.276641845703125,-0.79254150390625,-1.4056396484375,1,1.0,1.0,1.0,1.0,20.00
2024-09-29 18:17:05.686,1.1199005,2.3274114,0.60584193,1.1576047,0.791853,1.4111589,0.34785292,0.73061895,1.6870611,2.1081538,1.2115164,1.3212334,0.9886233,0.9302015,0.22303234,0.70197594,0.5609746,0.39478695,-0.23887211,0.111889035,825.2015,803.44324,796.99634,819.5604,884.0293,-0.1416015625,0.11944580078125,0.989013671875,0.276641845703125,-0.79254150390625,-1.4056396484375,1,1.0,1.0,1.0,1.0,20.00
2024-09-29 18:17:05.687,1.1199005,2.3274114,0.60584193,1.1576047,0.791853,1.4111589,0.34785292,0.73061895,1.6870611,2.1081538,1.2115164,1.3212334,0.9886233,0.9302015,0.22303234,0.70197594,0.5609746,0.39478695,-0.23887211,0.111889035,818.7546,800.2198,797.3993,805.8608,605.6044,-0.1416015625,0.11944580078125,0.989013671875,0.276641845703125,-0.79254150390625,-1.4056396484375,1,1.0,1.0,1.0,1.0,20.00
2024-09-29 18:17:05.689,1.1199005,2.3274114,0.60584193,1.1576047,0.791853,1.4111589,0.34785292,0.73061895,1.6870611,2.1081538,1.2115164,1.3212334,0.9886233,0.9302015,0.22303234,0.70197594,0.5609746,0.39478695,-0.23887211,0.111889035,820.3663,798.20514,799.81683,810.293,683.7729,-0.1416015625,0.11944580078125,0.989013671875,0.276641845703125,-0.79254150390625,-1.4056396484375,1,1.0,1.0,1.0,1.0,20.00
2024-09-29 18:17:05.690,1.1199005,2.3274114,0.60584193,1.1576047,0.791853,1.4111589,0.34785292,0.73061895,1.6870611,2.1081538,1.2115164,1.3212334,0.9886233,0.9302015,0.22303234,0.70197594,0.5609746,0.39478695,-0.23887211,0.111889035,825.2015,803.8461,800.2198,819.5604,878.3883,-0.1416015625,0.11944580078125,0.989013671875,0.276641845703125,-0.79254150390625,-1.4056396484375,1,1.0,1.0,1.0,1.0,20.00
2024-09-29 18:17:05.690,1.1199005,2.3274114,0.60584193,1.1576047,0.791853,1.4111589,0.34785292,0.73061895,1.6870611,2.1081538,1.2115164,1.3212334,0.9886233,0.9302015,0.22303234,0.70197594,0.5609746,0.39478695,-0.23887211,0.111889035,815.5311,807.0696,803.0403,822.7839,866.7033,-0.1416015625,0.11944580078125,0.989013671875,0.276641845703125,-0.79254150390625,-1.4056396484375,1,1.0,1.0,1.0,1.0,20.00
2024-09-29 18:17:05.693,1.1199005,2.3274114,0.60584193,1.1576047,0.791853,1.4111589,0.34785292,0.73061895,1.6870611,2.1081538,1.2115164,1.3212334,0.9886233,0.9302015,0.22303234,0.70197594,0.5609746,0.39478695,-0.23887211,0.111889035,812.71063,804.2491,802.23444,815.9341,691.02563,-0.1416015625,0.11944580078125,0.989013671875,0.276641845703125,-0.79254150390625,-1.4056396484375,1,1.0,1.0,1.0,1.0,20.00
2024-09-29 18:17:05.694,1.1199005,2.3274114,0.60584193,1.1576047,0.791853,1.4111589,0.34785292,0.73061895,1.6870611,2.1081538,1.2115164,1.3212334,0.9886233,0.9302015,0.22303234,0.70197594,0.5609746,0.39478695,-0.23887211,0.111889035,825.2015,801.4286,801.4286,815.12823,786.52014,-0.1416015625,0.11944580078125,0.989013671875,0.276641845703125,-0.79254150390625,-1.4056396484375,1,1.0,1.0,1.0,1.0,20.00
2024-09-29 18:17:05.694,1.1199005,2.3274114,0.60584193,1.1576047,0.791853,1.4111589,0.34785292,0.73061895,1.6870611,2.1081538,1.2115164,1.3212334,0.9886233,0.9302015,0.22303234,0.70197594,0.5609746,0.39478695,-0.23887211,0.111889035,826.4103,801.02563,803.44324,829.2308,1121.3553,-0.1416015625,0.11944580078125,0.989013671875,0.276641845703125,-0.79254150390625,-1.4056396484375,1,1.0,1.0,1.0,1.0,20.00
2024-09-29 18:17:05.695,1.1199005,2.3274114,0.60584193,1.1576047,0.791853,1.4111589,0.34785292,0.73061895,1.6870611,2.1081538,1.2115164,1.3212334,0.9886233,0.9302015,0.22303234,0.70197594,0.5609746,0.39478695,-0.23887211,0.111889035,817.1429,804.2491,801.8315,821.1722,872.3443,-0.1416015625,0.11944580078125,0.989013671875,0.276641845703125,-0.79254150390625,-1.4056396484375,1,1.0,1.0,1.0,1.0,20.00
2024-09-29 18:17:05.695,1.1199005,2.3274114,0.60584193,1.1576047,0.791853,1.4111589,0.34785292,0.73061895,1.6870611,2.1081538,1.2115164,1.3212334,0.9886233,0.9302015,0.22303234,0.70197594,0.5609746,0.39478695,-0.23887211,0.111889035,813.5165,800.6227,798.20514,808.68134,725.2747,-0.1416015625,0.11944580078125,0.989013671875,0.276641845703125,-0.79254150390625,-1.4056396484375,1,1.0,1.0,1.0,1.0,20.00
2024-09-29 18:17:05.746,1.1199005,2.3274114,0.60584193,1.1576047,0.791853,1.4111589,0.34785292,0.73061895,1.6870611,2.1081538,1.2115164,1.3212334,0.9886233,0.9302015,0.22303234,0.70197594,0.5609746,0.39478695,-0.23887211,0.111889035,807.47253,798.60803,793.7729,808.68134,746.2271,-0.13616943359375,0.12506103515625,0.9901123046875,0.34393310546875,-1.00189208984375,0.01495361328125,1,1.0,1.0,1.0,1.0,20.00
2024-09-29 18:17:05.747,1.1199005,2.3274114,0.60584193,1.1576047,0.791853,1.4111589,0.34785292,0.73061895,1.6870611,2.1081538,1.2115164,1.3212334,0.9886233,0.9302015,0.22303234,0.70197594,0.5609746,0.39478695,-0.23887211,0.111889035,807.8755,799.41394,791.3553,811.50183,624.5421,-0.13616943359375,0.12506103515625,0.9901123046875,0.34393310546875,-1.00189208984375,0.01495361328125,1,1.0,1.0,1.0,1.0,20.00
2024-09-29 18:17:05.748,1.1199005,2.3274114,0.60584193,1.1576047,0.791853,1.4111589,0.34785292,0.73061895,1.6870611,2.1081538,1.2115164,1.3212334,0.9886233,0.9302015,0.22303234,0.70197594,0.5609746,0.39478695,-0.23887211,0.111889035,814.7253,803.0403,792.96704,819.15753,699.89014,-0.13616943359375,0.12506103515625,0.9901123046875,0.34393310546875,-1.00189208984375,0.01495361328125,1,1.0,1.0,1.0,1.0,20.00
2024-09-29 18:17:05.748,1.1199005,2.3274114,0.60584193,1.1576047,0.791853,1.4111589,0.34785292,0.73061895,1.6870611,2.1081538,1.2115164,1.3212334,0.9886233,0.9302015,0.22303234,0.70197594,0.5609746,0.39478695,-0.23887211,0.111889035,814.7253,801.8315,793.7729,819.9634,775.2381,-0.13616943359375,0.12506103515625,0.9901123046875,0.34393310546875,-1.00189208984375,0.01495361328125,1,1.0,1.0,1.0,1.0,20.00
2024-09-29 18:17:05.749,1.1199005,2.3274114,0.60584193,1.1576047,0.791853,1.4111589,0.34785292,0.73061895,1.6870611,2.1081538,1.2115164,1.3212334,0.9886233,0.9302015,0.22303234,0.70197594,0.5609746,0.39478695,-0.23887211,0.111889035,812.71063,795.38464,794.57874,812.3077,794.9817,-0.13616943359375,0.12506103515625,0.9901123046875,0.34393310546875,-1.00189208984375,0.01495361328125,1,1.0,1.0,1.0,1.0,20.00
2024-09-29 18:17:05.749,1.1199005,2.3274114,0.60584193,1.1576047,0.791853,1.4111589,0.34785292,0.73061895,1.6870611,2.1081538,1.2115164,1.3212334,0.9886233,0.9302015,0.22303234,0.70197594,0.5609746,0.39478695,-0.23887211,0.111889035,819.5604,794.57874,792.5641,810.696,888.46155,-0.13616943359375,0.12506103515625,0.9901123046875,0.34393310546875,-1.00189208984375,0.01495361328125,1,1.0,1.0,1.0,1.0,20.00
2024-09-29 18:17:05.750,1.1199005,2.3274114,0.60584193,1.1576047,0.791853,1.4111589,0.34785292,0.73061895,1.6870611,2.1081538,1.2115164,1.3212334,0.9886233,0.9302015,0.22303234,0.70197594,0.5609746,0.39478695,-0.23887211,0.111889035,833.2601,799.81683,794.17584,812.71063,893.69965,-0.13616943359375,0.12506103515625,0.9901123046875,0.34393310546875,-1.00189208984375,0.01495361328125,1,1.0,1.0,1.0,1.0,20.00
2024-09-29 18:17:05.750,0.9494529,2.3272781,0.61586124,0.18648222,0.6486481,1.4108738,0.34838596,0.338372,1.2054555,2.1081538,1.2115164,1.2158816,0.58258617,0.9311327,0.22036092,0.65100455,0.30375674,0.39747348,-0.24592744,-0.0093448665,835.2747,807.8755,796.99634,816.7399,866.30035,-0.13616943359375,0.12506103515625,0.9901123046875,0.34393310546875,-1.00189208984375,0.01495361328125,1,1.0,1.0,1.0,1.0,20.00
2024-09-29 18:17:05.755,0.9494529,2.3272781,0.61586124,0.18648222,0.6486481,1.4108738,0.34838596,0.338372,1.2054555,2.1081538,1.2115164,1.2158816,0.58258617,0.9311327,0.22036092,0.65100455,0.30375674,0.39747348,-0.24592744,-0.0093448665,828.4249,804.2491,797.3993,825.6044,1045.2014,-0.13616943359375,0.12506103515625,0.9901123046875,0.34393310546875,-1.00189208984375,0.01495361328125,1,1.0,1.0,1.0,1.0,20.00
2024-09-29 18:17:05.755,0.9494529,2.3272781,0.61586124,0.18648222,0.6486481,1.4108738,0.34838596,0.338372,1.2054555,2.1081538,1.2115164,1.2158816,0.58258617,0.9311327,0.22036092,0.65100455,0.30375674,0.39747348,-0.24592744,-0.0093448665,825.2015,801.8315,792.5641,816.337,841.31866,-0.13616943359375,0.12506103515625,0.9901123046875,0.34393310546875,-1.00189208984375,0.01495361328125,1,1.0,1.0,1.0,1.0,20.00
2024-09-29 18:17:05.756,0.9494529,2.3272781,0.61586124,0.18648222,0.6486481,1.4108738,0.34838596,0.338372,1.2054555,2.1081538,1.2115164,1.2158816,0.58258617,0.9311327,0.22036092,0.65100455,0.30375674,0.39747348,-0.24592744,-0.0093448665,824.3956,801.4286,791.75824,805.05493,647.1062,-0.13616943359375,0.12506103515625,0.9901123046875,0.34393310546875,-1.00189208984375,0.01495361328125,1,1.0,1.0,1.0,1.0,20.00
2024-09-29 18:17:05.756,0.9494529,2.3272781,0.61586124,0.18648222,0.6486481,1.4108738,0.34838596,0.338372,1.2054555,2.1081538,1.2115164,1.2158816,0.58258617,0.9311327,0.22036092,0.65100455,0.30375674,0.39747348,-0.24592744,-0.0093448665,821.5751,801.4286,792.5641,807.47253,802.23444,-0.13616943359375,0.12506103515625,0.9901123046875,0.34393310546875,-1.00189208984375,0.01495361328125,1,1.0,1.0,1.0,1.0,20.00
2024-09-29 18:17:05.782,0.9494529,2.3272781,0.61586124,0.18648222,0.6486481,1.4108738,0.34838596,0.338372,1.2054555,2.1081538,1.2115164,1.2158816,0.58258617,0.9311327,0.22036092,0.65100455,0.30375674,0.39747348,-0.24592744,-0.0093448665,823.9927,800.6227,790.14655,806.26373,919.4872,-0.14483642578125,0.12591552734375,0.99114990234375,0.11962890625,-0.9869384765625,1.375732421875,1,1.0,1.0,1.0,1.0,20.00
2024-09-29 18:17:05.783,0.9494529,2.3272781,0.61586124,0.18648222,0.6486481,1.4108738,0.34838596,0.338372,1.2054555,2.1081538,1.2115164,1.2158816,0.58258617,0.9311327,0.22036092,0.65100455,0.30375674,0.39747348,-0.24592744,-0.0093448665,830.4396,799.81683,793.36993,801.4286,716.8132,-0.14483642578125,0.12591552734375,0.99114990234375,0.11962890625,-0.9869384765625,1.375732421875,1,1.0,1.0,1.0,1.0,20.00
2024-09-29 18:17:05.783,0.9494529,2.3272781,0.61586124,0.18648222,0.6486481,1.4108738,0.34838596,0.338372,1.2054555,2.1081538,1.2115164,1.2158816,0.58258617,0.9311327,0.22036092,0.65100455,0.30375674,0.39747348,-0.24592744,-0.0093448665,823.1868,805.8608,794.9817,804.65204,595.9341,-0.14483642578125,0.12591552734375,0.99114990234375,0.11962890625,-0.9869384765625,1.375732421875,1,1.0,1.0,1.0,1.0,20.00
2024-09-29 18:17:05.784,0.9494529,2.3272781,0.61586124,0.18648222,0.6486481,1.4108738,0.34838596,0.338372,1.2054555,2.1081538,1.2115164,1.2158816,0.58258617,0.9311327,0.22036092,0.65100455,0.30375674,0.39747348,-0.24592744,-0.0093448665,814.7253,803.8461,797.3993,808.2784,759.92676,-0.14483642578125,0.12591552734375,0.99114990234375,0.11962890625,-0.9869384765625,1.375732421875,1,1.0,1.0,1.0,1.0,20.00
2024-09-29 18:17:05.784,0.9494529,2.3272781,0.61586124,0.18648222,0.6486481,1.4108738,0.34838596,0.338372,1.2054555,2.1081538,1.2115164,1.2158816,0.58258617,0.9311327,0.22036092,0.65100455,0.30375674,0.39747348,-0.24592744,-0.0093448665,813.91943,795.78754,799.81683,806.6667,829.6337,-0.14483642578125,0.12591552734375,0.99114990234375,0.11962890625,-0.9869384765625,1.375732421875,1,1.0,1.0,1.0,1.0,20.00
2024-09-29 18:17:05.785,0.9494529,2.3272781,0.61586124,0.18648222,0.6486481,1.4108738,0.34838596,0.338372,1.2054555,2.1081538,1.2115164,1.2158816,0.58258617,0.9311327,0.22036092,0.65100455,0.30375674,0.39747348,-0.24592744,-0.0093448665,817.9487,795.78754,796.5934,809.4872,789.34064,-0.14483642578125,0.12591552734375,0.99114990234375,0.11962890625,-0.9869384765625,1.375732421875,1,1.0,1.0,1.0,1.0,20.00
2024-09-29 18:17:05.785,0.9494529,2.3272781,0.61586124,0.18648222,0.6486481,1.4108738,0.34838596,0.338372,1.2054555,2.1081538,1.2115164,1.2158816,0.58258617,0.9311327,0.22036092,0.65100455,0.30375674,0.39747348,-0.24592744,-0.0093448665,820.7692,801.02563,796.1905,810.293,944.87177,-0.14483642578125,0.12591552734375,0.99114990234375,0.11962890625,-0.9869384765625,1.375732421875,1,1.0,1.0,1.0,1.0,20.00
2024-09-29 18:17:05.786,0.9494529,2.3272781,0.61586124,0.18648222,0.6486481,1.4108738,0.34838596,0.338372,1.2054555,2.1081538,1.2115164,1.2158816,0.58258617,0.9311327,0.22036092,0.65100455,0.30375674,0.39747348,-0.24592744,-0.0093448665,813.5165,796.5934,797.8022,806.6667,1130.2197,-0.14483642578125,0.12591552734375,0.99114990234375,0.11962890625,-0.9869384765625,1.375732421875,1,1.0,1.0,1.0,1.0,20.00
2024-09-29 18:17:05.786,0.9494529,2.3272781,0.61586124,0.18648222,0.6486481,1.4108738,0.34838596,0.338372,1.2054555,2.1081538,1.2115164,1.2158816,0.58258617,0.9311327,0.22036092,0.65100455,0.30375674,0.39747348,-0.24592744,-0.0093448665,817.5458,793.36993,795.78754,807.0696,1029.0842,-0.14483642578125,0.12591552734375,0.99114990234375,0.11962890625,-0.9869384765625,1.375732421875,1,1.0,1.0,1.0,1.0,20.00
2024-09-29 18:17:05.787,0.9494529,2.3272781,0.61586124,0.18648222,0.6486481,1.4108738,0.34838596,0.338372,1.2054555,2.1081538,1.2115164,1.2158816,0.58258617,0.9311327,0.22036092,0.65100455,0.30375674,0.39747348,-0.24592744,-0.0093448665,828.022,796.5934,795.78754,804.65204,790.14655,-0.14483642578125,0.12591552734375,0.99114990234375,0.11962890625,-0.9869384765625,1.375732421875,1,1.0,1.0,1.0,1.0,20.00
