TimeStamp,Delta_TP9,Delta_AF7,Delta_AF8,Delta_TP10,Theta_TP9,Theta_AF7,Theta_AF8,Theta_TP10,Alpha_TP9,Alpha_AF7,Alpha_AF8,Alpha_TP10,Beta_TP9,Beta_AF7,Beta_AF8,Beta_TP10,Gamma_TP9,Gamma_AF7,Gamma_AF8,Gamma_TP10,RAW_TP9,RAW_AF7,RAW_AF8,RAW_TP10,AUX_RIGHT,Accelerometer_X,Accelerometer_Y,Accelerometer_Z,Gyro_X,Gyro_Y,Gyro_Z,HeadBandOn,HSI_TP9,HSI_AF7,HSI_AF8,HSI_TP10,Battery,Elements
2024-09-29 18:14:51.949,0.81984514,0.011919235,0.62893456,0.43037352,0.2855199,-0.1503613,-0.12745853,0.07410481,0.34906265,-0.07378517,0.15379122,0.51972747,0.30821708,-0.087289274,-0.092554145,0.253831,-0.24930073,-0.44601625,-0.32140794,-0.022029666,832.4542,800.2198,810.696,811.0989,893.2967,-0.3934326171875,0.12554931640625,0.92547607421875,0.538330078125,-1.614990234375,-0.85235595703125,1,1.0,1.0,1.0,1.0,20.00
2024-09-29 18:14:51.950,0.81984514,0.011919235,0.62893456,0.43037352,0.2855199,-0.1503613,-0.12745853,0.07410481,0.34906265,-0.07378517,0.15379122,0.51972747,0.30821708,-0.087289274,-0.092554145,0.253831,-0.24930073,-0.44601625,-0.32140794,-0.022029666,833.663,798.60803,810.293,818.3516,840.10986,-0.3934326171875,0.12554931640625,0.92547607421875,0.538330078125,-1.614990234375,-0.85235595703125,1,1.0,1.0,1.0,1.0,20.00
2024-09-29 18:14:51.951,0.81984514,0.011919235,0.62893456,0.43037352,0.2855199,-0.1503613,-0.12745853,0.07410481,0.34906265,-0.07378517,0.15379122,0.51972747,0.30821708,-0.087289274,-0.092554145,0.253831,-0.24930073,-0.44601625,-0.32140794,-0.022029666,836.8865,798.20514,803.8461,811.50183,707.5458,-0.3934326171875,0.12554931640625,0.92547607421875,0.538330078125,-1.614990234375,-0.85235595703125,1,1.0,1.0,1.0,1.0,20.00
2024-09-29 18:14:51.952,0.81984514,0.011919235,0.62893456,0.43037352,0.2855199,-0.1503613,-0.12745853,0.07410481,0.34906265,-0.07378517,0.15379122,0.51972747,0.30821708,-0.087289274,-0.092554145,0.253831,-0.24930073,-0.44601625,-0.32140794,-0.022029666,834.0659,797.3993,801.02563,806.26373,711.5751,-0.3934326171875,0.12554931640625,0.92547607421875,0.538330078125,-1.614990234375,-0.85235595703125,1,1.0,1.0,1.0,1.0,20.00
2024-09-29 18:14:51.952,0.81984514,0.011919235,0.62893456,0.43037352,0.2855199,-0.1503613,-0.12745853,0.07410481,0.34906265,-0.07378517,0.15379122,0.51972747,0.30821708,-0.087289274,-0.092554145,0.253831,-0.24930073,-0.44601625,-0.32140794,-0.022029666,821.1722,798.60803,801.8315,810.293,989.59705,-0.3934326171875,0.12554931640625,0.92547607421875,0.538330078125,-1.614990234375,-0.85235595703125,1,1.0,1.0,1.0,1.0,20.00
2024-09-29 18:14:51.953,0.81984514,0.011919235,0.62893456,0.43037352,0.2855199,-0.1503613,-0.12745853,0.07410481,0.34906265,-0.07378517,0.15379122,0.51972747,0.30821708,-0.087289274,-0.092554145,0.253831,-0.24930073,-0.44601625,-0.32140794,-0.022029666,816.7399,800.6227,798.60803,812.3077,1082.2711,-0.3934326171875,0.12554931640625,0.92547607421875,0.538330078125,-1.614990234375,-0.85235595703125,1,1.0,1.0,1.0,1.0,20.00
2024-09-29 18:14:51.953,0.81984514,0.011919235,0.62893456,0.43037352,0.2855199,-0.1503613,-0.12745853,0.07410481,0.34906265,-0.07378517,0.15379122,0.51972747,0.30821708,-0.087289274,-0.092554145,0.253831,-0.24930073,-0.44601625,-0.32140794,-0.022029666,820.7692,804.2491,798.20514,813.1135,859.0476,-0.3934326171875,0.12554931640625,0.92547607421875,0.538330078125,-1.614990234375,-0.85235595703125,1,1.0,1.0,1.0,1.0,20.00
2024-09-29 18:14:51.954,0.81984514,0.011919235,0.62893456,0.43037352,0.2855199,-0.1503613,-0.12745853,0.07410481,0.34906265,-0.07378517,0.15379122,0.51972747,0.30821708,-0.087289274,-0.092554145,0.253831,-0.24930073,-0.44601625,-0.32140794,-0.022029666,814.7253,800.6227,799.011,805.4579,773.6264,-0.3934326171875,0.12554931640625,0.92547607421875,0.538330078125,-1.614990234375,-0.85235595703125,1,1.0,1.0,1.0,1.0,20.00
2024-09-29 18:14:51.954,0.81984514,0.011919235,0.62893456,0.43037352,0.2855199,-0.1503613,-0.12745853,0.07410481,0.34906265,-0.07378517,0.15379122,0.51972747,0.30821708,-0.087289274,-0.092554145,0.253831,-0.24930073,-0.44601625,-0.32140794,-0.022029666,813.1135,800.2198,798.20514,807.0696,899.7436,-0.3934326171875,0.12554931640625,0.92547607421875,0.538330078125,-1.614990234375,-0.85235595703125,1,1.0,1.0,1.0,1.0,20.00
2024-09-29 18:14:51.955,0.79568136,0.0077712755,0.63807964,0.43865195,0.30973944,-0.15090801,-0.12738085,0.10122714,0.39924386,-0.07094061,0.14941375,0.5166307,0.33572534,-0.10721947,-0.09844019,0.28181392,-0.23802395,-0.44472626,-0.3193597,-0.016933745,817.5458,800.6227,796.1905,814.3223,794.9817,-0.3934326171875,0.12554931640625,0.92547607421875,0.538330078125,-1.614990234375,-0.85235595703125,1,1.0,1.0,1.0,1.0,20.00
2024-09-29 18:14:51.960,0.79568136,0.0077712755,0.63807964,0.43865195,0.30973944,-0.15090801,-0.12738085,0.10122714,0.39924386,-0.07094061,0.14941375,0.5166307,0.33572534,-0.10721947,-0.09844019,0.28181392,-0.23802395,-0.44472626,-0.3193597,-0.016933745,824.7985,803.0403,802.23444,814.3223,605.2015,-0.3934326171875,0.12554931640625,0.92547607421875,0.538330078125,-1.614990234375,-0.85235595703125,1,1.0,1.0,1.0,1.0,20.00
2024-09-29 18:14:51.960,0.79568136,0.0077712755,0.63807964,0.43865195,0.30973944,-0.15090801,-0.12738085,0.10122714,0.39924386,-0.07094061,0.14941375,0.5166307,0.33572534,-0.10721947,-0.09844019,0.28181392,-0.23802395,-0.44472626,-0.3193597,-0.016933745,831.6484,806.26373,805.8608,812.3077,805.8608,-0.3934326171875,0.12554931640625,0.92547607421875,0.538330078125,-1.614990234375,-0.85235595703125,1,1.0,1.0,1.0,1.0,20.00
2024-09-29 18:14:51.996,0.79568136,0.0077712755,0.63807964,0.43865195,0.30973944,-0.15090801,-0.12738085,0.10122714,0.39924386,-0.07094061,0.14941375,0.5166307,0.33572534,-0.10721947,-0.09844019,0.28181392,-0.23802395,-0.44472626,-0.3193597,-0.016933745,831.2454,804.2491,801.4286,812.3077,1072.6007,-0.3865966796875,0.1253662109375,0.92706298828125,1.203765869140625,-1.86920166015625,-1.65985107421875,1,1.0,1.0,1.0,1.0,20.00
2024-09-29 18:14:51.997,0.79568136,0.0077712755,0.63807964,0.43865195,0.30973944,-0.15090801,-0.12738085,0.10122714,0.39924386,-0.07094061,0.14941375,0.5166307,0.33572534,-0.10721947,-0.09844019,0.28181392,-0.23802395,-0.44472626,-0.3193597,-0.016933745,830.4396,802.6374,803.8461,810.293,875.56775,-0.3865966796875,0.1253662109375,0.92706298828125,1.203765869140625,-1.86920166015625,-1.65985107421875,1,1.0,1.0,1.0,1.0,20.00
2024-09-29 18:14:51.998,0.79568136,0.0077712755,0.63807964,0.43865195,0.30973944,-0.15090801,-0.12738085,0.10122714,0.39924386,-0.07094061,0.14941375,0.5166307,0.33572534,-0.10721947,-0.09844019,0.28181392,-0.23802395,-0.44472626,-0.3193597,-0.016933745,830.4396,805.05493,805.8608,810.696,678.1319,-0.3865966796875,0.1253662109375,0.92706298828125,1.203765869140625,-1.86920166015625,-1.65985107421875,1,1.0,1.0,1.0,1.0,20.00
2024-09-29 18:14:51.999,0.79568136,0.0077712755,0.63807964,0.43865195,0.30973944,-0.15090801,-0.12738085,0.10122714,0.39924386,-0.07094061,0.14941375,0.5166307,0.33572534,-0.10721947,-0.09844019,0.28181392,-0.23802395,-0.44472626,-0.3193597,-0.016933745,826.4103,806.6667,802.23444,808.68134,755.09155,-0.3865966796875,0.1253662109375,0.92706298828125,1.203765869140625,-1.86920166015625,-1.65985107421875,1,1.0,1.0,1.0,1.0,20.00
2024-09-29 18:14:51.999,0.79568136,0.0077712755,0.63807964,0.43865195,0.30973944,-0.15090801,-0.12738085,0.10122714,0.39924386,-0.07094061,0.14941375,0.5166307,0.33572534,-0.10721947,-0.09844019,0.28181392,-0.23802395,-0.44472626,-0.3193597,-0.016933745,835.6777,808.2784,806.26373,813.5165,902.96704,-0.3865966796875,0.1253662109375,0.92706298828125,1.203765869140625,-1.86920166015625,-1.65985107421875,1,1.0,1.0,1.0,1.0,20.00
2024-09-29 18:14:52.000,0.79568136,0.0077712755,0.63807964,0.43865195,0.30973944,-0.15090801,-0.12738085,0.10122714,0.39924386,-0.07094061,0.14941375,0.5166307,0.33572534,-0.10721947,-0.09844019,0.28181392,-0.23802395,-0.44472626,-0.3193597,-0.016933745,833.2601,804.2491,809.4872,816.7399,955.7509,-0.3865966796875,0.1253662109375,0.92706298828125,1.203765869140625,-1.86920166015625,-1.65985107421875,1,1.0,1.0,1.0,1.0,20.00
2024-09-29 18:14:52.001,0.79568136,0.0077712755,0.63807964,0.43865195,0.30973944,-0.15090801,-0.12738085,0.10122714,0.39924386,-0.07094061,0.14941375,0.5166307,0.33572534,-0.10721947,-0.09844019,0.28181392,-0.23802395,-0.44472626,-0.3193597,-0.016933745,818.7546,795.78754,804.65204,810.696,870.32965,-0.3865966796875,0.1253662109375,0.92706298828125,1.203765869140625,-1.86920166015625,-1.65985107421875,1,1.0,1.0,1.0,1.0,20.00
2024-09-29 18:14:52.001,0.79568136,0.0077712755,0.63807964,0.43865195,0.30973944,-0.15090801,-0.12738085,0.10122714,0.39924386,-0.07094061,0.14941375,0.5166307,0.33572534,-0.10721947,-0.09844019,0.28181392,-0.23802395,-0.44472626,-0.3193597,-0.016933745,817.5458,793.36993,804.2491,813.5165,847.76556,-0.3865966796875,0.1253662109375,0.92706298828125,1.203765869140625,-1.86920166015625,-1.65985107421875,1,1.0,1.0,1.0,1.0,20.00
2024-09-29 18:14:52.002,0.79568136,0.0077712755,0.63807964,0.43865195,0.30973944,-0.15090801,-0.12738085,0.10122714,0.39924386,-0.07094061,0.14941375,0.5166307,0.33572534,-0.10721947,-0.09844019,0.28181392,-0.23802395,-0.44472626,-0.3193597,-0.016933745,821.978,797.3993,806.26373,818.3516,904.57874,-0.3865966796875,0.1253662109375,0.92706298828125,1.203765869140625,-1.86920166015625,-1.65985107421875,1,1.0,1.0,1.0,1.0,20.00
2024-09-29 18:14:52.002,0.79568136,0.0077712755,0.63807964,0.43865195,0.30973944,-0.15090801,-0.12738085,0.10122714,0.39924386,-0.07094061,0.14941375,0.5166307,0.33572534,-0.10721947,-0.09844019,0.28181392,-0.23802395,-0.44472626,-0.3193597,-0.016933745,820.7692,802.6374,805.4579,813.5165,749.0476,-0.3865966796875,0.1253662109375,0.92706298828125,1.203765869140625,-1.86920166015625,-1.65985107421875,1,1.0,1.0,1.0,1.0,20.00
2024-09-29 18:14:52.003,0.79568136,0.0077712755,0.63807964,0.43865195,0.30973944,-0.15090801,-0.12738085,0.10122714,0.39924386,-0.07094061,0.14941375,0.5166307,0.33572534,-0.10721947,-0.09844019,0.28181392,-0.23802395,-0.44472626,-0.3193597,-0.016933745,823.1868,801.8315,803.0403,811.50183,655.56775,-0.3865966796875,0.1253662109375,0.92706298828125,1.203765869140625,-1.86920166015625,-1.65985107421875,1,1.0,1.0,1.0,1.0,20.00
2024-09-29 18:14:52.003,0.79568136,0.0077712755,0.63807964,0.43865195,0.30973944,-0.15090801,-0.12738085,0.10122714,0.39924386,-0.07094061,0.14941375,0.5166307,0.33572534,-0.10721947,-0.09844019,0.28181392,-0.23802395,-0.44472626,-0.3193597,-0.016933745,831.6484,799.41394,797.3993,811.9048,761.9414,-0.3865966796875,0.1253662109375,0.92706298828125,1.203765869140625,-1.86920166015625,-1.65985107421875,1,1.0,1.0,1.0,1.0,20.00
2024-09-29 18:14:52.025,0.79568136,0.0077712755,0.63807964,0.43865195,0.30973944,-0.15090801,-0.12738085,0.10122714,0.39924386,-0.07094061,0.14941375,0.5166307,0.33572534,-0.10721947,-0.09844019,0.28181392,-0.23802395,-0.44472626,-0.3193597,-0.016933745,832.0513,801.8315,799.011,817.5458,847.3626,-0.38427734375,0.12799072265625,0.9290771484375,0.25421142578125,-1.68975830078125,-0.485992431640625,1,1.0,1.0,1.0,1.0,20.00
2024-09-29 18:14:52.026,0.79568136,0.0077712755,0.63807964,0.43865195,0.30973944,-0.15090801,-0.12738085,0.10122714,0.39924386,-0.07094061,0.14941375,0.5166307,0.33572534,-0.10721947,-0.09844019,0.28181392,-0.23802395,-0.44472626,-0.3193597,-0.016933745,825.2015,799.011,803.0403,813.1135,876.3736,-0.38427734375,0.12799072265625,0.9290771484375,0.25421142578125,-1.68975830078125,-0.485992431640625,1,1.0,1.0,1.0,1.0,20.00
2024-09-29 18:14:52.026,0.79568136,0.0077712755,0.63807964,0.43865195,0.30973944,-0.15090801,-0.12738085,0.10122714,0.39924386,-0.07094061,0.14941375,0.5166307,0.33572534,-0.10721947,-0.09844019,0.28181392,-0.23802395,-0.44472626,-0.3193597,-0.016933745,832.8571,796.99634,804.2491,809.89014,936.4103,-0.38427734375,0.12799072265625,0.9290771484375,0.25421142578125,-1.68975830078125,-0.485992431640625,1,1.0,1.0,1.0,1.0,20.00
2024-09-29 18:14:52.027,0.79568136,0.0077712755,0.63807964,0.43865195,0.30973944,-0.15090801,-0.12738085,0.10122714,0.39924386,-0.07094061,0.14941375,0.5166307,0.33572534,-0.10721947,-0.09844019,0.28181392,-0.23802395,-0.44472626,-0.3193597,-0.016933745,841.31866,801.4286,805.4579,814.3223,909.41394,-0.38427734375,0.12799072265625,0.9290771484375,0.25421142578125,-1.68975830078125,-0.485992431640625,1,1.0,1.0,1.0,1.0,20.00
2024-09-29 18:14:52.027,0.79568136,0.0077712755,0.63807964,0.43865195,0.30973944,-0.15090801,-0.12738085,0.10122714,0.39924386,-0.07094061,0.14941375,0.5166307,0.33572534,-0.10721947,-0.09844019,0.28181392,-0.23802395,-0.44472626,-0.3193597,-0.016933745,834.4689,803.8461,801.8315,811.50183,818.3516,-0.38427734375,0.12799072265625,0.9290771484375,0.25421142578125,-1.68975830078125,-0.485992431640625,1,1.0,1.0,1.0,1.0,20.00
2024-09-29 18:14:52.028,0.79568136,0.0077712755,0.63807964,0.43865195,0.30973944,-0.15090801,-0.12738085,0.10122714,0.39924386,-0.07094061,0.14941375,0.5166307,0.33572534,-0.10721947,-0.09844019,0.28181392,-0.23802395,-0.44472626,-0.3193597,-0.016933745,832.0513,801.4286,799.41394,810.696,860.65936,-0.38427734375,0.12799072265625,0.9290771484375,0.25421142578125,-1.68975830078125,-0.485992431640625,1,1.0,1.0,1.0,1.0,20.00
2024-09-29 18:14:52.028,0.79568136,0.0077712755,0.63807964,0.43865195,0.30973944,-0.15090801,-0.12738085,0.10122714,0.39924386,-0.07094061,0.14941375,0.5166307,0.33572534,-0.10721947,-0.09844019,0.28181392,-0.23802395,-0.44472626,-0.3193597,-0.016933745,827.619,801.8315,800.6227,814.3223,969.85345,-0.38427734375,0.12799072265625,0.9290771484375,0.25421142578125,-1.68975830078125,-0.485992431640625,1,1.0,1.0,1.0,1.0,20.00
2024-09-29 18:14:52.029,0.79568136,0.0077712755,0.63807964,0.43865195,0.30973944,-0.15090801,-0.12738085,0.10122714,0.39924386,-0.07094061,0.14941375,0.5166307,0.33572534,-0.10721947,-0.09844019,0.28181392,-0.23802395,-0.44472626,-0.3193597,-0.016933745,825.2015,801.8315,804.65204,821.978,1028.6813,-0.38427734375,0.12799072265625,0.9290771484375,0.25421142578125,-1.68975830078125,-0.485992431640625,1,1.0,1.0,1.0,1.0,20.00
2024-09-29 18:14:52.029,0.79568136,0.0077712755,0.63807964,0.43865195,0.30973944,-0.15090801,-0.12738085,0.10122714,0.39924386,-0.07094061,0.14941375,0.5166307,0.33572534,-0.10721947,-0.09844019,0.28181392,-0.23802395,-0.44472626,-0.3193597,-0.016933745,828.022,799.41394,802.23444,819.9634,875.9707,-0.38427734375,0.12799072265625,0.9290771484375,0.25421142578125,-1.68975830078125,-0.485992431640625,1,1.0,1.0,1.0,1.0,20.00
2024-09-29 18:14:52.030,0.79568136,0.0077712755,0.63807964,0.43865195,0.30973944,-0.15090801,-0.12738085,0.10122714,0.39924386,-0.07094061,0.14941375,0.5166307,0.33572534,-0.10721947,-0.09844019,0.28181392,-0.23802395,-0.44472626,-0.3193597,-0.016933745,823.1868,803.0403,801.02563,801.4286,822.7839,-0.38427734375,0.12799072265625,0.9290771484375,0.25421142578125,-1.68975830078125,-0.485992431640625,1,1.0,1.0,1.0,1.0,20.00
2024-09-29 18:14:52.031,0.79568136,0.0077712755,0.63807964,0.43865195,0.30973944,-0.15090801,-0.12738085,0.10122714,0.39924386,-0.07094061,0.14941375,0.5166307,0.33572534,-0.10721947,-0.09844019,0.28181392,-0.23802395,-0.44472626,-0.3193597,-0.016933745,819.5604,805.4579,808.68134,804.2491,915.05493,-0.38427734375,0.12799072265625,0.9290771484375,0.25421142578125,-1.68975830078125,-0.485992431640625,1,1.0,1.0,1.0,1.0,20.00
2024-09-29 18:14:52.031,0.7925337,-9.870654E-5,0.6373729,0.4385968,0.33988217,-0.15686701,-0.13527593,0.1401629,0.46073234,-0.0650523,0.14941375,0.5130477,0.35917404,-0.12921734,-0.10343761,0.31433284,-0.22926596,-0.4491512,-0.31839117,-0.016553437,822.381,804.65204,807.8755,809.0842,994.43225,-0.38427734375,0.12799072265625,0.9290771484375,0.25421142578125,-1.68975830078125,-0.485992431640625,1,1.0,1.0,1.0,1.0,20.00
2024-09-29 18:14:52.036,0.7925337,-9.870654E-5,0.6373729,0.4385968,0.33988217,-0.15686701,-0.13527593,0.1401629,0.46073234,-0.0650523,0.14941375,0.5130477,0.35917404,-0.12921734,-0.10343761,0.31433284,-0.22926596,-0.4491512,-0.31839117,-0.016553437,824.3956,799.011,804.2491,799.81683,807.0696,-0.38427734375,0.12799072265625,0.9290771484375,0.25421142578125,-1.68975830078125,-0.485992431640625,1,1.0,1.0,1.0,1.0,20.00
2024-09-29 18:14:52.036,0.7925337,-9.870654E-5,0.6373729,0.4385968,0.33988217,-0.15686701,-0.13527593,0.1401629,0.46073234,-0.0650523,0.14941375,0.5130477,0.35917404,-0.12921734,-0.10343761,0.31433284,-0.22926596,-0.4491512,-0.31839117,-0.016553437,825.6044,797.8022,801.02563,802.23444,753.8828,-0.38427734375,0.12799072265625,0.9290771484375,0.25421142578125,-1.68975830078125,-0.485992431640625,1,1.0,1.0,1.0,1.0,20.00
2024-09-29 18:14:52.037,0.7925337,-9.870654E-5,0.6373729,0.4385968,0.33988217,-0.15686701,-0.13527593,0.1401629,0.46073234,-0.0650523,0.14941375,0.5130477,0.35917404,-0.12921734,-0.10343761,0.31433284,-0.22926596,-0.4491512,-0.31839117,-0.016553437,826.8132,800.6227,799.81683,817.5458,963.4066,-0.38427734375,0.12799072265625,0.9290771484375,0.25421142578125,-1.68975830078125,-0.485992431640625,1,1.0,1.0,1.0,1.0,20.00
2024-09-29 18:14:52.037,0.7925337,-9.870654E-5,0.6373729,0.4385968,0.33988217,-0.15686701,-0.13527593,0.1401629,0.46073234,-0.0650523,0.14941375,0.5130477,0.35917404,-0.12921734,-0.10343761,0.31433284,-0.22926596,-0.4491512,-0.31839117,-0.016553437,833.2601,803.44324,804.2491,823.5897,999.67035,-0.38427734375,0.12799072265625,0.9290771484375,0.25421142578125,-1.68975830078125,-0.485992431640625,1,1.0,1.0,1.0,1.0,20.00
2024-09-29 18:14:52.038,0.7925337,-9.870654E-5,0.6373729,0.4385968,0.33988217,-0.15686701,-0.13527593,0.1401629,0.46073234,-0.0650523,0.14941375,0.5130477,0.35917404,-0.12921734,-0.10343761,0.31433284,-0.22926596,-0.4491512,-0.31839117,-0.016553437,833.663,801.8315,805.05493,813.5165,753.0769,-0.38427734375,0.12799072265625,0.9290771484375,0.25421142578125,-1.68975830078125,-0.485992431640625,1,1.0,1.0,1.0,1.0,20.00
2024-09-29 18:14:52.039,0.7925337,-9.870654E-5,0.6373729,0.4385968,0.33988217,-0.15686701,-0.13527593,0.1401629,0.46073234,-0.0650523,0.14941375,0.5130477,0.35917404,-0.12921734,-0.10343761,0.31433284,-0.22926596,-0.4491512,-0.31839117,-0.016553437,828.4249,801.4286,804.2491,808.68134,772.8205,-0.38427734375,0.12799072265625,0.9290771484375,0.25421142578125,-1.68975830078125,-0.485992431640625,1,1.0,1.0,1.0,1.0,20.00
2024-09-29 18:14:52.039,0.7925337,-9.870654E-5,0.6373729,0.4385968,0.33988217,-0.15686701,-0.13527593,0.1401629,0.46073234,-0.0650523,0.14941375,0.5130477,0.35917404,-0.12921734,-0.10343761,0.31433284,-0.22926596,-0.4491512,-0.31839117,-0.016553437,833.663,806.26373,803.44324,808.68134,1087.1062,-0.38427734375,0.12799072265625,0.9290771484375,0.25421142578125,-1.68975830078125,-0.485992431640625,1,1.0,1.0,1.0,1.0,20.00
2024-09-29 18:14:52.040,0.7925337,-9.870654E-5,0.6373729,0.4385968,0.33988217,-0.15686701,-0.13527593,0.1401629,0.46073234,-0.0650523,0.14941375,0.5130477,0.35917404,-0.12921734,-0.10343761,0.31433284,-0.22926596,-0.4491512,-0.31839117,-0.016553437,835.6777,809.0842,801.4286,809.89014,1098.3883,-0.38427734375,0.12799072265625,0.9290771484375,0.25421142578125,-1.68975830078125,-0.485992431640625,1,1.0,1.0,1.0,1.0,20.00
2024-09-29 18:14:52.040,0.7925337,-9.870654E-5,0.6373729,0.4385968,0.33988217,-0.15686701,-0.13527593,0.1401629,0.46073234,-0.0650523,0.14941375,0.5130477,0.35917404,-0.12921734,-0.10343761,0.31433284,-0.22926596,-0.4491512,-0.31839117,-0.016553437,828.022,808.2784,802.6374,808.2784,832.4542,-0.38427734375,0.12799072265625,0.9290771484375,0.25421142578125,-1.68975830078125,-0.485992431640625,1,1.0,1.0,1.0,1.0,20.00
2024-09-29 18:14:52.041,0.7925337,-9.870654E-5,0.6373729,0.4385968,0.33988217,-0.15686701,-0.13527593,0.1401629,0.46073234,-0.0650523,0.14941375,0.5130477,0.35917404,-0.12921734,-0.10343761,0.31433284,-0.22926596,-0.4491512,-0.31839117,-0.016553437,827.2161,804.2491,801.02563,800.2198,767.1795,-0.38427734375,0.12799072265625,0.9290771484375,0.25421142578125,-1.68975830078125,-0.485992431640625,1,1.0,1.0,1.0,1.0,20.00
2024-09-29 18:14:52.041,0.7925337,-9.870654E-5,0.6373729,0.4385968,0.33988217,-0.15686701,-0.13527593,0.1401629,0.46073234,-0.0650523,0.14941375,0.5130477,0.35917404,-0.12921734,-0.10343761,0.31433284,-0.22926596,-0.4491512,-0.31839117,-0.016553437,832.8571,800.6227,796.99634,806.6667,815.12823,-0.38427734375,0.12799072265625,0.9290771484375,0.25421142578125,-1.68975830078125,-0.485992431640625,1,1.0,1.0,1.0,1.0,20.00
2024-09-29 18:14:52.042,0.7925337,-9.870654E-5,0.6373729,0.4385968,0.33988217,-0.15686701,-0.13527593,0.1401629,0.46073234,-0.0650523,0.14941375,0.5130477,0.35917404,-0.12921734,-0.10343761,0.31433284,-0.22926596,-0.4491512,-0.31839117,-0.016553437,829.6337,797.3993,801.4286,806.26373,816.337,-0.38427734375,0.12799072265625,0.9290771484375,0.25421142578125,-1.68975830078125,-0.485992431640625,1,1.0,1.0,1.0,1.0,20.00
2024-09-29 18:14:52.043,0.7925337,-9.870654E-5,0.6373729,0.4385968,0.33988217,-0.15686701,-0.13527593,0.1401629,0.46073234,-0.0650523,0.14941375,0.5130477,0.35917404,-0.12921734,-0.10343761,0.31433284,-0.22926596,-0.4491512,-0.31839117,-0.016553437,821.1722,793.36993,803.0403,793.7729,682.1612,-0.38873291015625,0.12457275390625,0.91693115234375,0.485992431640625,-1.016845703125,-0.740203857421875,1,1.0,1.0,1.0,1.0,20.00
2024-09-29 18:14:52.043,0.7925337,-9.870654E-5,0.6373729,0.4385968,0.33988217,-0.15686701,-0.13527593,0.1401629,0.46073234,-0.0650523,0.14941375,0.5130477,0.35917404,-0.12921734,-0.10343761,0.31433284,-0.22926596,-0.4491512,-0.31839117,-0.016553437,820.3663,796.5934,803.44324,802.6374,649.92676,-0.38873291015625,0.12457275390625,0.91693115234375,0.485992431640625,-1.016845703125,-0.740203857421875,1,1.0,1.0,1.0,1.0,20.00
2024-09-29 18:14:52.044,0.7925337,-9.870654E-5,0.6373729,0.4385968,0.33988217,-0.15686701,-0.13527593,0.1401629,0.46073234,-0.0650523,0.14941375,0.5130477,0.35917404,-0.12921734,-0.10343761,0.31433284,-0.22926596,-0.4491512,-0.31839117,-0.016553437,825.6044,799.41394,803.8461,810.293,846.9597,-0.38873291015625,0.12457275390625,0.91693115234375,0.485992431640625,-1.016845703125,-0.740203857421875,1,1.0,1.0,1.0,1.0,20.00
2024-09-29 18:14:52.044,0.7925337,-9.870654E-5,0.6373729,0.4385968,0.33988217,-0.15686701,-0.13527593,0.1401629,0.46073234,-0.0650523,0.14941375,0.5130477,0.35917404,-0.12921734,-0.10343761,0.31433284,-0.22926596,-0.4491512,-0.31839117,-0.016553437,832.4542,801.8315,802.6374,805.8608,906.5934,-0.38873291015625,0.12457275390625,0.91693115234375,0.485992431640625,-1.016845703125,-0.740203857421875,1,1.0,1.0,1.0,1.0,20.00
2024-09-29 18:14:52.045,0.7925337,-9.870654E-5,0.6373729,0.4385968,0.33988217,-0.15686701,-0.13527593,0.1401629,0.46073234,-0.0650523,0.14941375,0.5130477,0.35917404,-0.12921734,-0.10343761,0.31433284,-0.22926596,-0.4491512,-0.31839117,-0.016553437,836.8865,805.05493,802.23444,806.6667,773.6264,-0.38873291015625,0.12457275390625,0.91693115234375,0.485992431640625,-1.016845703125,-0.740203857421875,1,1.0,1.0,1.0,1.0,20.00
2024-09-29 18:14:52.045,0.7925337,-9.870654E-5,0.6373729,0.4385968,0.33988217,-0.15686701,-0.13527593,0.1401629,0.46073234,-0.0650523,0.14941375,0.5130477,0.35917404,-0.12921734,-0.10343761,0.31433284,-0.22926596,-0.4491512,-0.31839117,-0.016553437,834.0659,806.26373,800.6227,803.0403,926.337,-0.38873291015625,0.12457275390625,0.91693115234375,0.485992431640625,-1.016845703125,-0.740203857421875,1,1.0,1.0,1.0,1.0,20.00
2024-09-29 18:14:52.046,0.7925337,-9.870654E-5,0.6373729,0.4385968,0.33988217,-0.15686701,-0.13527593,0.1401629,0.46073234,-0.0650523,0.14941375,0.5130477,0.35917404,-0.12921734,-0.10343761,0.31433284,-0.22926596,-0.4491512,-0.31839117,-0.016553437,833.663,805.4579,803.0403,808.2784,1180.1831,-0.38873291015625,0.12457275390625,0.91693115234375,0.485992431640625,-1.016845703125,-0.740203857421875,1,1.0,1.0,1.0,1.0,20.00
2024-09-29 18:14:52.046,0.7925337,-9.870654E-5,0.6373729,0.4385968,0.33988217,-0.15686701,-0.13527593,0.1401629,0.46073234,-0.0650523,0.14941375,0.5130477,0.35917404,-0.12921734,-0.10343761,0.31433284,-0.22926596,-0.4491512,-0.31839117,-0.016553437,829.6337,802.6374,805.4579,817.9487,1074.2124,-0.38873291015625,0.12457275390625,0.91693115234375,0.485992431640625,-1.016845703125,-0.740203857421875,1,1.0,1.0,1.0,1.0,20.00
2024-09-29 18:14:52.047,0.7925337,-9.870654E-5,0.6373729,0.4385968,0.33988217,-0.15686701,-0.13527593,0.1401629,0.46073234,-0.0650523,0.14941375,0.5130477,0.35917404,-0.12921734,-0.10343761,0.31433284,-0.22926596,-0.4491512,-0.31839117,-0.016553437,821.978,802.6374,804.65204,815.5311,849.3773,-0.38873291015625,0.12457275390625,0.91693115234375,0.485992431640625,-1.016845703125,-0.740203857421875,1,1.0,1.0,1.0,1.0,20.00
2024-09-29 18:14:52.047,0.7925337,-9.870654E-5,0.6373729,0.4385968,0.33988217,-0.15686701,-0.13527593,0.1401629,0.46073234,-0.0650523,0.14941375,0.5130477,0.35917404,-0.12921734,-0.10343761,0.31433284,-0.22926596,-0.4491512,-0.31839117,-0.016553437,830.4396,804.65204,807.47253,813.91943,748.6447,-0.38873291015625,0.12457275390625,0.91693115234375,0.485992431640625,-1.016845703125,-0.740203857421875,1,1.0,1.0,1.0,1.0,20.00
2024-09-29 18:14:52.048,0.7925337,-9.870654E-5,0.6373729,0.4385968,0.33988217,-0.15686701,-0.13527593,0.1401629,0.46073234,-0.0650523,0.14941375,0.5130477,0.35917404,-0.12921734,-0.10343761,0.31433284,-0.22926596,-0.4491512,-0.31839117,-0.016553437,832.8571,806.26373,809.4872,821.5751,924.7253,-0.38873291015625,0.12457275390625,0.91693115234375,0.485992431640625,-1.016845703125,-0.740203857421875,1,1.0,1.0,1.0,1.0,20.00
2024-09-29 18:14:52.049,0.7925337,-9.870654E-5,0.6373729,0.4385968,0.33988217,-0.15686701,-0.13527593,0.1401629,0.46073234,-0.0650523,0.14941375,0.5130477,0.35917404,-0.12921734,-0.10343761,0.31433284,-0.22926596,-0.4491512,-0.31839117,-0.016553437,830.84247,807.47253,806.26373,823.5897,935.2015,-0.38873291015625,0.12457275390625,0.91693115234375,0.485992431640625,-1.016845703125,-0.740203857421875,1,1.0,1.0,1.0,1.0,20.00
2024-09-29 18:14:52.049,0.7925337,-9.870654E-5,0.6373729,0.4385968,0.33988217,-0.15686701,-0.13527593,0.1401629,0.46073234,-0.0650523,0.14941375,0.5130477,0.35917404,-0.12921734,-0.10343761,0.31433284,-0.22926596,-0.4491512,-0.31839117,-0.016553437,838.0952,807.47253,806.26373,818.7546,798.60803,-0.38189697265625,0.1265869140625,0.923095703125,0.13458251953125,-1.293487548828125,-0.179443359375,1,1.0,1.0,1.0,1.0,20.00
2024-09-29 18:14:52.050,0.80399776,-0.009930973,0.6352274,0.428352,0.3673625,-0.17122665,-0.14926404,0.16971189,0.4572876,-0.053218104,0.14941375,0.50339055,0.3789541,-0.15653752,-0.10813148,0.34180325,-0.22738916,-0.45822087,-0.32285565,-0.022657385,842.1245,807.47253,806.26373,814.3223,789.7436,-0.38189697265625,0.1265869140625,0.923095703125,0.13458251953125,-1.293487548828125,-0.179443359375,1,1.0,1.0,1.0,1.0,20.00
2024-09-29 18:14:52.054,0.80399776,-0.009930973,0.6352274,0.428352,0.3673625,-0.17122665,-0.14926404,0.16971189,0.4572876,-0.053218104,0.14941375,0.50339055,0.3789541,-0.15653752,-0.10813148,0.34180325,-0.22738916,-0.45822087,-0.32285565,-0.022657385,834.4689,805.8608,804.2491,809.0842,949.304,-0.38189697265625,0.1265869140625,0.923095703125,0.13458251953125,-1.293487548828125,-0.179443359375,1,1.0,1.0,1.0,1.0,20.00
2024-09-29 18:14:52.055,0.80399776,-0.009930973,0.6352274,0.428352,0.3673625,-0.17122665,-0.14926404,0.16971189,0.4572876,-0.053218104,0.14941375,0.50339055,0.3789541,-0.15653752,-0.10813148,0.34180325,-0.22738916,-0.45822087,-0.32285565,-0.022657385,826.0073,804.65204,803.0403,807.8755,914.2491,-0.38189697265625,0.1265869140625,0.923095703125,0.13458251953125,-1.293487548828125,-0.179443359375,1,1.0,1.0,1.0,1.0,20.00
2024-09-29 18:14:52.055,0.80399776,-0.009930973,0.6352274,0.428352,0.3673625,-0.17122665,-0.14926404,0.16971189,0.4572876,-0.053218104,0.14941375,0.50339055,0.3789541,-0.15653752,-0.10813148,0.34180325,-0.22738916,-0.45822087,-0.32285565,-0.022657385,829.2308,806.26373,801.02563,804.2491,830.84247,-0.38189697265625,0.1265869140625,0.923095703125,0.13458251953125,-1.293487548828125,-0.179443359375,1,1.0,1.0,1.0,1.0,20.00
2024-09-29 18:14:52.056,0.80399776,-0.009930973,0.6352274,0.428352,0.3673625,-0.17122665,-0.14926404,0.16971189,0.4572876,-0.053218104,0.14941375,0.50339055,0.3789541,-0.15653752,-0.10813148,0.34180325,-0.22738916,-0.45822087,-0.32285565,-0.022657385,823.1868,805.8608,792.5641,799.81683,871.53845,-0.38189697265625,0.1265869140625,0.923095703125,0.13458251953125,-1.293487548828125,-0.179443359375,1,1.0,1.0,1.0,1.0,20.00
2024-09-29 18:14:52.056,0.80399776,-0.009930973,0.6352274,0.428352,0.3673625,-0.17122665,-0.14926404,0.16971189,0.4572876,-0.053218104,0.14941375,0.50339055,0.3789541,-0.15653752,-0.10813148,0.34180325,-0.22738916,-0.45822087,-0.32285565,-0.022657385,819.5604,802.23444,791.75824,799.81683,1000.87915,-0.38189697265625,0.1265869140625,0.923095703125,0.13458251953125,-1.293487548828125,-0.179443359375,1,1.0,1.0,1.0,1.0,20.00
2024-09-29 18:14:52.057,0.80399776,-0.009930973,0.6352274,0.428352,0.3673625,-0.17122665,-0.14926404,0.16971189,0.4572876,-0.053218104,0.14941375,0.50339055,0.3789541,-0.15653752,-0.10813148,0.34180325,-0.22738916,-0.45822087,-0.32285565,-0.022657385,815.9341,796.5934,800.2198,800.6227,944.0659,-0.38189697265625,0.1265869140625,0.923095703125,0.13458251953125,-1.293487548828125,-0.179443359375,1,1.0,1.0,1.0,1.0,20.00
2024-09-29 18:14:52.057,0.80399776,-0.009930973,0.6352274,0.428352,0.3673625,-0.17122665,-0.14926404,0.16971189,0.4572876,-0.053218104,0.14941375,0.50339055,0.3789541,-0.15653752,-0.10813148,0.34180325,-0.22738916,-0.45822087,-0.32285565,-0.022657385,808.68134,798.20514,801.4286,801.02563,815.9341,-0.38189697265625,0.1265869140625,0.923095703125,0.13458251953125,-1.293487548828125,-0.179443359375,1,1.0,1.0,1.0,1.0,20.00
2024-09-29 18:14:52.058,0.80399776,-0.009930973,0.6352274,0.428352,0.3673625,-0.17122665,-0.14926404,0.16971189,0.4572876,-0.053218104,0.14941375,0.50339055,0.3789541,-0.15653752,-0.10813148,0.34180325,-0.22738916,-0.45822087,-0.32285565,-0.022657385,817.1429,800.2198,801.02563,802.6374,818.3516,-0.38189697265625,0.1265869140625,0.923095703125,0.13458251953125,-1.293487548828125,-0.179443359375,1,1.0,1.0,1.0,1.0,20.00
2024-09-29 18:14:52.058,0.80399776,-0.009930973,0.6352274,0.428352,0.3673625,-0.17122665,-0.14926404,0.16971189,0.4572876,-0.053218104,0.14941375,0.50339055,0.3789541,-0.15653752,-0.10813148,0.34180325,-0.22738916,-0.45822087,-0.32285565,-0.022657385,816.7399,798.60803,799.011,799.41394,871.13556,-0.38189697265625,0.1265869140625,0.923095703125,0.13458251953125,-1.293487548828125,-0.179443359375,1,1.0,1.0,1.0,1.0,20.00
2024-09-29 18:14:52.059,0.80399776,-0.009930973,0.6352274,0.428352,0.3673625,-0.17122665,-0.14926404,0.16971189,0.4572876,-0.053218104,0.14941375,0.50339055,0.3789541,-0.15653752,-0.10813148,0.34180325,-0.22738916,-0.45822087,-0.32285565,-0.022657385,818.7546,800.6227,798.20514,802.6374,774.83514,-0.38189697265625,0.1265869140625,0.923095703125,0.13458251953125,-1.293487548828125,-0.179443359375,1,1.0,1.0,1.0,1.0,20.00
2024-09-29 18:14:52.108,0.80399776,-0.009930973,0.6352274,0.428352,0.3673625,-0.17122665,-0.14926404,0.16971189,0.4572876,-0.053218104,0.14941375,0.50339055,0.3789541,-0.15653752,-0.10813148,0.34180325,-0.22738916,-0.45822087,-0.32285565,-0.022657385,823.9927,803.0403,797.8022,811.0989,747.4359,-0.38702392578125,0.12640380859375,0.92431640625,-0.43365478515625,-0.186920166015625,0.082244873046875,1,1.0,1.0,1.0,1.0,20.00
2024-09-29 18:14:52.109,0.80399776,-0.009930973,0.6352274,0.428352,0.3673625,-0.17122665,-0.14926404,0.16971189,0.4572876,-0.053218104,0.14941375,0.50339055,0.3789541,-0.15653752,-0.10813148,0.34180325,-0.22738916,-0.45822087,-0.32285565,-0.022657385,815.9341,800.6227,799.011,815.12823,895.31134,-0.38702392578125,0.12640380859375,0.92431640625,-0.43365478515625,-0.186920166015625,0.082244873046875,1,1.0,1.0,1.0,1.0,20.00
2024-09-29 18:14:52.110,0.80399776,-0.009930973,0.6352274,0.428352,0.3673625,-0.17122665,-0.14926404,0.16971189,0.4572876,-0.053218104,0.14941375,0.50339055,0.3789541,-0.15653752,-0.10813148,0.34180325,-0.22738916,-0.45822087,-0.32285565,-0.022657385,813.5165,799.011,796.1905,807.8755,776.8498,-0.38702392578125,0.12640380859375,0.92431640625,-0.43365478515625,-0.186920166015625,0.082244873046875,1,1.0,1.0,1.0,1.0,20.00
2024-09-29 18:14:52.110,0.80399776,-0.009930973,0.6352274,0.428352,0.3673625,-0.17122665,-0.14926404,0.16971189,0.4572876,-0.053218104,0.14941375,0.50339055,0.3789541,-0.15653752,-0.10813148,0.34180325,-0.22738916,-0.45822087,-0.32285565,-0.022657385,818.7546,805.05493,790.14655,798.20514,612.0513,-0.38702392578125,0.12640380859375,0.92431640625,-0.43365478515625,-0.186920166015625,0.082244873046875,1,1.0,1.0,1.0,1.0,20.00
2024-09-29 18:14:52.111,0.80399776,-0.009930973,0.6352274,0.428352,0.3673625,-0.17122665,-0.14926404,0.16971189,0.4572876,-0.053218104,0.14941375,0.50339055,0.3789541,-0.15653752,-0.10813148,0.34180325,-0.22738916,-0.45822087,-0.32285565,-0.022657385,813.1135,804.65204,795.38464,808.68134,809.4872,-0.38702392578125,0.12640380859375,0.92431640625,-0.43365478515625,-0.186920166015625,0.082244873046875,1,1.0,1.0,1.0,1.0,20.00
2024-09-29 18:14:52.112,0.80399776,-0.009930973,0.6352274,0.428352,0.3673625,-0.17122665,-0.14926404,0.16971189,0.4572876,-0.053218104,0.14941375,0.50339055,0.3789541,-0.15653752,-0.10813148,0.34180325,-0.22738916,-0.45822087,-0.32285565,-0.022657385,806.26373,796.1905,798.60803,812.3077,1109.2675,-0.38702392578125,0.12640380859375,0.92431640625,-0.43365478515625,-0.186920166015625,0.082244873046875,1,1.0,1.0,1.0,1.0,20.00
2024-09-29 18:14:52.112,0.80399776,-0.009930973,0.6352274,0.428352,0.3673625,-0.17122665,-0.14926404,0.16971189,0.4572876,-0.053218104,0.14941375,0.50339055,0.3789541,-0.15653752,-0.10813148,0.34180325,-0.22738916,-0.45822087,-0.32285565,-0.022657385,805.05493,796.5934,801.4286,800.6227,1023.8461,-0.38702392578125,0.12640380859375,0.92431640625,-0.43365478515625,-0.186920166015625,0.082244873046875,1,1.0,1.0,1.0,1.0,20.00
2024-09-29 18:14:52.113,0.80399776,-0.009930973,0.6352274,0.428352,0.3673625,-0.17122665,-0.14926404,0.16971189,0.4572876,-0.053218104,0.14941375,0.50339055,0.3789541,-0.15653752,-0.10813148,0.34180325,-0.22738916,-0.45822087,-0.32285565,-0.022657385,800.6227,799.41394,805.4579,792.96704,790.14655,-0.38702392578125,0.12640380859375,0.92431640625,-0.43365478515625,-0.186920166015625,0.082244873046875,1,1.0,1.0,1.0,1.0,20.00
2024-09-29 18:14:52.113,0.80399776,-0.009930973,0.6352274,0.428352,0.3673625,-0.17122665,-0.14926404,0.16971189,0.4572876,-0.053218104,0.14941375,0.50339055,0.3789541,-0.15653752,-0.10813148,0.34180325,-0.22738916,-0.45822087,-0.32285565,-0.022657385,796.99634,798.20514,803.0403,793.36993,855.82416,-0.38702392578125,0.12640380859375,0.92431640625,-0.43365478515625,-0.186920166015625,0.082244873046875,1,1.0,1.0,1.0,1.0,20.00
2024-09-29 18:14:52.114,0.80399776,-0.009930973,0.6352274,0.428352,0.3673625,-0.17122665,-0.14926404,0.16971189,0.4572876,-0.053218104,0.14941375,0.50339055,0.3789541,-0.15653752,-0.10813148,0.34180325,-0.22738916,-0.45822087,-0.32285565,-0.022657385,801.8315,797.3993,801.02563,802.6374,955.34796,-0.38702392578125,0.12640380859375,0.92431640625,-0.43365478515625,-0.186920166015625,0.082244873046875,1,1.0,1.0,1.0,1.0,20.00
2024-09-29 18:14:52.114,0.80399776,-0.009930973,0.6352274,0.428352,0.3673625,-0.17122665,-0.14926404,0.16971189,0.4572876,-0.053218104,0.14941375,0.50339055,0.3789541,-0.15653752,-0.10813148,0.34180325,-0.22738916,-0.45822087,-0.32285565,-0.022657385,804.65204,796.99634,799.81683,800.6227,855.42126,-0.38702392578125,0.12640380859375,0.92431640625,-0.43365478515625,-0.186920166015625,0.082244873046875,1,1.0,1.0,1.0,1.0,20.00
2024-09-29 18:14:52.115,0.80399776,-0.009930973,0.6352274,0.428352,0.3673625,-0.17122665,-0.14926404,0.16971189,0.4572876,-0.053218104,0.14941375,0.50339055,0.3789541,-0.15653752,-0.10813148,0.34180325,-0.22738916,-0.45822087,-0.32285565,-0.022657385,806.6667,796.99634,799.41394,800.6227,767.5824,-0.38702392578125,0.12640380859375,0.92431640625,-0.43365478515625,-0.186920166015625,0.082244873046875,1,1.0,1.0,1.0,1.0,20.00
2024-09-29 18:14:52.116,0.80399776,-0.009930973,0.6352274,0.428352,0.3673625,-0.17122665,-0.14926404,0.16971189,0.4572876,-0.053218104,0.14941375,0.50339055,0.3789541,-0.15653752,-0.10813148,0.34180325,-0.22738916,-0.45822087,-0.32285565,-0.022657385,811.9048,795.78754,797.8022,808.2784,878.7912,-0.395751953125,0.12005615234375,0.9241943359375,-0.859832763671875,-1.016845703125,-0.3887939453125,1,1.0,1.0,1.0,1.0,20.00
2024-09-29 18:14:52.116,0.80399776,-0.009930973,0.6352274,0.428352,0.3673625,-0.17122665,-0.14926404,0.16971189,0.4572876,-0.053218104,0.14941375,0.50339055,0.3789541,-0.15653752,-0.10813148,0.34180325,-0.22738916,-0.45822087,-0.32285565,-0.022657385,815.9341,794.9817,798.60803,813.91943,1298.2417,-0.395751953125,0.12005615234375,0.9241943359375,-0.859832763671875,-1.016845703125,-0.3887939453125,1,1.0,1.0,1.0,1.0,20.00
2024-09-29 18:14:52.117,0.80399776,-0.009930973,0.6352274,0.428352,0.3673625,-0.17122665,-0.14926404,0.16971189,0.4572876,-0.053218104,0.14941375,0.50339055,0.3789541,-0.15653752,-0.10813148,0.34180325,-0.22738916,-0.45822087,-0.32285565,-0.022657385,815.12823,796.99634,801.02563,811.50183,1479.5604,-0.395751953125,0.12005615234375,0.9241943359375,-0.859832763671875,-1.016845703125,-0.3887939453125,1,1.0,1.0,1.0,1.0,20.00
2024-09-29 18:14:52.118,0.81082016,-0.023359882,0.63646495,0.40327895,0.38549325,-0.19892438,-0.16857708,0.17773275,0.42889345,-0.048282027,0.13615172,0.48998117,0.3995453,-0.18500848,-0.110687755,0.3603422,-0.23321445,-0.46652165,-0.33560064,-0.036404375,805.8608,800.2198,798.20514,802.6374,1273.663,-0.395751953125,0.12005615234375,0.9241943359375,-0.859832763671875,-1.016845703125,-0.3887939453125,1,1.0,1.0,1.0,1.0,20.00
2024-09-29 18:14:52.123,0.81082016,-0.023359882,0.63646495,0.40327895,0.38549325,-0.19892438,-0.16857708,0.17773275,0.42889345,-0.048282027,0.13615172,0.48998117,0.3995453,-0.18500848,-0.110687755,0.3603422,-0.23321445,-0.46652165,-0.33560064,-0.036404375,798.20514,799.81683,800.6227,806.26373,1056.4835,-0.395751953125,0.12005615234375,0.9241943359375,-0.859832763671875,-1.016845703125,-0.3887939453125,1,1.0,1.0,1.0,1.0,20.00
2024-09-29 18:14:52.123,0.81082016,-0.023359882,0.63646495,0.40327895,0.38549325,-0.19892438,-0.16857708,0.17773275,0.42889345,-0.048282027,0.13615172,0.48998117,0.3995453,-0.18500848,-0.110687755,0.3603422,-0.23321445,-0.46652165,-0.33560064,-0.036404375,804.65204,797.8022,802.23444,812.3077,1264.3956,-0.395751953125,0.12005615234375,0.9241943359375,-0.859832763671875,-1.016845703125,-0.3887939453125,1,1.0,1.0,1.0,1.0,20.00
2024-09-29 18:14:52.124,0.81082016,-0.023359882,0.63646495,0.40327895,0.38549325,-0.19892438,-0.16857708,0.17773275,0.42889345,-0.048282027,0.13615172,0.48998117,0.3995453,-0.18500848,-0.110687755,0.3603422,-0.23321445,-0.46652165,-0.33560064,-0.036404375,810.293,801.02563,804.65204,799.81683,1138.6813,-0.395751953125,0.12005615234375,0.9241943359375,-0.859832763671875,-1.016845703125,-0.3887939453125,1,1.0,1.0,1.0,1.0,20.00
2024-09-29 18:14:52.124,0.81082016,-0.023359882,0.63646495,0.40327895,0.38549325,-0.19892438,-0.16857708,0.17773275,0.42889345,-0.048282027,0.13615172,0.48998117,0.3995453,-0.18500848,-0.110687755,0.3603422,-0.23321445,-0.46652165,-0.33560064,-0.036404375,810.293,806.6667,805.8608,790.54944,767.1795,-0.395751953125,0.12005615234375,0.9241943359375,-0.859832763671875,-1.016845703125,-0.3887939453125,1,1.0,1.0,1.0,1.0,20.00
2024-09-29 18:14:52.125,0.81082016,-0.023359882,0.63646495,0.40327895,0.38549325,-0.19892438,-0.16857708,0.17773275,0.42889345,-0.048282027,0.13615172,0.48998117,0.3995453,-0.18500848,-0.110687755,0.3603422,-0.23321445,-0.46652165,-0.33560064,-0.036404375,812.71063,806.26373,803.44324,796.5934,712.7839,-0.395751953125,0.12005615234375,0.9241943359375,-0.859832763671875,-1.016845703125,-0.3887939453125,1,1.0,1.0,1.0,1.0,20.00
2024-09-29 18:14:52.125,0.81082016,-0.023359882,0.63646495,0.40327895,0.38549325,-0.19892438,-0.16857708,0.17773275,0.42889345,-0.048282027,0.13615172,0.48998117,0.3995453,-0.18500848,-0.110687755,0.3603422,-0.23321445,-0.46652165,-0.33560064,-0.036404375,813.5165,800.2198,803.44324,812.3077,1097.9854,-0.395751953125,0.12005615234375,0.9241943359375,-0.859832763671875,-1.016845703125,-0.3887939453125,1,1.0,1.0,1.0,1.0,20.00
2024-09-29 18:14:52.126,0.81082016,-0.023359882,0.63646495,0.40327895,0.38549325,-0.19892438,-0.16857708,0.17773275,0.42889345,-0.048282027,0.13615172,0.48998117,0.3995453,-0.18500848,-0.110687755,0.3603422,-0.23321445,-0.46652165,-0.33560064,-0.036404375,814.7253,798.20514,801.4286,814.7253,1276.0806,-0.395751953125,0.12005615234375,0.9241943359375,-0.859832763671875,-1.016845703125,-0.3887939453125,1,1.0,1.0,1.0,1.0,20.00
2024-09-29 18:14:52.127,0.81082016,-0.023359882,0.63646495,0.40327895,0.38549325,-0.19892438,-0.16857708,0.17773275,0.42889345,-0.048282027,0.13615172,0.48998117,0.3995453,-0.18500848,-0.110687755,0.3603422,-0.23321445,-0.46652165,-0.33560064,-0.036404375,812.3077,797.8022,800.2198,797.8022,879.59705,-0.395751953125,0.12005615234375,0.9241943359375,-0.859832763671875,-1.016845703125,-0.3887939453125,1,1.0,1.0,1.0,1.0,20.00
2024-09-29 18:14:52.149,0.81082016,-0.023359882,0.63646495,0.40327895,0.38549325,-0.19892438,-0.16857708,0.17773275,0.42889345,-0.048282027,0.13615172,0.48998117,0.3995453,-0.18500848,-0.110687755,0.3603422,-0.23321445,-0.46652165,-0.33560064,-0.036404375,812.71063,796.5934,798.20514,799.011,705.12823,-0.395751953125,0.12005615234375,0.9241943359375,-0.859832763671875,-1.016845703125,-0.3887939453125,1,1.0,1.0,1.0,1.0,20.00
2024-09-29 18:14:52.149,0.81082016,-0.023359882,0.63646495,0.40327895,0.38549325,-0.19892438,-0.16857708,0.17773275,0.42889345,-0.048282027,0.13615172,0.48998117,0.3995453,-0.18500848,-0.110687755,0.3603422,-0.23321445,-0.46652165,-0.33560064,-0.036404375,807.47253,794.17584,791.75824,807.0696,823.9927,-0.395751953125,0.12005615234375,0.9241943359375,-0.859832763671875,-1.016845703125,-0.3887939453125,1,1.0,1.0,1.0,1.0,20.00
2024-09-29 18:14:52.150,0.81082016,-0.023359882,0.63646495,0.40327895,0.38549325,-0.19892438,-0.16857708,0.17773275,0.42889345,-0.048282027,0.13615172,0.48998117,0.3995453,-0.18500848,-0.110687755,0.3603422,-0.23321445,-0.46652165,-0.33560064,-0.036404375,797.8022,792.5641,797.3993,803.8461,765.16486,-0.395751953125,0.12005615234375,0.9241943359375,-0.859832763671875,-1.016845703125,-0.3887939453125,1,1.0,1.0,1.0,1.0,20.00
2024-09-29 18:14:52.150,0.81082016,-0.023359882,0.63646495,0.40327895,0.38549325,-0.19892438,-0.16857708,0.17773275,0.42889345,-0.048282027,0.13615172,0.48998117,0.3995453,-0.18500848,-0.110687755,0.3603422,-0.23321445,-0.46652165,-0.33560064,-0.036404375,792.96704,794.9817,801.8315,799.81683,722.4542,-0.395751953125,0.12005615234375,0.9241943359375,-0.859832763671875,-1.016845703125,-0.3887939453125,1,1.0,1.0,1.0,1.0,20.00
2024-09-29 18:14:52.151,0.81082016,-0.023359882,0.63646495,0.40327895,0.38549325,-0.19892438,-0.16857708,0.17773275,0.42889345,-0.048282027,0.13615172,0.48998117,0.3995453,-0.18500848,-0.110687755,0.3603422,-0.23321445,-0.46652165,-0.33560064,-0.036404375,796.5934,794.57874,797.3993,802.6374,886.04395,-0.395751953125,0.12005615234375,0.9241943359375,-0.859832763671875,-1.016845703125,-0.3887939453125,1,1.0,1.0,1.0,1.0,20.00
2024-09-29 18:14:52.151,0.81082016,-0.023359882,0.63646495,0.40327895,0.38549325,-0.19892438,-0.16857708,0.17773275,0.42889345,-0.048282027,0.13615172,0.48998117,0.3995453,-0.18500848,-0.110687755,0.3603422,-0.23321445,-0.46652165,-0.33560064,-0.036404375,802.6374,792.5641,801.4286,802.6374,925.5311,-0.395751953125,0.12005615234375,0.9241943359375,-0.859832763671875,-1.016845703125,-0.3887939453125,1,1.0,1.0,1.0,1.0,20.00
2024-09-29 18:14:52.152,0.81082016,-0.023359882,0.63646495,0.40327895,0.38549325,-0.19892438,-0.16857708,0.17773275,0.42889345,-0.048282027,0.13615172,0.48998117,0.3995453,-0.18500848,-0.110687755,0.3603422,-0.23321445,-0.46652165,-0.33560064,-0.036404375,799.011,796.1905,802.23444,803.44324,790.54944,-0.395751953125,0.12005615234375,0.9241943359375,-0.859832763671875,-1.016845703125,-0.3887939453125,1,1.0,1.0,1.0,1.0,20.00
2024-09-29 18:14:52.152,0.81082016,-0.023359882,0.63646495,0.40327895,0.38549325,-0.19892438,-0.16857708,0.17773275,0.42889345,-0.048282027,0.13615172,0.48998117,0.3995453,-0.18500848,-0.110687755,0.3603422,-0.23321445,-0.46652165,-0.33560064,-0.036404375,801.4286,799.011,798.20514,809.89014,687.8022,-0.395751953125,0.12005615234375,0.9241943359375,-0.859832763671875,-1.016845703125,-0.3887939453125,1,1.0,1.0,1.0,1.0,20.00
2024-09-29 18:14:52.153,0.81082016,-0.023359882,0.63646495,0.40327895,0.38549325,-0.19892438,-0.16857708,0.17773275,0.42889345,-0.048282027,0.13615172,0.48998117,0.3995453,-0.18500848,-0.110687755,0.3603422,-0.23321445,-0.46652165,-0.33560064,-0.036404375,810.696,791.3553,804.2491,813.5165,823.1868,-0.395751953125,0.12005615234375,0.9241943359375,-0.859832763671875,-1.016845703125,-0.3887939453125,1,1.0,1.0,1.0,1.0,20.00
2024-09-29 18:14:52.153,0.81082016,-0.023359882,0.63646495,0.40327895,0.38549325,-0.19892438,-0.16857708,0.17773275,0.42889345,-0.048282027,0.13615172,0.48998117,0.3995453,-0.18500848,-0.110687755,0.3603422,-0.23321445,-0.46652165,-0.33560064,-0.036404375,813.1135,792.1612,806.26373,816.7399,794.9817,-0.395751953125,0.12005615234375,0.9241943359375,-0.859832763671875,-1.016845703125,-0.3887939453125,1,1.0,1.0,1.0,1.0,20.00
2024-09-29 18:14:52.154,0.81082016,-0.023359882,0.63646495,0.40327895,0.38549325,-0.19892438,-0.16857708,0.17773275,0.42889345,-0.048282027,0.13615172,0.48998117,0.3995453,-0.18500848,-0.110687755,0.3603422,-0.23321445,-0.46652165,-0.33560064,-0.036404375,809.0842,799.41394,804.2491,816.337,686.99634,-0.395751953125,0.12005615234375,0.9241943359375,-0.859832763671875,-1.016845703125,-0.3887939453125,1,1.0,1.0,1.0,1.0,20.00
2024-09-29 18:14:52.154,0.81082016,-0.023359882,0.63646495,0.40327895,0.38549325,-0.19892438,-0.16857708,0.17773275,0.42889345,-0.048282027,0.13615172,0.48998117,0.3995453,-0.18500848,-0.110687755,0.3603422,-0.23321445,-0.46652165,-0.33560064,-0.036404375,809.4872,798.20514,807.0696,812.3077,703.5165,-0.395751953125,0.12005615234375,0.9241943359375,-0.859832763671875,-1.016845703125,-0.3887939453125,1,1.0,1.0,1.0,1.0,20.00
2024-09-29 18:14:52.211,0.81082016,-0.023359882,0.63646495,0.40327895,0.38549325,-0.19892438,-0.16857708,0.17773275,0.42889345,-0.048282027,0.13615172,0.48998117,0.3995453,-0.18500848,-0.110687755,0.3603422,-0.23321445,-0.46652165,-0.33560064,-0.036404375,808.2784,791.75824,805.05493,813.91943,657.5824,-0.392578125,0.1180419921875,0.92340087890625,-0.426177978515625,-0.919647216796875,-0.919647216796875,1,1.0,1.0,1.0,1.0,20.00
2024-09-29 18:14:52.212,0.81082016,-0.023359882,0.63646495,0.40327895,0.38549325,-0.19892438,-0.16857708,0.17773275,0.42889345,-0.048282027,0.13615172,0.48998117,0.3995453,-0.18500848,-0.110687755,0.3603422,-0.23321445,-0.46652165,-0.33560064,-0.036404375,810.293,792.1612,799.41394,816.337,669.67035,-0.392578125,0.1180419921875,0.92340087890625,-0.426177978515625,-0.919647216796875,-0.919647216796875,1,1.0,1.0,1.0,1.0,20.00
2024-09-29 18:14:52.213,0.81082016,-0.023359882,0.63646495,0.40327895,0.38549325,-0.19892438,-0.16857708,0.17773275,0.42889345,-0.048282027,0.13615172,0.48998117,0.3995453,-0.18500848,-0.110687755,0.3603422,-0.23321445,-0.46652165,-0.33560064,-0.036404375,813.5165,799.011,800.2198,811.0989,780.87915,-0.392578125,0.1180419921875,0.92340087890625,-0.426177978515625,-0.919647216796875,-0.919647216796875,1,1.0,1.0,1.0,1.0,20.00
2024-09-29 18:14:52.214,0.81082016,-0.023359882,0.63646495,0.40327895,0.38549325,-0.19892438,-0.16857708,0.17773275,0.42889345,-0.048282027,0.13615172,0.48998117,0.3995453,-0.18500848,-0.110687755,0.3603422,-0.23321445,-0.46652165,-0.33560064,-0.036404375,816.337,803.0403,808.2784,807.8755,855.42126,-0.392578125,0.1180419921875,0.92340087890625,-0.426177978515625,-0.919647216796875,-0.919647216796875,1,1.0,1.0,1.0,1.0,20.00
2024-09-29 18:14:52.214,0.81082016,-0.023359882,0.63646495,0.40327895,0.38549325,-0.19892438,-0.16857708,0.17773275,0.42889345,-0.048282027,0.13615172,0.48998117,0.3995453,-0.18500848,-0.110687755,0.3603422,-0.23321445,-0.46652165,-0.33560064,-0.036404375,821.5751,800.2198,809.0842,824.7985,1082.674,-0.392578125,0.1180419921875,0.92340087890625,-0.426177978515625,-0.919647216796875,-0.919647216796875,1,1.0,1.0,1.0,1.0,20.00
2024-09-29 18:14:52.215,0.8102413,-0.03801676,0.6391693,0.36208868,0.3894891,-0.24067533,-0.18873815,0.16453795,0.4042946,-0.04419277,0.1271262,0.4554192,0.42345226,-0.20749186,-0.110204406,0.3738914,-0.24001357,-0.4719251,-0.35501045,-0.055484433,813.1135,794.57874,801.4286,826.4103,1401.392,-0.392578125,0.1180419921875,0.92340087890625,-0.426177978515625,-0.919647216796875,-0.919647216796875,1,1.0,1.0,1.0,1.0,20.00
2024-09-29 18:14:52.220,0.8102413,-0.03801676,0.6391693,0.36208868,0.3894891,-0.24067533,-0.18873815,0.16453795,0.4042946,-0.04419277,0.1271262,0.4554192,0.42345226,-0.20749186,-0.110204406,0.3738914,-0.24001357,-0.4719251,-0.35501045,-0.055484433,805.05493,792.96704,802.6374,807.47253,1116.1172,-0.392578125,0.1180419921875,0.92340087890625,-0.426177978515625,-0.919647216796875,-0.919647216796875,1,1.0,1.0,1.0,1.0,20.00
2024-09-29 18:14:52.221,0.8102413,-0.03801676,0.6391693,0.36208868,0.3894891,-0.24067533,-0.18873815,0.16453795,0.4042946,-0.04419277,0.1271262,0.4554192,0.42345226,-0.20749186,-0.110204406,0.3738914,-0.24001357,-0.4719251,-0.35501045,-0.055484433,799.41394,790.9524,811.50183,805.8608,1016.1905,-0.392578125,0.1180419921875,0.92340087890625,-0.426177978515625,-0.919647216796875,-0.919647216796875,1,1.0,1.0,1.0,1.0,20.00
2024-09-29 18:14:52.221,0.8102413,-0.03801676,0.6391693,0.36208868,0.3894891,-0.24067533,-0.18873815,0.16453795,0.4042946,-0.04419277,0.1271262,0.4554192,0.42345226,-0.20749186,-0.110204406,0.3738914,-0.24001357,-0.4719251,-0.35501045,-0.055484433,794.9817,794.57874,808.2784,808.2784,1024.249,-0.392578125,0.1180419921875,0.92340087890625,-0.426177978515625,-0.919647216796875,-0.919647216796875,1,1.0,1.0,1.0,1.0,20.00
2024-09-29 18:14:52.222,0.8102413,-0.03801676,0.6391693,0.36208868,0.3894891,-0.24067533,-0.18873815,0.16453795,0.4042946,-0.04419277,0.1271262,0.4554192,0.42345226,-0.20749186,-0.110204406,0.3738914,-0.24001357,-0.4719251,-0.35501045,-0.055484433,806.6667,797.8022,805.05493,812.3077,634.61536,-0.392578125,0.1180419921875,0.92340087890625,-0.426177978515625,-0.919647216796875,-0.919647216796875,1,1.0,1.0,1.0,1.0,20.00
2024-09-29 18:14:52.223,0.8102413,-0.03801676,0.6391693,0.36208868,0.3894891,-0.24067533,-0.18873815,0.16453795,0.4042946,-0.04419277,0.1271262,0.4554192,0.42345226,-0.20749186,-0.110204406,0.3738914,-0.24001357,-0.4719251,-0.35501045,-0.055484433,811.50183,792.5641,812.3077,808.68134,541.9414,-0.392578125,0.1180419921875,0.92340087890625,-0.426177978515625,-0.919647216796875,-0.919647216796875,1,1.0,1.0,1.0,1.0,20.00
2024-09-29 18:14:52.223,0.8102413,-0.03801676,0.6391693,0.36208868,0.3894891,-0.24067533,-0.18873815,0.16453795,0.4042946,-0.04419277,0.1271262,0.4554192,0.42345226,-0.20749186,-0.110204406,0.3738914,-0.24001357,-0.4719251,-0.35501045,-0.055484433,803.44324,791.3553,812.71063,806.6667,767.1795,-0.392578125,0.1180419921875,0.92340087890625,-0.426177978515625,-0.919647216796875,-0.919647216796875,1,1.0,1.0,1.0,1.0,20.00
2024-09-29 18:14:52.277,0.8102413,-0.03801676,0.6391693,0.36208868,0.3894891,-0.24067533,-0.18873815,0.16453795,0.4042946,-0.04419277,0.1271262,0.4554192,0.42345226,-0.20749186,-0.110204406,0.3738914,-0.24001357,-0.4719251,-0.35501045,-0.055484433,805.8608,792.5641,805.8608,814.3223,804.2491,-0.39129638671875,0.11065673828125,0.9189453125,-0.261688232421875,-1.547698974609375,-0.680389404296875,1,1.0,1.0,1.0,1.0,20.00
2024-09-29 18:14:52.278,0.8102413,-0.03801676,0.6391693,0.36208868,0.3894891,-0.24067533,-0.18873815,0.16453795,0.4042946,-0.04419277,0.1271262,0.4554192,0.42345226,-0.20749186,-0.110204406,0.3738914,-0.24001357,-0.4719251,-0.35501045,-0.055484433,811.50183,794.9817,809.89014,817.5458,612.4542,-0.39129638671875,0.11065673828125,0.9189453125,-0.261688232421875,-1.547698974609375,-0.680389404296875,1,1.0,1.0,1.0,1.0,20.00
2024-09-29 18:14:52.278,0.8102413,-0.03801676,0.6391693,0.36208868,0.3894891,-0.24067533,-0.18873815,0.16453795,0.4042946,-0.04419277,0.1271262,0.4554192,0.42345226,-0.20749186,-0.110204406,0.3738914,-0.24001357,-0.4719251,-0.35501045,-0.055484433,818.7546,792.5641,813.91943,824.7985,657.98535,-0.39129638671875,0.11065673828125,0.9189453125,-0.261688232421875,-1.547698974609375,-0.680389404296875,1,1.0,1.0,1.0,1.0,20.00
2024-09-29 18:14:52.279,0.8102413,-0.03801676,0.6391693,0.36208868,0.3894891,-0.24067533,-0.18873815,0.16453795,0.4042946,-0.04419277,0.1271262,0.4554192,0.42345226,-0.20749186,-0.110204406,0.3738914,-0.24001357,-0.4719251,-0.35501045,-0.055484433,822.7839,786.1172,812.3077,834.0659,806.26373,-0.39129638671875,0.11065673828125,0.9189453125,-0.261688232421875,-1.547698974609375,-0.680389404296875,1,1.0,1.0,1.0,1.0,20.00
2024-09-29 18:14:52.279,0.8102413,-0.03801676,0.6391693,0.36208868,0.3894891,-0.24067533,-0.18873815,0.16453795,0.4042946,-0.04419277,0.1271262,0.4554192,0.42345226,-0.20749186,-0.110204406,0.3738914,-0.24001357,-0.4719251,-0.35501045,-0.055484433,817.9487,787.326,817.9487,831.6484,754.68866,-0.39129638671875,0.11065673828125,0.9189453125,-0.261688232421875,-1.547698974609375,-0.680389404296875,1,1.0,1.0,1.0,1.0,20.00
2024-09-29 18:14:52.280,0.8102413,-0.03801676,0.6391693,0.36208868,0.3894891,-0.24067533,-0.18873815,0.16453795,0.4042946,-0.04419277,0.1271262,0.4554192,0.42345226,-0.20749186,-0.110204406,0.3738914,-0.24001357,-0.4719251,-0.35501045,-0.055484433,822.381,789.34064,818.7546,835.6777,698.2784,-0.39129638671875,0.11065673828125,0.9189453125,-0.261688232421875,-1.547698974609375,-0.680389404296875,1,1.0,1.0,1.0,1.0,20.00
2024-09-29 18:14:52.281,0.8102413,-0.03801676,0.6391693,0.36208868,0.3894891,-0.24067533,-0.18873815,0.16453795,0.4042946,-0.04419277,0.1271262,0.4554192,0.42345226,-0.20749186,-0.110204406,0.3738914,-0.24001357,-0.4719251,-0.35501045,-0.055484433,827.619,787.72894,819.15753,849.7802,748.6447,-0.39129638671875,0.11065673828125,0.9189453125,-0.261688232421875,-1.547698974609375,-0.680389404296875,1,1.0,1.0,1.0,1.0,20.00
2024-09-29 18:14:52.281,0.8102413,-0.03801676,0.6391693,0.36208868,0.3894891,-0.24067533,-0.18873815,0.16453795,0.4042946,-0.04419277,0.1271262,0.4554192,0.42345226,-0.20749186,-0.110204406,0.3738914,-0.24001357,-0.4719251,-0.35501045,-0.055484433,826.0073,784.5055,820.7692,857.03296,1019.011,-0.39129638671875,0.11065673828125,0.9189453125,-0.261688232421875,-1.547698974609375,-0.680389404296875,1,1.0,1.0,1.0,1.0,20.00
2024-09-29 18:14:52.282,0.8102413,-0.03801676,0.6391693,0.36208868,0.3894891,-0.24067533,-0.18873815,0.16453795,0.4042946,-0.04419277,0.1271262,0.4554192,0.42345226,-0.20749186,-0.110204406,0.3738914,-0.24001357,-0.4719251,-0.35501045,-0.055484433,832.8571,782.8938,821.5751,850.18317,994.43225,-0.39129638671875,0.11065673828125,0.9189453125,-0.261688232421875,-1.547698974609375,-0.680389404296875,1,1.0,1.0,1.0,1.0,20.00
2024-09-29 18:14:52.283,0.8102413,-0.03801676,0.6391693,0.36208868,0.3894891,-0.24067533,-0.18873815,0.16453795,0.4042946,-0.04419277,0.1271262,0.4554192,0.42345226,-0.20749186,-0.110204406,0.3738914,-0.24001357,-0.4719251,-0.35501045,-0.055484433,843.3333,783.2967,826.8132,846.55676,776.8498,-0.39129638671875,0.11065673828125,0.9189453125,-0.261688232421875,-1.547698974609375,-0.680389404296875,1,1.0,1.0,1.0,1.0,20.00
2024-09-29 18:14:52.285,0.8102413,-0.03801676,0.6391693,0.36208868,0.3894891,-0.24067533,-0.18873815,0.16453795,0.4042946,-0.04419277,0.1271262,0.4554192,0.42345226,-0.20749186,-0.110204406,0.3738914,-0.24001357,-0.4719251,-0.35501045,-0.055484433,853.4066,782.8938,825.2015,852.6007,788.1319,-0.39129638671875,0.11065673828125,0.9189453125,-0.261688232421875,-1.547698974609375,-0.680389404296875,1,1.0,1.0,1.0,1.0,20.00
2024-09-29 18:14:52.285,0.8102413,-0.03801676,0.6391693,0.36208868,0.3894891,-0.24067533,-0.18873815,0.16453795,0.4042946,-0.04419277,0.1271262,0.4554192,0.42345226,-0.20749186,-0.110204406,0.3738914,-0.24001357,-0.4719251,-0.35501045,-0.055484433,853.4066,782.8938,825.2015,861.4652,921.0989,-0.39129638671875,0.11065673828125,0.9189453125,-0.261688232421875,-1.547698974609375,-0.680389404296875,1,1.0,1.0,1.0,1.0,20.00
2024-09-29 18:14:52.345,0.8102413,-0.03801676,0.6391693,0.36208868,0.3894891,-0.24067533,-0.18873815,0.16453795,0.4042946,-0.04419277,0.1271262,0.4554192,0.42345226,-0.20749186,-0.110204406,0.3738914,-0.24001357,-0.4719251,-0.35501045,-0.055484433,848.97437,784.10254,830.0366,867.9121,891.28204,-0.389892578125,0.11248779296875,0.92279052734375,0.55328369140625,-2.385101318359375,-0.58319091796875,1,1.0,1.0,1.0,1.0,20.00
2024-09-29 18:14:52.346,0.8102413,-0.03801676,0.6391693,0.36208868,0.3894891,-0.24067533,-0.18873815,0.16453795,0.4042946,-0.04419277,0.1271262,0.4554192,0.42345226,-0.20749186,-0.110204406,0.3738914,-0.24001357,-0.4719251,-0.35501045,-0.055484433,848.5714,780.87915,829.2308,866.30035,723.2601,-0.389892578125,0.11248779296875,0.92279052734375,0.55328369140625,-2.385101318359375,-0.58319091796875,1,1.0,1.0,1.0,1.0,20.00
2024-09-29 18:14:52.347,0.8102413,-0.03801676,0.6391693,0.36208868,0.3894891,-0.24067533,-0.18873815,0.16453795,0.4042946,-0.04419277,0.1271262,0.4554192,0.42345226,-0.20749186,-0.110204406,0.3738914,-0.24001357,-0.4719251,-0.35501045,-0.055484433,850.18317,777.25275,830.84247,871.53845,741.79486,-0.389892578125,0.11248779296875,0.92279052734375,0.55328369140625,-2.385101318359375,-0.58319091796875,1,1.0,1.0,1.0,1.0,20.00
2024-09-29 18:14:52.348,0.8102413,-0.03801676,0.6391693,0.36208868,0.3894891,-0.24067533,-0.18873815,0.16453795,0.4042946,-0.04419277,0.1271262,0.4554192,0.42345226,-0.20749186,-0.110204406,0.3738914,-0.24001357,-0.4719251,-0.35501045,-0.055484433,860.65936,779.67035,837.6923,887.6557,952.52747,-0.389892578125,0.11248779296875,0.92279052734375,0.55328369140625,-2.385101318359375,-0.58319091796875,1,1.0,1.0,1.0,1.0,20.00
2024-09-29 18:14:52.349,0.8102413,-0.03801676,0.6391693,0.36208868,0.3894891,-0.24067533,-0.18873815,0.16453795,0.4042946,-0.04419277,0.1271262,0.4554192,0.42345226,-0.20749186,-0.110204406,0.3738914,-0.24001357,-0.4719251,-0.35501045,-0.055484433,870.32965,778.86444,838.0952,893.2967,873.1502,-0.389892578125,0.11248779296875,0.92279052734375,0.55328369140625,-2.385101318359375,-0.58319091796875,1,1.0,1.0,1.0,1.0,20.00
2024-09-29 18:14:52.349,0.8102413,-0.03801676,0.6391693,0.36208868,0.3894891,-0.24067533,-0.18873815,0.16453795,0.4042946,-0.04419277,0.1271262,0.4554192,0.42345226,-0.20749186,-0.110204406,0.3738914,-0.24001357,-0.4719251,-0.35501045,-0.055484433,861.06226,783.69965,839.707,883.6264,813.5165,-0.389892578125,0.11248779296875,0.92279052734375,0.55328369140625,-2.385101318359375,-0.58319091796875,1,1.0,1.0,1.0,1.0,20.00
2024-09-29 18:14:52.350,0.8102413,-0.03801676,0.6391693,0.36208868,0.3894891,-0.24067533,-0.18873815,0.16453795,0.4042946,-0.04419277,0.1271262,0.4554192,0.42345226,-0.20749186,-0.110204406,0.3738914,-0.24001357,-0.4719251,-0.35501045,-0.055484433,850.58606,782.49084,840.9158,875.9707,888.46155,-0.389892578125,0.11248779296875,0.92279052734375,0.55328369140625,-2.385101318359375,-0.58319091796875,1,1.0,1.0,1.0,1.0,20.00
2024-09-29 18:14:52.351,0.8148751,-0.036696788,0.6450681,0.323319,0.38171223,-0.29102546,-0.20390464,0.1557806,0.39988983,-0.01653863,0.11837747,0.3752659,0.44886833,-0.22038516,-0.10682558,0.39298224,-0.23835382,-0.4786347,-0.3772133,-0.063628174,867.1062,777.6557,845.34796,888.0586,792.1612,-0.389892578125,0.11248779296875,0.92279052734375,0.55328369140625,-2.385101318359375,-0.58319091796875,1,1.0,1.0,1.0,1.0,20.00
2024-09-29 18:14:52.355,0.8148751,-0.036696788,0.6450681,0.323319,0.38171223,-0.29102546,-0.20390464,0.1557806,0.39988983,-0.01653863,0.11837747,0.3752659,0.44886833,-0.22038516,-0.10682558,0.39298224,-0.23835382,-0.4786347,-0.3772133,-0.063628174,876.3736,781.28204,844.1392,893.69965,804.2491,-0.389892578125,0.11248779296875,0.92279052734375,0.55328369140625,-2.385101318359375,-0.58319091796875,1,1.0,1.0,1.0,1.0,20.00
2024-09-29 18:14:52.356,0.8148751,-0.036696788,0.6450681,0.323319,0.38171223,-0.29102546,-0.20390464,0.1557806,0.39988983,-0.01653863,0.11837747,0.3752659,0.44886833,-0.22038516,-0.10682558,0.39298224,-0.23835382,-0.4786347,-0.3772133,-0.063628174,864.68866,782.0879,838.49817,886.8498,801.02563,-0.389892578125,0.11248779296875,0.92279052734375,0.55328369140625,-2.385101318359375,-0.58319091796875,1,1.0,1.0,1.0,1.0,20.00
2024-09-29 18:14:52.357,0.8148751,-0.036696788,0.6450681,0.323319,0.38171223,-0.29102546,-0.20390464,0.1557806,0.39988983,-0.01653863,0.11837747,0.3752659,0.44886833,-0.22038516,-0.10682558,0.39298224,-0.23835382,-0.4786347,-0.3772133,-0.063628174,873.95605,780.87915,841.31866,890.07324,791.75824,-0.389892578125,0.11248779296875,0.92279052734375,0.55328369140625,-2.385101318359375,-0.58319091796875,1,1.0,1.0,1.0,1.0,20.00
2024-09-29 18:14:52.358,0.8148751,-0.036696788,0.6450681,0.323319,0.38171223,-0.29102546,-0.20390464,0.1557806,0.39988983,-0.01653863,0.11837747,0.3752659,0.44886833,-0.22038516,-0.10682558,0.39298224,-0.23835382,-0.4786347,-0.3772133,-0.063628174,883.22345,777.6557,836.8865,890.07324,886.4469,-0.389892578125,0.11248779296875,0.92279052734375,0.55328369140625,-2.385101318359375,-0.58319091796875,1,1.0,1.0,1.0,1.0,20.00
2024-09-29 18:14:52.359,0.8148751,-0.036696788,0.6450681,0.323319,0.38171223,-0.29102546,-0.20390464,0.1557806,0.39988983,-0.01653863,0.11837747,0.3752659,0.44886833,-0.22038516,-0.10682558,0.39298224,-0.23835382,-0.4786347,-0.3772133,-0.063628174,886.8498,775.2381,834.87177,893.2967,870.7326,-0.3804931640625,0.11700439453125,0.92181396484375,1.143951416015625,-2.51220703125,0.261688232421875,1,1.0,1.0,1.0,1.0,20.00
2024-09-29 18:14:52.360,0.8148751,-0.036696788,0.6450681,0.323319,0.38171223,-0.29102546,-0.20390464,0.1557806,0.39988983,-0.01653863,0.11837747,0.3752659,0.44886833,-0.22038516,-0.10682558,0.39298224,-0.23835382,-0.4786347,-0.3772133,-0.063628174,888.86444,778.46155,839.304,900.54944,804.2491,-0.3804931640625,0.11700439453125,0.92181396484375,1.143951416015625,-2.51220703125,0.261688232421875,1,1.0,1.0,1.0,1.0,20.00
2024-09-29 18:14:52.361,0.8148751,-0.036696788,0.6450681,0.323319,0.38171223,-0.29102546,-0.20390464,0.1557806,0.39988983,-0.01653863,0.11837747,0.3752659,0.44886833,-0.22038516,-0.10682558,0.39298224,-0.23835382,-0.4786347,-0.3772133,-0.063628174,880.80585,777.25275,834.87177,893.69965,953.73627,-0.3804931640625,0.11700439453125,0.92181396484375,1.143951416015625,-2.51220703125,0.261688232421875,1,1.0,1.0,1.0,1.0,20.00
2024-09-29 18:14:52.362,0.8148751,-0.036696788,0.6450681,0.323319,0.38171223,-0.29102546,-0.20390464,0.1557806,0.39988983,-0.01653863,0.11837747,0.3752659,0.44886833,-0.22038516,-0.10682558,0.39298224,-0.23835382,-0.4786347,-0.3772133,-0.063628174,871.13556,777.25275,828.8278,884.0293,991.6117,-0.3804931640625,0.11700439453125,0.92181396484375,1.143951416015625,-2.51220703125,0.261688232421875,1,1.0,1.0,1.0,1.0,20.00
2024-09-29 18:14:52.362,0.8148751,-0.036696788,0.6450681,0.323319,0.38171223,-0.29102546,-0.20390464,0.1557806,0.39988983,-0.01653863,0.11837747,0.3752659,0.44886833,-0.22038516,-0.10682558,0.39298224,-0.23835382,-0.4786347,-0.3772133,-0.063628174,873.95605,782.8938,830.84247,875.56775,854.61536,-0.3804931640625,0.11700439453125,0.92181396484375,1.143951416015625,-2.51220703125,0.261688232421875,1,1.0,1.0,1.0,1.0,20.00
2024-09-29 18:14:52.363,0.8148751,-0.036696788,0.6450681,0.323319,0.38171223,-0.29102546,-0.20390464,0.1557806,0.39988983,-0.01653863,0.11837747,0.3752659,0.44886833,-0.22038516,-0.10682558,0.39298224,-0.23835382,-0.4786347,-0.3772133,-0.063628174,878.3883,787.326,828.022,869.5238,1051.2454,-0.3804931640625,0.11700439453125,0.92181396484375,1.143951416015625,-2.51220703125,0.261688232421875,1,1.0,1.0,1.0,1.0,20.00
2024-09-29 18:14:52.363,0.8148751,-0.036696788,0.6450681,0.323319,0.38171223,-0.29102546,-0.20390464,0.1557806,0.39988983,-0.01653863,0.11837747,0.3752659,0.44886833,-0.22038516,-0.10682558,0.39298224,-0.23835382,-0.4786347,-0.3772133,-0.063628174,877.1795,787.326,823.9927,872.74725,1118.1318,-0.3804931640625,0.11700439453125,0.92181396484375,1.143951416015625,-2.51220703125,0.261688232421875,1,1.0,1.0,1.0,1.0,20.00
2024-09-29 18:14:52.364,0.8148751,-0.036696788,0.6450681,0.323319,0.38171223,-0.29102546,-0.20390464,0.1557806,0.39988983,-0.01653863,0.11837747,0.3752659,0.44886833,-0.22038516,-0.10682558,0.39298224,-0.23835382,-0.4786347,-0.3772133,-0.063628174,873.1502,786.52014,829.2308,860.2564,814.3223,-0.3804931640625,0.11700439453125,0.92181396484375,1.143951416015625,-2.51220703125,0.261688232421875,1,1.0,1.0,1.0,1.0,20.00
2024-09-29 18:14:52.364,0.8148751,-0.036696788,0.6450681,0.323319,0.38171223,-0.29102546,-0.20390464,0.1557806,0.39988983,-0.01653863,0.11837747,0.3752659,0.44886833,-0.22038516,-0.10682558,0.39298224,-0.23835382,-0.4786347,-0.3772133,-0.063628174,865.89746,788.5348,834.4689,857.4359,645.89746,-0.3804931640625,0.11700439453125,0.92181396484375,1.143951416015625,-2.51220703125,0.261688232421875,1,1.0,1.0,1.0,1.0,20.00
2024-09-29 18:14:52.365,0.8148751,-0.036696788,0.6450681,0.323319,0.38171223,-0.29102546,-0.20390464,0.1557806,0.39988983,-0.01653863,0.11837747,0.3752659,0.44886833,-0.22038516,-0.10682558,0.39298224,-0.23835382,-0.4786347,-0.3772133,-0.063628174,866.7033,787.326,829.6337,859.0476,764.35895,-0.3804931640625,0.11700439453125,0.92181396484375,1.143951416015625,-2.51220703125,0.261688232421875,1,1.0,1.0,1.0,1.0,20.00
2024-09-29 18:14:52.366,0.8148751,-0.036696788,0.6450681,0.323319,0.38171223,-0.29102546,-0.20390464,0.1557806,0.39988983,-0.01653863,0.11837747,0.3752659,0.44886833,-0.22038516,-0.10682558,0.39298224,-0.23835382,-0.4786347,-0.3772133,-0.063628174,870.7326,785.7143,826.0073,853.8095,1068.1685,-0.3804931640625,0.11700439453125,0.92181396484375,1.143951416015625,-2.51220703125,0.261688232421875,1,1.0,1.0,1.0,1.0,20.00
2024-09-29 18:14:52.367,0.8148751,-0.036696788,0.6450681,0.323319,0.38171223,-0.29102546,-0.20390464,0.1557806,0.39988983,-0.01653863,0.11837747,0.3752659,0.44886833,-0.22038516,-0.10682558,0.39298224,-0.23835382,-0.4786347,-0.3772133,-0.063628174,865.09155,786.1172,828.022,849.3773,950.10986,-0.3804931640625,0.11700439453125,0.92181396484375,1.143951416015625,-2.51220703125,0.261688232421875,1,1.0,1.0,1.0,1.0,20.00
2024-09-29 18:14:52.391,0.8148751,-0.036696788,0.6450681,0.323319,0.38171223,-0.29102546,-0.20390464,0.1557806,0.39988983,-0.01653863,0.11837747,0.3752659,0.44886833,-0.22038516,-0.10682558,0.39298224,-0.23835382,-0.4786347,-0.3772133,-0.063628174,858.6447,791.3553,821.5751,846.1539,747.8388,-0.3804931640625,0.11700439453125,0.92181396484375,1.143951416015625,-2.51220703125,0.261688232421875,1,1.0,1.0,1.0,1.0,20.00
2024-09-29 18:14:52.392,0.8148751,-0.036696788,0.6450681,0.323319,0.38171223,-0.29102546,-0.20390464,0.1557806,0.39988983,-0.01653863,0.11837747,0.3752659,0.44886833,-0.22038516,-0.10682558,0.39298224,-0.23835382,-0.4786347,-0.3772133,-0.063628174,856.2271,790.54944,823.1868,850.18317,801.4286,-0.3804931640625,0.11700439453125,0.92181396484375,1.143951416015625,-2.51220703125,0.261688232421875,1,1.0,1.0,1.0,1.0,20.00
2024-09-29 18:14:52.393,0.8148751,-0.036696788,0.6450681,0.323319,0.38171223,-0.29102546,-0.20390464,0.1557806,0.39988983,-0.01653863,0.11837747,0.3752659,0.44886833,-0.22038516,-0.10682558,0.39298224,-0.23835382,-0.4786347,-0.3772133,-0.063628174,853.00366,792.1612,826.4103,855.82416,925.5311,-0.3804931640625,0.11700439453125,0.92181396484375,1.143951416015625,-2.51220703125,0.261688232421875,1,1.0,1.0,1.0,1.0,20.00
2024-09-29 18:14:52.393,0.8148751,-0.036696788,0.6450681,0.323319,0.38171223,-0.29102546,-0.20390464,0.1557806,0.39988983,-0.01653863,0.11837747,0.3752659,0.44886833,-0.22038516,-0.10682558,0.39298224,-0.23835382,-0.4786347,-0.3772133,-0.063628174,844.5421,796.1905,821.5751,845.7509,918.68134,-0.3804931640625,0.11700439453125,0.92181396484375,1.143951416015625,-2.51220703125,0.261688232421875,1,1.0,1.0,1.0,1.0,20.00
2024-09-29 18:14:52.394,0.8148751,-0.036696788,0.6450681,0.323319,0.38171223,-0.29102546,-0.20390464,0.1557806,0.39988983,-0.01653863,0.11837747,0.3752659,0.44886833,-0.22038516,-0.10682558,0.39298224,-0.23835382,-0.4786347,-0.3772133,-0.063628174,840.5128,795.78754,819.15753,828.022,655.16486,-0.3804931640625,0.11700439453125,0.92181396484375,1.143951416015625,-2.51220703125,0.261688232421875,1,1.0,1.0,1.0,1.0,20.00
2024-09-29 18:14:52.394,0.8148751,-0.036696788,0.6450681,0.323319,0.38171223,-0.29102546,-0.20390464,0.1557806,0.39988983,-0.01653863,0.11837747,0.3752659,0.44886833,-0.22038516,-0.10682558,0.39298224,-0.23835382,-0.4786347,-0.3772133,-0.063628174,846.9597,796.5934,821.978,834.0659,895.7143,-0.3804931640625,0.11700439453125,0.92181396484375,1.143951416015625,-2.51220703125,0.261688232421875,1,1.0,1.0,1.0,1.0,20.00
2024-09-29 18:14:52.395,0.8148751,-0.036696788,0.6450681,0.323319,0.38171223,-0.29102546,-0.20390464,0.1557806,0.39988983,-0.01653863,0.11837747,0.3752659,0.44886833,-0.22038516,-0.10682558,0.39298224,-0.23835382,-0.4786347,-0.3772133,-0.063628174,852.1978,798.20514,820.3663,840.5128,1104.0293,-0.3804931640625,0.11700439453125,0.92181396484375,1.143951416015625,-2.51220703125,0.261688232421875,1,1.0,1.0,1.0,1.0,20.00
2024-09-29 18:14:52.395,0.8148751,-0.036696788,0.6450681,0.323319,0.38171223,-0.29102546,-0.20390464,0.1557806,0.39988983,-0.01653863,0.11837747,0.3752659,0.44886833,-0.22038516,-0.10682558,0.39298224,-0.23835382,-0.4786347,-0.3772133,-0.063628174,853.00366,797.3993,816.337,831.6484,855.0183,-0.3804931640625,0.11700439453125,0.92181396484375,1.143951416015625,-2.51220703125,0.261688232421875,1,1.0,1.0,1.0,1.0,20.00
2024-09-29 18:14:52.396,0.8148751,-0.036696788,0.6450681,0.323319,0.38171223,-0.29102546,-0.20390464,0.1557806,0.39988983,-0.01653863,0.11837747,0.3752659,0.44886833,-0.22038516,-0.10682558,0.39298224,-0.23835382,-0.4786347,-0.3772133,-0.063628174,846.55676,797.3993,816.337,828.8278,666.04395,-0.3804931640625,0.11700439453125,0.92181396484375,1.143951416015625,-2.51220703125,0.261688232421875,1,1.0,1.0,1.0,1.0,20.00
2024-09-29 18:14:52.396,0.8397092,0.00599288,0.6703036,0.2866316,0.36876693,-0.3428753,-0.21311522,0.14467132,0.39988983,0.008636784,0.096663885,0.24900514,0.47356802,-0.22725393,-0.103435144,0.41310462,-0.22384083,-0.49070206,-0.40018827,-0.06625126,841.7216,796.5934,815.12823,840.10986,821.1722,-0.3804931640625,0.11700439453125,0.92181396484375,1.143951416015625,-2.51220703125,0.261688232421875,1,1.0,1.0,1.0,1.0,20.00
2024-09-29 18:14:52.401,0.8397092,0.00599288,0.6703036,0.2866316,0.36876693,-0.3428753,-0.21311522,0.14467132,0.39988983,0.008636784,0.096663885,0.24900514,0.47356802,-0.22725393,-0.103435144,0.41310462,-0.22384083,-0.49070206,-0.40018827,-0.06625126,847.76556,793.36993,811.50183,851.79486,1103.2234,-0.3804931640625,0.11700439453125,0.92181396484375,1.143951416015625,-2.51220703125,0.261688232421875,1,1.0,1.0,1.0,1.0,20.00
2024-09-29 18:14:52.401,0.8397092,0.00599288,0.6703036,0.2866316,0.36876693,-0.3428753,-0.21311522,0.14467132,0.39988983,0.008636784,0.096663885,0.24900514,0.47356802,-0.22725393,-0.103435144,0.41310462,-0.22384083,-0.49070206,-0.40018827,-0.06625126,842.9304,792.1612,813.1135,839.707,899.7436,-0.3804931640625,0.11700439453125,0.92181396484375,1.143951416015625,-2.51220703125,0.261688232421875,1,1.0,1.0,1.0,1.0,20.00
2024-09-29 18:14:52.428,0.8397092,0.00599288,0.6703036,0.2866316,0.36876693,-0.3428753,-0.21311522,0.14467132,0.39988983,0.008636784,0.096663885,0.24900514,0.47356802,-0.22725393,-0.103435144,0.41310462,-0.22384083,-0.49070206,-0.40018827,-0.06625126,840.9158,794.9817,817.1429,830.0366,699.0842,-0.3885498046875,0.12103271484375,0.92657470703125,1.472930908203125,-1.68975830078125,1.24114990234375,1,1.0,1.0,1.0,1.0,20.00
2024-09-29 18:14:52.429,0.8397092,0.00599288,0.6703036,0.2866316,0.36876693,-0.3428753,-0.21311522,0.14467132,0.39988983,0.008636784,0.096663885,0.24900514,0.47356802,-0.22725393,-0.103435144,0.41310462,-0.22384083,-0.49070206,-0.40018827,-0.06625126,848.97437,798.60803,821.978,841.7216,768.7912,-0.3885498046875,0.12103271484375,0.92657470703125,1.472930908203125,-1.68975830078125,1.24114990234375,1,1.0,1.0,1.0,1.0,20.00
2024-09-29 18:14:52.429,0.8397092,0.00599288,0.6703036,0.2866316,0.36876693,-0.3428753,-0.21311522,0.14467132,0.39988983,0.008636784,0.096663885,0.24900514,0.47356802,-0.22725393,-0.103435144,0.41310462,-0.22384083,-0.49070206,-0.40018827,-0.06625126,852.1978,796.1905,821.1722,855.82416,1105.641,-0.3885498046875,0.12103271484375,0.92657470703125,1.472930908203125,-1.68975830078125,1.24114990234375,1,1.0,1.0,1.0,1.0,20.00
2024-09-29 18:14:52.430,0.8397092,0.00599288,0.6703036,0.2866316,0.36876693,-0.3428753,-0.21311522,0.14467132,0.39988983,0.008636784,0.096663885,0.24900514,0.47356802,-0.22725393,-0.103435144,0.41310462,-0.22384083,-0.49070206,-0.40018827,-0.06625126,847.3626,793.36993,821.978,849.7802,911.02563,-0.3885498046875,0.12103271484375,0.92657470703125,1.472930908203125,-1.68975830078125,1.24114990234375,1,1.0,1.0,1.0,1.0,20.00
2024-09-29 18:14:52.430,0.8397092,0.00599288,0.6703036,0.2866316,0.36876693,-0.3428753,-0.21311522,0.14467132,0.39988983,0.008636784,0.096663885,0.24900514,0.47356802,-0.22725393,-0.103435144,0.41310462,-0.22384083,-0.49070206,-0.40018827,-0.06625126,842.52747,792.5641,818.7546,835.6777,636.63007,-0.3885498046875,0.12103271484375,0.92657470703125,1.472930908203125,-1.68975830078125,1.24114990234375,1,1.0,1.0,1.0,1.0,20.00
2024-09-29 18:14:52.431,0.8397092,0.00599288,0.6703036,0.2866316,0.36876693,-0.3428753,-0.21311522,0.14467132,0.39988983,0.008636784,0.096663885,0.24900514,0.47356802,-0.22725393,-0.103435144,0.41310462,-0.22384083,-0.49070206,-0.40018827,-0.06625126,847.3626,792.1612,813.91943,843.73627,745.0183,-0.3885498046875,0.12103271484375,0.92657470703125,1.472930908203125,-1.68975830078125,1.24114990234375,1,1.0,1.0,1.0,1.0,20.00
2024-09-29 18:14:52.431,0.8397092,0.00599288,0.6703036,0.2866316,0.36876693,-0.3428753,-0.21311522,0.14467132,0.39988983,0.008636784,0.096663885,0.24900514,0.47356802,-0.22725393,-0.103435144,0.41310462,-0.22384083,-0.49070206,-0.40018827,-0.06625126,854.21246,791.75824,816.337,852.6007,880.0,-0.3885498046875,0.12103271484375,0.92657470703125,1.472930908203125,-1.68975830078125,1.24114990234375,1,1.0,1.0,1.0,1.0,20.00
2024-09-29 18:14:52.432,0.8397092,0.00599288,0.6703036,0.2866316,0.36876693,-0.3428753,-0.21311522,0.14467132,0.39988983,0.008636784,0.096663885,0.24900514,0.47356802,-0.22725393,-0.103435144,0.41310462,-0.22384083,-0.49070206,-0.40018827,-0.06625126,855.82416,792.5641,813.91943,852.1978,846.55676,-0.3885498046875,0.12103271484375,0.92657470703125,1.472930908203125,-1.68975830078125,1.24114990234375,1,1.0,1.0,1.0,1.0,20.00
2024-09-29 18:14:52.432,0.8397092,0.00599288,0.6703036,0.2866316,0.36876693,-0.3428753,-0.21311522,0.14467132,0.39988983,0.008636784,0.096663885,0.24900514,0.47356802,-0.22725393,-0.103435144,0.41310462,-0.22384083,-0.49070206,-0.40018827,-0.06625126,852.6007,797.8022,816.7399,852.6007,672.0879,-0.3885498046875,0.12103271484375,0.92657470703125,1.472930908203125,-1.68975830078125,1.24114990234375,1,1.0,1.0,1.0,1.0,20.00
2024-09-29 18:14:52.433,0.8397092,0.00599288,0.6703036,0.2866316,0.36876693,-0.3428753,-0.21311522,0.14467132,0.39988983,0.008636784,0.096663885,0.24900514,0.47356802,-0.22725393,-0.103435144,0.41310462,-0.22384083,-0.49070206,-0.40018827,-0.06625126,848.97437,794.17584,817.5458,849.3773,960.989,-0.3885498046875,0.12103271484375,0.92657470703125,1.472930908203125,-1.68975830078125,1.24114990234375,1,1.0,1.0,1.0,1.0,20.00
2024-09-29 18:14:52.433,0.8397092,0.00599288,0.6703036,0.2866316,0.36876693,-0.3428753,-0.21311522,0.14467132,0.39988983,0.008636784,0.096663885,0.24900514,0.47356802,-0.22725393,-0.103435144,0.41310462,-0.22384083,-0.49070206,-0.40018827,-0.06625126,851.79486,792.1612,815.5311,849.7802,1097.5824,-0.3885498046875,0.12103271484375,0.92657470703125,1.472930908203125,-1.68975830078125,1.24114990234375,1,1.0,1.0,1.0,1.0,20.00
2024-09-29 18:14:52.434,0.8397092,0.00599288,0.6703036,0.2866316,0.36876693,-0.3428753,-0.21311522,0.14467132,0.39988983,0.008636784,0.096663885,0.24900514,0.47356802,-0.22725393,-0.103435144,0.41310462,-0.22384083,-0.49070206,-0.40018827,-0.06625126,840.5128,796.1905,815.12823,841.7216,876.77655,-0.3885498046875,0.12103271484375,0.92657470703125,1.472930908203125,-1.68975830078125,1.24114990234375,1,1.0,1.0,1.0,1.0,20.00
2024-09-29 18:14:52.496,0.8397092,0.00599288,0.6703036,0.2866316,0.36876693,-0.3428753,-0.21311522,0.14467132,0.39988983,0.008636784,0.096663885,0.24900514,0.47356802,-0.22725393,-0.103435144,0.41310462,-0.22384083,-0.49070206,-0.40018827,-0.06625126,839.304,792.1612,811.9048,830.0366,809.4872,-0.389404296875,0.1285400390625,0.9296875,0.785064697265625,-0.994415283203125,2.03369140625,1,1.0,1.0,1.0,1.0,20.00
2024-09-29 18:14:52.497,0.8397092,0.00599288,0.6703036,0.2866316,0.36876693,-0.3428753,-0.21311522,0.14467132,0.39988983,0.008636784,0.096663885,0.24900514,0.47356802,-0.22725393,-0.103435144,0.41310462,-0.22384083,-0.49070206,-0.40018827,-0.06625126,856.63007,791.75824,817.5458,832.8571,768.7912,-0.389404296875,0.1285400390625,0.9296875,0.785064697265625,-0.994415283203125,2.03369140625,1,1.0,1.0,1.0,1.0,20.00
2024-09-29 18:14:52.498,0.8397092,0.00599288,0.6703036,0.2866316,0.36876693,-0.3428753,-0.21311522,0.14467132,0.39988983,0.008636784,0.096663885,0.24900514,0.47356802,-0.22725393,-0.103435144,0.41310462,-0.22384083,-0.49070206,-0.40018827,-0.06625126,848.97437,792.1612,813.5165,839.707,799.011,-0.389404296875,0.1285400390625,0.9296875,0.785064697265625,-0.994415283203125,2.03369140625,1,1.0,1.0,1.0,1.0,20.00
2024-09-29 18:14:52.499,0.8397092,0.00599288,0.6703036,0.2866316,0.36876693,-0.3428753,-0.21311522,0.14467132,0.39988983,0.008636784,0.096663885,0.24900514,0.47356802,-0.22725393,-0.103435144,0.41310462,-0.22384083,-0.49070206,-0.40018827,-0.06625126,839.707,794.17584,809.89014,844.1392,866.30035,-0.389404296875,0.1285400390625,0.9296875,0.785064697265625,-0.994415283203125,2.03369140625,1,1.0,1.0,1.0,1.0,20.00
2024-09-29 18:14:52.499,0.8397092,0.00599288,0.6703036,0.2866316,0.36876693,-0.3428753,-0.21311522,0.14467132,0.39988983,0.008636784,0.096663885,0.24900514,0.47356802,-0.22725393,-0.103435144,0.41310462,-0.22384083,-0.49070206,-0.40018827,-0.06625126,842.9304,800.6227,817.5458,843.3333,869.5238,-0.389404296875,0.1285400390625,0.9296875,0.785064697265625,-0.994415283203125,2.03369140625,1,1.0,1.0,1.0,1.0,20.00
2024-09-29 18:14:52.500,0.8397092,0.00599288,0.6703036,0.2866316,0.36876693,-0.3428753,-0.21311522,0.14467132,0.39988983,0.008636784,0.096663885,0.24900514,0.47356802,-0.22725393,-0.103435144,0.41310462,-0.22384083,-0.49070206,-0.40018827,-0.06625126,848.5714,802.6374,817.9487,842.52747,940.84247,-0.389404296875,0.1285400390625,0.9296875,0.785064697265625,-0.994415283203125,2.03369140625,1,1.0,1.0,1.0,1.0,20.00
2024-09-29 18:14:52.500,0.8397092,0.00599288,0.6703036,0.2866316,0.36876693,-0.3428753,-0.21311522,0.14467132,0.39988983,0.008636784,0.096663885,0.24900514,0.47356802,-0.22725393,-0.103435144,0.41310462,-0.22384083,-0.49070206,-0.40018827,-0.06625126,851.39197,797.3993,817.9487,843.73627,913.8461,-0.389404296875,0.1285400390625,0.9296875,0.785064697265625,-0.994415283203125,2.03369140625,1,1.0,1.0,1.0,1.0,20.00
2024-09-29 18:14:52.501,0.8397092,0.00599288,0.6703036,0.2866316,0.36876693,-0.3428753,-0.21311522,0.14467132,0.39988983,0.008636784,0.096663885,0.24900514,0.47356802,-0.22725393,-0.103435144,0.41310462,-0.22384083,-0.49070206,-0.40018827,-0.06625126,846.1539,792.5641,819.15753,845.7509,855.0183,-0.389404296875,0.1285400390625,0.9296875,0.785064697265625,-0.994415283203125,2.03369140625,1,1.0,1.0,1.0,1.0,20.00
2024-09-29 18:14:52.501,0.8397092,0.00599288,0.6703036,0.2866316,0.36876693,-0.3428753,-0.21311522,0.14467132,0.39988983,0.008636784,0.096663885,0.24900514,0.47356802,-0.22725393,-0.103435144,0.41310462,-0.22384083,-0.49070206,-0.40018827,-0.06625126,846.9597,793.7729,819.15753,841.7216,908.20514,-0.389404296875,0.1285400390625,0.9296875,0.785064697265625,-0.994415283203125,2.03369140625,1,1.0,1.0,1.0,1.0,20.00
2024-09-29 18:14:52.502,0.8397092,0.00599288,0.6703036,0.2866316,0.36876693,-0.3428753,-0.21311522,0.14467132,0.39988983,0.008636784,0.096663885,0.24900514,0.47356802,-0.22725393,-0.103435144,0.41310462,-0.22384083,-0.49070206,-0.40018827,-0.06625126,846.55676,799.011,819.5604,839.707,815.5311,-0.389404296875,0.1285400390625,0.9296875,0.785064697265625,-0.994415283203125,2.03369140625,1,1.0,1.0,1.0,1.0,20.00
2024-09-29 18:14:52.503,0.8397092,0.00599288,0.6703036,0.2866316,0.36876693,-0.3428753,-0.21311522,0.14467132,0.39988983,0.008636784,0.096663885,0.24900514,0.47356802,-0.22725393,-0.103435144,0.41310462,-0.22384083,-0.49070206,-0.40018827,-0.06625126,842.9304,801.4286,820.7692,844.1392,649.92676,-0.389404296875,0.1285400390625,0.9296875,0.785064697265625,-0.994415283203125,2.03369140625,1,1.0,1.0,1.0,1.0,20.00
2024-09-29 18:14:52.503,0.82303596,0.10129018,0.730345,0.26960218,0.3639968,-0.37849098,-0.19445165,0.13342436,0.39237535,0.013283604,0.07765755,0.09762292,0.4841776,-0.23441628,-0.100305334,0.43253008,-0.21304421,-0.50617486,-0.4227941,-0.061151955,845.34796,797.8022,819.9634,845.34796,717.619,-0.389404296875,0.1285400390625,0.9296875,0.785064697265625,-0.994415283203125,2.03369140625,1,1.0,1.0,1.0,1.0,20.00
2024-09-29 18:14:52.533,0.82303596,0.10129018,0.730345,0.26960218,0.3639968,-0.37849098,-0.19445165,0.13342436,0.39237535,0.013283604,0.07765755,0.09762292,0.4841776,-0.23441628,-0.100305334,0.43253008,-0.21304421,-0.50617486,-0.4227941,-0.061151955,842.9304,794.17584,819.5604,838.9011,897.326,-0.38958740234375,0.12664794921875,0.9188232421875,0.919647216796875,-0.904693603515625,1.92901611328125,1,1.0,1.0,1.0,1.0,20.00
2024-09-29 18:14:52.534,0.82303596,0.10129018,0.730345,0.26960218,0.3639968,-0.37849098,-0.19445165,0.13342436,0.39237535,0.013283604,0.07765755,0.09762292,0.4841776,-0.23441628,-0.100305334,0.43253008,-0.21304421,-0.50617486,-0.4227941,-0.061151955,838.49817,797.3993,815.12823,837.28937,1207.9854,-0.38958740234375,0.12664794921875,0.9188232421875,0.919647216796875,-0.904693603515625,1.92901611328125,1,1.0,1.0,1.0,1.0,20.00
2024-09-29 18:14:52.534,0.82303596,0.10129018,0.730345,0.26960218,0.3639968,-0.37849098,-0.19445165,0.13342436,0.39237535,0.013283604,0.07765755,0.09762292,0.4841776,-0.23441628,-0.100305334,0.43253008,-0.21304421,-0.50617486,-0.4227941,-0.061151955,842.1245,802.23444,814.7253,838.49817,956.1539,-0.38958740234375,0.12664794921875,0.9188232421875,0.919647216796875,-0.904693603515625,1.92901611328125,1,1.0,1.0,1.0,1.0,20.00
2024-09-29 18:14:52.535,0.82303596,0.10129018,0.730345,0.26960218,0.3639968,-0.37849098,-0.19445165,0.13342436,0.39237535,0.013283604,0.07765755,0.09762292,0.4841776,-0.23441628,-0.100305334,0.43253008,-0.21304421,-0.50617486,-0.4227941,-0.061151955,845.34796,801.4286,814.7253,839.707,830.0366,-0.38958740234375,0.12664794921875,0.9188232421875,0.919647216796875,-0.904693603515625,1.92901611328125,1,1.0,1.0,1.0,1.0,20.00
2024-09-29 18:14:52.535,0.82303596,0.10129018,0.730345,0.26960218,0.3639968,-0.37849098,-0.19445165,0.13342436,0.39237535,0.013283604,0.07765755,0.09762292,0.4841776,-0.23441628,-0.100305334,0.43253008,-0.21304421,-0.50617486,-0.4227941,-0.061151955,848.97437,802.23444,814.7253,841.31866,1023.44324,-0.38958740234375,0.12664794921875,0.9188232421875,0.919647216796875,-0.904693603515625,1.92901611328125,1,1.0,1.0,1.0,1.0,20.00
2024-09-29 18:14:52.536,0.82303596,0.10129018,0.730345,0.26960218,0.3639968,-0.37849098,-0.19445165,0.13342436,0.39237535,0.013283604,0.07765755,0.09762292,0.4841776,-0.23441628,-0.100305334,0.43253008,-0.21304421,-0.50617486,-0.4227941,-0.061151955,848.5714,804.2491,817.9487,839.304,979.12085,-0.38958740234375,0.12664794921875,0.9188232421875,0.919647216796875,-0.904693603515625,1.92901611328125,1,1.0,1.0,1.0,1.0,20.00
2024-09-29 18:14:52.536,0.82303596,0.10129018,0.730345,0.26960218,0.3639968,-0.37849098,-0.19445165,0.13342436,0.39237535,0.013283604,0.07765755,0.09762292,0.4841776,-0.23441628,-0.100305334,0.43253008,-0.21304421,-0.50617486,-0.4227941,-0.061151955,842.1245,798.20514,812.3077,830.4396,857.03296,-0.38958740234375,0.12664794921875,0.9188232421875,0.919647216796875,-0.904693603515625,1.92901611328125,1,1.0,1.0,1.0,1.0,20.00
2024-09-29 18:14:52.537,0.82303596,0.10129018,0.730345,0.26960218,0.3639968,-0.37849098,-0.19445165,0.13342436,0.39237535,0.013283604,0.07765755,0.09762292,0.4841776,-0.23441628,-0.100305334,0.43253008,-0.21304421,-0.50617486,-0.4227941,-0.061151955,842.9304,797.3993,811.50183,832.0513,866.7033,-0.38958740234375,0.12664794921875,0.9188232421875,0.919647216796875,-0.904693603515625,1.92901611328125,1,1.0,1.0,1.0,1.0,20.00
2024-09-29 18:14:52.537,0.82303596,0.10129018,0.730345,0.26960218,0.3639968,-0.37849098,-0.19445165,0.13342436,0.39237535,0.013283604,0.07765755,0.09762292,0.4841776,-0.23441628,-0.100305334,0.43253008,-0.21304421,-0.50617486,-0.4227941,-0.061151955,847.3626,804.2491,816.337,837.28937,1008.1319,-0.38958740234375,0.12664794921875,0.9188232421875,0.919647216796875,-0.904693603515625,1.92901611328125,1,1.0,1.0,1.0,1.0,20.00
2024-09-29 18:14:52.538,0.82303596,0.10129018,0.730345,0.26960218,0.3639968,-0.37849098,-0.19445165,0.13342436,0.39237535,0.013283604,0.07765755,0.09762292,0.4841776,-0.23441628,-0.100305334,0.43253008,-0.21304421,-0.50617486,-0.4227941,-0.061151955,849.3773,799.81683,816.7399,832.0513,902.5641,-0.38958740234375,0.12664794921875,0.9188232421875,0.919647216796875,-0.904693603515625,1.92901611328125,1,1.0,1.0,1.0,1.0,20.00
2024-09-29 18:14:52.538,0.82303596,0.10129018,0.730345,0.26960218,0.3639968,-0.37849098,-0.19445165,0.13342436,0.39237535,0.013283604,0.07765755,0.09762292,0.4841776,-0.23441628,-0.100305334,0.43253008,-0.21304421,-0.50617486,-0.4227941,-0.061151955,843.73627,796.99634,815.9341,832.0513,763.1502,-0.38958740234375,0.12664794921875,0.9188232421875,0.919647216796875,-0.904693603515625,1.92901611328125,1,1.0,1.0,1.0,1.0,20.00
2024-09-29 18:14:52.539,0.82303596,0.10129018,0.730345,0.26960218,0.3639968,-0.37849098,-0.19445165,0.13342436,0.39237535,0.013283604,0.07765755,0.09762292,0.4841776,-0.23441628,-0.100305334,0.43253008,-0.21304421,-0.50617486,-0.4227941,-0.061151955,840.10986,799.41394,815.9341,837.28937,970.2564,-0.38958740234375,0.12664794921875,0.9188232421875,0.919647216796875,-0.904693603515625,1.92901611328125,1,1.0,1.0,1.0,1.0,20.00
2024-09-29 18:14:52.630,0.82303596,0.10129018,0.730345,0.26960218,0.3639968,-0.37849098,-0.19445165,0.13342436,0.39237535,0.013283604,0.07765755,0.09762292,0.4841776,-0.23441628,-0.100305334,0.43253008,-0.21304421,-0.50617486,-0.4227941,-0.061151955,838.9011,796.99634,813.91943,840.5128,1101.6117,-0.3922119140625,0.12884521484375,0.922607421875,1.2261962890625,-2.758941650390625,2.01873779296875,1,1.0,1.0,1.0,1.0,20.00
2024-09-29 18:14:52.631,0.82303596,0.10129018,0.730345,0.26960218,0.3639968,-0.37849098,-0.19445165,0.13342436,0.39237535,0.013283604,0.07765755,0.09762292,0.4841776,-0.23441628,-0.100305334,0.43253008,-0.21304421,-0.50617486,-0.4227941,-0.061151955,841.31866,796.99634,810.293,837.28937,805.4579,-0.3922119140625,0.12884521484375,0.922607421875,1.2261962890625,-2.758941650390625,2.01873779296875,1,1.0,1.0,1.0,1.0,20.00
2024-09-29 18:14:52.632,0.82303596,0.10129018,0.730345,0.26960218,0.3639968,-0.37849098,-0.19445165,0.13342436,0.39237535,0.013283604,0.07765755,0.09762292,0.4841776,-0.23441628,-0.100305334,0.43253008,-0.21304421,-0.50617486,-0.4227941,-0.061151955,841.31866,799.011,809.0842,833.663,690.6227,-0.3922119140625,0.12884521484375,0.922607421875,1.2261962890625,-2.758941650390625,2.01873779296875,1,1.0,1.0,1.0,1.0,20.00
2024-09-29 18:14:52.632,0.82303596,0.10129018,0.730345,0.26960218,0.3639968,-0.37849098,-0.19445165,0.13342436,0.39237535,0.013283604,0.07765755,0.09762292,0.4841776,-0.23441628,-0.100305334,0.43253008,-0.21304421,-0.50617486,-0.4227941,-0.061151955,844.94507,799.81683,814.3223,835.6777,791.75824,-0.3922119140625,0.12884521484375,0.922607421875,1.2261962890625,-2.758941650390625,2.01873779296875,1,1.0,1.0,1.0,1.0,20.00
2024-09-29 18:14:52.633,0.82303596,0.10129018,0.730345,0.26960218,0.3639968,-0.37849098,-0.19445165,0.13342436,0.39237535,0.013283604,0.07765755,0.09762292,0.4841776,-0.23441628,-0.100305334,0.43253008,-0.21304421,-0.50617486,-0.4227941,-0.061151955,844.94507,796.99634,821.978,848.1685,1171.7216,-0.3922119140625,0.12884521484375,0.922607421875,1.2261962890625,-2.758941650390625,2.01873779296875,1,1.0,1.0,1.0,1.0,20.00
2024-09-29 18:14:52.633,0.82303596,0.10129018,0.730345,0.26960218,0.3639968,-0.37849098,-0.19445165,0.13342436,0.39237535,0.013283604,0.07765755,0.09762292,0.4841776,-0.23441628,-0.100305334,0.43253008,-0.21304421,-0.50617486,-0.4227941,-0.061151955,842.52747,788.1319,822.7839,850.18317,1191.0623,-0.3922119140625,0.12884521484375,0.922607421875,1.2261962890625,-2.758941650390625,2.01873779296875,1,1.0,1.0,1.0,1.0,20.00
2024-09-29 18:14:52.634,0.82303596,0.10129018,0.730345,0.26960218,0.3639968,-0.37849098,-0.19445165,0.13342436,0.39237535,0.013283604,0.07765755,0.09762292,0.4841776,-0.23441628,-0.100305334,0.43253008,-0.21304421,-0.50617486,-0.4227941,-0.061151955,860.65936,799.011,812.71063,852.6007,754.2857,-0.3922119140625,0.12884521484375,0.922607421875,1.2261962890625,-2.758941650390625,2.01873779296875,1,1.0,1.0,1.0,1.0,20.00
2024-09-29 18:14:52.634,0.82303596,0.10129018,0.730345,0.26960218,0.3639968,-0.37849098,-0.19445165,0.13342436,0.39237535,0.013283604,0.07765755,0.09762292,0.4841776,-0.23441628,-0.100305334,0.43253008,-0.21304421,-0.50617486,-0.4227941,-0.061151955,864.2857,810.293,803.44324,841.7216,627.76556,-0.3922119140625,0.12884521484375,0.922607421875,1.2261962890625,-2.758941650390625,2.01873779296875,1,1.0,1.0,1.0,1.0,20.00
2024-09-29 18:14:52.635,0.82303596,0.10129018,0.730345,0.26960218,0.3639968,-0.37849098,-0.19445165,0.13342436,0.39237535,0.013283604,0.07765755,0.09762292,0.4841776,-0.23441628,-0.100305334,0.43253008,-0.21304421,-0.50617486,-0.4227941,-0.061151955,851.79486,805.8608,803.44324,821.1722,875.9707,-0.3922119140625,0.12884521484375,0.922607421875,1.2261962890625,-2.758941650390625,2.01873779296875,1,1.0,1.0,1.0,1.0,20.00
2024-09-29 18:14:52.636,0.82303596,0.10129018,0.730345,0.26960218,0.3639968,-0.37849098,-0.19445165,0.13342436,0.39237535,0.013283604,0.07765755,0.09762292,0.4841776,-0.23441628,-0.100305334,0.43253008,-0.21304421,-0.50617486,-0.4227941,-0.061151955,860.2564,807.8755,801.8315,822.381,772.01465,-0.3922119140625,0.12884521484375,0.922607421875,1.2261962890625,-2.758941650390625,2.01873779296875,1,1.0,1.0,1.0,1.0,20.00
2024-09-29 18:14:52.636,0.82303596,0.10129018,0.730345,0.26960218,0.3639968,-0.37849098,-0.19445165,0.13342436,0.39237535,0.013283604,0.07765755,0.09762292,0.4841776,-0.23441628,-0.100305334,0.43253008,-0.21304421,-0.50617486,-0.4227941,-0.061151955,859.45056,809.0842,796.1905,826.0073,608.8278,-0.3922119140625,0.12884521484375,0.922607421875,1.2261962890625,-2.758941650390625,2.01873779296875,1,1.0,1.0,1.0,1.0,20.00
2024-09-29 18:14:52.637,0.82303596,0.10129018,0.730345,0.26960218,0.3639968,-0.37849098,-0.19445165,0.13342436,0.39237535,0.013283604,0.07765755,0.09762292,0.4841776,-0.23441628,-0.100305334,0.43253008,-0.21304421,-0.50617486,-0.4227941,-0.061151955,856.63007,808.2784,792.96704,831.2454,685.38464,-0.3922119140625,0.12884521484375,0.922607421875,1.2261962890625,-2.758941650390625,2.01873779296875,1,1.0,1.0,1.0,1.0,20.00
2024-09-29 18:14:52.660,0.82303596,0.10129018,0.730345,0.26960218,0.3639968,-0.37849098,-0.19445165,0.13342436,0.39237535,0.013283604,0.07765755,0.09762292,0.4841776,-0.23441628,-0.100305334,0.43253008,-0.21304421,-0.50617486,-0.4227941,-0.061151955,863.8828,810.696,788.93774,835.2747,738.1685,-0.38958740234375,0.13031005859375,0.92999267578125,0.46356201171875,-3.30474853515625,1.697235107421875,1,1.0,1.0,1.0,1.0,20.00
2024-09-29 18:14:52.661,0.7930385,0.23567393,0.8216882,0.27483878,0.35863072,-0.36885637,-0.118537664,0.12424587,0.38088763,0.0097512435,0.069356844,0.0022124576,0.49992335,-0.24283691,-0.09763911,0.45057583,-0.20457987,-0.51964676,-0.44378325,-0.051340237,871.13556,811.9048,784.90845,825.6044,755.4945,-0.38958740234375,0.13031005859375,0.92999267578125,0.46356201171875,-3.30474853515625,1.697235107421875,1,1.0,1.0,1.0,1.0,20.00
2024-09-29 18:14:52.665,0.7930385,0.23567393,0.8216882,0.27483878,0.35863072,-0.36885637,-0.118537664,0.12424587,0.38088763,0.0097512435,0.069356844,0.0022124576,0.49992335,-0.24283691,-0.09763911,0.45057583,-0.20457987,-0.51964676,-0.44378325,-0.051340237,875.56775,809.4872,783.69965,821.978,790.9524,-0.38958740234375,0.13031005859375,0.92999267578125,0.46356201171875,-3.30474853515625,1.697235107421875,1,1.0,1.0,1.0,1.0,20.00
2024-09-29 18:14:52.666,0.7930385,0.23567393,0.8216882,0.27483878,0.35863072,-0.36885637,-0.118537664,0.12424587,0.38088763,0.0097512435,0.069356844,0.0022124576,0.49992335,-0.24283691,-0.09763911,0.45057583,-0.20457987,-0.51964676,-0.44378325,-0.051340237,871.53845,812.71063,785.31134,824.3956,875.9707,-0.38958740234375,0.13031005859375,0.92999267578125,0.46356201171875,-3.30474853515625,1.697235107421875,1,1.0,1.0,1.0,1.0,20.00
2024-09-29 18:14:52.666,0.7930385,0.23567393,0.8216882,0.27483878,0.35863072,-0.36885637,-0.118537664,0.12424587,0.38088763,0.0097512435,0.069356844,0.0022124576,0.49992335,-0.24283691,-0.09763911,0.45057583,-0.20457987,-0.51964676,-0.44378325,-0.051340237,868.71796,820.7692,789.7436,828.4249,833.663,-0.38958740234375,0.13031005859375,0.92999267578125,0.46356201171875,-3.30474853515625,1.697235107421875,1,1.0,1.0,1.0,1.0,20.00
2024-09-29 18:14:52.667,0.7930385,0.23567393,0.8216882,0.27483878,0.35863072,-0.36885637,-0.118537664,0.12424587,0.38088763,0.0097512435,0.069356844,0.0022124576,0.49992335,-0.24283691,-0.09763911,0.45057583,-0.20457987,-0.51964676,-0.44378325,-0.051340237,871.9414,818.7546,790.54944,833.663,802.6374,-0.38958740234375,0.13031005859375,0.92999267578125,0.46356201171875,-3.30474853515625,1.697235107421875,1,1.0,1.0,1.0,1.0,20.00
2024-09-29 18:14:52.667,0.7930385,0.23567393,0.8216882,0.27483878,0.35863072,-0.36885637,-0.118537664,0.12424587,0.38088763,0.0097512435,0.069356844,0.0022124576,0.49992335,-0.24283691,-0.09763911,0.45057583,-0.20457987,-0.51964676,-0.44378325,-0.051340237,873.1502,815.5311,788.1319,830.4396,898.93774,-0.38958740234375,0.13031005859375,0.92999267578125,0.46356201171875,-3.30474853515625,1.697235107421875,1,1.0,1.0,1.0,1.0,20.00
2024-09-29 18:14:52.668,0.7930385,0.23567393,0.8216882,0.27483878,0.35863072,-0.36885637,-0.118537664,0.12424587,0.38088763,0.0097512435,0.069356844,0.0022124576,0.49992335,-0.24283691,-0.09763911,0.45057583,-0.20457987,-0.51964676,-0.44378325,-0.051340237,873.1502,812.3077,792.1612,835.2747,1048.022,-0.38958740234375,0.13031005859375,0.92999267578125,0.46356201171875,-3.30474853515625,1.697235107421875,1,1.0,1.0,1.0,1.0,20.00
2024-09-29 18:14:52.668,0.7930385,0.23567393,0.8216882,0.27483878,0.35863072,-0.36885637,-0.118537664,0.12424587,0.38088763,0.0097512435,0.069356844,0.0022124576,0.49992335,-0.24283691,-0.09763911,0.45057583,-0.20457987,-0.51964676,-0.44378325,-0.051340237,869.12085,810.696,794.57874,837.28937,923.1135,-0.38958740234375,0.13031005859375,0.92999267578125,0.46356201171875,-3.30474853515625,1.697235107421875,1,1.0,1.0,1.0,1.0,20.00
2024-09-29 18:14:52.669,0.7930385,0.23567393,0.8216882,0.27483878,0.35863072,-0.36885637,-0.118537664,0.12424587,0.38088763,0.0097512435,0.069356844,0.0022124576,0.49992335,-0.24283691,-0.09763911,0.45057583,-0.20457987,-0.51964676,-0.44378325,-0.051340237,870.32965,810.293,792.96704,832.8571,832.0513,-0.38958740234375,0.13031005859375,0.92999267578125,0.46356201171875,-3.30474853515625,1.697235107421875,1,1.0,1.0,1.0,1.0,20.00
2024-09-29 18:14:52.669,0.7930385,0.23567393,0.8216882,0.27483878,0.35863072,-0.36885637,-0.118537664,0.12424587,0.38088763,0.0097512435,0.069356844,0.0022124576,0.49992335,-0.24283691,-0.09763911,0.45057583,-0.20457987,-0.51964676,-0.44378325,-0.051340237,869.5238,811.50183,798.20514,834.4689,916.26373,-0.38958740234375,0.13031005859375,0.92999267578125,0.46356201171875,-3.30474853515625,1.697235107421875,1,1.0,1.0,1.0,1.0,20.00
2024-09-29 18:14:52.670,0.7930385,0.23567393,0.8216882,0.27483878,0.35863072,-0.36885637,-0.118537664,0.12424587,0.38088763,0.0097512435,0.069356844,0.0022124576,0.49992335,-0.24283691,-0.09763911,0.45057583,-0.20457987,-0.51964676,-0.44378325,-0.051340237,874.35895,809.4872,803.0403,840.10986,878.3883,-0.38958740234375,0.13031005859375,0.92999267578125,0.46356201171875,-3.30474853515625,1.697235107421875,1,1.0,1.0,1.0,1.0,20.00
2024-09-29 18:14:52.670,0.7930385,0.23567393,0.8216882,0.27483878,0.35863072,-0.36885637,-0.118537664,0.12424587,0.38088763,0.0097512435,0.069356844,0.0022124576,0.49992335,-0.24283691,-0.09763911,0.45057583,-0.20457987,-0.51964676,-0.44378325,-0.051340237,873.1502,804.2491,806.6667,840.10986,686.5934,-0.38958740234375,0.13031005859375,0.92999267578125,0.46356201171875,-3.30474853515625,1.697235107421875,1,1.0,1.0,1.0,1.0,20.00
2024-09-29 18:14:52.671,0.7930385,0.23567393,0.8216882,0.27483878,0.35863072,-0.36885637,-0.118537664,0.12424587,0.38088763,0.0097512435,0.069356844,0.0022124576,0.49992335,-0.24283691,-0.09763911,0.45057583,-0.20457987,-0.51964676,-0.44378325,-0.051340237,867.1062,808.2784,804.65204,838.0952,689.011,-0.38958740234375,0.13031005859375,0.92999267578125,0.46356201171875,-3.30474853515625,1.697235107421875,1,1.0,1.0,1.0,1.0,20.00
2024-09-29 18:14:52.671,0.7930385,0.23567393,0.8216882,0.27483878,0.35863072,-0.36885637,-0.118537664,0.12424587,0.38088763,0.0097512435,0.069356844,0.0022124576,0.49992335,-0.24283691,-0.09763911,0.45057583,-0.20457987,-0.51964676,-0.44378325,-0.051340237,861.4652,812.71063,797.8022,838.0952,783.2967,-0.38958740234375,0.13031005859375,0.92999267578125,0.46356201171875,-3.30474853515625,1.697235107421875,1,1.0,1.0,1.0,1.0,20.00
2024-09-29 18:14:52.672,0.7930385,0.23567393,0.8216882,0.27483878,0.35863072,-0.36885637,-0.118537664,0.12424587,0.38088763,0.0097512435,0.069356844,0.0022124576,0.49992335,-0.24283691,-0.09763911,0.45057583,-0.20457987,-0.51964676,-0.44378325,-0.051340237,850.58606,807.8755,799.41394,832.8571,782.49084,-0.38958740234375,0.13031005859375,0.92999267578125,0.46356201171875,-3.30474853515625,1.697235107421875,1,1.0,1.0,1.0,1.0,20.00
2024-09-29 18:14:52.672,0.7930385,0.23567393,0.8216882,0.27483878,0.35863072,-0.36885637,-0.118537664,0.12424587,0.38088763,0.0097512435,0.069356844,0.0022124576,0.49992335,-0.24283691,-0.09763911,0.45057583,-0.20457987,-0.51964676,-0.44378325,-0.051340237,849.3773,810.293,804.65204,824.3956,752.674,-0.38958740234375,0.13031005859375,0.92999267578125,0.46356201171875,-3.30474853515625,1.697235107421875,1,1.0,1.0,1.0,1.0,20.00
2024-09-29 18:14:52.673,0.7930385,0.23567393,0.8216882,0.27483878,0.35863072,-0.36885637,-0.118537664,0.12424587,0.38088763,0.0097512435,0.069356844,0.0022124576,0.49992335,-0.24283691,-0.09763911,0.45057583,-0.20457987,-0.51964676,-0.44378325,-0.051340237,846.9597,813.91943,807.0696,828.8278,817.1429,-0.38958740234375,0.13031005859375,0.92999267578125,0.46356201171875,-3.30474853515625,1.697235107421875,1,1.0,1.0,1.0,1.0,20.00
2024-09-29 18:14:52.673,0.7930385,0.23567393,0.8216882,0.27483878,0.35863072,-0.36885637,-0.118537664,0.12424587,0.38088763,0.0097512435,0.069356844,0.0022124576,0.49992335,-0.24283691,-0.09763911,0.45057583,-0.20457987,-0.51964676,-0.44378325,-0.051340237,842.9304,810.696,812.71063,831.2454,989.59705,-0.38958740234375,0.13031005859375,0.92999267578125,0.46356201171875,-3.30474853515625,1.697235107421875,1,1.0,1.0,1.0,1.0,20.00
2024-09-29 18:14:52.674,0.7930385,0.23567393,0.8216882,0.27483878,0.35863072,-0.36885637,-0.118537664,0.12424587,0.38088763,0.0097512435,0.069356844,0.0022124576,0.49992335,-0.24283691,-0.09763911,0.45057583,-0.20457987,-0.51964676,-0.44378325,-0.051340237,847.76556,807.8755,820.3663,832.0513,978.71796,-0.38958740234375,0.13031005859375,0.92999267578125,0.46356201171875,-3.30474853515625,1.697235107421875,1,1.0,1.0,1.0,1.0,20.00
2024-09-29 18:14:52.674,0.7930385,0.23567393,0.8216882,0.27483878,0.35863072,-0.36885637,-0.118537664,0.12424587,0.38088763,0.0097512435,0.069356844,0.0022124576,0.49992335,-0.24283691,-0.09763911,0.45057583,-0.20457987,-0.51964676,-0.44378325,-0.051340237,846.9597,812.3077,817.1429,837.28937,733.3333,-0.38958740234375,0.13031005859375,0.92999267578125,0.46356201171875,-3.30474853515625,1.697235107421875,1,1.0,1.0,1.0,1.0,20.00
2024-09-29 18:14:52.674,0.7930385,0.23567393,0.8216882,0.27483878,0.35863072,-0.36885637,-0.118537664,0.12424587,0.38088763,0.0097512435,0.069356844,0.0022124576,0.49992335,-0.24283691,-0.09763911,0.45057583,-0.20457987,-0.51964676,-0.44378325,-0.051340237,847.76556,810.696,816.337,843.3333,587.0696,-0.38958740234375,0.13031005859375,0.92999267578125,0.46356201171875,-3.30474853515625,1.697235107421875,1,1.0,1.0,1.0,1.0,20.00
2024-09-29 18:14:52.675,0.7930385,0.23567393,0.8216882,0.27483878,0.35863072,-0.36885637,-0.118537664,0.12424587,0.38088763,0.0097512435,0.069356844,0.0022124576,0.49992335,-0.24283691,-0.09763911,0.45057583,-0.20457987,-0.51964676,-0.44378325,-0.051340237,847.3626,807.47253,819.15753,836.8865,711.978,-0.38958740234375,0.13031005859375,0.92999267578125,0.46356201171875,-3.30474853515625,1.697235107421875,1,1.0,1.0,1.0,1.0,20.00
2024-09-29 18:14:52.675,0.7930385,0.23567393,0.8216882,0.27483878,0.35863072,-0.36885637,-0.118537664,0.12424587,0.38088763,0.0097512435,0.069356844,0.0022124576,0.49992335,-0.24283691,-0.09763911,0.45057583,-0.20457987,-0.51964676,-0.44378325,-0.051340237,842.9304,808.2784,817.1429,828.022,842.9304,-0.38958740234375,0.13031005859375,0.92999267578125,0.46356201171875,-3.30474853515625,1.697235107421875,1,1.0,1.0,1.0,1.0,20.00
2024-09-29 18:14:52.697,0.7930385,0.23567393,0.8216882,0.27483878,0.35863072,-0.36885637,-0.118537664,0.12424587,0.38088763,0.0097512435,0.069356844,0.0022124576,0.49992335,-0.24283691,-0.09763911,0.45057583,-0.20457987,-0.51964676,-0.44378325,-0.051340237,848.1685,804.2491,817.9487,829.6337,742.6007,-0.38568115234375,0.12347412109375,0.92999267578125,-0.43365478515625,-4.3365478515625,1.966400146484375,1,1.0,1.0,1.0,1.0,20.00
2024-09-29 18:14:52.698,0.7930385,0.23567393,0.8216882,0.27483878,0.35863072,-0.36885637,-0.118537664,0.12424587,0.38088763,0.0097512435,0.069356844,0.0022124576,0.49992335,-0.24283691,-0.09763911,0.45057583,-0.20457987,-0.51964676,-0.44378325,-0.051340237,845.34796,799.41394,816.337,834.0659,683.36993,-0.38568115234375,0.12347412109375,0.92999267578125,-0.43365478515625,-4.3365478515625,1.966400146484375,1,1.0,1.0,1.0,1.0,20.00
2024-09-29 18:14:52.698,0.7930385,0.23567393,0.8216882,0.27483878,0.35863072,-0.36885637,-0.118537664,0.12424587,0.38088763,0.0097512435,0.069356844,0.0022124576,0.49992335,-0.24283691,-0.09763911,0.45057583,-0.20457987,-0.51964676,-0.44378325,-0.051340237,842.52747,799.011,812.71063,839.304,848.97437,-0.38568115234375,0.12347412109375,0.92999267578125,-0.43365478515625,-4.3365478515625,1.966400146484375,1,1.0,1.0,1.0,1.0,20.00
2024-09-29 18:14:52.699,0.75775516,0.38150483,0.9148947,0.29074934,0.3543066,-0.3020724,0.0042175897,0.12428687,0.3547527,-0.018265637,0.05103957,-0.039277904,0.5204909,-0.2487255,-0.09520426,0.4678403,-0.20203762,-0.5269753,-0.4615197,-0.04237697,846.1539,803.44324,807.0696,835.6777,927.5458,-0.38568115234375,0.12347412109375,0.92999267578125,-0.43365478515625,-4.3365478515625,1.966400146484375,1,1.0,1.0,1.0,1.0,20.00
2024-09-29 18:14:52.703,0.75775516,0.38150483,0.9148947,0.29074934,0.3543066,-0.3020724,0.0042175897,0.12428687,0.3547527,-0.018265637,0.05103957,-0.039277904,0.5204909,-0.2487255,-0.09520426,0.4678403,-0.20203762,-0.5269753,-0.4615197,-0.04237697,853.4066,803.8461,812.3077,832.8571,739.7802,-0.38568115234375,0.12347412109375,0.92999267578125,-0.43365478515625,-4.3365478515625,1.966400146484375,1,1.0,1.0,1.0,1.0,20.00
2024-09-29 18:14:52.704,0.75775516,0.38150483,0.9148947,0.29074934,0.3543066,-0.3020724,0.0042175897,0.12428687,0.3547527,-0.018265637,0.05103957,-0.039277904,0.5204909,-0.2487255,-0.09520426,0.4678403,-0.20203762,-0.5269753,-0.4615197,-0.04237697,855.0183,796.5934,820.3663,835.6777,751.06226,-0.38568115234375,0.12347412109375,0.92999267578125,-0.43365478515625,-4.3365478515625,1.966400146484375,1,1.0,1.0,1.0,1.0,20.00
2024-09-29 18:14:52.705,0.75775516,0.38150483,0.9148947,0.29074934,0.3543066,-0.3020724,0.0042175897,0.12428687,0.3547527,-0.018265637,0.05103957,-0.039277904,0.5204909,-0.2487255,-0.09520426,0.4678403,-0.20203762,-0.5269753,-0.4615197,-0.04237697,846.1539,793.7729,813.5165,841.31866,970.65936,-0.38568115234375,0.12347412109375,0.92999267578125,-0.43365478515625,-4.3365478515625,1.966400146484375,1,1.0,1.0,1.0,1.0,20.00
2024-09-29 18:14:52.705,0.75775516,0.38150483,0.9148947,0.29074934,0.3543066,-0.3020724,0.0042175897,0.12428687,0.3547527,-0.018265637,0.05103957,-0.039277904,0.5204909,-0.2487255,-0.09520426,0.4678403,-0.20203762,-0.5269753,-0.4615197,-0.04237697,851.79486,796.1905,816.337,848.5714,954.1392,-0.38568115234375,0.12347412109375,0.92999267578125,-0.43365478515625,-4.3365478515625,1.966400146484375,1,1.0,1.0,1.0,1.0,20.00
2024-09-29 18:14:52.706,0.75775516,0.38150483,0.9148947,0.29074934,0.3543066,-0.3020724,0.0042175897,0.12428687,0.3547527,-0.018265637,0.05103957,-0.039277904,0.5204909,-0.2487255,-0.09520426,0.4678403,-0.20203762,-0.5269753,-0.4615197,-0.04237697,855.0183,800.2198,821.978,851.39197,791.3553,-0.38568115234375,0.12347412109375,0.92999267578125,-0.43365478515625,-4.3365478515625,1.966400146484375,1,1.0,1.0,1.0,1.0,20.00
2024-09-29 18:14:52.706,0.75775516,0.38150483,0.9148947,0.29074934,0.3543066,-0.3020724,0.0042175897,0.12428687,0.3547527,-0.018265637,0.05103957,-0.039277904,0.5204909,-0.2487255,-0.09520426,0.4678403,-0.20203762,-0.5269753,-0.4615197,-0.04237697,858.24176,800.2198,819.5604,844.94507,678.93774,-0.38568115234375,0.12347412109375,0.92999267578125,-0.43365478515625,-4.3365478515625,1.966400146484375,1,1.0,1.0,1.0,1.0,20.00
2024-09-29 18:14:52.707,0.75775516,0.38150483,0.9148947,0.29074934,0.3543066,-0.3020724,0.0042175897,0.12428687,0.3547527,-0.018265637,0.05103957,-0.039277904,0.5204909,-0.2487255,-0.09520426,0.4678403,-0.20203762,-0.5269753,-0.4615197,-0.04237697,851.79486,796.1905,813.5165,853.00366,948.49817,-0.38568115234375,0.12347412109375,0.92999267578125,-0.43365478515625,-4.3365478515625,1.966400146484375,1,1.0,1.0,1.0,1.0,20.00
2024-09-29 18:14:52.707,0.75775516,0.38150483,0.9148947,0.29074934,0.3543066,-0.3020724,0.0042175897,0.12428687,0.3547527,-0.018265637,0.05103957,-0.039277904,0.5204909,-0.2487255,-0.09520426,0.4678403,-0.20203762,-0.5269753,-0.4615197,-0.04237697,844.94507,792.96704,805.05493,868.71796,1396.5568,-0.38568115234375,0.12347412109375,0.92999267578125,-0.43365478515625,-4.3365478515625,1.966400146484375,1,1.0,1.0,1.0,1.0,20.00
2024-09-29 18:14:52.729,0.75775516,0.38150483,0.9148947,0.29074934,0.3543066,-0.3020724,0.0042175897,0.12428687,0.3547527,-0.018265637,0.05103957,-0.039277904,0.5204909,-0.2487255,-0.09520426,0.4678403,-0.20203762,-0.5269753,-0.4615197,-0.04237697,848.97437,800.2198,817.5458,861.4652,1353.8462,-0.386962890625,0.12603759765625,0.936279296875,0.1495361328125,-2.699127197265625,0.710296630859375,1,1.0,1.0,1.0,1.0,20.00
2024-09-29 18:14:52.730,0.75775516,0.38150483,0.9148947,0.29074934,0.3543066,-0.3020724,0.0042175897,0.12428687,0.3547527,-0.018265637,0.05103957,-0.039277904,0.5204909,-0.2487255,-0.09520426,0.4678403,-0.20203762,-0.5269753,-0.4615197,-0.04237697,856.2271,801.8315,827.2161,849.3773,1001.685,-0.386962890625,0.12603759765625,0.936279296875,0.1495361328125,-2.699127197265625,0.710296630859375,1,1.0,1.0,1.0,1.0,20.00
2024-09-29 18:14:52.731,0.75775516,0.38150483,0.9148947,0.29074934,0.3543066,-0.3020724,0.0042175897,0.12428687,0.3547527,-0.018265637,0.05103957,-0.039277904,0.5204909,-0.2487255,-0.09520426,0.4678403,-0.20203762,-0.5269753,-0.4615197,-0.04237697,858.6447,801.02563,821.978,845.34796,921.9048,-0.386962890625,0.12603759765625,0.936279296875,0.1495361328125,-2.699127197265625,0.710296630859375,1,1.0,1.0,1.0,1.0,20.00
2024-09-29 18:14:52.731,0.75775516,0.38150483,0.9148947,0.29074934,0.3543066,-0.3020724,0.0042175897,0.12428687,0.3547527,-0.018265637,0.05103957,-0.039277904,0.5204909,-0.2487255,-0.09520426,0.4678403,-0.20203762,-0.5269753,-0.4615197,-0.04237697,855.42126,805.8608,825.2015,846.9597,733.73627,-0.386962890625,0.12603759765625,0.936279296875,0.1495361328125,-2.699127197265625,0.710296630859375,1,1.0,1.0,1.0,1.0,20.00
2024-09-29 18:14:52.732,0.75775516,0.38150483,0.9148947,0.29074934,0.3543066,-0.3020724,0.0042175897,0.12428687,0.3547527,-0.018265637,0.05103957,-0.039277904,0.5204909,-0.2487255,-0.09520426,0.4678403,-0.20203762,-0.5269753,-0.4615197,-0.04237697,855.0183,807.47253,822.381,854.21246,692.6374,-0.386962890625,0.12603759765625,0.936279296875,0.1495361328125,-2.699127197265625,0.710296630859375,1,1.0,1.0,1.0,1.0,20.00
2024-09-29 18:14:52.732,0.75775516,0.38150483,0.9148947,0.29074934,0.3543066,-0.3020724,0.0042175897,0.12428687,0.3547527,-0.018265637,0.05103957,-0.039277904,0.5204909,-0.2487255,-0.09520426,0.4678403,-0.20203762,-0.5269753,-0.4615197,-0.04237697,850.989,804.65204,825.2015,851.79486,859.45056,-0.386962890625,0.12603759765625,0.936279296875,0.1495361328125,-2.699127197265625,0.710296630859375,1,1.0,1.0,1.0,1.0,20.00
2024-09-29 18:14:52.733,0.75775516,0.38150483,0.9148947,0.29074934,0.3543066,-0.3020724,0.0042175897,0.12428687,0.3547527,-0.018265637,0.05103957,-0.039277904,0.5204909,-0.2487255,-0.09520426,0.4678403,-0.20203762,-0.5269753,-0.4615197,-0.04237697,853.8095,803.0403,834.87177,848.1685,810.696,-0.386962890625,0.12603759765625,0.936279296875,0.1495361328125,-2.699127197265625,0.710296630859375,1,1.0,1.0,1.0,1.0,20.00
2024-09-29 18:14:52.733,0.75775516,0.38150483,0.9148947,0.29074934,0.3543066,-0.3020724,0.0042175897,0.12428687,0.3547527,-0.018265637,0.05103957,-0.039277904,0.5204909,-0.2487255,-0.09520426,0.4678403,-0.20203762,-0.5269753,-0.4615197,-0.04237697,859.45056,798.20514,835.6777,853.00366,782.8938,-0.386962890625,0.12603759765625,0.936279296875,0.1495361328125,-2.699127197265625,0.710296630859375,1,1.0,1.0,1.0,1.0,20.00
2024-09-29 18:14:52.734,0.75775516,0.38150483,0.9148947,0.29074934,0.3543066,-0.3020724,0.0042175897,0.12428687,0.3547527,-0.018265637,0.05103957,-0.039277904,0.5204909,-0.2487255,-0.09520426,0.4678403,-0.20203762,-0.5269753,-0.4615197,-0.04237697,855.82416,796.1905,834.4689,854.21246,820.7692,-0.386962890625,0.12603759765625,0.936279296875,0.1495361328125,-2.699127197265625,0.710296630859375,1,1.0,1.0,1.0,1.0,20.00
2024-09-29 18:14:52.734,0.75775516,0.38150483,0.9148947,0.29074934,0.3543066,-0.3020724,0.0042175897,0.12428687,0.3547527,-0.018265637,0.05103957,-0.039277904,0.5204909,-0.2487255,-0.09520426,0.4678403,-0.20203762,-0.5269753,-0.4615197,-0.04237697,868.315,797.3993,830.84247,855.0183,899.7436,-0.386962890625,0.12603759765625,0.936279296875,0.1495361328125,-2.699127197265625,0.710296630859375,1,1.0,1.0,1.0,1.0,20.00
2024-09-29 18:14:52.735,0.75775516,0.38150483,0.9148947,0.29074934,0.3543066,-0.3020724,0.0042175897,0.12428687,0.3547527,-0.018265637,0.05103957,-0.039277904,0.5204909,-0.2487255,-0.09520426,0.4678403,-0.20203762,-0.5269753,-0.4615197,-0.04237697,868.71796,795.38464,825.6044,852.1978,1276.0806,-0.386962890625,0.12603759765625,0.936279296875,0.1495361328125,-2.699127197265625,0.710296630859375,1,1.0,1.0,1.0,1.0,20.00
2024-09-29 18:14:52.735,0.75775516,0.38150483,0.9148947,0.29074934,0.3543066,-0.3020724,0.0042175897,0.12428687,0.3547527,-0.018265637,0.05103957,-0.039277904,0.5204909,-0.2487255,-0.09520426,0.4678403,-0.20203762,-0.5269753,-0.4615197,-0.04237697,847.3626,797.3993,823.5897,840.10986,1116.1172,-0.386962890625,0.12603759765625,0.936279296875,0.1495361328125,-2.699127197265625,0.710296630859375,1,1.0,1.0,1.0,1.0,20.00
2024-09-29 18:14:52.798,0.75775516,0.38150483,0.9148947,0.29074934,0.3543066,-0.3020724,0.0042175897,0.12428687,0.3547527,-0.018265637,0.05103957,-0.039277904,0.5204909,-0.2487255,-0.09520426,0.4678403,-0.20203762,-0.5269753,-0.4615197,-0.04237697,841.7216,793.36993,827.619,833.2601,910.2198,-0.37908935546875,0.12261962890625,0.92608642578125,-0.16448974609375,-3.222503662109375,0.7177734375,1,1.0,1.0,1.0,1.0,20.00
2024-09-29 18:14:52.799,0.75775516,0.38150483,0.9148947,0.29074934,0.3543066,-0.3020724,0.0042175897,0.12428687,0.3547527,-0.018265637,0.05103957,-0.039277904,0.5204909,-0.2487255,-0.09520426,0.4678403,-0.20203762,-0.5269753,-0.4615197,-0.04237697,863.0769,785.31134,832.0513,845.7509,946.8865,-0.37908935546875,0.12261962890625,0.92608642578125,-0.16448974609375,-3.222503662109375,0.7177734375,1,1.0,1.0,1.0,1.0,20.00
2024-09-29 18:14:52.799,0.75775516,0.38150483,0.9148947,0.29074934,0.3543066,-0.3020724,0.0042175897,0.12428687,0.3547527,-0.018265637,0.05103957,-0.039277904,0.5204909,-0.2487255,-0.09520426,0.4678403,-0.20203762,-0.5269753,-0.4615197,-0.04237697,875.56775,787.326,832.0513,859.0476,839.707,-0.37908935546875,0.12261962890625,0.92608642578125,-0.16448974609375,-3.222503662109375,0.7177734375,1,1.0,1.0,1.0,1.0,20.00
2024-09-29 18:14:52.800,0.75775516,0.38150483,0.9148947,0.29074934,0.3543066,-0.3020724,0.0042175897,0.12428687,0.3547527,-0.018265637,0.05103957,-0.039277904,0.5204909,-0.2487255,-0.09520426,0.4678403,-0.20203762,-0.5269753,-0.4615197,-0.04237697,874.35895,789.7436,834.0659,857.8388,818.3516,-0.37908935546875,0.12261962890625,0.92608642578125,-0.16448974609375,-3.222503662109375,0.7177734375,1,1.0,1.0,1.0,1.0,20.00
2024-09-29 18:14:52.800,0.75775516,0.38150483,0.9148947,0.29074934,0.3543066,-0.3020724,0.0042175897,0.12428687,0.3547527,-0.018265637,0.05103957,-0.039277904,0.5204909,-0.2487255,-0.09520426,0.4678403,-0.20203762,-0.5269753,-0.4615197,-0.04237697,872.74725,790.14655,837.28937,855.0183,827.619,-0.37908935546875,0.12261962890625,0.92608642578125,-0.16448974609375,-3.222503662109375,0.7177734375,1,1.0,1.0,1.0,1.0,20.00
2024-09-29 18:14:52.801,0.722612,0.5011955,0.9745557,0.2986765,0.35468894,-0.20815268,0.13605021,0.14224719,0.33039626,-0.033321556,0.12614441,-0.041634448,0.54357964,-0.247412,-0.090024546,0.48463127,-0.20497759,-0.52724975,-0.47037417,-0.039934173,870.7326,789.7436,834.87177,853.4066,1035.5311,-0.37908935546875,0.12261962890625,0.92608642578125,-0.16448974609375,-3.222503662109375,0.7177734375,1,1.0,1.0,1.0,1.0,20.00
2024-09-29 18:14:52.805,0.722612,0.5011955,0.9745557,0.2986765,0.35468894,-0.20815268,0.13605021,0.14224719,0.33039626,-0.033321556,0.12614441,-0.041634448,0.54357964,-0.247412,-0.090024546,0.48463127,-0.20497759,-0.52724975,-0.47037417,-0.039934173,865.89746,789.34064,832.0513,850.58606,1054.4689,-0.37908935546875,0.12261962890625,0.92608642578125,-0.16448974609375,-3.222503662109375,0.7177734375,1,1.0,1.0,1.0,1.0,20.00
2024-09-29 18:14:52.806,0.722612,0.5011955,0.9745557,0.2986765,0.35468894,-0.20815268,0.13605021,0.14224719,0.33039626,-0.033321556,0.12614441,-0.041634448,0.54357964,-0.247412,-0.090024546,0.48463127,-0.20497759,-0.52724975,-0.47037417,-0.039934173,861.06226,793.36993,829.2308,848.97437,782.0879,-0.37908935546875,0.12261962890625,0.92608642578125,-0.16448974609375,-3.222503662109375,0.7177734375,1,1.0,1.0,1.0,1.0,20.00
2024-09-29 18:14:52.806,0.722612,0.5011955,0.9745557,0.2986765,0.35468894,-0.20815268,0.13605021,0.14224719,0.33039626,-0.033321556,0.12614441,-0.041634448,0.54357964,-0.247412,-0.090024546,0.48463127,-0.20497759,-0.52724975,-0.47037417,-0.039934173,855.0183,792.1612,824.3956,846.1539,778.86444,-0.37908935546875,0.12261962890625,0.92608642578125,-0.16448974609375,-3.222503662109375,0.7177734375,1,1.0,1.0,1.0,1.0,20.00
2024-09-29 18:14:52.807,0.722612,0.5011955,0.9745557,0.2986765,0.35468894,-0.20815268,0.13605021,0.14224719,0.33039626,-0.033321556,0.12614441,-0.041634448,0.54357964,-0.247412,-0.090024546,0.48463127,-0.20497759,-0.52724975,-0.47037417,-0.039934173,855.42126,787.72894,831.2454,855.0183,1080.6593,-0.37908935546875,0.12261962890625,0.92608642578125,-0.16448974609375,-3.222503662109375,0.7177734375,1,1.0,1.0,1.0,1.0,20.00
2024-09-29 18:14:52.807,0.722612,0.5011955,0.9745557,0.2986765,0.35468894,-0.20815268,0.13605021,0.14224719,0.33039626,-0.033321556,0.12614441,-0.041634448,0.54357964,-0.247412,-0.090024546,0.48463127,-0.20497759,-0.52724975,-0.47037417,-0.039934173,859.85345,793.7729,835.6777,852.1978,896.9231,-0.37908935546875,0.12261962890625,0.92608642578125,-0.16448974609375,-3.222503662109375,0.7177734375,1,1.0,1.0,1.0,1.0,20.00
2024-09-29 18:14:52.808,0.722612,0.5011955,0.9745557,0.2986765,0.35468894,-0.20815268,0.13605021,0.14224719,0.33039626,-0.033321556,0.12614441,-0.041634448,0.54357964,-0.247412,-0.090024546,0.48463127,-0.20497759,-0.52724975,-0.47037417,-0.039934173,858.24176,798.20514,834.4689,850.18317,689.011,-0.37908935546875,0.12261962890625,0.92608642578125,-0.16448974609375,-3.222503662109375,0.7177734375,1,1.0,1.0,1.0,1.0,20.00
2024-09-29 18:14:52.869,0.722612,0.5011955,0.9745557,0.2986765,0.35468894,-0.20815268,0.13605021,0.14224719,0.33039626,-0.033321556,0.12614441,-0.041634448,0.54357964,-0.247412,-0.090024546,0.48463127,-0.20497759,-0.52724975,-0.47037417,-0.039934173,862.27106,792.5641,825.2015,850.58606,904.9817,-0.38385009765625,0.12127685546875,0.92205810546875,0.112152099609375,-3.54400634765625,0.34393310546875,1,1.0,1.0,1.0,1.0,20.00
2024-09-29 18:14:52.870,0.722612,0.5011955,0.9745557,0.2986765,0.35468894,-0.20815268,0.13605021,0.14224719,0.33039626,-0.033321556,0.12614441,-0.041634448,0.54357964,-0.247412,-0.090024546,0.48463127,-0.20497759,-0.52724975,-0.47037417,-0.039934173,863.0769,789.34064,817.5458,846.1539,1006.9231,-0.38385009765625,0.12127685546875,0.92205810546875,0.112152099609375,-3.54400634765625,0.34393310546875,1,1.0,1.0,1.0,1.0,20.00
2024-09-29 18:14:52.871,0.722612,0.5011955,0.9745557,0.2986765,0.35468894,-0.20815268,0.13605021,0.14224719,0.33039626,-0.033321556,0.12614441,-0.041634448,0.54357964,-0.247412,-0.090024546,0.48463127,-0.20497759,-0.52724975,-0.47037417,-0.039934173,862.674,796.5934,826.0073,847.76556,861.8681,-0.38385009765625,0.12127685546875,0.92205810546875,0.112152099609375,-3.54400634765625,0.34393310546875,1,1.0,1.0,1.0,1.0,20.00
2024-09-29 18:14:52.871,0.722612,0.5011955,0.9745557,0.2986765,0.35468894,-0.20815268,0.13605021,0.14224719,0.33039626,-0.033321556,0.12614441,-0.041634448,0.54357964,-0.247412,-0.090024546,0.48463127,-0.20497759,-0.52724975,-0.47037417,-0.039934173,855.0183,796.99634,834.0659,843.3333,701.0989,-0.38385009765625,0.12127685546875,0.92205810546875,0.112152099609375,-3.54400634765625,0.34393310546875,1,1.0,1.0,1.0,1.0,20.00
2024-09-29 18:14:52.872,0.722612,0.5011955,0.9745557,0.2986765,0.35468894,-0.20815268,0.13605021,0.14224719,0.33039626,-0.033321556,0.12614441,-0.041634448,0.54357964,-0.247412,-0.090024546,0.48463127,-0.20497759,-0.52724975,-0.47037417,-0.039934173,853.4066,794.9817,837.6923,851.79486,819.15753,-0.38385009765625,0.12127685546875,0.92205810546875,0.112152099609375,-3.54400634765625,0.34393310546875,1,1.0,1.0,1.0,1.0,20.00
2024-09-29 18:14:52.872,0.722612,0.5011955,0.9745557,0.2986765,0.35468894,-0.20815268,0.13605021,0.14224719,0.33039626,-0.033321556,0.12614441,-0.041634448,0.54357964,-0.247412,-0.090024546,0.48463127,-0.20497759,-0.52724975,-0.47037417,-0.039934173,863.8828,792.96704,832.0513,863.8828,1131.0256,-0.38385009765625,0.12127685546875,0.92205810546875,0.112152099609375,-3.54400634765625,0.34393310546875,1,1.0,1.0,1.0,1.0,20.00
