TimeStamp,Delta_TP9,Delta_AF7,Delta_AF8,Delta_TP10,Theta_TP9,Theta_AF7,Theta_AF8,Theta_TP10,Alpha_TP9,Alpha_AF7,Alpha_AF8,Alpha_TP10,Beta_TP9,Beta_AF7,Beta_AF8,Beta_TP10,Gamma_TP9,Gamma_AF7,Gamma_AF8,Gamma_TP10,RAW_TP9,RAW_AF7,RAW_AF8,RAW_TP10,AUX_RIGHT,Accelerometer_X,Accelerometer_Y,Accelerometer_Z,Gyro_X,Gyro_Y,Gyro_Z,HeadBandOn,HSI_TP9,HSI_AF7,HSI_AF8,HSI_TP10,Battery,Elements
2024-09-29 18:20:08.046,0.478809,0.04455931,0.1564613,-0.20880184,0.24188285,-0.28676787,-0.45279956,-0.12531736,0.88503706,0.11493177,0.0026711388,0.2560682,0.6974578,-0.059014533,-0.3055864,0.3461322,0.2561337,-0.45443106,-0.56817317,0.07489085,797.8022,772.8205,792.96704,807.47253,960.58606,-0.03662109375,0.159423828125,0.99383544921875,1.009368896484375,0.082244873046875,-0.25421142578125,1,1.0,1.0,1.0,1.0,20.00
2024-09-29 18:20:08.047,0.478809,0.04455931,0.1564613,-0.20880184,0.24188285,-0.28676787,-0.45279956,-0.12531736,0.88503706,0.11493177,0.0026711388,0.2560682,0.6974578,-0.059014533,-0.3055864,0.3461322,0.2561337,-0.45443106,-0.56817317,0.07489085,792.96704,766.3736,793.7729,808.68134,984.35895,-0.03662109375,0.159423828125,0.99383544921875,1.009368896484375,0.082244873046875,-0.25421142578125,1,1.0,1.0,1.0,1.0,20.00
2024-09-29 18:20:08.048,0.478809,0.04455931,0.1564613,-0.20880184,0.24188285,-0.28676787,-0.45279956,-0.12531736,0.88503706,0.11493177,0.0026711388,0.2560682,0.6974578,-0.059014533,-0.3055864,0.3461322,0.2561337,-0.45443106,-0.56817317,0.07489085,786.9231,764.7619,778.86444,802.6374,695.8608,-0.03662109375,0.159423828125,0.99383544921875,1.009368896484375,0.082244873046875,-0.25421142578125,1,1.0,1.0,1.0,1.0,20.00
2024-09-29 18:20:08.049,0.478809,0.04455931,0.1564613,-0.20880184,0.24188285,-0.28676787,-0.45279956,-0.12531736,0.88503706,0.11493177,0.0026711388,0.2560682,0.6974578,-0.059014533,-0.3055864,0.3461322,0.2561337,-0.45443106,-0.56817317,0.07489085,801.8315,763.95605,782.8938,807.0696,633.00366,-0.03662109375,0.159423828125,0.99383544921875,1.009368896484375,0.082244873046875,-0.25421142578125,1,1.0,1.0,1.0,1.0,20.00
2024-09-29 18:20:08.051,0.478809,0.04455931,0.1564613,-0.20880184,0.24188285,-0.28676787,-0.45279956,-0.12531736,0.88503706,0.11493177,0.0026711388,0.2560682,0.6974578,-0.059014533,-0.3055864,0.3461322,0.2561337,-0.45443106,-0.56817317,0.07489085,799.011,762.74725,782.0879,804.2491,801.4286,-0.03662109375,0.159423828125,0.99383544921875,1.009368896484375,0.082244873046875,-0.25421142578125,1,1.0,1.0,1.0,1.0,20.00
2024-09-29 18:20:08,,,,,,,,,,,,,,,,,,,,,,,,,,,,,,,,,,,,,,/muse/elements/blink
2024-09-29 18:20:08.052,0.46527466,0.13138177,0.19968231,-0.2206632,0.2710993,-0.25817916,-0.38677529,-0.11643696,0.88503706,0.18687898,0.03148677,0.23632969,0.7109417,-0.05107326,-0.30167654,0.3429237,0.27045193,-0.4674545,-0.53961194,0.0782279,797.3993,768.7912,775.2381,805.05493,984.7619,-0.03662109375,0.159423828125,0.99383544921875,1.009368896484375,0.082244873046875,-0.25421142578125,1,1.0,1.0,1.0,1.0,20.00
2024-09-29 18:20:08.059,0.46527466,0.13138177,0.19968231,-0.2206632,0.2710993,-0.25817916,-0.38677529,-0.11643696,0.88503706,0.18687898,0.03148677,0.23632969,0.7109417,-0.05107326,-0.30167654,0.3429237,0.27045193,-0.4674545,-0.53961194,0.0782279,811.9048,770.0,780.4762,813.91943,922.71063,-0.03662109375,0.159423828125,0.99383544921875,1.009368896484375,0.082244873046875,-0.25421142578125,1,1.0,1.0,1.0,1.0,20.00
2024-09-29 18:20:08.060,0.46527466,0.13138177,0.19968231,-0.2206632,0.2710993,-0.25817916,-0.38677529,-0.11643696,0.88503706,0.18687898,0.03148677,0.23632969,0.7109417,-0.05107326,-0.30167654,0.3429237,0.27045193,-0.4674545,-0.53961194,0.0782279,810.293,766.77655,784.10254,816.7399,773.22345,-0.03662109375,0.159423828125,0.99383544921875,1.009368896484375,0.082244873046875,-0.25421142578125,1,1.0,1.0,1.0,1.0,20.00
2024-09-29 18:20:08.061,0.46527466,0.13138177,0.19968231,-0.2206632,0.2710993,-0.25817916,-0.38677529,-0.11643696,0.88503706,0.18687898,0.03148677,0.23632969,0.7109417,-0.05107326,-0.30167654,0.3429237,0.27045193,-0.4674545,-0.53961194,0.0782279,801.8315,771.2088,786.9231,811.0989,809.4872,-0.03662109375,0.159423828125,0.99383544921875,1.009368896484375,0.082244873046875,-0.25421142578125,1,1.0,1.0,1.0,1.0,20.00
2024-09-29 18:20:08.063,0.46527466,0.13138177,0.19968231,-0.2206632,0.2710993,-0.25817916,-0.38677529,-0.11643696,0.88503706,0.18687898,0.03148677,0.23632969,0.7109417,-0.05107326,-0.30167654,0.3429237,0.27045193,-0.4674545,-0.53961194,0.0782279,799.011,770.80585,778.46155,803.8461,800.2198,-0.03662109375,0.159423828125,0.99383544921875,1.009368896484375,0.082244873046875,-0.25421142578125,1,1.0,1.0,1.0,1.0,20.00
2024-09-29 18:20:08.064,0.46527466,0.13138177,0.19968231,-0.2206632,0.2710993,-0.25817916,-0.38677529,-0.11643696,0.88503706,0.18687898,0.03148677,0.23632969,0.7109417,-0.05107326,-0.30167654,0.3429237,0.27045193,-0.4674545,-0.53961194,0.0782279,803.44324,764.7619,773.6264,803.44324,656.77655,-0.03662109375,0.159423828125,0.99383544921875,1.009368896484375,0.082244873046875,-0.25421142578125,1,1.0,1.0,1.0,1.0,20.00
2024-09-29 18:20:08.065,0.46527466,0.13138177,0.19968231,-0.2206632,0.2710993,-0.25817916,-0.38677529,-0.11643696,0.88503706,0.18687898,0.03148677,0.23632969,0.7109417,-0.05107326,-0.30167654,0.3429237,0.27045193,-0.4674545,-0.53961194,0.0782279,813.91943,763.5531,771.6117,807.47253,711.5751,-0.03662109375,0.159423828125,0.99383544921875,1.009368896484375,0.082244873046875,-0.25421142578125,1,1.0,1.0,1.0,1.0,20.00
2024-09-29 18:20:08.067,0.46527466,0.13138177,0.19968231,-0.2206632,0.2710993,-0.25817916,-0.38677529,-0.11643696,0.88503706,0.18687898,0.03148677,0.23632969,0.7109417,-0.05107326,-0.30167654,0.3429237,0.27045193,-0.4674545,-0.53961194,0.0782279,808.68134,765.9707,759.5238,805.8608,738.5714,-0.03521728515625,0.15728759765625,0.99151611328125,1.009368896484375,0.0897216796875,0.366363525390625,1,1.0,1.0,1.0,1.0,20.00
2024-09-29 18:20:08.068,0.46527466,0.13138177,0.19968231,-0.2206632,0.2710993,-0.25817916,-0.38677529,-0.11643696,0.88503706,0.18687898,0.03148677,0.23632969,0.7109417,-0.05107326,-0.30167654,0.3429237,0.27045193,-0.4674545,-0.53961194,0.0782279,805.8608,763.5531,764.7619,809.0842,622.1245,-0.03521728515625,0.15728759765625,0.99151611328125,1.009368896484375,0.0897216796875,0.366363525390625,1,1.0,1.0,1.0,1.0,20.00
2024-09-29 18:20:08.069,0.46527466,0.13138177,0.19968231,-0.2206632,0.2710993,-0.25817916,-0.38677529,-0.11643696,0.88503706,0.18687898,0.03148677,0.23632969,0.7109417,-0.05107326,-0.30167654,0.3429237,0.27045193,-0.4674545,-0.53961194,0.0782279,813.5165,764.7619,773.6264,817.9487,687.8022,-0.03521728515625,0.15728759765625,0.99151611328125,1.009368896484375,0.0897216796875,0.366363525390625,1,1.0,1.0,1.0,1.0,20.00
2024-09-29 18:20:08.070,0.46527466,0.13138177,0.19968231,-0.2206632,0.2710993,-0.25817916,-0.38677529,-0.11643696,0.88503706,0.18687898,0.03148677,0.23632969,0.7109417,-0.05107326,-0.30167654,0.3429237,0.27045193,-0.4674545,-0.53961194,0.0782279,814.7253,769.59705,774.0293,817.5458,766.77655,-0.03521728515625,0.15728759765625,0.99151611328125,1.009368896484375,0.0897216796875,0.366363525390625,1,1.0,1.0,1.0,1.0,20.00
2024-09-29 18:20:08.071,0.46527466,0.13138177,0.19968231,-0.2206632,0.2710993,-0.25817916,-0.38677529,-0.11643696,0.88503706,0.18687898,0.03148677,0.23632969,0.7109417,-0.05107326,-0.30167654,0.3429237,0.27045193,-0.4674545,-0.53961194,0.0782279,811.9048,765.9707,774.0293,816.337,1149.1575,-0.03521728515625,0.15728759765625,0.99151611328125,1.009368896484375,0.0897216796875,0.366363525390625,1,1.0,1.0,1.0,1.0,20.00
2024-09-29 18:20:08.072,0.46527466,0.13138177,0.19968231,-0.2206632,0.2710993,-0.25817916,-0.38677529,-0.11643696,0.88503706,0.18687898,0.03148677,0.23632969,0.7109417,-0.05107326,-0.30167654,0.3429237,0.27045193,-0.4674545,-0.53961194,0.0782279,812.3077,763.1502,775.64105,817.9487,1239.414,-0.03521728515625,0.15728759765625,0.99151611328125,1.009368896484375,0.0897216796875,0.366363525390625,1,1.0,1.0,1.0,1.0,20.00
2024-09-29 18:20:08.073,0.46527466,0.13138177,0.19968231,-0.2206632,0.2710993,-0.25817916,-0.38677529,-0.11643696,0.88503706,0.18687898,0.03148677,0.23632969,0.7109417,-0.05107326,-0.30167654,0.3429237,0.27045193,-0.4674545,-0.53961194,0.0782279,809.89014,763.95605,773.6264,808.68134,880.40295,-0.03521728515625,0.15728759765625,0.99151611328125,1.009368896484375,0.0897216796875,0.366363525390625,1,1.0,1.0,1.0,1.0,20.00
2024-09-29 18:20:08.074,0.46527466,0.13138177,0.19968231,-0.2206632,0.2710993,-0.25817916,-0.38677529,-0.11643696,0.88503706,0.18687898,0.03148677,0.23632969,0.7109417,-0.05107326,-0.30167654,0.3429237,0.27045193,-0.4674545,-0.53961194,0.0782279,803.44324,762.74725,772.01465,802.6374,866.7033,-0.03521728515625,0.15728759765625,0.99151611328125,1.009368896484375,0.0897216796875,0.366363525390625,1,1.0,1.0,1.0,1.0,20.00
2024-09-29 18:20:08.075,0.46527466,0.13138177,0.19968231,-0.2206632,0.2710993,-0.25817916,-0.38677529,-0.11643696,0.88503706,0.18687898,0.03148677,0.23632969,0.7109417,-0.05107326,-0.30167654,0.3429237,0.27045193,-0.4674545,-0.53961194,0.0782279,799.41394,757.9121,769.19415,799.81683,740.989,-0.03521728515625,0.15728759765625,0.99151611328125,1.009368896484375,0.0897216796875,0.366363525390625,1,1.0,1.0,1.0,1.0,20.00
2024-09-29 18:20:08.076,0.46527466,0.13138177,0.19968231,-0.2206632,0.2710993,-0.25817916,-0.38677529,-0.11643696,0.88503706,0.18687898,0.03148677,0.23632969,0.7109417,-0.05107326,-0.30167654,0.3429237,0.27045193,-0.4674545,-0.53961194,0.0782279,812.71063,758.71796,765.56775,803.44324,622.9304,-0.03521728515625,0.15728759765625,0.99151611328125,1.009368896484375,0.0897216796875,0.366363525390625,1,1.0,1.0,1.0,1.0,20.00
2024-09-29 18:20:08.076,0.46527466,0.13138177,0.19968231,-0.2206632,0.2710993,-0.25817916,-0.38677529,-0.11643696,0.88503706,0.18687898,0.03148677,0.23632969,0.7109417,-0.05107326,-0.30167654,0.3429237,0.27045193,-0.4674545,-0.53961194,0.0782279,828.022,761.13556,767.1795,811.9048,741.79486,-0.03521728515625,0.15728759765625,0.99151611328125,1.009368896484375,0.0897216796875,0.366363525390625,1,1.0,1.0,1.0,1.0,20.00
2024-09-29 18:20:08.077,0.46527466,0.13138177,0.19968231,-0.2206632,0.2710993,-0.25817916,-0.38677529,-0.11643696,0.88503706,0.18687898,0.03148677,0.23632969,0.7109417,-0.05107326,-0.30167654,0.3429237,0.27045193,-0.4674545,-0.53961194,0.0782279,814.7253,759.12085,765.56775,806.26373,736.9597,-0.03521728515625,0.15728759765625,0.99151611328125,1.009368896484375,0.0897216796875,0.366363525390625,1,1.0,1.0,1.0,1.0,20.00
2024-09-29 18:20:08.078,0.46527466,0.13138177,0.19968231,-0.2206632,0.2710993,-0.25817916,-0.38677529,-0.11643696,0.88503706,0.18687898,0.03148677,0.23632969,0.7109417,-0.05107326,-0.30167654,0.3429237,0.27045193,-0.4674545,-0.53961194,0.0782279,803.0403,765.16486,760.32965,803.0403,645.09155,-0.043212890625,0.16259765625,0.99468994140625,0.680389404296875,-0.25421142578125,1.786956787109375,1,1.0,1.0,1.0,1.0,20.00
2024-09-29 18:20:08.079,0.46527466,0.13138177,0.19968231,-0.2206632,0.2710993,-0.25817916,-0.38677529,-0.11643696,0.88503706,0.18687898,0.03148677,0.23632969,0.7109417,-0.05107326,-0.30167654,0.3429237,0.27045193,-0.4674545,-0.53961194,0.0782279,812.3077,763.1502,759.12085,812.3077,737.76556,-0.043212890625,0.16259765625,0.99468994140625,0.680389404296875,-0.25421142578125,1.786956787109375,1,1.0,1.0,1.0,1.0,20.00
2024-09-29 18:20:08.080,0.46527466,0.13138177,0.19968231,-0.2206632,0.2710993,-0.25817916,-0.38677529,-0.11643696,0.88503706,0.18687898,0.03148677,0.23632969,0.7109417,-0.05107326,-0.30167654,0.3429237,0.27045193,-0.4674545,-0.53961194,0.0782279,815.5311,757.50916,758.71796,815.5311,908.60803,-0.043212890625,0.16259765625,0.99468994140625,0.680389404296875,-0.25421142578125,1.786956787109375,1,1.0,1.0,1.0,1.0,20.00
2024-09-29 18:20:08.081,0.46527466,0.13138177,0.19968231,-0.2206632,0.2710993,-0.25817916,-0.38677529,-0.11643696,0.88503706,0.18687898,0.03148677,0.23632969,0.7109417,-0.05107326,-0.30167654,0.3429237,0.27045193,-0.4674545,-0.53961194,0.0782279,813.1135,760.32965,762.74725,809.89014,863.47986,-0.043212890625,0.16259765625,0.99468994140625,0.680389404296875,-0.25421142578125,1.786956787109375,1,1.0,1.0,1.0,1.0,20.00
2024-09-29 18:20:08.082,0.46527466,0.13138177,0.19968231,-0.2206632,0.2710993,-0.25817916,-0.38677529,-0.11643696,0.88503706,0.18687898,0.03148677,0.23632969,0.7109417,-0.05107326,-0.30167654,0.3429237,0.27045193,-0.4674545,-0.53961194,0.0782279,819.9634,761.13556,769.19415,810.696,718.8278,-0.043212890625,0.16259765625,0.99468994140625,0.680389404296875,-0.25421142578125,1.786956787109375,1,1.0,1.0,1.0,1.0,20.00
2024-09-29 18:20:08.083,0.46527466,0.13138177,0.19968231,-0.2206632,0.2710993,-0.25817916,-0.38677529,-0.11643696,0.88503706,0.18687898,0.03148677,0.23632969,0.7109417,-0.05107326,-0.30167654,0.3429237,0.27045193,-0.4674545,-0.53961194,0.0782279,823.5897,761.53845,767.98535,816.7399,711.1722,-0.043212890625,0.16259765625,0.99468994140625,0.680389404296875,-0.25421142578125,1.786956787109375,1,1.0,1.0,1.0,1.0,20.00
2024-09-29 18:20:08.084,0.46527466,0.13138177,0.19968231,-0.2206632,0.2710993,-0.25817916,-0.38677529,-0.11643696,0.88503706,0.18687898,0.03148677,0.23632969,0.7109417,-0.05107326,-0.30167654,0.3429237,0.27045193,-0.4674545,-0.53961194,0.0782279,815.9341,760.7326,767.1795,823.9927,935.6044,-0.043212890625,0.16259765625,0.99468994140625,0.680389404296875,-0.25421142578125,1.786956787109375,1,1.0,1.0,1.0,1.0,20.00
2024-09-29 18:20:08.085,0.42226636,0.33243394,0.2975977,-0.23013832,0.2997247,-0.22096574,-0.30241942,-0.1118122,0.88503706,0.26587254,0.07634737,0.23385619,0.72710997,-0.04463527,-0.27341613,0.33921346,0.27708787,-0.47767234,-0.48774996,0.08023036,818.7546,759.12085,771.2088,829.6337,1006.52014,-0.043212890625,0.16259765625,0.99468994140625,0.680389404296875,-0.25421142578125,1.786956787109375,1,1.0,1.0,1.0,1.0,20.00
2024-09-29 18:20:08.089,0.42226636,0.33243394,0.2975977,-0.23013832,0.2997247,-0.22096574,-0.30241942,-0.1118122,0.88503706,0.26587254,0.07634737,0.23385619,0.72710997,-0.04463527,-0.27341613,0.33921346,0.27708787,-0.47767234,-0.48774996,0.08023036,825.2015,758.71796,769.19415,828.8278,724.0659,-0.043212890625,0.16259765625,0.99468994140625,0.680389404296875,-0.25421142578125,1.786956787109375,1,1.0,1.0,1.0,1.0,20.00
2024-09-29 18:20:08.090,0.42226636,0.33243394,0.2975977,-0.23013832,0.2997247,-0.22096574,-0.30241942,-0.1118122,0.88503706,0.26587254,0.07634737,0.23385619,0.72710997,-0.04463527,-0.27341613,0.33921346,0.27708787,-0.47767234,-0.48774996,0.08023036,826.8132,766.3736,763.95605,820.3663,615.2747,-0.043212890625,0.16259765625,0.99468994140625,0.680389404296875,-0.25421142578125,1.786956787109375,1,1.0,1.0,1.0,1.0,20.00
2024-09-29 18:20:08.091,0.42226636,0.33243394,0.2975977,-0.23013832,0.2997247,-0.22096574,-0.30241942,-0.1118122,0.88503706,0.26587254,0.07634737,0.23385619,0.72710997,-0.04463527,-0.27341613,0.33921346,0.27708787,-0.47767234,-0.48774996,0.08023036,821.5751,762.74725,763.95605,817.9487,824.7985,-0.043212890625,0.16259765625,0.99468994140625,0.680389404296875,-0.25421142578125,1.786956787109375,1,1.0,1.0,1.0,1.0,20.00
2024-09-29 18:20:08.092,0.42226636,0.33243394,0.2975977,-0.23013832,0.2997247,-0.22096574,-0.30241942,-0.1118122,0.88503706,0.26587254,0.07634737,0.23385619,0.72710997,-0.04463527,-0.27341613,0.33921346,0.27708787,-0.47767234,-0.48774996,0.08023036,825.2015,759.12085,771.6117,821.5751,898.93774,-0.043212890625,0.16259765625,0.99468994140625,0.680389404296875,-0.25421142578125,1.786956787109375,1,1.0,1.0,1.0,1.0,20.00
2024-09-29 18:20:08.132,0.42226636,0.33243394,0.2975977,-0.23013832,0.2997247,-0.22096574,-0.30241942,-0.1118122,0.88503706,0.26587254,0.07634737,0.23385619,0.72710997,-0.04463527,-0.27341613,0.33921346,0.27708787,-0.47767234,-0.48774996,0.08023036,826.0073,759.5238,773.6264,816.337,701.0989,-0.043212890625,0.16259765625,0.99468994140625,0.680389404296875,-0.25421142578125,1.786956787109375,1,1.0,1.0,1.0,1.0,20.00
2024-09-29 18:20:08.133,0.42226636,0.33243394,0.2975977,-0.23013832,0.2997247,-0.22096574,-0.30241942,-0.1118122,0.88503706,0.26587254,0.07634737,0.23385619,0.72710997,-0.04463527,-0.27341613,0.33921346,0.27708787,-0.47767234,-0.48774996,0.08023036,821.5751,759.5238,772.01465,814.3223,606.8132,-0.043212890625,0.16259765625,0.99468994140625,0.680389404296875,-0.25421142578125,1.786956787109375,1,1.0,1.0,1.0,1.0,20.00
2024-09-29 18:20:08.134,0.42226636,0.33243394,0.2975977,-0.23013832,0.2997247,-0.22096574,-0.30241942,-0.1118122,0.88503706,0.26587254,0.07634737,0.23385619,0.72710997,-0.04463527,-0.27341613,0.33921346,0.27708787,-0.47767234,-0.48774996,0.08023036,828.022,756.7033,772.4176,821.978,798.60803,-0.043212890625,0.16259765625,0.99468994140625,0.680389404296875,-0.25421142578125,1.786956787109375,1,1.0,1.0,1.0,1.0,20.00
2024-09-29 18:20:08.135,0.42226636,0.33243394,0.2975977,-0.23013832,0.2997247,-0.22096574,-0.30241942,-0.1118122,0.88503706,0.26587254,0.07634737,0.23385619,0.72710997,-0.04463527,-0.27341613,0.33921346,0.27708787,-0.47767234,-0.48774996,0.08023036,832.4542,757.9121,771.6117,826.8132,869.92676,-0.043212890625,0.16259765625,0.99468994140625,0.680389404296875,-0.25421142578125,1.786956787109375,1,1.0,1.0,1.0,1.0,20.00
2024-09-29 18:20:08.136,0.42226636,0.33243394,0.2975977,-0.23013832,0.2997247,-0.22096574,-0.30241942,-0.1118122,0.88503706,0.26587254,0.07634737,0.23385619,0.72710997,-0.04463527,-0.27341613,0.33921346,0.27708787,-0.47767234,-0.48774996,0.08023036,817.9487,754.68866,769.59705,816.337,761.53845,-0.043212890625,0.16259765625,0.99468994140625,0.680389404296875,-0.25421142578125,1.786956787109375,1,1.0,1.0,1.0,1.0,20.00
2024-09-29 18:20:08.137,0.42226636,0.33243394,0.2975977,-0.23013832,0.2997247,-0.22096574,-0.30241942,-0.1118122,0.88503706,0.26587254,0.07634737,0.23385619,0.72710997,-0.04463527,-0.27341613,0.33921346,0.27708787,-0.47767234,-0.48774996,0.08023036,821.978,747.8388,772.4176,819.15753,766.3736,-0.043212890625,0.16259765625,0.99468994140625,0.680389404296875,-0.25421142578125,1.786956787109375,1,1.0,1.0,1.0,1.0,20.00
2024-09-29 18:20:08.138,0.42226636,0.33243394,0.2975977,-0.23013832,0.2997247,-0.22096574,-0.30241942,-0.1118122,0.88503706,0.26587254,0.07634737,0.23385619,0.72710997,-0.04463527,-0.27341613,0.33921346,0.27708787,-0.47767234,-0.48774996,0.08023036,842.1245,753.47986,772.01465,834.0659,981.53845,-0.043212890625,0.16259765625,0.99468994140625,0.680389404296875,-0.25421142578125,1.786956787109375,1,1.0,1.0,1.0,1.0,20.00
2024-09-29 18:20:08.139,0.42226636,0.33243394,0.2975977,-0.23013832,0.2997247,-0.22096574,-0.30241942,-0.1118122,0.88503706,0.26587254,0.07634737,0.23385619,0.72710997,-0.04463527,-0.27341613,0.33921346,0.27708787,-0.47767234,-0.48774996,0.08023036,836.4835,757.9121,768.3883,832.8571,1349.8169,-0.043212890625,0.16259765625,0.99468994140625,0.680389404296875,-0.25421142578125,1.786956787109375,1,1.0,1.0,1.0,1.0,20.00
2024-09-29 18:20:08.140,0.42226636,0.33243394,0.2975977,-0.23013832,0.2997247,-0.22096574,-0.30241942,-0.1118122,0.88503706,0.26587254,0.07634737,0.23385619,0.72710997,-0.04463527,-0.27341613,0.33921346,0.27708787,-0.47767234,-0.48774996,0.08023036,824.3956,756.7033,767.5824,820.7692,1352.2344,-0.043212890625,0.16259765625,0.99468994140625,0.680389404296875,-0.25421142578125,1.786956787109375,1,1.0,1.0,1.0,1.0,20.00
2024-09-29 18:20:08.141,0.42226636,0.33243394,0.2975977,-0.23013832,0.2997247,-0.22096574,-0.30241942,-0.1118122,0.88503706,0.26587254,0.07634737,0.23385619,0.72710997,-0.04463527,-0.27341613,0.33921346,0.27708787,-0.47767234,-0.48774996,0.08023036,826.8132,760.7326,769.19415,824.7985,1012.5641,-0.043212890625,0.16259765625,0.99468994140625,0.680389404296875,-0.25421142578125,1.786956787109375,1,1.0,1.0,1.0,1.0,20.00
2024-09-29 18:20:08.142,0.42226636,0.33243394,0.2975977,-0.23013832,0.2997247,-0.22096574,-0.30241942,-0.1118122,0.88503706,0.26587254,0.07634737,0.23385619,0.72710997,-0.04463527,-0.27341613,0.33921346,0.27708787,-0.47767234,-0.48774996,0.08023036,836.8865,770.0,774.43225,838.0952,853.4066,-0.043212890625,0.16259765625,0.99468994140625,0.680389404296875,-0.25421142578125,1.786956787109375,1,1.0,1.0,1.0,1.0,20.00
2024-09-29 18:20:08.143,0.42226636,0.33243394,0.2975977,-0.23013832,0.2997247,-0.22096574,-0.30241942,-0.1118122,0.88503706,0.26587254,0.07634737,0.23385619,0.72710997,-0.04463527,-0.27341613,0.33921346,0.27708787,-0.47767234,-0.48774996,0.08023036,834.87177,762.3443,767.5824,834.0659,917.47253,-0.043212890625,0.16259765625,0.99468994140625,0.680389404296875,-0.25421142578125,1.786956787109375,1,1.0,1.0,1.0,1.0,20.00
2024-09-29 18:20:08.302,0.42226636,0.33243394,0.2975977,-0.23013832,0.2997247,-0.22096574,-0.30241942,-0.1118122,0.88503706,0.26587254,0.07634737,0.23385619,0.72710997,-0.04463527,-0.27341613,0.33921346,0.27708787,-0.47767234,-0.48774996,0.08023036,821.5751,753.47986,762.74725,829.2308,763.1502,-0.052978515625,0.1578369140625,0.9986572265625,0.052337646484375,-0.0897216796875,0.43365478515625,1,1.0,1.0,1.0,1.0,20.00
2024-09-29 18:20:08.303,0.42226636,0.33243394,0.2975977,-0.23013832,0.2997247,-0.22096574,-0.30241942,-0.1118122,0.88503706,0.26587254,0.07634737,0.23385619,0.72710997,-0.04463527,-0.27341613,0.33921346,0.27708787,-0.47767234,-0.48774996,0.08023036,812.3077,758.315,765.16486,830.84247,671.685,-0.052978515625,0.1578369140625,0.9986572265625,0.052337646484375,-0.0897216796875,0.43365478515625,1,1.0,1.0,1.0,1.0,20.00
2024-09-29 18:20:08.304,0.42226636,0.33243394,0.2975977,-0.23013832,0.2997247,-0.22096574,-0.30241942,-0.1118122,0.88503706,0.26587254,0.07634737,0.23385619,0.72710997,-0.04463527,-0.27341613,0.33921346,0.27708787,-0.47767234,-0.48774996,0.08023036,822.7839,752.27106,770.0,834.0659,765.9707,-0.052978515625,0.1578369140625,0.9986572265625,0.052337646484375,-0.0897216796875,0.43365478515625,1,1.0,1.0,1.0,1.0,20.00
2024-09-29 18:20:08.305,0.42226636,0.33243394,0.2975977,-0.23013832,0.2997247,-0.22096574,-0.30241942,-0.1118122,0.88503706,0.26587254,0.07634737,0.23385619,0.72710997,-0.04463527,-0.27341613,0.33921346,0.27708787,-0.47767234,-0.48774996,0.08023036,830.4396,751.8681,770.0,833.663,774.43225,-0.052978515625,0.1578369140625,0.9986572265625,0.052337646484375,-0.0897216796875,0.43365478515625,1,1.0,1.0,1.0,1.0,20.00
2024-09-29 18:20:08.305,0.42226636,0.33243394,0.2975977,-0.23013832,0.2997247,-0.22096574,-0.30241942,-0.1118122,0.88503706,0.26587254,0.07634737,0.23385619,0.72710997,-0.04463527,-0.27341613,0.33921346,0.27708787,-0.47767234,-0.48774996,0.08023036,831.6484,753.47986,766.77655,833.2601,724.0659,-0.052978515625,0.1578369140625,0.9986572265625,0.052337646484375,-0.0897216796875,0.43365478515625,1,1.0,1.0,1.0,1.0,20.00
2024-09-29 18:20:08.306,0.42226636,0.33243394,0.2975977,-0.23013832,0.2997247,-0.22096574,-0.30241942,-0.1118122,0.88503706,0.26587254,0.07634737,0.23385619,0.72710997,-0.04463527,-0.27341613,0.33921346,0.27708787,-0.47767234,-0.48774996,0.08023036,831.6484,750.2564,770.0,838.9011,818.7546,-0.052978515625,0.1578369140625,0.9986572265625,0.052337646484375,-0.0897216796875,0.43365478515625,1,1.0,1.0,1.0,1.0,20.00
2024-09-29 18:20:08.306,0.42226636,0.33243394,0.2975977,-0.23013832,0.2997247,-0.22096574,-0.30241942,-0.1118122,0.88503706,0.26587254,0.07634737,0.23385619,0.72710997,-0.04463527,-0.27341613,0.33921346,0.27708787,-0.47767234,-0.48774996,0.08023036,830.4396,751.06226,777.25275,834.87177,962.1978,-0.052978515625,0.1578369140625,0.9986572265625,0.052337646484375,-0.0897216796875,0.43365478515625,1,1.0,1.0,1.0,1.0,20.00
2024-09-29 18:20:08.307,0.42226636,0.33243394,0.2975977,-0.23013832,0.2997247,-0.22096574,-0.30241942,-0.1118122,0.88503706,0.26587254,0.07634737,0.23385619,0.72710997,-0.04463527,-0.27341613,0.33921346,0.27708787,-0.47767234,-0.48774996,0.08023036,834.87177,747.8388,778.46155,830.84247,863.47986,-0.052978515625,0.1578369140625,0.9986572265625,0.052337646484375,-0.0897216796875,0.43365478515625,1,1.0,1.0,1.0,1.0,20.00
2024-09-29 18:20:08.307,0.42226636,0.33243394,0.2975977,-0.23013832,0.2997247,-0.22096574,-0.30241942,-0.1118122,0.88503706,0.26587254,0.07634737,0.23385619,0.72710997,-0.04463527,-0.27341613,0.33921346,0.27708787,-0.47767234,-0.48774996,0.08023036,835.2747,747.4359,776.8498,826.4103,818.7546,-0.052978515625,0.1578369140625,0.9986572265625,0.052337646484375,-0.0897216796875,0.43365478515625,1,1.0,1.0,1.0,1.0,20.00
2024-09-29 18:20:08.308,0.35502893,0.34605786,0.30328587,-0.24131173,0.3240819,-0.23244427,-0.28245702,-0.11902823,0.88503706,0.26571167,0.07634737,0.23385619,0.74408376,-0.04515371,-0.26068372,0.34280735,0.27352226,-0.4919294,-0.48456335,0.080482766,836.08057,749.0476,777.25275,828.022,899.34064,-0.052978515625,0.1578369140625,0.9986572265625,0.052337646484375,-0.0897216796875,0.43365478515625,1,1.0,1.0,1.0,1.0,20.00
2024-09-29 18:20:08.312,0.35502893,0.34605786,0.30328587,-0.24131173,0.3240819,-0.23244427,-0.28245702,-0.11902823,0.88503706,0.26571167,0.07634737,0.23385619,0.74408376,-0.04515371,-0.26068372,0.34280735,0.27352226,-0.4919294,-0.48456335,0.080482766,840.5128,748.24176,778.86444,828.8278,824.3956,-0.052978515625,0.1578369140625,0.9986572265625,0.052337646484375,-0.0897216796875,0.43365478515625,1,1.0,1.0,1.0,1.0,20.00
2024-09-29 18:20:08.312,0.35502893,0.34605786,0.30328587,-0.24131173,0.3240819,-0.23244427,-0.28245702,-0.11902823,0.88503706,0.26571167,0.07634737,0.23385619,0.74408376,-0.04515371,-0.26068372,0.34280735,0.27352226,-0.4919294,-0.48456335,0.080482766,829.6337,749.85345,774.83514,820.7692,713.1868,-0.052978515625,0.1578369140625,0.9986572265625,0.052337646484375,-0.0897216796875,0.43365478515625,1,1.0,1.0,1.0,1.0,20.00
2024-09-29 18:20:08.442,0.35502893,0.34605786,0.30328587,-0.24131173,0.3240819,-0.23244427,-0.28245702,-0.11902823,0.88503706,0.26571167,0.07634737,0.23385619,0.74408376,-0.04515371,-0.26068372,0.34280735,0.27352226,-0.4919294,-0.48456335,0.080482766,829.6337,752.27106,778.0586,821.978,750.2564,-0.0416259765625,0.1595458984375,0.99395751953125,0.201873779296875,-1.00189208984375,-0.059814453125,1,1.0,1.0,1.0,1.0,20.00
2024-09-29 18:20:08.443,0.35502893,0.34605786,0.30328587,-0.24131173,0.3240819,-0.23244427,-0.28245702,-0.11902823,0.88503706,0.26571167,0.07634737,0.23385619,0.74408376,-0.04515371,-0.26068372,0.34280735,0.27352226,-0.4919294,-0.48456335,0.080482766,842.52747,750.2564,782.49084,829.6337,906.5934,-0.0416259765625,0.1595458984375,0.99395751953125,0.201873779296875,-1.00189208984375,-0.059814453125,1,1.0,1.0,1.0,1.0,20.00
2024-09-29 18:20:08.443,0.35502893,0.34605786,0.30328587,-0.24131173,0.3240819,-0.23244427,-0.28245702,-0.11902823,0.88503706,0.26571167,0.07634737,0.23385619,0.74408376,-0.04515371,-0.26068372,0.34280735,0.27352226,-0.4919294,-0.48456335,0.080482766,836.8865,746.63007,774.43225,827.619,909.81683,-0.0416259765625,0.1595458984375,0.99395751953125,0.201873779296875,-1.00189208984375,-0.059814453125,1,1.0,1.0,1.0,1.0,20.00
2024-09-29 18:20:08.444,0.35502893,0.34605786,0.30328587,-0.24131173,0.3240819,-0.23244427,-0.28245702,-0.11902823,0.88503706,0.26571167,0.07634737,0.23385619,0.74408376,-0.04515371,-0.26068372,0.34280735,0.27352226,-0.4919294,-0.48456335,0.080482766,828.4249,745.42126,778.86444,824.3956,652.3443,-0.0416259765625,0.1595458984375,0.99395751953125,0.201873779296875,-1.00189208984375,-0.059814453125,1,1.0,1.0,1.0,1.0,20.00
2024-09-29 18:20:08.445,0.35502893,0.34605786,0.30328587,-0.24131173,0.3240819,-0.23244427,-0.28245702,-0.11902823,0.88503706,0.26571167,0.07634737,0.23385619,0.74408376,-0.04515371,-0.26068372,0.34280735,0.27352226,-0.4919294,-0.48456335,0.080482766,837.6923,751.06226,786.9231,841.7216,730.10986,-0.0416259765625,0.1595458984375,0.99395751953125,0.201873779296875,-1.00189208984375,-0.059814453125,1,1.0,1.0,1.0,1.0,20.00
2024-09-29 18:20:08.445,0.35502893,0.34605786,0.30328587,-0.24131173,0.3240819,-0.23244427,-0.28245702,-0.11902823,0.88503706,0.26571167,0.07634737,0.23385619,0.74408376,-0.04515371,-0.26068372,0.34280735,0.27352226,-0.4919294,-0.48456335,0.080482766,845.7509,753.0769,782.49084,850.989,1030.2931,-0.0416259765625,0.1595458984375,0.99395751953125,0.201873779296875,-1.00189208984375,-0.059814453125,1,1.0,1.0,1.0,1.0,20.00
2024-09-29 18:20:08.446,0.35502893,0.34605786,0.30328587,-0.24131173,0.3240819,-0.23244427,-0.28245702,-0.11902823,0.88503706,0.26571167,0.07634737,0.23385619,0.74408376,-0.04515371,-0.26068372,0.34280735,0.27352226,-0.4919294,-0.48456335,0.080482766,837.28937,748.6447,780.4762,845.34796,993.22345,-0.0416259765625,0.1595458984375,0.99395751953125,0.201873779296875,-1.00189208984375,-0.059814453125,1,1.0,1.0,1.0,1.0,20.00
2024-09-29 18:20:08.446,0.35502893,0.34605786,0.30328587,-0.24131173,0.3240819,-0.23244427,-0.28245702,-0.11902823,0.88503706,0.26571167,0.07634737,0.23385619,0.74408376,-0.04515371,-0.26068372,0.34280735,0.27352226,-0.4919294,-0.48456335,0.080482766,837.6923,744.21246,783.69965,844.5421,720.0366,-0.0416259765625,0.1595458984375,0.99395751953125,0.201873779296875,-1.00189208984375,-0.059814453125,1,1.0,1.0,1.0,1.0,20.00
2024-09-29 18:20:08.447,0.35502893,0.34605786,0.30328587,-0.24131173,0.3240819,-0.23244427,-0.28245702,-0.11902823,0.88503706,0.26571167,0.07634737,0.23385619,0.74408376,-0.04515371,-0.26068372,0.34280735,0.27352226,-0.4919294,-0.48456335,0.080482766,841.31866,745.82416,786.1172,845.7509,709.9634,-0.0416259765625,0.1595458984375,0.99395751953125,0.201873779296875,-1.00189208984375,-0.059814453125,1,1.0,1.0,1.0,1.0,20.00
2024-09-29 18:20:08.448,0.35502893,0.34605786,0.30328587,-0.24131173,0.3240819,-0.23244427,-0.28245702,-0.11902823,0.88503706,0.26571167,0.07634737,0.23385619,0.74408376,-0.04515371,-0.26068372,0.34280735,0.27352226,-0.4919294,-0.48456335,0.080482766,837.6923,750.2564,787.326,842.52747,888.0586,-0.0416259765625,0.1595458984375,0.99395751953125,0.201873779296875,-1.00189208984375,-0.059814453125,1,1.0,1.0,1.0,1.0,20.00
2024-09-29 18:20:08.448,0.35502893,0.34605786,0.30328587,-0.24131173,0.3240819,-0.23244427,-0.28245702,-0.11902823,0.88503706,0.26571167,0.07634737,0.23385619,0.74408376,-0.04515371,-0.26068372,0.34280735,0.27352226,-0.4919294,-0.48456335,0.080482766,838.9011,751.4652,784.10254,840.9158,987.98535,-0.0416259765625,0.1595458984375,0.99395751953125,0.201873779296875,-1.00189208984375,-0.059814453125,1,1.0,1.0,1.0,1.0,20.00
2024-09-29 18:20:08.449,0.35502893,0.34605786,0.30328587,-0.24131173,0.3240819,-0.23244427,-0.28245702,-0.11902823,0.88503706,0.26571167,0.07634737,0.23385619,0.74408376,-0.04515371,-0.26068372,0.34280735,0.27352226,-0.4919294,-0.48456335,0.080482766,849.7802,751.06226,781.685,837.6923,892.0879,-0.0416259765625,0.1595458984375,0.99395751953125,0.201873779296875,-1.00189208984375,-0.059814453125,1,1.0,1.0,1.0,1.0,20.00
2024-09-29 18:20:08.575,0.35502893,0.34605786,0.30328587,-0.24131173,0.3240819,-0.23244427,-0.28245702,-0.11902823,0.88503706,0.26571167,0.07634737,0.23385619,0.74408376,-0.04515371,-0.26068372,0.34280735,0.27352226,-0.4919294,-0.48456335,0.080482766,846.1539,749.85345,784.5055,835.2747,798.60803,-0.04510498046875,0.1585693359375,0.99945068359375,-0.456085205078125,-1.12152099609375,1.5850830078125,1,1.0,1.0,1.0,1.0,20.00
2024-09-29 18:20:08.576,0.35502893,0.34605786,0.30328587,-0.24131173,0.3240819,-0.23244427,-0.28245702,-0.11902823,0.88503706,0.26571167,0.07634737,0.23385619,0.74408376,-0.04515371,-0.26068372,0.34280735,0.27352226,-0.4919294,-0.48456335,0.080482766,836.4835,749.45056,786.1172,839.707,930.7692,-0.04510498046875,0.1585693359375,0.99945068359375,-0.456085205078125,-1.12152099609375,1.5850830078125,1,1.0,1.0,1.0,1.0,20.00
2024-09-29 18:20:08.577,0.35502893,0.34605786,0.30328587,-0.24131173,0.3240819,-0.23244427,-0.28245702,-0.11902823,0.88503706,0.26571167,0.07634737,0.23385619,0.74408376,-0.04515371,-0.26068372,0.34280735,0.27352226,-0.4919294,-0.48456335,0.080482766,831.6484,751.8681,791.75824,846.1539,869.92676,-0.04510498046875,0.1585693359375,0.99945068359375,-0.456085205078125,-1.12152099609375,1.5850830078125,1,1.0,1.0,1.0,1.0,20.00
2024-09-29 18:20:08.577,0.35502893,0.34605786,0.30328587,-0.24131173,0.3240819,-0.23244427,-0.28245702,-0.11902823,0.88503706,0.26571167,0.07634737,0.23385619,0.74408376,-0.04515371,-0.26068372,0.34280735,0.27352226,-0.4919294,-0.48456335,0.080482766,825.2015,745.42126,789.34064,845.34796,579.41394,-0.04510498046875,0.1585693359375,0.99945068359375,-0.456085205078125,-1.12152099609375,1.5850830078125,1,1.0,1.0,1.0,1.0,20.00
2024-09-29 18:20:08.578,0.35502893,0.34605786,0.30328587,-0.24131173,0.3240819,-0.23244427,-0.28245702,-0.11902823,0.88503706,0.26571167,0.07634737,0.23385619,0.74408376,-0.04515371,-0.26068372,0.34280735,0.27352226,-0.4919294,-0.48456335,0.080482766,823.9927,737.3626,783.2967,841.31866,689.81683,-0.04510498046875,0.1585693359375,0.99945068359375,-0.456085205078125,-1.12152099609375,1.5850830078125,1,1.0,1.0,1.0,1.0,20.00
2024-09-29 18:20:08.579,0.35502893,0.34605786,0.30328587,-0.24131173,0.3240819,-0.23244427,-0.28245702,-0.11902823,0.88503706,0.26571167,0.07634737,0.23385619,0.74408376,-0.04515371,-0.26068372,0.34280735,0.27352226,-0.4919294,-0.48456335,0.080482766,819.15753,737.3626,786.52014,843.3333,1073.8096,-0.04510498046875,0.1585693359375,0.99945068359375,-0.456085205078125,-1.12152099609375,1.5850830078125,1,1.0,1.0,1.0,1.0,20.00
2024-09-29 18:20:08.579,0.35502893,0.34605786,0.30328587,-0.24131173,0.3240819,-0.23244427,-0.28245702,-0.11902823,0.88503706,0.26571167,0.07634737,0.23385619,0.74408376,-0.04515371,-0.26068372,0.34280735,0.27352226,-0.4919294,-0.48456335,0.080482766,815.5311,741.39197,787.326,840.9158,972.674,-0.04510498046875,0.1585693359375,0.99945068359375,-0.456085205078125,-1.12152099609375,1.5850830078125,1,1.0,1.0,1.0,1.0,20.00
2024-09-29 18:20:08.580,0.35502893,0.34605786,0.30328587,-0.24131173,0.3240819,-0.23244427,-0.28245702,-0.11902823,0.88503706,0.26571167,0.07634737,0.23385619,0.74408376,-0.04515371,-0.26068372,0.34280735,0.27352226,-0.4919294,-0.48456335,0.080482766,817.9487,740.58606,787.72894,832.0513,658.7912,-0.04510498046875,0.1585693359375,0.99945068359375,-0.456085205078125,-1.12152099609375,1.5850830078125,1,1.0,1.0,1.0,1.0,20.00
2024-09-29 18:20:08.580,0.35502893,0.34605786,0.30328587,-0.24131173,0.3240819,-0.23244427,-0.28245702,-0.11902823,0.88503706,0.26571167,0.07634737,0.23385619,0.74408376,-0.04515371,-0.26068372,0.34280735,0.27352226,-0.4919294,-0.48456335,0.080482766,826.4103,737.76556,788.93774,828.022,651.13556,-0.04510498046875,0.1585693359375,0.99945068359375,-0.456085205078125,-1.12152099609375,1.5850830078125,1,1.0,1.0,1.0,1.0,20.00
2024-09-29 18:20:08.581,0.35502893,0.34605786,0.30328587,-0.24131173,0.3240819,-0.23244427,-0.28245702,-0.11902823,0.88503706,0.26571167,0.07634737,0.23385619,0.74408376,-0.04515371,-0.26068372,0.34280735,0.27352226,-0.4919294,-0.48456335,0.080482766,830.4396,745.0183,789.34064,829.6337,848.5714,-0.04510498046875,0.1585693359375,0.99945068359375,-0.456085205078125,-1.12152099609375,1.5850830078125,1,1.0,1.0,1.0,1.0,20.00
2024-09-29 18:20:08.581,0.35502893,0.34605786,0.30328587,-0.24131173,0.3240819,-0.23244427,-0.28245702,-0.11902823,0.88503706,0.26571167,0.07634737,0.23385619,0.74408376,-0.04515371,-0.26068372,0.34280735,0.27352226,-0.4919294,-0.48456335,0.080482766,828.022,747.03296,790.54944,829.2308,900.54944,-0.04510498046875,0.1585693359375,0.99945068359375,-0.456085205078125,-1.12152099609375,1.5850830078125,1,1.0,1.0,1.0,1.0,20.00
2024-09-29 18:20:08.582,0.2805591,0.3637691,0.30448487,-0.26359463,0.33895206,-0.24750552,-0.25871173,-0.14145102,0.88503706,0.24272761,0.06429534,0.23385619,0.76084006,-0.049145717,-0.24691036,0.3568549,0.2596589,-0.51301676,-0.48151687,0.078209184,831.2454,745.82416,787.72894,823.9927,772.4176,-0.04510498046875,0.1585693359375,0.99945068359375,-0.456085205078125,-1.12152099609375,1.5850830078125,1,1.0,1.0,1.0,1.0,20.00
2024-09-29 18:20:08.643,0.2805591,0.3637691,0.30448487,-0.26359463,0.33895206,-0.24750552,-0.25871173,-0.14145102,0.88503706,0.24272761,0.06429534,0.23385619,0.76084006,-0.049145717,-0.24691036,0.3568549,0.2596589,-0.51301676,-0.48151687,0.078209184,832.0513,743.8095,788.93774,829.2308,763.95605,-0.04736328125,0.150634765625,0.985595703125,-0.70281982421875,-0.777587890625,0.64300537109375,1,1.0,1.0,1.0,1.0,20.00
2024-09-29 18:20:08.643,0.2805591,0.3637691,0.30448487,-0.26359463,0.33895206,-0.24750552,-0.25871173,-0.14145102,0.88503706,0.24272761,0.06429534,0.23385619,0.76084006,-0.049145717,-0.24691036,0.3568549,0.2596589,-0.51301676,-0.48151687,0.078209184,829.6337,734.94507,791.75824,836.8865,884.83514,-0.04736328125,0.150634765625,0.985595703125,-0.70281982421875,-0.777587890625,0.64300537109375,1,1.0,1.0,1.0,1.0,20.00
2024-09-29 18:20:08.644,0.2805591,0.3637691,0.30448487,-0.26359463,0.33895206,-0.24750552,-0.25871173,-0.14145102,0.88503706,0.24272761,0.06429534,0.23385619,0.76084006,-0.049145717,-0.24691036,0.3568549,0.2596589,-0.51301676,-0.48151687,0.078209184,833.663,740.18317,792.96704,838.0952,832.0513,-0.04736328125,0.150634765625,0.985595703125,-0.70281982421875,-0.777587890625,0.64300537109375,1,1.0,1.0,1.0,1.0,20.00
2024-09-29 18:20:08.645,0.2805591,0.3637691,0.30448487,-0.26359463,0.33895206,-0.24750552,-0.25871173,-0.14145102,0.88503706,0.24272761,0.06429534,0.23385619,0.76084006,-0.049145717,-0.24691036,0.3568549,0.2596589,-0.51301676,-0.48151687,0.078209184,842.52747,745.82416,794.17584,835.2747,723.2601,-0.04736328125,0.150634765625,0.985595703125,-0.70281982421875,-0.777587890625,0.64300537109375,1,1.0,1.0,1.0,1.0,20.00
2024-09-29 18:20:08.645,0.2805591,0.3637691,0.30448487,-0.26359463,0.33895206,-0.24750552,-0.25871173,-0.14145102,0.88503706,0.24272761,0.06429534,0.23385619,0.76084006,-0.049145717,-0.24691036,0.3568549,0.2596589,-0.51301676,-0.48151687,0.078209184,852.6007,747.03296,791.3553,839.707,798.20514,-0.04736328125,0.150634765625,0.985595703125,-0.70281982421875,-0.777587890625,0.64300537109375,1,1.0,1.0,1.0,1.0,20.00
2024-09-29 18:20:08.646,0.2805591,0.3637691,0.30448487,-0.26359463,0.33895206,-0.24750552,-0.25871173,-0.14145102,0.88503706,0.24272761,0.06429534,0.23385619,0.76084006,-0.049145717,-0.24691036,0.3568549,0.2596589,-0.51301676,-0.48151687,0.078209184,849.7802,747.4359,789.7436,843.73627,909.81683,-0.04736328125,0.150634765625,0.985595703125,-0.70281982421875,-0.777587890625,0.64300537109375,1,1.0,1.0,1.0,1.0,20.00
2024-09-29 18:20:08.646,0.2805591,0.3637691,0.30448487,-0.26359463,0.33895206,-0.24750552,-0.25871173,-0.14145102,0.88503706,0.24272761,0.06429534,0.23385619,0.76084006,-0.049145717,-0.24691036,0.3568549,0.2596589,-0.51301676,-0.48151687,0.078209184,840.10986,742.6007,788.93774,837.28937,971.8681,-0.04736328125,0.150634765625,0.985595703125,-0.70281982421875,-0.777587890625,0.64300537109375,1,1.0,1.0,1.0,1.0,20.00
2024-09-29 18:20:08.647,0.2805591,0.3637691,0.30448487,-0.26359463,0.33895206,-0.24750552,-0.25871173,-0.14145102,0.88503706,0.24272761,0.06429534,0.23385619,0.76084006,-0.049145717,-0.24691036,0.3568549,0.2596589,-0.51301676,-0.48151687,0.078209184,844.5421,742.1978,792.1612,836.08057,883.6264,-0.04736328125,0.150634765625,0.985595703125,-0.70281982421875,-0.777587890625,0.64300537109375,1,1.0,1.0,1.0,1.0,20.00
2024-09-29 18:20:08.648,0.2805591,0.3637691,0.30448487,-0.26359463,0.33895206,-0.24750552,-0.25871173,-0.14145102,0.88503706,0.24272761,0.06429534,0.23385619,0.76084006,-0.049145717,-0.24691036,0.3568549,0.2596589,-0.51301676,-0.48151687,0.078209184,845.7509,741.39197,787.326,833.2601,803.44324,-0.04736328125,0.150634765625,0.985595703125,-0.70281982421875,-0.777587890625,0.64300537109375,1,1.0,1.0,1.0,1.0,20.00
2024-09-29 18:20:08.648,0.2805591,0.3637691,0.30448487,-0.26359463,0.33895206,-0.24750552,-0.25871173,-0.14145102,0.88503706,0.24272761,0.06429534,0.23385619,0.76084006,-0.049145717,-0.24691036,0.3568549,0.2596589,-0.51301676,-0.48151687,0.078209184,842.9304,740.18317,783.69965,831.2454,758.315,-0.04736328125,0.150634765625,0.985595703125,-0.70281982421875,-0.777587890625,0.64300537109375,1,1.0,1.0,1.0,1.0,20.00
2024-09-29 18:20:08.649,0.2805591,0.3637691,0.30448487,-0.26359463,0.33895206,-0.24750552,-0.25871173,-0.14145102,0.88503706,0.24272761,0.06429534,0.23385619,0.76084006,-0.049145717,-0.24691036,0.3568549,0.2596589,-0.51301676,-0.48151687,0.078209184,849.3773,740.18317,792.96704,835.2747,706.337,-0.04736328125,0.150634765625,0.985595703125,-0.70281982421875,-0.777587890625,0.64300537109375,1,1.0,1.0,1.0,1.0,20.00
2024-09-29 18:20:08.649,0.2805591,0.3637691,0.30448487,-0.26359463,0.33895206,-0.24750552,-0.25871173,-0.14145102,0.88503706,0.24272761,0.06429534,0.23385619,0.76084006,-0.049145717,-0.24691036,0.3568549,0.2596589,-0.51301676,-0.48151687,0.078209184,851.39197,741.39197,796.1905,836.08057,794.17584,-0.04736328125,0.150634765625,0.985595703125,-0.70281982421875,-0.777587890625,0.64300537109375,1,1.0,1.0,1.0,1.0,20.00
2024-09-29 18:20:08.676,0.2805591,0.3637691,0.30448487,-0.26359463,0.33895206,-0.24750552,-0.25871173,-0.14145102,0.88503706,0.24272761,0.06429534,0.23385619,0.76084006,-0.049145717,-0.24691036,0.3568549,0.2596589,-0.51301676,-0.48151687,0.078209184,841.7216,740.58606,794.17584,836.08057,781.685,-0.04736328125,0.150634765625,0.985595703125,-0.70281982421875,-0.777587890625,0.64300537109375,1,1.0,1.0,1.0,1.0,20.00
2024-09-29 18:20:08.677,0.2805591,0.3637691,0.30448487,-0.26359463,0.33895206,-0.24750552,-0.25871173,-0.14145102,0.88503706,0.24272761,0.06429534,0.23385619,0.76084006,-0.049145717,-0.24691036,0.3568549,0.2596589,-0.51301676,-0.48151687,0.078209184,842.1245,738.1685,794.9817,836.08057,625.34796,-0.04736328125,0.150634765625,0.985595703125,-0.70281982421875,-0.777587890625,0.64300537109375,1,1.0,1.0,1.0,1.0,20.00
2024-09-29 18:20:08.677,0.2805591,0.3637691,0.30448487,-0.26359463,0.33895206,-0.24750552,-0.25871173,-0.14145102,0.88503706,0.24272761,0.06429534,0.23385619,0.76084006,-0.049145717,-0.24691036,0.3568549,0.2596589,-0.51301676,-0.48151687,0.078209184,850.58606,746.2271,799.011,834.0659,612.0513,-0.04736328125,0.150634765625,0.985595703125,-0.70281982421875,-0.777587890625,0.64300537109375,1,1.0,1.0,1.0,1.0,20.00
2024-09-29 18:20:08.678,0.2805591,0.3637691,0.30448487,-0.26359463,0.33895206,-0.24750552,-0.25871173,-0.14145102,0.88503706,0.24272761,0.06429534,0.23385619,0.76084006,-0.049145717,-0.24691036,0.3568549,0.2596589,-0.51301676,-0.48151687,0.078209184,830.4396,745.82416,795.38464,833.663,751.8681,-0.04736328125,0.150634765625,0.985595703125,-0.70281982421875,-0.777587890625,0.64300537109375,1,1.0,1.0,1.0,1.0,20.00
2024-09-29 18:20:08.679,0.2805591,0.3637691,0.30448487,-0.26359463,0.33895206,-0.24750552,-0.25871173,-0.14145102,0.88503706,0.24272761,0.06429534,0.23385619,0.76084006,-0.049145717,-0.24691036,0.3568549,0.2596589,-0.51301676,-0.48151687,0.078209184,814.3223,734.94507,793.36993,828.022,869.92676,-0.04736328125,0.150634765625,0.985595703125,-0.70281982421875,-0.777587890625,0.64300537109375,1,1.0,1.0,1.0,1.0,20.00
2024-09-29 18:20:08.679,0.2805591,0.3637691,0.30448487,-0.26359463,0.33895206,-0.24750552,-0.25871173,-0.14145102,0.88503706,0.24272761,0.06429534,0.23385619,0.76084006,-0.049145717,-0.24691036,0.3568549,0.2596589,-0.51301676,-0.48151687,0.078209184,820.7692,736.55676,793.7729,828.022,848.97437,-0.04736328125,0.150634765625,0.985595703125,-0.70281982421875,-0.777587890625,0.64300537109375,1,1.0,1.0,1.0,1.0,20.00
2024-09-29 18:20:08.680,0.2805591,0.3637691,0.30448487,-0.26359463,0.33895206,-0.24750552,-0.25871173,-0.14145102,0.88503706,0.24272761,0.06429534,0.23385619,0.76084006,-0.049145717,-0.24691036,0.3568549,0.2596589,-0.51301676,-0.48151687,0.078209184,825.2015,743.4066,794.17584,828.4249,830.4396,-0.04736328125,0.150634765625,0.985595703125,-0.70281982421875,-0.777587890625,0.64300537109375,1,1.0,1.0,1.0,1.0,20.00
2024-09-29 18:20:08.680,0.2805591,0.3637691,0.30448487,-0.26359463,0.33895206,-0.24750552,-0.25871173,-0.14145102,0.88503706,0.24272761,0.06429534,0.23385619,0.76084006,-0.049145717,-0.24691036,0.3568549,0.2596589,-0.51301676,-0.48151687,0.078209184,829.6337,739.3773,794.57874,828.4249,874.35895,-0.04736328125,0.150634765625,0.985595703125,-0.70281982421875,-0.777587890625,0.64300537109375,1,1.0,1.0,1.0,1.0,20.00
2024-09-29 18:20:08.681,0.2805591,0.3637691,0.30448487,-0.26359463,0.33895206,-0.24750552,-0.25871173,-0.14145102,0.88503706,0.24272761,0.06429534,0.23385619,0.76084006,-0.049145717,-0.24691036,0.3568549,0.2596589,-0.51301676,-0.48151687,0.078209184,830.0366,738.1685,792.5641,828.8278,793.36993,-0.04736328125,0.150634765625,0.985595703125,-0.70281982421875,-0.777587890625,0.64300537109375,1,1.0,1.0,1.0,1.0,20.00
2024-09-29 18:20:08.681,0.2805591,0.3637691,0.30448487,-0.26359463,0.33895206,-0.24750552,-0.25871173,-0.14145102,0.88503706,0.24272761,0.06429534,0.23385619,0.76084006,-0.049145717,-0.24691036,0.3568549,0.2596589,-0.51301676,-0.48151687,0.078209184,828.8278,741.79486,791.75824,826.8132,630.989,-0.04736328125,0.150634765625,0.985595703125,-0.70281982421875,-0.777587890625,0.64300537109375,1,1.0,1.0,1.0,1.0,20.00
2024-09-29 18:20:08.682,0.2805591,0.3637691,0.30448487,-0.26359463,0.33895206,-0.24750552,-0.25871173,-0.14145102,0.88503706,0.24272761,0.06429534,0.23385619,0.76084006,-0.049145717,-0.24691036,0.3568549,0.2596589,-0.51301676,-0.48151687,0.078209184,828.8278,742.6007,792.96704,833.663,619.304,-0.04736328125,0.150634765625,0.985595703125,-0.70281982421875,-0.777587890625,0.64300537109375,1,1.0,1.0,1.0,1.0,20.00
2024-09-29 18:20:08.682,0.2805591,0.3637691,0.30448487,-0.26359463,0.33895206,-0.24750552,-0.25871173,-0.14145102,0.88503706,0.24272761,0.06429534,0.23385619,0.76084006,-0.049145717,-0.24691036,0.3568549,0.2596589,-0.51301676,-0.48151687,0.078209184,830.4396,742.1978,790.9524,842.52747,809.89014,-0.04736328125,0.150634765625,0.985595703125,-0.70281982421875,-0.777587890625,0.64300537109375,1,1.0,1.0,1.0,1.0,20.00
2024-09-29 18:20:08.710,0.2805591,0.3637691,0.30448487,-0.26359463,0.33895206,-0.24750552,-0.25871173,-0.14145102,0.88503706,0.24272761,0.06429534,0.23385619,0.76084006,-0.049145717,-0.24691036,0.3568549,0.2596589,-0.51301676,-0.48151687,0.078209184,830.0366,738.97437,791.3553,839.707,863.47986,-0.0450439453125,0.15728759765625,0.99664306640625,-0.07476806640625,-1.218719482421875,-0.231781005859375,1,1.0,1.0,1.0,1.0,20.00
2024-09-29 18:20:08.711,0.22591607,0.3842978,0.30821568,-0.30512944,0.34052154,-0.25800923,-0.23291104,-0.17920868,0.88503706,0.21689165,-8.8763476E-4,0.21606466,0.77743804,-0.056924913,-0.2348038,0.37779212,0.23736334,-0.5394809,-0.4766527,0.076484054,832.0513,739.3773,794.17584,836.08057,664.83514,-0.0450439453125,0.15728759765625,0.99664306640625,-0.07476806640625,-1.218719482421875,-0.231781005859375,1,1.0,1.0,1.0,1.0,20.00
2024-09-29 18:20:08.715,0.22591607,0.3842978,0.30821568,-0.30512944,0.34052154,-0.25800923,-0.23291104,-0.17920868,0.88503706,0.21689165,-8.8763476E-4,0.21606466,0.77743804,-0.056924913,-0.2348038,0.37779212,0.23736334,-0.5394809,-0.4766527,0.076484054,836.8865,732.52747,795.78754,842.9304,599.9634,-0.0450439453125,0.15728759765625,0.99664306640625,-0.07476806640625,-1.218719482421875,-0.231781005859375,1,1.0,1.0,1.0,1.0,20.00
2024-09-29 18:20:08.716,0.22591607,0.3842978,0.30821568,-0.30512944,0.34052154,-0.25800923,-0.23291104,-0.17920868,0.88503706,0.21689165,-8.8763476E-4,0.21606466,0.77743804,-0.056924913,-0.2348038,0.37779212,0.23736334,-0.5394809,-0.4766527,0.076484054,838.0952,730.5128,792.96704,847.3626,818.7546,-0.0450439453125,0.15728759765625,0.99664306640625,-0.07476806640625,-1.218719482421875,-0.231781005859375,1,1.0,1.0,1.0,1.0,20.00
2024-09-29 18:20:08.717,0.22591607,0.3842978,0.30821568,-0.30512944,0.34052154,-0.25800923,-0.23291104,-0.17920868,0.88503706,0.21689165,-8.8763476E-4,0.21606466,0.77743804,-0.056924913,-0.2348038,0.37779212,0.23736334,-0.5394809,-0.4766527,0.076484054,837.28937,741.39197,786.52014,840.5128,919.4872,-0.0450439453125,0.15728759765625,0.99664306640625,-0.07476806640625,-1.218719482421875,-0.231781005859375,1,1.0,1.0,1.0,1.0,20.00
2024-09-29 18:20:08.717,0.22591607,0.3842978,0.30821568,-0.30512944,0.34052154,-0.25800923,-0.23291104,-0.17920868,0.88503706,0.21689165,-8.8763476E-4,0.21606466,0.77743804,-0.056924913,-0.2348038,0.37779212,0.23736334,-0.5394809,-0.4766527,0.076484054,839.707,742.6007,788.1319,832.4542,813.91943,-0.0450439453125,0.15728759765625,0.99664306640625,-0.07476806640625,-1.218719482421875,-0.231781005859375,1,1.0,1.0,1.0,1.0,20.00
2024-09-29 18:20:08.720,0.22591607,0.3842978,0.30821568,-0.30512944,0.34052154,-0.25800923,-0.23291104,-0.17920868,0.88503706,0.21689165,-8.8763476E-4,0.21606466,0.77743804,-0.056924913,-0.2348038,0.37779212,0.23736334,-0.5394809,-0.4766527,0.076484054,843.3333,739.3773,787.72894,833.2601,723.2601,-0.0450439453125,0.15728759765625,0.99664306640625,-0.07476806640625,-1.218719482421875,-0.231781005859375,1,1.0,1.0,1.0,1.0,20.00
2024-09-29 18:20:08.721,0.22591607,0.3842978,0.30821568,-0.30512944,0.34052154,-0.25800923,-0.23291104,-0.17920868,0.88503706,0.21689165,-8.8763476E-4,0.21606466,0.77743804,-0.056924913,-0.2348038,0.37779212,0.23736334,-0.5394809,-0.4766527,0.076484054,844.5421,733.73627,786.1172,837.6923,903.36993,-0.0450439453125,0.15728759765625,0.99664306640625,-0.07476806640625,-1.218719482421875,-0.231781005859375,1,1.0,1.0,1.0,1.0,20.00
2024-09-29 18:20:08.721,0.22591607,0.3842978,0.30821568,-0.30512944,0.34052154,-0.25800923,-0.23291104,-0.17920868,0.88503706,0.21689165,-8.8763476E-4,0.21606466,0.77743804,-0.056924913,-0.2348038,0.37779212,0.23736334,-0.5394809,-0.4766527,0.076484054,844.5421,733.3333,792.96704,836.8865,1006.52014,-0.0450439453125,0.15728759765625,0.99664306640625,-0.07476806640625,-1.218719482421875,-0.231781005859375,1,1.0,1.0,1.0,1.0,20.00
2024-09-29 18:20:08.722,0.22591607,0.3842978,0.30821568,-0.30512944,0.34052154,-0.25800923,-0.23291104,-0.17920868,0.88503706,0.21689165,-8.8763476E-4,0.21606466,0.77743804,-0.056924913,-0.2348038,0.37779212,0.23736334,-0.5394809,-0.4766527,0.076484054,850.18317,740.58606,792.5641,831.2454,702.3077,-0.0450439453125,0.15728759765625,0.99664306640625,-0.07476806640625,-1.218719482421875,-0.231781005859375,1,1.0,1.0,1.0,1.0,20.00
2024-09-29 18:20:08.723,0.22591607,0.3842978,0.30821568,-0.30512944,0.34052154,-0.25800923,-0.23291104,-0.17920868,0.88503706,0.21689165,-8.8763476E-4,0.21606466,0.77743804,-0.056924913,-0.2348038,0.37779212,0.23736334,-0.5394809,-0.4766527,0.076484054,859.45056,743.8095,790.9524,835.2747,545.16486,-0.0450439453125,0.15728759765625,0.99664306640625,-0.07476806640625,-1.218719482421875,-0.231781005859375,1,1.0,1.0,1.0,1.0,20.00
2024-09-29 18:20:08.723,0.22591607,0.3842978,0.30821568,-0.30512944,0.34052154,-0.25800923,-0.23291104,-0.17920868,0.88503706,0.21689165,-8.8763476E-4,0.21606466,0.77743804,-0.056924913,-0.2348038,0.37779212,0.23736334,-0.5394809,-0.4766527,0.076484054,857.03296,742.6007,794.57874,841.31866,711.5751,-0.0450439453125,0.15728759765625,0.99664306640625,-0.07476806640625,-1.218719482421875,-0.231781005859375,1,1.0,1.0,1.0,1.0,20.00
2024-09-29 18:20:08.724,0.22591607,0.3842978,0.30821568,-0.30512944,0.34052154,-0.25800923,-0.23291104,-0.17920868,0.88503706,0.21689165,-8.8763476E-4,0.21606466,0.77743804,-0.056924913,-0.2348038,0.37779212,0.23736334,-0.5394809,-0.4766527,0.076484054,850.58606,743.00366,797.8022,842.9304,864.68866,-0.0479736328125,0.15728759765625,0.999755859375,-0.485992431640625,-0.73272705078125,0.6280517578125,1,1.0,1.0,1.0,1.0,20.00
2024-09-29 18:20:08.725,0.22591607,0.3842978,0.30821568,-0.30512944,0.34052154,-0.25800923,-0.23291104,-0.17920868,0.88503706,0.21689165,-8.8763476E-4,0.21606466,0.77743804,-0.056924913,-0.2348038,0.37779212,0.23736334,-0.5394809,-0.4766527,0.076484054,846.55676,741.79486,798.60803,839.707,771.6117,-0.0479736328125,0.15728759765625,0.999755859375,-0.485992431640625,-0.73272705078125,0.6280517578125,1,1.0,1.0,1.0,1.0,20.00
2024-09-29 18:20:08.726,0.22591607,0.3842978,0.30821568,-0.30512944,0.34052154,-0.25800923,-0.23291104,-0.17920868,0.88503706,0.21689165,-8.8763476E-4,0.21606466,0.77743804,-0.056924913,-0.2348038,0.37779212,0.23736334,-0.5394809,-0.4766527,0.076484054,847.3626,738.97437,792.96704,830.84247,727.28937,-0.0479736328125,0.15728759765625,0.999755859375,-0.485992431640625,-0.73272705078125,0.6280517578125,1,1.0,1.0,1.0,1.0,20.00
2024-09-29 18:20:08.726,0.22591607,0.3842978,0.30821568,-0.30512944,0.34052154,-0.25800923,-0.23291104,-0.17920868,0.88503706,0.21689165,-8.8763476E-4,0.21606466,0.77743804,-0.056924913,-0.2348038,0.37779212,0.23736334,-0.5394809,-0.4766527,0.076484054,846.55676,743.00366,794.57874,833.663,877.5824,-0.0479736328125,0.15728759765625,0.999755859375,-0.485992431640625,-0.73272705078125,0.6280517578125,1,1.0,1.0,1.0,1.0,20.00
2024-09-29 18:20:08.727,0.22591607,0.3842978,0.30821568,-0.30512944,0.34052154,-0.25800923,-0.23291104,-0.17920868,0.88503706,0.21689165,-8.8763476E-4,0.21606466,0.77743804,-0.056924913,-0.2348038,0.37779212,0.23736334,-0.5394809,-0.4766527,0.076484054,846.9597,741.79486,799.41394,836.08057,978.71796,-0.0479736328125,0.15728759765625,0.999755859375,-0.485992431640625,-0.73272705078125,0.6280517578125,1,1.0,1.0,1.0,1.0,20.00
2024-09-29 18:20:08.728,0.22591607,0.3842978,0.30821568,-0.30512944,0.34052154,-0.25800923,-0.23291104,-0.17920868,0.88503706,0.21689165,-8.8763476E-4,0.21606466,0.77743804,-0.056924913,-0.2348038,0.37779212,0.23736334,-0.5394809,-0.4766527,0.076484054,848.1685,742.6007,798.20514,834.87177,861.06226,-0.0479736328125,0.15728759765625,0.999755859375,-0.485992431640625,-0.73272705078125,0.6280517578125,1,1.0,1.0,1.0,1.0,20.00
2024-09-29 18:20:08.728,0.22591607,0.3842978,0.30821568,-0.30512944,0.34052154,-0.25800923,-0.23291104,-0.17920868,0.88503706,0.21689165,-8.8763476E-4,0.21606466,0.77743804,-0.056924913,-0.2348038,0.37779212,0.23736334,-0.5394809,-0.4766527,0.076484054,836.8865,742.1978,799.41394,840.10986,932.381,-0.0479736328125,0.15728759765625,0.999755859375,-0.485992431640625,-0.73272705078125,0.6280517578125,1,1.0,1.0,1.0,1.0,20.00
2024-09-29 18:20:08.729,0.22591607,0.3842978,0.30821568,-0.30512944,0.34052154,-0.25800923,-0.23291104,-0.17920868,0.88503706,0.21689165,-8.8763476E-4,0.21606466,0.77743804,-0.056924913,-0.2348038,0.37779212,0.23736334,-0.5394809,-0.4766527,0.076484054,833.2601,738.1685,800.2198,840.10986,987.98535,-0.0479736328125,0.15728759765625,0.999755859375,-0.485992431640625,-0.73272705078125,0.6280517578125,1,1.0,1.0,1.0,1.0,20.00
2024-09-29 18:20:08.730,0.22591607,0.3842978,0.30821568,-0.30512944,0.34052154,-0.25800923,-0.23291104,-0.17920868,0.88503706,0.21689165,-8.8763476E-4,0.21606466,0.77743804,-0.056924913,-0.2348038,0.37779212,0.23736334,-0.5394809,-0.4766527,0.076484054,828.022,742.1978,801.02563,839.304,830.84247,-0.0479736328125,0.15728759765625,0.999755859375,-0.485992431640625,-0.73272705078125,0.6280517578125,1,1.0,1.0,1.0,1.0,20.00
2024-09-29 18:20:08.730,0.22591607,0.3842978,0.30821568,-0.30512944,0.34052154,-0.25800923,-0.23291104,-0.17920868,0.88503706,0.21689165,-8.8763476E-4,0.21606466,0.77743804,-0.056924913,-0.2348038,0.37779212,0.23736334,-0.5394809,-0.4766527,0.076484054,828.022,741.79486,799.81683,840.9158,736.9597,-0.0479736328125,0.15728759765625,0.999755859375,-0.485992431640625,-0.73272705078125,0.6280517578125,1,1.0,1.0,1.0,1.0,20.00
2024-09-29 18:20:08.731,0.22591607,0.3842978,0.30821568,-0.30512944,0.34052154,-0.25800923,-0.23291104,-0.17920868,0.88503706,0.21689165,-8.8763476E-4,0.21606466,0.77743804,-0.056924913,-0.2348038,0.37779212,0.23736334,-0.5394809,-0.4766527,0.076484054,836.4835,740.18317,798.20514,838.0952,810.293,-0.0479736328125,0.15728759765625,0.999755859375,-0.485992431640625,-0.73272705078125,0.6280517578125,1,1.0,1.0,1.0,1.0,20.00
2024-09-29 18:20:08.732,0.22591607,0.3842978,0.30821568,-0.30512944,0.34052154,-0.25800923,-0.23291104,-0.17920868,0.88503706,0.21689165,-8.8763476E-4,0.21606466,0.77743804,-0.056924913,-0.2348038,0.37779212,0.23736334,-0.5394809,-0.4766527,0.076484054,836.8865,740.989,793.36993,835.2747,851.79486,-0.0479736328125,0.15728759765625,0.999755859375,-0.485992431640625,-0.73272705078125,0.6280517578125,1,1.0,1.0,1.0,1.0,20.00
2024-09-29 18:20:08.757,0.22591607,0.3842978,0.30821568,-0.30512944,0.34052154,-0.25800923,-0.23291104,-0.17920868,0.88503706,0.21689165,-8.8763476E-4,0.21606466,0.77743804,-0.056924913,-0.2348038,0.37779212,0.23736334,-0.5394809,-0.4766527,0.076484054,842.1245,738.1685,795.38464,836.08057,710.7692,-0.0517578125,0.14837646484375,0.9932861328125,-1.016845703125,-1.039276123046875,-0.07476806640625,1,1.0,1.0,1.0,1.0,20.00
2024-09-29 18:20:08.758,0.22591607,0.3842978,0.30821568,-0.30512944,0.34052154,-0.25800923,-0.23291104,-0.17920868,0.88503706,0.21689165,-8.8763476E-4,0.21606466,0.77743804,-0.056924913,-0.2348038,0.37779212,0.23736334,-0.5394809,-0.4766527,0.076484054,846.55676,739.7802,801.8315,842.1245,773.22345,-0.0517578125,0.14837646484375,0.9932861328125,-1.016845703125,-1.039276123046875,-0.07476806640625,1,1.0,1.0,1.0,1.0,20.00
2024-09-29 18:20:08.758,0.22591607,0.3842978,0.30821568,-0.30512944,0.34052154,-0.25800923,-0.23291104,-0.17920868,0.88503706,0.21689165,-8.8763476E-4,0.21606466,0.77743804,-0.056924913,-0.2348038,0.37779212,0.23736334,-0.5394809,-0.4766527,0.076484054,850.989,745.42126,798.20514,841.7216,933.1868,-0.0517578125,0.14837646484375,0.9932861328125,-1.016845703125,-1.039276123046875,-0.07476806640625,1,1.0,1.0,1.0,1.0,20.00
2024-09-29 18:20:08.759,0.20972608,0.40449944,0.31915173,-0.36816874,0.3340762,-0.2563116,-0.20431677,-0.22529034,0.8759267,0.21066678,-0.042784862,0.19963205,0.7935833,-0.069874406,-0.22273105,0.40030766,0.21090668,-0.57445985,-0.46793255,0.082138084,848.97437,744.21246,793.7729,840.9158,876.3736,-0.0517578125,0.14837646484375,0.9932861328125,-1.016845703125,-1.039276123046875,-0.07476806640625,1,1.0,1.0,1.0,1.0,20.00
2024-09-29 18:20:08.764,0.20972608,0.40449944,0.31915173,-0.36816874,0.3340762,-0.2563116,-0.20431677,-0.22529034,0.8759267,0.21066678,-0.042784862,0.19963205,0.7935833,-0.069874406,-0.22273105,0.40030766,0.21090668,-0.57445985,-0.46793255,0.082138084,830.0366,738.1685,793.7729,837.6923,665.2381,-0.0517578125,0.14837646484375,0.9932861328125,-1.016845703125,-1.039276123046875,-0.07476806640625,1,1.0,1.0,1.0,1.0,20.00
2024-09-29 18:20:08.764,0.20972608,0.40449944,0.31915173,-0.36816874,0.3340762,-0.2563116,-0.20431677,-0.22529034,0.8759267,0.21066678,-0.042784862,0.19963205,0.7935833,-0.069874406,-0.22273105,0.40030766,0.21090668,-0.57445985,-0.46793255,0.082138084,830.4396,740.58606,793.7729,839.304,868.71796,-0.0517578125,0.14837646484375,0.9932861328125,-1.016845703125,-1.039276123046875,-0.07476806640625,1,1.0,1.0,1.0,1.0,20.00
2024-09-29 18:20:08.765,0.20972608,0.40449944,0.31915173,-0.36816874,0.3340762,-0.2563116,-0.20431677,-0.22529034,0.8759267,0.21066678,-0.042784862,0.19963205,0.7935833,-0.069874406,-0.22273105,0.40030766,0.21090668,-0.57445985,-0.46793255,0.082138084,848.1685,747.8388,798.60803,849.7802,1105.641,-0.0517578125,0.14837646484375,0.9932861328125,-1.016845703125,-1.039276123046875,-0.07476806640625,1,1.0,1.0,1.0,1.0,20.00
2024-09-29 18:20:08.766,0.20972608,0.40449944,0.31915173,-0.36816874,0.3340762,-0.2563116,-0.20431677,-0.22529034,0.8759267,0.21066678,-0.042784862,0.19963205,0.7935833,-0.069874406,-0.22273105,0.40030766,0.21090668,-0.57445985,-0.46793255,0.082138084,847.3626,752.27106,801.8315,847.76556,857.4359,-0.0517578125,0.14837646484375,0.9932861328125,-1.016845703125,-1.039276123046875,-0.07476806640625,1,1.0,1.0,1.0,1.0,20.00
2024-09-29 18:20:08.766,0.20972608,0.40449944,0.31915173,-0.36816874,0.3340762,-0.2563116,-0.20431677,-0.22529034,0.8759267,0.21066678,-0.042784862,0.19963205,0.7935833,-0.069874406,-0.22273105,0.40030766,0.21090668,-0.57445985,-0.46793255,0.082138084,840.5128,748.24176,800.2198,842.9304,642.674,-0.0517578125,0.14837646484375,0.9932861328125,-1.016845703125,-1.039276123046875,-0.07476806640625,1,1.0,1.0,1.0,1.0,20.00
2024-09-29 18:20:08.767,0.20972608,0.40449944,0.31915173,-0.36816874,0.3340762,-0.2563116,-0.20431677,-0.22529034,0.8759267,0.21066678,-0.042784862,0.19963205,0.7935833,-0.069874406,-0.22273105,0.40030766,0.21090668,-0.57445985,-0.46793255,0.082138084,850.18317,747.4359,800.6227,845.7509,759.5238,-0.0517578125,0.14837646484375,0.9932861328125,-1.016845703125,-1.039276123046875,-0.07476806640625,1,1.0,1.0,1.0,1.0,20.00
2024-09-29 18:20:08.768,0.20972608,0.40449944,0.31915173,-0.36816874,0.3340762,-0.2563116,-0.20431677,-0.22529034,0.8759267,0.21066678,-0.042784862,0.19963205,0.7935833,-0.069874406,-0.22273105,0.40030766,0.21090668,-0.57445985,-0.46793255,0.082138084,857.8388,749.0476,802.6374,843.3333,838.9011,-0.0517578125,0.14837646484375,0.9932861328125,-1.016845703125,-1.039276123046875,-0.07476806640625,1,1.0,1.0,1.0,1.0,20.00
2024-09-29 18:20:08.768,0.20972608,0.40449944,0.31915173,-0.36816874,0.3340762,-0.2563116,-0.20431677,-0.22529034,0.8759267,0.21066678,-0.042784862,0.19963205,0.7935833,-0.069874406,-0.22273105,0.40030766,0.21090668,-0.57445985,-0.46793255,0.082138084,853.00366,747.4359,802.23444,840.5128,765.56775,-0.0517578125,0.14837646484375,0.9932861328125,-1.016845703125,-1.039276123046875,-0.07476806640625,1,1.0,1.0,1.0,1.0,20.00
2024-09-29 18:20:08.795,0.20972608,0.40449944,0.31915173,-0.36816874,0.3340762,-0.2563116,-0.20431677,-0.22529034,0.8759267,0.21066678,-0.042784862,0.19963205,0.7935833,-0.069874406,-0.22273105,0.40030766,0.21090668,-0.57445985,-0.46793255,0.082138084,851.39197,748.6447,802.23444,842.52747,677.72894,-0.0469970703125,0.15032958984375,0.99359130859375,-0.336456298828125,-1.263580322265625,-0.4486083984375,1,1.0,1.0,1.0,1.0,20.00
2024-09-29 18:20:08.796,0.20972608,0.40449944,0.31915173,-0.36816874,0.3340762,-0.2563116,-0.20431677,-0.22529034,0.8759267,0.21066678,-0.042784862,0.19963205,0.7935833,-0.069874406,-0.22273105,0.40030766,0.21090668,-0.57445985,-0.46793255,0.082138084,853.4066,755.4945,803.44324,846.9597,743.00366,-0.0469970703125,0.15032958984375,0.99359130859375,-0.336456298828125,-1.263580322265625,-0.4486083984375,1,1.0,1.0,1.0,1.0,20.00
2024-09-29 18:20:08.797,0.20972608,0.40449944,0.31915173,-0.36816874,0.3340762,-0.2563116,-0.20431677,-0.22529034,0.8759267,0.21066678,-0.042784862,0.19963205,0.7935833,-0.069874406,-0.22273105,0.40030766,0.21090668,-0.57445985,-0.46793255,0.082138084,853.00366,760.32965,802.23444,850.18317,876.3736,-0.0469970703125,0.15032958984375,0.99359130859375,-0.336456298828125,-1.263580322265625,-0.4486083984375,1,1.0,1.0,1.0,1.0,20.00
2024-09-29 18:20:08.797,0.20972608,0.40449944,0.31915173,-0.36816874,0.3340762,-0.2563116,-0.20431677,-0.22529034,0.8759267,0.21066678,-0.042784862,0.19963205,0.7935833,-0.069874406,-0.22273105,0.40030766,0.21090668,-0.57445985,-0.46793255,0.082138084,857.03296,759.5238,802.23444,853.8095,783.69965,-0.0469970703125,0.15032958984375,0.99359130859375,-0.336456298828125,-1.263580322265625,-0.4486083984375,1,1.0,1.0,1.0,1.0,20.00
2024-09-29 18:20:08.798,0.20972608,0.40449944,0.31915173,-0.36816874,0.3340762,-0.2563116,-0.20431677,-0.22529034,0.8759267,0.21066678,-0.042784862,0.19963205,0.7935833,-0.069874406,-0.22273105,0.40030766,0.21090668,-0.57445985,-0.46793255,0.082138084,858.24176,757.50916,801.8315,848.1685,586.26373,-0.0469970703125,0.15032958984375,0.99359130859375,-0.336456298828125,-1.263580322265625,-0.4486083984375,1,1.0,1.0,1.0,1.0,20.00
2024-09-29 18:20:08.799,0.20972608,0.40449944,0.31915173,-0.36816874,0.3340762,-0.2563116,-0.20431677,-0.22529034,0.8759267,0.21066678,-0.042784862,0.19963205,0.7935833,-0.069874406,-0.22273105,0.40030766,0.21090668,-0.57445985,-0.46793255,0.082138084,853.8095,755.09155,796.1905,840.5128,846.55676,-0.0469970703125,0.15032958984375,0.99359130859375,-0.336456298828125,-1.263580322265625,-0.4486083984375,1,1.0,1.0,1.0,1.0,20.00
2024-09-29 18:20:08.799,0.20972608,0.40449944,0.31915173,-0.36816874,0.3340762,-0.2563116,-0.20431677,-0.22529034,0.8759267,0.21066678,-0.042784862,0.19963205,0.7935833,-0.069874406,-0.22273105,0.40030766,0.21090668,-0.57445985,-0.46793255,0.082138084,846.9597,755.09155,795.78754,848.1685,1217.2528,-0.0469970703125,0.15032958984375,0.99359130859375,-0.336456298828125,-1.263580322265625,-0.4486083984375,1,1.0,1.0,1.0,1.0,20.00
2024-09-29 18:20:08.800,0.20972608,0.40449944,0.31915173,-0.36816874,0.3340762,-0.2563116,-0.20431677,-0.22529034,0.8759267,0.21066678,-0.042784862,0.19963205,0.7935833,-0.069874406,-0.22273105,0.40030766,0.21090668,-0.57445985,-0.46793255,0.082138084,834.87177,753.47986,796.99634,845.34796,906.1905,-0.0469970703125,0.15032958984375,0.99359130859375,-0.336456298828125,-1.263580322265625,-0.4486083984375,1,1.0,1.0,1.0,1.0,20.00
2024-09-29 18:20:08.800,0.20972608,0.40449944,0.31915173,-0.36816874,0.3340762,-0.2563116,-0.20431677,-0.22529034,0.8759267,0.21066678,-0.042784862,0.19963205,0.7935833,-0.069874406,-0.22273105,0.40030766,0.21090668,-0.57445985,-0.46793255,0.082138084,834.0659,753.8828,796.1905,838.49817,602.381,-0.0469970703125,0.15032958984375,0.99359130859375,-0.336456298828125,-1.263580322265625,-0.4486083984375,1,1.0,1.0,1.0,1.0,20.00
2024-09-29 18:20:08.801,0.20972608,0.40449944,0.31915173,-0.36816874,0.3340762,-0.2563116,-0.20431677,-0.22529034,0.8759267,0.21066678,-0.042784862,0.19963205,0.7935833,-0.069874406,-0.22273105,0.40030766,0.21090668,-0.57445985,-0.46793255,0.082138084,838.49817,755.09155,796.5934,844.1392,799.41394,-0.0469970703125,0.15032958984375,0.99359130859375,-0.336456298828125,-1.263580322265625,-0.4486083984375,1,1.0,1.0,1.0,1.0,20.00
2024-09-29 18:20:08.801,0.20972608,0.40449944,0.31915173,-0.36816874,0.3340762,-0.2563116,-0.20431677,-0.22529034,0.8759267,0.21066678,-0.042784862,0.19963205,0.7935833,-0.069874406,-0.22273105,0.40030766,0.21090668,-0.57445985,-0.46793255,0.082138084,832.8571,751.4652,794.9817,842.52747,1021.8315,-0.0469970703125,0.15032958984375,0.99359130859375,-0.336456298828125,-1.263580322265625,-0.4486083984375,1,1.0,1.0,1.0,1.0,20.00
2024-09-29 18:20:08.802,0.20972608,0.40449944,0.31915173,-0.36816874,0.3340762,-0.2563116,-0.20431677,-0.22529034,0.8759267,0.21066678,-0.042784862,0.19963205,0.7935833,-0.069874406,-0.22273105,0.40030766,0.21090668,-0.57445985,-0.46793255,0.082138084,835.6777,754.68866,794.9817,838.0952,859.0476,-0.0469970703125,0.15032958984375,0.99359130859375,-0.336456298828125,-1.263580322265625,-0.4486083984375,1,1.0,1.0,1.0,1.0,20.00
2024-09-29 18:20:08.863,0.20972608,0.40449944,0.31915173,-0.36816874,0.3340762,-0.2563116,-0.20431677,-0.22529034,0.8759267,0.21066678,-0.042784862,0.19963205,0.7935833,-0.069874406,-0.22273105,0.40030766,0.21090668,-0.57445985,-0.46793255,0.082138084,834.4689,754.68866,794.57874,835.6777,572.5641,-0.0469970703125,0.15032958984375,0.99359130859375,-0.336456298828125,-1.263580322265625,-0.4486083984375,1,1.0,1.0,1.0,1.0,20.00
2024-09-29 18:20:08.864,0.20972608,0.40449944,0.31915173,-0.36816874,0.3340762,-0.2563116,-0.20431677,-0.22529034,0.8759267,0.21066678,-0.042784862,0.19963205,0.7935833,-0.069874406,-0.22273105,0.40030766,0.21090668,-0.57445985,-0.46793255,0.082138084,835.2747,753.47986,791.3553,829.6337,655.16486,-0.0469970703125,0.15032958984375,0.99359130859375,-0.336456298828125,-1.263580322265625,-0.4486083984375,1,1.0,1.0,1.0,1.0,20.00
2024-09-29 18:20:08.865,0.20972608,0.40449944,0.31915173,-0.36816874,0.3340762,-0.2563116,-0.20431677,-0.22529034,0.8759267,0.21066678,-0.042784862,0.19963205,0.7935833,-0.069874406,-0.22273105,0.40030766,0.21090668,-0.57445985,-0.46793255,0.082138084,844.5421,756.30035,795.38464,836.8865,952.9304,-0.0469970703125,0.15032958984375,0.99359130859375,-0.336456298828125,-1.263580322265625,-0.4486083984375,1,1.0,1.0,1.0,1.0,20.00
2024-09-29 18:20:08.865,0.20972608,0.40449944,0.31915173,-0.36816874,0.3340762,-0.2563116,-0.20431677,-0.22529034,0.8759267,0.21066678,-0.042784862,0.19963205,0.7935833,-0.069874406,-0.22273105,0.40030766,0.21090668,-0.57445985,-0.46793255,0.082138084,840.10986,755.4945,798.20514,840.10986,943.663,-0.0469970703125,0.15032958984375,0.99359130859375,-0.336456298828125,-1.263580322265625,-0.4486083984375,1,1.0,1.0,1.0,1.0,20.00
2024-09-29 18:20:08.866,0.20972608,0.40449944,0.31915173,-0.36816874,0.3340762,-0.2563116,-0.20431677,-0.22529034,0.8759267,0.21066678,-0.042784862,0.19963205,0.7935833,-0.069874406,-0.22273105,0.40030766,0.21090668,-0.57445985,-0.46793255,0.082138084,840.5128,753.0769,793.7729,839.707,740.989,-0.0469970703125,0.15032958984375,0.99359130859375,-0.336456298828125,-1.263580322265625,-0.4486083984375,1,1.0,1.0,1.0,1.0,20.00
2024-09-29 18:20:08.866,0.22640544,0.42519757,0.33819646,-0.42509556,0.3293304,-0.2411055,-0.17113261,-0.25981194,0.86134815,0.21066678,-0.042784862,0.18194646,0.80955833,-0.086868405,-0.20887017,0.42226794,0.18809468,-0.62414724,-0.45388415,0.09968295,849.3773,757.50916,792.96704,845.34796,743.00366,-0.0469970703125,0.15032958984375,0.99359130859375,-0.336456298828125,-1.263580322265625,-0.4486083984375,1,1.0,1.0,1.0,1.0,20.00
2024-09-29 18:20:08.871,0.22640544,0.42519757,0.33819646,-0.42509556,0.3293304,-0.2411055,-0.17113261,-0.25981194,0.86134815,0.21066678,-0.042784862,0.18194646,0.80955833,-0.086868405,-0.20887017,0.42226794,0.18809468,-0.62414724,-0.45388415,0.09968295,845.7509,759.5238,796.99634,844.94507,975.4945,-0.0469970703125,0.15032958984375,0.99359130859375,-0.336456298828125,-1.263580322265625,-0.4486083984375,1,1.0,1.0,1.0,1.0,20.00
2024-09-29 18:20:08.872,0.22640544,0.42519757,0.33819646,-0.42509556,0.3293304,-0.2411055,-0.17113261,-0.25981194,0.86134815,0.21066678,-0.042784862,0.18194646,0.80955833,-0.086868405,-0.20887017,0.42226794,0.18809468,-0.62414724,-0.45388415,0.09968295,835.6777,753.47986,797.8022,839.304,943.2601,-0.0469970703125,0.15032958984375,0.99359130859375,-0.336456298828125,-1.263580322265625,-0.4486083984375,1,1.0,1.0,1.0,1.0,20.00
2024-09-29 18:20:08.873,0.22640544,0.42519757,0.33819646,-0.42509556,0.3293304,-0.2411055,-0.17113261,-0.25981194,0.86134815,0.21066678,-0.042784862,0.18194646,0.80955833,-0.086868405,-0.20887017,0.42226794,0.18809468,-0.62414724,-0.45388415,0.09968295,840.5128,752.674,798.20514,834.87177,763.1502,-0.0469970703125,0.15032958984375,0.99359130859375,-0.336456298828125,-1.263580322265625,-0.4486083984375,1,1.0,1.0,1.0,1.0,20.00
2024-09-29 18:20:08.873,0.22640544,0.42519757,0.33819646,-0.42509556,0.3293304,-0.2411055,-0.17113261,-0.25981194,0.86134815,0.21066678,-0.042784862,0.18194646,0.80955833,-0.086868405,-0.20887017,0.42226794,0.18809468,-0.62414724,-0.45388415,0.09968295,841.7216,761.13556,795.38464,832.0513,796.1905,-0.0469970703125,0.15032958984375,0.99359130859375,-0.336456298828125,-1.263580322265625,-0.4486083984375,1,1.0,1.0,1.0,1.0,20.00
2024-09-29 18:20:08.874,0.22640544,0.42519757,0.33819646,-0.42509556,0.3293304,-0.2411055,-0.17113261,-0.25981194,0.86134815,0.21066678,-0.042784862,0.18194646,0.80955833,-0.086868405,-0.20887017,0.42226794,0.18809468,-0.62414724,-0.45388415,0.09968295,842.9304,759.92676,792.1612,836.8865,833.663,-0.0469970703125,0.15032958984375,0.99359130859375,-0.336456298828125,-1.263580322265625,-0.4486083984375,1,1.0,1.0,1.0,1.0,20.00
2024-09-29 18:20:08.874,0.22640544,0.42519757,0.33819646,-0.42509556,0.3293304,-0.2411055,-0.17113261,-0.25981194,0.86134815,0.21066678,-0.042784862,0.18194646,0.80955833,-0.086868405,-0.20887017,0.42226794,0.18809468,-0.62414724,-0.45388415,0.09968295,840.5128,749.45056,797.8022,840.5128,750.65936,-0.0469970703125,0.15032958984375,0.99359130859375,-0.336456298828125,-1.263580322265625,-0.4486083984375,1,1.0,1.0,1.0,1.0,20.00
2024-09-29 18:20:08.897,0.22640544,0.42519757,0.33819646,-0.42509556,0.3293304,-0.2411055,-0.17113261,-0.25981194,0.86134815,0.21066678,-0.042784862,0.18194646,0.80955833,-0.086868405,-0.20887017,0.42226794,0.18809468,-0.62414724,-0.45388415,0.09968295,834.4689,753.0769,797.3993,833.663,724.87177,-0.0484619140625,0.15069580078125,0.99188232421875,0.037384033203125,-0.485992431640625,-0.22430419921875,1,1.0,1.0,1.0,1.0,20.00
2024-09-29 18:20:08.898,0.22640544,0.42519757,0.33819646,-0.42509556,0.3293304,-0.2411055,-0.17113261,-0.25981194,0.86134815,0.21066678,-0.042784862,0.18194646,0.80955833,-0.086868405,-0.20887017,0.42226794,0.18809468,-0.62414724,-0.45388415,0.09968295,838.49817,761.13556,799.81683,838.49817,743.4066,-0.0484619140625,0.15069580078125,0.99188232421875,0.037384033203125,-0.485992431640625,-0.22430419921875,1,1.0,1.0,1.0,1.0,20.00
2024-09-29 18:20:08.899,0.22640544,0.42519757,0.33819646,-0.42509556,0.3293304,-0.2411055,-0.17113261,-0.25981194,0.86134815,0.21066678,-0.042784862,0.18194646,0.80955833,-0.086868405,-0.20887017,0.42226794,0.18809468,-0.62414724,-0.45388415,0.09968295,833.2601,760.32965,802.23444,846.1539,807.8755,-0.0484619140625,0.15069580078125,0.99188232421875,0.037384033203125,-0.485992431640625,-0.22430419921875,1,1.0,1.0,1.0,1.0,20.00
2024-09-29 18:20:08.899,0.22640544,0.42519757,0.33819646,-0.42509556,0.3293304,-0.2411055,-0.17113261,-0.25981194,0.86134815,0.21066678,-0.042784862,0.18194646,0.80955833,-0.086868405,-0.20887017,0.42226794,0.18809468,-0.62414724,-0.45388415,0.09968295,837.28937,762.74725,803.0403,848.97437,810.696,-0.0484619140625,0.15069580078125,0.99188232421875,0.037384033203125,-0.485992431640625,-0.22430419921875,1,1.0,1.0,1.0,1.0,20.00
2024-09-29 18:20:08.900,0.22640544,0.42519757,0.33819646,-0.42509556,0.3293304,-0.2411055,-0.17113261,-0.25981194,0.86134815,0.21066678,-0.042784862,0.18194646,0.80955833,-0.086868405,-0.20887017,0.42226794,0.18809468,-0.62414724,-0.45388415,0.09968295,840.10986,765.9707,805.4579,842.52747,855.0183,-0.0484619140625,0.15069580078125,0.99188232421875,0.037384033203125,-0.485992431640625,-0.22430419921875,1,1.0,1.0,1.0,1.0,20.00
2024-09-29 18:20:08.900,0.22640544,0.42519757,0.33819646,-0.42509556,0.3293304,-0.2411055,-0.17113261,-0.25981194,0.86134815,0.21066678,-0.042784862,0.18194646,0.80955833,-0.086868405,-0.20887017,0.42226794,0.18809468,-0.62414724,-0.45388415,0.09968295,834.87177,764.35895,800.6227,833.2601,871.53845,-0.0484619140625,0.15069580078125,0.99188232421875,0.037384033203125,-0.485992431640625,-0.22430419921875,1,1.0,1.0,1.0,1.0,20.00
2024-09-29 18:20:08.901,0.22640544,0.42519757,0.33819646,-0.42509556,0.3293304,-0.2411055,-0.17113261,-0.25981194,0.86134815,0.21066678,-0.042784862,0.18194646,0.80955833,-0.086868405,-0.20887017,0.42226794,0.18809468,-0.62414724,-0.45388415,0.09968295,838.0952,766.77655,804.2491,838.49817,832.0513,-0.0484619140625,0.15069580078125,0.99188232421875,0.037384033203125,-0.485992431640625,-0.22430419921875,1,1.0,1.0,1.0,1.0,20.00
2024-09-29 18:20:08.901,0.22640544,0.42519757,0.33819646,-0.42509556,0.3293304,-0.2411055,-0.17113261,-0.25981194,0.86134815,0.21066678,-0.042784862,0.18194646,0.80955833,-0.086868405,-0.20887017,0.42226794,0.18809468,-0.62414724,-0.45388415,0.09968295,850.58606,766.3736,809.0842,844.94507,906.1905,-0.0484619140625,0.15069580078125,0.99188232421875,0.037384033203125,-0.485992431640625,-0.22430419921875,1,1.0,1.0,1.0,1.0,20.00
2024-09-29 18:20:08.902,0.22640544,0.42519757,0.33819646,-0.42509556,0.3293304,-0.2411055,-0.17113261,-0.25981194,0.86134815,0.21066678,-0.042784862,0.18194646,0.80955833,-0.086868405,-0.20887017,0.42226794,0.18809468,-0.62414724,-0.45388415,0.09968295,847.3626,759.12085,800.6227,843.3333,956.9597,-0.0484619140625,0.15069580078125,0.99188232421875,0.037384033203125,-0.485992431640625,-0.22430419921875,1,1.0,1.0,1.0,1.0,20.00
2024-09-29 18:20:08.902,0.22640544,0.42519757,0.33819646,-0.42509556,0.3293304,-0.2411055,-0.17113261,-0.25981194,0.86134815,0.21066678,-0.042784862,0.18194646,0.80955833,-0.086868405,-0.20887017,0.42226794,0.18809468,-0.62414724,-0.45388415,0.09968295,836.08057,760.32965,799.011,840.9158,869.12085,-0.0484619140625,0.15069580078125,0.99188232421875,0.037384033203125,-0.485992431640625,-0.22430419921875,1,1.0,1.0,1.0,1.0,20.00
2024-09-29 18:20:08.903,0.22640544,0.42519757,0.33819646,-0.42509556,0.3293304,-0.2411055,-0.17113261,-0.25981194,0.86134815,0.21066678,-0.042784862,0.18194646,0.80955833,-0.086868405,-0.20887017,0.42226794,0.18809468,-0.62414724,-0.45388415,0.09968295,822.381,769.19415,800.2198,835.6777,713.9927,-0.0484619140625,0.15069580078125,0.99188232421875,0.037384033203125,-0.485992431640625,-0.22430419921875,1,1.0,1.0,1.0,1.0,20.00
2024-09-29 18:20:08.903,0.22640544,0.42519757,0.33819646,-0.42509556,0.3293304,-0.2411055,-0.17113261,-0.25981194,0.86134815,0.21066678,-0.042784862,0.18194646,0.80955833,-0.086868405,-0.20887017,0.42226794,0.18809468,-0.62414724,-0.45388415,0.09968295,811.0989,772.4176,797.3993,833.2601,848.97437,-0.0484619140625,0.15069580078125,0.99188232421875,0.037384033203125,-0.485992431640625,-0.22430419921875,1,1.0,1.0,1.0,1.0,20.00
2024-09-29 18:20:08.904,0.22640544,0.42519757,0.33819646,-0.42509556,0.3293304,-0.2411055,-0.17113261,-0.25981194,0.86134815,0.21066678,-0.042784862,0.18194646,0.80955833,-0.086868405,-0.20887017,0.42226794,0.18809468,-0.62414724,-0.45388415,0.09968295,813.1135,768.7912,793.36993,839.707,1135.8608,-0.0419921875,0.15765380859375,0.99200439453125,0.10467529296875,-0.5682373046875,1.375732421875,1,1.0,1.0,1.0,1.0,20.00
2024-09-29 18:20:08.904,0.22640544,0.42519757,0.33819646,-0.42509556,0.3293304,-0.2411055,-0.17113261,-0.25981194,0.86134815,0.21066678,-0.042784862,0.18194646,0.80955833,-0.086868405,-0.20887017,0.42226794,0.18809468,-0.62414724,-0.45388415,0.09968295,819.9634,761.53845,794.57874,839.304,1022.23444,-0.0419921875,0.15765380859375,0.99200439453125,0.10467529296875,-0.5682373046875,1.375732421875,1,1.0,1.0,1.0,1.0,20.00
2024-09-29 18:20:08.905,0.22640544,0.42519757,0.33819646,-0.42509556,0.3293304,-0.2411055,-0.17113261,-0.25981194,0.86134815,0.21066678,-0.042784862,0.18194646,0.80955833,-0.086868405,-0.20887017,0.42226794,0.18809468,-0.62414724,-0.45388415,0.09968295,827.619,766.77655,796.99634,835.6777,639.85345,-0.0419921875,0.15765380859375,0.99200439453125,0.10467529296875,-0.5682373046875,1.375732421875,1,1.0,1.0,1.0,1.0,20.00
2024-09-29 18:20:08.905,0.22640544,0.42519757,0.33819646,-0.42509556,0.3293304,-0.2411055,-0.17113261,-0.25981194,0.86134815,0.21066678,-0.042784862,0.18194646,0.80955833,-0.086868405,-0.20887017,0.42226794,0.18809468,-0.62414724,-0.45388415,0.09968295,830.84247,772.8205,795.78754,839.707,585.4579,-0.0419921875,0.15765380859375,0.99200439453125,0.10467529296875,-0.5682373046875,1.375732421875,1,1.0,1.0,1.0,1.0,20.00
2024-09-29 18:20:08.906,0.22640544,0.42519757,0.33819646,-0.42509556,0.3293304,-0.2411055,-0.17113261,-0.25981194,0.86134815,0.21066678,-0.042784862,0.18194646,0.80955833,-0.086868405,-0.20887017,0.42226794,0.18809468,-0.62414724,-0.45388415,0.09968295,830.84247,774.43225,797.3993,840.9158,788.1319,-0.0419921875,0.15765380859375,0.99200439453125,0.10467529296875,-0.5682373046875,1.375732421875,1,1.0,1.0,1.0,1.0,20.00
2024-09-29 18:20:08.906,0.22640544,0.42519757,0.33819646,-0.42509556,0.3293304,-0.2411055,-0.17113261,-0.25981194,0.86134815,0.21066678,-0.042784862,0.18194646,0.80955833,-0.086868405,-0.20887017,0.42226794,0.18809468,-0.62414724,-0.45388415,0.09968295,836.4835,774.43225,800.6227,840.5128,929.9634,-0.0419921875,0.15765380859375,0.99200439453125,0.10467529296875,-0.5682373046875,1.375732421875,1,1.0,1.0,1.0,1.0,20.00
2024-09-29 18:20:08.907,0.22640544,0.42519757,0.33819646,-0.42509556,0.3293304,-0.2411055,-0.17113261,-0.25981194,0.86134815,0.21066678,-0.042784862,0.18194646,0.80955833,-0.086868405,-0.20887017,0.42226794,0.18809468,-0.62414724,-0.45388415,0.09968295,841.31866,772.01465,803.44324,843.73627,904.57874,-0.0419921875,0.15765380859375,0.99200439453125,0.10467529296875,-0.5682373046875,1.375732421875,1,1.0,1.0,1.0,1.0,20.00
2024-09-29 18:20:08.908,0.2609437,0.45078543,0.36383608,-0.44905663,0.3393064,-0.21356119,-0.1333856,-0.2575605,0.8553454,0.21066678,-0.042784862,0.16613075,0.82705617,-0.102098644,-0.19655351,0.44455844,0.18089348,-0.68868256,-0.43422267,0.12521493,832.0513,770.0,805.05493,846.55676,739.3773,-0.0419921875,0.15765380859375,0.99200439453125,0.10467529296875,-0.5682373046875,1.375732421875,1,1.0,1.0,1.0,1.0,20.00
2024-09-29 18:20:08.912,0.2609437,0.45078543,0.36383608,-0.44905663,0.3393064,-0.21356119,-0.1333856,-0.2575605,0.8553454,0.21066678,-0.042784862,0.16613075,0.82705617,-0.102098644,-0.19655351,0.44455844,0.18089348,-0.68868256,-0.43422267,0.12521493,828.022,767.98535,805.8608,847.76556,774.0293,-0.0419921875,0.15765380859375,0.99200439453125,0.10467529296875,-0.5682373046875,1.375732421875,1,1.0,1.0,1.0,1.0,20.00
2024-09-29 18:20:08.913,0.2609437,0.45078543,0.36383608,-0.44905663,0.3393064,-0.21356119,-0.1333856,-0.2575605,0.8553454,0.21066678,-0.042784862,0.16613075,0.82705617,-0.102098644,-0.19655351,0.44455844,0.18089348,-0.68868256,-0.43422267,0.12521493,844.5421,766.77655,804.2491,857.03296,844.94507,-0.0419921875,0.15765380859375,0.99200439453125,0.10467529296875,-0.5682373046875,1.375732421875,1,1.0,1.0,1.0,1.0,20.00
2024-09-29 18:20:08.913,0.2609437,0.45078543,0.36383608,-0.44905663,0.3393064,-0.21356119,-0.1333856,-0.2575605,0.8553454,0.21066678,-0.042784862,0.16613075,0.82705617,-0.102098644,-0.19655351,0.44455844,0.18089348,-0.68868256,-0.43422267,0.12521493,850.989,772.4176,806.6667,852.1978,647.9121,-0.0419921875,0.15765380859375,0.99200439453125,0.10467529296875,-0.5682373046875,1.375732421875,1,1.0,1.0,1.0,1.0,20.00
2024-09-29 18:20:08.914,0.2609437,0.45078543,0.36383608,-0.44905663,0.3393064,-0.21356119,-0.1333856,-0.2575605,0.8553454,0.21066678,-0.042784862,0.16613075,0.82705617,-0.102098644,-0.19655351,0.44455844,0.18089348,-0.68868256,-0.43422267,0.12521493,840.5128,775.64105,809.89014,836.8865,622.1245,-0.0419921875,0.15765380859375,0.99200439453125,0.10467529296875,-0.5682373046875,1.375732421875,1,1.0,1.0,1.0,1.0,20.00
2024-09-29 18:20:08.938,0.2609437,0.45078543,0.36383608,-0.44905663,0.3393064,-0.21356119,-0.1333856,-0.2575605,0.8553454,0.21066678,-0.042784862,0.16613075,0.82705617,-0.102098644,-0.19655351,0.44455844,0.18089348,-0.68868256,-0.43422267,0.12521493,834.4689,774.0293,804.65204,NaN,733.3333,-0.06048583984375,0.1466064453125,0.9935302734375,-1.233673095703125,-0.4486083984375,-1.1065673828125,1,1.0,1.0,1.0,1.0,20.00
2024-09-29 18:20:08.938,0.2609437,0.45078543,0.36383608,-0.44905663,0.3393064,-0.21356119,-0.1333856,-0.2575605,0.8553454,0.21066678,-0.042784862,0.16613075,0.82705617,-0.102098644,-0.19655351,0.44455844,0.18089348,-0.68868256,-0.43422267,0.12521493,835.2747,776.4469,799.41394,NaN,821.978,-0.06048583984375,0.1466064453125,0.9935302734375,-1.233673095703125,-0.4486083984375,-1.1065673828125,1,1.0,1.0,1.0,1.0,20.00
2024-09-29 18:20:08.939,0.2609437,0.45078543,0.36383608,-0.44905663,0.3393064,-0.21356119,-0.1333856,-0.2575605,0.8553454,0.21066678,-0.042784862,0.16613075,0.82705617,-0.102098644,-0.19655351,0.44455844,0.18089348,-0.68868256,-0.43422267,0.12521493,838.0952,778.86444,796.1905,NaN,668.0586,-0.06048583984375,0.1466064453125,0.9935302734375,-1.233673095703125,-0.4486083984375,-1.1065673828125,1,1.0,1.0,1.0,1.0,20.00
2024-09-29 18:20:08.940,0.2609437,0.45078543,0.36383608,-0.44905663,0.3393064,-0.21356119,-0.1333856,-0.2575605,0.8553454,0.21066678,-0.042784862,0.16613075,0.82705617,-0.102098644,-0.19655351,0.44455844,0.18089348,-0.68868256,-0.43422267,0.12521493,842.1245,782.0879,796.99634,NaN,597.1429,-0.06048583984375,0.1466064453125,0.9935302734375,-1.233673095703125,-0.4486083984375,-1.1065673828125,1,1.0,1.0,1.0,1.0,20.00
2024-09-29 18:20:08.940,0.2609437,0.45078543,0.36383608,-0.44905663,0.3393064,-0.21356119,-0.1333856,-0.2575605,0.8553454,0.21066678,-0.042784862,0.16613075,0.82705617,-0.102098644,-0.19655351,0.44455844,0.18089348,-0.68868256,-0.43422267,0.12521493,844.94507,782.0879,799.81683,NaN,878.7912,-0.06048583984375,0.1466064453125,0.9935302734375,-1.233673095703125,-0.4486083984375,-1.1065673828125,1,1.0,1.0,1.0,1.0,20.00
2024-09-29 18:20:08.941,0.2609437,0.45078543,0.36383608,-0.44905663,0.3393064,-0.21356119,-0.1333856,-0.2575605,0.8553454,0.21066678,-0.042784862,0.16613075,0.82705617,-0.102098644,-0.19655351,0.44455844,0.18089348,-0.68868256,-0.43422267,0.12521493,837.28937,780.4762,800.6227,NaN,1003.69965,-0.06048583984375,0.1466064453125,0.9935302734375,-1.233673095703125,-0.4486083984375,-1.1065673828125,1,1.0,1.0,1.0,1.0,20.00
2024-09-29 18:20:08.941,0.2609437,0.45078543,0.36383608,-0.44905663,0.3393064,-0.21356119,-0.1333856,-0.2575605,0.8553454,0.21066678,-0.042784862,0.16613075,0.82705617,-0.102098644,-0.19655351,0.44455844,0.18089348,-0.68868256,-0.43422267,0.12521493,830.4396,783.69965,804.65204,NaN,885.2381,-0.06048583984375,0.1466064453125,0.9935302734375,-1.233673095703125,-0.4486083984375,-1.1065673828125,1,1.0,1.0,1.0,1.0,20.00
2024-09-29 18:20:08.942,0.2609437,0.45078543,0.36383608,-0.44905663,0.3393064,-0.21356119,-0.1333856,-0.2575605,0.8553454,0.21066678,-0.042784862,0.16613075,0.82705617,-0.102098644,-0.19655351,0.44455844,0.18089348,-0.68868256,-0.43422267,0.12521493,834.87177,791.75824,805.8608,NaN,803.0403,-0.06048583984375,0.1466064453125,0.9935302734375,-1.233673095703125,-0.4486083984375,-1.1065673828125,1,1.0,1.0,1.0,1.0,20.00
2024-09-29 18:20:08.942,0.2609437,0.45078543,0.36383608,-0.44905663,0.3393064,-0.21356119,-0.1333856,-0.2575605,0.8553454,0.21066678,-0.042784862,0.16613075,0.82705617,-0.102098644,-0.19655351,0.44455844,0.18089348,-0.68868256,-0.43422267,0.12521493,838.49817,790.9524,805.4579,NaN,922.3077,-0.06048583984375,0.1466064453125,0.9935302734375,-1.233673095703125,-0.4486083984375,-1.1065673828125,1,1.0,1.0,1.0,1.0,20.00
2024-09-29 18:20:08.943,0.2609437,0.45078543,0.36383608,-0.44905663,0.3393064,-0.21356119,-0.1333856,-0.2575605,0.8553454,0.21066678,-0.042784862,0.16613075,0.82705617,-0.102098644,-0.19655351,0.44455844,0.18089348,-0.68868256,-0.43422267,0.12521493,833.663,792.96704,803.0403,NaN,921.50183,-0.06048583984375,0.1466064453125,0.9935302734375,-1.233673095703125,-0.4486083984375,-1.1065673828125,1,1.0,1.0,1.0,1.0,20.00
2024-09-29 18:20:08.943,0.2609437,0.45078543,0.36383608,-0.44905663,0.3393064,-0.21356119,-0.1333856,-0.2575605,0.8553454,0.21066678,-0.042784862,0.16613075,0.82705617,-0.102098644,-0.19655351,0.44455844,0.18089348,-0.68868256,-0.43422267,0.12521493,826.0073,795.38464,802.6374,NaN,771.6117,-0.06048583984375,0.1466064453125,0.9935302734375,-1.233673095703125,-0.4486083984375,-1.1065673828125,1,1.0,1.0,1.0,1.0,20.00
2024-09-29 18:20:08.944,0.2609437,0.45078543,0.36383608,-0.44905663,0.3393064,-0.21356119,-0.1333856,-0.2575605,0.8553454,0.21066678,-0.042784862,0.16613075,0.82705617,-0.102098644,-0.19655351,0.44455844,0.18089348,-0.68868256,-0.43422267,0.12521493,827.2161,791.75824,803.44324,NaN,884.83514,-0.06048583984375,0.1466064453125,0.9935302734375,-1.233673095703125,-0.4486083984375,-1.1065673828125,1,1.0,1.0,1.0,1.0,20.00
2024-09-29 18:20:08.945,0.2609437,0.45078543,0.36383608,-0.44905663,0.3393064,-0.21356119,-0.1333856,-0.2575605,0.8553454,0.21066678,-0.042784862,0.16613075,0.82705617,-0.102098644,-0.19655351,0.44455844,0.18089348,-0.68868256,-0.43422267,0.12521493,NaN,NaN,NaN,846.9597,NaN,-0.057373046875,0.13812255859375,0.99078369140625,-1.233673095703125,-0.4486083984375,-1.1065673828125,1,1.0,1.0,1.0,1.0,20.00
2024-09-29 18:20:08.945,0.2609437,0.45078543,0.36383608,-0.44905663,0.3393064,-0.21356119,-0.1333856,-0.2575605,0.8553454,0.21066678,-0.042784862,0.16613075,0.82705617,-0.102098644,-0.19655351,0.44455844,0.18089348,-0.68868256,-0.43422267,0.12521493,NaN,NaN,NaN,855.82416,NaN,-0.057373046875,0.13812255859375,0.99078369140625,-1.233673095703125,-0.4486083984375,-1.1065673828125,1,1.0,1.0,1.0,1.0,20.00
2024-09-29 18:20:08.946,0.2609437,0.45078543,0.36383608,-0.44905663,0.3393064,-0.21356119,-0.1333856,-0.2575605,0.8553454,0.21066678,-0.042784862,0.16613075,0.82705617,-0.102098644,-0.19655351,0.44455844,0.18089348,-0.68868256,-0.43422267,0.12521493,NaN,NaN,NaN,860.2564,NaN,-0.057373046875,0.13812255859375,0.99078369140625,-1.233673095703125,-0.4486083984375,-1.1065673828125,1,1.0,1.0,1.0,1.0,20.00
2024-09-29 18:20:08.946,0.2609437,0.45078543,0.36383608,-0.44905663,0.3393064,-0.21356119,-0.1333856,-0.2575605,0.8553454,0.21066678,-0.042784862,0.16613075,0.82705617,-0.102098644,-0.19655351,0.44455844,0.18089348,-0.68868256,-0.43422267,0.12521493,NaN,NaN,NaN,856.2271,NaN,-0.057373046875,0.13812255859375,0.99078369140625,-1.233673095703125,-0.4486083984375,-1.1065673828125,1,1.0,1.0,1.0,1.0,20.00
2024-09-29 18:20:08.947,0.2609437,0.45078543,0.36383608,-0.44905663,0.3393064,-0.21356119,-0.1333856,-0.2575605,0.8553454,0.21066678,-0.042784862,0.16613075,0.82705617,-0.102098644,-0.19655351,0.44455844,0.18089348,-0.68868256,-0.43422267,0.12521493,NaN,NaN,NaN,845.34796,NaN,-0.057373046875,0.13812255859375,0.99078369140625,-1.233673095703125,-0.4486083984375,-1.1065673828125,1,1.0,1.0,1.0,1.0,20.00
2024-09-29 18:20:08.947,0.2609437,0.45078543,0.36383608,-0.44905663,0.3393064,-0.21356119,-0.1333856,-0.2575605,0.8553454,0.21066678,-0.042784862,0.16613075,0.82705617,-0.102098644,-0.19655351,0.44455844,0.18089348,-0.68868256,-0.43422267,0.12521493,NaN,NaN,NaN,844.1392,NaN,-0.057373046875,0.13812255859375,0.99078369140625,-1.233673095703125,-0.4486083984375,-1.1065673828125,1,1.0,1.0,1.0,1.0,20.00
2024-09-29 18:20:08.948,0.2609437,0.45078543,0.36383608,-0.44905663,0.3393064,-0.21356119,-0.1333856,-0.2575605,0.8553454,0.21066678,-0.042784862,0.16613075,0.82705617,-0.102098644,-0.19655351,0.44455844,0.18089348,-0.68868256,-0.43422267,0.12521493,NaN,NaN,NaN,851.79486,NaN,-0.057373046875,0.13812255859375,0.99078369140625,-1.233673095703125,-0.4486083984375,-1.1065673828125,1,1.0,1.0,1.0,1.0,20.00
2024-09-29 18:20:08.948,0.2609437,0.45078543,0.36383608,-0.44905663,0.3393064,-0.21356119,-0.1333856,-0.2575605,0.8553454,0.21066678,-0.042784862,0.16613075,0.82705617,-0.102098644,-0.19655351,0.44455844,0.18089348,-0.68868256,-0.43422267,0.12521493,NaN,NaN,NaN,843.3333,NaN,-0.057373046875,0.13812255859375,0.99078369140625,-1.233673095703125,-0.4486083984375,-1.1065673828125,1,1.0,1.0,1.0,1.0,20.00
2024-09-29 18:20:08.949,0.2609437,0.45078543,0.36383608,-0.44905663,0.3393064,-0.21356119,-0.1333856,-0.2575605,0.8553454,0.21066678,-0.042784862,0.16613075,0.82705617,-0.102098644,-0.19655351,0.44455844,0.18089348,-0.68868256,-0.43422267,0.12521493,NaN,NaN,NaN,836.08057,NaN,-0.057373046875,0.13812255859375,0.99078369140625,-1.233673095703125,-0.4486083984375,-1.1065673828125,1,1.0,1.0,1.0,1.0,20.00
2024-09-29 18:20:08.949,0.31188902,0.4836118,0.39119875,-0.45063993,0.3643106,-0.17902671,-0.09303663,-0.21285619,0.85430753,0.20825519,-0.042784862,0.1342171,0.8466236,-0.10836507,-0.19310506,0.46800488,0.19324796,-0.75451064,-0.4089514,0.14594647,NaN,NaN,NaN,843.3333,NaN,-0.057373046875,0.13812255859375,0.99078369140625,-1.233673095703125,-0.4486083984375,-1.1065673828125,1,1.0,1.0,1.0,1.0,20.00
2024-09-29 18:20:08.954,0.31188902,0.4836118,0.39119875,-0.45063993,0.3643106,-0.17902671,-0.09303663,-0.21285619,0.85430753,0.20825519,-0.042784862,0.1342171,0.8466236,-0.10836507,-0.19310506,0.46800488,0.19324796,-0.75451064,-0.4089514,0.14594647,NaN,NaN,NaN,847.76556,NaN,-0.057373046875,0.13812255859375,0.99078369140625,-1.233673095703125,-0.4486083984375,-1.1065673828125,1,1.0,1.0,1.0,1.0,20.00
2024-09-29 18:20:08.955,0.31188902,0.4836118,0.39119875,-0.45063993,0.3643106,-0.17902671,-0.09303663,-0.21285619,0.85430753,0.20825519,-0.042784862,0.1342171,0.8466236,-0.10836507,-0.19310506,0.46800488,0.19324796,-0.75451064,-0.4089514,0.14594647,NaN,NaN,NaN,842.9304,NaN,-0.057373046875,0.13812255859375,0.99078369140625,-1.233673095703125,-0.4486083984375,-1.1065673828125,1,1.0,1.0,1.0,1.0,20.00
2024-09-29 18:20:08.955,0.31188902,0.4836118,0.39119875,-0.45063993,0.3643106,-0.17902671,-0.09303663,-0.21285619,0.85430753,0.20825519,-0.042784862,0.1342171,0.8466236,-0.10836507,-0.19310506,0.46800488,0.19324796,-0.75451064,-0.4089514,0.14594647,841.7216,NaN,806.6667,836.08057,NaN,-0.057373046875,0.13812255859375,0.99078369140625,-1.233673095703125,-0.4486083984375,-1.1065673828125,1,1.0,1.0,1.0,1.0,20.00
2024-09-29 18:20:08.956,0.31188902,0.4836118,0.39119875,-0.45063993,0.3643106,-0.17902671,-0.09303663,-0.21285619,0.85430753,0.20825519,-0.042784862,0.1342171,0.8466236,-0.10836507,-0.19310506,0.46800488,0.19324796,-0.75451064,-0.4089514,0.14594647,845.34796,NaN,806.6667,837.6923,NaN,-0.057373046875,0.13812255859375,0.99078369140625,-1.233673095703125,-0.4486083984375,-1.1065673828125,1,1.0,1.0,1.0,1.0,20.00
2024-09-29 18:20:08.956,0.31188902,0.4836118,0.39119875,-0.45063993,0.3643106,-0.17902671,-0.09303663,-0.21285619,0.85430753,0.20825519,-0.042784862,0.1342171,0.8466236,-0.10836507,-0.19310506,0.46800488,0.19324796,-0.75451064,-0.4089514,0.14594647,847.76556,NaN,805.8608,842.1245,NaN,-0.057373046875,0.13812255859375,0.99078369140625,-1.233673095703125,-0.4486083984375,-1.1065673828125,1,1.0,1.0,1.0,1.0,20.00
2024-09-29 18:20:08.957,0.31188902,0.4836118,0.39119875,-0.45063993,0.3643106,-0.17902671,-0.09303663,-0.21285619,0.85430753,0.20825519,-0.042784862,0.1342171,0.8466236,-0.10836507,-0.19310506,0.46800488,0.19324796,-0.75451064,-0.4089514,0.14594647,849.7802,NaN,806.6667,839.304,NaN,-0.057373046875,0.13812255859375,0.99078369140625,-1.233673095703125,-0.4486083984375,-1.1065673828125,1,1.0,1.0,1.0,1.0,20.00
2024-09-29 18:20:08.958,0.31188902,0.4836118,0.39119875,-0.45063993,0.3643106,-0.17902671,-0.09303663,-0.21285619,0.85430753,0.20825519,-0.042784862,0.1342171,0.8466236,-0.10836507,-0.19310506,0.46800488,0.19324796,-0.75451064,-0.4089514,0.14594647,844.94507,NaN,804.65204,830.84247,NaN,-0.057373046875,0.13812255859375,0.99078369140625,-1.233673095703125,-0.4486083984375,-1.1065673828125,1,1.0,1.0,1.0,1.0,20.00
2024-09-29 18:20:08.958,0.31188902,0.4836118,0.39119875,-0.45063993,0.3643106,-0.17902671,-0.09303663,-0.21285619,0.85430753,0.20825519,-0.042784862,0.1342171,0.8466236,-0.10836507,-0.19310506,0.46800488,0.19324796,-0.75451064,-0.4089514,0.14594647,836.8865,NaN,804.2491,829.6337,NaN,-0.057373046875,0.13812255859375,0.99078369140625,-1.233673095703125,-0.4486083984375,-1.1065673828125,1,1.0,1.0,1.0,1.0,20.00
2024-09-29 18:20:08.959,0.31188902,0.4836118,0.39119875,-0.45063993,0.3643106,-0.17902671,-0.09303663,-0.21285619,0.85430753,0.20825519,-0.042784862,0.1342171,0.8466236,-0.10836507,-0.19310506,0.46800488,0.19324796,-0.75451064,-0.4089514,0.14594647,836.8865,NaN,803.8461,840.10986,NaN,-0.057373046875,0.13812255859375,0.99078369140625,-1.233673095703125,-0.4486083984375,-1.1065673828125,1,1.0,1.0,1.0,1.0,20.00
2024-09-29 18:20:08.959,0.31188902,0.4836118,0.39119875,-0.45063993,0.3643106,-0.17902671,-0.09303663,-0.21285619,0.85430753,0.20825519,-0.042784862,0.1342171,0.8466236,-0.10836507,-0.19310506,0.46800488,0.19324796,-0.75451064,-0.4089514,0.14594647,839.707,NaN,799.011,842.52747,NaN,-0.057373046875,0.13812255859375,0.99078369140625,-1.233673095703125,-0.4486083984375,-1.1065673828125,1,1.0,1.0,1.0,1.0,20.00
2024-09-29 18:20:08.960,0.31188902,0.4836118,0.39119875,-0.45063993,0.3643106,-0.17902671,-0.09303663,-0.21285619,0.85430753,0.20825519,-0.042784862,0.1342171,0.8466236,-0.10836507,-0.19310506,0.46800488,0.19324796,-0.75451064,-0.4089514,0.14594647,831.2454,NaN,792.1612,830.4396,NaN,-0.057373046875,0.13812255859375,0.99078369140625,-1.233673095703125,-0.4486083984375,-1.1065673828125,1,1.0,1.0,1.0,1.0,20.00
2024-09-29 18:20:08.960,0.31188902,0.4836118,0.39119875,-0.45063993,0.3643106,-0.17902671,-0.09303663,-0.21285619,0.85430753,0.20825519,-0.042784862,0.1342171,0.8466236,-0.10836507,-0.19310506,0.46800488,0.19324796,-0.75451064,-0.4089514,0.14594647,833.2601,NaN,791.75824,828.4249,NaN,-0.057373046875,0.13812255859375,0.99078369140625,-1.233673095703125,-0.4486083984375,-1.1065673828125,1,1.0,1.0,1.0,1.0,20.00
2024-09-29 18:20:08.961,0.31188902,0.4836118,0.39119875,-0.45063993,0.3643106,-0.17902671,-0.09303663,-0.21285619,0.85430753,0.20825519,-0.042784862,0.1342171,0.8466236,-0.10836507,-0.19310506,0.46800488,0.19324796,-0.75451064,-0.4089514,0.14594647,841.7216,NaN,794.17584,830.4396,NaN,-0.057373046875,0.13812255859375,0.99078369140625,-1.233673095703125,-0.4486083984375,-1.1065673828125,1,1.0,1.0,1.0,1.0,20.00
2024-09-29 18:20:08.961,0.31188902,0.4836118,0.39119875,-0.45063993,0.3643106,-0.17902671,-0.09303663,-0.21285619,0.85430753,0.20825519,-0.042784862,0.1342171,0.8466236,-0.10836507,-0.19310506,0.46800488,0.19324796,-0.75451064,-0.4089514,0.14594647,834.4689,NaN,793.36993,820.3663,NaN,-0.057373046875,0.13812255859375,0.99078369140625,-1.233673095703125,-0.4486083984375,-1.1065673828125,1,1.0,1.0,1.0,1.0,20.00
2024-09-29 18:20:08.962,0.31188902,0.4836118,0.39119875,-0.45063993,0.3643106,-0.17902671,-0.09303663,-0.21285619,0.85430753,0.20825519,-0.042784862,0.1342171,0.8466236,-0.10836507,-0.19310506,0.46800488,0.19324796,-0.75451064,-0.4089514,0.14594647,838.9011,801.02563,796.1905,821.1722,825.6044,-0.057373046875,0.13812255859375,0.99078369140625,-1.233673095703125,-0.4486083984375,-1.1065673828125,1,1.0,1.0,1.0,1.0,20.00
2024-09-29 18:20:08.962,0.31188902,0.4836118,0.39119875,-0.45063993,0.3643106,-0.17902671,-0.09303663,-0.21285619,0.85430753,0.20825519,-0.042784862,0.1342171,0.8466236,-0.10836507,-0.19310506,0.46800488,0.19324796,-0.75451064,-0.4089514,0.14594647,843.73627,799.41394,798.20514,824.3956,691.8315,-0.057373046875,0.13812255859375,0.99078369140625,-1.233673095703125,-0.4486083984375,-1.1065673828125,1,1.0,1.0,1.0,1.0,20.00
2024-09-29 18:20:08.963,0.31188902,0.4836118,0.39119875,-0.45063993,0.3643106,-0.17902671,-0.09303663,-0.21285619,0.85430753,0.20825519,-0.042784862,0.1342171,0.8466236,-0.10836507,-0.19310506,0.46800488,0.19324796,-0.75451064,-0.4089514,0.14594647,837.28937,790.54944,797.8022,832.0513,946.8865,-0.057373046875,0.13812255859375,0.99078369140625,-1.233673095703125,-0.4486083984375,-1.1065673828125,1,1.0,1.0,1.0,1.0,20.00
2024-09-29 18:20:08.963,0.31188902,0.4836118,0.39119875,-0.45063993,0.3643106,-0.17902671,-0.09303663,-0.21285619,0.85430753,0.20825519,-0.042784862,0.1342171,0.8466236,-0.10836507,-0.19310506,0.46800488,0.19324796,-0.75451064,-0.4089514,0.14594647,827.2161,792.96704,796.99634,836.4835,1002.8938,-0.057373046875,0.13812255859375,0.99078369140625,-1.233673095703125,-0.4486083984375,-1.1065673828125,1,1.0,1.0,1.0,1.0,20.00
2024-09-29 18:20:08.964,0.31188902,0.4836118,0.39119875,-0.45063993,0.3643106,-0.17902671,-0.09303663,-0.21285619,0.85430753,0.20825519,-0.042784862,0.1342171,0.8466236,-0.10836507,-0.19310506,0.46800488,0.19324796,-0.75451064,-0.4089514,0.14594647,826.8132,796.1905,800.2198,833.663,775.2381,-0.057373046875,0.13812255859375,0.99078369140625,-1.233673095703125,-0.4486083984375,-1.1065673828125,1,1.0,1.0,1.0,1.0,20.00
2024-09-29 18:20:08.964,0.31188902,0.4836118,0.39119875,-0.45063993,0.3643106,-0.17902671,-0.09303663,-0.21285619,0.85430753,0.20825519,-0.042784862,0.1342171,0.8466236,-0.10836507,-0.19310506,0.46800488,0.19324796,-0.75451064,-0.4089514,0.14594647,830.0366,796.5934,801.02563,829.2308,771.6117,-0.057373046875,0.13812255859375,0.99078369140625,-1.233673095703125,-0.4486083984375,-1.1065673828125,1,1.0,1.0,1.0,1.0,20.00
2024-09-29 18:20:08.965,0.31188902,0.4836118,0.39119875,-0.45063993,0.3643106,-0.17902671,-0.09303663,-0.21285619,0.85430753,0.20825519,-0.042784862,0.1342171,0.8466236,-0.10836507,-0.19310506,0.46800488,0.19324796,-0.75451064,-0.4089514,0.14594647,831.6484,794.9817,799.011,834.0659,973.47986,-0.057373046875,0.13812255859375,0.99078369140625,-1.233673095703125,-0.4486083984375,-1.1065673828125,1,1.0,1.0,1.0,1.0,20.00
2024-09-29 18:20:08.965,0.31188902,0.4836118,0.39119875,-0.45063993,0.3643106,-0.17902671,-0.09303663,-0.21285619,0.85430753,0.20825519,-0.042784862,0.1342171,0.8466236,-0.10836507,-0.19310506,0.46800488,0.19324796,-0.75451064,-0.4089514,0.14594647,833.663,794.17584,795.78754,843.73627,1330.4762,-0.057373046875,0.13812255859375,0.99078369140625,-1.233673095703125,-0.4486083984375,-1.1065673828125,1,1.0,1.0,1.0,1.0,20.00
2024-09-29 18:20:08.966,0.31188902,0.4836118,0.39119875,-0.45063993,0.3643106,-0.17902671,-0.09303663,-0.21285619,0.85430753,0.20825519,-0.042784862,0.1342171,0.8466236,-0.10836507,-0.19310506,0.46800488,0.19324796,-0.75451064,-0.4089514,0.14594647,827.619,799.81683,801.02563,840.5128,1224.1025,-0.057373046875,0.13812255859375,0.99078369140625,-1.233673095703125,-0.4486083984375,-1.1065673828125,1,1.0,1.0,1.0,1.0,20.00
2024-09-29 18:20:08.967,0.31188902,0.4836118,0.39119875,-0.45063993,0.3643106,-0.17902671,-0.09303663,-0.21285619,0.85430753,0.20825519,-0.042784862,0.1342171,0.8466236,-0.10836507,-0.19310506,0.46800488,0.19324796,-0.75451064,-0.4089514,0.14594647,832.0513,800.2198,801.8315,832.4542,767.5824,-0.057373046875,0.13812255859375,0.99078369140625,-1.233673095703125,-0.4486083984375,-1.1065673828125,1,1.0,1.0,1.0,1.0,20.00
2024-09-29 18:20:08.967,0.31188902,0.4836118,0.39119875,-0.45063993,0.3643106,-0.17902671,-0.09303663,-0.21285619,0.85430753,0.20825519,-0.042784862,0.1342171,0.8466236,-0.10836507,-0.19310506,0.46800488,0.19324796,-0.75451064,-0.4089514,0.14594647,836.4835,799.81683,797.3993,831.6484,699.4872,-0.057373046875,0.13812255859375,0.99078369140625,-1.233673095703125,-0.4486083984375,-1.1065673828125,1,1.0,1.0,1.0,1.0,20.00
2024-09-29 18:20:08.968,0.31188902,0.52467805,0.410175,-0.45063993,0.3643106,-0.14177732,-0.053327587,-0.21285619,0.85430753,0.20742565,-0.045927633,0.1342171,0.8466236,-0.10516673,-0.20142195,0.46800488,0.19324796,-0.7995811,-0.3790861,0.14594647,833.663,801.4286,799.41394,832.4542,788.1319,-0.057373046875,0.13812255859375,0.99078369140625,-1.233673095703125,-0.4486083984375,-1.1065673828125,1,1.0,1.0,1.0,1.0,20.00
2024-09-29 18:20:08.995,0.31188902,0.52467805,0.410175,-0.45063993,0.3643106,-0.14177732,-0.053327587,-0.21285619,0.85430753,0.20742565,-0.045927633,0.1342171,0.8466236,-0.10516673,-0.20142195,0.46800488,0.19324796,-0.7995811,-0.3790861,0.14594647,836.4835,796.99634,800.6227,826.4103,763.95605,-0.06085205078125,0.14044189453125,0.9969482421875,-0.291595458984375,-1.398162841796875,-0.530853271484375,1,1.0,1.0,1.0,1.0,20.00
2024-09-29 18:20:08.996,0.31188902,0.52467805,0.410175,-0.45063993,0.3643106,-0.14177732,-0.053327587,-0.21285619,0.85430753,0.20742565,-0.045927633,0.1342171,0.8466236,-0.10516673,-0.20142195,0.46800488,0.19324796,-0.7995811,-0.3790861,0.14594647,837.28937,798.20514,798.60803,820.3663,690.6227,-0.06085205078125,0.14044189453125,0.9969482421875,-0.291595458984375,-1.398162841796875,-0.530853271484375,1,1.0,1.0,1.0,1.0,20.00
2024-09-29 18:20:08.996,0.31188902,0.52467805,0.410175,-0.45063993,0.3643106,-0.14177732,-0.053327587,-0.21285619,0.85430753,0.20742565,-0.045927633,0.1342171,0.8466236,-0.10516673,-0.20142195,0.46800488,0.19324796,-0.7995811,-0.3790861,0.14594647,838.0952,796.99634,797.8022,828.022,859.85345,-0.06085205078125,0.14044189453125,0.9969482421875,-0.291595458984375,-1.398162841796875,-0.530853271484375,1,1.0,1.0,1.0,1.0,20.00
2024-09-29 18:20:08.997,0.31188902,0.52467805,0.410175,-0.45063993,0.3643106,-0.14177732,-0.053327587,-0.21285619,0.85430753,0.20742565,-0.045927633,0.1342171,0.8466236,-0.10516673,-0.20142195,0.46800488,0.19324796,-0.7995811,-0.3790861,0.14594647,830.4396,793.36993,799.81683,838.0952,1366.7399,-0.06085205078125,0.14044189453125,0.9969482421875,-0.291595458984375,-1.398162841796875,-0.530853271484375,1,1.0,1.0,1.0,1.0,20.00
2024-09-29 18:20:08.997,0.31188902,0.52467805,0.410175,-0.45063993,0.3643106,-0.14177732,-0.053327587,-0.21285619,0.85430753,0.20742565,-0.045927633,0.1342171,0.8466236,-0.10516673,-0.20142195,0.46800488,0.19324796,-0.7995811,-0.3790861,0.14594647,821.978,790.9524,805.05493,832.4542,1157.2161,-0.06085205078125,0.14044189453125,0.9969482421875,-0.291595458984375,-1.398162841796875,-0.530853271484375,1,1.0,1.0,1.0,1.0,20.00
2024-09-29 18:20:08.998,0.31188902,0.52467805,0.410175,-0.45063993,0.3643106,-0.14177732,-0.053327587,-0.21285619,0.85430753,0.20742565,-0.045927633,0.1342171,0.8466236,-0.10516673,-0.20142195,0.46800488,0.19324796,-0.7995811,-0.3790861,0.14594647,825.2015,787.326,805.4579,824.7985,801.02563,-0.06085205078125,0.14044189453125,0.9969482421875,-0.291595458984375,-1.398162841796875,-0.530853271484375,1,1.0,1.0,1.0,1.0,20.00
2024-09-29 18:20:08.999,0.31188902,0.52467805,0.410175,-0.45063993,0.3643106,-0.14177732,-0.053327587,-0.21285619,0.85430753,0.20742565,-0.045927633,0.1342171,0.8466236,-0.10516673,-0.20142195,0.46800488,0.19324796,-0.7995811,-0.3790861,0.14594647,819.15753,788.93774,803.0403,821.1722,913.0403,-0.06085205078125,0.14044189453125,0.9969482421875,-0.291595458984375,-1.398162841796875,-0.530853271484375,1,1.0,1.0,1.0,1.0,20.00
2024-09-29 18:20:08.999,0.31188902,0.52467805,0.410175,-0.45063993,0.3643106,-0.14177732,-0.053327587,-0.21285619,0.85430753,0.20742565,-0.045927633,0.1342171,0.8466236,-0.10516673,-0.20142195,0.46800488,0.19324796,-0.7995811,-0.3790861,0.14594647,816.7399,796.1905,804.65204,818.3516,837.28937,-0.06085205078125,0.14044189453125,0.9969482421875,-0.291595458984375,-1.398162841796875,-0.530853271484375,1,1.0,1.0,1.0,1.0,20.00
2024-09-29 18:20:09.000,0.31188902,0.52467805,0.410175,-0.45063993,0.3643106,-0.14177732,-0.053327587,-0.21285619,0.85430753,0.20742565,-0.045927633,0.1342171,0.8466236,-0.10516673,-0.20142195,0.46800488,0.19324796,-0.7995811,-0.3790861,0.14594647,824.7985,804.2491,807.0696,819.15753,783.69965,-0.06085205078125,0.14044189453125,0.9969482421875,-0.291595458984375,-1.398162841796875,-0.530853271484375,1,1.0,1.0,1.0,1.0,20.00
2024-09-29 18:20:09.000,0.31188902,0.52467805,0.410175,-0.45063993,0.3643106,-0.14177732,-0.053327587,-0.21285619,0.85430753,0.20742565,-0.045927633,0.1342171,0.8466236,-0.10516673,-0.20142195,0.46800488,0.19324796,-0.7995811,-0.3790861,0.14594647,831.6484,801.8315,811.9048,822.381,756.30035,-0.06085205078125,0.14044189453125,0.9969482421875,-0.291595458984375,-1.398162841796875,-0.530853271484375,1,1.0,1.0,1.0,1.0,20.00
2024-09-29 18:20:09.001,0.31188902,0.52467805,0.410175,-0.45063993,0.3643106,-0.14177732,-0.053327587,-0.21285619,0.85430753,0.20742565,-0.045927633,0.1342171,0.8466236,-0.10516673,-0.20142195,0.46800488,0.19324796,-0.7995811,-0.3790861,0.14594647,839.304,798.60803,811.0989,830.4396,994.43225,-0.06085205078125,0.14044189453125,0.9969482421875,-0.291595458984375,-1.398162841796875,-0.530853271484375,1,1.0,1.0,1.0,1.0,20.00
2024-09-29 18:20:09.001,0.31188902,0.52467805,0.410175,-0.45063993,0.3643106,-0.14177732,-0.053327587,-0.21285619,0.85430753,0.20742565,-0.045927633,0.1342171,0.8466236,-0.10516673,-0.20142195,0.46800488,0.19324796,-0.7995811,-0.3790861,0.14594647,838.49817,797.8022,802.23444,827.619,885.64105,-0.06085205078125,0.14044189453125,0.9969482421875,-0.291595458984375,-1.398162841796875,-0.530853271484375,1,1.0,1.0,1.0,1.0,20.00
2024-09-29 18:20:09.002,0.31188902,0.52467805,0.410175,-0.45063993,0.3643106,-0.14177732,-0.053327587,-0.21285619,0.85430753,0.20742565,-0.045927633,0.1342171,0.8466236,-0.10516673,-0.20142195,0.46800488,0.19324796,-0.7995811,-0.3790861,0.14594647,831.6484,795.78754,801.8315,827.619,601.1722,-0.0592041015625,0.14154052734375,0.995849609375,0.037384033203125,-1.83929443359375,0.059814453125,1,1.0,1.0,1.0,1.0,20.00
2024-09-29 18:20:09.002,0.31188902,0.52467805,0.410175,-0.45063993,0.3643106,-0.14177732,-0.053327587,-0.21285619,0.85430753,0.20742565,-0.045927633,0.1342171,0.8466236,-0.10516673,-0.20142195,0.46800488,0.19324796,-0.7995811,-0.3790861,0.14594647,836.8865,796.5934,804.2491,834.4689,711.978,-0.0592041015625,0.14154052734375,0.995849609375,0.037384033203125,-1.83929443359375,0.059814453125,1,1.0,1.0,1.0,1.0,20.00
2024-09-29 18:20:09.003,0.31188902,0.52467805,0.410175,-0.45063993,0.3643106,-0.14177732,-0.053327587,-0.21285619,0.85430753,0.20742565,-0.045927633,0.1342171,0.8466236,-0.10516673,-0.20142195,0.46800488,0.19324796,-0.7995811,-0.3790861,0.14594647,840.5128,795.78754,805.8608,841.7216,649.12085,-0.0592041015625,0.14154052734375,0.995849609375,0.037384033203125,-1.83929443359375,0.059814453125,1,1.0,1.0,1.0,1.0,20.00
2024-09-29 18:20:09.003,0.31188902,0.52467805,0.410175,-0.45063993,0.3643106,-0.14177732,-0.053327587,-0.21285619,0.85430753,0.20742565,-0.045927633,0.1342171,0.8466236,-0.10516673,-0.20142195,0.46800488,0.19324796,-0.7995811,-0.3790861,0.14594647,841.31866,800.2198,807.8755,845.34796,510.1099,-0.0592041015625,0.14154052734375,0.995849609375,0.037384033203125,-1.83929443359375,0.059814453125,1,1.0,1.0,1.0,1.0,20.00
2024-09-29 18:20:09.004,0.31188902,0.52467805,0.410175,-0.45063993,0.3643106,-0.14177732,-0.053327587,-0.21285619,0.85430753,0.20742565,-0.045927633,0.1342171,0.8466236,-0.10516673,-0.20142195,0.46800488,0.19324796,-0.7995811,-0.3790861,0.14594647,846.1539,799.41394,807.0696,841.7216,587.0696,-0.0592041015625,0.14154052734375,0.995849609375,0.037384033203125,-1.83929443359375,0.059814453125,1,1.0,1.0,1.0,1.0,20.00
2024-09-29 18:20:09.004,0.31188902,0.52467805,0.410175,-0.45063993,0.3643106,-0.14177732,-0.053327587,-0.21285619,0.85430753,0.20742565,-0.045927633,0.1342171,0.8466236,-0.10516673,-0.20142195,0.46800488,0.19324796,-0.7995811,-0.3790861,0.14594647,832.4542,798.20514,807.47253,844.1392,1062.5275,-0.0592041015625,0.14154052734375,0.995849609375,0.037384033203125,-1.83929443359375,0.059814453125,1,1.0,1.0,1.0,1.0,20.00
2024-09-29 18:20:09.005,0.31188902,0.52467805,0.410175,-0.45063993,0.3643106,-0.14177732,-0.053327587,-0.21285619,0.85430753,0.20742565,-0.045927633,0.1342171,0.8466236,-0.10516673,-0.20142195,0.46800488,0.19324796,-0.7995811,-0.3790861,0.14594647,804.65204,790.9524,805.4579,840.9158,1127.3993,-0.0592041015625,0.14154052734375,0.995849609375,0.037384033203125,-1.83929443359375,0.059814453125,1,1.0,1.0,1.0,1.0,20.00
2024-09-29 18:20:09.006,0.31188902,0.52467805,0.410175,-0.45063993,0.3643106,-0.14177732,-0.053327587,-0.21285619,0.85430753,0.20742565,-0.045927633,0.1342171,0.8466236,-0.10516673,-0.20142195,0.46800488,0.19324796,-0.7995811,-0.3790861,0.14594647,802.6374,793.7729,801.4286,831.6484,674.10254,-0.0592041015625,0.14154052734375,0.995849609375,0.037384033203125,-1.83929443359375,0.059814453125,1,1.0,1.0,1.0,1.0,20.00
2024-09-29 18:20:09.006,0.31188902,0.52467805,0.410175,-0.45063993,0.3643106,-0.14177732,-0.053327587,-0.21285619,0.85430753,0.20742565,-0.045927633,0.1342171,0.8466236,-0.10516673,-0.20142195,0.46800488,0.19324796,-0.7995811,-0.3790861,0.14594647,814.7253,811.9048,803.0403,831.2454,660.40295,-0.0592041015625,0.14154052734375,0.995849609375,0.037384033203125,-1.83929443359375,0.059814453125,1,1.0,1.0,1.0,1.0,20.00
2024-09-29 18:20:09.007,0.31188902,0.52467805,0.410175,-0.45063993,0.3643106,-0.14177732,-0.053327587,-0.21285619,0.85430753,0.20742565,-0.045927633,0.1342171,0.8466236,-0.10516673,-0.20142195,0.46800488,0.19324796,-0.7995811,-0.3790861,0.14594647,820.7692,810.696,804.2491,834.87177,802.23444,-0.0592041015625,0.14154052734375,0.995849609375,0.037384033203125,-1.83929443359375,0.059814453125,1,1.0,1.0,1.0,1.0,20.00
2024-09-29 18:20:09.007,0.31188902,0.52467805,0.410175,-0.45063993,0.3643106,-0.14177732,-0.053327587,-0.21285619,0.85430753,0.20742565,-0.045927633,0.1342171,0.8466236,-0.10516673,-0.20142195,0.46800488,0.19324796,-0.7995811,-0.3790861,0.14594647,821.5751,801.8315,800.6227,829.6337,773.6264,-0.0592041015625,0.14154052734375,0.995849609375,0.037384033203125,-1.83929443359375,0.059814453125,1,1.0,1.0,1.0,1.0,20.00
2024-09-29 18:20:09.008,0.31188902,0.52467805,0.410175,-0.45063993,0.3643106,-0.14177732,-0.053327587,-0.21285619,0.85430753,0.20742565,-0.045927633,0.1342171,0.8466236,-0.10516673,-0.20142195,0.46800488,0.19324796,-0.7995811,-0.3790861,0.14594647,819.5604,796.99634,802.23444,820.3663,625.34796,-0.0592041015625,0.14154052734375,0.995849609375,0.037384033203125,-1.83929443359375,0.059814453125,1,1.0,1.0,1.0,1.0,20.00
2024-09-29 18:20:09.008,0.31188902,0.52467805,0.410175,-0.45063993,0.3643106,-0.14177732,-0.053327587,-0.21285619,0.85430753,0.20742565,-0.045927633,0.1342171,0.8466236,-0.10516673,-0.20142195,0.46800488,0.19324796,-0.7995811,-0.3790861,0.14594647,815.9341,795.38464,803.8461,822.381,666.04395,-0.05615234375,0.14361572265625,1.00146484375,-0.19439697265625,-2.444915771484375,0.515899658203125,1,1.0,1.0,1.0,1.0,20.00
2024-09-29 18:20:09.009,0.31188902,0.5754701,0.48013055,-0.45063993,0.3643106,-0.10432915,-0.03533838,-0.21285619,0.85430753,0.20742565,0.07762379,0.1342171,0.8466236,-0.09603821,-0.21137765,0.46800488,0.19324796,-0.8101832,-0.3768435,0.14594647,813.91943,793.36993,801.02563,827.2161,875.56775,-0.05615234375,0.14361572265625,1.00146484375,-0.19439697265625,-2.444915771484375,0.515899658203125,1,1.0,1.0,1.0,1.0,20.00
2024-09-29 18:20:09.013,0.31188902,0.5754701,0.48013055,-0.45063993,0.3643106,-0.10432915,-0.03533838,-0.21285619,0.85430753,0.20742565,0.07762379,0.1342171,0.8466236,-0.09603821,-0.21137765,0.46800488,0.19324796,-0.8101832,-0.3768435,0.14594647,808.68134,790.14655,799.41394,815.9341,838.9011,-0.05615234375,0.14361572265625,1.00146484375,-0.19439697265625,-2.444915771484375,0.515899658203125,1,1.0,1.0,1.0,1.0,20.00
2024-09-29 18:20:09.014,0.31188902,0.5754701,0.48013055,-0.45063993,0.3643106,-0.10432915,-0.03533838,-0.21285619,0.85430753,0.20742565,0.07762379,0.1342171,0.8466236,-0.09603821,-0.21137765,0.46800488,0.19324796,-0.8101832,-0.3768435,0.14594647,811.0989,789.34064,799.81683,811.0989,631.79486,-0.05615234375,0.14361572265625,1.00146484375,-0.19439697265625,-2.444915771484375,0.515899658203125,1,1.0,1.0,1.0,1.0,20.00
2024-09-29 18:20:09.014,0.31188902,0.5754701,0.48013055,-0.45063993,0.3643106,-0.10432915,-0.03533838,-0.21285619,0.85430753,0.20742565,0.07762379,0.1342171,0.8466236,-0.09603821,-0.21137765,0.46800488,0.19324796,-0.8101832,-0.3768435,0.14594647,821.1722,788.1319,803.8461,818.7546,750.65936,-0.05615234375,0.14361572265625,1.00146484375,-0.19439697265625,-2.444915771484375,0.515899658203125,1,1.0,1.0,1.0,1.0,20.00
2024-09-29 18:20:09.015,0.31188902,0.5754701,0.48013055,-0.45063993,0.3643106,-0.10432915,-0.03533838,-0.21285619,0.85430753,0.20742565,0.07762379,0.1342171,0.8466236,-0.09603821,-0.21137765,0.46800488,0.19324796,-0.8101832,-0.3768435,0.14594647,822.381,786.9231,802.6374,822.381,1037.5458,-0.05615234375,0.14361572265625,1.00146484375,-0.19439697265625,-2.444915771484375,0.515899658203125,1,1.0,1.0,1.0,1.0,20.00
2024-09-29 18:20:09.015,0.31188902,0.5754701,0.48013055,-0.45063993,0.3643106,-0.10432915,-0.03533838,-0.21285619,0.85430753,0.20742565,0.07762379,0.1342171,0.8466236,-0.09603821,-0.21137765,0.46800488,0.19324796,-0.8101832,-0.3768435,0.14594647,815.9341,782.0879,802.23444,817.1429,963.00366,-0.05615234375,0.14361572265625,1.00146484375,-0.19439697265625,-2.444915771484375,0.515899658203125,1,1.0,1.0,1.0,1.0,20.00
2024-09-29 18:20:09.016,0.31188902,0.5754701,0.48013055,-0.45063993,0.3643106,-0.10432915,-0.03533838,-0.21285619,0.85430753,0.20742565,0.07762379,0.1342171,0.8466236,-0.09603821,-0.21137765,0.46800488,0.19324796,-0.8101832,-0.3768435,0.14594647,815.5311,773.6264,807.8755,809.4872,699.89014,-0.05615234375,0.14361572265625,1.00146484375,-0.19439697265625,-2.444915771484375,0.515899658203125,1,1.0,1.0,1.0,1.0,20.00
2024-09-29 18:20:09.016,0.31188902,0.5754701,0.48013055,-0.45063993,0.3643106,-0.10432915,-0.03533838,-0.21285619,0.85430753,0.20742565,0.07762379,0.1342171,0.8466236,-0.09603821,-0.21137765,0.46800488,0.19324796,-0.8101832,-0.3768435,0.14594647,811.9048,767.5824,809.4872,807.47253,738.1685,-0.05615234375,0.14361572265625,1.00146484375,-0.19439697265625,-2.444915771484375,0.515899658203125,1,1.0,1.0,1.0,1.0,20.00
2024-09-29 18:20:09.017,0.31188902,0.5754701,0.48013055,-0.45063993,0.3643106,-0.10432915,-0.03533838,-0.21285619,0.85430753,0.20742565,0.07762379,0.1342171,0.8466236,-0.09603821,-0.21137765,0.46800488,0.19324796,-0.8101832,-0.3768435,0.14594647,807.8755,765.9707,805.4579,811.9048,968.6447,-0.05615234375,0.14361572265625,1.00146484375,-0.19439697265625,-2.444915771484375,0.515899658203125,1,1.0,1.0,1.0,1.0,20.00
2024-09-29 18:20:09.017,0.31188902,0.5754701,0.48013055,-0.45063993,0.3643106,-0.10432915,-0.03533838,-0.21285619,0.85430753,0.20742565,0.07762379,0.1342171,0.8466236,-0.09603821,-0.21137765,0.46800488,0.19324796,-0.8101832,-0.3768435,0.14594647,814.7253,767.5824,803.44324,809.0842,946.8865,-0.05615234375,0.14361572265625,1.00146484375,-0.19439697265625,-2.444915771484375,0.515899658203125,1,1.0,1.0,1.0,1.0,20.00
2024-09-29 18:20:09.018,0.31188902,0.5754701,0.48013055,-0.45063993,0.3643106,-0.10432915,-0.03533838,-0.21285619,0.85430753,0.20742565,0.07762379,0.1342171,0.8466236,-0.09603821,-0.21137765,0.46800488,0.19324796,-0.8101832,-0.3768435,0.14594647,810.696,771.6117,805.05493,810.293,705.9341,-0.05615234375,0.14361572265625,1.00146484375,-0.19439697265625,-2.444915771484375,0.515899658203125,1,1.0,1.0,1.0,1.0,20.00
2024-09-29 18:20:09.019,0.31188902,0.5754701,0.48013055,-0.45063993,0.3643106,-0.10432915,-0.03533838,-0.21285619,0.85430753,0.20742565,0.07762379,0.1342171,0.8466236,-0.09603821,-0.21137765,0.46800488,0.19324796,-0.8101832,-0.3768435,0.14594647,812.71063,769.59705,804.65204,821.5751,738.1685,-0.05853271484375,0.1439208984375,0.9964599609375,0.22430419921875,-1.742095947265625,0.179443359375,1,1.0,1.0,1.0,1.0,20.00
2024-09-29 18:20:09.020,0.31188902,0.5754701,0.48013055,-0.45063993,0.3643106,-0.10432915,-0.03533838,-0.21285619,0.85430753,0.20742565,0.07762379,0.1342171,0.8466236,-0.09603821,-0.21137765,0.46800488,0.19324796,-0.8101832,-0.3768435,0.14594647,824.7985,765.56775,802.6374,826.8132,1024.249,-0.05853271484375,0.1439208984375,0.9964599609375,0.22430419921875,-1.742095947265625,0.179443359375,1,1.0,1.0,1.0,1.0,20.00
2024-09-29 18:20:09.020,0.31188902,0.5754701,0.48013055,-0.45063993,0.3643106,-0.10432915,-0.03533838,-0.21285619,0.85430753,0.20742565,0.07762379,0.1342171,0.8466236,-0.09603821,-0.21137765,0.46800488,0.19324796,-0.8101832,-0.3768435,0.14594647,821.978,767.5824,805.05493,818.7546,826.4103,-0.05853271484375,0.1439208984375,0.9964599609375,0.22430419921875,-1.742095947265625,0.179443359375,1,1.0,1.0,1.0,1.0,20.00
2024-09-29 18:20:09.021,0.31188902,0.5754701,0.48013055,-0.45063993,0.3643106,-0.10432915,-0.03533838,-0.21285619,0.85430753,0.20742565,0.07762379,0.1342171,0.8466236,-0.09603821,-0.21137765,0.46800488,0.19324796,-0.8101832,-0.3768435,0.14594647,824.7985,765.56775,805.8608,816.337,624.5421,-0.05853271484375,0.1439208984375,0.9964599609375,0.22430419921875,-1.742095947265625,0.179443359375,1,1.0,1.0,1.0,1.0,20.00
2024-09-29 18:20:09.021,0.31188902,0.5754701,0.48013055,-0.45063993,0.3643106,-0.10432915,-0.03533838,-0.21285619,0.85430753,0.20742565,0.07762379,0.1342171,0.8466236,-0.09603821,-0.21137765,0.46800488,0.19324796,-0.8101832,-0.3768435,0.14594647,838.0952,763.5531,804.65204,822.7839,766.77655,-0.05853271484375,0.1439208984375,0.9964599609375,0.22430419921875,-1.742095947265625,0.179443359375,1,1.0,1.0,1.0,1.0,20.00
2024-09-29 18:20:09.022,0.31188902,0.5754701,0.48013055,-0.45063993,0.3643106,-0.10432915,-0.03533838,-0.21285619,0.85430753,0.20742565,0.07762379,0.1342171,0.8466236,-0.09603821,-0.21137765,0.46800488,0.19324796,-0.8101832,-0.3768435,0.14594647,842.9304,768.3883,806.26373,830.4396,864.2857,-0.05853271484375,0.1439208984375,0.9964599609375,0.22430419921875,-1.742095947265625,0.179443359375,1,1.0,1.0,1.0,1.0,20.00
2024-09-29 18:20:09.022,0.31188902,0.5754701,0.48013055,-0.45063993,0.3643106,-0.10432915,-0.03533838,-0.21285619,0.85430753,0.20742565,0.07762379,0.1342171,0.8466236,-0.09603821,-0.21137765,0.46800488,0.19324796,-0.8101832,-0.3768435,0.14594647,834.4689,769.59705,809.0842,830.4396,846.1539,-0.05853271484375,0.1439208984375,0.9964599609375,0.22430419921875,-1.742095947265625,0.179443359375,1,1.0,1.0,1.0,1.0,20.00
2024-09-29 18:20:09.023,0.31188902,0.5754701,0.48013055,-0.45063993,0.3643106,-0.10432915,-0.03533838,-0.21285619,0.85430753,0.20742565,0.07762379,0.1342171,0.8466236,-0.09603821,-0.21137765,0.46800488,0.19324796,-0.8101832,-0.3768435,0.14594647,825.6044,770.40295,811.50183,825.6044,687.3993,-0.05853271484375,0.1439208984375,0.9964599609375,0.22430419921875,-1.742095947265625,0.179443359375,1,1.0,1.0,1.0,1.0,20.00
