TimeStamp,Delta_TP9,Delta_AF7,Delta_AF8,Delta_TP10,Theta_TP9,Theta_AF7,Theta_AF8,Theta_TP10,Alpha_TP9,Alpha_AF7,Alpha_AF8,Alpha_TP10,Beta_TP9,Beta_AF7,Beta_AF8,Beta_TP10,Gamma_TP9,Gamma_AF7,Gamma_AF8,Gamma_TP10,RAW_TP9,RAW_AF7,RAW_AF8,RAW_TP10,AUX_RIGHT,Accelerometer_X,Accelerometer_Y,Accelerometer_Z,Gyro_X,Gyro_Y,Gyro_Z,HeadBandOn,HSI_TP9,HSI_AF7,HSI_AF8,HSI_TP10,Battery,Elements
2024-09-29 18:19:58.986,0.78673416,0.78351784,0.00220434,1.1700428,0.5530932,0.012023206,-0.08636597,0.27790415,0.51085955,0.17261706,0.1548859,0.6527297,1.0099044,0.03707252,-0.018033287,0.4583567,0.83894026,-0.08290584,-0.2767538,0.02813882,799.011,788.93774,790.9524,799.011,832.4542,-0.05615234375,0.1552734375,0.99114990234375,-0.859832763671875,-0.31402587890625,-1.637420654296875,1,1.0,1.0,1.0,1.0,20.00
2024-09-29 18:19:58.988,0.78673416,0.78351784,0.00220434,1.1700428,0.5530932,0.012023206,-0.08636597,0.27790415,0.51085955,0.17261706,0.1548859,0.6527297,1.0099044,0.03707252,-0.018033287,0.4583567,0.83894026,-0.08290584,-0.2767538,0.02813882,802.23444,790.54944,792.5641,803.44324,962.1978,-0.05615234375,0.1552734375,0.99114990234375,-0.859832763671875,-0.31402587890625,-1.637420654296875,1,1.0,1.0,1.0,1.0,20.00
2024-09-29 18:19:58.989,0.78673416,0.78351784,0.00220434,1.1700428,0.5530932,0.012023206,-0.08636597,0.27790415,0.51085955,0.17261706,0.1548859,0.6527297,1.0099044,0.03707252,-0.018033287,0.4583567,0.83894026,-0.08290584,-0.2767538,0.02813882,797.8022,791.3553,793.36993,802.23444,799.81683,-0.05615234375,0.1552734375,0.99114990234375,-0.859832763671875,-0.31402587890625,-1.637420654296875,1,1.0,1.0,1.0,1.0,20.00
2024-09-29 18:19:58.991,0.78673416,0.78351784,0.00220434,1.1700428,0.5530932,0.012023206,-0.08636597,0.27790415,0.51085955,0.17261706,0.1548859,0.6527297,1.0099044,0.03707252,-0.018033287,0.4583567,0.83894026,-0.08290584,-0.2767538,0.02813882,794.17584,790.54944,792.1612,796.5934,709.15753,-0.05615234375,0.1552734375,0.99114990234375,-0.859832763671875,-0.31402587890625,-1.637420654296875,1,1.0,1.0,1.0,1.0,20.00
2024-09-29 18:19:58.992,0.78673416,0.78351784,0.00220434,1.1700428,0.5530932,0.012023206,-0.08636597,0.27790415,0.51085955,0.17261706,0.1548859,0.6527297,1.0099044,0.03707252,-0.018033287,0.4583567,0.83894026,-0.08290584,-0.2767538,0.02813882,799.011,793.36993,789.7436,793.7729,898.1319,-0.05615234375,0.1552734375,0.99114990234375,-0.859832763671875,-0.31402587890625,-1.637420654296875,1,1.0,1.0,1.0,1.0,20.00
2024-09-29 18:19:58.994,0.78673416,0.78351784,0.00220434,1.1700428,0.5530932,0.012023206,-0.08636597,0.27790415,0.51085955,0.17261706,0.1548859,0.6527297,1.0099044,0.03707252,-0.018033287,0.4583567,0.83894026,-0.08290584,-0.2767538,0.02813882,802.6374,796.1905,791.3553,794.9817,1038.3517,-0.05615234375,0.1552734375,0.99114990234375,-0.859832763671875,-0.31402587890625,-1.637420654296875,1,1.0,1.0,1.0,1.0,20.00
2024-09-29 18:19:58.995,0.78673416,0.78351784,0.00220434,1.1700428,0.5530932,0.012023206,-0.08636597,0.27790415,0.51085955,0.17261706,0.1548859,0.6527297,1.0099044,0.03707252,-0.018033287,0.4583567,0.83894026,-0.08290584,-0.2767538,0.02813882,809.89014,796.1905,796.1905,803.44324,1021.8315,-0.05615234375,0.1552734375,0.99114990234375,-0.859832763671875,-0.31402587890625,-1.637420654296875,1,1.0,1.0,1.0,1.0,20.00
2024-09-29 18:19:58.997,0.78673416,0.78351784,0.00220434,1.1700428,0.5530932,0.012023206,-0.08636597,0.27790415,0.51085955,0.17261706,0.1548859,0.6527297,1.0099044,0.03707252,-0.018033287,0.4583567,0.83894026,-0.08290584,-0.2767538,0.02813882,808.68134,794.17584,799.011,806.26373,830.4396,-0.05615234375,0.1552734375,0.99114990234375,-0.859832763671875,-0.31402587890625,-1.637420654296875,1,1.0,1.0,1.0,1.0,20.00
2024-09-29 18:19:58.998,0.78673416,0.78351784,0.00220434,1.1700428,0.5530932,0.012023206,-0.08636597,0.27790415,0.51085955,0.17261706,0.1548859,0.6527297,1.0099044,0.03707252,-0.018033287,0.4583567,0.83894026,-0.08290584,-0.2767538,0.02813882,805.4579,791.75824,796.99634,806.6667,749.0476,-0.05615234375,0.1552734375,0.99114990234375,-0.859832763671875,-0.31402587890625,-1.637420654296875,1,1.0,1.0,1.0,1.0,20.00
2024-09-29 18:19:58.999,0.78673416,0.78351784,0.00220434,1.1700428,0.5530932,0.012023206,-0.08636597,0.27790415,0.51085955,0.17261706,0.1548859,0.6527297,1.0099044,0.03707252,-0.018033287,0.4583567,0.83894026,-0.08290584,-0.2767538,0.02813882,809.89014,796.1905,796.99634,815.12823,824.3956,-0.05615234375,0.1552734375,0.99114990234375,-0.859832763671875,-0.31402587890625,-1.637420654296875,1,1.0,1.0,1.0,1.0,20.00
2024-09-29 18:19:59.000,0.78673416,0.78351784,0.00220434,1.1700428,0.5530932,0.012023206,-0.08636597,0.27790415,0.51085955,0.17261706,0.1548859,0.6527297,1.0099044,0.03707252,-0.018033287,0.4583567,0.83894026,-0.08290584,-0.2767538,0.02813882,805.4579,796.5934,794.57874,810.293,809.0842,-0.05615234375,0.1552734375,0.99114990234375,-0.859832763671875,-0.31402587890625,-1.637420654296875,1,1.0,1.0,1.0,1.0,20.00
2024-09-29 18:19:59.001,0.78673416,0.78351784,0.00220434,1.1700428,0.5530932,0.012023206,-0.08636597,0.27790415,0.51085955,0.17261706,0.1548859,0.6527297,1.0099044,0.03707252,-0.018033287,0.4583567,0.83894026,-0.08290584,-0.2767538,0.02813882,799.81683,792.1612,794.9817,806.26373,799.011,-0.05615234375,0.1552734375,0.99114990234375,-0.859832763671875,-0.31402587890625,-1.637420654296875,1,1.0,1.0,1.0,1.0,20.00
2024-09-29 18:19:59.003,0.78673416,0.78351784,0.00220434,1.1700428,0.5530932,0.012023206,-0.08636597,0.27790415,0.51085955,0.17261706,0.1548859,0.6527297,1.0099044,0.03707252,-0.018033287,0.4583567,0.83894026,-0.08290584,-0.2767538,0.02813882,784.5055,796.1905,799.011,812.71063,811.50183,-0.05938720703125,0.15411376953125,0.99102783203125,-0.55328369140625,-0.097198486328125,-1.114044189453125,1,1.0,1.0,1.0,1.0,20.00
2024-09-29 18:19:59.004,0.78673416,0.78351784,0.00220434,1.1700428,0.5530932,0.012023206,-0.08636597,0.27790415,0.51085955,0.17261706,0.1548859,0.6527297,1.0099044,0.03707252,-0.018033287,0.4583567,0.83894026,-0.08290584,-0.2767538,0.02813882,777.6557,797.3993,798.60803,812.3077,678.5348,-0.05938720703125,0.15411376953125,0.99102783203125,-0.55328369140625,-0.097198486328125,-1.114044189453125,1,1.0,1.0,1.0,1.0,20.00
2024-09-29 18:19:59.005,0.78673416,0.78351784,0.00220434,1.1700428,0.5530932,0.012023206,-0.08636597,0.27790415,0.51085955,0.17261706,0.1548859,0.6527297,1.0099044,0.03707252,-0.018033287,0.4583567,0.83894026,-0.08290584,-0.2767538,0.02813882,790.9524,794.57874,796.99634,810.293,728.0952,-0.05938720703125,0.15411376953125,0.99102783203125,-0.55328369140625,-0.097198486328125,-1.114044189453125,1,1.0,1.0,1.0,1.0,20.00
2024-09-29 18:19:59.006,0.78673416,0.78351784,0.00220434,1.1700428,0.5530932,0.012023206,-0.08636597,0.27790415,0.51085955,0.17261706,0.1548859,0.6527297,1.0099044,0.03707252,-0.018033287,0.4583567,0.83894026,-0.08290584,-0.2767538,0.02813882,789.7436,794.17584,795.78754,806.6667,782.8938,-0.05938720703125,0.15411376953125,0.99102783203125,-0.55328369140625,-0.097198486328125,-1.114044189453125,1,1.0,1.0,1.0,1.0,20.00
2024-09-29 18:19:59.007,0.78673416,0.78351784,0.00220434,1.1700428,0.5530932,0.012023206,-0.08636597,0.27790415,0.51085955,0.17261706,0.1548859,0.6527297,1.0099044,0.03707252,-0.018033287,0.4583567,0.83894026,-0.08290584,-0.2767538,0.02813882,786.52014,791.75824,793.7729,803.0403,684.9817,-0.05938720703125,0.15411376953125,0.99102783203125,-0.55328369140625,-0.097198486328125,-1.114044189453125,1,1.0,1.0,1.0,1.0,20.00
2024-09-29 18:19:59.009,0.78673416,0.78351784,0.00220434,1.1700428,0.5530932,0.012023206,-0.08636597,0.27790415,0.51085955,0.17261706,0.1548859,0.6527297,1.0099044,0.03707252,-0.018033287,0.4583567,0.83894026,-0.08290584,-0.2767538,0.02813882,788.93774,790.14655,793.36993,794.9817,770.80585,-0.05938720703125,0.15411376953125,0.99102783203125,-0.55328369140625,-0.097198486328125,-1.114044189453125,1,1.0,1.0,1.0,1.0,20.00
2024-09-29 18:19:59.010,0.78673416,0.78351784,0.00220434,1.1700428,0.5530932,0.012023206,-0.08636597,0.27790415,0.51085955,0.17261706,0.1548859,0.6527297,1.0099044,0.03707252,-0.018033287,0.4583567,0.83894026,-0.08290584,-0.2767538,0.02813882,790.9524,787.326,791.75824,790.14655,882.8205,-0.05938720703125,0.15411376953125,0.99102783203125,-0.55328369140625,-0.097198486328125,-1.114044189453125,1,1.0,1.0,1.0,1.0,20.00
2024-09-29 18:19:59.011,0.78673416,0.78351784,0.00220434,1.1700428,0.5530932,0.012023206,-0.08636597,0.27790415,0.51085955,0.17261706,0.1548859,0.6527297,1.0099044,0.03707252,-0.018033287,0.4583567,0.83894026,-0.08290584,-0.2767538,0.02813882,794.17584,786.9231,791.75824,790.14655,912.6374,-0.05938720703125,0.15411376953125,0.99102783203125,-0.55328369140625,-0.097198486328125,-1.114044189453125,1,1.0,1.0,1.0,1.0,20.00
2024-09-29 18:19:59.012,0.78673416,0.78351784,0.00220434,1.1700428,0.5530932,0.012023206,-0.08636597,0.27790415,0.51085955,0.17261706,0.1548859,0.6527297,1.0099044,0.03707252,-0.018033287,0.4583567,0.83894026,-0.08290584,-0.2767538,0.02813882,796.1905,790.54944,793.7729,788.1319,824.7985,-0.05938720703125,0.15411376953125,0.99102783203125,-0.55328369140625,-0.097198486328125,-1.114044189453125,1,1.0,1.0,1.0,1.0,20.00
2024-09-29 18:19:59.013,0.78673416,0.7631687,0.0016968657,1.1700428,0.5530932,0.029263455,-0.078399725,0.27790415,0.51085955,0.17291509,0.2275274,0.6527297,1.0099044,0.02159576,-0.0012768543,0.4583567,0.83894026,-0.11727119,-0.31282127,0.02813882,797.8022,793.36993,795.38464,788.1319,645.4945,-0.05938720703125,0.15411376953125,0.99102783203125,-0.55328369140625,-0.097198486328125,-1.114044189453125,1,1.0,1.0,1.0,1.0,20.00
2024-09-29 18:19:59.018,0.78673416,0.7631687,0.0016968657,1.1700428,0.5530932,0.029263455,-0.078399725,0.27790415,0.51085955,0.17291509,0.2275274,0.6527297,1.0099044,0.02159576,-0.0012768543,0.4583567,0.83894026,-0.11727119,-0.31282127,0.02813882,800.6227,795.38464,795.38464,798.20514,766.77655,-0.05938720703125,0.15411376953125,0.99102783203125,-0.55328369140625,-0.097198486328125,-1.114044189453125,1,1.0,1.0,1.0,1.0,20.00
2024-09-29 18:19:59.019,0.78673416,0.7631687,0.0016968657,1.1700428,0.5530932,0.029263455,-0.078399725,0.27790415,0.51085955,0.17291509,0.2275274,0.6527297,1.0099044,0.02159576,-0.0012768543,0.4583567,0.83894026,-0.11727119,-0.31282127,0.02813882,802.23444,796.1905,793.36993,805.8608,950.9158,-0.05938720703125,0.15411376953125,0.99102783203125,-0.55328369140625,-0.097198486328125,-1.114044189453125,1,1.0,1.0,1.0,1.0,20.00
2024-09-29 18:19:59.118,0.78673416,0.7631687,0.0016968657,1.1700428,0.5530932,0.029263455,-0.078399725,0.27790415,0.51085955,0.17291509,0.2275274,0.6527297,1.0099044,0.02159576,-0.0012768543,0.4583567,0.83894026,-0.11727119,-0.31282127,0.02813882,798.60803,797.3993,790.14655,799.011,773.6264,-0.062744140625,0.156982421875,0.99237060546875,-0.336456298828125,-0.82244873046875,0.61309814453125,1,1.0,1.0,1.0,1.0,20.00
2024-09-29 18:19:59.119,0.78673416,0.7631687,0.0016968657,1.1700428,0.5530932,0.029263455,-0.078399725,0.27790415,0.51085955,0.17291509,0.2275274,0.6527297,1.0099044,0.02159576,-0.0012768543,0.4583567,0.83894026,-0.11727119,-0.31282127,0.02813882,803.8461,795.78754,788.1319,797.8022,679.34064,-0.062744140625,0.156982421875,0.99237060546875,-0.336456298828125,-0.82244873046875,0.61309814453125,1,1.0,1.0,1.0,1.0,20.00
2024-09-29 18:19:59.121,0.78673416,0.7631687,0.0016968657,1.1700428,0.5530932,0.029263455,-0.078399725,0.27790415,0.51085955,0.17291509,0.2275274,0.6527297,1.0099044,0.02159576,-0.0012768543,0.4583567,0.83894026,-0.11727119,-0.31282127,0.02813882,811.9048,788.5348,788.5348,809.0842,838.0952,-0.062744140625,0.156982421875,0.99237060546875,-0.336456298828125,-0.82244873046875,0.61309814453125,1,1.0,1.0,1.0,1.0,20.00
2024-09-29 18:19:59.122,0.78673416,0.7631687,0.0016968657,1.1700428,0.5530932,0.029263455,-0.078399725,0.27790415,0.51085955,0.17291509,0.2275274,0.6527297,1.0099044,0.02159576,-0.0012768543,0.4583567,0.83894026,-0.11727119,-0.31282127,0.02813882,816.337,785.7143,786.9231,818.3516,978.71796,-0.062744140625,0.156982421875,0.99237060546875,-0.336456298828125,-0.82244873046875,0.61309814453125,1,1.0,1.0,1.0,1.0,20.00
2024-09-29 18:19:59.123,0.78673416,0.7631687,0.0016968657,1.1700428,0.5530932,0.029263455,-0.078399725,0.27790415,0.51085955,0.17291509,0.2275274,0.6527297,1.0099044,0.02159576,-0.0012768543,0.4583567,0.83894026,-0.11727119,-0.31282127,0.02813882,811.9048,783.69965,786.1172,815.12823,820.3663,-0.062744140625,0.156982421875,0.99237060546875,-0.336456298828125,-0.82244873046875,0.61309814453125,1,1.0,1.0,1.0,1.0,20.00
2024-09-29 18:19:59.124,0.78673416,0.7631687,0.0016968657,1.1700428,0.5530932,0.029263455,-0.078399725,0.27790415,0.51085955,0.17291509,0.2275274,0.6527297,1.0099044,0.02159576,-0.0012768543,0.4583567,0.83894026,-0.11727119,-0.31282127,0.02813882,811.0989,781.28204,786.52014,812.71063,711.978,-0.062744140625,0.156982421875,0.99237060546875,-0.336456298828125,-0.82244873046875,0.61309814453125,1,1.0,1.0,1.0,1.0,20.00
2024-09-29 18:19:59.125,0.78673416,0.7631687,0.0016968657,1.1700428,0.5530932,0.029263455,-0.078399725,0.27790415,0.51085955,0.17291509,0.2275274,0.6527297,1.0099044,0.02159576,-0.0012768543,0.4583567,0.83894026,-0.11727119,-0.31282127,0.02813882,816.7399,786.52014,787.72894,816.7399,797.8022,-0.062744140625,0.156982421875,0.99237060546875,-0.336456298828125,-0.82244873046875,0.61309814453125,1,1.0,1.0,1.0,1.0,20.00
2024-09-29 18:19:59.127,0.78673416,0.7631687,0.0016968657,1.1700428,0.5530932,0.029263455,-0.078399725,0.27790415,0.51085955,0.17291509,0.2275274,0.6527297,1.0099044,0.02159576,-0.0012768543,0.4583567,0.83894026,-0.11727119,-0.31282127,0.02813882,819.9634,786.1172,788.5348,830.4396,1010.54944,-0.062744140625,0.156982421875,0.99237060546875,-0.336456298828125,-0.82244873046875,0.61309814453125,1,1.0,1.0,1.0,1.0,20.00
2024-09-29 18:19:59.128,0.78673416,0.7631687,0.0016968657,1.1700428,0.5530932,0.029263455,-0.078399725,0.27790415,0.51085955,0.17291509,0.2275274,0.6527297,1.0099044,0.02159576,-0.0012768543,0.4583567,0.83894026,-0.11727119,-0.31282127,0.02813882,814.7253,781.685,787.72894,838.49817,1246.2638,-0.062744140625,0.156982421875,0.99237060546875,-0.336456298828125,-0.82244873046875,0.61309814453125,1,1.0,1.0,1.0,1.0,20.00
2024-09-29 18:19:59.129,0.78673416,0.7631687,0.0016968657,1.1700428,0.5530932,0.029263455,-0.078399725,0.27790415,0.51085955,0.17291509,0.2275274,0.6527297,1.0099044,0.02159576,-0.0012768543,0.4583567,0.83894026,-0.11727119,-0.31282127,0.02813882,809.0842,786.1172,790.14655,829.6337,1072.6007,-0.062744140625,0.156982421875,0.99237060546875,-0.336456298828125,-0.82244873046875,0.61309814453125,1,1.0,1.0,1.0,1.0,20.00
2024-09-29 18:19:59.130,0.78673416,0.7631687,0.0016968657,1.1700428,0.5530932,0.029263455,-0.078399725,0.27790415,0.51085955,0.17291509,0.2275274,0.6527297,1.0099044,0.02159576,-0.0012768543,0.4583567,0.83894026,-0.11727119,-0.31282127,0.02813882,811.9048,789.7436,790.54944,820.3663,729.707,-0.062744140625,0.156982421875,0.99237060546875,-0.336456298828125,-0.82244873046875,0.61309814453125,1,1.0,1.0,1.0,1.0,20.00
2024-09-29 18:19:59.131,0.78673416,0.7631687,0.0016968657,1.1700428,0.5530932,0.029263455,-0.078399725,0.27790415,0.51085955,0.17291509,0.2275274,0.6527297,1.0099044,0.02159576,-0.0012768543,0.4583567,0.83894026,-0.11727119,-0.31282127,0.02813882,819.5604,789.7436,788.93774,818.7546,811.9048,-0.062744140625,0.156982421875,0.99237060546875,-0.336456298828125,-0.82244873046875,0.61309814453125,1,1.0,1.0,1.0,1.0,20.00
2024-09-29 18:19:59.132,0.78673416,0.7631687,0.0016968657,1.1700428,0.5530932,0.029263455,-0.078399725,0.27790415,0.51085955,0.17291509,0.2275274,0.6527297,1.0099044,0.02159576,-0.0012768543,0.4583567,0.83894026,-0.11727119,-0.31282127,0.02813882,815.5311,788.93774,790.54944,812.71063,836.08057,-0.062744140625,0.156982421875,0.99237060546875,-0.336456298828125,-0.82244873046875,0.61309814453125,1,1.0,1.0,1.0,1.0,20.00
2024-09-29 18:19:59.133,0.78673416,0.7631687,0.0016968657,1.1700428,0.5530932,0.029263455,-0.078399725,0.27790415,0.51085955,0.17291509,0.2275274,0.6527297,1.0099044,0.02159576,-0.0012768543,0.4583567,0.83894026,-0.11727119,-0.31282127,0.02813882,811.9048,785.31134,792.96704,807.47253,647.1062,-0.062744140625,0.156982421875,0.99237060546875,-0.336456298828125,-0.82244873046875,0.61309814453125,1,1.0,1.0,1.0,1.0,20.00
2024-09-29 18:19:59.134,0.78673416,0.7631687,0.0016968657,1.1700428,0.5530932,0.029263455,-0.078399725,0.27790415,0.51085955,0.17291509,0.2275274,0.6527297,1.0099044,0.02159576,-0.0012768543,0.4583567,0.83894026,-0.11727119,-0.31282127,0.02813882,816.337,782.49084,794.17584,809.89014,559.2674,-0.062744140625,0.156982421875,0.99237060546875,-0.336456298828125,-0.82244873046875,0.61309814453125,1,1.0,1.0,1.0,1.0,20.00
2024-09-29 18:19:59.136,0.78673416,0.7631687,0.0016968657,1.1700428,0.5530932,0.029263455,-0.078399725,0.27790415,0.51085955,0.17291509,0.2275274,0.6527297,1.0099044,0.02159576,-0.0012768543,0.4583567,0.83894026,-0.11727119,-0.31282127,0.02813882,801.4286,782.0879,794.9817,818.7546,1049.6337,-0.062744140625,0.156982421875,0.99237060546875,-0.336456298828125,-0.82244873046875,0.61309814453125,1,1.0,1.0,1.0,1.0,20.00
2024-09-29 18:19:59.137,0.78673416,0.7631687,0.0016968657,1.1700428,0.5530932,0.029263455,-0.078399725,0.27790415,0.51085955,0.17291509,0.2275274,0.6527297,1.0099044,0.02159576,-0.0012768543,0.4583567,0.83894026,-0.11727119,-0.31282127,0.02813882,789.34064,782.49084,792.5641,817.9487,1362.7106,-0.062744140625,0.156982421875,0.99237060546875,-0.336456298828125,-0.82244873046875,0.61309814453125,1,1.0,1.0,1.0,1.0,20.00
2024-09-29 18:19:59.138,0.78673416,0.7631687,0.0016968657,1.1700428,0.5530932,0.029263455,-0.078399725,0.27790415,0.51085955,0.17291509,0.2275274,0.6527297,1.0099044,0.02159576,-0.0012768543,0.4583567,0.83894026,-0.11727119,-0.31282127,0.02813882,790.9524,780.87915,790.9524,800.6227,842.9304,-0.062744140625,0.156982421875,0.99237060546875,-0.336456298828125,-0.82244873046875,0.61309814453125,1,1.0,1.0,1.0,1.0,20.00
2024-09-29 18:19:59.139,0.78673416,0.7631687,0.0016968657,1.1700428,0.5530932,0.029263455,-0.078399725,0.27790415,0.51085955,0.17291509,0.2275274,0.6527297,1.0099044,0.02159576,-0.0012768543,0.4583567,0.83894026,-0.11727119,-0.31282127,0.02813882,790.54944,784.10254,793.36993,799.011,713.5897,-0.062744140625,0.156982421875,0.99237060546875,-0.336456298828125,-0.82244873046875,0.61309814453125,1,1.0,1.0,1.0,1.0,20.00
2024-09-29 18:19:59.141,0.78673416,0.7631687,0.0016968657,1.1700428,0.5530932,0.029263455,-0.078399725,0.27790415,0.51085955,0.17291509,0.2275274,0.6527297,1.0099044,0.02159576,-0.0012768543,0.4583567,0.83894026,-0.11727119,-0.31282127,0.02813882,795.38464,784.90845,788.93774,807.47253,1128.608,-0.062744140625,0.156982421875,0.99237060546875,-0.336456298828125,-0.82244873046875,0.61309814453125,1,1.0,1.0,1.0,1.0,20.00
2024-09-29 18:19:59.142,0.78673416,0.7631687,0.0016968657,1.1700428,0.5530932,0.029263455,-0.078399725,0.27790415,0.51085955,0.17291509,0.2275274,0.6527297,1.0099044,0.02159576,-0.0012768543,0.4583567,0.83894026,-0.11727119,-0.31282127,0.02813882,798.60803,781.28204,789.34064,800.6227,916.6667,-0.062744140625,0.156982421875,0.99237060546875,-0.336456298828125,-0.82244873046875,0.61309814453125,1,1.0,1.0,1.0,1.0,20.00
2024-09-29 18:19:59.143,0.78673416,0.7631687,0.0016968657,1.1700428,0.5530932,0.029263455,-0.078399725,0.27790415,0.51085955,0.17291509,0.2275274,0.6527297,1.0099044,0.02159576,-0.0012768543,0.4583567,0.83894026,-0.11727119,-0.31282127,0.02813882,803.0403,779.67035,789.34064,798.60803,655.56775,-0.062744140625,0.156982421875,0.99237060546875,-0.336456298828125,-0.82244873046875,0.61309814453125,1,1.0,1.0,1.0,1.0,20.00
2024-09-29 18:19:59.144,0.78673416,0.7631687,0.0016968657,1.1700428,0.5530932,0.029263455,-0.078399725,0.27790415,0.51085955,0.17291509,0.2275274,0.6527297,1.0099044,0.02159576,-0.0012768543,0.4583567,0.83894026,-0.11727119,-0.31282127,0.02813882,804.65204,778.0586,789.34064,801.02563,670.4762,-0.062744140625,0.156982421875,0.99237060546875,-0.336456298828125,-0.82244873046875,0.61309814453125,1,1.0,1.0,1.0,1.0,20.00
2024-09-29 18:19:59.145,0.78673416,0.74442536,0.03152289,1.1700428,0.5530932,0.043721754,-0.07707922,0.27790415,0.51085955,0.17557487,0.25494072,0.6527297,1.0099044,4.4724808E-4,0.0105228275,0.4583567,0.83894026,-0.15660097,-0.34457502,0.02813882,803.44324,775.2381,790.9524,798.20514,680.54944,-0.062744140625,0.156982421875,0.99237060546875,-0.336456298828125,-0.82244873046875,0.61309814453125,1,1.0,1.0,1.0,1.0,20.00
2024-09-29 18:19:59.152,0.78673416,0.74442536,0.03152289,1.1700428,0.5530932,0.043721754,-0.07707922,0.27790415,0.51085955,0.17557487,0.25494072,0.6527297,1.0099044,4.4724808E-4,0.0105228275,0.4583567,0.83894026,-0.15660097,-0.34457502,0.02813882,804.2491,778.86444,788.5348,798.20514,674.90845,-0.0625,0.15679931640625,0.99176025390625,-0.800018310546875,-0.16448974609375,1.495361328125,1,1.0,1.0,1.0,1.0,20.00
2024-09-29 18:19:59.153,0.78673416,0.74442536,0.03152289,1.1700428,0.5530932,0.043721754,-0.07707922,0.27790415,0.51085955,0.17557487,0.25494072,0.6527297,1.0099044,4.4724808E-4,0.0105228275,0.4583567,0.83894026,-0.15660097,-0.34457502,0.02813882,807.0696,782.0879,792.5641,797.8022,649.5238,-0.0625,0.15679931640625,0.99176025390625,-0.800018310546875,-0.16448974609375,1.495361328125,1,1.0,1.0,1.0,1.0,20.00
2024-09-29 18:19:59.154,0.78673416,0.74442536,0.03152289,1.1700428,0.5530932,0.043721754,-0.07707922,0.27790415,0.51085955,0.17557487,0.25494072,0.6527297,1.0099044,4.4724808E-4,0.0105228275,0.4583567,0.83894026,-0.15660097,-0.34457502,0.02813882,815.5311,782.8938,795.38464,802.23444,689.41394,-0.0625,0.15679931640625,0.99176025390625,-0.800018310546875,-0.16448974609375,1.495361328125,1,1.0,1.0,1.0,1.0,20.00
2024-09-29 18:19:59.155,0.78673416,0.74442536,0.03152289,1.1700428,0.5530932,0.043721754,-0.07707922,0.27790415,0.51085955,0.17557487,0.25494072,0.6527297,1.0099044,4.4724808E-4,0.0105228275,0.4583567,0.83894026,-0.15660097,-0.34457502,0.02813882,822.7839,781.28204,793.36993,803.44324,649.12085,-0.0625,0.15679931640625,0.99176025390625,-0.800018310546875,-0.16448974609375,1.495361328125,1,1.0,1.0,1.0,1.0,20.00
2024-09-29 18:19:59.156,0.78673416,0.74442536,0.03152289,1.1700428,0.5530932,0.043721754,-0.07707922,0.27790415,0.51085955,0.17557487,0.25494072,0.6527297,1.0099044,4.4724808E-4,0.0105228275,0.4583567,0.83894026,-0.15660097,-0.34457502,0.02813882,821.978,776.8498,793.36993,806.26373,755.09155,-0.0625,0.15679931640625,0.99176025390625,-0.800018310546875,-0.16448974609375,1.495361328125,1,1.0,1.0,1.0,1.0,20.00
2024-09-29 18:19:59.157,0.78673416,0.74442536,0.03152289,1.1700428,0.5530932,0.043721754,-0.07707922,0.27790415,0.51085955,0.17557487,0.25494072,0.6527297,1.0099044,4.4724808E-4,0.0105228275,0.4583567,0.83894026,-0.15660097,-0.34457502,0.02813882,823.5897,782.49084,794.9817,810.293,948.49817,-0.0625,0.15679931640625,0.99176025390625,-0.800018310546875,-0.16448974609375,1.495361328125,1,1.0,1.0,1.0,1.0,20.00
2024-09-29 18:19:59.159,0.78673416,0.74442536,0.03152289,1.1700428,0.5530932,0.043721754,-0.07707922,0.27790415,0.51085955,0.17557487,0.25494072,0.6527297,1.0099044,4.4724808E-4,0.0105228275,0.4583567,0.83894026,-0.15660097,-0.34457502,0.02813882,826.0073,785.31134,791.3553,806.6667,862.27106,-0.0625,0.15679931640625,0.99176025390625,-0.800018310546875,-0.16448974609375,1.495361328125,1,1.0,1.0,1.0,1.0,20.00
2024-09-29 18:19:59.160,0.78673416,0.74442536,0.03152289,1.1700428,0.5530932,0.043721754,-0.07707922,0.27790415,0.51085955,0.17557487,0.25494072,0.6527297,1.0099044,4.4724808E-4,0.0105228275,0.4583567,0.83894026,-0.15660097,-0.34457502,0.02813882,816.337,783.2967,790.54944,805.05493,821.1722,-0.0625,0.15679931640625,0.99176025390625,-0.800018310546875,-0.16448974609375,1.495361328125,1,1.0,1.0,1.0,1.0,20.00
2024-09-29 18:19:59.161,0.78673416,0.74442536,0.03152289,1.1700428,0.5530932,0.043721754,-0.07707922,0.27790415,0.51085955,0.17557487,0.25494072,0.6527297,1.0099044,4.4724808E-4,0.0105228275,0.4583567,0.83894026,-0.15660097,-0.34457502,0.02813882,809.4872,785.31134,793.7729,805.4579,834.87177,-0.0625,0.15679931640625,0.99176025390625,-0.800018310546875,-0.16448974609375,1.495361328125,1,1.0,1.0,1.0,1.0,20.00
2024-09-29 18:19:59.162,0.78673416,0.74442536,0.03152289,1.1700428,0.5530932,0.043721754,-0.07707922,0.27790415,0.51085955,0.17557487,0.25494072,0.6527297,1.0099044,4.4724808E-4,0.0105228275,0.4583567,0.83894026,-0.15660097,-0.34457502,0.02813882,815.12823,782.0879,792.96704,811.0989,805.05493,-0.0625,0.15679931640625,0.99176025390625,-0.800018310546875,-0.16448974609375,1.495361328125,1,1.0,1.0,1.0,1.0,20.00
2024-09-29 18:19:59.163,0.78673416,0.74442536,0.03152289,1.1700428,0.5530932,0.043721754,-0.07707922,0.27790415,0.51085955,0.17557487,0.25494072,0.6527297,1.0099044,4.4724808E-4,0.0105228275,0.4583567,0.83894026,-0.15660097,-0.34457502,0.02813882,820.3663,775.64105,788.93774,817.9487,888.46155,-0.0625,0.15679931640625,0.99176025390625,-0.800018310546875,-0.16448974609375,1.495361328125,1,1.0,1.0,1.0,1.0,20.00
2024-09-29 18:19:59.164,0.78673416,0.74442536,0.03152289,1.1700428,0.5530932,0.043721754,-0.07707922,0.27790415,0.51085955,0.17557487,0.25494072,0.6527297,1.0099044,4.4724808E-4,0.0105228275,0.4583567,0.83894026,-0.15660097,-0.34457502,0.02813882,819.9634,778.46155,784.5055,804.65204,687.3993,-0.0625,0.15679931640625,0.99176025390625,-0.800018310546875,-0.16448974609375,1.495361328125,1,1.0,1.0,1.0,1.0,20.00
2024-09-29 18:19:59.206,0.78673416,0.74442536,0.03152289,1.1700428,0.5530932,0.043721754,-0.07707922,0.27790415,0.51085955,0.17557487,0.25494072,0.6527297,1.0099044,4.4724808E-4,0.0105228275,0.4583567,0.83894026,-0.15660097,-0.34457502,0.02813882,814.7253,780.4762,781.685,798.60803,703.91943,-0.0723876953125,0.14984130859375,0.9932861328125,-1.48040771484375,-1.114044189453125,0.874786376953125,1,1.0,1.0,1.0,1.0,20.00
2024-09-29 18:19:59.207,0.78673416,0.74442536,0.03152289,1.1700428,0.5530932,0.043721754,-0.07707922,0.27790415,0.51085955,0.17557487,0.25494072,0.6527297,1.0099044,4.4724808E-4,0.0105228275,0.4583567,0.83894026,-0.15660097,-0.34457502,0.02813882,812.71063,779.67035,784.10254,805.8608,933.1868,-0.0723876953125,0.14984130859375,0.9932861328125,-1.48040771484375,-1.114044189453125,0.874786376953125,1,1.0,1.0,1.0,1.0,20.00
2024-09-29 18:19:59.208,0.78673416,0.74442536,0.03152289,1.1700428,0.5530932,0.043721754,-0.07707922,0.27790415,0.51085955,0.17557487,0.25494072,0.6527297,1.0099044,4.4724808E-4,0.0105228275,0.4583567,0.83894026,-0.15660097,-0.34457502,0.02813882,810.696,778.86444,788.5348,809.0842,1197.5092,-0.0723876953125,0.14984130859375,0.9932861328125,-1.48040771484375,-1.114044189453125,0.874786376953125,1,1.0,1.0,1.0,1.0,20.00
2024-09-29 18:19:59.209,0.78673416,0.74442536,0.03152289,1.1700428,0.5530932,0.043721754,-0.07707922,0.27790415,0.51085955,0.17557487,0.25494072,0.6527297,1.0099044,4.4724808E-4,0.0105228275,0.4583567,0.83894026,-0.15660097,-0.34457502,0.02813882,800.2198,778.86444,785.31134,801.8315,1016.5934,-0.0723876953125,0.14984130859375,0.9932861328125,-1.48040771484375,-1.114044189453125,0.874786376953125,1,1.0,1.0,1.0,1.0,20.00
2024-09-29 18:19:59.209,0.78673416,0.74442536,0.03152289,1.1700428,0.5530932,0.043721754,-0.07707922,0.27790415,0.51085955,0.17557487,0.25494072,0.6527297,1.0099044,4.4724808E-4,0.0105228275,0.4583567,0.83894026,-0.15660097,-0.34457502,0.02813882,799.011,777.25275,787.72894,799.41394,683.36993,-0.0723876953125,0.14984130859375,0.9932861328125,-1.48040771484375,-1.114044189453125,0.874786376953125,1,1.0,1.0,1.0,1.0,20.00
2024-09-29 18:19:59.210,0.78673416,0.74442536,0.03152289,1.1700428,0.5530932,0.043721754,-0.07707922,0.27790415,0.51085955,0.17557487,0.25494072,0.6527297,1.0099044,4.4724808E-4,0.0105228275,0.4583567,0.83894026,-0.15660097,-0.34457502,0.02813882,790.14655,777.6557,791.75824,801.4286,1000.07324,-0.0723876953125,0.14984130859375,0.9932861328125,-1.48040771484375,-1.114044189453125,0.874786376953125,1,1.0,1.0,1.0,1.0,20.00
2024-09-29 18:19:59.210,0.78673416,0.74442536,0.03152289,1.1700428,0.5530932,0.043721754,-0.07707922,0.27790415,0.51085955,0.17557487,0.25494072,0.6527297,1.0099044,4.4724808E-4,0.0105228275,0.4583567,0.83894026,-0.15660097,-0.34457502,0.02813882,782.8938,781.28204,790.9524,805.4579,1012.1612,-0.0723876953125,0.14984130859375,0.9932861328125,-1.48040771484375,-1.114044189453125,0.874786376953125,1,1.0,1.0,1.0,1.0,20.00
2024-09-29 18:19:59.211,0.78673416,0.74442536,0.03152289,1.1700428,0.5530932,0.043721754,-0.07707922,0.27790415,0.51085955,0.17557487,0.25494072,0.6527297,1.0099044,4.4724808E-4,0.0105228275,0.4583567,0.83894026,-0.15660097,-0.34457502,0.02813882,790.9524,779.67035,790.9524,803.0403,596.337,-0.0723876953125,0.14984130859375,0.9932861328125,-1.48040771484375,-1.114044189453125,0.874786376953125,1,1.0,1.0,1.0,1.0,20.00
2024-09-29 18:19:59.211,0.78673416,0.74442536,0.03152289,1.1700428,0.5530932,0.043721754,-0.07707922,0.27790415,0.51085955,0.17557487,0.25494072,0.6527297,1.0099044,4.4724808E-4,0.0105228275,0.4583567,0.83894026,-0.15660097,-0.34457502,0.02813882,801.4286,777.25275,786.9231,790.14655,512.52747,-0.0723876953125,0.14984130859375,0.9932861328125,-1.48040771484375,-1.114044189453125,0.874786376953125,1,1.0,1.0,1.0,1.0,20.00
2024-09-29 18:19:59.212,0.78673416,0.74442536,0.03152289,1.1700428,0.5530932,0.043721754,-0.07707922,0.27790415,0.51085955,0.17557487,0.25494072,0.6527297,1.0099044,4.4724808E-4,0.0105228275,0.4583567,0.83894026,-0.15660097,-0.34457502,0.02813882,801.8315,776.04395,788.93774,796.99634,893.69965,-0.0723876953125,0.14984130859375,0.9932861328125,-1.48040771484375,-1.114044189453125,0.874786376953125,1,1.0,1.0,1.0,1.0,20.00
2024-09-29 18:19:59.212,0.78673416,0.74442536,0.03152289,1.1700428,0.5530932,0.043721754,-0.07707922,0.27790415,0.51085955,0.17557487,0.25494072,0.6527297,1.0099044,4.4724808E-4,0.0105228275,0.4583567,0.83894026,-0.15660097,-0.34457502,0.02813882,802.23444,776.04395,794.17584,804.2491,1169.3041,-0.0723876953125,0.14984130859375,0.9932861328125,-1.48040771484375,-1.114044189453125,0.874786376953125,1,1.0,1.0,1.0,1.0,20.00
2024-09-29 18:19:59.213,0.78673416,0.74442536,0.03152289,1.1700428,0.5530932,0.043721754,-0.07707922,0.27790415,0.51085955,0.17557487,0.25494072,0.6527297,1.0099044,4.4724808E-4,0.0105228275,0.4583567,0.83894026,-0.15660097,-0.34457502,0.02813882,796.5934,774.0293,790.54944,788.93774,733.3333,-0.0723876953125,0.14984130859375,0.9932861328125,-1.48040771484375,-1.114044189453125,0.874786376953125,1,1.0,1.0,1.0,1.0,20.00
2024-09-29 18:19:59.213,0.78673416,0.74442536,0.03152289,1.1700428,0.5530932,0.043721754,-0.07707922,0.27790415,0.51085955,0.17557487,0.25494072,0.6527297,1.0099044,4.4724808E-4,0.0105228275,0.4583567,0.83894026,-0.15660097,-0.34457502,0.02813882,802.6374,772.8205,790.14655,790.9524,535.4945,-0.07373046875,0.143310546875,1.00140380859375,-1.233673095703125,-1.009368896484375,-0.530853271484375,1,1.0,1.0,1.0,1.0,20.00
2024-09-29 18:19:59.214,0.78673416,0.72370386,0.079105064,1.1700428,0.5530932,0.047966547,-0.08378178,0.27790415,0.51085955,0.18756847,0.25684592,0.6527297,1.0099044,-0.027042298,0.01049161,0.4583567,0.83894026,-0.19427222,-0.36923996,0.02813882,814.7253,776.04395,794.9817,809.0842,842.9304,-0.07373046875,0.143310546875,1.00140380859375,-1.233673095703125,-1.009368896484375,-0.530853271484375,1,1.0,1.0,1.0,1.0,20.00
2024-09-29 18:19:59.218,0.78673416,0.72370386,0.079105064,1.1700428,0.5530932,0.047966547,-0.08378178,0.27790415,0.51085955,0.18756847,0.25684592,0.6527297,1.0099044,-0.027042298,0.01049161,0.4583567,0.83894026,-0.19427222,-0.36923996,0.02813882,821.1722,774.43225,792.96704,817.9487,894.90845,-0.07373046875,0.143310546875,1.00140380859375,-1.233673095703125,-1.009368896484375,-0.530853271484375,1,1.0,1.0,1.0,1.0,20.00
2024-09-29 18:19:59.219,0.78673416,0.72370386,0.079105064,1.1700428,0.5530932,0.047966547,-0.08378178,0.27790415,0.51085955,0.18756847,0.25684592,0.6527297,1.0099044,-0.027042298,0.01049161,0.4583567,0.83894026,-0.19427222,-0.36923996,0.02813882,825.2015,774.43225,790.54944,821.1722,672.8938,-0.07373046875,0.143310546875,1.00140380859375,-1.233673095703125,-1.009368896484375,-0.530853271484375,1,1.0,1.0,1.0,1.0,20.00
2024-09-29 18:19:59.220,0.78673416,0.72370386,0.079105064,1.1700428,0.5530932,0.047966547,-0.08378178,0.27790415,0.51085955,0.18756847,0.25684592,0.6527297,1.0099044,-0.027042298,0.01049161,0.4583567,0.83894026,-0.19427222,-0.36923996,0.02813882,829.2308,778.46155,788.93774,827.619,604.7985,-0.07373046875,0.143310546875,1.00140380859375,-1.233673095703125,-1.009368896484375,-0.530853271484375,1,1.0,1.0,1.0,1.0,20.00
2024-09-29 18:19:59.221,0.78673416,0.72370386,0.079105064,1.1700428,0.5530932,0.047966547,-0.08378178,0.27790415,0.51085955,0.18756847,0.25684592,0.6527297,1.0099044,-0.027042298,0.01049161,0.4583567,0.83894026,-0.19427222,-0.36923996,0.02813882,835.2747,780.87915,790.54944,830.0366,855.42126,-0.07373046875,0.143310546875,1.00140380859375,-1.233673095703125,-1.009368896484375,-0.530853271484375,1,1.0,1.0,1.0,1.0,20.00
2024-09-29 18:19:59.222,0.78673416,0.72370386,0.079105064,1.1700428,0.5530932,0.047966547,-0.08378178,0.27790415,0.51085955,0.18756847,0.25684592,0.6527297,1.0099044,-0.027042298,0.01049161,0.4583567,0.83894026,-0.19427222,-0.36923996,0.02813882,835.2747,779.67035,794.17584,826.8132,974.2857,-0.07373046875,0.143310546875,1.00140380859375,-1.233673095703125,-1.009368896484375,-0.530853271484375,1,1.0,1.0,1.0,1.0,20.00
2024-09-29 18:19:59.223,0.78673416,0.72370386,0.079105064,1.1700428,0.5530932,0.047966547,-0.08378178,0.27790415,0.51085955,0.18756847,0.25684592,0.6527297,1.0099044,-0.027042298,0.01049161,0.4583567,0.83894026,-0.19427222,-0.36923996,0.02813882,831.6484,780.07324,794.9817,823.5897,701.50183,-0.07373046875,0.143310546875,1.00140380859375,-1.233673095703125,-1.009368896484375,-0.530853271484375,1,1.0,1.0,1.0,1.0,20.00
2024-09-29 18:19:59.224,0.78673416,0.72370386,0.079105064,1.1700428,0.5530932,0.047966547,-0.08378178,0.27790415,0.51085955,0.18756847,0.25684592,0.6527297,1.0099044,-0.027042298,0.01049161,0.4583567,0.83894026,-0.19427222,-0.36923996,0.02813882,826.0073,780.07324,793.36993,823.9927,613.663,-0.07373046875,0.143310546875,1.00140380859375,-1.233673095703125,-1.009368896484375,-0.530853271484375,1,1.0,1.0,1.0,1.0,20.00
2024-09-29 18:19:59.225,0.78673416,0.72370386,0.079105064,1.1700428,0.5530932,0.047966547,-0.08378178,0.27790415,0.51085955,0.18756847,0.25684592,0.6527297,1.0099044,-0.027042298,0.01049161,0.4583567,0.83894026,-0.19427222,-0.36923996,0.02813882,817.5458,776.04395,791.75824,827.619,933.9927,-0.07373046875,0.143310546875,1.00140380859375,-1.233673095703125,-1.009368896484375,-0.530853271484375,1,1.0,1.0,1.0,1.0,20.00
2024-09-29 18:19:59.226,0.78673416,0.72370386,0.079105064,1.1700428,0.5530932,0.047966547,-0.08378178,0.27790415,0.51085955,0.18756847,0.25684592,0.6527297,1.0099044,-0.027042298,0.01049161,0.4583567,0.83894026,-0.19427222,-0.36923996,0.02813882,810.293,772.01465,792.1612,821.1722,980.32965,-0.07373046875,0.143310546875,1.00140380859375,-1.233673095703125,-1.009368896484375,-0.530853271484375,1,1.0,1.0,1.0,1.0,20.00
2024-09-29 18:19:59.227,0.78673416,0.72370386,0.079105064,1.1700428,0.5530932,0.047966547,-0.08378178,0.27790415,0.51085955,0.18756847,0.25684592,0.6527297,1.0099044,-0.027042298,0.01049161,0.4583567,0.83894026,-0.19427222,-0.36923996,0.02813882,812.71063,772.8205,791.3553,813.1135,768.7912,-0.07373046875,0.143310546875,1.00140380859375,-1.233673095703125,-1.009368896484375,-0.530853271484375,1,1.0,1.0,1.0,1.0,20.00
2024-09-29 18:19:59.229,0.78673416,0.72370386,0.079105064,1.1700428,0.5530932,0.047966547,-0.08378178,0.27790415,0.51085955,0.18756847,0.25684592,0.6527297,1.0099044,-0.027042298,0.01049161,0.4583567,0.83894026,-0.19427222,-0.36923996,0.02813882,817.5458,771.6117,788.1319,814.3223,733.73627,-0.0621337890625,0.1412353515625,0.99603271484375,-0.9869384765625,-2.325286865234375,-0.35888671875,1,1.0,1.0,1.0,1.0,20.00
2024-09-29 18:19:59.230,0.78673416,0.72370386,0.079105064,1.1700428,0.5530932,0.047966547,-0.08378178,0.27790415,0.51085955,0.18756847,0.25684592,0.6527297,1.0099044,-0.027042298,0.01049161,0.4583567,0.83894026,-0.19427222,-0.36923996,0.02813882,814.3223,771.2088,787.72894,814.3223,799.81683,-0.0621337890625,0.1412353515625,0.99603271484375,-0.9869384765625,-2.325286865234375,-0.35888671875,1,1.0,1.0,1.0,1.0,20.00
2024-09-29 18:19:59.230,0.78673416,0.72370386,0.079105064,1.1700428,0.5530932,0.047966547,-0.08378178,0.27790415,0.51085955,0.18756847,0.25684592,0.6527297,1.0099044,-0.027042298,0.01049161,0.4583567,0.83894026,-0.19427222,-0.36923996,0.02813882,807.0696,772.01465,786.52014,813.1135,815.5311,-0.0621337890625,0.1412353515625,0.99603271484375,-0.9869384765625,-2.325286865234375,-0.35888671875,1,1.0,1.0,1.0,1.0,20.00
2024-09-29 18:19:59.232,0.78673416,0.72370386,0.079105064,1.1700428,0.5530932,0.047966547,-0.08378178,0.27790415,0.51085955,0.18756847,0.25684592,0.6527297,1.0099044,-0.027042298,0.01049161,0.4583567,0.83894026,-0.19427222,-0.36923996,0.02813882,807.8755,772.4176,788.93774,817.5458,774.83514,-0.0621337890625,0.1412353515625,0.99603271484375,-0.9869384765625,-2.325286865234375,-0.35888671875,1,1.0,1.0,1.0,1.0,20.00
2024-09-29 18:19:59.233,0.78673416,0.72370386,0.079105064,1.1700428,0.5530932,0.047966547,-0.08378178,0.27790415,0.51085955,0.18756847,0.25684592,0.6527297,1.0099044,-0.027042298,0.01049161,0.4583567,0.83894026,-0.19427222,-0.36923996,0.02813882,811.9048,774.0293,788.5348,809.0842,738.1685,-0.0621337890625,0.1412353515625,0.99603271484375,-0.9869384765625,-2.325286865234375,-0.35888671875,1,1.0,1.0,1.0,1.0,20.00
2024-09-29 18:19:59.234,0.78673416,0.72370386,0.079105064,1.1700428,0.5530932,0.047966547,-0.08378178,0.27790415,0.51085955,0.18756847,0.25684592,0.6527297,1.0099044,-0.027042298,0.01049161,0.4583567,0.83894026,-0.19427222,-0.36923996,0.02813882,806.6667,771.6117,787.326,796.5934,825.2015,-0.0621337890625,0.1412353515625,0.99603271484375,-0.9869384765625,-2.325286865234375,-0.35888671875,1,1.0,1.0,1.0,1.0,20.00
2024-09-29 18:19:59.234,0.78673416,0.72370386,0.079105064,1.1700428,0.5530932,0.047966547,-0.08378178,0.27790415,0.51085955,0.18756847,0.25684592,0.6527297,1.0099044,-0.027042298,0.01049161,0.4583567,0.83894026,-0.19427222,-0.36923996,0.02813882,788.93774,767.1795,788.93774,792.5641,909.011,-0.0621337890625,0.1412353515625,0.99603271484375,-0.9869384765625,-2.325286865234375,-0.35888671875,1,1.0,1.0,1.0,1.0,20.00
2024-09-29 18:19:59.235,0.78673416,0.72370386,0.079105064,1.1700428,0.5530932,0.047966547,-0.08378178,0.27790415,0.51085955,0.18756847,0.25684592,0.6527297,1.0099044,-0.027042298,0.01049161,0.4583567,0.83894026,-0.19427222,-0.36923996,0.02813882,777.25275,767.98535,788.1319,790.9524,819.15753,-0.0621337890625,0.1412353515625,0.99603271484375,-0.9869384765625,-2.325286865234375,-0.35888671875,1,1.0,1.0,1.0,1.0,20.00
2024-09-29 18:19:59.236,0.78673416,0.72370386,0.079105064,1.1700428,0.5530932,0.047966547,-0.08378178,0.27790415,0.51085955,0.18756847,0.25684592,0.6527297,1.0099044,-0.027042298,0.01049161,0.4583567,0.83894026,-0.19427222,-0.36923996,0.02813882,788.5348,769.19415,786.9231,786.9231,760.32965,-0.0621337890625,0.1412353515625,0.99603271484375,-0.9869384765625,-2.325286865234375,-0.35888671875,1,1.0,1.0,1.0,1.0,20.00
2024-09-29 18:19:59.237,0.78673416,0.72370386,0.079105064,1.1700428,0.5530932,0.047966547,-0.08378178,0.27790415,0.51085955,0.18756847,0.25684592,0.6527297,1.0099044,-0.027042298,0.01049161,0.4583567,0.83894026,-0.19427222,-0.36923996,0.02813882,794.9817,772.4176,786.1172,787.72894,733.3333,-0.0621337890625,0.1412353515625,0.99603271484375,-0.9869384765625,-2.325286865234375,-0.35888671875,1,1.0,1.0,1.0,1.0,20.00
2024-09-29 18:19:59.238,0.78673416,0.72370386,0.079105064,1.1700428,0.5530932,0.047966547,-0.08378178,0.27790415,0.51085955,0.18756847,0.25684592,0.6527297,1.0099044,-0.027042298,0.01049161,0.4583567,0.83894026,-0.19427222,-0.36923996,0.02813882,792.1612,775.64105,783.69965,792.1612,736.55676,-0.0621337890625,0.1412353515625,0.99603271484375,-0.9869384765625,-2.325286865234375,-0.35888671875,1,1.0,1.0,1.0,1.0,20.00
2024-09-29 18:19:59.239,0.78673416,0.72370386,0.079105064,1.1700428,0.5530932,0.047966547,-0.08378178,0.27790415,0.51085955,0.18756847,0.25684592,0.6527297,1.0099044,-0.027042298,0.01049161,0.4583567,0.83894026,-0.19427222,-0.36923996,0.02813882,796.5934,772.4176,784.10254,798.60803,808.2784,-0.0621337890625,0.1412353515625,0.99603271484375,-0.9869384765625,-2.325286865234375,-0.35888671875,1,1.0,1.0,1.0,1.0,20.00
2024-09-29 18:19:59.278,0.78673416,0.72370386,0.079105064,1.1700428,0.5530932,0.047966547,-0.08378178,0.27790415,0.51085955,0.18756847,0.25684592,0.6527297,1.0099044,-0.027042298,0.01049161,0.4583567,0.83894026,-0.19427222,-0.36923996,0.02813882,802.6374,773.6264,786.1172,803.0403,861.8681,-0.0621337890625,0.1412353515625,0.99603271484375,-0.9869384765625,-2.325286865234375,-0.35888671875,1,1.0,1.0,1.0,1.0,20.00
2024-09-29 18:19:59.279,0.78673416,0.72370386,0.079105064,1.1700428,0.5530932,0.047966547,-0.08378178,0.27790415,0.51085955,0.18756847,0.25684592,0.6527297,1.0099044,-0.027042298,0.01049161,0.4583567,0.83894026,-0.19427222,-0.36923996,0.02813882,805.8608,774.83514,787.326,803.0403,780.87915,-0.0621337890625,0.1412353515625,0.99603271484375,-0.9869384765625,-2.325286865234375,-0.35888671875,1,1.0,1.0,1.0,1.0,20.00
2024-09-29 18:19:59.280,0.78673416,0.72370386,0.079105064,1.1700428,0.5530932,0.047966547,-0.08378178,0.27790415,0.51085955,0.18756847,0.25684592,0.6527297,1.0099044,-0.027042298,0.01049161,0.4583567,0.83894026,-0.19427222,-0.36923996,0.02813882,809.0842,774.43225,790.14655,804.2491,643.0769,-0.0621337890625,0.1412353515625,0.99603271484375,-0.9869384765625,-2.325286865234375,-0.35888671875,1,1.0,1.0,1.0,1.0,20.00
2024-09-29 18:19:59.280,0.78673416,0.70242983,0.1173517,1.1700428,0.5530932,0.0385045,-0.0921505,0.27790415,0.51085955,0.17771094,0.25684592,0.6527297,1.0099044,-0.055853836,-0.0017278983,0.4583567,0.83894026,-0.2257802,-0.38687533,0.02813882,805.8608,770.40295,790.54944,809.4872,771.2088,-0.0621337890625,0.1412353515625,0.99603271484375,-0.9869384765625,-2.325286865234375,-0.35888671875,1,1.0,1.0,1.0,1.0,20.00
2024-09-29 18:19:59.284,0.78673416,0.70242983,0.1173517,1.1700428,0.5530932,0.0385045,-0.0921505,0.27790415,0.51085955,0.17771094,0.25684592,0.6527297,1.0099044,-0.055853836,-0.0017278983,0.4583567,0.83894026,-0.2257802,-0.38687533,0.02813882,810.293,770.80585,790.54944,817.9487,934.3956,-0.0621337890625,0.1412353515625,0.99603271484375,-0.9869384765625,-2.325286865234375,-0.35888671875,1,1.0,1.0,1.0,1.0,20.00
2024-09-29 18:19:59.285,0.78673416,0.70242983,0.1173517,1.1700428,0.5530932,0.0385045,-0.0921505,0.27790415,0.51085955,0.17771094,0.25684592,0.6527297,1.0099044,-0.055853836,-0.0017278983,0.4583567,0.83894026,-0.2257802,-0.38687533,0.02813882,812.3077,772.4176,788.1319,815.12823,846.55676,-0.0621337890625,0.1412353515625,0.99603271484375,-0.9869384765625,-2.325286865234375,-0.35888671875,1,1.0,1.0,1.0,1.0,20.00
2024-09-29 18:19:59.286,0.78673416,0.70242983,0.1173517,1.1700428,0.5530932,0.0385045,-0.0921505,0.27790415,0.51085955,0.17771094,0.25684592,0.6527297,1.0099044,-0.055853836,-0.0017278983,0.4583567,0.83894026,-0.2257802,-0.38687533,0.02813882,804.65204,771.6117,783.69965,806.6667,850.18317,-0.0621337890625,0.1412353515625,0.99603271484375,-0.9869384765625,-2.325286865234375,-0.35888671875,1,1.0,1.0,1.0,1.0,20.00
2024-09-29 18:19:59.286,0.78673416,0.70242983,0.1173517,1.1700428,0.5530932,0.0385045,-0.0921505,0.27790415,0.51085955,0.17771094,0.25684592,0.6527297,1.0099044,-0.055853836,-0.0017278983,0.4583567,0.83894026,-0.2257802,-0.38687533,0.02813882,809.89014,775.64105,787.72894,807.47253,823.5897,-0.0621337890625,0.1412353515625,0.99603271484375,-0.9869384765625,-2.325286865234375,-0.35888671875,1,1.0,1.0,1.0,1.0,20.00
2024-09-29 18:19:59.287,0.78673416,0.70242983,0.1173517,1.1700428,0.5530932,0.0385045,-0.0921505,0.27790415,0.51085955,0.17771094,0.25684592,0.6527297,1.0099044,-0.055853836,-0.0017278983,0.4583567,0.83894026,-0.2257802,-0.38687533,0.02813882,813.91943,781.28204,791.3553,817.1429,1147.5458,-0.0621337890625,0.1412353515625,0.99603271484375,-0.9869384765625,-2.325286865234375,-0.35888671875,1,1.0,1.0,1.0,1.0,20.00
2024-09-29 18:19:59.287,0.78673416,0.70242983,0.1173517,1.1700428,0.5530932,0.0385045,-0.0921505,0.27790415,0.51085955,0.17771094,0.25684592,0.6527297,1.0099044,-0.055853836,-0.0017278983,0.4583567,0.83894026,-0.2257802,-0.38687533,0.02813882,809.0842,779.67035,791.3553,823.1868,1388.0952,-0.0621337890625,0.1412353515625,0.99603271484375,-0.9869384765625,-2.325286865234375,-0.35888671875,1,1.0,1.0,1.0,1.0,20.00
2024-09-29 18:19:59.288,0.78673416,0.70242983,0.1173517,1.1700428,0.5530932,0.0385045,-0.0921505,0.27790415,0.51085955,0.17771094,0.25684592,0.6527297,1.0099044,-0.055853836,-0.0017278983,0.4583567,0.83894026,-0.2257802,-0.38687533,0.02813882,812.3077,778.0586,791.75824,817.1429,1034.3224,-0.0621337890625,0.1412353515625,0.99603271484375,-0.9869384765625,-2.325286865234375,-0.35888671875,1,1.0,1.0,1.0,1.0,20.00
2024-09-29 18:19:59.289,0.78673416,0.70242983,0.1173517,1.1700428,0.5530932,0.0385045,-0.0921505,0.27790415,0.51085955,0.17771094,0.25684592,0.6527297,1.0099044,-0.055853836,-0.0017278983,0.4583567,0.83894026,-0.2257802,-0.38687533,0.02813882,812.71063,774.43225,790.14655,812.3077,921.0989,-0.0621337890625,0.1412353515625,0.99603271484375,-0.9869384765625,-2.325286865234375,-0.35888671875,1,1.0,1.0,1.0,1.0,20.00
2024-09-29 18:19:59.312,0.78673416,0.70242983,0.1173517,1.1700428,0.5530932,0.0385045,-0.0921505,0.27790415,0.51085955,0.17771094,0.25684592,0.6527297,1.0099044,-0.055853836,-0.0017278983,0.4583567,0.83894026,-0.2257802,-0.38687533,0.02813882,805.8608,772.4176,792.1612,812.71063,1016.1905,-0.0623779296875,0.13623046875,0.98980712890625,-0.097198486328125,-1.39068603515625,-0.59814453125,1,1.0,1.0,1.0,1.0,20.00
2024-09-29 18:19:59.313,0.78673416,0.70242983,0.1173517,1.1700428,0.5530932,0.0385045,-0.0921505,0.27790415,0.51085955,0.17771094,0.25684592,0.6527297,1.0099044,-0.055853836,-0.0017278983,0.4583567,0.83894026,-0.2257802,-0.38687533,0.02813882,812.71063,775.2381,789.34064,805.05493,849.3773,-0.0623779296875,0.13623046875,0.98980712890625,-0.097198486328125,-1.39068603515625,-0.59814453125,1,1.0,1.0,1.0,1.0,20.00
2024-09-29 18:19:59.314,0.78673416,0.70242983,0.1173517,1.1700428,0.5530932,0.0385045,-0.0921505,0.27790415,0.51085955,0.17771094,0.25684592,0.6527297,1.0099044,-0.055853836,-0.0017278983,0.4583567,0.83894026,-0.2257802,-0.38687533,0.02813882,818.7546,772.01465,784.90845,798.60803,705.5311,-0.0623779296875,0.13623046875,0.98980712890625,-0.097198486328125,-1.39068603515625,-0.59814453125,1,1.0,1.0,1.0,1.0,20.00
2024-09-29 18:19:59.314,0.78673416,0.70242983,0.1173517,1.1700428,0.5530932,0.0385045,-0.0921505,0.27790415,0.51085955,0.17771094,0.25684592,0.6527297,1.0099044,-0.055853836,-0.0017278983,0.4583567,0.83894026,-0.2257802,-0.38687533,0.02813882,818.3516,770.0,784.90845,799.41394,784.10254,-0.0623779296875,0.13623046875,0.98980712890625,-0.097198486328125,-1.39068603515625,-0.59814453125,1,1.0,1.0,1.0,1.0,20.00
2024-09-29 18:19:59.315,0.78673416,0.70242983,0.1173517,1.1700428,0.5530932,0.0385045,-0.0921505,0.27790415,0.51085955,0.17771094,0.25684592,0.6527297,1.0099044,-0.055853836,-0.0017278983,0.4583567,0.83894026,-0.2257802,-0.38687533,0.02813882,815.9341,772.4176,783.2967,795.38464,841.31866,-0.0623779296875,0.13623046875,0.98980712890625,-0.097198486328125,-1.39068603515625,-0.59814453125,1,1.0,1.0,1.0,1.0,20.00
2024-09-29 18:19:59.315,0.78673416,0.70242983,0.1173517,1.1700428,0.5530932,0.0385045,-0.0921505,0.27790415,0.51085955,0.17771094,0.25684592,0.6527297,1.0099044,-0.055853836,-0.0017278983,0.4583567,0.83894026,-0.2257802,-0.38687533,0.02813882,806.6667,773.6264,784.90845,790.14655,789.7436,-0.0623779296875,0.13623046875,0.98980712890625,-0.097198486328125,-1.39068603515625,-0.59814453125,1,1.0,1.0,1.0,1.0,20.00
2024-09-29 18:19:59.316,0.78673416,0.70242983,0.1173517,1.1700428,0.5530932,0.0385045,-0.0921505,0.27790415,0.51085955,0.17771094,0.25684592,0.6527297,1.0099044,-0.055853836,-0.0017278983,0.4583567,0.83894026,-0.2257802,-0.38687533,0.02813882,795.38464,772.01465,786.52014,788.5348,693.8461,-0.0623779296875,0.13623046875,0.98980712890625,-0.097198486328125,-1.39068603515625,-0.59814453125,1,1.0,1.0,1.0,1.0,20.00
2024-09-29 18:19:59.316,0.78673416,0.70242983,0.1173517,1.1700428,0.5530932,0.0385045,-0.0921505,0.27790415,0.51085955,0.17771094,0.25684592,0.6527297,1.0099044,-0.055853836,-0.0017278983,0.4583567,0.83894026,-0.2257802,-0.38687533,0.02813882,796.99634,768.3883,785.7143,790.9524,745.0183,-0.0623779296875,0.13623046875,0.98980712890625,-0.097198486328125,-1.39068603515625,-0.59814453125,1,1.0,1.0,1.0,1.0,20.00
2024-09-29 18:19:59.317,0.78673416,0.70242983,0.1173517,1.1700428,0.5530932,0.0385045,-0.0921505,0.27790415,0.51085955,0.17771094,0.25684592,0.6527297,1.0099044,-0.055853836,-0.0017278983,0.4583567,0.83894026,-0.2257802,-0.38687533,0.02813882,801.4286,769.59705,786.9231,794.57874,878.7912,-0.0623779296875,0.13623046875,0.98980712890625,-0.097198486328125,-1.39068603515625,-0.59814453125,1,1.0,1.0,1.0,1.0,20.00
2024-09-29 18:19:59.317,0.78673416,0.70242983,0.1173517,1.1700428,0.5530932,0.0385045,-0.0921505,0.27790415,0.51085955,0.17771094,0.25684592,0.6527297,1.0099044,-0.055853836,-0.0017278983,0.4583567,0.83894026,-0.2257802,-0.38687533,0.02813882,803.44324,772.01465,789.7436,797.3993,689.41394,-0.0623779296875,0.13623046875,0.98980712890625,-0.097198486328125,-1.39068603515625,-0.59814453125,1,1.0,1.0,1.0,1.0,20.00
2024-09-29 18:19:59.318,0.78673416,0.70242983,0.1173517,1.1700428,0.5530932,0.0385045,-0.0921505,0.27790415,0.51085955,0.17771094,0.25684592,0.6527297,1.0099044,-0.055853836,-0.0017278983,0.4583567,0.83894026,-0.2257802,-0.38687533,0.02813882,807.47253,771.2088,788.93774,796.5934,509.70697,-0.0623779296875,0.13623046875,0.98980712890625,-0.097198486328125,-1.39068603515625,-0.59814453125,1,1.0,1.0,1.0,1.0,20.00
2024-09-29 18:19:59.318,0.78673416,0.70242983,0.1173517,1.1700428,0.5530932,0.0385045,-0.0921505,0.27790415,0.51085955,0.17771094,0.25684592,0.6527297,1.0099044,-0.055853836,-0.0017278983,0.4583567,0.83894026,-0.2257802,-0.38687533,0.02813882,801.8315,765.16486,787.72894,796.1905,651.53845,-0.0623779296875,0.13623046875,0.98980712890625,-0.097198486328125,-1.39068603515625,-0.59814453125,1,1.0,1.0,1.0,1.0,20.00
2024-09-29 18:19:59.373,0.78673416,0.70242983,0.1173517,1.1700428,0.5530932,0.0385045,-0.0921505,0.27790415,0.51085955,0.17771094,0.25684592,0.6527297,1.0099044,-0.055853836,-0.0017278983,0.4583567,0.83894026,-0.2257802,-0.38687533,0.02813882,801.02563,765.9707,792.96704,798.20514,794.9817,-0.05889892578125,0.14141845703125,0.99407958984375,0.11962890625,-1.24114990234375,-0.31402587890625,1,1.0,1.0,1.0,1.0,20.00
2024-09-29 18:19:59.374,0.78673416,0.70242983,0.1173517,1.1700428,0.5530932,0.0385045,-0.0921505,0.27790415,0.51085955,0.17771094,0.25684592,0.6527297,1.0099044,-0.055853836,-0.0017278983,0.4583567,0.83894026,-0.2257802,-0.38687533,0.02813882,801.4286,766.3736,795.38464,798.60803,827.2161,-0.05889892578125,0.14141845703125,0.99407958984375,0.11962890625,-1.24114990234375,-0.31402587890625,1,1.0,1.0,1.0,1.0,20.00
2024-09-29 18:19:59.375,0.78673416,0.70242983,0.1173517,1.1700428,0.5530932,0.0385045,-0.0921505,0.27790415,0.51085955,0.17771094,0.25684592,0.6527297,1.0099044,-0.055853836,-0.0017278983,0.4583567,0.83894026,-0.2257802,-0.38687533,0.02813882,791.3553,763.5531,790.9524,796.5934,725.2747,-0.05889892578125,0.14141845703125,0.99407958984375,0.11962890625,-1.24114990234375,-0.31402587890625,1,1.0,1.0,1.0,1.0,20.00
2024-09-29 18:19:59.375,0.78673416,0.70242983,0.1173517,1.1700428,0.5530932,0.0385045,-0.0921505,0.27790415,0.51085955,0.17771094,0.25684592,0.6527297,1.0099044,-0.055853836,-0.0017278983,0.4583567,0.83894026,-0.2257802,-0.38687533,0.02813882,796.99634,766.77655,794.17584,801.02563,819.9634,-0.05889892578125,0.14141845703125,0.99407958984375,0.11962890625,-1.24114990234375,-0.31402587890625,1,1.0,1.0,1.0,1.0,20.00
2024-09-29 18:19:59.376,0.78673416,0.70242983,0.1173517,1.1700428,0.5530932,0.0385045,-0.0921505,0.27790415,0.51085955,0.17771094,0.25684592,0.6527297,1.0099044,-0.055853836,-0.0017278983,0.4583567,0.83894026,-0.2257802,-0.38687533,0.02813882,806.26373,769.59705,798.20514,806.6667,1117.326,-0.05889892578125,0.14141845703125,0.99407958984375,0.11962890625,-1.24114990234375,-0.31402587890625,1,1.0,1.0,1.0,1.0,20.00
2024-09-29 18:19:59.376,1.2807858,0.69862676,0.13792004,1.1299498,1.0341809,0.020990107,-0.09797349,0.90097654,1.1695231,0.17771094,0.25684592,1.2297795,0.37295818,-0.07764314,-0.019963002,0.49006167,0.38487422,-0.2515831,-0.39976314,0.10349561,798.20514,767.1795,797.3993,800.6227,1037.9487,-0.05889892578125,0.14141845703125,0.99407958984375,0.11962890625,-1.24114990234375,-0.31402587890625,1,1.0,1.0,1.0,1.0,20.00
2024-09-29 18:19:59.381,1.2807858,0.69862676,0.13792004,1.1299498,1.0341809,0.020990107,-0.09797349,0.90097654,1.1695231,0.17771094,0.25684592,1.2297795,0.37295818,-0.07764314,-0.019963002,0.49006167,0.38487422,-0.2515831,-0.39976314,0.10349561,801.8315,765.16486,793.36993,794.57874,1066.1538,-0.05889892578125,0.14141845703125,0.99407958984375,0.11962890625,-1.24114990234375,-0.31402587890625,1,1.0,1.0,1.0,1.0,20.00
2024-09-29 18:19:59.381,1.2807858,0.69862676,0.13792004,1.1299498,1.0341809,0.020990107,-0.09797349,0.90097654,1.1695231,0.17771094,0.25684592,1.2297795,0.37295818,-0.07764314,-0.019963002,0.49006167,0.38487422,-0.2515831,-0.39976314,0.10349561,809.0842,768.7912,790.14655,802.23444,1002.49084,-0.05889892578125,0.14141845703125,0.99407958984375,0.11962890625,-1.24114990234375,-0.31402587890625,1,1.0,1.0,1.0,1.0,20.00
2024-09-29 18:19:59.382,1.2807858,0.69862676,0.13792004,1.1299498,1.0341809,0.020990107,-0.09797349,0.90097654,1.1695231,0.17771094,0.25684592,1.2297795,0.37295818,-0.07764314,-0.019963002,0.49006167,0.38487422,-0.2515831,-0.39976314,0.10349561,811.9048,769.59705,789.34064,806.26373,846.55676,-0.05889892578125,0.14141845703125,0.99407958984375,0.11962890625,-1.24114990234375,-0.31402587890625,1,1.0,1.0,1.0,1.0,20.00
2024-09-29 18:19:59.382,1.2807858,0.69862676,0.13792004,1.1299498,1.0341809,0.020990107,-0.09797349,0.90097654,1.1695231,0.17771094,0.25684592,1.2297795,0.37295818,-0.07764314,-0.019963002,0.49006167,0.38487422,-0.2515831,-0.39976314,0.10349561,817.1429,767.5824,789.7436,809.0842,924.7253,-0.05889892578125,0.14141845703125,0.99407958984375,0.11962890625,-1.24114990234375,-0.31402587890625,1,1.0,1.0,1.0,1.0,20.00
2024-09-29 18:19:59.383,1.2807858,0.69862676,0.13792004,1.1299498,1.0341809,0.020990107,-0.09797349,0.90097654,1.1695231,0.17771094,0.25684592,1.2297795,0.37295818,-0.07764314,-0.019963002,0.49006167,0.38487422,-0.2515831,-0.39976314,0.10349561,821.1722,767.98535,790.9524,812.3077,880.0,-0.05889892578125,0.14141845703125,0.99407958984375,0.11962890625,-1.24114990234375,-0.31402587890625,1,1.0,1.0,1.0,1.0,20.00
2024-09-29 18:19:59.383,1.2807858,0.69862676,0.13792004,1.1299498,1.0341809,0.020990107,-0.09797349,0.90097654,1.1695231,0.17771094,0.25684592,1.2297795,0.37295818,-0.07764314,-0.019963002,0.49006167,0.38487422,-0.2515831,-0.39976314,0.10349561,818.7546,769.19415,790.54944,817.1429,1070.989,-0.05889892578125,0.14141845703125,0.99407958984375,0.11962890625,-1.24114990234375,-0.31402587890625,1,1.0,1.0,1.0,1.0,20.00
2024-09-29 18:19:59.384,1.2807858,0.69862676,0.13792004,1.1299498,1.0341809,0.020990107,-0.09797349,0.90097654,1.1695231,0.17771094,0.25684592,1.2297795,0.37295818,-0.07764314,-0.019963002,0.49006167,0.38487422,-0.2515831,-0.39976314,0.10349561,811.0989,770.0,789.34064,814.3223,1047.2161,-0.06085205078125,0.14544677734375,0.99005126953125,0.665435791015625,-1.263580322265625,0.874786376953125,1,1.0,1.0,1.0,1.0,20.00
2024-09-29 18:19:59.384,1.2807858,0.69862676,0.13792004,1.1299498,1.0341809,0.020990107,-0.09797349,0.90097654,1.1695231,0.17771094,0.25684592,1.2297795,0.37295818,-0.07764314,-0.019963002,0.49006167,0.38487422,-0.2515831,-0.39976314,0.10349561,807.0696,764.35895,787.326,800.2198,823.5897,-0.06085205078125,0.14544677734375,0.99005126953125,0.665435791015625,-1.263580322265625,0.874786376953125,1,1.0,1.0,1.0,1.0,20.00
2024-09-29 18:19:59.385,1.2807858,0.69862676,0.13792004,1.1299498,1.0341809,0.020990107,-0.09797349,0.90097654,1.1695231,0.17771094,0.25684592,1.2297795,0.37295818,-0.07764314,-0.019963002,0.49006167,0.38487422,-0.2515831,-0.39976314,0.10349561,814.7253,764.7619,786.9231,790.14655,839.707,-0.06085205078125,0.14544677734375,0.99005126953125,0.665435791015625,-1.263580322265625,0.874786376953125,1,1.0,1.0,1.0,1.0,20.00
2024-09-29 18:19:59.385,1.2807858,0.69862676,0.13792004,1.1299498,1.0341809,0.020990107,-0.09797349,0.90097654,1.1695231,0.17771094,0.25684592,1.2297795,0.37295818,-0.07764314,-0.019963002,0.49006167,0.38487422,-0.2515831,-0.39976314,0.10349561,819.5604,767.98535,784.10254,793.7729,726.4835,-0.06085205078125,0.14544677734375,0.99005126953125,0.665435791015625,-1.263580322265625,0.874786376953125,1,1.0,1.0,1.0,1.0,20.00
2024-09-29 18:19:59.386,1.2807858,0.69862676,0.13792004,1.1299498,1.0341809,0.020990107,-0.09797349,0.90097654,1.1695231,0.17771094,0.25684592,1.2297795,0.37295818,-0.07764314,-0.019963002,0.49006167,0.38487422,-0.2515831,-0.39976314,0.10349561,801.8315,769.59705,780.87915,797.8022,608.022,-0.06085205078125,0.14544677734375,0.99005126953125,0.665435791015625,-1.263580322265625,0.874786376953125,1,1.0,1.0,1.0,1.0,20.00
2024-09-29 18:19:59.387,1.2807858,0.69862676,0.13792004,1.1299498,1.0341809,0.020990107,-0.09797349,0.90097654,1.1695231,0.17771094,0.25684592,1.2297795,0.37295818,-0.07764314,-0.019963002,0.49006167,0.38487422,-0.2515831,-0.39976314,0.10349561,791.3553,770.80585,783.2967,796.1905,707.5458,-0.06085205078125,0.14544677734375,0.99005126953125,0.665435791015625,-1.263580322265625,0.874786376953125,1,1.0,1.0,1.0,1.0,20.00
2024-09-29 18:19:59.387,1.2807858,0.69862676,0.13792004,1.1299498,1.0341809,0.020990107,-0.09797349,0.90097654,1.1695231,0.17771094,0.25684592,1.2297795,0.37295818,-0.07764314,-0.019963002,0.49006167,0.38487422,-0.2515831,-0.39976314,0.10349561,800.2198,771.2088,786.9231,796.5934,865.4945,-0.06085205078125,0.14544677734375,0.99005126953125,0.665435791015625,-1.263580322265625,0.874786376953125,1,1.0,1.0,1.0,1.0,20.00
2024-09-29 18:19:59.388,1.2807858,0.69862676,0.13792004,1.1299498,1.0341809,0.020990107,-0.09797349,0.90097654,1.1695231,0.17771094,0.25684592,1.2297795,0.37295818,-0.07764314,-0.019963002,0.49006167,0.38487422,-0.2515831,-0.39976314,0.10349561,807.0696,774.43225,790.14655,798.20514,774.83514,-0.06085205078125,0.14544677734375,0.99005126953125,0.665435791015625,-1.263580322265625,0.874786376953125,1,1.0,1.0,1.0,1.0,20.00
2024-09-29 18:19:59.388,1.2807858,0.69862676,0.13792004,1.1299498,1.0341809,0.020990107,-0.09797349,0.90097654,1.1695231,0.17771094,0.25684592,1.2297795,0.37295818,-0.07764314,-0.019963002,0.49006167,0.38487422,-0.2515831,-0.39976314,0.10349561,806.6667,774.83514,791.3553,796.5934,568.1319,-0.06085205078125,0.14544677734375,0.99005126953125,0.665435791015625,-1.263580322265625,0.874786376953125,1,1.0,1.0,1.0,1.0,20.00
2024-09-29 18:19:59.389,1.2807858,0.69862676,0.13792004,1.1299498,1.0341809,0.020990107,-0.09797349,0.90097654,1.1695231,0.17771094,0.25684592,1.2297795,0.37295818,-0.07764314,-0.019963002,0.49006167,0.38487422,-0.2515831,-0.39976314,0.10349561,806.6667,772.8205,794.17584,798.60803,616.08057,-0.06085205078125,0.14544677734375,0.99005126953125,0.665435791015625,-1.263580322265625,0.874786376953125,1,1.0,1.0,1.0,1.0,20.00
2024-09-29 18:19:59.389,1.2807858,0.69862676,0.13792004,1.1299498,1.0341809,0.020990107,-0.09797349,0.90097654,1.1695231,0.17771094,0.25684592,1.2297795,0.37295818,-0.07764314,-0.019963002,0.49006167,0.38487422,-0.2515831,-0.39976314,0.10349561,809.0842,775.64105,799.81683,798.20514,760.7326,-0.06085205078125,0.14544677734375,0.99005126953125,0.665435791015625,-1.263580322265625,0.874786376953125,1,1.0,1.0,1.0,1.0,20.00
2024-09-29 18:19:59.390,1.2807858,0.69862676,0.13792004,1.1299498,1.0341809,0.020990107,-0.09797349,0.90097654,1.1695231,0.17771094,0.25684592,1.2297795,0.37295818,-0.07764314,-0.019963002,0.49006167,0.38487422,-0.2515831,-0.39976314,0.10349561,798.20514,774.0293,796.99634,790.14655,853.4066,-0.06085205078125,0.14544677734375,0.99005126953125,0.665435791015625,-1.263580322265625,0.874786376953125,1,1.0,1.0,1.0,1.0,20.00
2024-09-29 18:19:59.509,1.2807858,0.69862676,0.13792004,1.1299498,1.0341809,0.020990107,-0.09797349,0.90097654,1.1695231,0.17771094,0.25684592,1.2297795,0.37295818,-0.07764314,-0.019963002,0.49006167,0.38487422,-0.2515831,-0.39976314,0.10349561,799.41394,770.40295,793.36993,784.10254,764.7619,-0.06390380859375,0.1512451171875,0.999755859375,0.276641845703125,-0.88226318359375,1.413116455078125,1,1.0,1.0,1.0,1.0,20.00
2024-09-29 18:19:59.510,1.2807858,0.69862676,0.13792004,1.1299498,1.0341809,0.020990107,-0.09797349,0.90097654,1.1695231,0.17771094,0.25684592,1.2297795,0.37295818,-0.07764314,-0.019963002,0.49006167,0.38487422,-0.2515831,-0.39976314,0.10349561,806.26373,768.7912,792.1612,790.14655,616.8865,-0.06390380859375,0.1512451171875,0.999755859375,0.276641845703125,-0.88226318359375,1.413116455078125,1,1.0,1.0,1.0,1.0,20.00
2024-09-29 18:19:59.511,1.2807858,0.69862676,0.13792004,1.1299498,1.0341809,0.020990107,-0.09797349,0.90097654,1.1695231,0.17771094,0.25684592,1.2297795,0.37295818,-0.07764314,-0.019963002,0.49006167,0.38487422,-0.2515831,-0.39976314,0.10349561,804.2491,762.74725,789.7436,799.41394,794.9817,-0.06390380859375,0.1512451171875,0.999755859375,0.276641845703125,-0.88226318359375,1.413116455078125,1,1.0,1.0,1.0,1.0,20.00
2024-09-29 18:19:59.511,1.2807858,0.69862676,0.13792004,1.1299498,1.0341809,0.020990107,-0.09797349,0.90097654,1.1695231,0.17771094,0.25684592,1.2297795,0.37295818,-0.07764314,-0.019963002,0.49006167,0.38487422,-0.2515831,-0.39976314,0.10349561,810.696,763.5531,793.7729,807.8755,810.696,-0.06390380859375,0.1512451171875,0.999755859375,0.276641845703125,-0.88226318359375,1.413116455078125,1,1.0,1.0,1.0,1.0,20.00
2024-09-29 18:19:59.512,1.2807858,0.69862676,0.13792004,1.1299498,1.0341809,0.020990107,-0.09797349,0.90097654,1.1695231,0.17771094,0.25684592,1.2297795,0.37295818,-0.07764314,-0.019963002,0.49006167,0.38487422,-0.2515831,-0.39976314,0.10349561,812.71063,768.3883,795.38464,812.3077,628.1685,-0.06390380859375,0.1512451171875,0.999755859375,0.276641845703125,-0.88226318359375,1.413116455078125,1,1.0,1.0,1.0,1.0,20.00
2024-09-29 18:19:59.512,1.2807858,0.69862676,0.13792004,1.1299498,1.0341809,0.020990107,-0.09797349,0.90097654,1.1695231,0.17771094,0.25684592,1.2297795,0.37295818,-0.07764314,-0.019963002,0.49006167,0.38487422,-0.2515831,-0.39976314,0.10349561,807.47253,770.0,792.1612,814.3223,770.40295,-0.06390380859375,0.1512451171875,0.999755859375,0.276641845703125,-0.88226318359375,1.413116455078125,1,1.0,1.0,1.0,1.0,20.00
2024-09-29 18:19:59.513,1.2807858,0.69862676,0.13792004,1.1299498,1.0341809,0.020990107,-0.09797349,0.90097654,1.1695231,0.17771094,0.25684592,1.2297795,0.37295818,-0.07764314,-0.019963002,0.49006167,0.38487422,-0.2515831,-0.39976314,0.10349561,805.4579,770.0,793.36993,823.5897,1140.6959,-0.06390380859375,0.1512451171875,0.999755859375,0.276641845703125,-0.88226318359375,1.413116455078125,1,1.0,1.0,1.0,1.0,20.00
2024-09-29 18:19:59.513,1.2807858,0.7155737,0.13780893,1.0712439,1.0341809,-1.9681644E-4,-0.10224175,0.85044515,1.1695231,0.17771094,0.25684592,1.2412891,0.37295818,-0.08935589,-0.03739428,0.4783276,0.38487422,-0.2763525,-0.41031584,0.108248144,809.0842,767.98535,794.9817,825.2015,948.9011,-0.06390380859375,0.1512451171875,0.999755859375,0.276641845703125,-0.88226318359375,1.413116455078125,1,1.0,1.0,1.0,1.0,20.00
2024-09-29 18:19:59.517,1.2807858,0.7155737,0.13780893,1.0712439,1.0341809,-1.9681644E-4,-0.10224175,0.85044515,1.1695231,0.17771094,0.25684592,1.2412891,0.37295818,-0.08935589,-0.03739428,0.4783276,0.38487422,-0.2763525,-0.41031584,0.108248144,813.5165,768.7912,794.9817,823.9927,610.4396,-0.06390380859375,0.1512451171875,0.999755859375,0.276641845703125,-0.88226318359375,1.413116455078125,1,1.0,1.0,1.0,1.0,20.00
2024-09-29 18:19:59.518,1.2807858,0.7155737,0.13780893,1.0712439,1.0341809,-1.9681644E-4,-0.10224175,0.85044515,1.1695231,0.17771094,0.25684592,1.2412891,0.37295818,-0.08935589,-0.03739428,0.4783276,0.38487422,-0.2763525,-0.41031584,0.108248144,810.293,768.7912,791.75824,821.978,534.2857,-0.06390380859375,0.1512451171875,0.999755859375,0.276641845703125,-0.88226318359375,1.413116455078125,1,1.0,1.0,1.0,1.0,20.00
2024-09-29 18:19:59.518,1.2807858,0.7155737,0.13780893,1.0712439,1.0341809,-1.9681644E-4,-0.10224175,0.85044515,1.1695231,0.17771094,0.25684592,1.2412891,0.37295818,-0.08935589,-0.03739428,0.4783276,0.38487422,-0.2763525,-0.41031584,0.108248144,807.0696,767.1795,787.326,822.7839,959.3773,-0.06390380859375,0.1512451171875,0.999755859375,0.276641845703125,-0.88226318359375,1.413116455078125,1,1.0,1.0,1.0,1.0,20.00
2024-09-29 18:19:59.519,1.2807858,0.7155737,0.13780893,1.0712439,1.0341809,-1.9681644E-4,-0.10224175,0.85044515,1.1695231,0.17771094,0.25684592,1.2412891,0.37295818,-0.08935589,-0.03739428,0.4783276,0.38487422,-0.2763525,-0.41031584,0.108248144,806.6667,769.19415,787.72894,822.7839,1264.7986,-0.06390380859375,0.1512451171875,0.999755859375,0.276641845703125,-0.88226318359375,1.413116455078125,1,1.0,1.0,1.0,1.0,20.00
2024-09-29 18:19:59.543,1.2807858,0.7155737,0.13780893,1.0712439,1.0341809,-1.9681644E-4,-0.10224175,0.85044515,1.1695231,0.17771094,0.25684592,1.2412891,0.37295818,-0.08935589,-0.03739428,0.4783276,0.38487422,-0.2763525,-0.41031584,0.108248144,805.05493,770.80585,786.9231,805.05493,759.5238,-0.06707763671875,0.14996337890625,0.9964599609375,-0.171966552734375,-0.16448974609375,1.00189208984375,1,1.0,1.0,1.0,1.0,20.00
2024-09-29 18:19:59.544,1.2807858,0.7155737,0.13780893,1.0712439,1.0341809,-1.9681644E-4,-0.10224175,0.85044515,1.1695231,0.17771094,0.25684592,1.2412891,0.37295818,-0.08935589,-0.03739428,0.4783276,0.38487422,-0.2763525,-0.41031584,0.108248144,806.6667,765.16486,788.93774,795.78754,597.5458,-0.06707763671875,0.14996337890625,0.9964599609375,-0.171966552734375,-0.16448974609375,1.00189208984375,1,1.0,1.0,1.0,1.0,20.00
2024-09-29 18:19:59.544,1.2807858,0.7155737,0.13780893,1.0712439,1.0341809,-1.9681644E-4,-0.10224175,0.85044515,1.1695231,0.17771094,0.25684592,1.2412891,0.37295818,-0.08935589,-0.03739428,0.4783276,0.38487422,-0.2763525,-0.41031584,0.108248144,805.4579,761.9414,789.7436,800.6227,910.2198,-0.06707763671875,0.14996337890625,0.9964599609375,-0.171966552734375,-0.16448974609375,1.00189208984375,1,1.0,1.0,1.0,1.0,20.00
2024-09-29 18:19:59.545,1.2807858,0.7155737,0.13780893,1.0712439,1.0341809,-1.9681644E-4,-0.10224175,0.85044515,1.1695231,0.17771094,0.25684592,1.2412891,0.37295818,-0.08935589,-0.03739428,0.4783276,0.38487422,-0.2763525,-0.41031584,0.108248144,808.68134,770.0,785.7143,801.8315,925.5311,-0.06707763671875,0.14996337890625,0.9964599609375,-0.171966552734375,-0.16448974609375,1.00189208984375,1,1.0,1.0,1.0,1.0,20.00
2024-09-29 18:19:59.545,1.2807858,0.7155737,0.13780893,1.0712439,1.0341809,-1.9681644E-4,-0.10224175,0.85044515,1.1695231,0.17771094,0.25684592,1.2412891,0.37295818,-0.08935589,-0.03739428,0.4783276,0.38487422,-0.2763525,-0.41031584,0.108248144,798.20514,770.0,785.31134,795.38464,727.28937,-0.06707763671875,0.14996337890625,0.9964599609375,-0.171966552734375,-0.16448974609375,1.00189208984375,1,1.0,1.0,1.0,1.0,20.00
2024-09-29 18:19:59.546,1.2807858,0.7155737,0.13780893,1.0712439,1.0341809,-1.9681644E-4,-0.10224175,0.85044515,1.1695231,0.17771094,0.25684592,1.2412891,0.37295818,-0.08935589,-0.03739428,0.4783276,0.38487422,-0.2763525,-0.41031584,0.108248144,794.9817,763.95605,786.52014,796.1905,837.6923,-0.06707763671875,0.14996337890625,0.9964599609375,-0.171966552734375,-0.16448974609375,1.00189208984375,1,1.0,1.0,1.0,1.0,20.00
2024-09-29 18:19:59.546,1.2807858,0.7155737,0.13780893,1.0712439,1.0341809,-1.9681644E-4,-0.10224175,0.85044515,1.1695231,0.17771094,0.25684592,1.2412891,0.37295818,-0.08935589,-0.03739428,0.4783276,0.38487422,-0.2763525,-0.41031584,0.108248144,807.0696,764.35895,789.7436,803.44324,977.9121,-0.06707763671875,0.14996337890625,0.9964599609375,-0.171966552734375,-0.16448974609375,1.00189208984375,1,1.0,1.0,1.0,1.0,20.00
2024-09-29 18:19:59.547,1.2807858,0.7155737,0.13780893,1.0712439,1.0341809,-1.9681644E-4,-0.10224175,0.85044515,1.1695231,0.17771094,0.25684592,1.2412891,0.37295818,-0.08935589,-0.03739428,0.4783276,0.38487422,-0.2763525,-0.41031584,0.108248144,815.12823,766.3736,794.57874,805.8608,863.47986,-0.06707763671875,0.14996337890625,0.9964599609375,-0.171966552734375,-0.16448974609375,1.00189208984375,1,1.0,1.0,1.0,1.0,20.00
2024-09-29 18:19:59.547,1.2807858,0.7155737,0.13780893,1.0712439,1.0341809,-1.9681644E-4,-0.10224175,0.85044515,1.1695231,0.17771094,0.25684592,1.2412891,0.37295818,-0.08935589,-0.03739428,0.4783276,0.38487422,-0.2763525,-0.41031584,0.108248144,815.5311,767.1795,796.5934,809.89014,663.22345,-0.06707763671875,0.14996337890625,0.9964599609375,-0.171966552734375,-0.16448974609375,1.00189208984375,1,1.0,1.0,1.0,1.0,20.00
2024-09-29 18:19:59.548,1.2807858,0.7155737,0.13780893,1.0712439,1.0341809,-1.9681644E-4,-0.10224175,0.85044515,1.1695231,0.17771094,0.25684592,1.2412891,0.37295818,-0.08935589,-0.03739428,0.4783276,0.38487422,-0.2763525,-0.41031584,0.108248144,809.89014,765.16486,793.36993,804.65204,604.3956,-0.06707763671875,0.14996337890625,0.9964599609375,-0.171966552734375,-0.16448974609375,1.00189208984375,1,1.0,1.0,1.0,1.0,20.00
2024-09-29 18:19:59.548,1.2807858,0.7155737,0.13780893,1.0712439,1.0341809,-1.9681644E-4,-0.10224175,0.85044515,1.1695231,0.17771094,0.25684592,1.2412891,0.37295818,-0.08935589,-0.03739428,0.4783276,0.38487422,-0.2763525,-0.41031584,0.108248144,813.5165,765.16486,793.36993,801.02563,650.32965,-0.06707763671875,0.14996337890625,0.9964599609375,-0.171966552734375,-0.16448974609375,1.00189208984375,1,1.0,1.0,1.0,1.0,20.00
2024-09-29 18:19:59.549,1.2807858,0.7155737,0.13780893,1.0712439,1.0341809,-1.9681644E-4,-0.10224175,0.85044515,1.1695231,0.17771094,0.25684592,1.2412891,0.37295818,-0.08935589,-0.03739428,0.4783276,0.38487422,-0.2763525,-0.41031584,0.108248144,812.3077,765.56775,796.1905,804.65204,622.1245,-0.06707763671875,0.14996337890625,0.9964599609375,-0.171966552734375,-0.16448974609375,1.00189208984375,1,1.0,1.0,1.0,1.0,20.00
2024-09-29 18:19:59.549,1.2807858,0.7155737,0.13780893,1.0712439,1.0341809,-1.9681644E-4,-0.10224175,0.85044515,1.1695231,0.17771094,0.25684592,1.2412891,0.37295818,-0.08935589,-0.03739428,0.4783276,0.38487422,-0.2763525,-0.41031584,0.108248144,809.89014,761.9414,797.8022,806.26373,724.4689,-0.06707763671875,0.14996337890625,0.9964599609375,-0.171966552734375,-0.16448974609375,1.00189208984375,1,1.0,1.0,1.0,1.0,20.00
2024-09-29 18:19:59.550,1.2807858,0.7155737,0.13780893,1.0712439,1.0341809,-1.9681644E-4,-0.10224175,0.85044515,1.1695231,0.17771094,0.25684592,1.2412891,0.37295818,-0.08935589,-0.03739428,0.4783276,0.38487422,-0.2763525,-0.41031584,0.108248144,813.91943,764.7619,796.5934,808.2784,821.5751,-0.06707763671875,0.14996337890625,0.9964599609375,-0.171966552734375,-0.16448974609375,1.00189208984375,1,1.0,1.0,1.0,1.0,20.00
2024-09-29 18:19:59.550,1.2807858,0.7155737,0.13780893,1.0712439,1.0341809,-1.9681644E-4,-0.10224175,0.85044515,1.1695231,0.17771094,0.25684592,1.2412891,0.37295818,-0.08935589,-0.03739428,0.4783276,0.38487422,-0.2763525,-0.41031584,0.108248144,815.12823,768.7912,792.5641,809.89014,746.63007,-0.06707763671875,0.14996337890625,0.9964599609375,-0.171966552734375,-0.16448974609375,1.00189208984375,1,1.0,1.0,1.0,1.0,20.00
2024-09-29 18:19:59.551,1.2807858,0.7155737,0.13780893,1.0712439,1.0341809,-1.9681644E-4,-0.10224175,0.85044515,1.1695231,0.17771094,0.25684592,1.2412891,0.37295818,-0.08935589,-0.03739428,0.4783276,0.38487422,-0.2763525,-0.41031584,0.108248144,808.68134,769.19415,791.3553,805.4579,688.20514,-0.06707763671875,0.14996337890625,0.9964599609375,-0.171966552734375,-0.16448974609375,1.00189208984375,1,1.0,1.0,1.0,1.0,20.00
2024-09-29 18:19:59.551,1.2807858,0.7155737,0.13780893,1.0712439,1.0341809,-1.9681644E-4,-0.10224175,0.85044515,1.1695231,0.17771094,0.25684592,1.2412891,0.37295818,-0.08935589,-0.03739428,0.4783276,0.38487422,-0.2763525,-0.41031584,0.108248144,808.2784,767.1795,790.54944,811.9048,793.36993,-0.06707763671875,0.14996337890625,0.9964599609375,-0.171966552734375,-0.16448974609375,1.00189208984375,1,1.0,1.0,1.0,1.0,20.00
2024-09-29 18:19:59.552,1.2807858,0.7155737,0.13780893,1.0712439,1.0341809,-1.9681644E-4,-0.10224175,0.85044515,1.1695231,0.17771094,0.25684592,1.2412891,0.37295818,-0.08935589,-0.03739428,0.4783276,0.38487422,-0.2763525,-0.41031584,0.108248144,813.5165,768.7912,792.96704,815.5311,923.5165,-0.06707763671875,0.14996337890625,0.9964599609375,-0.171966552734375,-0.16448974609375,1.00189208984375,1,1.0,1.0,1.0,1.0,20.00
2024-09-29 18:19:59.553,1.2807858,0.7155737,0.13780893,1.0712439,1.0341809,-1.9681644E-4,-0.10224175,0.85044515,1.1695231,0.17771094,0.25684592,1.2412891,0.37295818,-0.08935589,-0.03739428,0.4783276,0.38487422,-0.2763525,-0.41031584,0.108248144,815.12823,772.01465,797.8022,815.12823,842.52747,-0.06707763671875,0.14996337890625,0.9964599609375,-0.171966552734375,-0.16448974609375,1.00189208984375,1,1.0,1.0,1.0,1.0,20.00
2024-09-29 18:19:59.554,1.2807858,0.7155737,0.13780893,1.0712439,1.0341809,-1.9681644E-4,-0.10224175,0.85044515,1.1695231,0.17771094,0.25684592,1.2412891,0.37295818,-0.08935589,-0.03739428,0.4783276,0.38487422,-0.2763525,-0.41031584,0.108248144,816.337,770.80585,799.011,818.7546,770.0,-0.06707763671875,0.14996337890625,0.9964599609375,-0.171966552734375,-0.16448974609375,1.00189208984375,1,1.0,1.0,1.0,1.0,20.00
2024-09-29 18:19:59.555,1.2807858,0.7155737,0.13780893,1.0712439,1.0341809,-1.9681644E-4,-0.10224175,0.85044515,1.1695231,0.17771094,0.25684592,1.2412891,0.37295818,-0.08935589,-0.03739428,0.4783276,0.38487422,-0.2763525,-0.41031584,0.108248144,816.7399,767.98535,791.75824,818.7546,859.85345,-0.06707763671875,0.14996337890625,0.9964599609375,-0.171966552734375,-0.16448974609375,1.00189208984375,1,1.0,1.0,1.0,1.0,20.00
2024-09-29 18:19:59.556,1.2013972,0.7289626,0.119973354,1.01291,0.9487509,-0.023555817,-0.10974013,0.81627154,1.3525895,0.17771094,0.25684592,1.2832491,0.39255765,-0.094308354,-0.05094305,0.4694674,0.35933048,-0.30671892,-0.41942012,0.10394324,819.9634,772.8205,791.75824,819.9634,1035.5311,-0.06707763671875,0.14996337890625,0.9964599609375,-0.171966552734375,-0.16448974609375,1.00189208984375,1,1.0,1.0,1.0,1.0,20.00
2024-09-29 18:19:59.560,1.2013972,0.7289626,0.119973354,1.01291,0.9487509,-0.023555817,-0.10974013,0.81627154,1.3525895,0.17771094,0.25684592,1.2832491,0.39255765,-0.094308354,-0.05094305,0.4694674,0.35933048,-0.30671892,-0.41942012,0.10394324,812.3077,780.07324,796.1905,817.9487,873.5531,-0.06707763671875,0.14996337890625,0.9964599609375,-0.171966552734375,-0.16448974609375,1.00189208984375,1,1.0,1.0,1.0,1.0,20.00
2024-09-29 18:19:59.561,1.2013972,0.7289626,0.119973354,1.01291,0.9487509,-0.023555817,-0.10974013,0.81627154,1.3525895,0.17771094,0.25684592,1.2832491,0.39255765,-0.094308354,-0.05094305,0.4694674,0.35933048,-0.30671892,-0.41942012,0.10394324,806.26373,775.64105,792.1612,820.7692,693.44324,-0.06707763671875,0.14996337890625,0.9964599609375,-0.171966552734375,-0.16448974609375,1.00189208984375,1,1.0,1.0,1.0,1.0,20.00
2024-09-29 18:19:59.587,1.2013972,0.7289626,0.119973354,1.01291,0.9487509,-0.023555817,-0.10974013,0.81627154,1.3525895,0.17771094,0.25684592,1.2832491,0.39255765,-0.094308354,-0.05094305,0.4694674,0.35933048,-0.30671892,-0.41942012,0.10394324,803.0403,771.2088,789.34064,817.1429,879.59705,-0.0760498046875,0.143798828125,0.99102783203125,-0.456085205078125,-0.11962890625,0.3289794921875,1,1.0,1.0,1.0,1.0,20.00
2024-09-29 18:19:59.588,1.2013972,0.7289626,0.119973354,1.01291,0.9487509,-0.023555817,-0.10974013,0.81627154,1.3525895,0.17771094,0.25684592,1.2832491,0.39255765,-0.094308354,-0.05094305,0.4694674,0.35933048,-0.30671892,-0.41942012,0.10394324,799.81683,770.80585,789.34064,796.5934,1035.9341,-0.0760498046875,0.143798828125,0.99102783203125,-0.456085205078125,-0.11962890625,0.3289794921875,1,1.0,1.0,1.0,1.0,20.00
2024-09-29 18:19:59.589,1.2013972,0.7289626,0.119973354,1.01291,0.9487509,-0.023555817,-0.10974013,0.81627154,1.3525895,0.17771094,0.25684592,1.2832491,0.39255765,-0.094308354,-0.05094305,0.4694674,0.35933048,-0.30671892,-0.41942012,0.10394324,801.8315,774.83514,790.54944,791.3553,868.71796,-0.0760498046875,0.143798828125,0.99102783203125,-0.456085205078125,-0.11962890625,0.3289794921875,1,1.0,1.0,1.0,1.0,20.00
2024-09-29 18:19:59.590,1.2013972,0.7289626,0.119973354,1.01291,0.9487509,-0.023555817,-0.10974013,0.81627154,1.3525895,0.17771094,0.25684592,1.2832491,0.39255765,-0.094308354,-0.05094305,0.4694674,0.35933048,-0.30671892,-0.41942012,0.10394324,789.7436,774.83514,789.7436,795.78754,739.3773,-0.0760498046875,0.143798828125,0.99102783203125,-0.456085205078125,-0.11962890625,0.3289794921875,1,1.0,1.0,1.0,1.0,20.00
2024-09-29 18:19:59.590,1.2013972,0.7289626,0.119973354,1.01291,0.9487509,-0.023555817,-0.10974013,0.81627154,1.3525895,0.17771094,0.25684592,1.2832491,0.39255765,-0.094308354,-0.05094305,0.4694674,0.35933048,-0.30671892,-0.41942012,0.10394324,783.69965,768.3883,789.34064,800.2198,856.63007,-0.0760498046875,0.143798828125,0.99102783203125,-0.456085205078125,-0.11962890625,0.3289794921875,1,1.0,1.0,1.0,1.0,20.00
2024-09-29 18:19:59.592,1.2013972,0.7289626,0.119973354,1.01291,0.9487509,-0.023555817,-0.10974013,0.81627154,1.3525895,0.17771094,0.25684592,1.2832491,0.39255765,-0.094308354,-0.05094305,0.4694674,0.35933048,-0.30671892,-0.41942012,0.10394324,801.02563,772.4176,793.36993,803.0403,1102.8206,-0.0760498046875,0.143798828125,0.99102783203125,-0.456085205078125,-0.11962890625,0.3289794921875,1,1.0,1.0,1.0,1.0,20.00
2024-09-29 18:19:59.592,1.2013972,0.7289626,0.119973354,1.01291,0.9487509,-0.023555817,-0.10974013,0.81627154,1.3525895,0.17771094,0.25684592,1.2832491,0.39255765,-0.094308354,-0.05094305,0.4694674,0.35933048,-0.30671892,-0.41942012,0.10394324,809.0842,774.43225,795.78754,801.8315,996.8498,-0.0760498046875,0.143798828125,0.99102783203125,-0.456085205078125,-0.11962890625,0.3289794921875,1,1.0,1.0,1.0,1.0,20.00
2024-09-29 18:19:59.593,1.2013972,0.7289626,0.119973354,1.01291,0.9487509,-0.023555817,-0.10974013,0.81627154,1.3525895,0.17771094,0.25684592,1.2832491,0.39255765,-0.094308354,-0.05094305,0.4694674,0.35933048,-0.30671892,-0.41942012,0.10394324,809.0842,771.2088,798.20514,800.6227,804.2491,-0.0760498046875,0.143798828125,0.99102783203125,-0.456085205078125,-0.11962890625,0.3289794921875,1,1.0,1.0,1.0,1.0,20.00
2024-09-29 18:19:59.594,1.2013972,0.7289626,0.119973354,1.01291,0.9487509,-0.023555817,-0.10974013,0.81627154,1.3525895,0.17771094,0.25684592,1.2832491,0.39255765,-0.094308354,-0.05094305,0.4694674,0.35933048,-0.30671892,-0.41942012,0.10394324,808.68134,773.6264,798.60803,802.6374,976.7033,-0.0760498046875,0.143798828125,0.99102783203125,-0.456085205078125,-0.11962890625,0.3289794921875,1,1.0,1.0,1.0,1.0,20.00
2024-09-29 18:19:59.595,1.2013972,0.7289626,0.119973354,1.01291,0.9487509,-0.023555817,-0.10974013,0.81627154,1.3525895,0.17771094,0.25684592,1.2832491,0.39255765,-0.094308354,-0.05094305,0.4694674,0.35933048,-0.30671892,-0.41942012,0.10394324,807.0696,776.04395,795.78754,811.0989,1263.9927,-0.0760498046875,0.143798828125,0.99102783203125,-0.456085205078125,-0.11962890625,0.3289794921875,1,1.0,1.0,1.0,1.0,20.00
2024-09-29 18:19:59.596,1.2013972,0.7289626,0.119973354,1.01291,0.9487509,-0.023555817,-0.10974013,0.81627154,1.3525895,0.17771094,0.25684592,1.2832491,0.39255765,-0.094308354,-0.05094305,0.4694674,0.35933048,-0.30671892,-0.41942012,0.10394324,805.4579,776.8498,794.17584,818.7546,1379.6337,-0.0760498046875,0.143798828125,0.99102783203125,-0.456085205078125,-0.11962890625,0.3289794921875,1,1.0,1.0,1.0,1.0,20.00
2024-09-29 18:19:59.597,1.2013972,0.7289626,0.119973354,1.01291,0.9487509,-0.023555817,-0.10974013,0.81627154,1.3525895,0.17771094,0.25684592,1.2832491,0.39255765,-0.094308354,-0.05094305,0.4694674,0.35933048,-0.30671892,-0.41942012,0.10394324,797.3993,778.86444,790.14655,816.337,1217.6556,-0.0760498046875,0.143798828125,0.99102783203125,-0.456085205078125,-0.11962890625,0.3289794921875,1,1.0,1.0,1.0,1.0,20.00
2024-09-29 18:19:59.662,1.2013972,0.7289626,0.119973354,1.01291,0.9487509,-0.023555817,-0.10974013,0.81627154,1.3525895,0.17771094,0.25684592,1.2832491,0.39255765,-0.094308354,-0.05094305,0.4694674,0.35933048,-0.30671892,-0.41942012,0.10394324,794.9817,774.83514,788.1319,805.05493,940.84247,-0.07562255859375,0.14190673828125,1.00018310546875,-0.299072265625,-0.800018310546875,-0.291595458984375,1,1.0,1.0,1.0,1.0,20.00
2024-09-29 18:19:59.663,1.2013972,0.7289626,0.119973354,1.01291,0.9487509,-0.023555817,-0.10974013,0.81627154,1.3525895,0.17771094,0.25684592,1.2832491,0.39255765,-0.094308354,-0.05094305,0.4694674,0.35933048,-0.30671892,-0.41942012,0.10394324,800.6227,775.64105,791.75824,801.4286,839.304,-0.07562255859375,0.14190673828125,1.00018310546875,-0.299072265625,-0.800018310546875,-0.291595458984375,1,1.0,1.0,1.0,1.0,20.00
2024-09-29 18:19:59.663,1.2013972,0.7289626,0.119973354,1.01291,0.9487509,-0.023555817,-0.10974013,0.81627154,1.3525895,0.17771094,0.25684592,1.2832491,0.39255765,-0.094308354,-0.05094305,0.4694674,0.35933048,-0.30671892,-0.41942012,0.10394324,800.2198,774.0293,794.17584,801.8315,687.3993,-0.07562255859375,0.14190673828125,1.00018310546875,-0.299072265625,-0.800018310546875,-0.291595458984375,1,1.0,1.0,1.0,1.0,20.00
2024-09-29 18:19:59.664,1.2013972,0.7289626,0.119973354,1.01291,0.9487509,-0.023555817,-0.10974013,0.81627154,1.3525895,0.17771094,0.25684592,1.2832491,0.39255765,-0.094308354,-0.05094305,0.4694674,0.35933048,-0.30671892,-0.41942012,0.10394324,805.4579,774.0293,791.3553,803.44324,611.6484,-0.07562255859375,0.14190673828125,1.00018310546875,-0.299072265625,-0.800018310546875,-0.291595458984375,1,1.0,1.0,1.0,1.0,20.00
2024-09-29 18:19:59.665,1.2013972,0.7289626,0.119973354,1.01291,0.9487509,-0.023555817,-0.10974013,0.81627154,1.3525895,0.17771094,0.25684592,1.2832491,0.39255765,-0.094308354,-0.05094305,0.4694674,0.35933048,-0.30671892,-0.41942012,0.10394324,806.26373,778.86444,790.9524,810.696,766.77655,-0.07562255859375,0.14190673828125,1.00018310546875,-0.299072265625,-0.800018310546875,-0.291595458984375,1,1.0,1.0,1.0,1.0,20.00
2024-09-29 18:19:59.665,1.2013972,0.7289626,0.119973354,1.01291,0.9487509,-0.023555817,-0.10974013,0.81627154,1.3525895,0.17771094,0.25684592,1.2832491,0.39255765,-0.094308354,-0.05094305,0.4694674,0.35933048,-0.30671892,-0.41942012,0.10394324,806.6667,782.49084,790.9524,810.696,883.22345,-0.07562255859375,0.14190673828125,1.00018310546875,-0.299072265625,-0.800018310546875,-0.291595458984375,1,1.0,1.0,1.0,1.0,20.00
2024-09-29 18:19:59.666,1.2013972,0.7289626,0.119973354,1.01291,0.9487509,-0.023555817,-0.10974013,0.81627154,1.3525895,0.17771094,0.25684592,1.2832491,0.39255765,-0.094308354,-0.05094305,0.4694674,0.35933048,-0.30671892,-0.41942012,0.10394324,812.71063,787.326,789.34064,802.23444,830.0366,-0.07562255859375,0.14190673828125,1.00018310546875,-0.299072265625,-0.800018310546875,-0.291595458984375,1,1.0,1.0,1.0,1.0,20.00
2024-09-29 18:19:59.666,1.2013972,0.7289626,0.119973354,1.01291,0.9487509,-0.023555817,-0.10974013,0.81627154,1.3525895,0.17771094,0.25684592,1.2832491,0.39255765,-0.094308354,-0.05094305,0.4694674,0.35933048,-0.30671892,-0.41942012,0.10394324,808.68134,784.5055,789.34064,796.5934,671.685,-0.07562255859375,0.14190673828125,1.00018310546875,-0.299072265625,-0.800018310546875,-0.291595458984375,1,1.0,1.0,1.0,1.0,20.00
2024-09-29 18:19:59.667,1.2013972,0.7289626,0.119973354,1.01291,0.9487509,-0.023555817,-0.10974013,0.81627154,1.3525895,0.17771094,0.25684592,1.2832491,0.39255765,-0.094308354,-0.05094305,0.4694674,0.35933048,-0.30671892,-0.41942012,0.10394324,802.6374,784.90845,793.36993,802.23444,763.95605,-0.07562255859375,0.14190673828125,1.00018310546875,-0.299072265625,-0.800018310546875,-0.291595458984375,1,1.0,1.0,1.0,1.0,20.00
2024-09-29 18:19:59.668,1.2013972,0.7289626,0.119973354,1.01291,0.9487509,-0.023555817,-0.10974013,0.81627154,1.3525895,0.17771094,0.25684592,1.2832491,0.39255765,-0.094308354,-0.05094305,0.4694674,0.35933048,-0.30671892,-0.41942012,0.10394324,803.44324,785.31134,795.78754,806.6667,748.6447,-0.07562255859375,0.14190673828125,1.00018310546875,-0.299072265625,-0.800018310546875,-0.291595458984375,1,1.0,1.0,1.0,1.0,20.00
2024-09-29 18:19:59.668,1.2013972,0.7289626,0.119973354,1.01291,0.9487509,-0.023555817,-0.10974013,0.81627154,1.3525895,0.17771094,0.25684592,1.2832491,0.39255765,-0.094308354,-0.05094305,0.4694674,0.35933048,-0.30671892,-0.41942012,0.10394324,809.0842,782.49084,795.78754,806.6667,749.0476,-0.07562255859375,0.14190673828125,1.00018310546875,-0.299072265625,-0.800018310546875,-0.291595458984375,1,1.0,1.0,1.0,1.0,20.00
2024-09-29 18:19:59.669,1.1339394,0.7162782,0.0976812,0.9635561,0.8814729,-0.04295356,-0.12328761,0.7849436,1.3684938,0.17771094,0.25684592,1.329714,0.41550124,-0.09752147,-0.060190737,0.4683987,0.34238297,-0.34788632,-0.42748818,0.09637475,816.337,788.93774,794.9817,796.99634,873.1502,-0.07562255859375,0.14190673828125,1.00018310546875,-0.299072265625,-0.800018310546875,-0.291595458984375,1,1.0,1.0,1.0,1.0,20.00
2024-09-29 18:19:59.674,1.1339394,0.7162782,0.0976812,0.9635561,0.8814729,-0.04295356,-0.12328761,0.7849436,1.3684938,0.17771094,0.25684592,1.329714,0.41550124,-0.09752147,-0.060190737,0.4683987,0.34238297,-0.34788632,-0.42748818,0.09637475,807.47253,788.93774,791.3553,790.14655,784.10254,-0.0760498046875,0.1357421875,0.99493408203125,0.545806884765625,-1.016845703125,-0.725250244140625,1,1.0,1.0,1.0,1.0,20.00
2024-09-29 18:19:59.675,1.1339394,0.7162782,0.0976812,0.9635561,0.8814729,-0.04295356,-0.12328761,0.7849436,1.3684938,0.17771094,0.25684592,1.329714,0.41550124,-0.09752147,-0.060190737,0.4683987,0.34238297,-0.34788632,-0.42748818,0.09637475,801.02563,784.90845,792.1612,794.17584,726.8865,-0.0760498046875,0.1357421875,0.99493408203125,0.545806884765625,-1.016845703125,-0.725250244140625,1,1.0,1.0,1.0,1.0,20.00
2024-09-29 18:19:59.675,1.1339394,0.7162782,0.0976812,0.9635561,0.8814729,-0.04295356,-0.12328761,0.7849436,1.3684938,0.17771094,0.25684592,1.329714,0.41550124,-0.09752147,-0.060190737,0.4683987,0.34238297,-0.34788632,-0.42748818,0.09637475,801.8315,784.90845,791.75824,793.7729,740.989,-0.0760498046875,0.1357421875,0.99493408203125,0.545806884765625,-1.016845703125,-0.725250244140625,1,1.0,1.0,1.0,1.0,20.00
2024-09-29 18:19:59.676,1.1339394,0.7162782,0.0976812,0.9635561,0.8814729,-0.04295356,-0.12328761,0.7849436,1.3684938,0.17771094,0.25684592,1.329714,0.41550124,-0.09752147,-0.060190737,0.4683987,0.34238297,-0.34788632,-0.42748818,0.09637475,809.4872,786.9231,792.1612,801.02563,688.60803,-0.0760498046875,0.1357421875,0.99493408203125,0.545806884765625,-1.016845703125,-0.725250244140625,1,1.0,1.0,1.0,1.0,20.00
2024-09-29 18:19:59.677,1.1339394,0.7162782,0.0976812,0.9635561,0.8814729,-0.04295356,-0.12328761,0.7849436,1.3684938,0.17771094,0.25684592,1.329714,0.41550124,-0.09752147,-0.060190737,0.4683987,0.34238297,-0.34788632,-0.42748818,0.09637475,806.26373,781.685,794.17584,815.9341,936.8132,-0.0760498046875,0.1357421875,0.99493408203125,0.545806884765625,-1.016845703125,-0.725250244140625,1,1.0,1.0,1.0,1.0,20.00
2024-09-29 18:19:59.677,1.1339394,0.7162782,0.0976812,0.9635561,0.8814729,-0.04295356,-0.12328761,0.7849436,1.3684938,0.17771094,0.25684592,1.329714,0.41550124,-0.09752147,-0.060190737,0.4683987,0.34238297,-0.34788632,-0.42748818,0.09637475,794.57874,782.0879,794.57874,809.0842,957.76556,-0.0760498046875,0.1357421875,0.99493408203125,0.545806884765625,-1.016845703125,-0.725250244140625,1,1.0,1.0,1.0,1.0,20.00
2024-09-29 18:19:59.678,1.1339394,0.7162782,0.0976812,0.9635561,0.8814729,-0.04295356,-0.12328761,0.7849436,1.3684938,0.17771094,0.25684592,1.329714,0.41550124,-0.09752147,-0.060190737,0.4683987,0.34238297,-0.34788632,-0.42748818,0.09637475,796.99634,782.8938,798.20514,805.8608,814.3223,-0.0760498046875,0.1357421875,0.99493408203125,0.545806884765625,-1.016845703125,-0.725250244140625,1,1.0,1.0,1.0,1.0,20.00
2024-09-29 18:19:59.679,1.1339394,0.7162782,0.0976812,0.9635561,0.8814729,-0.04295356,-0.12328761,0.7849436,1.3684938,0.17771094,0.25684592,1.329714,0.41550124,-0.09752147,-0.060190737,0.4683987,0.34238297,-0.34788632,-0.42748818,0.09637475,800.6227,783.69965,798.20514,814.7253,841.7216,-0.0760498046875,0.1357421875,0.99493408203125,0.545806884765625,-1.016845703125,-0.725250244140625,1,1.0,1.0,1.0,1.0,20.00
2024-09-29 18:19:59.679,1.1339394,0.7162782,0.0976812,0.9635561,0.8814729,-0.04295356,-0.12328761,0.7849436,1.3684938,0.17771094,0.25684592,1.329714,0.41550124,-0.09752147,-0.060190737,0.4683987,0.34238297,-0.34788632,-0.42748818,0.09637475,807.47253,786.52014,796.99634,813.5165,746.63007,-0.0760498046875,0.1357421875,0.99493408203125,0.545806884765625,-1.016845703125,-0.725250244140625,1,1.0,1.0,1.0,1.0,20.00
2024-09-29 18:19:59.680,1.1339394,0.7162782,0.0976812,0.9635561,0.8814729,-0.04295356,-0.12328761,0.7849436,1.3684938,0.17771094,0.25684592,1.329714,0.41550124,-0.09752147,-0.060190737,0.4683987,0.34238297,-0.34788632,-0.42748818,0.09637475,811.50183,783.2967,797.8022,815.5311,690.6227,-0.0760498046875,0.1357421875,0.99493408203125,0.545806884765625,-1.016845703125,-0.725250244140625,1,1.0,1.0,1.0,1.0,20.00
2024-09-29 18:19:59.680,1.1339394,0.7162782,0.0976812,0.9635561,0.8814729,-0.04295356,-0.12328761,0.7849436,1.3684938,0.17771094,0.25684592,1.329714,0.41550124,-0.09752147,-0.060190737,0.4683987,0.34238297,-0.34788632,-0.42748818,0.09637475,811.0989,782.49084,797.3993,822.7839,774.0293,-0.0760498046875,0.1357421875,0.99493408203125,0.545806884765625,-1.016845703125,-0.725250244140625,1,1.0,1.0,1.0,1.0,20.00
2024-09-29 18:19:59.681,1.1339394,0.7162782,0.0976812,0.9635561,0.8814729,-0.04295356,-0.12328761,0.7849436,1.3684938,0.17771094,0.25684592,1.329714,0.41550124,-0.09752147,-0.060190737,0.4683987,0.34238297,-0.34788632,-0.42748818,0.09637475,817.5458,783.69965,795.38464,822.7839,867.9121,-0.0760498046875,0.1357421875,0.99493408203125,0.545806884765625,-1.016845703125,-0.725250244140625,1,1.0,1.0,1.0,1.0,20.00
2024-09-29 18:19:59.708,1.1339394,0.7162782,0.0976812,0.9635561,0.8814729,-0.04295356,-0.12328761,0.7849436,1.3684938,0.17771094,0.25684592,1.329714,0.41550124,-0.09752147,-0.060190737,0.4683987,0.34238297,-0.34788632,-0.42748818,0.09637475,813.5165,780.87915,794.57874,818.3516,673.69965,-0.06280517578125,0.144775390625,0.99700927734375,0.755157470703125,-2.27294921875,-0.2691650390625,1,1.0,1.0,1.0,1.0,20.00
2024-09-29 18:19:59.709,1.1339394,0.7162782,0.0976812,0.9635561,0.8814729,-0.04295356,-0.12328761,0.7849436,1.3684938,0.17771094,0.25684592,1.329714,0.41550124,-0.09752147,-0.060190737,0.4683987,0.34238297,-0.34788632,-0.42748818,0.09637475,809.4872,782.49084,795.38464,815.9341,656.77655,-0.06280517578125,0.144775390625,0.99700927734375,0.755157470703125,-2.27294921875,-0.2691650390625,1,1.0,1.0,1.0,1.0,20.00
2024-09-29 18:19:59.710,1.1339394,0.7162782,0.0976812,0.9635561,0.8814729,-0.04295356,-0.12328761,0.7849436,1.3684938,0.17771094,0.25684592,1.329714,0.41550124,-0.09752147,-0.060190737,0.4683987,0.34238297,-0.34788632,-0.42748818,0.09637475,814.3223,781.685,794.17584,814.3223,764.7619,-0.06280517578125,0.144775390625,0.99700927734375,0.755157470703125,-2.27294921875,-0.2691650390625,1,1.0,1.0,1.0,1.0,20.00
2024-09-29 18:19:59.710,1.1339394,0.7162782,0.0976812,0.9635561,0.8814729,-0.04295356,-0.12328761,0.7849436,1.3684938,0.17771094,0.25684592,1.329714,0.41550124,-0.09752147,-0.060190737,0.4683987,0.34238297,-0.34788632,-0.42748818,0.09637475,811.9048,780.4762,794.17584,821.5751,801.8315,-0.06280517578125,0.144775390625,0.99700927734375,0.755157470703125,-2.27294921875,-0.2691650390625,1,1.0,1.0,1.0,1.0,20.00
2024-09-29 18:19:59.711,1.1339394,0.7162782,0.0976812,0.9635561,0.8814729,-0.04295356,-0.12328761,0.7849436,1.3684938,0.17771094,0.25684592,1.329714,0.41550124,-0.09752147,-0.060190737,0.4683987,0.34238297,-0.34788632,-0.42748818,0.09637475,810.293,781.685,796.99634,817.9487,723.663,-0.06280517578125,0.144775390625,0.99700927734375,0.755157470703125,-2.27294921875,-0.2691650390625,1,1.0,1.0,1.0,1.0,20.00
2024-09-29 18:19:59.711,1.1339394,0.7162782,0.0976812,0.9635561,0.8814729,-0.04295356,-0.12328761,0.7849436,1.3684938,0.17771094,0.25684592,1.329714,0.41550124,-0.09752147,-0.060190737,0.4683987,0.34238297,-0.34788632,-0.42748818,0.09637475,813.1135,780.87915,796.1905,805.4579,618.49817,-0.06280517578125,0.144775390625,0.99700927734375,0.755157470703125,-2.27294921875,-0.2691650390625,1,1.0,1.0,1.0,1.0,20.00
2024-09-29 18:19:59.712,1.1339394,0.7162782,0.0976812,0.9635561,0.8814729,-0.04295356,-0.12328761,0.7849436,1.3684938,0.17771094,0.25684592,1.329714,0.41550124,-0.09752147,-0.060190737,0.4683987,0.34238297,-0.34788632,-0.42748818,0.09637475,817.9487,781.28204,794.57874,806.26373,806.6667,-0.06280517578125,0.144775390625,0.99700927734375,0.755157470703125,-2.27294921875,-0.2691650390625,1,1.0,1.0,1.0,1.0,20.00
2024-09-29 18:19:59.712,1.1339394,0.7162782,0.0976812,0.9635561,0.8814729,-0.04295356,-0.12328761,0.7849436,1.3684938,0.17771094,0.25684592,1.329714,0.41550124,-0.09752147,-0.060190737,0.4683987,0.34238297,-0.34788632,-0.42748818,0.09637475,813.1135,784.5055,796.5934,807.0696,1071.7949,-0.06280517578125,0.144775390625,0.99700927734375,0.755157470703125,-2.27294921875,-0.2691650390625,1,1.0,1.0,1.0,1.0,20.00
2024-09-29 18:19:59.713,1.1339394,0.7162782,0.0976812,0.9635561,0.8814729,-0.04295356,-0.12328761,0.7849436,1.3684938,0.17771094,0.25684592,1.329714,0.41550124,-0.09752147,-0.060190737,0.4683987,0.34238297,-0.34788632,-0.42748818,0.09637475,807.0696,784.5055,798.20514,810.293,1298.2417,-0.06280517578125,0.144775390625,0.99700927734375,0.755157470703125,-2.27294921875,-0.2691650390625,1,1.0,1.0,1.0,1.0,20.00
2024-09-29 18:19:59.713,1.1339394,0.7162782,0.0976812,0.9635561,0.8814729,-0.04295356,-0.12328761,0.7849436,1.3684938,0.17771094,0.25684592,1.329714,0.41550124,-0.09752147,-0.060190737,0.4683987,0.34238297,-0.34788632,-0.42748818,0.09637475,814.3223,782.49084,797.8022,807.47253,1126.1904,-0.06280517578125,0.144775390625,0.99700927734375,0.755157470703125,-2.27294921875,-0.2691650390625,1,1.0,1.0,1.0,1.0,20.00
2024-09-29 18:19:59.714,1.1339394,0.7162782,0.0976812,0.9635561,0.8814729,-0.04295356,-0.12328761,0.7849436,1.3684938,0.17771094,0.25684592,1.329714,0.41550124,-0.09752147,-0.060190737,0.4683987,0.34238297,-0.34788632,-0.42748818,0.09637475,822.381,782.8938,796.1905,799.41394,737.3626,-0.06280517578125,0.144775390625,0.99700927734375,0.755157470703125,-2.27294921875,-0.2691650390625,1,1.0,1.0,1.0,1.0,20.00
2024-09-29 18:19:59.714,1.1339394,0.7162782,0.0976812,0.9635561,0.8814729,-0.04295356,-0.12328761,0.7849436,1.3684938,0.17771094,0.25684592,1.329714,0.41550124,-0.09752147,-0.060190737,0.4683987,0.34238297,-0.34788632,-0.42748818,0.09637475,818.7546,783.69965,792.96704,799.81683,749.0476,-0.06280517578125,0.144775390625,0.99700927734375,0.755157470703125,-2.27294921875,-0.2691650390625,1,1.0,1.0,1.0,1.0,20.00
2024-09-29 18:19:59.848,1.1339394,0.7162782,0.0976812,0.9635561,0.8814729,-0.04295356,-0.12328761,0.7849436,1.3684938,0.17771094,0.25684592,1.329714,0.41550124,-0.09752147,-0.060190737,0.4683987,0.34238297,-0.34788632,-0.42748818,0.09637475,804.65204,780.07324,792.1612,796.1905,761.53845,-0.06280517578125,0.144775390625,0.99700927734375,0.755157470703125,-2.27294921875,-0.2691650390625,1,1.0,1.0,1.0,1.0,20.00
2024-09-29 18:19:59.849,1.0726198,0.6899052,0.08051182,0.9225572,0.82610154,-0.056986712,-0.17222333,0.7488713,1.3684938,0.1742584,0.26435977,1.3357959,0.43258864,-0.10168188,-0.059489854,0.47822282,0.32644236,-0.39915478,-0.4685893,0.08909243,802.6374,780.87915,792.1612,787.326,605.2015,-0.06280517578125,0.144775390625,0.99700927734375,0.755157470703125,-2.27294921875,-0.2691650390625,1,1.0,1.0,1.0,1.0,20.00
2024-09-29 18:19:59.853,1.0726198,0.6899052,0.08051182,0.9225572,0.82610154,-0.056986712,-0.17222333,0.7488713,1.3684938,0.1742584,0.26435977,1.3357959,0.43258864,-0.10168188,-0.059489854,0.47822282,0.32644236,-0.39915478,-0.4685893,0.08909243,809.0842,787.72894,791.75824,792.5641,584.65204,-0.06280517578125,0.144775390625,0.99700927734375,0.755157470703125,-2.27294921875,-0.2691650390625,1,1.0,1.0,1.0,1.0,20.00
2024-09-29 18:19:59.854,1.0726198,0.6899052,0.08051182,0.9225572,0.82610154,-0.056986712,-0.17222333,0.7488713,1.3684938,0.1742584,0.26435977,1.3357959,0.43258864,-0.10168188,-0.059489854,0.47822282,0.32644236,-0.39915478,-0.4685893,0.08909243,803.8461,784.90845,792.96704,800.6227,782.49084,-0.06280517578125,0.144775390625,0.99700927734375,0.755157470703125,-2.27294921875,-0.2691650390625,1,1.0,1.0,1.0,1.0,20.00
2024-09-29 18:19:59.854,1.0726198,0.6899052,0.08051182,0.9225572,0.82610154,-0.056986712,-0.17222333,0.7488713,1.3684938,0.1742584,0.26435977,1.3357959,0.43258864,-0.10168188,-0.059489854,0.47822282,0.32644236,-0.39915478,-0.4685893,0.08909243,799.81683,781.28204,792.96704,805.05493,934.3956,-0.06280517578125,0.144775390625,0.99700927734375,0.755157470703125,-2.27294921875,-0.2691650390625,1,1.0,1.0,1.0,1.0,20.00
2024-09-29 18:19:59.855,1.0726198,0.6899052,0.08051182,0.9225572,0.82610154,-0.056986712,-0.17222333,0.7488713,1.3684938,0.1742584,0.26435977,1.3357959,0.43258864,-0.10168188,-0.059489854,0.47822282,0.32644236,-0.39915478,-0.4685893,0.08909243,799.011,782.8938,792.96704,799.81683,819.5604,-0.06280517578125,0.144775390625,0.99700927734375,0.755157470703125,-2.27294921875,-0.2691650390625,1,1.0,1.0,1.0,1.0,20.00
2024-09-29 18:19:59.855,1.0726198,0.6899052,0.08051182,0.9225572,0.82610154,-0.056986712,-0.17222333,0.7488713,1.3684938,0.1742584,0.26435977,1.3357959,0.43258864,-0.10168188,-0.059489854,0.47822282,0.32644236,-0.39915478,-0.4685893,0.08909243,789.34064,785.7143,791.3553,799.81683,842.1245,-0.06280517578125,0.144775390625,0.99700927734375,0.755157470703125,-2.27294921875,-0.2691650390625,1,1.0,1.0,1.0,1.0,20.00
2024-09-29 18:19:59.856,1.0726198,0.6899052,0.08051182,0.9225572,0.82610154,-0.056986712,-0.17222333,0.7488713,1.3684938,0.1742584,0.26435977,1.3357959,0.43258864,-0.10168188,-0.059489854,0.47822282,0.32644236,-0.39915478,-0.4685893,0.08909243,793.36993,787.326,791.3553,812.71063,1125.3846,-0.06280517578125,0.144775390625,0.99700927734375,0.755157470703125,-2.27294921875,-0.2691650390625,1,1.0,1.0,1.0,1.0,20.00
2024-09-29 18:19:59.856,1.0726198,0.6899052,0.08051182,0.9225572,0.82610154,-0.056986712,-0.17222333,0.7488713,1.3684938,0.1742584,0.26435977,1.3357959,0.43258864,-0.10168188,-0.059489854,0.47822282,0.32644236,-0.39915478,-0.4685893,0.08909243,796.5934,782.8938,794.17584,815.12823,950.9158,-0.06280517578125,0.144775390625,0.99700927734375,0.755157470703125,-2.27294921875,-0.2691650390625,1,1.0,1.0,1.0,1.0,20.00
2024-09-29 18:19:59.857,1.0726198,0.6899052,0.08051182,0.9225572,0.82610154,-0.056986712,-0.17222333,0.7488713,1.3684938,0.1742584,0.26435977,1.3357959,0.43258864,-0.10168188,-0.059489854,0.47822282,0.32644236,-0.39915478,-0.4685893,0.08909243,799.011,782.0879,796.5934,814.7253,661.6117,-0.06280517578125,0.144775390625,0.99700927734375,0.755157470703125,-2.27294921875,-0.2691650390625,1,1.0,1.0,1.0,1.0,20.00
2024-09-29 18:19:59.858,1.0726198,0.6899052,0.08051182,0.9225572,0.82610154,-0.056986712,-0.17222333,0.7488713,1.3684938,0.1742584,0.26435977,1.3357959,0.43258864,-0.10168188,-0.059489854,0.47822282,0.32644236,-0.39915478,-0.4685893,0.08909243,804.65204,780.87915,791.3553,810.293,682.5641,-0.06280517578125,0.144775390625,0.99700927734375,0.755157470703125,-2.27294921875,-0.2691650390625,1,1.0,1.0,1.0,1.0,20.00
2024-09-29 18:19:59.858,1.0726198,0.6899052,0.08051182,0.9225572,0.82610154,-0.056986712,-0.17222333,0.7488713,1.3684938,0.1742584,0.26435977,1.3357959,0.43258864,-0.10168188,-0.059489854,0.47822282,0.32644236,-0.39915478,-0.4685893,0.08909243,803.0403,778.86444,790.14655,809.0842,832.4542,-0.06280517578125,0.144775390625,0.99700927734375,0.755157470703125,-2.27294921875,-0.2691650390625,1,1.0,1.0,1.0,1.0,20.00
2024-09-29 18:19:59.859,1.0726198,0.6899052,0.08051182,0.9225572,0.82610154,-0.056986712,-0.17222333,0.7488713,1.3684938,0.1742584,0.26435977,1.3357959,0.43258864,-0.10168188,-0.059489854,0.47822282,0.32644236,-0.39915478,-0.4685893,0.08909243,803.44324,782.0879,793.7729,810.696,766.3736,-0.07232666015625,0.14208984375,0.99346923828125,0.478515625,-1.009368896484375,0.755157470703125,1,1.0,1.0,1.0,1.0,20.00
2024-09-29 18:19:59.859,1.0726198,0.6899052,0.08051182,0.9225572,0.82610154,-0.056986712,-0.17222333,0.7488713,1.3684938,0.1742584,0.26435977,1.3357959,0.43258864,-0.10168188,-0.059489854,0.47822282,0.32644236,-0.39915478,-0.4685893,0.08909243,803.8461,784.90845,790.14655,805.4579,689.41394,-0.07232666015625,0.14208984375,0.99346923828125,0.478515625,-1.009368896484375,0.755157470703125,1,1.0,1.0,1.0,1.0,20.00
2024-09-29 18:19:59.860,1.0726198,0.6899052,0.08051182,0.9225572,0.82610154,-0.056986712,-0.17222333,0.7488713,1.3684938,0.1742584,0.26435977,1.3357959,0.43258864,-0.10168188,-0.059489854,0.47822282,0.32644236,-0.39915478,-0.4685893,0.08909243,805.05493,784.10254,792.1612,808.2784,696.6667,-0.07232666015625,0.14208984375,0.99346923828125,0.478515625,-1.009368896484375,0.755157470703125,1,1.0,1.0,1.0,1.0,20.00
2024-09-29 18:19:59.860,1.0726198,0.6899052,0.08051182,0.9225572,0.82610154,-0.056986712,-0.17222333,0.7488713,1.3684938,0.1742584,0.26435977,1.3357959,0.43258864,-0.10168188,-0.059489854,0.47822282,0.32644236,-0.39915478,-0.4685893,0.08909243,799.011,782.8938,791.3553,811.50183,668.46155,-0.07232666015625,0.14208984375,0.99346923828125,0.478515625,-1.009368896484375,0.755157470703125,1,1.0,1.0,1.0,1.0,20.00
2024-09-29 18:19:59.861,1.0726198,0.6899052,0.08051182,0.9225572,0.82610154,-0.056986712,-0.17222333,0.7488713,1.3684938,0.1742584,0.26435977,1.3357959,0.43258864,-0.10168188,-0.059489854,0.47822282,0.32644236,-0.39915478,-0.4685893,0.08909243,792.1612,783.2967,789.34064,809.89014,672.8938,-0.07232666015625,0.14208984375,0.99346923828125,0.478515625,-1.009368896484375,0.755157470703125,1,1.0,1.0,1.0,1.0,20.00
2024-09-29 18:19:59.861,1.0726198,0.6899052,0.08051182,0.9225572,0.82610154,-0.056986712,-0.17222333,0.7488713,1.3684938,0.1742584,0.26435977,1.3357959,0.43258864,-0.10168188,-0.059489854,0.47822282,0.32644236,-0.39915478,-0.4685893,0.08909243,792.5641,779.67035,785.7143,802.23444,835.2747,-0.07232666015625,0.14208984375,0.99346923828125,0.478515625,-1.009368896484375,0.755157470703125,1,1.0,1.0,1.0,1.0,20.00
2024-09-29 18:19:59.862,1.0726198,0.6899052,0.08051182,0.9225572,0.82610154,-0.056986712,-0.17222333,0.7488713,1.3684938,0.1742584,0.26435977,1.3357959,0.43258864,-0.10168188,-0.059489854,0.47822282,0.32644236,-0.39915478,-0.4685893,0.08909243,793.7729,780.07324,784.10254,792.96704,968.24176,-0.07232666015625,0.14208984375,0.99346923828125,0.478515625,-1.009368896484375,0.755157470703125,1,1.0,1.0,1.0,1.0,20.00
2024-09-29 18:19:59.862,1.0726198,0.6899052,0.08051182,0.9225572,0.82610154,-0.056986712,-0.17222333,0.7488713,1.3684938,0.1742584,0.26435977,1.3357959,0.43258864,-0.10168188,-0.059489854,0.47822282,0.32644236,-0.39915478,-0.4685893,0.08909243,799.81683,782.49084,787.326,791.75824,842.52747,-0.07232666015625,0.14208984375,0.99346923828125,0.478515625,-1.009368896484375,0.755157470703125,1,1.0,1.0,1.0,1.0,20.00
2024-09-29 18:19:59.863,1.0726198,0.6899052,0.08051182,0.9225572,0.82610154,-0.056986712,-0.17222333,0.7488713,1.3684938,0.1742584,0.26435977,1.3357959,0.43258864,-0.10168188,-0.059489854,0.47822282,0.32644236,-0.39915478,-0.4685893,0.08909243,805.05493,785.31134,788.1319,799.81683,736.55676,-0.07232666015625,0.14208984375,0.99346923828125,0.478515625,-1.009368896484375,0.755157470703125,1,1.0,1.0,1.0,1.0,20.00
2024-09-29 18:19:59.863,1.0726198,0.6899052,0.08051182,0.9225572,0.82610154,-0.056986712,-0.17222333,0.7488713,1.3684938,0.1742584,0.26435977,1.3357959,0.43258864,-0.10168188,-0.059489854,0.47822282,0.32644236,-0.39915478,-0.4685893,0.08909243,799.41394,776.4469,785.7143,799.81683,803.44324,-0.07232666015625,0.14208984375,0.99346923828125,0.478515625,-1.009368896484375,0.755157470703125,1,1.0,1.0,1.0,1.0,20.00
2024-09-29 18:19:59.864,1.0726198,0.6899052,0.08051182,0.9225572,0.82610154,-0.056986712,-0.17222333,0.7488713,1.3684938,0.1742584,0.26435977,1.3357959,0.43258864,-0.10168188,-0.059489854,0.47822282,0.32644236,-0.39915478,-0.4685893,0.08909243,801.8315,776.04395,786.52014,802.23444,979.92676,-0.07232666015625,0.14208984375,0.99346923828125,0.478515625,-1.009368896484375,0.755157470703125,1,1.0,1.0,1.0,1.0,20.00
2024-09-29 18:19:59.864,1.0726198,0.6899052,0.08051182,0.9225572,0.82610154,-0.056986712,-0.17222333,0.7488713,1.3684938,0.1742584,0.26435977,1.3357959,0.43258864,-0.10168188,-0.059489854,0.47822282,0.32644236,-0.39915478,-0.4685893,0.08909243,809.4872,786.9231,791.75824,799.41394,785.7143,-0.07232666015625,0.14208984375,0.99346923828125,0.478515625,-1.009368896484375,0.755157470703125,1,1.0,1.0,1.0,1.0,20.00
2024-09-29 18:19:59.892,1.0726198,0.6899052,0.08051182,0.9225572,0.82610154,-0.056986712,-0.17222333,0.7488713,1.3684938,0.1742584,0.26435977,1.3357959,0.43258864,-0.10168188,-0.059489854,0.47822282,0.32644236,-0.39915478,-0.4685893,0.08909243,812.3077,785.31134,792.1612,796.5934,730.5128,-0.06982421875,0.1505126953125,0.9971923828125,0.538330078125,-1.48040771484375,1.09161376953125,1,1.0,1.0,1.0,1.0,20.00
2024-09-29 18:19:59.893,1.0726198,0.6899052,0.08051182,0.9225572,0.82610154,-0.056986712,-0.17222333,0.7488713,1.3684938,0.1742584,0.26435977,1.3357959,0.43258864,-0.10168188,-0.059489854,0.47822282,0.32644236,-0.39915478,-0.4685893,0.08909243,805.4579,781.685,784.90845,796.99634,869.5238,-0.06982421875,0.1505126953125,0.9971923828125,0.538330078125,-1.48040771484375,1.09161376953125,1,1.0,1.0,1.0,1.0,20.00
2024-09-29 18:19:59.894,1.0726198,0.6899052,0.08051182,0.9225572,0.82610154,-0.056986712,-0.17222333,0.7488713,1.3684938,0.1742584,0.26435977,1.3357959,0.43258864,-0.10168188,-0.059489854,0.47822282,0.32644236,-0.39915478,-0.4685893,0.08909243,802.6374,784.90845,782.8938,790.9524,843.3333,-0.06982421875,0.1505126953125,0.9971923828125,0.538330078125,-1.48040771484375,1.09161376953125,1,1.0,1.0,1.0,1.0,20.00
2024-09-29 18:19:59.895,1.0174766,0.677404,0.0693494,0.88824487,0.7790484,-0.06702311,-0.21448776,0.71009964,1.3684938,0.15145151,0.27433118,1.3357959,0.44091445,-0.1074608,-0.059712898,0.49589238,0.30793786,-0.45240176,-0.51822853,0.0848748,802.23444,788.5348,791.3553,794.17584,707.5458,-0.06982421875,0.1505126953125,0.9971923828125,0.538330078125,-1.48040771484375,1.09161376953125,1,1.0,1.0,1.0,1.0,20.00
2024-09-29 18:19:59.899,1.0174766,0.677404,0.0693494,0.88824487,0.7790484,-0.06702311,-0.21448776,0.71009964,1.3684938,0.15145151,0.27433118,1.3357959,0.44091445,-0.1074608,-0.059712898,0.49589238,0.30793786,-0.45240176,-0.51822853,0.0848748,796.5934,790.14655,792.5641,799.41394,662.8205,-0.06982421875,0.1505126953125,0.9971923828125,0.538330078125,-1.48040771484375,1.09161376953125,1,1.0,1.0,1.0,1.0,20.00
2024-09-29 18:19:59.900,1.0174766,0.677404,0.0693494,0.88824487,0.7790484,-0.06702311,-0.21448776,0.71009964,1.3684938,0.15145151,0.27433118,1.3357959,0.44091445,-0.1074608,-0.059712898,0.49589238,0.30793786,-0.45240176,-0.51822853,0.0848748,793.7729,785.31134,790.9524,802.23444,961.39197,-0.06982421875,0.1505126953125,0.9971923828125,0.538330078125,-1.48040771484375,1.09161376953125,1,1.0,1.0,1.0,1.0,20.00
2024-09-29 18:19:59.900,1.0174766,0.677404,0.0693494,0.88824487,0.7790484,-0.06702311,-0.21448776,0.71009964,1.3684938,0.15145151,0.27433118,1.3357959,0.44091445,-0.1074608,-0.059712898,0.49589238,0.30793786,-0.45240176,-0.51822853,0.0848748,792.1612,784.5055,792.5641,808.2784,1067.7656,-0.06982421875,0.1505126953125,0.9971923828125,0.538330078125,-1.48040771484375,1.09161376953125,1,1.0,1.0,1.0,1.0,20.00
2024-09-29 18:19:59.901,1.0174766,0.677404,0.0693494,0.88824487,0.7790484,-0.06702311,-0.21448776,0.71009964,1.3684938,0.15145151,0.27433118,1.3357959,0.44091445,-0.1074608,-0.059712898,0.49589238,0.30793786,-0.45240176,-0.51822853,0.0848748,798.20514,786.9231,793.36993,803.44324,755.09155,-0.06982421875,0.1505126953125,0.9971923828125,0.538330078125,-1.48040771484375,1.09161376953125,1,1.0,1.0,1.0,1.0,20.00
2024-09-29 18:19:59.901,1.0174766,0.677404,0.0693494,0.88824487,0.7790484,-0.06702311,-0.21448776,0.71009964,1.3684938,0.15145151,0.27433118,1.3357959,0.44091445,-0.1074608,-0.059712898,0.49589238,0.30793786,-0.45240176,-0.51822853,0.0848748,805.8608,787.326,794.57874,805.4579,613.663,-0.06982421875,0.1505126953125,0.9971923828125,0.538330078125,-1.48040771484375,1.09161376953125,1,1.0,1.0,1.0,1.0,20.00
2024-09-29 18:19:59.902,1.0174766,0.677404,0.0693494,0.88824487,0.7790484,-0.06702311,-0.21448776,0.71009964,1.3684938,0.15145151,0.27433118,1.3357959,0.44091445,-0.1074608,-0.059712898,0.49589238,0.30793786,-0.45240176,-0.51822853,0.0848748,807.8755,787.326,796.5934,814.7253,827.2161,-0.06982421875,0.1505126953125,0.9971923828125,0.538330078125,-1.48040771484375,1.09161376953125,1,1.0,1.0,1.0,1.0,20.00
2024-09-29 18:19:59.902,1.0174766,0.677404,0.0693494,0.88824487,0.7790484,-0.06702311,-0.21448776,0.71009964,1.3684938,0.15145151,0.27433118,1.3357959,0.44091445,-0.1074608,-0.059712898,0.49589238,0.30793786,-0.45240176,-0.51822853,0.0848748,809.4872,788.5348,796.99634,809.89014,934.7985,-0.06982421875,0.1505126953125,0.9971923828125,0.538330078125,-1.48040771484375,1.09161376953125,1,1.0,1.0,1.0,1.0,20.00
2024-09-29 18:19:59.903,1.0174766,0.677404,0.0693494,0.88824487,0.7790484,-0.06702311,-0.21448776,0.71009964,1.3684938,0.15145151,0.27433118,1.3357959,0.44091445,-0.1074608,-0.059712898,0.49589238,0.30793786,-0.45240176,-0.51822853,0.0848748,816.337,790.54944,794.57874,807.0696,760.7326,-0.06982421875,0.1505126953125,0.9971923828125,0.538330078125,-1.48040771484375,1.09161376953125,1,1.0,1.0,1.0,1.0,20.00
2024-09-29 18:19:59.904,1.0174766,0.677404,0.0693494,0.88824487,0.7790484,-0.06702311,-0.21448776,0.71009964,1.3684938,0.15145151,0.27433118,1.3357959,0.44091445,-0.1074608,-0.059712898,0.49589238,0.30793786,-0.45240176,-0.51822853,0.0848748,824.7985,785.7143,791.75824,813.91943,737.3626,-0.07489013671875,0.14642333984375,1.0003662109375,-0.22430419921875,-0.560760498046875,1.443023681640625,1,1.0,1.0,1.0,1.0,20.00
2024-09-29 18:19:59.904,1.0174766,0.677404,0.0693494,0.88824487,0.7790484,-0.06702311,-0.21448776,0.71009964,1.3684938,0.15145151,0.27433118,1.3357959,0.44091445,-0.1074608,-0.059712898,0.49589238,0.30793786,-0.45240176,-0.51822853,0.0848748,817.1429,782.0879,788.93774,814.3223,961.39197,-0.07489013671875,0.14642333984375,1.0003662109375,-0.22430419921875,-0.560760498046875,1.443023681640625,1,1.0,1.0,1.0,1.0,20.00
2024-09-29 18:19:59.905,1.0174766,0.677404,0.0693494,0.88824487,0.7790484,-0.06702311,-0.21448776,0.71009964,1.3684938,0.15145151,0.27433118,1.3357959,0.44091445,-0.1074608,-0.059712898,0.49589238,0.30793786,-0.45240176,-0.51822853,0.0848748,812.71063,786.52014,790.54944,818.3516,936.0073,-0.07489013671875,0.14642333984375,1.0003662109375,-0.22430419921875,-0.560760498046875,1.443023681640625,1,1.0,1.0,1.0,1.0,20.00
2024-09-29 18:19:59.905,1.0174766,0.677404,0.0693494,0.88824487,0.7790484,-0.06702311,-0.21448776,0.71009964,1.3684938,0.15145151,0.27433118,1.3357959,0.44091445,-0.1074608,-0.059712898,0.49589238,0.30793786,-0.45240176,-0.51822853,0.0848748,812.71063,790.14655,790.9524,821.5751,705.9341,-0.07489013671875,0.14642333984375,1.0003662109375,-0.22430419921875,-0.560760498046875,1.443023681640625,1,1.0,1.0,1.0,1.0,20.00
2024-09-29 18:19:59.906,1.0174766,0.677404,0.0693494,0.88824487,0.7790484,-0.06702311,-0.21448776,0.71009964,1.3684938,0.15145151,0.27433118,1.3357959,0.44091445,-0.1074608,-0.059712898,0.49589238,0.30793786,-0.45240176,-0.51822853,0.0848748,809.4872,789.34064,788.93774,821.5751,670.07324,-0.07489013671875,0.14642333984375,1.0003662109375,-0.22430419921875,-0.560760498046875,1.443023681640625,1,1.0,1.0,1.0,1.0,20.00
2024-09-29 18:19:59.906,1.0174766,0.677404,0.0693494,0.88824487,0.7790484,-0.06702311,-0.21448776,0.71009964,1.3684938,0.15145151,0.27433118,1.3357959,0.44091445,-0.1074608,-0.059712898,0.49589238,0.30793786,-0.45240176,-0.51822853,0.0848748,811.50183,786.9231,788.93774,817.1429,987.1795,-0.07489013671875,0.14642333984375,1.0003662109375,-0.22430419921875,-0.560760498046875,1.443023681640625,1,1.0,1.0,1.0,1.0,20.00
2024-09-29 18:19:59.907,1.0174766,0.677404,0.0693494,0.88824487,0.7790484,-0.06702311,-0.21448776,0.71009964,1.3684938,0.15145151,0.27433118,1.3357959,0.44091445,-0.1074608,-0.059712898,0.49589238,0.30793786,-0.45240176,-0.51822853,0.0848748,810.696,788.93774,791.75824,810.293,1045.2014,-0.07489013671875,0.14642333984375,1.0003662109375,-0.22430419921875,-0.560760498046875,1.443023681640625,1,1.0,1.0,1.0,1.0,20.00
2024-09-29 18:19:59.907,1.0174766,0.677404,0.0693494,0.88824487,0.7790484,-0.06702311,-0.21448776,0.71009964,1.3684938,0.15145151,0.27433118,1.3357959,0.44091445,-0.1074608,-0.059712898,0.49589238,0.30793786,-0.45240176,-0.51822853,0.0848748,807.8755,790.9524,791.75824,808.68134,797.3993,-0.07489013671875,0.14642333984375,1.0003662109375,-0.22430419921875,-0.560760498046875,1.443023681640625,1,1.0,1.0,1.0,1.0,20.00
2024-09-29 18:19:59.908,1.0174766,0.677404,0.0693494,0.88824487,0.7790484,-0.06702311,-0.21448776,0.71009964,1.3684938,0.15145151,0.27433118,1.3357959,0.44091445,-0.1074608,-0.059712898,0.49589238,0.30793786,-0.45240176,-0.51822853,0.0848748,805.4579,791.75824,790.54944,796.1905,618.49817,-0.07489013671875,0.14642333984375,1.0003662109375,-0.22430419921875,-0.560760498046875,1.443023681640625,1,1.0,1.0,1.0,1.0,20.00
2024-09-29 18:19:59.908,1.0174766,0.677404,0.0693494,0.88824487,0.7790484,-0.06702311,-0.21448776,0.71009964,1.3684938,0.15145151,0.27433118,1.3357959,0.44091445,-0.1074608,-0.059712898,0.49589238,0.30793786,-0.45240176,-0.51822853,0.0848748,799.81683,789.7436,788.1319,788.93774,917.47253,-0.07489013671875,0.14642333984375,1.0003662109375,-0.22430419921875,-0.560760498046875,1.443023681640625,1,1.0,1.0,1.0,1.0,20.00
2024-09-29 18:19:59.909,1.0174766,0.677404,0.0693494,0.88824487,0.7790484,-0.06702311,-0.21448776,0.71009964,1.3684938,0.15145151,0.27433118,1.3357959,0.44091445,-0.1074608,-0.059712898,0.49589238,0.30793786,-0.45240176,-0.51822853,0.0848748,795.38464,787.72894,788.1319,799.011,1344.9817,-0.07489013671875,0.14642333984375,1.0003662109375,-0.22430419921875,-0.560760498046875,1.443023681640625,1,1.0,1.0,1.0,1.0,20.00
2024-09-29 18:19:59.909,1.0174766,0.677404,0.0693494,0.88824487,0.7790484,-0.06702311,-0.21448776,0.71009964,1.3684938,0.15145151,0.27433118,1.3357959,0.44091445,-0.1074608,-0.059712898,0.49589238,0.30793786,-0.45240176,-0.51822853,0.0848748,795.78754,793.7729,791.75824,794.9817,1085.0916,-0.07489013671875,0.14642333984375,1.0003662109375,-0.22430419921875,-0.560760498046875,1.443023681640625,1,1.0,1.0,1.0,1.0,20.00
2024-09-29 18:19:59.936,1.0174766,0.677404,0.0693494,0.88824487,0.7790484,-0.06702311,-0.21448776,0.71009964,1.3684938,0.15145151,0.27433118,1.3357959,0.44091445,-0.1074608,-0.059712898,0.49589238,0.30793786,-0.45240176,-0.51822853,0.0848748,796.1905,792.1612,791.75824,778.0586,755.09155,-0.08514404296875,0.14056396484375,0.992431640625,-0.545806884765625,-0.500946044921875,0.231781005859375,1,1.0,1.0,1.0,1.0,20.00
2024-09-29 18:19:59.937,1.0174766,0.677404,0.0693494,0.88824487,0.7790484,-0.06702311,-0.21448776,0.71009964,1.3684938,0.15145151,0.27433118,1.3357959,0.44091445,-0.1074608,-0.059712898,0.49589238,0.30793786,-0.45240176,-0.51822853,0.0848748,796.1905,787.326,791.75824,782.0879,876.3736,-0.08514404296875,0.14056396484375,0.992431640625,-0.545806884765625,-0.500946044921875,0.231781005859375,1,1.0,1.0,1.0,1.0,20.00
2024-09-29 18:19:59.937,1.0174766,0.677404,0.0693494,0.88824487,0.7790484,-0.06702311,-0.21448776,0.71009964,1.3684938,0.15145151,0.27433118,1.3357959,0.44091445,-0.1074608,-0.059712898,0.49589238,0.30793786,-0.45240176,-0.51822853,0.0848748,799.81683,790.9524,791.75824,786.9231,758.71796,-0.08514404296875,0.14056396484375,0.992431640625,-0.545806884765625,-0.500946044921875,0.231781005859375,1,1.0,1.0,1.0,1.0,20.00
2024-09-29 18:19:59.938,1.0174766,0.677404,0.0693494,0.88824487,0.7790484,-0.06702311,-0.21448776,0.71009964,1.3684938,0.15145151,0.27433118,1.3357959,0.44091445,-0.1074608,-0.059712898,0.49589238,0.30793786,-0.45240176,-0.51822853,0.0848748,807.8755,794.17584,790.14655,786.1172,697.47253,-0.08514404296875,0.14056396484375,0.992431640625,-0.545806884765625,-0.500946044921875,0.231781005859375,1,1.0,1.0,1.0,1.0,20.00
2024-09-29 18:19:59.939,1.0174766,0.677404,0.0693494,0.88824487,0.7790484,-0.06702311,-0.21448776,0.71009964,1.3684938,0.15145151,0.27433118,1.3357959,0.44091445,-0.1074608,-0.059712898,0.49589238,0.30793786,-0.45240176,-0.51822853,0.0848748,811.0989,787.72894,792.5641,787.326,712.7839,-0.08514404296875,0.14056396484375,0.992431640625,-0.545806884765625,-0.500946044921875,0.231781005859375,1,1.0,1.0,1.0,1.0,20.00
2024-09-29 18:19:59.939,0.9682353,0.69521654,0.061238047,0.85580224,0.7398372,-0.073564336,-0.24454613,0.67494345,1.3684938,0.12741454,0.26172408,1.337098,0.44358864,-0.11603399,-0.064384125,0.5125206,0.2856192,-0.49745384,-0.56227577,0.08439519,802.6374,781.685,792.5641,785.7143,774.43225,-0.08514404296875,0.14056396484375,0.992431640625,-0.545806884765625,-0.500946044921875,0.231781005859375,1,1.0,1.0,1.0,1.0,20.00
2024-09-29 18:19:59.944,0.9682353,0.69521654,0.061238047,0.85580224,0.7398372,-0.073564336,-0.24454613,0.67494345,1.3684938,0.12741454,0.26172408,1.337098,0.44358864,-0.11603399,-0.064384125,0.5125206,0.2856192,-0.49745384,-0.56227577,0.08439519,781.685,782.8938,789.7436,788.5348,877.5824,-0.08514404296875,0.14056396484375,0.992431640625,-0.545806884765625,-0.500946044921875,0.231781005859375,1,1.0,1.0,1.0,1.0,20.00
2024-09-29 18:19:59.944,0.9682353,0.69521654,0.061238047,0.85580224,0.7398372,-0.073564336,-0.24454613,0.67494345,1.3684938,0.12741454,0.26172408,1.337098,0.44358864,-0.11603399,-0.064384125,0.5125206,0.2856192,-0.49745384,-0.56227577,0.08439519,765.9707,790.14655,791.3553,795.78754,731.31866,-0.08514404296875,0.14056396484375,0.992431640625,-0.545806884765625,-0.500946044921875,0.231781005859375,1,1.0,1.0,1.0,1.0,20.00
2024-09-29 18:19:59.945,0.9682353,0.69521654,0.061238047,0.85580224,0.7398372,-0.073564336,-0.24454613,0.67494345,1.3684938,0.12741454,0.26172408,1.337098,0.44358864,-0.11603399,-0.064384125,0.5125206,0.2856192,-0.49745384,-0.56227577,0.08439519,776.04395,790.54944,795.78754,799.41394,719.6337,-0.08514404296875,0.14056396484375,0.992431640625,-0.545806884765625,-0.500946044921875,0.231781005859375,1,1.0,1.0,1.0,1.0,20.00
2024-09-29 18:19:59.945,0.9682353,0.69521654,0.061238047,0.85580224,0.7398372,-0.073564336,-0.24454613,0.67494345,1.3684938,0.12741454,0.26172408,1.337098,0.44358864,-0.11603399,-0.064384125,0.5125206,0.2856192,-0.49745384,-0.56227577,0.08439519,786.1172,793.7729,797.8022,806.26373,965.42126,-0.08514404296875,0.14056396484375,0.992431640625,-0.545806884765625,-0.500946044921875,0.231781005859375,1,1.0,1.0,1.0,1.0,20.00
