TimeStamp,Delta_TP9,Delta_AF7,Delta_AF8,Delta_TP10,Theta_TP9,Theta_AF7,Theta_AF8,Theta_TP10,Alpha_TP9,Alpha_AF7,Alpha_AF8,Alpha_TP10,Beta_TP9,Beta_AF7,Beta_AF8,Beta_TP10,Gamma_TP9,Gamma_AF7,Gamma_AF8,Gamma_TP10,RAW_TP9,RAW_AF7,RAW_AF8,RAW_TP10,AUX_RIGHT,Accelerometer_X,Accelerometer_Y,Accelerometer_Z,Gyro_X,Gyro_Y,Gyro_Z,HeadBandOn,HSI_TP9,HSI_AF7,HSI_AF8,HSI_TP10,Battery,Elements
2024-09-29 18:15:47.307,0.9511143,-0.29270387,0.49366254,0.4071648,0.1992169,-0.068500064,0.1500003,0.21094908,1.1456895,-0.09651572,-0.060006097,1.213944,0.5601282,0.016792964,-0.21923396,0.62447906,-0.03617129,-0.58579224,-0.33943704,-0.08602433,813.1135,803.44324,810.293,800.6227,921.0989,-0.2784423828125,0.12872314453125,0.9637451171875,0.306549072265625,-1.60003662109375,0.97198486328125,1,1.0,1.0,1.0,1.0,20.00
2024-09-29 18:15:47.308,0.9511143,-0.29270387,0.49366254,0.4071648,0.1992169,-0.068500064,0.1500003,0.21094908,1.1456895,-0.09651572,-0.060006097,1.213944,0.5601282,0.016792964,-0.21923396,0.62447906,-0.03617129,-0.58579224,-0.33943704,-0.08602433,814.3223,808.2784,808.2784,799.81683,815.9341,-0.2784423828125,0.12872314453125,0.9637451171875,0.306549072265625,-1.60003662109375,0.97198486328125,1,1.0,1.0,1.0,1.0,20.00
2024-09-29 18:15:47.308,0.9511143,-0.29270387,0.49366254,0.4071648,0.1992169,-0.068500064,0.1500003,0.21094908,1.1456895,-0.09651572,-0.060006097,1.213944,0.5601282,0.016792964,-0.21923396,0.62447906,-0.03617129,-0.58579224,-0.33943704,-0.08602433,820.3663,815.12823,805.8608,794.9817,550.80585,-0.2784423828125,0.12872314453125,0.9637451171875,0.306549072265625,-1.60003662109375,0.97198486328125,1,1.0,1.0,1.0,1.0,20.00
2024-09-29 18:15:47.309,0.9511143,-0.29270387,0.49366254,0.4071648,0.1992169,-0.068500064,0.1500003,0.21094908,1.1456895,-0.09651572,-0.060006097,1.213944,0.5601282,0.016792964,-0.21923396,0.62447906,-0.03617129,-0.58579224,-0.33943704,-0.08602433,822.381,815.5311,808.2784,799.011,598.7546,-0.2784423828125,0.12872314453125,0.9637451171875,0.306549072265625,-1.60003662109375,0.97198486328125,1,1.0,1.0,1.0,1.0,20.00
2024-09-29 18:15:47.309,0.9511143,-0.29270387,0.49366254,0.4071648,0.1992169,-0.068500064,0.1500003,0.21094908,1.1456895,-0.09651572,-0.060006097,1.213944,0.5601282,0.016792964,-0.21923396,0.62447906,-0.03617129,-0.58579224,-0.33943704,-0.08602433,807.47253,813.1135,807.47253,804.2491,848.1685,-0.2784423828125,0.12872314453125,0.9637451171875,0.306549072265625,-1.60003662109375,0.97198486328125,1,1.0,1.0,1.0,1.0,20.00
2024-09-29 18:15:47.310,0.9511143,-0.29270387,0.49366254,0.4071648,0.1992169,-0.068500064,0.1500003,0.21094908,1.1456895,-0.09651572,-0.060006097,1.213944,0.5601282,0.016792964,-0.21923396,0.62447906,-0.03617129,-0.58579224,-0.33943704,-0.08602433,798.60803,810.293,806.6667,792.5641,776.04395,-0.2784423828125,0.12872314453125,0.9637451171875,0.306549072265625,-1.60003662109375,0.97198486328125,1,1.0,1.0,1.0,1.0,20.00
2024-09-29 18:15:47.310,0.9511143,-0.29270387,0.49366254,0.4071648,0.1992169,-0.068500064,0.1500003,0.21094908,1.1456895,-0.09651572,-0.060006097,1.213944,0.5601282,0.016792964,-0.21923396,0.62447906,-0.03617129,-0.58579224,-0.33943704,-0.08602433,802.6374,814.7253,808.2784,791.3553,729.707,-0.2784423828125,0.12872314453125,0.9637451171875,0.306549072265625,-1.60003662109375,0.97198486328125,1,1.0,1.0,1.0,1.0,20.00
2024-09-29 18:15:47.311,0.9511143,-0.29270387,0.49366254,0.4071648,0.1992169,-0.068500064,0.1500003,0.21094908,1.1456895,-0.09651572,-0.060006097,1.213944,0.5601282,0.016792964,-0.21923396,0.62447906,-0.03617129,-0.58579224,-0.33943704,-0.08602433,794.9817,815.5311,810.293,793.7729,792.5641,-0.2784423828125,0.12872314453125,0.9637451171875,0.306549072265625,-1.60003662109375,0.97198486328125,1,1.0,1.0,1.0,1.0,20.00
2024-09-29 18:15:47.312,0.9511143,-0.29270387,0.49366254,0.4071648,0.1992169,-0.068500064,0.1500003,0.21094908,1.1456895,-0.09651572,-0.060006097,1.213944,0.5601282,0.016792964,-0.21923396,0.62447906,-0.03617129,-0.58579224,-0.33943704,-0.08602433,784.90845,813.91943,809.0842,786.1172,1127.3993,-0.2784423828125,0.12872314453125,0.9637451171875,0.306549072265625,-1.60003662109375,0.97198486328125,1,1.0,1.0,1.0,1.0,20.00
2024-09-29 18:15:47.312,0.9511143,-0.29270387,0.49366254,0.4071648,0.1992169,-0.068500064,0.1500003,0.21094908,1.1456895,-0.09651572,-0.060006097,1.213944,0.5601282,0.016792964,-0.21923396,0.62447906,-0.03617129,-0.58579224,-0.33943704,-0.08602433,772.4176,811.50183,803.8461,774.83514,1280.5128,-0.2784423828125,0.12872314453125,0.9637451171875,0.306549072265625,-1.60003662109375,0.97198486328125,1,1.0,1.0,1.0,1.0,20.00
2024-09-29 18:15:47.313,0.9511143,-0.29270387,0.49366254,0.4071648,0.1992169,-0.068500064,0.1500003,0.21094908,1.1456895,-0.09651572,-0.060006097,1.213944,0.5601282,0.016792964,-0.21923396,0.62447906,-0.03617129,-0.58579224,-0.33943704,-0.08602433,763.5531,811.50183,799.41394,754.2857,826.4103,-0.2784423828125,0.12872314453125,0.9637451171875,0.306549072265625,-1.60003662109375,0.97198486328125,1,1.0,1.0,1.0,1.0,20.00
2024-09-29 18:15:47.313,0.9511143,-0.29270387,0.49366254,0.4071648,0.1992169,-0.068500064,0.1500003,0.21094908,1.1456895,-0.09651572,-0.060006097,1.213944,0.5601282,0.016792964,-0.21923396,0.62447906,-0.03617129,-0.58579224,-0.33943704,-0.08602433,766.77655,813.1135,805.05493,749.45056,628.97437,-0.2784423828125,0.12872314453125,0.9637451171875,0.306549072265625,-1.60003662109375,0.97198486328125,1,1.0,1.0,1.0,1.0,20.00
2024-09-29 18:15:47.349,0.9511143,-0.29270387,0.49366254,0.4071648,0.1992169,-0.068500064,0.1500003,0.21094908,1.1456895,-0.09651572,-0.060006097,1.213944,0.5601282,0.016792964,-0.21923396,0.62447906,-0.03617129,-0.58579224,-0.33943704,-0.08602433,749.45056,811.0989,812.71063,744.21246,767.98535,-0.2784423828125,0.12872314453125,0.9637451171875,0.306549072265625,-1.60003662109375,0.97198486328125,1,1.0,1.0,1.0,1.0,20.00
2024-09-29 18:15:47.350,0.9511143,-0.29270387,0.49366254,0.4071648,0.1992169,-0.068500064,0.1500003,0.21094908,1.1456895,-0.09651572,-0.060006097,1.213944,0.5601282,0.016792964,-0.21923396,0.62447906,-0.03617129,-0.58579224,-0.33943704,-0.08602433,734.5421,813.1135,811.9048,723.663,671.28204,-0.2784423828125,0.12872314453125,0.9637451171875,0.306549072265625,-1.60003662109375,0.97198486328125,1,1.0,1.0,1.0,1.0,20.00
2024-09-29 18:15:47.350,0.9511143,-0.29270387,0.49366254,0.4071648,0.1992169,-0.068500064,0.1500003,0.21094908,1.1456895,-0.09651572,-0.060006097,1.213944,0.5601282,0.016792964,-0.21923396,0.62447906,-0.03617129,-0.58579224,-0.33943704,-0.08602433,735.34796,817.9487,808.2784,715.6044,557.25275,-0.2784423828125,0.12872314453125,0.9637451171875,0.306549072265625,-1.60003662109375,0.97198486328125,1,1.0,1.0,1.0,1.0,20.00
2024-09-29 18:15:47.351,0.9511143,-0.29270387,0.49366254,0.4071648,0.1992169,-0.068500064,0.1500003,0.21094908,1.1456895,-0.09651572,-0.060006097,1.213944,0.5601282,0.016792964,-0.21923396,0.62447906,-0.03617129,-0.58579224,-0.33943704,-0.08602433,726.8865,812.71063,802.23444,718.4249,657.1795,-0.2784423828125,0.12872314453125,0.9637451171875,0.306549072265625,-1.60003662109375,0.97198486328125,1,1.0,1.0,1.0,1.0,20.00
2024-09-29 18:15:47.351,0.9511143,-0.29270387,0.49366254,0.4071648,0.1992169,-0.068500064,0.1500003,0.21094908,1.1456895,-0.09651572,-0.060006097,1.213944,0.5601282,0.016792964,-0.21923396,0.62447906,-0.03617129,-0.58579224,-0.33943704,-0.08602433,722.0513,802.6374,800.2198,717.619,730.10986,-0.2784423828125,0.12872314453125,0.9637451171875,0.306549072265625,-1.60003662109375,0.97198486328125,1,1.0,1.0,1.0,1.0,20.00
2024-09-29 18:15:47.352,0.9511143,-0.29270387,0.49366254,0.4071648,0.1992169,-0.068500064,0.1500003,0.21094908,1.1456895,-0.09651572,-0.060006097,1.213944,0.5601282,0.016792964,-0.21923396,0.62447906,-0.03617129,-0.58579224,-0.33943704,-0.08602433,720.4396,803.44324,805.05493,719.2308,722.8571,-0.2784423828125,0.12872314453125,0.9637451171875,0.306549072265625,-1.60003662109375,0.97198486328125,1,1.0,1.0,1.0,1.0,20.00
2024-09-29 18:15:47.353,0.9511143,-0.29270387,0.49366254,0.4071648,0.1992169,-0.068500064,0.1500003,0.21094908,1.1456895,-0.09651572,-0.060006097,1.213944,0.5601282,0.016792964,-0.21923396,0.62447906,-0.03617129,-0.58579224,-0.33943704,-0.08602433,721.2454,807.47253,807.0696,724.87177,790.9524,-0.2784423828125,0.12872314453125,0.9637451171875,0.306549072265625,-1.60003662109375,0.97198486328125,1,1.0,1.0,1.0,1.0,20.00
2024-09-29 18:15:47.353,0.9511143,-0.29270387,0.49366254,0.4071648,0.1992169,-0.068500064,0.1500003,0.21094908,1.1456895,-0.09651572,-0.060006097,1.213944,0.5601282,0.016792964,-0.21923396,0.62447906,-0.03617129,-0.58579224,-0.33943704,-0.08602433,711.978,806.26373,808.2784,720.84247,933.5897,-0.2784423828125,0.12872314453125,0.9637451171875,0.306549072265625,-1.60003662109375,0.97198486328125,1,1.0,1.0,1.0,1.0,20.00
2024-09-29 18:15:47.354,0.9511143,-0.29270387,0.49366254,0.4071648,0.1992169,-0.068500064,0.1500003,0.21094908,1.1456895,-0.09651572,-0.060006097,1.213944,0.5601282,0.016792964,-0.21923396,0.62447906,-0.03617129,-0.58579224,-0.33943704,-0.08602433,707.5458,805.4579,803.44324,716.8132,851.79486,-0.2784423828125,0.12872314453125,0.9637451171875,0.306549072265625,-1.60003662109375,0.97198486328125,1,1.0,1.0,1.0,1.0,20.00
2024-09-29 18:15:47.354,0.9511143,-0.29270387,0.49366254,0.4071648,0.1992169,-0.068500064,0.1500003,0.21094908,1.1456895,-0.09651572,-0.060006097,1.213944,0.5601282,0.016792964,-0.21923396,0.62447906,-0.03617129,-0.58579224,-0.33943704,-0.08602433,713.1868,808.2784,802.23444,722.4542,774.0293,-0.2784423828125,0.12872314453125,0.9637451171875,0.306549072265625,-1.60003662109375,0.97198486328125,1,1.0,1.0,1.0,1.0,20.00
2024-09-29 18:15:47.355,0.9511143,-0.29270387,0.49366254,0.4071648,0.1992169,-0.068500064,0.1500003,0.21094908,1.1456895,-0.09651572,-0.060006097,1.213944,0.5601282,0.016792964,-0.21923396,0.62447906,-0.03617129,-0.58579224,-0.33943704,-0.08602433,718.4249,809.89014,805.4579,720.4396,812.71063,-0.2784423828125,0.12872314453125,0.9637451171875,0.306549072265625,-1.60003662109375,0.97198486328125,1,1.0,1.0,1.0,1.0,20.00
2024-09-29 18:15:47.355,0.9511143,-0.32412925,0.38343796,0.4071648,0.1992169,-0.070818394,0.026055153,0.21094908,1.1456895,-0.08368973,-0.0741589,1.213944,0.5601282,0.00863625,-0.21946539,0.62447906,-0.03617129,-0.5927144,-0.3551642,-0.08602433,731.7216,805.4579,799.81683,721.6484,848.97437,-0.2784423828125,0.12872314453125,0.9637451171875,0.306549072265625,-1.60003662109375,0.97198486328125,1,1.0,1.0,1.0,1.0,20.00
2024-09-29 18:15:47.360,0.9511143,-0.32412925,0.38343796,0.4071648,0.1992169,-0.070818394,0.026055153,0.21094908,1.1456895,-0.08368973,-0.0741589,1.213944,0.5601282,0.00863625,-0.21946539,0.62447906,-0.03617129,-0.5927144,-0.3551642,-0.08602433,736.9597,802.23444,797.3993,728.49817,695.4579,-0.283935546875,0.125732421875,0.9635009765625,-0.04486083984375,-1.8243408203125,0.85235595703125,1,1.0,1.0,1.0,1.0,20.00
2024-09-29 18:15:47.361,0.9511143,-0.32412925,0.38343796,0.4071648,0.1992169,-0.070818394,0.026055153,0.21094908,1.1456895,-0.08368973,-0.0741589,1.213944,0.5601282,0.00863625,-0.21946539,0.62447906,-0.03617129,-0.5927144,-0.3551642,-0.08602433,742.1978,805.4579,796.99634,736.1539,696.6667,-0.283935546875,0.125732421875,0.9635009765625,-0.04486083984375,-1.8243408203125,0.85235595703125,1,1.0,1.0,1.0,1.0,20.00
2024-09-29 18:15:47.362,0.9511143,-0.32412925,0.38343796,0.4071648,0.1992169,-0.070818394,0.026055153,0.21094908,1.1456895,-0.08368973,-0.0741589,1.213944,0.5601282,0.00863625,-0.21946539,0.62447906,-0.03617129,-0.5927144,-0.3551642,-0.08602433,756.7033,806.26373,794.57874,749.0476,786.1172,-0.283935546875,0.125732421875,0.9635009765625,-0.04486083984375,-1.8243408203125,0.85235595703125,1,1.0,1.0,1.0,1.0,20.00
2024-09-29 18:15:47.362,0.9511143,-0.32412925,0.38343796,0.4071648,0.1992169,-0.070818394,0.026055153,0.21094908,1.1456895,-0.08368973,-0.0741589,1.213944,0.5601282,0.00863625,-0.21946539,0.62447906,-0.03617129,-0.5927144,-0.3551642,-0.08602433,768.7912,807.0696,796.5934,766.3736,981.13556,-0.283935546875,0.125732421875,0.9635009765625,-0.04486083984375,-1.8243408203125,0.85235595703125,1,1.0,1.0,1.0,1.0,20.00
2024-09-29 18:15:47.363,0.9511143,-0.32412925,0.38343796,0.4071648,0.1992169,-0.070818394,0.026055153,0.21094908,1.1456895,-0.08368973,-0.0741589,1.213944,0.5601282,0.00863625,-0.21946539,0.62447906,-0.03617129,-0.5927144,-0.3551642,-0.08602433,772.4176,808.2784,799.011,767.5824,900.9524,-0.283935546875,0.125732421875,0.9635009765625,-0.04486083984375,-1.8243408203125,0.85235595703125,1,1.0,1.0,1.0,1.0,20.00
2024-09-29 18:15:47.363,0.9511143,-0.32412925,0.38343796,0.4071648,0.1992169,-0.070818394,0.026055153,0.21094908,1.1456895,-0.08368973,-0.0741589,1.213944,0.5601282,0.00863625,-0.21946539,0.62447906,-0.03617129,-0.5927144,-0.3551642,-0.08602433,775.2381,805.05493,800.6227,766.77655,862.674,-0.283935546875,0.125732421875,0.9635009765625,-0.04486083984375,-1.8243408203125,0.85235595703125,1,1.0,1.0,1.0,1.0,20.00
2024-09-29 18:15:47.364,0.9511143,-0.32412925,0.38343796,0.4071648,0.1992169,-0.070818394,0.026055153,0.21094908,1.1456895,-0.08368973,-0.0741589,1.213944,0.5601282,0.00863625,-0.21946539,0.62447906,-0.03617129,-0.5927144,-0.3551642,-0.08602433,772.01465,802.23444,801.02563,778.46155,1115.3114,-0.283935546875,0.125732421875,0.9635009765625,-0.04486083984375,-1.8243408203125,0.85235595703125,1,1.0,1.0,1.0,1.0,20.00
2024-09-29 18:15:47.366,0.9511143,-0.32412925,0.38343796,0.4071648,0.1992169,-0.070818394,0.026055153,0.21094908,1.1456895,-0.08368973,-0.0741589,1.213944,0.5601282,0.00863625,-0.21946539,0.62447906,-0.03617129,-0.5927144,-0.3551642,-0.08602433,766.3736,798.60803,799.011,779.67035,1095.5677,-0.283935546875,0.125732421875,0.9635009765625,-0.04486083984375,-1.8243408203125,0.85235595703125,1,1.0,1.0,1.0,1.0,20.00
2024-09-29 18:15:47.366,0.9511143,-0.32412925,0.38343796,0.4071648,0.1992169,-0.070818394,0.026055153,0.21094908,1.1456895,-0.08368973,-0.0741589,1.213944,0.5601282,0.00863625,-0.21946539,0.62447906,-0.03617129,-0.5927144,-0.3551642,-0.08602433,772.8205,804.65204,794.57874,765.56775,733.3333,-0.283935546875,0.125732421875,0.9635009765625,-0.04486083984375,-1.8243408203125,0.85235595703125,1,1.0,1.0,1.0,1.0,20.00
2024-09-29 18:15:47.367,0.9511143,-0.32412925,0.38343796,0.4071648,0.1992169,-0.070818394,0.026055153,0.21094908,1.1456895,-0.08368973,-0.0741589,1.213944,0.5601282,0.00863625,-0.21946539,0.62447906,-0.03617129,-0.5927144,-0.3551642,-0.08602433,779.67035,809.0842,788.5348,753.47986,651.53845,-0.283935546875,0.125732421875,0.9635009765625,-0.04486083984375,-1.8243408203125,0.85235595703125,1,1.0,1.0,1.0,1.0,20.00
2024-09-29 18:15:47.368,0.9511143,-0.32412925,0.38343796,0.4071648,0.1992169,-0.070818394,0.026055153,0.21094908,1.1456895,-0.08368973,-0.0741589,1.213944,0.5601282,0.00863625,-0.21946539,0.62447906,-0.03617129,-0.5927144,-0.3551642,-0.08602433,779.67035,801.4286,794.57874,756.30035,911.4286,-0.283935546875,0.125732421875,0.9635009765625,-0.04486083984375,-1.8243408203125,0.85235595703125,1,1.0,1.0,1.0,1.0,20.00
2024-09-29 18:15:47.368,0.9511143,-0.32412925,0.38343796,0.4071648,0.1992169,-0.070818394,0.026055153,0.21094908,1.1456895,-0.08368973,-0.0741589,1.213944,0.5601282,0.00863625,-0.21946539,0.62447906,-0.03617129,-0.5927144,-0.3551642,-0.08602433,769.19415,795.38464,800.6227,764.7619,916.26373,-0.283935546875,0.125732421875,0.9635009765625,-0.04486083984375,-1.8243408203125,0.85235595703125,1,1.0,1.0,1.0,1.0,20.00
2024-09-29 18:15:47.401,0.9511143,-0.32412925,0.38343796,0.4071648,0.1992169,-0.070818394,0.026055153,0.21094908,1.1456895,-0.08368973,-0.0741589,1.213944,0.5601282,0.00863625,-0.21946539,0.62447906,-0.03617129,-0.5927144,-0.3551642,-0.08602433,766.77655,808.68134,796.1905,756.7033,694.65204,-0.27850341796875,0.1309814453125,0.96014404296875,-0.0,-2.100982666015625,0.22430419921875,1,1.0,1.0,1.0,1.0,20.00
2024-09-29 18:15:47.402,0.9511143,-0.32412925,0.38343796,0.4071648,0.1992169,-0.070818394,0.026055153,0.21094908,1.1456895,-0.08368973,-0.0741589,1.213944,0.5601282,0.00863625,-0.21946539,0.62447906,-0.03617129,-0.5927144,-0.3551642,-0.08602433,769.59705,814.3223,790.54944,736.55676,714.7985,-0.27850341796875,0.1309814453125,0.96014404296875,-0.0,-2.100982666015625,0.22430419921875,1,1.0,1.0,1.0,1.0,20.00
2024-09-29 18:15:47.404,0.9511143,-0.32412925,0.38343796,0.4071648,0.1992169,-0.070818394,0.026055153,0.21094908,1.1456895,-0.08368973,-0.0741589,1.213944,0.5601282,0.00863625,-0.21946539,0.62447906,-0.03617129,-0.5927144,-0.3551642,-0.08602433,767.5824,805.4579,792.96704,745.0183,1013.7729,-0.27850341796875,0.1309814453125,0.96014404296875,-0.0,-2.100982666015625,0.22430419921875,1,1.0,1.0,1.0,1.0,20.00
2024-09-29 18:15:47.405,0.9511143,-0.32412925,0.38343796,0.4071648,0.1992169,-0.070818394,0.026055153,0.21094908,1.1456895,-0.08368973,-0.0741589,1.213944,0.5601282,0.00863625,-0.21946539,0.62447906,-0.03617129,-0.5927144,-0.3551642,-0.08602433,749.0476,799.41394,798.60803,756.30035,1243.0403,-0.27850341796875,0.1309814453125,0.96014404296875,-0.0,-2.100982666015625,0.22430419921875,1,1.0,1.0,1.0,1.0,20.00
2024-09-29 18:15:47.406,0.9511143,-0.32412925,0.38343796,0.4071648,0.1992169,-0.070818394,0.026055153,0.21094908,1.1456895,-0.08368973,-0.0741589,1.213944,0.5601282,0.00863625,-0.21946539,0.62447906,-0.03617129,-0.5927144,-0.3551642,-0.08602433,734.1392,793.36993,795.78754,745.42126,862.27106,-0.27850341796875,0.1309814453125,0.96014404296875,-0.0,-2.100982666015625,0.22430419921875,1,1.0,1.0,1.0,1.0,20.00
2024-09-29 18:15:47.407,0.9511143,-0.32412925,0.38343796,0.4071648,0.1992169,-0.070818394,0.026055153,0.21094908,1.1456895,-0.08368973,-0.0741589,1.213944,0.5601282,0.00863625,-0.21946539,0.62447906,-0.03617129,-0.5927144,-0.3551642,-0.08602433,736.55676,796.99634,792.96704,742.6007,782.8938,-0.27850341796875,0.1309814453125,0.96014404296875,-0.0,-2.100982666015625,0.22430419921875,1,1.0,1.0,1.0,1.0,20.00
2024-09-29 18:15:47.408,0.9511143,-0.32412925,0.38343796,0.4071648,0.1992169,-0.070818394,0.026055153,0.21094908,1.1456895,-0.08368973,-0.0741589,1.213944,0.5601282,0.00863625,-0.21946539,0.62447906,-0.03617129,-0.5927144,-0.3551642,-0.08602433,734.5421,801.8315,788.1319,746.2271,1231.7583,-0.27850341796875,0.1309814453125,0.96014404296875,-0.0,-2.100982666015625,0.22430419921875,1,1.0,1.0,1.0,1.0,20.00
2024-09-29 18:15:47.408,0.9511143,-0.32412925,0.38343796,0.4071648,0.1992169,-0.070818394,0.026055153,0.21094908,1.1456895,-0.08368973,-0.0741589,1.213944,0.5601282,0.00863625,-0.21946539,0.62447906,-0.03617129,-0.5927144,-0.3551642,-0.08602433,737.76556,799.41394,784.10254,748.6447,1266.0073,-0.27850341796875,0.1309814453125,0.96014404296875,-0.0,-2.100982666015625,0.22430419921875,1,1.0,1.0,1.0,1.0,20.00
2024-09-29 18:15:47.409,0.9511143,-0.32412925,0.38343796,0.4071648,0.1992169,-0.070818394,0.026055153,0.21094908,1.1456895,-0.08368973,-0.0741589,1.213944,0.5601282,0.00863625,-0.21946539,0.62447906,-0.03617129,-0.5927144,-0.3551642,-0.08602433,747.4359,798.20514,788.5348,742.1978,774.0293,-0.27850341796875,0.1309814453125,0.96014404296875,-0.0,-2.100982666015625,0.22430419921875,1,1.0,1.0,1.0,1.0,20.00
2024-09-29 18:15:47.410,0.9511143,-0.32412925,0.38343796,0.4071648,0.1992169,-0.070818394,0.026055153,0.21094908,1.1456895,-0.08368973,-0.0741589,1.213944,0.5601282,0.00863625,-0.21946539,0.62447906,-0.03617129,-0.5927144,-0.3551642,-0.08602433,744.21246,802.23444,796.1905,743.4066,770.40295,-0.27850341796875,0.1309814453125,0.96014404296875,-0.0,-2.100982666015625,0.22430419921875,1,1.0,1.0,1.0,1.0,20.00
2024-09-29 18:15:47.411,0.9511143,-0.32412925,0.38343796,0.4071648,0.1992169,-0.070818394,0.026055153,0.21094908,1.1456895,-0.08368973,-0.0741589,1.213944,0.5601282,0.00863625,-0.21946539,0.62447906,-0.03617129,-0.5927144,-0.3551642,-0.08602433,737.3626,805.8608,800.6227,747.03296,990.40295,-0.27850341796875,0.1309814453125,0.96014404296875,-0.0,-2.100982666015625,0.22430419921875,1,1.0,1.0,1.0,1.0,20.00
2024-09-29 18:15:47.412,0.9511143,-0.32412925,0.38343796,0.4071648,0.1992169,-0.070818394,0.026055153,0.21094908,1.1456895,-0.08368973,-0.0741589,1.213944,0.5601282,0.00863625,-0.21946539,0.62447906,-0.03617129,-0.5927144,-0.3551642,-0.08602433,745.0183,804.65204,802.23444,743.4066,839.304,-0.27850341796875,0.1309814453125,0.96014404296875,-0.0,-2.100982666015625,0.22430419921875,1,1.0,1.0,1.0,1.0,20.00
2024-09-29 18:15:47.485,0.9511143,-0.32412925,0.38343796,0.4071648,0.1992169,-0.070818394,0.026055153,0.21094908,1.1456895,-0.08368973,-0.0741589,1.213944,0.5601282,0.00863625,-0.21946539,0.62447906,-0.03617129,-0.5927144,-0.3551642,-0.08602433,756.7033,803.8461,800.2198,746.2271,690.2198,-0.28094482421875,0.1246337890625,0.96954345703125,0.04486083984375,-2.1234130859375,0.3887939453125,1,1.0,1.0,1.0,1.0,20.00
2024-09-29 18:15:47.486,0.9511143,-0.36340824,0.25220054,0.4071648,0.1992169,-0.087014,-0.10223496,0.21094908,1.1456895,-0.06711272,-0.08849216,1.213944,0.5601282,0.0047412463,-0.2254858,0.62447906,-0.03617129,-0.5972338,-0.3868476,-0.08602433,765.16486,807.0696,798.20514,756.7033,599.15753,-0.28094482421875,0.1246337890625,0.96954345703125,0.04486083984375,-2.1234130859375,0.3887939453125,1,1.0,1.0,1.0,1.0,20.00
2024-09-29 18:15:47.491,0.9511143,-0.36340824,0.25220054,0.4071648,0.1992169,-0.087014,-0.10223496,0.21094908,1.1456895,-0.06711272,-0.08849216,1.213944,0.5601282,0.0047412463,-0.2254858,0.62447906,-0.03617129,-0.5972338,-0.3868476,-0.08602433,775.2381,806.6667,801.4286,766.77655,685.78754,-0.28094482421875,0.1246337890625,0.96954345703125,0.04486083984375,-2.1234130859375,0.3887939453125,1,1.0,1.0,1.0,1.0,20.00
2024-09-29 18:15:47.491,0.9511143,-0.36340824,0.25220054,0.4071648,0.1992169,-0.087014,-0.10223496,0.21094908,1.1456895,-0.06711272,-0.08849216,1.213944,0.5601282,0.0047412463,-0.2254858,0.62447906,-0.03617129,-0.5972338,-0.3868476,-0.08602433,782.0879,802.23444,802.23444,770.80585,768.3883,-0.28094482421875,0.1246337890625,0.96954345703125,0.04486083984375,-2.1234130859375,0.3887939453125,1,1.0,1.0,1.0,1.0,20.00
2024-09-29 18:15:47.492,0.9511143,-0.36340824,0.25220054,0.4071648,0.1992169,-0.087014,-0.10223496,0.21094908,1.1456895,-0.06711272,-0.08849216,1.213944,0.5601282,0.0047412463,-0.2254858,0.62447906,-0.03617129,-0.5972338,-0.3868476,-0.08602433,776.8498,800.2198,798.20514,767.1795,730.5128,-0.28094482421875,0.1246337890625,0.96954345703125,0.04486083984375,-2.1234130859375,0.3887939453125,1,1.0,1.0,1.0,1.0,20.00
2024-09-29 18:15:47.492,0.9511143,-0.36340824,0.25220054,0.4071648,0.1992169,-0.087014,-0.10223496,0.21094908,1.1456895,-0.06711272,-0.08849216,1.213944,0.5601282,0.0047412463,-0.2254858,0.62447906,-0.03617129,-0.5972338,-0.3868476,-0.08602433,785.31134,801.02563,796.5934,770.40295,969.0476,-0.28094482421875,0.1246337890625,0.96954345703125,0.04486083984375,-2.1234130859375,0.3887939453125,1,1.0,1.0,1.0,1.0,20.00
2024-09-29 18:15:47.493,0.9511143,-0.36340824,0.25220054,0.4071648,0.1992169,-0.087014,-0.10223496,0.21094908,1.1456895,-0.06711272,-0.08849216,1.213944,0.5601282,0.0047412463,-0.2254858,0.62447906,-0.03617129,-0.5972338,-0.3868476,-0.08602433,796.1905,802.23444,799.41394,774.83514,1206.3737,-0.28094482421875,0.1246337890625,0.96954345703125,0.04486083984375,-2.1234130859375,0.3887939453125,1,1.0,1.0,1.0,1.0,20.00
2024-09-29 18:15:47.493,0.9511143,-0.36340824,0.25220054,0.4071648,0.1992169,-0.087014,-0.10223496,0.21094908,1.1456895,-0.06711272,-0.08849216,1.213944,0.5601282,0.0047412463,-0.2254858,0.62447906,-0.03617129,-0.5972338,-0.3868476,-0.08602433,794.17584,805.8608,799.011,776.4469,1014.57874,-0.28094482421875,0.1246337890625,0.96954345703125,0.04486083984375,-2.1234130859375,0.3887939453125,1,1.0,1.0,1.0,1.0,20.00
2024-09-29 18:15:47.494,0.9511143,-0.36340824,0.25220054,0.4071648,0.1992169,-0.087014,-0.10223496,0.21094908,1.1456895,-0.06711272,-0.08849216,1.213944,0.5601282,0.0047412463,-0.2254858,0.62447906,-0.03617129,-0.5972338,-0.3868476,-0.08602433,795.78754,801.02563,799.41394,781.28204,847.76556,-0.28094482421875,0.1246337890625,0.96954345703125,0.04486083984375,-2.1234130859375,0.3887939453125,1,1.0,1.0,1.0,1.0,20.00
2024-09-29 18:15:47.494,0.9511143,-0.36340824,0.25220054,0.4071648,0.1992169,-0.087014,-0.10223496,0.21094908,1.1456895,-0.06711272,-0.08849216,1.213944,0.5601282,0.0047412463,-0.2254858,0.62447906,-0.03617129,-0.5972338,-0.3868476,-0.08602433,793.36993,796.99634,800.6227,778.86444,894.5055,-0.28094482421875,0.1246337890625,0.96954345703125,0.04486083984375,-2.1234130859375,0.3887939453125,1,1.0,1.0,1.0,1.0,20.00
2024-09-29 18:15:47.495,0.9511143,-0.36340824,0.25220054,0.4071648,0.1992169,-0.087014,-0.10223496,0.21094908,1.1456895,-0.06711272,-0.08849216,1.213944,0.5601282,0.0047412463,-0.2254858,0.62447906,-0.03617129,-0.5972338,-0.3868476,-0.08602433,787.326,805.05493,794.9817,776.4469,969.0476,-0.28094482421875,0.1246337890625,0.96954345703125,0.04486083984375,-2.1234130859375,0.3887939453125,1,1.0,1.0,1.0,1.0,20.00
2024-09-29 18:15:47.495,0.9511143,-0.36340824,0.25220054,0.4071648,0.1992169,-0.087014,-0.10223496,0.21094908,1.1456895,-0.06711272,-0.08849216,1.213944,0.5601282,0.0047412463,-0.2254858,0.62447906,-0.03617129,-0.5972338,-0.3868476,-0.08602433,792.1612,805.05493,794.9817,774.83514,918.2784,-0.28094482421875,0.1246337890625,0.96954345703125,0.04486083984375,-2.1234130859375,0.3887939453125,1,1.0,1.0,1.0,1.0,20.00
2024-09-29 18:15:47.519,0.9511143,-0.36340824,0.25220054,0.4071648,0.1992169,-0.087014,-0.10223496,0.21094908,1.1456895,-0.06711272,-0.08849216,1.213944,0.5601282,0.0047412463,-0.2254858,0.62447906,-0.03617129,-0.5972338,-0.3868476,-0.08602433,797.3993,802.6374,798.20514,776.8498,975.4945,-0.27362060546875,0.1241455078125,0.96075439453125,-0.291595458984375,-1.876678466796875,0.471038818359375,1,1.0,1.0,1.0,1.0,20.00
2024-09-29 18:15:47.520,0.9511143,-0.36340824,0.25220054,0.4071648,0.1992169,-0.087014,-0.10223496,0.21094908,1.1456895,-0.06711272,-0.08849216,1.213944,0.5601282,0.0047412463,-0.2254858,0.62447906,-0.03617129,-0.5972338,-0.3868476,-0.08602433,790.54944,808.68134,801.02563,780.07324,963.4066,-0.27362060546875,0.1241455078125,0.96075439453125,-0.291595458984375,-1.876678466796875,0.471038818359375,1,1.0,1.0,1.0,1.0,20.00
2024-09-29 18:15:47.521,0.9511143,-0.36340824,0.25220054,0.4071648,0.1992169,-0.087014,-0.10223496,0.21094908,1.1456895,-0.06711272,-0.08849216,1.213944,0.5601282,0.0047412463,-0.2254858,0.62447906,-0.03617129,-0.5972338,-0.3868476,-0.08602433,785.7143,809.89014,801.8315,784.10254,866.7033,-0.27362060546875,0.1241455078125,0.96075439453125,-0.291595458984375,-1.876678466796875,0.471038818359375,1,1.0,1.0,1.0,1.0,20.00
2024-09-29 18:15:47.522,0.9511143,-0.36340824,0.25220054,0.4071648,0.1992169,-0.087014,-0.10223496,0.21094908,1.1456895,-0.06711272,-0.08849216,1.213944,0.5601282,0.0047412463,-0.2254858,0.62447906,-0.03617129,-0.5972338,-0.3868476,-0.08602433,785.7143,807.0696,805.4579,785.31134,815.12823,-0.27362060546875,0.1241455078125,0.96075439453125,-0.291595458984375,-1.876678466796875,0.471038818359375,1,1.0,1.0,1.0,1.0,20.00
2024-09-29 18:15:47.522,0.9511143,-0.36340824,0.25220054,0.4071648,0.1992169,-0.087014,-0.10223496,0.21094908,1.1456895,-0.06711272,-0.08849216,1.213944,0.5601282,0.0047412463,-0.2254858,0.62447906,-0.03617129,-0.5972338,-0.3868476,-0.08602433,780.07324,805.8608,808.2784,792.5641,863.47986,-0.27362060546875,0.1241455078125,0.96075439453125,-0.291595458984375,-1.876678466796875,0.471038818359375,1,1.0,1.0,1.0,1.0,20.00
2024-09-29 18:15:47.523,0.9511143,-0.36340824,0.25220054,0.4071648,0.1992169,-0.087014,-0.10223496,0.21094908,1.1456895,-0.06711272,-0.08849216,1.213944,0.5601282,0.0047412463,-0.2254858,0.62447906,-0.03617129,-0.5972338,-0.3868476,-0.08602433,780.87915,803.0403,802.23444,792.96704,1089.9268,-0.27362060546875,0.1241455078125,0.96075439453125,-0.291595458984375,-1.876678466796875,0.471038818359375,1,1.0,1.0,1.0,1.0,20.00
2024-09-29 18:15:47.524,0.9511143,-0.36340824,0.25220054,0.4071648,0.1992169,-0.087014,-0.10223496,0.21094908,1.1456895,-0.06711272,-0.08849216,1.213944,0.5601282,0.0047412463,-0.2254858,0.62447906,-0.03617129,-0.5972338,-0.3868476,-0.08602433,790.9524,803.0403,797.8022,792.5641,974.68866,-0.27362060546875,0.1241455078125,0.96075439453125,-0.291595458984375,-1.876678466796875,0.471038818359375,1,1.0,1.0,1.0,1.0,20.00
2024-09-29 18:15:47.525,0.9511143,-0.36340824,0.25220054,0.4071648,0.1992169,-0.087014,-0.10223496,0.21094908,1.1456895,-0.06711272,-0.08849216,1.213944,0.5601282,0.0047412463,-0.2254858,0.62447906,-0.03617129,-0.5972338,-0.3868476,-0.08602433,790.54944,799.41394,800.2198,798.60803,753.47986,-0.27362060546875,0.1241455078125,0.96075439453125,-0.291595458984375,-1.876678466796875,0.471038818359375,1,1.0,1.0,1.0,1.0,20.00
2024-09-29 18:15:47.526,0.9511143,-0.36340824,0.25220054,0.4071648,0.1992169,-0.087014,-0.10223496,0.21094908,1.1456895,-0.06711272,-0.08849216,1.213944,0.5601282,0.0047412463,-0.2254858,0.62447906,-0.03617129,-0.5972338,-0.3868476,-0.08602433,788.1319,800.2198,800.6227,801.4286,858.6447,-0.27362060546875,0.1241455078125,0.96075439453125,-0.291595458984375,-1.876678466796875,0.471038818359375,1,1.0,1.0,1.0,1.0,20.00
2024-09-29 18:15:47.527,0.9511143,-0.36340824,0.25220054,0.4071648,0.1992169,-0.087014,-0.10223496,0.21094908,1.1456895,-0.06711272,-0.08849216,1.213944,0.5601282,0.0047412463,-0.2254858,0.62447906,-0.03617129,-0.5972338,-0.3868476,-0.08602433,791.3553,799.011,799.41394,804.2491,1081.4652,-0.27362060546875,0.1241455078125,0.96075439453125,-0.291595458984375,-1.876678466796875,0.471038818359375,1,1.0,1.0,1.0,1.0,20.00
2024-09-29 18:15:47.528,0.9511143,-0.36340824,0.25220054,0.4071648,0.1992169,-0.087014,-0.10223496,0.21094908,1.1456895,-0.06711272,-0.08849216,1.213944,0.5601282,0.0047412463,-0.2254858,0.62447906,-0.03617129,-0.5972338,-0.3868476,-0.08602433,801.8315,801.4286,798.20514,801.8315,878.7912,-0.27362060546875,0.1241455078125,0.96075439453125,-0.291595458984375,-1.876678466796875,0.471038818359375,1,1.0,1.0,1.0,1.0,20.00
2024-09-29 18:15:47.528,0.9511143,-0.36340824,0.25220054,0.4071648,0.1992169,-0.087014,-0.10223496,0.21094908,1.1456895,-0.06711272,-0.08849216,1.213944,0.5601282,0.0047412463,-0.2254858,0.62447906,-0.03617129,-0.5972338,-0.3868476,-0.08602433,806.26373,803.8461,794.17584,796.99634,699.4872,-0.27362060546875,0.1241455078125,0.96075439453125,-0.291595458984375,-1.876678466796875,0.471038818359375,1,1.0,1.0,1.0,1.0,20.00
2024-09-29 18:15:47.621,0.9511143,-0.36340824,0.25220054,0.4071648,0.1992169,-0.087014,-0.10223496,0.21094908,1.1456895,-0.06711272,-0.08849216,1.213944,0.5601282,0.0047412463,-0.2254858,0.62447906,-0.03617129,-0.5972338,-0.3868476,-0.08602433,808.68134,795.78754,795.78754,801.4286,913.8461,-0.27362060546875,0.1241455078125,0.96075439453125,-0.291595458984375,-1.876678466796875,0.471038818359375,1,1.0,1.0,1.0,1.0,20.00
2024-09-29 18:15:47.622,0.9511143,-0.36340824,0.25220054,0.4071648,0.1992169,-0.087014,-0.10223496,0.21094908,1.1456895,-0.06711272,-0.08849216,1.213944,0.5601282,0.0047412463,-0.2254858,0.62447906,-0.03617129,-0.5972338,-0.3868476,-0.08602433,809.4872,792.96704,799.81683,806.6667,1138.6813,-0.27362060546875,0.1241455078125,0.96075439453125,-0.291595458984375,-1.876678466796875,0.471038818359375,1,1.0,1.0,1.0,1.0,20.00
2024-09-29 18:15:47.623,0.9511143,-0.36340824,0.25220054,0.4071648,0.1992169,-0.087014,-0.10223496,0.21094908,1.1456895,-0.06711272,-0.08849216,1.213944,0.5601282,0.0047412463,-0.2254858,0.62447906,-0.03617129,-0.5972338,-0.3868476,-0.08602433,815.9341,796.5934,797.8022,802.6374,947.6923,-0.27362060546875,0.1241455078125,0.96075439453125,-0.291595458984375,-1.876678466796875,0.471038818359375,1,1.0,1.0,1.0,1.0,20.00
2024-09-29 18:15:47,,,,,,,,,,,,,,,,,,,,,,,,,,,,,,,,,,,,,,/muse/elements/blink
2024-09-29 18:15:47.624,0.9511143,-0.38587713,0.12932628,0.4071648,0.1992169,-0.1114146,-0.19121167,0.21094908,1.1456895,-0.08926455,-0.08748135,1.213944,0.5601282,0.0052025346,-0.23898399,0.62447906,-0.03617129,-0.5917604,-0.43078268,-0.08602433,821.5751,798.20514,799.81683,805.4579,755.89746,-0.27362060546875,0.1241455078125,0.96075439453125,-0.291595458984375,-1.876678466796875,0.471038818359375,1,1.0,1.0,1.0,1.0,20.00
2024-09-29 18:15:47.629,0.9511143,-0.38587713,0.12932628,0.4071648,0.1992169,-0.1114146,-0.19121167,0.21094908,1.1456895,-0.08926455,-0.08748135,1.213944,0.5601282,0.0052025346,-0.23898399,0.62447906,-0.03617129,-0.5917604,-0.43078268,-0.08602433,812.71063,796.5934,800.2198,807.47253,809.0842,-0.27362060546875,0.1241455078125,0.96075439453125,-0.291595458984375,-1.876678466796875,0.471038818359375,1,1.0,1.0,1.0,1.0,20.00
2024-09-29 18:15:47.630,0.9511143,-0.38587713,0.12932628,0.4071648,0.1992169,-0.1114146,-0.19121167,0.21094908,1.1456895,-0.08926455,-0.08748135,1.213944,0.5601282,0.0052025346,-0.23898399,0.62447906,-0.03617129,-0.5917604,-0.43078268,-0.08602433,808.68134,797.3993,797.8022,804.65204,969.0476,-0.27362060546875,0.1241455078125,0.96075439453125,-0.291595458984375,-1.876678466796875,0.471038818359375,1,1.0,1.0,1.0,1.0,20.00
2024-09-29 18:15:47.630,0.9511143,-0.38587713,0.12932628,0.4071648,0.1992169,-0.1114146,-0.19121167,0.21094908,1.1456895,-0.08926455,-0.08748135,1.213944,0.5601282,0.0052025346,-0.23898399,0.62447906,-0.03617129,-0.5917604,-0.43078268,-0.08602433,806.26373,791.3553,799.81683,805.8608,896.9231,-0.27362060546875,0.1241455078125,0.96075439453125,-0.291595458984375,-1.876678466796875,0.471038818359375,1,1.0,1.0,1.0,1.0,20.00
2024-09-29 18:15:47.631,0.9511143,-0.38587713,0.12932628,0.4071648,0.1992169,-0.1114146,-0.19121167,0.21094908,1.1456895,-0.08926455,-0.08748135,1.213944,0.5601282,0.0052025346,-0.23898399,0.62447906,-0.03617129,-0.5917604,-0.43078268,-0.08602433,808.68134,786.9231,803.44324,806.26373,652.74725,-0.27362060546875,0.1241455078125,0.96075439453125,-0.291595458984375,-1.876678466796875,0.471038818359375,1,1.0,1.0,1.0,1.0,20.00
2024-09-29 18:15:47.632,0.9511143,-0.38587713,0.12932628,0.4071648,0.1992169,-0.1114146,-0.19121167,0.21094908,1.1456895,-0.08926455,-0.08748135,1.213944,0.5601282,0.0052025346,-0.23898399,0.62447906,-0.03617129,-0.5917604,-0.43078268,-0.08602433,823.9927,796.1905,790.54944,809.89014,801.02563,-0.27362060546875,0.1241455078125,0.96075439453125,-0.291595458984375,-1.876678466796875,0.471038818359375,1,1.0,1.0,1.0,1.0,20.00
2024-09-29 18:15:47.632,0.9511143,-0.38587713,0.12932628,0.4071648,0.1992169,-0.1114146,-0.19121167,0.21094908,1.1456895,-0.08926455,-0.08748135,1.213944,0.5601282,0.0052025346,-0.23898399,0.62447906,-0.03617129,-0.5917604,-0.43078268,-0.08602433,815.12823,791.3553,786.9231,811.9048,1160.4396,-0.27362060546875,0.1241455078125,0.96075439453125,-0.291595458984375,-1.876678466796875,0.471038818359375,1,1.0,1.0,1.0,1.0,20.00
2024-09-29 18:15:47.633,0.9511143,-0.38587713,0.12932628,0.4071648,0.1992169,-0.1114146,-0.19121167,0.21094908,1.1456895,-0.08926455,-0.08748135,1.213944,0.5601282,0.0052025346,-0.23898399,0.62447906,-0.03617129,-0.5917604,-0.43078268,-0.08602433,804.2491,785.31134,794.9817,808.2784,901.75824,-0.27362060546875,0.1241455078125,0.96075439453125,-0.291595458984375,-1.876678466796875,0.471038818359375,1,1.0,1.0,1.0,1.0,20.00
2024-09-29 18:15:47.633,0.9511143,-0.38587713,0.12932628,0.4071648,0.1992169,-0.1114146,-0.19121167,0.21094908,1.1456895,-0.08926455,-0.08748135,1.213944,0.5601282,0.0052025346,-0.23898399,0.62447906,-0.03617129,-0.5917604,-0.43078268,-0.08602433,819.15753,801.4286,791.75824,813.1135,610.0366,-0.27362060546875,0.1241455078125,0.96075439453125,-0.291595458984375,-1.876678466796875,0.471038818359375,1,1.0,1.0,1.0,1.0,20.00
2024-09-29 18:15:47.634,0.9511143,-0.38587713,0.12932628,0.4071648,0.1992169,-0.1114146,-0.19121167,0.21094908,1.1456895,-0.08926455,-0.08748135,1.213944,0.5601282,0.0052025346,-0.23898399,0.62447906,-0.03617129,-0.5917604,-0.43078268,-0.08602433,818.3516,808.2784,787.72894,809.4872,854.21246,-0.2734375,0.12554931640625,0.96588134765625,0.157012939453125,-1.966400146484375,0.04486083984375,1,1.0,1.0,1.0,1.0,20.00
2024-09-29 18:15:47.635,0.9511143,-0.38587713,0.12932628,0.4071648,0.1992169,-0.1114146,-0.19121167,0.21094908,1.1456895,-0.08926455,-0.08748135,1.213944,0.5601282,0.0052025346,-0.23898399,0.62447906,-0.03617129,-0.5917604,-0.43078268,-0.08602433,805.8608,801.4286,783.69965,803.8461,1085.4945,-0.2734375,0.12554931640625,0.96588134765625,0.157012939453125,-1.966400146484375,0.04486083984375,1,1.0,1.0,1.0,1.0,20.00
2024-09-29 18:15:47.635,0.9511143,-0.38587713,0.12932628,0.4071648,0.1992169,-0.1114146,-0.19121167,0.21094908,1.1456895,-0.08926455,-0.08748135,1.213944,0.5601282,0.0052025346,-0.23898399,0.62447906,-0.03617129,-0.5917604,-0.43078268,-0.08602433,804.65204,797.8022,787.326,807.47253,845.7509,-0.2734375,0.12554931640625,0.96588134765625,0.157012939453125,-1.966400146484375,0.04486083984375,1,1.0,1.0,1.0,1.0,20.00
2024-09-29 18:15:47.636,0.9511143,-0.38587713,0.12932628,0.4071648,0.1992169,-0.1114146,-0.19121167,0.21094908,1.1456895,-0.08926455,-0.08748135,1.213944,0.5601282,0.0052025346,-0.23898399,0.62447906,-0.03617129,-0.5917604,-0.43078268,-0.08602433,799.81683,792.1612,795.78754,812.3077,692.23444,-0.2734375,0.12554931640625,0.96588134765625,0.157012939453125,-1.966400146484375,0.04486083984375,1,1.0,1.0,1.0,1.0,20.00
2024-09-29 18:15:47.636,0.9511143,-0.38587713,0.12932628,0.4071648,0.1992169,-0.1114146,-0.19121167,0.21094908,1.1456895,-0.08926455,-0.08748135,1.213944,0.5601282,0.0052025346,-0.23898399,0.62447906,-0.03617129,-0.5917604,-0.43078268,-0.08602433,799.41394,790.54944,787.72894,811.9048,718.022,-0.2734375,0.12554931640625,0.96588134765625,0.157012939453125,-1.966400146484375,0.04486083984375,1,1.0,1.0,1.0,1.0,20.00
2024-09-29 18:15:47.637,0.9511143,-0.38587713,0.12932628,0.4071648,0.1992169,-0.1114146,-0.19121167,0.21094908,1.1456895,-0.08926455,-0.08748135,1.213944,0.5601282,0.0052025346,-0.23898399,0.62447906,-0.03617129,-0.5917604,-0.43078268,-0.08602433,809.89014,795.78754,792.96704,823.9927,840.9158,-0.2734375,0.12554931640625,0.96588134765625,0.157012939453125,-1.966400146484375,0.04486083984375,1,1.0,1.0,1.0,1.0,20.00
2024-09-29 18:15:47.638,0.9511143,-0.38587713,0.12932628,0.4071648,0.1992169,-0.1114146,-0.19121167,0.21094908,1.1456895,-0.08926455,-0.08748135,1.213944,0.5601282,0.0052025346,-0.23898399,0.62447906,-0.03617129,-0.5917604,-0.43078268,-0.08602433,818.3516,797.3993,801.4286,833.2601,878.3883,-0.2734375,0.12554931640625,0.96588134765625,0.157012939453125,-1.966400146484375,0.04486083984375,1,1.0,1.0,1.0,1.0,20.00
2024-09-29 18:15:47.638,0.9511143,-0.38587713,0.12932628,0.4071648,0.1992169,-0.1114146,-0.19121167,0.21094908,1.1456895,-0.08926455,-0.08748135,1.213944,0.5601282,0.0052025346,-0.23898399,0.62447906,-0.03617129,-0.5917604,-0.43078268,-0.08602433,830.84247,795.38464,794.57874,832.8571,749.0476,-0.2734375,0.12554931640625,0.96588134765625,0.157012939453125,-1.966400146484375,0.04486083984375,1,1.0,1.0,1.0,1.0,20.00
2024-09-29 18:15:47.639,0.9511143,-0.38587713,0.12932628,0.4071648,0.1992169,-0.1114146,-0.19121167,0.21094908,1.1456895,-0.08926455,-0.08748135,1.213944,0.5601282,0.0052025346,-0.23898399,0.62447906,-0.03617129,-0.5917604,-0.43078268,-0.08602433,846.1539,797.8022,793.7729,841.7216,749.0476,-0.2734375,0.12554931640625,0.96588134765625,0.157012939453125,-1.966400146484375,0.04486083984375,1,1.0,1.0,1.0,1.0,20.00
2024-09-29 18:15:47.640,0.9511143,-0.38587713,0.12932628,0.4071648,0.1992169,-0.1114146,-0.19121167,0.21094908,1.1456895,-0.08926455,-0.08748135,1.213944,0.5601282,0.0052025346,-0.23898399,0.62447906,-0.03617129,-0.5917604,-0.43078268,-0.08602433,861.06226,801.02563,798.60803,851.39197,777.25275,-0.2734375,0.12554931640625,0.96588134765625,0.157012939453125,-1.966400146484375,0.04486083984375,1,1.0,1.0,1.0,1.0,20.00
2024-09-29 18:15:47.640,0.9511143,-0.38587713,0.12932628,0.4071648,0.1992169,-0.1114146,-0.19121167,0.21094908,1.1456895,-0.08926455,-0.08748135,1.213944,0.5601282,0.0052025346,-0.23898399,0.62447906,-0.03617129,-0.5917604,-0.43078268,-0.08602433,871.9414,798.60803,804.65204,851.79486,726.8865,-0.2734375,0.12554931640625,0.96588134765625,0.157012939453125,-1.966400146484375,0.04486083984375,1,1.0,1.0,1.0,1.0,20.00
2024-09-29 18:15:47.641,0.9511143,-0.38587713,0.12932628,0.4071648,0.1992169,-0.1114146,-0.19121167,0.21094908,1.1456895,-0.08926455,-0.08748135,1.213944,0.5601282,0.0052025346,-0.23898399,0.62447906,-0.03617129,-0.5917604,-0.43078268,-0.08602433,873.1502,800.2198,798.20514,844.94507,691.4286,-0.2734375,0.12554931640625,0.96588134765625,0.157012939453125,-1.966400146484375,0.04486083984375,1,1.0,1.0,1.0,1.0,20.00
2024-09-29 18:15:47.701,0.9511143,-0.38587713,0.12932628,0.4071648,0.1992169,-0.1114146,-0.19121167,0.21094908,1.1456895,-0.08926455,-0.08748135,1.213944,0.5601282,0.0052025346,-0.23898399,0.62447906,-0.03617129,-0.5917604,-0.43078268,-0.08602433,877.98535,801.8315,794.57874,854.61536,967.8388,-0.27923583984375,0.1259765625,0.96514892578125,0.31402587890625,-1.1962890625,0.426177978515625,1,1.0,1.0,1.0,1.0,20.00
2024-09-29 18:15:47.702,0.9511143,-0.38587713,0.12932628,0.4071648,0.1992169,-0.1114146,-0.19121167,0.21094908,1.1456895,-0.08926455,-0.08748135,1.213944,0.5601282,0.0052025346,-0.23898399,0.62447906,-0.03617129,-0.5917604,-0.43078268,-0.08602433,886.4469,803.44324,801.02563,863.8828,968.6447,-0.27923583984375,0.1259765625,0.96514892578125,0.31402587890625,-1.1962890625,0.426177978515625,1,1.0,1.0,1.0,1.0,20.00
2024-09-29 18:15:47.703,0.9511143,-0.38587713,0.12932628,0.4071648,0.1992169,-0.1114146,-0.19121167,0.21094908,1.1456895,-0.08926455,-0.08748135,1.213944,0.5601282,0.0052025346,-0.23898399,0.62447906,-0.03617129,-0.5917604,-0.43078268,-0.08602433,880.0,808.2784,804.65204,865.4945,790.54944,-0.27923583984375,0.1259765625,0.96514892578125,0.31402587890625,-1.1962890625,0.426177978515625,1,1.0,1.0,1.0,1.0,20.00
2024-09-29 18:15:47.704,0.9511143,-0.38587713,0.12932628,0.4071648,0.1992169,-0.1114146,-0.19121167,0.21094908,1.1456895,-0.08926455,-0.08748135,1.213944,0.5601282,0.0052025346,-0.23898399,0.62447906,-0.03617129,-0.5917604,-0.43078268,-0.08602433,880.0,801.8315,804.2491,872.3443,741.39197,-0.27923583984375,0.1259765625,0.96514892578125,0.31402587890625,-1.1962890625,0.426177978515625,1,1.0,1.0,1.0,1.0,20.00
2024-09-29 18:15:47.705,0.9511143,-0.38587713,0.12932628,0.4071648,0.1992169,-0.1114146,-0.19121167,0.21094908,1.1456895,-0.08926455,-0.08748135,1.213944,0.5601282,0.0052025346,-0.23898399,0.62447906,-0.03617129,-0.5917604,-0.43078268,-0.08602433,882.4176,798.20514,798.20514,866.30035,734.94507,-0.27923583984375,0.1259765625,0.96514892578125,0.31402587890625,-1.1962890625,0.426177978515625,1,1.0,1.0,1.0,1.0,20.00
2024-09-29 18:15:47.705,0.9511143,-0.36353704,0.036745638,0.4071648,0.1992169,-0.12921786,-0.2235131,0.21094908,1.1456895,-0.16134422,-0.08748135,1.213944,0.5601282,0.005672508,-0.25192404,0.62447906,-0.03617129,-0.57538444,-0.47072476,-0.08602433,868.71796,803.8461,793.7729,856.2271,903.36993,-0.27923583984375,0.1259765625,0.96514892578125,0.31402587890625,-1.1962890625,0.426177978515625,1,1.0,1.0,1.0,1.0,20.00
2024-09-29 18:15:47.710,0.9511143,-0.36353704,0.036745638,0.4071648,0.1992169,-0.12921786,-0.2235131,0.21094908,1.1456895,-0.16134422,-0.08748135,1.213944,0.5601282,0.005672508,-0.25192404,0.62447906,-0.03617129,-0.57538444,-0.47072476,-0.08602433,870.32965,803.44324,792.5641,862.27106,985.9707,-0.27923583984375,0.1259765625,0.96514892578125,0.31402587890625,-1.1962890625,0.426177978515625,1,1.0,1.0,1.0,1.0,20.00
2024-09-29 18:15:47.711,0.9511143,-0.36353704,0.036745638,0.4071648,0.1992169,-0.12921786,-0.2235131,0.21094908,1.1456895,-0.16134422,-0.08748135,1.213944,0.5601282,0.005672508,-0.25192404,0.62447906,-0.03617129,-0.57538444,-0.47072476,-0.08602433,882.01465,801.4286,790.14655,866.30035,910.6227,-0.27923583984375,0.1259765625,0.96514892578125,0.31402587890625,-1.1962890625,0.426177978515625,1,1.0,1.0,1.0,1.0,20.00
2024-09-29 18:15:47.712,0.9511143,-0.36353704,0.036745638,0.4071648,0.1992169,-0.12921786,-0.2235131,0.21094908,1.1456895,-0.16134422,-0.08748135,1.213944,0.5601282,0.005672508,-0.25192404,0.62447906,-0.03617129,-0.57538444,-0.47072476,-0.08602433,889.2674,807.8755,788.1319,861.8681,948.0952,-0.27923583984375,0.1259765625,0.96514892578125,0.31402587890625,-1.1962890625,0.426177978515625,1,1.0,1.0,1.0,1.0,20.00
2024-09-29 18:15:47.712,0.9511143,-0.36353704,0.036745638,0.4071648,0.1992169,-0.12921786,-0.2235131,0.21094908,1.1456895,-0.16134422,-0.08748135,1.213944,0.5601282,0.005672508,-0.25192404,0.62447906,-0.03617129,-0.57538444,-0.47072476,-0.08602433,884.0293,809.0842,784.5055,860.65936,811.0989,-0.27923583984375,0.1259765625,0.96514892578125,0.31402587890625,-1.1962890625,0.426177978515625,1,1.0,1.0,1.0,1.0,20.00
2024-09-29 18:15:47.713,0.9511143,-0.36353704,0.036745638,0.4071648,0.1992169,-0.12921786,-0.2235131,0.21094908,1.1456895,-0.16134422,-0.08748135,1.213944,0.5601282,0.005672508,-0.25192404,0.62447906,-0.03617129,-0.57538444,-0.47072476,-0.08602433,885.64105,801.8315,782.0879,868.315,818.7546,-0.27923583984375,0.1259765625,0.96514892578125,0.31402587890625,-1.1962890625,0.426177978515625,1,1.0,1.0,1.0,1.0,20.00
2024-09-29 18:15:47.714,0.9511143,-0.36353704,0.036745638,0.4071648,0.1992169,-0.12921786,-0.2235131,0.21094908,1.1456895,-0.16134422,-0.08748135,1.213944,0.5601282,0.005672508,-0.25192404,0.62447906,-0.03617129,-0.57538444,-0.47072476,-0.08602433,886.04395,794.9817,781.28204,867.9121,982.74725,-0.27923583984375,0.1259765625,0.96514892578125,0.31402587890625,-1.1962890625,0.426177978515625,1,1.0,1.0,1.0,1.0,20.00
2024-09-29 18:15:47.736,0.9511143,-0.36353704,0.036745638,0.4071648,0.1992169,-0.12921786,-0.2235131,0.21094908,1.1456895,-0.16134422,-0.08748135,1.213944,0.5601282,0.005672508,-0.25192404,0.62447906,-0.03617129,-0.57538444,-0.47072476,-0.08602433,886.04395,789.7436,781.685,869.92676,861.06226,-0.28350830078125,0.12115478515625,0.9705810546875,-0.2392578125,-1.1663818359375,0.1495361328125,1,1.0,1.0,1.0,1.0,20.00
2024-09-29 18:15:47.737,0.9511143,-0.36353704,0.036745638,0.4071648,0.1992169,-0.12921786,-0.2235131,0.21094908,1.1456895,-0.16134422,-0.08748135,1.213944,0.5601282,0.005672508,-0.25192404,0.62447906,-0.03617129,-0.57538444,-0.47072476,-0.08602433,889.2674,795.38464,781.685,880.40295,698.2784,-0.28350830078125,0.12115478515625,0.9705810546875,-0.2392578125,-1.1663818359375,0.1495361328125,1,1.0,1.0,1.0,1.0,20.00
2024-09-29 18:15:47.738,0.9511143,-0.36353704,0.036745638,0.4071648,0.1992169,-0.12921786,-0.2235131,0.21094908,1.1456895,-0.16134422,-0.08748135,1.213944,0.5601282,0.005672508,-0.25192404,0.62447906,-0.03617129,-0.57538444,-0.47072476,-0.08602433,882.4176,797.3993,782.8938,884.43225,784.90845,-0.28350830078125,0.12115478515625,0.9705810546875,-0.2392578125,-1.1663818359375,0.1495361328125,1,1.0,1.0,1.0,1.0,20.00
2024-09-29 18:15:47.739,0.9511143,-0.36353704,0.036745638,0.4071648,0.1992169,-0.12921786,-0.2235131,0.21094908,1.1456895,-0.16134422,-0.08748135,1.213944,0.5601282,0.005672508,-0.25192404,0.62447906,-0.03617129,-0.57538444,-0.47072476,-0.08602433,877.5824,796.1905,785.31134,889.2674,1046.4103,-0.28350830078125,0.12115478515625,0.9705810546875,-0.2392578125,-1.1663818359375,0.1495361328125,1,1.0,1.0,1.0,1.0,20.00
2024-09-29 18:15:47.740,0.9511143,-0.36353704,0.036745638,0.4071648,0.1992169,-0.12921786,-0.2235131,0.21094908,1.1456895,-0.16134422,-0.08748135,1.213944,0.5601282,0.005672508,-0.25192404,0.62447906,-0.03617129,-0.57538444,-0.47072476,-0.08602433,882.01465,796.99634,782.49084,892.49084,1336.1172,-0.28350830078125,0.12115478515625,0.9705810546875,-0.2392578125,-1.1663818359375,0.1495361328125,1,1.0,1.0,1.0,1.0,20.00
2024-09-29 18:15:47.740,0.9511143,-0.36353704,0.036745638,0.4071648,0.1992169,-0.12921786,-0.2235131,0.21094908,1.1456895,-0.16134422,-0.08748135,1.213944,0.5601282,0.005672508,-0.25192404,0.62447906,-0.03617129,-0.57538444,-0.47072476,-0.08602433,873.95605,792.96704,781.685,883.6264,1283.3334,-0.28350830078125,0.12115478515625,0.9705810546875,-0.2392578125,-1.1663818359375,0.1495361328125,1,1.0,1.0,1.0,1.0,20.00
2024-09-29 18:15:47.741,0.9511143,-0.36353704,0.036745638,0.4071648,0.1992169,-0.12921786,-0.2235131,0.21094908,1.1456895,-0.16134422,-0.08748135,1.213944,0.5601282,0.005672508,-0.25192404,0.62447906,-0.03617129,-0.57538444,-0.47072476,-0.08602433,862.27106,791.3553,794.17584,873.5531,1062.5275,-0.28350830078125,0.12115478515625,0.9705810546875,-0.2392578125,-1.1663818359375,0.1495361328125,1,1.0,1.0,1.0,1.0,20.00
2024-09-29 18:15:47.742,0.9511143,-0.36353704,0.036745638,0.4071648,0.1992169,-0.12921786,-0.2235131,0.21094908,1.1456895,-0.16134422,-0.08748135,1.213944,0.5601282,0.005672508,-0.25192404,0.62447906,-0.03617129,-0.57538444,-0.47072476,-0.08602433,869.5238,788.93774,795.78754,872.74725,1011.3553,-0.28350830078125,0.12115478515625,0.9705810546875,-0.2392578125,-1.1663818359375,0.1495361328125,1,1.0,1.0,1.0,1.0,20.00
2024-09-29 18:15:47.742,0.9511143,-0.36353704,0.036745638,0.4071648,0.1992169,-0.12921786,-0.2235131,0.21094908,1.1456895,-0.16134422,-0.08748135,1.213944,0.5601282,0.005672508,-0.25192404,0.62447906,-0.03617129,-0.57538444,-0.47072476,-0.08602433,871.53845,789.34064,792.96704,867.50916,806.26373,-0.28350830078125,0.12115478515625,0.9705810546875,-0.2392578125,-1.1663818359375,0.1495361328125,1,1.0,1.0,1.0,1.0,20.00
2024-09-29 18:15:47.743,0.9511143,-0.36353704,0.036745638,0.4071648,0.1992169,-0.12921786,-0.2235131,0.21094908,1.1456895,-0.16134422,-0.08748135,1.213944,0.5601282,0.005672508,-0.25192404,0.62447906,-0.03617129,-0.57538444,-0.47072476,-0.08602433,877.1795,793.36993,796.5934,867.9121,576.5934,-0.28350830078125,0.12115478515625,0.9705810546875,-0.2392578125,-1.1663818359375,0.1495361328125,1,1.0,1.0,1.0,1.0,20.00
2024-09-29 18:15:47.743,0.9511143,-0.36353704,0.036745638,0.4071648,0.1992169,-0.12921786,-0.2235131,0.21094908,1.1456895,-0.16134422,-0.08748135,1.213944,0.5601282,0.005672508,-0.25192404,0.62447906,-0.03617129,-0.57538444,-0.47072476,-0.08602433,876.77655,789.7436,793.7729,870.7326,713.5897,-0.28350830078125,0.12115478515625,0.9705810546875,-0.2392578125,-1.1663818359375,0.1495361328125,1,1.0,1.0,1.0,1.0,20.00
2024-09-29 18:15:47.744,0.9511143,-0.36353704,0.036745638,0.4071648,0.1992169,-0.12921786,-0.2235131,0.21094908,1.1456895,-0.16134422,-0.08748135,1.213944,0.5601282,0.005672508,-0.25192404,0.62447906,-0.03617129,-0.57538444,-0.47072476,-0.08602433,866.7033,788.93774,791.75824,869.5238,1014.57874,-0.28350830078125,0.12115478515625,0.9705810546875,-0.2392578125,-1.1663818359375,0.1495361328125,1,1.0,1.0,1.0,1.0,20.00
2024-09-29 18:15:47.769,0.9511143,-0.36353704,0.036745638,0.4071648,0.1992169,-0.12921786,-0.2235131,0.21094908,1.1456895,-0.16134422,-0.08748135,1.213944,0.5601282,0.005672508,-0.25192404,0.62447906,-0.03617129,-0.57538444,-0.47072476,-0.08602433,865.09155,794.57874,793.7729,867.50916,885.2381,-0.27911376953125,0.1158447265625,0.96173095703125,0.381317138671875,-0.022430419921875,-0.680389404296875,1,1.0,1.0,1.0,1.0,20.00
2024-09-29 18:15:47.770,0.9511143,-0.36353704,0.036745638,0.4071648,0.1992169,-0.12921786,-0.2235131,0.21094908,1.1456895,-0.16134422,-0.08748135,1.213944,0.5601282,0.005672508,-0.25192404,0.62447906,-0.03617129,-0.57538444,-0.47072476,-0.08602433,862.674,794.17584,796.1905,853.8095,572.5641,-0.27911376953125,0.1158447265625,0.96173095703125,0.381317138671875,-0.022430419921875,-0.680389404296875,1,1.0,1.0,1.0,1.0,20.00
2024-09-29 18:15:47.771,0.9511143,-0.36353704,0.036745638,0.4071648,0.1992169,-0.12921786,-0.2235131,0.21094908,1.1456895,-0.16134422,-0.08748135,1.213944,0.5601282,0.005672508,-0.25192404,0.62447906,-0.03617129,-0.57538444,-0.47072476,-0.08602433,862.27106,788.93774,785.7143,845.7509,680.14655,-0.27911376953125,0.1158447265625,0.96173095703125,0.381317138671875,-0.022430419921875,-0.680389404296875,1,1.0,1.0,1.0,1.0,20.00
2024-09-29 18:15:47.771,0.9511143,-0.36353704,0.036745638,0.4071648,0.1992169,-0.12921786,-0.2235131,0.21094908,1.1456895,-0.16134422,-0.08748135,1.213944,0.5601282,0.005672508,-0.25192404,0.62447906,-0.03617129,-0.57538444,-0.47072476,-0.08602433,855.82416,787.326,785.7143,850.989,993.22345,-0.27911376953125,0.1158447265625,0.96173095703125,0.381317138671875,-0.022430419921875,-0.680389404296875,1,1.0,1.0,1.0,1.0,20.00
2024-09-29 18:15:47.772,0.9511143,-0.36353704,0.036745638,0.4071648,0.1992169,-0.12921786,-0.2235131,0.21094908,1.1456895,-0.16134422,-0.08748135,1.213944,0.5601282,0.005672508,-0.25192404,0.62447906,-0.03617129,-0.57538444,-0.47072476,-0.08602433,848.97437,791.3553,798.60803,846.55676,800.6227,-0.27911376953125,0.1158447265625,0.96173095703125,0.381317138671875,-0.022430419921875,-0.680389404296875,1,1.0,1.0,1.0,1.0,20.00
2024-09-29 18:15:47.773,0.9511143,-0.36353704,0.036745638,0.4071648,0.1992169,-0.12921786,-0.2235131,0.21094908,1.1456895,-0.16134422,-0.08748135,1.213944,0.5601282,0.005672508,-0.25192404,0.62447906,-0.03617129,-0.57538444,-0.47072476,-0.08602433,841.7216,794.9817,796.5934,836.4835,712.381,-0.27911376953125,0.1158447265625,0.96173095703125,0.381317138671875,-0.022430419921875,-0.680389404296875,1,1.0,1.0,1.0,1.0,20.00
2024-09-29 18:15:47.773,0.9511143,-0.36353704,0.036745638,0.4071648,0.1992169,-0.12921786,-0.2235131,0.21094908,1.1456895,-0.16134422,-0.08748135,1.213944,0.5601282,0.005672508,-0.25192404,0.62447906,-0.03617129,-0.57538444,-0.47072476,-0.08602433,837.6923,792.5641,794.17584,831.2454,813.5165,-0.27911376953125,0.1158447265625,0.96173095703125,0.381317138671875,-0.022430419921875,-0.680389404296875,1,1.0,1.0,1.0,1.0,20.00
2024-09-29 18:15:47.774,0.90696037,-0.28327966,-0.009551522,0.35604644,0.090152554,-0.12777592,-0.2144852,0.17838892,1.1269712,-0.24280621,-0.08748135,1.0579962,0.5476996,0.001483445,-0.2546724,0.64899623,-0.031353917,-0.55489296,-0.4923648,-0.10947689,838.0952,793.36993,793.36993,826.0073,798.60803,-0.27911376953125,0.1158447265625,0.96173095703125,0.381317138671875,-0.022430419921875,-0.680389404296875,1,1.0,1.0,1.0,1.0,20.00
2024-09-29 18:15:47.779,0.90696037,-0.28327966,-0.009551522,0.35604644,0.090152554,-0.12777592,-0.2144852,0.17838892,1.1269712,-0.24280621,-0.08748135,1.0579962,0.5476996,0.001483445,-0.2546724,0.64899623,-0.031353917,-0.55489296,-0.4923648,-0.10947689,838.0952,795.38464,793.7729,826.8132,782.8938,-0.27911376953125,0.1158447265625,0.96173095703125,0.381317138671875,-0.022430419921875,-0.680389404296875,1,1.0,1.0,1.0,1.0,20.00
2024-09-29 18:15:47.780,0.90696037,-0.28327966,-0.009551522,0.35604644,0.090152554,-0.12777592,-0.2144852,0.17838892,1.1269712,-0.24280621,-0.08748135,1.0579962,0.5476996,0.001483445,-0.2546724,0.64899623,-0.031353917,-0.55489296,-0.4923648,-0.10947689,836.08057,792.5641,797.3993,823.1868,665.64105,-0.27911376953125,0.1158447265625,0.96173095703125,0.381317138671875,-0.022430419921875,-0.680389404296875,1,1.0,1.0,1.0,1.0,20.00
2024-09-29 18:15:47.780,0.90696037,-0.28327966,-0.009551522,0.35604644,0.090152554,-0.12777592,-0.2144852,0.17838892,1.1269712,-0.24280621,-0.08748135,1.0579962,0.5476996,0.001483445,-0.2546724,0.64899623,-0.031353917,-0.55489296,-0.4923648,-0.10947689,844.1392,796.99634,791.75824,820.7692,684.57874,-0.27911376953125,0.1158447265625,0.96173095703125,0.381317138671875,-0.022430419921875,-0.680389404296875,1,1.0,1.0,1.0,1.0,20.00
2024-09-29 18:15:47.781,0.90696037,-0.28327966,-0.009551522,0.35604644,0.090152554,-0.12777592,-0.2144852,0.17838892,1.1269712,-0.24280621,-0.08748135,1.0579962,0.5476996,0.001483445,-0.2546724,0.64899623,-0.031353917,-0.55489296,-0.4923648,-0.10947689,852.6007,801.8315,788.1319,833.663,844.94507,-0.27911376953125,0.1158447265625,0.96173095703125,0.381317138671875,-0.022430419921875,-0.680389404296875,1,1.0,1.0,1.0,1.0,20.00
2024-09-29 18:15:47.805,0.90696037,-0.28327966,-0.009551522,0.35604644,0.090152554,-0.12777592,-0.2144852,0.17838892,1.1269712,-0.24280621,-0.08748135,1.0579962,0.5476996,0.001483445,-0.2546724,0.64899623,-0.031353917,-0.55489296,-0.4923648,-0.10947689,853.8095,803.44324,788.93774,838.0952,840.9158,-0.28570556640625,0.1209716796875,0.961181640625,0.46356201171875,-0.575714111328125,0.545806884765625,1,1.0,1.0,1.0,1.0,20.00
2024-09-29 18:15:47.806,0.90696037,-0.28327966,-0.009551522,0.35604644,0.090152554,-0.12777592,-0.2144852,0.17838892,1.1269712,-0.24280621,-0.08748135,1.0579962,0.5476996,0.001483445,-0.2546724,0.64899623,-0.031353917,-0.55489296,-0.4923648,-0.10947689,859.45056,803.8461,793.7729,835.2747,836.08057,-0.28570556640625,0.1209716796875,0.961181640625,0.46356201171875,-0.575714111328125,0.545806884765625,1,1.0,1.0,1.0,1.0,20.00
2024-09-29 18:15:47.807,0.90696037,-0.28327966,-0.009551522,0.35604644,0.090152554,-0.12777592,-0.2144852,0.17838892,1.1269712,-0.24280621,-0.08748135,1.0579962,0.5476996,0.001483445,-0.2546724,0.64899623,-0.031353917,-0.55489296,-0.4923648,-0.10947689,862.674,803.8461,796.5934,840.9158,981.13556,-0.28570556640625,0.1209716796875,0.961181640625,0.46356201171875,-0.575714111328125,0.545806884765625,1,1.0,1.0,1.0,1.0,20.00
2024-09-29 18:15:47.808,0.90696037,-0.28327966,-0.009551522,0.35604644,0.090152554,-0.12777592,-0.2144852,0.17838892,1.1269712,-0.24280621,-0.08748135,1.0579962,0.5476996,0.001483445,-0.2546724,0.64899623,-0.031353917,-0.55489296,-0.4923648,-0.10947689,871.13556,803.0403,794.9817,851.79486,1241.0256,-0.28570556640625,0.1209716796875,0.961181640625,0.46356201171875,-0.575714111328125,0.545806884765625,1,1.0,1.0,1.0,1.0,20.00
2024-09-29 18:15:47.809,0.90696037,-0.28327966,-0.009551522,0.35604644,0.090152554,-0.12777592,-0.2144852,0.17838892,1.1269712,-0.24280621,-0.08748135,1.0579962,0.5476996,0.001483445,-0.2546724,0.64899623,-0.031353917,-0.55489296,-0.4923648,-0.10947689,870.32965,802.23444,796.5934,855.82416,1192.2711,-0.28570556640625,0.1209716796875,0.961181640625,0.46356201171875,-0.575714111328125,0.545806884765625,1,1.0,1.0,1.0,1.0,20.00
2024-09-29 18:15:47.809,0.90696037,-0.28327966,-0.009551522,0.35604644,0.090152554,-0.12777592,-0.2144852,0.17838892,1.1269712,-0.24280621,-0.08748135,1.0579962,0.5476996,0.001483445,-0.2546724,0.64899623,-0.031353917,-0.55489296,-0.4923648,-0.10947689,865.89746,798.60803,801.8315,854.21246,979.5238,-0.28570556640625,0.1209716796875,0.961181640625,0.46356201171875,-0.575714111328125,0.545806884765625,1,1.0,1.0,1.0,1.0,20.00
2024-09-29 18:15:47.810,0.90696037,-0.28327966,-0.009551522,0.35604644,0.090152554,-0.12777592,-0.2144852,0.17838892,1.1269712,-0.24280621,-0.08748135,1.0579962,0.5476996,0.001483445,-0.2546724,0.64899623,-0.031353917,-0.55489296,-0.4923648,-0.10947689,872.3443,801.8315,801.4286,859.0476,1006.1172,-0.28570556640625,0.1209716796875,0.961181640625,0.46356201171875,-0.575714111328125,0.545806884765625,1,1.0,1.0,1.0,1.0,20.00
2024-09-29 18:15:47.811,0.90696037,-0.28327966,-0.009551522,0.35604644,0.090152554,-0.12777592,-0.2144852,0.17838892,1.1269712,-0.24280621,-0.08748135,1.0579962,0.5476996,0.001483445,-0.2546724,0.64899623,-0.031353917,-0.55489296,-0.4923648,-0.10947689,874.35895,806.6667,802.23444,865.89746,965.42126,-0.28570556640625,0.1209716796875,0.961181640625,0.46356201171875,-0.575714111328125,0.545806884765625,1,1.0,1.0,1.0,1.0,20.00
2024-09-29 18:15:47.811,0.90696037,-0.28327966,-0.009551522,0.35604644,0.090152554,-0.12777592,-0.2144852,0.17838892,1.1269712,-0.24280621,-0.08748135,1.0579962,0.5476996,0.001483445,-0.2546724,0.64899623,-0.031353917,-0.55489296,-0.4923648,-0.10947689,873.1502,805.8608,805.4579,868.315,735.34796,-0.28570556640625,0.1209716796875,0.961181640625,0.46356201171875,-0.575714111328125,0.545806884765625,1,1.0,1.0,1.0,1.0,20.00
2024-09-29 18:15:47.812,0.90696037,-0.28327966,-0.009551522,0.35604644,0.090152554,-0.12777592,-0.2144852,0.17838892,1.1269712,-0.24280621,-0.08748135,1.0579962,0.5476996,0.001483445,-0.2546724,0.64899623,-0.031353917,-0.55489296,-0.4923648,-0.10947689,878.3883,802.6374,805.8608,867.50916,850.58606,-0.28570556640625,0.1209716796875,0.961181640625,0.46356201171875,-0.575714111328125,0.545806884765625,1,1.0,1.0,1.0,1.0,20.00
2024-09-29 18:15:47.812,0.90696037,-0.28327966,-0.009551522,0.35604644,0.090152554,-0.12777592,-0.2144852,0.17838892,1.1269712,-0.24280621,-0.08748135,1.0579962,0.5476996,0.001483445,-0.2546724,0.64899623,-0.031353917,-0.55489296,-0.4923648,-0.10947689,875.16486,801.02563,801.4286,857.4359,954.1392,-0.28570556640625,0.1209716796875,0.961181640625,0.46356201171875,-0.575714111328125,0.545806884765625,1,1.0,1.0,1.0,1.0,20.00
2024-09-29 18:15:47.813,0.90696037,-0.28327966,-0.009551522,0.35604644,0.090152554,-0.12777592,-0.2144852,0.17838892,1.1269712,-0.24280621,-0.08748135,1.0579962,0.5476996,0.001483445,-0.2546724,0.64899623,-0.031353917,-0.55489296,-0.4923648,-0.10947689,871.13556,805.8608,800.6227,855.0183,765.9707,-0.28570556640625,0.1209716796875,0.961181640625,0.46356201171875,-0.575714111328125,0.545806884765625,1,1.0,1.0,1.0,1.0,20.00
2024-09-29 18:15:47.814,0.90696037,-0.28327966,-0.009551522,0.35604644,0.090152554,-0.12777592,-0.2144852,0.17838892,1.1269712,-0.24280621,-0.08748135,1.0579962,0.5476996,0.001483445,-0.2546724,0.64899623,-0.031353917,-0.55489296,-0.4923648,-0.10947689,873.95605,807.47253,804.2491,854.21246,720.84247,-0.28570556640625,0.1209716796875,0.961181640625,0.46356201171875,-0.575714111328125,0.545806884765625,1,1.0,1.0,1.0,1.0,20.00
2024-09-29 18:15:47.814,0.90696037,-0.28327966,-0.009551522,0.35604644,0.090152554,-0.12777592,-0.2144852,0.17838892,1.1269712,-0.24280621,-0.08748135,1.0579962,0.5476996,0.001483445,-0.2546724,0.64899623,-0.031353917,-0.55489296,-0.4923648,-0.10947689,864.2857,805.05493,805.4579,859.0476,842.9304,-0.28570556640625,0.1209716796875,0.961181640625,0.46356201171875,-0.575714111328125,0.545806884765625,1,1.0,1.0,1.0,1.0,20.00
2024-09-29 18:15:47.815,0.90696037,-0.28327966,-0.009551522,0.35604644,0.090152554,-0.12777592,-0.2144852,0.17838892,1.1269712,-0.24280621,-0.08748135,1.0579962,0.5476996,0.001483445,-0.2546724,0.64899623,-0.031353917,-0.55489296,-0.4923648,-0.10947689,855.0183,799.41394,804.65204,859.45056,898.1319,-0.28570556640625,0.1209716796875,0.961181640625,0.46356201171875,-0.575714111328125,0.545806884765625,1,1.0,1.0,1.0,1.0,20.00
2024-09-29 18:15:47.815,0.90696037,-0.28327966,-0.009551522,0.35604644,0.090152554,-0.12777592,-0.2144852,0.17838892,1.1269712,-0.24280621,-0.08748135,1.0579962,0.5476996,0.001483445,-0.2546724,0.64899623,-0.031353917,-0.55489296,-0.4923648,-0.10947689,857.4359,802.23444,803.44324,844.5421,745.42126,-0.28570556640625,0.1209716796875,0.961181640625,0.46356201171875,-0.575714111328125,0.545806884765625,1,1.0,1.0,1.0,1.0,20.00
2024-09-29 18:15:47.816,0.90696037,-0.28327966,-0.009551522,0.35604644,0.090152554,-0.12777592,-0.2144852,0.17838892,1.1269712,-0.24280621,-0.08748135,1.0579962,0.5476996,0.001483445,-0.2546724,0.64899623,-0.031353917,-0.55489296,-0.4923648,-0.10947689,862.27106,803.44324,799.81683,842.1245,730.9158,-0.28570556640625,0.1209716796875,0.961181640625,0.46356201171875,-0.575714111328125,0.545806884765625,1,1.0,1.0,1.0,1.0,20.00
2024-09-29 18:15:47.817,0.90696037,-0.28327966,-0.009551522,0.35604644,0.090152554,-0.12777592,-0.2144852,0.17838892,1.1269712,-0.24280621,-0.08748135,1.0579962,0.5476996,0.001483445,-0.2546724,0.64899623,-0.031353917,-0.55489296,-0.4923648,-0.10947689,858.6447,804.2491,797.8022,848.1685,969.85345,-0.28570556640625,0.1209716796875,0.961181640625,0.46356201171875,-0.575714111328125,0.545806884765625,1,1.0,1.0,1.0,1.0,20.00
2024-09-29 18:15:47.817,0.90696037,-0.28327966,-0.009551522,0.35604644,0.090152554,-0.12777592,-0.2144852,0.17838892,1.1269712,-0.24280621,-0.08748135,1.0579962,0.5476996,0.001483445,-0.2546724,0.64899623,-0.031353917,-0.55489296,-0.4923648,-0.10947689,850.18317,809.0842,803.0403,846.1539,1308.3151,-0.28570556640625,0.1209716796875,0.961181640625,0.46356201171875,-0.575714111328125,0.545806884765625,1,1.0,1.0,1.0,1.0,20.00
2024-09-29 18:15:47.818,0.90696037,-0.28327966,-0.009551522,0.35604644,0.090152554,-0.12777592,-0.2144852,0.17838892,1.1269712,-0.24280621,-0.08748135,1.0579962,0.5476996,0.001483445,-0.2546724,0.64899623,-0.031353917,-0.55489296,-0.4923648,-0.10947689,848.1685,810.696,804.65204,834.4689,1002.8938,-0.28570556640625,0.1209716796875,0.961181640625,0.46356201171875,-0.575714111328125,0.545806884765625,1,1.0,1.0,1.0,1.0,20.00
2024-09-29 18:15:47.819,0.90696037,-0.28327966,-0.009551522,0.35604644,0.090152554,-0.12777592,-0.2144852,0.17838892,1.1269712,-0.24280621,-0.08748135,1.0579962,0.5476996,0.001483445,-0.2546724,0.64899623,-0.031353917,-0.55489296,-0.4923648,-0.10947689,840.5128,809.0842,800.6227,818.3516,676.52014,-0.28570556640625,0.1209716796875,0.961181640625,0.46356201171875,-0.575714111328125,0.545806884765625,1,1.0,1.0,1.0,1.0,20.00
2024-09-29 18:15:47.819,0.8671795,-0.1883452,0.007272345,0.3546143,0.022549435,-0.10491946,-0.18336016,0.1801271,1.087504,-0.2548097,-0.060716607,1.0036138,0.5271342,-0.008908658,-0.24478187,0.67434937,-0.030954253,-0.53116274,-0.49736512,-0.12631826,840.5128,801.02563,800.6227,812.71063,925.5311,-0.28570556640625,0.1209716796875,0.961181640625,0.46356201171875,-0.575714111328125,0.545806884765625,1,1.0,1.0,1.0,1.0,20.00
2024-09-29 18:15:47.824,0.8671795,-0.1883452,0.007272345,0.3546143,0.022549435,-0.10491946,-0.18336016,0.1801271,1.087504,-0.2548097,-0.060716607,1.0036138,0.5271342,-0.008908658,-0.24478187,0.67434937,-0.030954253,-0.53116274,-0.49736512,-0.12631826,839.707,801.4286,801.8315,809.0842,995.2381,-0.28570556640625,0.1209716796875,0.961181640625,0.46356201171875,-0.575714111328125,0.545806884765625,1,1.0,1.0,1.0,1.0,20.00
2024-09-29 18:15:47.824,0.8671795,-0.1883452,0.007272345,0.3546143,0.022549435,-0.10491946,-0.18336016,0.1801271,1.087504,-0.2548097,-0.060716607,1.0036138,0.5271342,-0.008908658,-0.24478187,0.67434937,-0.030954253,-0.53116274,-0.49736512,-0.12631826,829.6337,807.47253,801.8315,799.011,727.28937,-0.28570556640625,0.1209716796875,0.961181640625,0.46356201171875,-0.575714111328125,0.545806884765625,1,1.0,1.0,1.0,1.0,20.00
2024-09-29 18:15:47.936,0.8671795,-0.1883452,0.007272345,0.3546143,0.022549435,-0.10491946,-0.18336016,0.1801271,1.087504,-0.2548097,-0.060716607,1.0036138,0.5271342,-0.008908658,-0.24478187,0.67434937,-0.030954253,-0.53116274,-0.49736512,-0.12631826,825.6044,802.6374,802.6374,799.81683,639.85345,-0.28875732421875,0.1212158203125,0.9652099609375,0.70281982421875,-1.36077880859375,0.665435791015625,1,1.0,1.0,1.0,1.0,20.00
2024-09-29 18:15:47.937,0.8671795,-0.1883452,0.007272345,0.3546143,0.022549435,-0.10491946,-0.18336016,0.1801271,1.087504,-0.2548097,-0.060716607,1.0036138,0.5271342,-0.008908658,-0.24478187,0.67434937,-0.030954253,-0.53116274,-0.49736512,-0.12631826,819.5604,800.6227,800.6227,809.89014,903.36993,-0.28875732421875,0.1212158203125,0.9652099609375,0.70281982421875,-1.36077880859375,0.665435791015625,1,1.0,1.0,1.0,1.0,20.00
2024-09-29 18:15:47.937,0.8671795,-0.1883452,0.007272345,0.3546143,0.022549435,-0.10491946,-0.18336016,0.1801271,1.087504,-0.2548097,-0.060716607,1.0036138,0.5271342,-0.008908658,-0.24478187,0.67434937,-0.030954253,-0.53116274,-0.49736512,-0.12631826,817.9487,803.8461,800.2198,812.3077,944.0659,-0.28875732421875,0.1212158203125,0.9652099609375,0.70281982421875,-1.36077880859375,0.665435791015625,1,1.0,1.0,1.0,1.0,20.00
2024-09-29 18:15:47.938,0.8671795,-0.1883452,0.007272345,0.3546143,0.022549435,-0.10491946,-0.18336016,0.1801271,1.087504,-0.2548097,-0.060716607,1.0036138,0.5271342,-0.008908658,-0.24478187,0.67434937,-0.030954253,-0.53116274,-0.49736512,-0.12631826,824.7985,806.26373,802.23444,813.91943,746.2271,-0.28875732421875,0.1212158203125,0.9652099609375,0.70281982421875,-1.36077880859375,0.665435791015625,1,1.0,1.0,1.0,1.0,20.00
2024-09-29 18:15:47.939,0.8671795,-0.1883452,0.007272345,0.3546143,0.022549435,-0.10491946,-0.18336016,0.1801271,1.087504,-0.2548097,-0.060716607,1.0036138,0.5271342,-0.008908658,-0.24478187,0.67434937,-0.030954253,-0.53116274,-0.49736512,-0.12631826,829.2308,809.4872,802.6374,818.7546,627.76556,-0.28875732421875,0.1212158203125,0.9652099609375,0.70281982421875,-1.36077880859375,0.665435791015625,1,1.0,1.0,1.0,1.0,20.00
2024-09-29 18:15:47.939,0.8671795,-0.1883452,0.007272345,0.3546143,0.022549435,-0.10491946,-0.18336016,0.1801271,1.087504,-0.2548097,-0.060716607,1.0036138,0.5271342,-0.008908658,-0.24478187,0.67434937,-0.030954253,-0.53116274,-0.49736512,-0.12631826,829.2308,807.47253,803.8461,831.6484,960.58606,-0.28875732421875,0.1212158203125,0.9652099609375,0.70281982421875,-1.36077880859375,0.665435791015625,1,1.0,1.0,1.0,1.0,20.00
2024-09-29 18:15:47.940,0.8671795,-0.1883452,0.007272345,0.3546143,0.022549435,-0.10491946,-0.18336016,0.1801271,1.087504,-0.2548097,-0.060716607,1.0036138,0.5271342,-0.008908658,-0.24478187,0.67434937,-0.030954253,-0.53116274,-0.49736512,-0.12631826,826.0073,806.6667,801.02563,834.87177,1326.8499,-0.28875732421875,0.1212158203125,0.9652099609375,0.70281982421875,-1.36077880859375,0.665435791015625,1,1.0,1.0,1.0,1.0,20.00
2024-09-29 18:15:47.940,0.8671795,-0.1883452,0.007272345,0.3546143,0.022549435,-0.10491946,-0.18336016,0.1801271,1.087504,-0.2548097,-0.060716607,1.0036138,0.5271342,-0.008908658,-0.24478187,0.67434937,-0.030954253,-0.53116274,-0.49736512,-0.12631826,832.0513,808.2784,800.2198,819.9634,993.22345,-0.28875732421875,0.1212158203125,0.9652099609375,0.70281982421875,-1.36077880859375,0.665435791015625,1,1.0,1.0,1.0,1.0,20.00
2024-09-29 18:15:47.941,0.8671795,-0.1883452,0.007272345,0.3546143,0.022549435,-0.10491946,-0.18336016,0.1801271,1.087504,-0.2548097,-0.060716607,1.0036138,0.5271342,-0.008908658,-0.24478187,0.67434937,-0.030954253,-0.53116274,-0.49736512,-0.12631826,840.9158,807.47253,802.23444,814.3223,650.7326,-0.28875732421875,0.1212158203125,0.9652099609375,0.70281982421875,-1.36077880859375,0.665435791015625,1,1.0,1.0,1.0,1.0,20.00
2024-09-29 18:15:47.942,0.8671795,-0.1883452,0.007272345,0.3546143,0.022549435,-0.10491946,-0.18336016,0.1801271,1.087504,-0.2548097,-0.060716607,1.0036138,0.5271342,-0.008908658,-0.24478187,0.67434937,-0.030954253,-0.53116274,-0.49736512,-0.12631826,836.4835,803.44324,794.9817,813.5165,894.10254,-0.28875732421875,0.1212158203125,0.9652099609375,0.70281982421875,-1.36077880859375,0.665435791015625,1,1.0,1.0,1.0,1.0,20.00
2024-09-29 18:15:47.942,0.8671795,-0.1883452,0.007272345,0.3546143,0.022549435,-0.10491946,-0.18336016,0.1801271,1.087504,-0.2548097,-0.060716607,1.0036138,0.5271342,-0.008908658,-0.24478187,0.67434937,-0.030954253,-0.53116274,-0.49736512,-0.12631826,848.5714,807.47253,797.8022,840.9158,979.92676,-0.28875732421875,0.1212158203125,0.9652099609375,0.70281982421875,-1.36077880859375,0.665435791015625,1,1.0,1.0,1.0,1.0,20.00
2024-09-29 18:15:47.943,0.8671795,-0.1883452,0.007272345,0.3546143,0.022549435,-0.10491946,-0.18336016,0.1801271,1.087504,-0.2548097,-0.060716607,1.0036138,0.5271342,-0.008908658,-0.24478187,0.67434937,-0.030954253,-0.53116274,-0.49736512,-0.12631826,842.52747,809.0842,812.3077,844.1392,741.39197,-0.28875732421875,0.1212158203125,0.9652099609375,0.70281982421875,-1.36077880859375,0.665435791015625,1,1.0,1.0,1.0,1.0,20.00
2024-09-29 18:15:47.943,0.8671795,-0.1883452,0.007272345,0.3546143,0.022549435,-0.10491946,-0.18336016,0.1801271,1.087504,-0.2548097,-0.060716607,1.0036138,0.5271342,-0.008908658,-0.24478187,0.67434937,-0.030954253,-0.53116274,-0.49736512,-0.12631826,810.293,803.8461,810.696,807.0696,668.0586,-0.284423828125,0.123046875,0.95977783203125,1.0467529296875,-1.77947998046875,-0.11962890625,1,1.0,1.0,1.0,1.0,20.00
2024-09-29 18:15:47.944,0.8671795,-0.1883452,0.007272345,0.3546143,0.022549435,-0.10491946,-0.18336016,0.1801271,1.087504,-0.2548097,-0.060716607,1.0036138,0.5271342,-0.008908658,-0.24478187,0.67434937,-0.030954253,-0.53116274,-0.49736512,-0.12631826,816.337,801.4286,806.26373,805.05493,815.12823,-0.284423828125,0.123046875,0.95977783203125,1.0467529296875,-1.77947998046875,-0.11962890625,1,1.0,1.0,1.0,1.0,20.00
2024-09-29 18:15:47.945,0.8671795,-0.1883452,0.007272345,0.3546143,0.022549435,-0.10491946,-0.18336016,0.1801271,1.087504,-0.2548097,-0.060716607,1.0036138,0.5271342,-0.008908658,-0.24478187,0.67434937,-0.030954253,-0.53116274,-0.49736512,-0.12631826,813.5165,802.23444,809.0842,816.337,870.32965,-0.284423828125,0.123046875,0.95977783203125,1.0467529296875,-1.77947998046875,-0.11962890625,1,1.0,1.0,1.0,1.0,20.00
2024-09-29 18:15:47.945,0.8671795,-0.1883452,0.007272345,0.3546143,0.022549435,-0.10491946,-0.18336016,0.1801271,1.087504,-0.2548097,-0.060716607,1.0036138,0.5271342,-0.008908658,-0.24478187,0.67434937,-0.030954253,-0.53116274,-0.49736512,-0.12631826,796.1905,794.17584,809.0842,806.26373,737.76556,-0.284423828125,0.123046875,0.95977783203125,1.0467529296875,-1.77947998046875,-0.11962890625,1,1.0,1.0,1.0,1.0,20.00
2024-09-29 18:15:47.946,0.8671795,-0.1883452,0.007272345,0.3546143,0.022549435,-0.10491946,-0.18336016,0.1801271,1.087504,-0.2548097,-0.060716607,1.0036138,0.5271342,-0.008908658,-0.24478187,0.67434937,-0.030954253,-0.53116274,-0.49736512,-0.12631826,796.1905,786.9231,809.4872,798.60803,729.304,-0.284423828125,0.123046875,0.95977783203125,1.0467529296875,-1.77947998046875,-0.11962890625,1,1.0,1.0,1.0,1.0,20.00
2024-09-29 18:15:47.946,0.8671795,-0.1883452,0.007272345,0.3546143,0.022549435,-0.10491946,-0.18336016,0.1801271,1.087504,-0.2548097,-0.060716607,1.0036138,0.5271342,-0.008908658,-0.24478187,0.67434937,-0.030954253,-0.53116274,-0.49736512,-0.12631826,796.1905,788.93774,813.5165,801.8315,836.8865,-0.284423828125,0.123046875,0.95977783203125,1.0467529296875,-1.77947998046875,-0.11962890625,1,1.0,1.0,1.0,1.0,20.00
2024-09-29 18:15:47.947,0.8671795,-0.1883452,0.007272345,0.3546143,0.022549435,-0.10491946,-0.18336016,0.1801271,1.087504,-0.2548097,-0.060716607,1.0036138,0.5271342,-0.008908658,-0.24478187,0.67434937,-0.030954253,-0.53116274,-0.49736512,-0.12631826,790.54944,792.5641,813.91943,801.8315,844.94507,-0.284423828125,0.123046875,0.95977783203125,1.0467529296875,-1.77947998046875,-0.11962890625,1,1.0,1.0,1.0,1.0,20.00
2024-09-29 18:15:47.948,0.8671795,-0.1883452,0.007272345,0.3546143,0.022549435,-0.10491946,-0.18336016,0.1801271,1.087504,-0.2548097,-0.060716607,1.0036138,0.5271342,-0.008908658,-0.24478187,0.67434937,-0.030954253,-0.53116274,-0.49736512,-0.12631826,794.9817,789.7436,812.3077,796.99634,825.2015,-0.284423828125,0.123046875,0.95977783203125,1.0467529296875,-1.77947998046875,-0.11962890625,1,1.0,1.0,1.0,1.0,20.00
2024-09-29 18:15:47.948,0.8671795,-0.1883452,0.007272345,0.3546143,0.022549435,-0.10491946,-0.18336016,0.1801271,1.087504,-0.2548097,-0.060716607,1.0036138,0.5271342,-0.008908658,-0.24478187,0.67434937,-0.030954253,-0.53116274,-0.49736512,-0.12631826,805.4579,789.34064,815.12823,802.23444,797.3993,-0.284423828125,0.123046875,0.95977783203125,1.0467529296875,-1.77947998046875,-0.11962890625,1,1.0,1.0,1.0,1.0,20.00
2024-09-29 18:15:47.949,0.8671795,-0.1883452,0.007272345,0.3546143,0.022549435,-0.10491946,-0.18336016,0.1801271,1.087504,-0.2548097,-0.060716607,1.0036138,0.5271342,-0.008908658,-0.24478187,0.67434937,-0.030954253,-0.53116274,-0.49736512,-0.12631826,801.4286,792.5641,816.7399,803.0403,803.44324,-0.284423828125,0.123046875,0.95977783203125,1.0467529296875,-1.77947998046875,-0.11962890625,1,1.0,1.0,1.0,1.0,20.00
2024-09-29 18:15:47.949,0.8671795,-0.1883452,0.007272345,0.3546143,0.022549435,-0.10491946,-0.18336016,0.1801271,1.087504,-0.2548097,-0.060716607,1.0036138,0.5271342,-0.008908658,-0.24478187,0.67434937,-0.030954253,-0.53116274,-0.49736512,-0.12631826,801.02563,788.1319,818.3516,809.4872,823.9927,-0.284423828125,0.123046875,0.95977783203125,1.0467529296875,-1.77947998046875,-0.11962890625,1,1.0,1.0,1.0,1.0,20.00
2024-09-29 18:15:47.950,0.7956573,-0.096073896,0.06084011,0.3551451,-0.0036247936,-0.06384044,-0.1450804,0.20889628,1.056215,-0.21668306,0.075092204,0.9808537,0.49121016,-0.023638418,-0.22601226,0.6952504,-0.03473729,-0.49894282,-0.49851874,-0.12846592,807.47253,786.52014,816.7399,810.293,805.8608,-0.284423828125,0.123046875,0.95977783203125,1.0467529296875,-1.77947998046875,-0.11962890625,1,1.0,1.0,1.0,1.0,20.00
2024-09-29 18:15:47.976,0.7956573,-0.096073896,0.06084011,0.3551451,-0.0036247936,-0.06384044,-0.1450804,0.20889628,1.056215,-0.21668306,0.075092204,0.9808537,0.49121016,-0.023638418,-0.22601226,0.6952504,-0.03473729,-0.49894282,-0.49851874,-0.12846592,807.8755,787.72894,809.0842,811.0989,864.68866,-0.277099609375,0.1260986328125,0.95794677734375,1.592559814453125,-2.1234130859375,-0.157012939453125,1,1.0,1.0,1.0,1.0,20.00
2024-09-29 18:15:47.976,0.7956573,-0.096073896,0.06084011,0.3551451,-0.0036247936,-0.06384044,-0.1450804,0.20889628,1.056215,-0.21668306,0.075092204,0.9808537,0.49121016,-0.023638418,-0.22601226,0.6952504,-0.03473729,-0.49894282,-0.49851874,-0.12846592,802.23444,787.72894,807.0696,815.9341,871.13556,-0.277099609375,0.1260986328125,0.95794677734375,1.592559814453125,-2.1234130859375,-0.157012939453125,1,1.0,1.0,1.0,1.0,20.00
2024-09-29 18:15:47.977,0.7956573,-0.096073896,0.06084011,0.3551451,-0.0036247936,-0.06384044,-0.1450804,0.20889628,1.056215,-0.21668306,0.075092204,0.9808537,0.49121016,-0.023638418,-0.22601226,0.6952504,-0.03473729,-0.49894282,-0.49851874,-0.12846592,809.89014,794.9817,806.6667,812.3077,763.5531,-0.277099609375,0.1260986328125,0.95794677734375,1.592559814453125,-2.1234130859375,-0.157012939453125,1,1.0,1.0,1.0,1.0,20.00
2024-09-29 18:15:47.978,0.7956573,-0.096073896,0.06084011,0.3551451,-0.0036247936,-0.06384044,-0.1450804,0.20889628,1.056215,-0.21668306,0.075092204,0.9808537,0.49121016,-0.023638418,-0.22601226,0.6952504,-0.03473729,-0.49894282,-0.49851874,-0.12846592,812.71063,798.20514,801.4286,815.12823,804.2491,-0.277099609375,0.1260986328125,0.95794677734375,1.592559814453125,-2.1234130859375,-0.157012939453125,1,1.0,1.0,1.0,1.0,20.00
2024-09-29 18:15:47.978,0.7956573,-0.096073896,0.06084011,0.3551451,-0.0036247936,-0.06384044,-0.1450804,0.20889628,1.056215,-0.21668306,0.075092204,0.9808537,0.49121016,-0.023638418,-0.22601226,0.6952504,-0.03473729,-0.49894282,-0.49851874,-0.12846592,811.50183,798.60803,804.65204,819.5604,900.9524,-0.277099609375,0.1260986328125,0.95794677734375,1.592559814453125,-2.1234130859375,-0.157012939453125,1,1.0,1.0,1.0,1.0,20.00
2024-09-29 18:15:47.979,0.7956573,-0.096073896,0.06084011,0.3551451,-0.0036247936,-0.06384044,-0.1450804,0.20889628,1.056215,-0.21668306,0.075092204,0.9808537,0.49121016,-0.023638418,-0.22601226,0.6952504,-0.03473729,-0.49894282,-0.49851874,-0.12846592,814.7253,798.20514,809.0842,810.293,913.0403,-0.277099609375,0.1260986328125,0.95794677734375,1.592559814453125,-2.1234130859375,-0.157012939453125,1,1.0,1.0,1.0,1.0,20.00
2024-09-29 18:15:47.980,0.7956573,-0.096073896,0.06084011,0.3551451,-0.0036247936,-0.06384044,-0.1450804,0.20889628,1.056215,-0.21668306,0.075092204,0.9808537,0.49121016,-0.023638418,-0.22601226,0.6952504,-0.03473729,-0.49894282,-0.49851874,-0.12846592,807.8755,798.20514,804.2491,798.60803,782.8938,-0.277099609375,0.1260986328125,0.95794677734375,1.592559814453125,-2.1234130859375,-0.157012939453125,1,1.0,1.0,1.0,1.0,20.00
2024-09-29 18:15:47.980,0.7956573,-0.096073896,0.06084011,0.3551451,-0.0036247936,-0.06384044,-0.1450804,0.20889628,1.056215,-0.21668306,0.075092204,0.9808537,0.49121016,-0.023638418,-0.22601226,0.6952504,-0.03473729,-0.49894282,-0.49851874,-0.12846592,807.0696,799.011,803.44324,805.05493,823.9927,-0.277099609375,0.1260986328125,0.95794677734375,1.592559814453125,-2.1234130859375,-0.157012939453125,1,1.0,1.0,1.0,1.0,20.00
2024-09-29 18:15:47.981,0.7956573,-0.096073896,0.06084011,0.3551451,-0.0036247936,-0.06384044,-0.1450804,0.20889628,1.056215,-0.21668306,0.075092204,0.9808537,0.49121016,-0.023638418,-0.22601226,0.6952504,-0.03473729,-0.49894282,-0.49851874,-0.12846592,817.5458,801.02563,807.47253,819.5604,1084.2858,-0.277099609375,0.1260986328125,0.95794677734375,1.592559814453125,-2.1234130859375,-0.157012939453125,1,1.0,1.0,1.0,1.0,20.00
2024-09-29 18:15:47.981,0.7956573,-0.096073896,0.06084011,0.3551451,-0.0036247936,-0.06384044,-0.1450804,0.20889628,1.056215,-0.21668306,0.075092204,0.9808537,0.49121016,-0.023638418,-0.22601226,0.6952504,-0.03473729,-0.49894282,-0.49851874,-0.12846592,819.5604,805.8608,806.6667,816.337,867.50916,-0.277099609375,0.1260986328125,0.95794677734375,1.592559814453125,-2.1234130859375,-0.157012939453125,1,1.0,1.0,1.0,1.0,20.00
2024-09-29 18:15:47.982,0.7956573,-0.096073896,0.06084011,0.3551451,-0.0036247936,-0.06384044,-0.1450804,0.20889628,1.056215,-0.21668306,0.075092204,0.9808537,0.49121016,-0.023638418,-0.22601226,0.6952504,-0.03473729,-0.49894282,-0.49851874,-0.12846592,826.0073,809.89014,805.05493,809.0842,598.3516,-0.277099609375,0.1260986328125,0.95794677734375,1.592559814453125,-2.1234130859375,-0.157012939453125,1,1.0,1.0,1.0,1.0,20.00
2024-09-29 18:15:47.982,0.7956573,-0.096073896,0.06084011,0.3551451,-0.0036247936,-0.06384044,-0.1450804,0.20889628,1.056215,-0.21668306,0.075092204,0.9808537,0.49121016,-0.023638418,-0.22601226,0.6952504,-0.03473729,-0.49894282,-0.49851874,-0.12846592,828.022,807.8755,806.6667,807.47253,776.4469,-0.277099609375,0.1260986328125,0.95794677734375,1.592559814453125,-2.1234130859375,-0.157012939453125,1,1.0,1.0,1.0,1.0,20.00
2024-09-29 18:15:48.004,0.7956573,-0.096073896,0.06084011,0.3551451,-0.0036247936,-0.06384044,-0.1450804,0.20889628,1.056215,-0.21668306,0.075092204,0.9808537,0.49121016,-0.023638418,-0.22601226,0.6952504,-0.03473729,-0.49894282,-0.49851874,-0.12846592,817.9487,795.38464,805.4579,811.50183,1212.8206,-0.27685546875,0.1341552734375,0.96881103515625,1.12152099609375,-2.071075439453125,0.755157470703125,1,1.0,1.0,1.0,1.0,20.00
2024-09-29 18:15:48.005,0.7956573,-0.096073896,0.06084011,0.3551451,-0.0036247936,-0.06384044,-0.1450804,0.20889628,1.056215,-0.21668306,0.075092204,0.9808537,0.49121016,-0.023638418,-0.22601226,0.6952504,-0.03473729,-0.49894282,-0.49851874,-0.12846592,809.89014,795.38464,806.26373,821.978,1475.9341,-0.27685546875,0.1341552734375,0.96881103515625,1.12152099609375,-2.071075439453125,0.755157470703125,1,1.0,1.0,1.0,1.0,20.00
2024-09-29 18:15:48.006,0.7956573,-0.096073896,0.06084011,0.3551451,-0.0036247936,-0.06384044,-0.1450804,0.20889628,1.056215,-0.21668306,0.075092204,0.9808537,0.49121016,-0.023638418,-0.22601226,0.6952504,-0.03473729,-0.49894282,-0.49851874,-0.12846592,807.0696,801.4286,803.0403,824.3956,1238.2051,-0.27685546875,0.1341552734375,0.96881103515625,1.12152099609375,-2.071075439453125,0.755157470703125,1,1.0,1.0,1.0,1.0,20.00
2024-09-29 18:15:48.006,0.7956573,-0.096073896,0.06084011,0.3551451,-0.0036247936,-0.06384044,-0.1450804,0.20889628,1.056215,-0.21668306,0.075092204,0.9808537,0.49121016,-0.023638418,-0.22601226,0.6952504,-0.03473729,-0.49894282,-0.49851874,-0.12846592,802.23444,801.02563,803.0403,816.7399,853.00366,-0.27685546875,0.1341552734375,0.96881103515625,1.12152099609375,-2.071075439453125,0.755157470703125,1,1.0,1.0,1.0,1.0,20.00
2024-09-29 18:15:48.007,0.7956573,-0.096073896,0.06084011,0.3551451,-0.0036247936,-0.06384044,-0.1450804,0.20889628,1.056215,-0.21668306,0.075092204,0.9808537,0.49121016,-0.023638418,-0.22601226,0.6952504,-0.03473729,-0.49894282,-0.49851874,-0.12846592,800.2198,802.23444,804.2491,810.293,758.315,-0.27685546875,0.1341552734375,0.96881103515625,1.12152099609375,-2.071075439453125,0.755157470703125,1,1.0,1.0,1.0,1.0,20.00
2024-09-29 18:15:48.008,0.7956573,-0.096073896,0.06084011,0.3551451,-0.0036247936,-0.06384044,-0.1450804,0.20889628,1.056215,-0.21668306,0.075092204,0.9808537,0.49121016,-0.023638418,-0.22601226,0.6952504,-0.03473729,-0.49894282,-0.49851874,-0.12846592,807.8755,803.8461,797.8022,810.293,832.0513,-0.27685546875,0.1341552734375,0.96881103515625,1.12152099609375,-2.071075439453125,0.755157470703125,1,1.0,1.0,1.0,1.0,20.00
2024-09-29 18:15:48.008,0.7956573,-0.096073896,0.06084011,0.3551451,-0.0036247936,-0.06384044,-0.1450804,0.20889628,1.056215,-0.21668306,0.075092204,0.9808537,0.49121016,-0.023638418,-0.22601226,0.6952504,-0.03473729,-0.49894282,-0.49851874,-0.12846592,812.71063,803.0403,796.99634,804.2491,856.63007,-0.27685546875,0.1341552734375,0.96881103515625,1.12152099609375,-2.071075439453125,0.755157470703125,1,1.0,1.0,1.0,1.0,20.00
2024-09-29 18:15:48.009,0.7956573,-0.096073896,0.06084011,0.3551451,-0.0036247936,-0.06384044,-0.1450804,0.20889628,1.056215,-0.21668306,0.075092204,0.9808537,0.49121016,-0.023638418,-0.22601226,0.6952504,-0.03473729,-0.49894282,-0.49851874,-0.12846592,808.2784,802.6374,799.011,801.02563,954.5421,-0.27685546875,0.1341552734375,0.96881103515625,1.12152099609375,-2.071075439453125,0.755157470703125,1,1.0,1.0,1.0,1.0,20.00
2024-09-29 18:15:48.009,0.7956573,-0.096073896,0.06084011,0.3551451,-0.0036247936,-0.06384044,-0.1450804,0.20889628,1.056215,-0.21668306,0.075092204,0.9808537,0.49121016,-0.023638418,-0.22601226,0.6952504,-0.03473729,-0.49894282,-0.49851874,-0.12846592,811.0989,802.23444,799.41394,809.4872,1148.7546,-0.27685546875,0.1341552734375,0.96881103515625,1.12152099609375,-2.071075439453125,0.755157470703125,1,1.0,1.0,1.0,1.0,20.00
2024-09-29 18:15:48.010,0.7956573,-0.096073896,0.06084011,0.3551451,-0.0036247936,-0.06384044,-0.1450804,0.20889628,1.056215,-0.21668306,0.075092204,0.9808537,0.49121016,-0.023638418,-0.22601226,0.6952504,-0.03473729,-0.49894282,-0.49851874,-0.12846592,811.9048,803.44324,800.6227,810.696,900.54944,-0.27685546875,0.1341552734375,0.96881103515625,1.12152099609375,-2.071075439453125,0.755157470703125,1,1.0,1.0,1.0,1.0,20.00
2024-09-29 18:15:48.010,0.7956573,-0.096073896,0.06084011,0.3551451,-0.0036247936,-0.06384044,-0.1450804,0.20889628,1.056215,-0.21668306,0.075092204,0.9808537,0.49121016,-0.023638418,-0.22601226,0.6952504,-0.03473729,-0.49894282,-0.49851874,-0.12846592,809.4872,800.2198,800.2198,805.8608,609.2308,-0.27685546875,0.1341552734375,0.96881103515625,1.12152099609375,-2.071075439453125,0.755157470703125,1,1.0,1.0,1.0,1.0,20.00
2024-09-29 18:15:48.011,0.7956573,-0.096073896,0.06084011,0.3551451,-0.0036247936,-0.06384044,-0.1450804,0.20889628,1.056215,-0.21668306,0.075092204,0.9808537,0.49121016,-0.023638418,-0.22601226,0.6952504,-0.03473729,-0.49894282,-0.49851874,-0.12846592,815.5311,798.60803,801.8315,806.6667,664.0293,-0.27685546875,0.1341552734375,0.96881103515625,1.12152099609375,-2.071075439453125,0.755157470703125,1,1.0,1.0,1.0,1.0,20.00
2024-09-29 18:15:48.104,0.7956573,-0.096073896,0.06084011,0.3551451,-0.0036247936,-0.06384044,-0.1450804,0.20889628,1.056215,-0.21668306,0.075092204,0.9808537,0.49121016,-0.023638418,-0.22601226,0.6952504,-0.03473729,-0.49894282,-0.49851874,-0.12846592,814.3223,797.3993,803.0403,807.0696,763.5531,-0.27685546875,0.1341552734375,0.96881103515625,1.12152099609375,-2.071075439453125,0.755157470703125,1,1.0,1.0,1.0,1.0,20.00
2024-09-29 18:15:48.105,0.6863435,-0.024992608,0.14817181,0.34256166,-0.0024743567,-0.0089594,-0.11146782,0.24272047,1.0504752,-0.120741375,0.27158535,0.97754014,0.4454011,-0.041208256,-0.20328459,0.7076396,-0.047091667,-0.45793,-0.5046408,-0.1198678,814.3223,796.1905,803.0403,805.4579,762.3443,-0.27685546875,0.1341552734375,0.96881103515625,1.12152099609375,-2.071075439453125,0.755157470703125,1,1.0,1.0,1.0,1.0,20.00
2024-09-29 18:15:48.110,0.6863435,-0.024992608,0.14817181,0.34256166,-0.0024743567,-0.0089594,-0.11146782,0.24272047,1.0504752,-0.120741375,0.27158535,0.97754014,0.4454011,-0.041208256,-0.20328459,0.7076396,-0.047091667,-0.45793,-0.5046408,-0.1198678,817.5458,801.8315,805.05493,811.0989,689.41394,-0.27685546875,0.1341552734375,0.96881103515625,1.12152099609375,-2.071075439453125,0.755157470703125,1,1.0,1.0,1.0,1.0,20.00
2024-09-29 18:15:48.110,0.6863435,-0.024992608,0.14817181,0.34256166,-0.0024743567,-0.0089594,-0.11146782,0.24272047,1.0504752,-0.120741375,0.27158535,0.97754014,0.4454011,-0.041208256,-0.20328459,0.7076396,-0.047091667,-0.45793,-0.5046408,-0.1198678,810.293,798.60803,803.0403,803.8461,747.4359,-0.27685546875,0.1341552734375,0.96881103515625,1.12152099609375,-2.071075439453125,0.755157470703125,1,1.0,1.0,1.0,1.0,20.00
2024-09-29 18:15:48.111,0.6863435,-0.024992608,0.14817181,0.34256166,-0.0024743567,-0.0089594,-0.11146782,0.24272047,1.0504752,-0.120741375,0.27158535,0.97754014,0.4454011,-0.041208256,-0.20328459,0.7076396,-0.047091667,-0.45793,-0.5046408,-0.1198678,812.71063,800.6227,801.4286,796.99634,881.6117,-0.27685546875,0.1341552734375,0.96881103515625,1.12152099609375,-2.071075439453125,0.755157470703125,1,1.0,1.0,1.0,1.0,20.00
2024-09-29 18:15:48.112,0.6863435,-0.024992608,0.14817181,0.34256166,-0.0024743567,-0.0089594,-0.11146782,0.24272047,1.0504752,-0.120741375,0.27158535,0.97754014,0.4454011,-0.041208256,-0.20328459,0.7076396,-0.047091667,-0.45793,-0.5046408,-0.1198678,807.0696,801.4286,801.8315,799.011,871.53845,-0.27685546875,0.1341552734375,0.96881103515625,1.12152099609375,-2.071075439453125,0.755157470703125,1,1.0,1.0,1.0,1.0,20.00
2024-09-29 18:15:48.112,0.6863435,-0.024992608,0.14817181,0.34256166,-0.0024743567,-0.0089594,-0.11146782,0.24272047,1.0504752,-0.120741375,0.27158535,0.97754014,0.4454011,-0.041208256,-0.20328459,0.7076396,-0.047091667,-0.45793,-0.5046408,-0.1198678,796.99634,794.57874,802.6374,796.5934,803.0403,-0.27685546875,0.1341552734375,0.96881103515625,1.12152099609375,-2.071075439453125,0.755157470703125,1,1.0,1.0,1.0,1.0,20.00
2024-09-29 18:15:48.113,0.6863435,-0.024992608,0.14817181,0.34256166,-0.0024743567,-0.0089594,-0.11146782,0.24272047,1.0504752,-0.120741375,0.27158535,0.97754014,0.4454011,-0.041208256,-0.20328459,0.7076396,-0.047091667,-0.45793,-0.5046408,-0.1198678,799.81683,799.011,804.2491,791.3553,856.63007,-0.27685546875,0.1341552734375,0.96881103515625,1.12152099609375,-2.071075439453125,0.755157470703125,1,1.0,1.0,1.0,1.0,20.00
2024-09-29 18:15:48.113,0.6863435,-0.024992608,0.14817181,0.34256166,-0.0024743567,-0.0089594,-0.11146782,0.24272047,1.0504752,-0.120741375,0.27158535,0.97754014,0.4454011,-0.041208256,-0.20328459,0.7076396,-0.047091667,-0.45793,-0.5046408,-0.1198678,794.9817,803.8461,802.23444,788.93774,821.978,-0.27685546875,0.1341552734375,0.96881103515625,1.12152099609375,-2.071075439453125,0.755157470703125,1,1.0,1.0,1.0,1.0,20.00
2024-09-29 18:15:48.114,0.6863435,-0.024992608,0.14817181,0.34256166,-0.0024743567,-0.0089594,-0.11146782,0.24272047,1.0504752,-0.120741375,0.27158535,0.97754014,0.4454011,-0.041208256,-0.20328459,0.7076396,-0.047091667,-0.45793,-0.5046408,-0.1198678,788.5348,803.0403,798.60803,783.69965,803.8461,-0.27685546875,0.1341552734375,0.96881103515625,1.12152099609375,-2.071075439453125,0.755157470703125,1,1.0,1.0,1.0,1.0,20.00
2024-09-29 18:15:48.114,0.6863435,-0.024992608,0.14817181,0.34256166,-0.0024743567,-0.0089594,-0.11146782,0.24272047,1.0504752,-0.120741375,0.27158535,0.97754014,0.4454011,-0.041208256,-0.20328459,0.7076396,-0.047091667,-0.45793,-0.5046408,-0.1198678,784.10254,806.26373,802.6374,775.2381,772.01465,-0.27685546875,0.1341552734375,0.96881103515625,1.12152099609375,-2.071075439453125,0.755157470703125,1,1.0,1.0,1.0,1.0,20.00
2024-09-29 18:15:48.115,0.6863435,-0.024992608,0.14817181,0.34256166,-0.0024743567,-0.0089594,-0.11146782,0.24272047,1.0504752,-0.120741375,0.27158535,0.97754014,0.4454011,-0.041208256,-0.20328459,0.7076396,-0.047091667,-0.45793,-0.5046408,-0.1198678,776.04395,809.0842,800.2198,771.6117,963.4066,-0.27685546875,0.1341552734375,0.96881103515625,1.12152099609375,-2.071075439453125,0.755157470703125,1,1.0,1.0,1.0,1.0,20.00
2024-09-29 18:15:48.115,0.6863435,-0.024992608,0.14817181,0.34256166,-0.0024743567,-0.0089594,-0.11146782,0.24272047,1.0504752,-0.120741375,0.27158535,0.97754014,0.4454011,-0.041208256,-0.20328459,0.7076396,-0.047091667,-0.45793,-0.5046408,-0.1198678,765.56775,808.2784,797.8022,760.7326,1010.14655,-0.2801513671875,0.13616943359375,0.97186279296875,0.157012939453125,-2.25799560546875,0.351409912109375,1,1.0,1.0,1.0,1.0,20.00
2024-09-29 18:15:48.116,0.6863435,-0.024992608,0.14817181,0.34256166,-0.0024743567,-0.0089594,-0.11146782,0.24272047,1.0504752,-0.120741375,0.27158535,0.97754014,0.4454011,-0.041208256,-0.20328459,0.7076396,-0.047091667,-0.45793,-0.5046408,-0.1198678,766.77655,811.0989,804.65204,757.50916,815.9341,-0.2801513671875,0.13616943359375,0.97186279296875,0.157012939453125,-2.25799560546875,0.351409912109375,1,1.0,1.0,1.0,1.0,20.00
2024-09-29 18:15:48.117,0.6863435,-0.024992608,0.14817181,0.34256166,-0.0024743567,-0.0089594,-0.11146782,0.24272047,1.0504752,-0.120741375,0.27158535,0.97754014,0.4454011,-0.041208256,-0.20328459,0.7076396,-0.047091667,-0.45793,-0.5046408,-0.1198678,762.74725,809.89014,803.8461,748.6447,816.337,-0.2801513671875,0.13616943359375,0.97186279296875,0.157012939453125,-2.25799560546875,0.351409912109375,1,1.0,1.0,1.0,1.0,20.00
2024-09-29 18:15:48.117,0.6863435,-0.024992608,0.14817181,0.34256166,-0.0024743567,-0.0089594,-0.11146782,0.24272047,1.0504752,-0.120741375,0.27158535,0.97754014,0.4454011,-0.041208256,-0.20328459,0.7076396,-0.047091667,-0.45793,-0.5046408,-0.1198678,755.4945,812.3077,807.0696,740.58606,706.337,-0.2801513671875,0.13616943359375,0.97186279296875,0.157012939453125,-2.25799560546875,0.351409912109375,1,1.0,1.0,1.0,1.0,20.00
2024-09-29 18:15:48.118,0.6863435,-0.024992608,0.14817181,0.34256166,-0.0024743567,-0.0089594,-0.11146782,0.24272047,1.0504752,-0.120741375,0.27158535,0.97754014,0.4454011,-0.041208256,-0.20328459,0.7076396,-0.047091667,-0.45793,-0.5046408,-0.1198678,745.0183,819.5604,808.68134,730.9158,625.7509,-0.2801513671875,0.13616943359375,0.97186279296875,0.157012939453125,-2.25799560546875,0.351409912109375,1,1.0,1.0,1.0,1.0,20.00
2024-09-29 18:15:48.118,0.6863435,-0.024992608,0.14817181,0.34256166,-0.0024743567,-0.0089594,-0.11146782,0.24272047,1.0504752,-0.120741375,0.27158535,0.97754014,0.4454011,-0.041208256,-0.20328459,0.7076396,-0.047091667,-0.45793,-0.5046408,-0.1198678,731.31866,815.9341,808.68134,726.08057,791.75824,-0.2801513671875,0.13616943359375,0.97186279296875,0.157012939453125,-2.25799560546875,0.351409912109375,1,1.0,1.0,1.0,1.0,20.00
2024-09-29 18:15:48.119,0.6863435,-0.024992608,0.14817181,0.34256166,-0.0024743567,-0.0089594,-0.11146782,0.24272047,1.0504752,-0.120741375,0.27158535,0.97754014,0.4454011,-0.041208256,-0.20328459,0.7076396,-0.047091667,-0.45793,-0.5046408,-0.1198678,720.84247,814.3223,808.68134,730.5128,942.4542,-0.2801513671875,0.13616943359375,0.97186279296875,0.157012939453125,-2.25799560546875,0.351409912109375,1,1.0,1.0,1.0,1.0,20.00
2024-09-29 18:15:48.119,0.6863435,-0.024992608,0.14817181,0.34256166,-0.0024743567,-0.0089594,-0.11146782,0.24272047,1.0504752,-0.120741375,0.27158535,0.97754014,0.4454011,-0.041208256,-0.20328459,0.7076396,-0.047091667,-0.45793,-0.5046408,-0.1198678,712.381,819.5604,805.05493,725.6777,1075.4213,-0.2801513671875,0.13616943359375,0.97186279296875,0.157012939453125,-2.25799560546875,0.351409912109375,1,1.0,1.0,1.0,1.0,20.00
2024-09-29 18:15:48.120,0.6863435,-0.024992608,0.14817181,0.34256166,-0.0024743567,-0.0089594,-0.11146782,0.24272047,1.0504752,-0.120741375,0.27158535,0.97754014,0.4454011,-0.041208256,-0.20328459,0.7076396,-0.047091667,-0.45793,-0.5046408,-0.1198678,715.2015,818.7546,808.68134,719.2308,770.40295,-0.2801513671875,0.13616943359375,0.97186279296875,0.157012939453125,-2.25799560546875,0.351409912109375,1,1.0,1.0,1.0,1.0,20.00
2024-09-29 18:15:48.120,0.6863435,-0.024992608,0.14817181,0.34256166,-0.0024743567,-0.0089594,-0.11146782,0.24272047,1.0504752,-0.120741375,0.27158535,0.97754014,0.4454011,-0.041208256,-0.20328459,0.7076396,-0.047091667,-0.45793,-0.5046408,-0.1198678,721.2454,816.337,815.12823,722.0513,689.41394,-0.2801513671875,0.13616943359375,0.97186279296875,0.157012939453125,-2.25799560546875,0.351409912109375,1,1.0,1.0,1.0,1.0,20.00
2024-09-29 18:15:48.121,0.6863435,-0.024992608,0.14817181,0.34256166,-0.0024743567,-0.0089594,-0.11146782,0.24272047,1.0504752,-0.120741375,0.27158535,0.97754014,0.4454011,-0.041208256,-0.20328459,0.7076396,-0.047091667,-0.45793,-0.5046408,-0.1198678,726.8865,817.9487,813.91943,727.28937,920.293,-0.2801513671875,0.13616943359375,0.97186279296875,0.157012939453125,-2.25799560546875,0.351409912109375,1,1.0,1.0,1.0,1.0,20.00
2024-09-29 18:15:48.121,0.6863435,-0.024992608,0.14817181,0.34256166,-0.0024743567,-0.0089594,-0.11146782,0.24272047,1.0504752,-0.120741375,0.27158535,0.97754014,0.4454011,-0.041208256,-0.20328459,0.7076396,-0.047091667,-0.45793,-0.5046408,-0.1198678,738.5714,816.7399,810.293,732.52747,858.24176,-0.2801513671875,0.13616943359375,0.97186279296875,0.157012939453125,-2.25799560546875,0.351409912109375,1,1.0,1.0,1.0,1.0,20.00
2024-09-29 18:15:48.143,0.6863435,-0.024992608,0.14817181,0.34256166,-0.0024743567,-0.0089594,-0.11146782,0.24272047,1.0504752,-0.120741375,0.27158535,0.97754014,0.4454011,-0.041208256,-0.20328459,0.7076396,-0.047091667,-0.45793,-0.5046408,-0.1198678,726.8865,813.1135,809.0842,734.5421,638.24176,-0.28289794921875,0.13262939453125,0.96875,-0.007476806640625,-0.73272705078125,0.35888671875,1,1.0,1.0,1.0,1.0,20.00
2024-09-29 18:15:48.144,0.6863435,-0.024992608,0.14817181,0.34256166,-0.0024743567,-0.0089594,-0.11146782,0.24272047,1.0504752,-0.120741375,0.27158535,0.97754014,0.4454011,-0.041208256,-0.20328459,0.7076396,-0.047091667,-0.45793,-0.5046408,-0.1198678,705.12823,811.9048,809.0842,728.49817,667.6557,-0.28289794921875,0.13262939453125,0.96875,-0.007476806640625,-0.73272705078125,0.35888671875,1,1.0,1.0,1.0,1.0,20.00
2024-09-29 18:15:48.144,0.6863435,-0.024992608,0.14817181,0.34256166,-0.0024743567,-0.0089594,-0.11146782,0.24272047,1.0504752,-0.120741375,0.27158535,0.97754014,0.4454011,-0.041208256,-0.20328459,0.7076396,-0.047091667,-0.45793,-0.5046408,-0.1198678,713.5897,811.50183,809.4872,732.1245,905.38464,-0.28289794921875,0.13262939453125,0.96875,-0.007476806640625,-0.73272705078125,0.35888671875,1,1.0,1.0,1.0,1.0,20.00
2024-09-29 18:15:48.145,0.5371795,0.04133054,0.2536643,0.3073507,-0.0022696336,0.052807745,-0.084251985,0.26211658,1.0412904,0.006797473,0.3545898,0.9771503,0.40063632,-0.061418667,-0.17832126,0.70867187,-0.06437969,-0.41679624,-0.5186692,-0.10859102,728.9011,806.6667,813.5165,742.6007,867.50916,-0.28289794921875,0.13262939453125,0.96875,-0.007476806640625,-0.73272705078125,0.35888671875,1,1.0,1.0,1.0,1.0,20.00
2024-09-29 18:15:48.150,0.5371795,0.04133054,0.2536643,0.3073507,-0.0022696336,0.052807745,-0.084251985,0.26211658,1.0412904,0.006797473,0.3545898,0.9771503,0.40063632,-0.061418667,-0.17832126,0.70867187,-0.06437969,-0.41679624,-0.5186692,-0.10859102,730.5128,807.0696,813.91943,733.73627,685.38464,-0.28289794921875,0.13262939453125,0.96875,-0.007476806640625,-0.73272705078125,0.35888671875,1,1.0,1.0,1.0,1.0,20.00
2024-09-29 18:15:48.150,0.5371795,0.04133054,0.2536643,0.3073507,-0.0022696336,0.052807745,-0.084251985,0.26211658,1.0412904,0.006797473,0.3545898,0.9771503,0.40063632,-0.061418667,-0.17832126,0.70867187,-0.06437969,-0.41679624,-0.5186692,-0.10859102,729.707,810.293,811.50183,723.663,826.8132,-0.28289794921875,0.13262939453125,0.96875,-0.007476806640625,-0.73272705078125,0.35888671875,1,1.0,1.0,1.0,1.0,20.00
2024-09-29 18:15:48.151,0.5371795,0.04133054,0.2536643,0.3073507,-0.0022696336,0.052807745,-0.084251985,0.26211658,1.0412904,0.006797473,0.3545898,0.9771503,0.40063632,-0.061418667,-0.17832126,0.70867187,-0.06437969,-0.41679624,-0.5186692,-0.10859102,732.52747,804.65204,815.5311,736.1539,1195.0916,-0.28289794921875,0.13262939453125,0.96875,-0.007476806640625,-0.73272705078125,0.35888671875,1,1.0,1.0,1.0,1.0,20.00
2024-09-29 18:15:48.151,0.5371795,0.04133054,0.2536643,0.3073507,-0.0022696336,0.052807745,-0.084251985,0.26211658,1.0412904,0.006797473,0.3545898,0.9771503,0.40063632,-0.061418667,-0.17832126,0.70867187,-0.06437969,-0.41679624,-0.5186692,-0.10859102,735.34796,804.65204,818.7546,751.06226,1388.4982,-0.28289794921875,0.13262939453125,0.96875,-0.007476806640625,-0.73272705078125,0.35888671875,1,1.0,1.0,1.0,1.0,20.00
2024-09-29 18:15:48.152,0.5371795,0.04133054,0.2536643,0.3073507,-0.0022696336,0.052807745,-0.084251985,0.26211658,1.0412904,0.006797473,0.3545898,0.9771503,0.40063632,-0.061418667,-0.17832126,0.70867187,-0.06437969,-0.41679624,-0.5186692,-0.10859102,734.94507,810.293,817.1429,753.47986,1035.9341,-0.28289794921875,0.13262939453125,0.96875,-0.007476806640625,-0.73272705078125,0.35888671875,1,1.0,1.0,1.0,1.0,20.00
2024-09-29 18:15:48.152,0.5371795,0.04133054,0.2536643,0.3073507,-0.0022696336,0.052807745,-0.084251985,0.26211658,1.0412904,0.006797473,0.3545898,0.9771503,0.40063632,-0.061418667,-0.17832126,0.70867187,-0.06437969,-0.41679624,-0.5186692,-0.10859102,737.3626,807.8755,816.337,747.4359,758.315,-0.28289794921875,0.13262939453125,0.96875,-0.007476806640625,-0.73272705078125,0.35888671875,1,1.0,1.0,1.0,1.0,20.00
2024-09-29 18:15:48.153,0.5371795,0.04133054,0.2536643,0.3073507,-0.0022696336,0.052807745,-0.084251985,0.26211658,1.0412904,0.006797473,0.3545898,0.9771503,0.40063632,-0.061418667,-0.17832126,0.70867187,-0.06437969,-0.41679624,-0.5186692,-0.10859102,752.27106,809.89014,815.9341,758.71796,888.0586,-0.28289794921875,0.13262939453125,0.96875,-0.007476806640625,-0.73272705078125,0.35888671875,1,1.0,1.0,1.0,1.0,20.00
2024-09-29 18:15:48.153,0.5371795,0.04133054,0.2536643,0.3073507,-0.0022696336,0.052807745,-0.084251985,0.26211658,1.0412904,0.006797473,0.3545898,0.9771503,0.40063632,-0.061418667,-0.17832126,0.70867187,-0.06437969,-0.41679624,-0.5186692,-0.10859102,765.9707,815.5311,812.3077,769.19415,756.30035,-0.28289794921875,0.13262939453125,0.96875,-0.007476806640625,-0.73272705078125,0.35888671875,1,1.0,1.0,1.0,1.0,20.00
2024-09-29 18:15:48.238,0.5371795,0.04133054,0.2536643,0.3073507,-0.0022696336,0.052807745,-0.084251985,0.26211658,1.0412904,0.006797473,0.3545898,0.9771503,0.40063632,-0.061418667,-0.17832126,0.70867187,-0.06437969,-0.41679624,-0.5186692,-0.10859102,769.19415,812.71063,811.0989,770.40295,582.23444,-0.28021240234375,0.13092041015625,0.957275390625,-0.22430419921875,-1.084136962890625,0.545806884765625,1,1.0,1.0,1.0,1.0,20.00
2024-09-29 18:15:48.239,0.5371795,0.04133054,0.2536643,0.3073507,-0.0022696336,0.052807745,-0.084251985,0.26211658,1.0412904,0.006797473,0.3545898,0.9771503,0.40063632,-0.061418667,-0.17832126,0.70867187,-0.06437969,-0.41679624,-0.5186692,-0.10859102,760.7326,809.4872,809.0842,763.95605,570.54944,-0.28021240234375,0.13092041015625,0.957275390625,-0.22430419921875,-1.084136962890625,0.545806884765625,1,1.0,1.0,1.0,1.0,20.00
2024-09-29 18:15:48.240,0.5371795,0.04133054,0.2536643,0.3073507,-0.0022696336,0.052807745,-0.084251985,0.26211658,1.0412904,0.006797473,0.3545898,0.9771503,0.40063632,-0.061418667,-0.17832126,0.70867187,-0.06437969,-0.41679624,-0.5186692,-0.10859102,751.06226,807.0696,811.50183,758.71796,724.0659,-0.28021240234375,0.13092041015625,0.957275390625,-0.22430419921875,-1.084136962890625,0.545806884765625,1,1.0,1.0,1.0,1.0,20.00
2024-09-29 18:15:48.240,0.5371795,0.04133054,0.2536643,0.3073507,-0.0022696336,0.052807745,-0.084251985,0.26211658,1.0412904,0.006797473,0.3545898,0.9771503,0.40063632,-0.061418667,-0.17832126,0.70867187,-0.06437969,-0.41679624,-0.5186692,-0.10859102,747.4359,807.47253,815.5311,756.7033,805.05493,-0.28021240234375,0.13092041015625,0.957275390625,-0.22430419921875,-1.084136962890625,0.545806884765625,1,1.0,1.0,1.0,1.0,20.00
2024-09-29 18:15:48.241,0.5371795,0.04133054,0.2536643,0.3073507,-0.0022696336,0.052807745,-0.084251985,0.26211658,1.0412904,0.006797473,0.3545898,0.9771503,0.40063632,-0.061418667,-0.17832126,0.70867187,-0.06437969,-0.41679624,-0.5186692,-0.10859102,756.7033,806.6667,817.5458,765.9707,694.2491,-0.28021240234375,0.13092041015625,0.957275390625,-0.22430419921875,-1.084136962890625,0.545806884765625,1,1.0,1.0,1.0,1.0,20.00
2024-09-29 18:15:48.242,0.5371795,0.04133054,0.2536643,0.3073507,-0.0022696336,0.052807745,-0.084251985,0.26211658,1.0412904,0.006797473,0.3545898,0.9771503,0.40063632,-0.061418667,-0.17832126,0.70867187,-0.06437969,-0.41679624,-0.5186692,-0.10859102,771.6117,806.26373,815.5311,774.83514,760.32965,-0.28021240234375,0.13092041015625,0.957275390625,-0.22430419921875,-1.084136962890625,0.545806884765625,1,1.0,1.0,1.0,1.0,20.00
2024-09-29 18:15:48.243,0.5371795,0.04133054,0.2536643,0.3073507,-0.0022696336,0.052807745,-0.084251985,0.26211658,1.0412904,0.006797473,0.3545898,0.9771503,0.40063632,-0.061418667,-0.17832126,0.70867187,-0.06437969,-0.41679624,-0.5186692,-0.10859102,774.83514,808.2784,813.5165,781.685,1000.4762,-0.28021240234375,0.13092041015625,0.957275390625,-0.22430419921875,-1.084136962890625,0.545806884765625,1,1.0,1.0,1.0,1.0,20.00
2024-09-29 18:15:48.243,0.5371795,0.04133054,0.2536643,0.3073507,-0.0022696336,0.052807745,-0.084251985,0.26211658,1.0412904,0.006797473,0.3545898,0.9771503,0.40063632,-0.061418667,-0.17832126,0.70867187,-0.06437969,-0.41679624,-0.5186692,-0.10859102,760.32965,807.8755,811.50183,772.01465,856.63007,-0.28021240234375,0.13092041015625,0.957275390625,-0.22430419921875,-1.084136962890625,0.545806884765625,1,1.0,1.0,1.0,1.0,20.00
2024-09-29 18:15:48.244,0.5371795,0.04133054,0.2536643,0.3073507,-0.0022696336,0.052807745,-0.084251985,0.26211658,1.0412904,0.006797473,0.3545898,0.9771503,0.40063632,-0.061418667,-0.17832126,0.70867187,-0.06437969,-0.41679624,-0.5186692,-0.10859102,763.95605,807.0696,807.8755,764.35895,601.1722,-0.28021240234375,0.13092041015625,0.957275390625,-0.22430419921875,-1.084136962890625,0.545806884765625,1,1.0,1.0,1.0,1.0,20.00
2024-09-29 18:15:48.246,0.5371795,0.04133054,0.2536643,0.3073507,-0.0022696336,0.052807745,-0.084251985,0.26211658,1.0412904,0.006797473,0.3545898,0.9771503,0.40063632,-0.061418667,-0.17832126,0.70867187,-0.06437969,-0.41679624,-0.5186692,-0.10859102,784.10254,806.6667,809.89014,776.8498,636.2271,-0.28021240234375,0.13092041015625,0.957275390625,-0.22430419921875,-1.084136962890625,0.545806884765625,1,1.0,1.0,1.0,1.0,20.00
2024-09-29 18:15:48.247,0.5371795,0.04133054,0.2536643,0.3073507,-0.0022696336,0.052807745,-0.084251985,0.26211658,1.0412904,0.006797473,0.3545898,0.9771503,0.40063632,-0.061418667,-0.17832126,0.70867187,-0.06437969,-0.41679624,-0.5186692,-0.10859102,785.31134,808.2784,814.7253,780.87915,927.9487,-0.28021240234375,0.13092041015625,0.957275390625,-0.22430419921875,-1.084136962890625,0.545806884765625,1,1.0,1.0,1.0,1.0,20.00
2024-09-29 18:15:48.248,0.5371795,0.04133054,0.2536643,0.3073507,-0.0022696336,0.052807745,-0.084251985,0.26211658,1.0412904,0.006797473,0.3545898,0.9771503,0.40063632,-0.061418667,-0.17832126,0.70867187,-0.06437969,-0.41679624,-0.5186692,-0.10859102,773.22345,806.26373,817.5458,772.01465,856.2271,-0.28021240234375,0.13092041015625,0.957275390625,-0.22430419921875,-1.084136962890625,0.545806884765625,1,1.0,1.0,1.0,1.0,20.00
2024-09-29 18:15:48.249,0.5371795,0.04133054,0.2536643,0.3073507,-0.0022696336,0.052807745,-0.084251985,0.26211658,1.0412904,0.006797473,0.3545898,0.9771503,0.40063632,-0.061418667,-0.17832126,0.70867187,-0.06437969,-0.41679624,-0.5186692,-0.10859102,757.1062,799.011,812.3077,761.9414,811.9048,-0.2899169921875,0.12481689453125,0.96771240234375,-1.2860107421875,-1.143951416015625,0.2691650390625,1,1.0,1.0,1.0,1.0,20.00
2024-09-29 18:15:48.249,0.5371795,0.04133054,0.2536643,0.3073507,-0.0022696336,0.052807745,-0.084251985,0.26211658,1.0412904,0.006797473,0.3545898,0.9771503,0.40063632,-0.061418667,-0.17832126,0.70867187,-0.06437969,-0.41679624,-0.5186692,-0.10859102,757.9121,794.57874,814.3223,766.3736,808.68134,-0.2899169921875,0.12481689453125,0.96771240234375,-1.2860107421875,-1.143951416015625,0.2691650390625,1,1.0,1.0,1.0,1.0,20.00
2024-09-29 18:15:48.250,0.5371795,0.04133054,0.2536643,0.3073507,-0.0022696336,0.052807745,-0.084251985,0.26211658,1.0412904,0.006797473,0.3545898,0.9771503,0.40063632,-0.061418667,-0.17832126,0.70867187,-0.06437969,-0.41679624,-0.5186692,-0.10859102,772.8205,799.81683,814.3223,779.2674,703.5165,-0.2899169921875,0.12481689453125,0.96771240234375,-1.2860107421875,-1.143951416015625,0.2691650390625,1,1.0,1.0,1.0,1.0,20.00
2024-09-29 18:15:48.251,0.5371795,0.04133054,0.2536643,0.3073507,-0.0022696336,0.052807745,-0.084251985,0.26211658,1.0412904,0.006797473,0.3545898,0.9771503,0.40063632,-0.061418667,-0.17832126,0.70867187,-0.06437969,-0.41679624,-0.5186692,-0.10859102,784.5055,808.2784,807.8755,785.7143,746.63007,-0.2899169921875,0.12481689453125,0.96771240234375,-1.2860107421875,-1.143951416015625,0.2691650390625,1,1.0,1.0,1.0,1.0,20.00
2024-09-29 18:15:48.251,0.5371795,0.04133054,0.2536643,0.3073507,-0.0022696336,0.052807745,-0.084251985,0.26211658,1.0412904,0.006797473,0.3545898,0.9771503,0.40063632,-0.061418667,-0.17832126,0.70867187,-0.06437969,-0.41679624,-0.5186692,-0.10859102,793.36993,805.8608,809.89014,790.54944,814.7253,-0.2899169921875,0.12481689453125,0.96771240234375,-1.2860107421875,-1.143951416015625,0.2691650390625,1,1.0,1.0,1.0,1.0,20.00
2024-09-29 18:15:48.252,0.38426664,0.11081099,0.3561147,0.26385182,-0.02372435,0.11131187,-0.05786141,0.25415993,1.0073006,0.19251655,0.36529887,0.97347635,0.3593805,-0.08387825,-0.15199463,0.69408906,-0.07860802,-0.38288507,-0.53791636,-0.09906944,787.326,802.23444,809.0842,784.5055,1033.1135,-0.2899169921875,0.12481689453125,0.96771240234375,-1.2860107421875,-1.143951416015625,0.2691650390625,1,1.0,1.0,1.0,1.0,20.00
2024-09-29 18:15:48.257,0.38426664,0.11081099,0.3561147,0.26385182,-0.02372435,0.11131187,-0.05786141,0.25415993,1.0073006,0.19251655,0.36529887,0.97347635,0.3593805,-0.08387825,-0.15199463,0.69408906,-0.07860802,-0.38288507,-0.53791636,-0.09906944,784.10254,802.23444,809.0842,784.10254,1051.6483,-0.2899169921875,0.12481689453125,0.96771240234375,-1.2860107421875,-1.143951416015625,0.2691650390625,1,1.0,1.0,1.0,1.0,20.00
2024-09-29 18:15:48.258,0.38426664,0.11081099,0.3561147,0.26385182,-0.02372435,0.11131187,-0.05786141,0.25415993,1.0073006,0.19251655,0.36529887,0.97347635,0.3593805,-0.08387825,-0.15199463,0.69408906,-0.07860802,-0.38288507,-0.53791636,-0.09906944,785.31134,801.02563,810.696,789.34064,741.79486,-0.2899169921875,0.12481689453125,0.96771240234375,-1.2860107421875,-1.143951416015625,0.2691650390625,1,1.0,1.0,1.0,1.0,20.00
2024-09-29 18:15:48.258,0.38426664,0.11081099,0.3561147,0.26385182,-0.02372435,0.11131187,-0.05786141,0.25415993,1.0073006,0.19251655,0.36529887,0.97347635,0.3593805,-0.08387825,-0.15199463,0.69408906,-0.07860802,-0.38288507,-0.53791636,-0.09906944,783.2967,796.1905,809.4872,791.3553,828.4249,-0.2899169921875,0.12481689453125,0.96771240234375,-1.2860107421875,-1.143951416015625,0.2691650390625,1,1.0,1.0,1.0,1.0,20.00
2024-09-29 18:15:48.259,0.38426664,0.11081099,0.3561147,0.26385182,-0.02372435,0.11131187,-0.05786141,0.25415993,1.0073006,0.19251655,0.36529887,0.97347635,0.3593805,-0.08387825,-0.15199463,0.69408906,-0.07860802,-0.38288507,-0.53791636,-0.09906944,805.05493,796.5934,809.0842,798.20514,981.53845,-0.2899169921875,0.12481689453125,0.96771240234375,-1.2860107421875,-1.143951416015625,0.2691650390625,1,1.0,1.0,1.0,1.0,20.00
2024-09-29 18:15:48.259,0.38426664,0.11081099,0.3561147,0.26385182,-0.02372435,0.11131187,-0.05786141,0.25415993,1.0073006,0.19251655,0.36529887,0.97347635,0.3593805,-0.08387825,-0.15199463,0.69408906,-0.07860802,-0.38288507,-0.53791636,-0.09906944,811.0989,798.20514,805.8608,794.17584,739.7802,-0.2899169921875,0.12481689453125,0.96771240234375,-1.2860107421875,-1.143951416015625,0.2691650390625,1,1.0,1.0,1.0,1.0,20.00
2024-09-29 18:15:48.260,0.38426664,0.11081099,0.3561147,0.26385182,-0.02372435,0.11131187,-0.05786141,0.25415993,1.0073006,0.19251655,0.36529887,0.97347635,0.3593805,-0.08387825,-0.15199463,0.69408906,-0.07860802,-0.38288507,-0.53791636,-0.09906944,806.6667,797.8022,804.2491,792.5641,655.16486,-0.2899169921875,0.12481689453125,0.96771240234375,-1.2860107421875,-1.143951416015625,0.2691650390625,1,1.0,1.0,1.0,1.0,20.00
2024-09-29 18:15:48.284,0.38426664,0.11081099,0.3561147,0.26385182,-0.02372435,0.11131187,-0.05786141,0.25415993,1.0073006,0.19251655,0.36529887,0.97347635,0.3593805,-0.08387825,-0.15199463,0.69408906,-0.07860802,-0.38288507,-0.53791636,-0.09906944,802.23444,799.41394,809.0842,796.99634,848.97437,-0.2899169921875,0.12481689453125,0.96771240234375,-1.2860107421875,-1.143951416015625,0.2691650390625,1,1.0,1.0,1.0,1.0,20.00
2024-09-29 18:15:48.285,0.38426664,0.11081099,0.3561147,0.26385182,-0.02372435,0.11131187,-0.05786141,0.25415993,1.0073006,0.19251655,0.36529887,0.97347635,0.3593805,-0.08387825,-0.15199463,0.69408906,-0.07860802,-0.38288507,-0.53791636,-0.09906944,804.2491,799.011,809.89014,799.81683,1014.57874,-0.2899169921875,0.12481689453125,0.96771240234375,-1.2860107421875,-1.143951416015625,0.2691650390625,1,1.0,1.0,1.0,1.0,20.00
2024-09-29 18:15:48.286,0.38426664,0.11081099,0.3561147,0.26385182,-0.02372435,0.11131187,-0.05786141,0.25415993,1.0073006,0.19251655,0.36529887,0.97347635,0.3593805,-0.08387825,-0.15199463,0.69408906,-0.07860802,-0.38288507,-0.53791636,-0.09906944,811.9048,796.5934,808.2784,803.44324,849.7802,-0.2899169921875,0.12481689453125,0.96771240234375,-1.2860107421875,-1.143951416015625,0.2691650390625,1,1.0,1.0,1.0,1.0,20.00
2024-09-29 18:15:48.287,0.38426664,0.11081099,0.3561147,0.26385182,-0.02372435,0.11131187,-0.05786141,0.25415993,1.0073006,0.19251655,0.36529887,0.97347635,0.3593805,-0.08387825,-0.15199463,0.69408906,-0.07860802,-0.38288507,-0.53791636,-0.09906944,797.3993,792.96704,809.0842,802.6374,730.5128,-0.2899169921875,0.12481689453125,0.96771240234375,-1.2860107421875,-1.143951416015625,0.2691650390625,1,1.0,1.0,1.0,1.0,20.00
2024-09-29 18:15:48.287,0.38426664,0.11081099,0.3561147,0.26385182,-0.02372435,0.11131187,-0.05786141,0.25415993,1.0073006,0.19251655,0.36529887,0.97347635,0.3593805,-0.08387825,-0.15199463,0.69408906,-0.07860802,-0.38288507,-0.53791636,-0.09906944,790.14655,793.36993,810.696,805.4579,793.7729,-0.2899169921875,0.12481689453125,0.96771240234375,-1.2860107421875,-1.143951416015625,0.2691650390625,1,1.0,1.0,1.0,1.0,20.00
2024-09-29 18:15:48.288,0.38426664,0.11081099,0.3561147,0.26385182,-0.02372435,0.11131187,-0.05786141,0.25415993,1.0073006,0.19251655,0.36529887,0.97347635,0.3593805,-0.08387825,-0.15199463,0.69408906,-0.07860802,-0.38288507,-0.53791636,-0.09906944,805.8608,796.99634,803.0403,817.5458,1229.3407,-0.2899169921875,0.12481689453125,0.96771240234375,-1.2860107421875,-1.143951416015625,0.2691650390625,1,1.0,1.0,1.0,1.0,20.00
2024-09-29 18:15:48.289,0.38426664,0.11081099,0.3561147,0.26385182,-0.02372435,0.11131187,-0.05786141,0.25415993,1.0073006,0.19251655,0.36529887,0.97347635,0.3593805,-0.08387825,-0.15199463,0.69408906,-0.07860802,-0.38288507,-0.53791636,-0.09906944,817.1429,799.011,803.8461,824.7985,1246.2638,-0.2899169921875,0.12481689453125,0.96771240234375,-1.2860107421875,-1.143951416015625,0.2691650390625,1,1.0,1.0,1.0,1.0,20.00
2024-09-29 18:15:48.289,0.38426664,0.11081099,0.3561147,0.26385182,-0.02372435,0.11131187,-0.05786141,0.25415993,1.0073006,0.19251655,0.36529887,0.97347635,0.3593805,-0.08387825,-0.15199463,0.69408906,-0.07860802,-0.38288507,-0.53791636,-0.09906944,807.0696,800.6227,810.696,806.6667,740.18317,-0.2899169921875,0.12481689453125,0.96771240234375,-1.2860107421875,-1.143951416015625,0.2691650390625,1,1.0,1.0,1.0,1.0,20.00
2024-09-29 18:15:48.290,0.38426664,0.11081099,0.3561147,0.26385182,-0.02372435,0.11131187,-0.05786141,0.25415993,1.0073006,0.19251655,0.36529887,0.97347635,0.3593805,-0.08387825,-0.15199463,0.69408906,-0.07860802,-0.38288507,-0.53791636,-0.09906944,797.3993,796.99634,811.50183,796.5934,737.76556,-0.2899169921875,0.12481689453125,0.96771240234375,-1.2860107421875,-1.143951416015625,0.2691650390625,1,1.0,1.0,1.0,1.0,20.00
2024-09-29 18:15:48.292,0.38426664,0.11081099,0.3561147,0.26385182,-0.02372435,0.11131187,-0.05786141,0.25415993,1.0073006,0.19251655,0.36529887,0.97347635,0.3593805,-0.08387825,-0.15199463,0.69408906,-0.07860802,-0.38288507,-0.53791636,-0.09906944,801.8315,796.5934,815.12823,803.44324,849.7802,-0.2899169921875,0.12481689453125,0.96771240234375,-1.2860107421875,-1.143951416015625,0.2691650390625,1,1.0,1.0,1.0,1.0,20.00
2024-09-29 18:15:48.293,0.38426664,0.11081099,0.3561147,0.26385182,-0.02372435,0.11131187,-0.05786141,0.25415993,1.0073006,0.19251655,0.36529887,0.97347635,0.3593805,-0.08387825,-0.15199463,0.69408906,-0.07860802,-0.38288507,-0.53791636,-0.09906944,808.68134,799.011,811.50183,808.2784,678.5348,-0.2899169921875,0.12481689453125,0.96771240234375,-1.2860107421875,-1.143951416015625,0.2691650390625,1,1.0,1.0,1.0,1.0,20.00
2024-09-29 18:15:48.293,0.38426664,0.11081099,0.3561147,0.26385182,-0.02372435,0.11131187,-0.05786141,0.25415993,1.0073006,0.19251655,0.36529887,0.97347635,0.3593805,-0.08387825,-0.15199463,0.69408906,-0.07860802,-0.38288507,-0.53791636,-0.09906944,809.0842,797.3993,801.8315,803.44324,641.4652,-0.2899169921875,0.12481689453125,0.96771240234375,-1.2860107421875,-1.143951416015625,0.2691650390625,1,1.0,1.0,1.0,1.0,20.00
2024-09-29 18:15:48.356,0.38426664,0.11081099,0.3561147,0.26385182,-0.02372435,0.11131187,-0.05786141,0.25415993,1.0073006,0.19251655,0.36529887,0.97347635,0.3593805,-0.08387825,-0.15199463,0.69408906,-0.07860802,-0.38288507,-0.53791636,-0.09906944,808.68134,794.9817,803.0403,811.50183,802.6374,-0.28594970703125,0.11907958984375,0.95550537109375,-0.46356201171875,-1.48040771484375,-1.547698974609375,1,1.0,1.0,1.0,1.0,20.00
2024-09-29 18:15:48.357,0.38426664,0.11081099,0.3561147,0.26385182,-0.02372435,0.11131187,-0.05786141,0.25415993,1.0073006,0.19251655,0.36529887,0.97347635,0.3593805,-0.08387825,-0.15199463,0.69408906,-0.07860802,-0.38288507,-0.53791636,-0.09906944,808.68134,794.17584,804.65204,811.50183,807.8755,-0.28594970703125,0.11907958984375,0.95550537109375,-0.46356201171875,-1.48040771484375,-1.547698974609375,1,1.0,1.0,1.0,1.0,20.00
2024-09-29 18:15:48.358,0.38426664,0.11081099,0.3561147,0.26385182,-0.02372435,0.11131187,-0.05786141,0.25415993,1.0073006,0.19251655,0.36529887,0.97347635,0.3593805,-0.08387825,-0.15199463,0.69408906,-0.07860802,-0.38288507,-0.53791636,-0.09906944,799.011,793.36993,800.6227,796.1905,728.9011,-0.28594970703125,0.11907958984375,0.95550537109375,-0.46356201171875,-1.48040771484375,-1.547698974609375,1,1.0,1.0,1.0,1.0,20.00
2024-09-29 18:15:48.359,0.38426664,0.11081099,0.3561147,0.26385182,-0.02372435,0.11131187,-0.05786141,0.25415993,1.0073006,0.19251655,0.36529887,0.97347635,0.3593805,-0.08387825,-0.15199463,0.69408906,-0.07860802,-0.38288507,-0.53791636,-0.09906944,810.293,795.78754,802.23444,800.6227,629.3773,-0.28594970703125,0.11907958984375,0.95550537109375,-0.46356201171875,-1.48040771484375,-1.547698974609375,1,1.0,1.0,1.0,1.0,20.00
2024-09-29 18:15:48.359,0.38426664,0.11081099,0.3561147,0.26385182,-0.02372435,0.11131187,-0.05786141,0.25415993,1.0073006,0.19251655,0.36529887,0.97347635,0.3593805,-0.08387825,-0.15199463,0.69408906,-0.07860802,-0.38288507,-0.53791636,-0.09906944,833.663,804.65204,801.02563,812.71063,745.42126,-0.28594970703125,0.11907958984375,0.95550537109375,-0.46356201171875,-1.48040771484375,-1.547698974609375,1,1.0,1.0,1.0,1.0,20.00
2024-09-29 18:15:48.360,0.38426664,0.11081099,0.3561147,0.26385182,-0.02372435,0.11131187,-0.05786141,0.25415993,1.0073006,0.19251655,0.36529887,0.97347635,0.3593805,-0.08387825,-0.15199463,0.69408906,-0.07860802,-0.38288507,-0.53791636,-0.09906944,839.707,803.44324,797.8022,814.3223,934.3956,-0.28594970703125,0.11907958984375,0.95550537109375,-0.46356201171875,-1.48040771484375,-1.547698974609375,1,1.0,1.0,1.0,1.0,20.00
2024-09-29 18:15:48.360,0.38426664,0.11081099,0.3561147,0.26385182,-0.02372435,0.11131187,-0.05786141,0.25415993,1.0073006,0.19251655,0.36529887,0.97347635,0.3593805,-0.08387825,-0.15199463,0.69408906,-0.07860802,-0.38288507,-0.53791636,-0.09906944,834.4689,801.8315,799.41394,811.9048,1001.28204,-0.28594970703125,0.11907958984375,0.95550537109375,-0.46356201171875,-1.48040771484375,-1.547698974609375,1,1.0,1.0,1.0,1.0,20.00
2024-09-29 18:15:48,,,,,,,,,,,,,,,,,,,,,,,,,,,,,,,,,,,,,,/muse/elements/blink
