TimeStamp,Delta_TP9,Delta_AF7,Delta_AF8,Delta_TP10,Theta_TP9,Theta_AF7,Theta_AF8,Theta_TP10,Alpha_TP9,Alpha_AF7,Alpha_AF8,Alpha_TP10,Beta_TP9,Beta_AF7,Beta_AF8,Beta_TP10,Gamma_TP9,Gamma_AF7,Gamma_AF8,Gamma_TP10,RAW_TP9,RAW_AF7,RAW_AF8,RAW_TP10,AUX_RIGHT,Accelerometer_X,Accelerometer_Y,Accelerometer_Z,Gyro_X,Gyro_Y,Gyro_Z,HeadBandOn,HSI_TP9,HSI_AF7,HSI_AF8,HSI_TP10,Battery,Elements
2024-09-29 18:17:30.491,1.144332,0.63744986,0.7084198,1.1701206,1.0956173,0.44779575,0.35247314,0.81867075,0.9134293,0.4930935,0.40506768,1.3073351,0.57134604,0.021238426,0.17348666,0.8247384,0.0912112,-0.46705875,-0.12250679,0.21776347,817.5458,810.293,813.1135,797.8022,792.1612,-0.13714599609375,0.120361328125,0.99505615234375,-1.398162841796875,1.8841552734375,0.25421142578125,1,1.0,1.0,1.0,1.0,20.00
2024-09-29 18:17:30.492,1.144332,0.63744986,0.7084198,1.1701206,1.0956173,0.44779575,0.35247314,0.81867075,0.9134293,0.4930935,0.40506768,1.3073351,0.57134604,0.021238426,0.17348666,0.8247384,0.0912112,-0.46705875,-0.12250679,0.21776347,819.5604,806.26373,810.696,790.54944,602.7839,-0.13714599609375,0.120361328125,0.99505615234375,-1.398162841796875,1.8841552734375,0.25421142578125,1,1.0,1.0,1.0,1.0,20.00
2024-09-29 18:17:30.493,1.144332,0.63744986,0.7084198,1.1701206,1.0956173,0.44779575,0.35247314,0.81867075,0.9134293,0.4930935,0.40506768,1.3073351,0.57134604,0.021238426,0.17348666,0.8247384,0.0912112,-0.46705875,-0.12250679,0.21776347,821.978,808.2784,805.4579,794.9817,707.1429,-0.13714599609375,0.120361328125,0.99505615234375,-1.398162841796875,1.8841552734375,0.25421142578125,1,1.0,1.0,1.0,1.0,20.00
2024-09-29 18:17:30.494,1.144332,0.63744986,0.7084198,1.1701206,1.0956173,0.44779575,0.35247314,0.81867075,0.9134293,0.4930935,0.40506768,1.3073351,0.57134604,0.021238426,0.17348666,0.8247384,0.0912112,-0.46705875,-0.12250679,0.21776347,816.337,808.68134,804.2491,794.9817,923.5165,-0.13714599609375,0.120361328125,0.99505615234375,-1.398162841796875,1.8841552734375,0.25421142578125,1,1.0,1.0,1.0,1.0,20.00
2024-09-29 18:17:30.495,1.144332,0.63744986,0.7084198,1.1701206,1.0956173,0.44779575,0.35247314,0.81867075,0.9134293,0.4930935,0.40506768,1.3073351,0.57134604,0.021238426,0.17348666,0.8247384,0.0912112,-0.46705875,-0.12250679,0.21776347,818.7546,809.89014,804.65204,785.7143,853.4066,-0.13714599609375,0.120361328125,0.99505615234375,-1.398162841796875,1.8841552734375,0.25421142578125,1,1.0,1.0,1.0,1.0,20.00
2024-09-29 18:17:30.495,1.144332,0.63744986,0.7084198,1.1701206,1.0956173,0.44779575,0.35247314,0.81867075,0.9134293,0.4930935,0.40506768,1.3073351,0.57134604,0.021238426,0.17348666,0.8247384,0.0912112,-0.46705875,-0.12250679,0.21776347,815.9341,811.9048,805.4579,788.5348,755.89746,-0.13714599609375,0.120361328125,0.99505615234375,-1.398162841796875,1.8841552734375,0.25421142578125,1,1.0,1.0,1.0,1.0,20.00
2024-09-29 18:17:30.496,1.144332,0.63744986,0.7084198,1.1701206,1.0956173,0.44779575,0.35247314,0.81867075,0.9134293,0.4930935,0.40506768,1.3073351,0.57134604,0.021238426,0.17348666,0.8247384,0.0912112,-0.46705875,-0.12250679,0.21776347,819.15753,811.0989,807.0696,798.60803,838.9011,-0.13714599609375,0.120361328125,0.99505615234375,-1.398162841796875,1.8841552734375,0.25421142578125,1,1.0,1.0,1.0,1.0,20.00
2024-09-29 18:17:30.496,1.144332,0.63744986,0.7084198,1.1701206,1.0956173,0.44779575,0.35247314,0.81867075,0.9134293,0.4930935,0.40506768,1.3073351,0.57134604,0.021238426,0.17348666,0.8247384,0.0912112,-0.46705875,-0.12250679,0.21776347,826.4103,810.696,806.26373,807.0696,1164.4689,-0.13714599609375,0.120361328125,0.99505615234375,-1.398162841796875,1.8841552734375,0.25421142578125,1,1.0,1.0,1.0,1.0,20.00
2024-09-29 18:17:30.497,1.144332,0.63744986,0.7084198,1.1701206,1.0956173,0.44779575,0.35247314,0.81867075,0.9134293,0.4930935,0.40506768,1.3073351,0.57134604,0.021238426,0.17348666,0.8247384,0.0912112,-0.46705875,-0.12250679,0.21776347,821.5751,808.2784,805.4579,809.4872,1381.6483,-0.13714599609375,0.120361328125,0.99505615234375,-1.398162841796875,1.8841552734375,0.25421142578125,1,1.0,1.0,1.0,1.0,20.00
2024-09-29 18:17:30.498,1.144332,0.63744986,0.7084198,1.1701206,1.0956173,0.44779575,0.35247314,0.81867075,0.9134293,0.4930935,0.40506768,1.3073351,0.57134604,0.021238426,0.17348666,0.8247384,0.0912112,-0.46705875,-0.12250679,0.21776347,821.1722,806.26373,805.4579,803.0403,1144.7252,-0.13714599609375,0.120361328125,0.99505615234375,-1.398162841796875,1.8841552734375,0.25421142578125,1,1.0,1.0,1.0,1.0,20.00
2024-09-29 18:17:30.498,1.144332,0.63744986,0.7084198,1.1701206,1.0956173,0.44779575,0.35247314,0.81867075,0.9134293,0.4930935,0.40506768,1.3073351,0.57134604,0.021238426,0.17348666,0.8247384,0.0912112,-0.46705875,-0.12250679,0.21776347,821.1722,809.0842,805.4579,796.1905,860.2564,-0.13714599609375,0.120361328125,0.99505615234375,-1.398162841796875,1.8841552734375,0.25421142578125,1,1.0,1.0,1.0,1.0,20.00
2024-09-29 18:17:30.499,1.144332,0.63744986,0.7084198,1.1701206,1.0956173,0.44779575,0.35247314,0.81867075,0.9134293,0.4930935,0.40506768,1.3073351,0.57134604,0.021238426,0.17348666,0.8247384,0.0912112,-0.46705875,-0.12250679,0.21776347,820.7692,811.9048,802.23444,796.99634,887.6557,-0.13714599609375,0.120361328125,0.99505615234375,-1.398162841796875,1.8841552734375,0.25421142578125,1,1.0,1.0,1.0,1.0,20.00
2024-09-29 18:17:30.500,1.144332,0.63744986,0.7084198,1.1701206,1.0956173,0.44779575,0.35247314,0.81867075,0.9134293,0.4930935,0.40506768,1.3073351,0.57134604,0.021238426,0.17348666,0.8247384,0.0912112,-0.46705875,-0.12250679,0.21776347,821.978,814.7253,799.81683,796.1905,780.4762,-0.135986328125,0.12384033203125,0.99676513671875,-0.2093505859375,1.136474609375,-1.4056396484375,1,1.0,1.0,1.0,1.0,20.00
2024-09-29 18:17:30.501,1.144332,0.63744986,0.7084198,1.1701206,1.0956173,0.44779575,0.35247314,0.81867075,0.9134293,0.4930935,0.40506768,1.3073351,0.57134604,0.021238426,0.17348666,0.8247384,0.0912112,-0.46705875,-0.12250679,0.21776347,826.4103,812.71063,800.6227,790.54944,620.5128,-0.135986328125,0.12384033203125,0.99676513671875,-0.2093505859375,1.136474609375,-1.4056396484375,1,1.0,1.0,1.0,1.0,20.00
2024-09-29 18:17:30.501,1.144332,0.63744986,0.7084198,1.1701206,1.0956173,0.44779575,0.35247314,0.81867075,0.9134293,0.4930935,0.40506768,1.3073351,0.57134604,0.021238426,0.17348666,0.8247384,0.0912112,-0.46705875,-0.12250679,0.21776347,818.7546,812.3077,797.8022,784.90845,631.79486,-0.135986328125,0.12384033203125,0.99676513671875,-0.2093505859375,1.136474609375,-1.4056396484375,1,1.0,1.0,1.0,1.0,20.00
2024-09-29 18:17:30.502,1.144332,0.63744986,0.7084198,1.1701206,1.0956173,0.44779575,0.35247314,0.81867075,0.9134293,0.4930935,0.40506768,1.3073351,0.57134604,0.021238426,0.17348666,0.8247384,0.0912112,-0.46705875,-0.12250679,0.21776347,804.2491,811.50183,797.8022,787.72894,733.73627,-0.135986328125,0.12384033203125,0.99676513671875,-0.2093505859375,1.136474609375,-1.4056396484375,1,1.0,1.0,1.0,1.0,20.00
2024-09-29 18:17:30.503,1.144332,0.63744986,0.7084198,1.1701206,1.0956173,0.44779575,0.35247314,0.81867075,0.9134293,0.4930935,0.40506768,1.3073351,0.57134604,0.021238426,0.17348666,0.8247384,0.0912112,-0.46705875,-0.12250679,0.21776347,803.0403,809.4872,799.41394,791.3553,749.0476,-0.135986328125,0.12384033203125,0.99676513671875,-0.2093505859375,1.136474609375,-1.4056396484375,1,1.0,1.0,1.0,1.0,20.00
2024-09-29 18:17:30.503,1.144332,0.63744986,0.7084198,1.1701206,1.0956173,0.44779575,0.35247314,0.81867075,0.9134293,0.4930935,0.40506768,1.3073351,0.57134604,0.021238426,0.17348666,0.8247384,0.0912112,-0.46705875,-0.12250679,0.21776347,799.81683,808.2784,799.011,785.7143,787.72894,-0.135986328125,0.12384033203125,0.99676513671875,-0.2093505859375,1.136474609375,-1.4056396484375,1,1.0,1.0,1.0,1.0,20.00
2024-09-29 18:17:30.504,1.144332,0.63744986,0.7084198,1.1701206,1.0956173,0.44779575,0.35247314,0.81867075,0.9134293,0.4930935,0.40506768,1.3073351,0.57134604,0.021238426,0.17348666,0.8247384,0.0912112,-0.46705875,-0.12250679,0.21776347,790.54944,805.4579,798.20514,783.2967,950.10986,-0.135986328125,0.12384033203125,0.99676513671875,-0.2093505859375,1.136474609375,-1.4056396484375,1,1.0,1.0,1.0,1.0,20.00
2024-09-29 18:17:30.504,1.144332,0.63744986,0.7084198,1.1701206,1.0956173,0.44779575,0.35247314,0.81867075,0.9134293,0.4930935,0.40506768,1.3073351,0.57134604,0.021238426,0.17348666,0.8247384,0.0912112,-0.46705875,-0.12250679,0.21776347,787.326,805.8608,801.4286,788.93774,794.9817,-0.135986328125,0.12384033203125,0.99676513671875,-0.2093505859375,1.136474609375,-1.4056396484375,1,1.0,1.0,1.0,1.0,20.00
2024-09-29 18:17:30.505,1.144332,0.63744986,0.7084198,1.1701206,1.0956173,0.44779575,0.35247314,0.81867075,0.9134293,0.4930935,0.40506768,1.3073351,0.57134604,0.021238426,0.17348666,0.8247384,0.0912112,-0.46705875,-0.12250679,0.21776347,785.31134,807.8755,796.99634,789.7436,757.1062,-0.135986328125,0.12384033203125,0.99676513671875,-0.2093505859375,1.136474609375,-1.4056396484375,1,1.0,1.0,1.0,1.0,20.00
2024-09-29 18:17:30.506,1.144332,0.63744986,0.7084198,1.1701206,1.0956173,0.44779575,0.35247314,0.81867075,0.9134293,0.4930935,0.40506768,1.3073351,0.57134604,0.021238426,0.17348666,0.8247384,0.0912112,-0.46705875,-0.12250679,0.21776347,778.86444,809.4872,792.96704,788.93774,825.2015,-0.135986328125,0.12384033203125,0.99676513671875,-0.2093505859375,1.136474609375,-1.4056396484375,1,1.0,1.0,1.0,1.0,20.00
2024-09-29 18:17:30.507,1.144332,0.63744986,0.7084198,1.1701206,1.0956173,0.44779575,0.35247314,0.81867075,0.9134293,0.4930935,0.40506768,1.3073351,0.57134604,0.021238426,0.17348666,0.8247384,0.0912112,-0.46705875,-0.12250679,0.21776347,781.685,809.4872,798.20514,787.72894,812.3077,-0.135986328125,0.12384033203125,0.99676513671875,-0.2093505859375,1.136474609375,-1.4056396484375,1,1.0,1.0,1.0,1.0,20.00
2024-09-29 18:17:30.507,1.144332,0.6377446,0.7116759,1.1701206,1.0956173,0.4476113,0.34888494,0.81867075,0.9134293,0.49173173,0.40312502,1.3073351,0.57134604,0.024863604,0.17354287,0.8247384,0.0912112,-0.463463,-0.13926654,0.21776347,789.7436,808.68134,797.3993,785.31134,816.7399,-0.135986328125,0.12384033203125,0.99676513671875,-0.2093505859375,1.136474609375,-1.4056396484375,1,1.0,1.0,1.0,1.0,20.00
2024-09-29 18:17:30.658,1.144332,0.6377446,0.7116759,1.1701206,1.0956173,0.4476113,0.34888494,0.81867075,0.9134293,0.49173173,0.40312502,1.3073351,0.57134604,0.024863604,0.17354287,0.8247384,0.0912112,-0.463463,-0.13926654,0.21776347,795.38464,805.8608,797.8022,793.36993,767.98535,-0.134033203125,0.12493896484375,0.99188232421875,-0.067291259765625,0.777587890625,-1.353302001953125,1,1.0,1.0,1.0,1.0,20.00
2024-09-29 18:17:30.659,1.144332,0.6377446,0.7116759,1.1701206,1.0956173,0.4476113,0.34888494,0.81867075,0.9134293,0.49173173,0.40312502,1.3073351,0.57134604,0.024863604,0.17354287,0.8247384,0.0912112,-0.463463,-0.13926654,0.21776347,794.9817,801.8315,800.6227,802.23444,907.8022,-0.134033203125,0.12493896484375,0.99188232421875,-0.067291259765625,0.777587890625,-1.353302001953125,1,1.0,1.0,1.0,1.0,20.00
2024-09-29 18:17:30.660,1.144332,0.6377446,0.7116759,1.1701206,1.0956173,0.4476113,0.34888494,0.81867075,0.9134293,0.49173173,0.40312502,1.3073351,0.57134604,0.024863604,0.17354287,0.8247384,0.0912112,-0.463463,-0.13926654,0.21776347,797.3993,801.8315,801.02563,801.02563,946.8865,-0.134033203125,0.12493896484375,0.99188232421875,-0.067291259765625,0.777587890625,-1.353302001953125,1,1.0,1.0,1.0,1.0,20.00
2024-09-29 18:17:30.661,1.144332,0.6377446,0.7116759,1.1701206,1.0956173,0.4476113,0.34888494,0.81867075,0.9134293,0.49173173,0.40312502,1.3073351,0.57134604,0.024863604,0.17354287,0.8247384,0.0912112,-0.463463,-0.13926654,0.21776347,796.5934,807.0696,795.38464,791.3553,676.1172,-0.134033203125,0.12493896484375,0.99188232421875,-0.067291259765625,0.777587890625,-1.353302001953125,1,1.0,1.0,1.0,1.0,20.00
2024-09-29 18:17:30.661,1.144332,0.6377446,0.7116759,1.1701206,1.0956173,0.4476113,0.34888494,0.81867075,0.9134293,0.49173173,0.40312502,1.3073351,0.57134604,0.024863604,0.17354287,0.8247384,0.0912112,-0.463463,-0.13926654,0.21776347,791.75824,806.6667,796.5934,788.93774,674.5055,-0.134033203125,0.12493896484375,0.99188232421875,-0.067291259765625,0.777587890625,-1.353302001953125,1,1.0,1.0,1.0,1.0,20.00
2024-09-29 18:17:30.662,1.144332,0.6377446,0.7116759,1.1701206,1.0956173,0.4476113,0.34888494,0.81867075,0.9134293,0.49173173,0.40312502,1.3073351,0.57134604,0.024863604,0.17354287,0.8247384,0.0912112,-0.463463,-0.13926654,0.21776347,794.57874,803.44324,798.60803,800.6227,955.34796,-0.134033203125,0.12493896484375,0.99188232421875,-0.067291259765625,0.777587890625,-1.353302001953125,1,1.0,1.0,1.0,1.0,20.00
2024-09-29 18:17:30.663,1.144332,0.6377446,0.7116759,1.1701206,1.0956173,0.4476113,0.34888494,0.81867075,0.9134293,0.49173173,0.40312502,1.3073351,0.57134604,0.024863604,0.17354287,0.8247384,0.0912112,-0.463463,-0.13926654,0.21776347,793.36993,806.6667,800.2198,799.011,1066.5568,-0.134033203125,0.12493896484375,0.99188232421875,-0.067291259765625,0.777587890625,-1.353302001953125,1,1.0,1.0,1.0,1.0,20.00
2024-09-29 18:17:30.663,1.144332,0.6377446,0.7116759,1.1701206,1.0956173,0.4476113,0.34888494,0.81867075,0.9134293,0.49173173,0.40312502,1.3073351,0.57134604,0.024863604,0.17354287,0.8247384,0.0912112,-0.463463,-0.13926654,0.21776347,796.5934,807.0696,799.011,790.54944,820.3663,-0.134033203125,0.12493896484375,0.99188232421875,-0.067291259765625,0.777587890625,-1.353302001953125,1,1.0,1.0,1.0,1.0,20.00
2024-09-29 18:17:30.664,1.144332,0.6377446,0.7116759,1.1701206,1.0956173,0.4476113,0.34888494,0.81867075,0.9134293,0.49173173,0.40312502,1.3073351,0.57134604,0.024863604,0.17354287,0.8247384,0.0912112,-0.463463,-0.13926654,0.21776347,805.05493,803.44324,794.9817,792.1612,653.95605,-0.134033203125,0.12493896484375,0.99188232421875,-0.067291259765625,0.777587890625,-1.353302001953125,1,1.0,1.0,1.0,1.0,20.00
2024-09-29 18:17:30.665,1.144332,0.6377446,0.7116759,1.1701206,1.0956173,0.4476113,0.34888494,0.81867075,0.9134293,0.49173173,0.40312502,1.3073351,0.57134604,0.024863604,0.17354287,0.8247384,0.0912112,-0.463463,-0.13926654,0.21776347,805.05493,803.0403,801.4286,796.5934,921.50183,-0.134033203125,0.12493896484375,0.99188232421875,-0.067291259765625,0.777587890625,-1.353302001953125,1,1.0,1.0,1.0,1.0,20.00
2024-09-29 18:17:30.665,1.144332,0.6377446,0.7116759,1.1701206,1.0956173,0.4476113,0.34888494,0.81867075,0.9134293,0.49173173,0.40312502,1.3073351,0.57134604,0.024863604,0.17354287,0.8247384,0.0912112,-0.463463,-0.13926654,0.21776347,804.65204,805.8608,804.2491,807.0696,1245.8608,-0.134033203125,0.12493896484375,0.99188232421875,-0.067291259765625,0.777587890625,-1.353302001953125,1,1.0,1.0,1.0,1.0,20.00
2024-09-29 18:17:30.666,1.144332,0.6377446,0.7116759,1.1701206,1.0956173,0.4476113,0.34888494,0.81867075,0.9134293,0.49173173,0.40312502,1.3073351,0.57134604,0.024863604,0.17354287,0.8247384,0.0912112,-0.463463,-0.13926654,0.21776347,807.0696,806.6667,801.8315,810.293,1286.9597,-0.134033203125,0.12493896484375,0.99188232421875,-0.067291259765625,0.777587890625,-1.353302001953125,1,1.0,1.0,1.0,1.0,20.00
2024-09-29 18:17:30.792,1.144332,0.6377446,0.7116759,1.1701206,1.0956173,0.4476113,0.34888494,0.81867075,0.9134293,0.49173173,0.40312502,1.3073351,0.57134604,0.024863604,0.17354287,0.8247384,0.0912112,-0.463463,-0.13926654,0.21776347,809.4872,801.8315,799.011,806.26373,1164.8718,-0.134033203125,0.12493896484375,0.99188232421875,-0.067291259765625,0.777587890625,-1.353302001953125,1,1.0,1.0,1.0,1.0,20.00
2024-09-29 18:17:30.794,1.144332,0.6377446,0.7116759,1.1701206,1.0956173,0.4476113,0.34888494,0.81867075,0.9134293,0.49173173,0.40312502,1.3073351,0.57134604,0.024863604,0.17354287,0.8247384,0.0912112,-0.463463,-0.13926654,0.21776347,808.2784,801.8315,799.81683,801.8315,980.32965,-0.134033203125,0.12493896484375,0.99188232421875,-0.067291259765625,0.777587890625,-1.353302001953125,1,1.0,1.0,1.0,1.0,20.00
2024-09-29 18:17:30.794,1.144332,0.6377446,0.7116759,1.1701206,1.0956173,0.4476113,0.34888494,0.81867075,0.9134293,0.49173173,0.40312502,1.3073351,0.57134604,0.024863604,0.17354287,0.8247384,0.0912112,-0.463463,-0.13926654,0.21776347,800.2198,802.6374,797.3993,794.9817,814.7253,-0.134033203125,0.12493896484375,0.99188232421875,-0.067291259765625,0.777587890625,-1.353302001953125,1,1.0,1.0,1.0,1.0,20.00
2024-09-29 18:17:30.795,1.144332,0.6377446,0.7116759,1.1701206,1.0956173,0.4476113,0.34888494,0.81867075,0.9134293,0.49173173,0.40312502,1.3073351,0.57134604,0.024863604,0.17354287,0.8247384,0.0912112,-0.463463,-0.13926654,0.21776347,801.02563,802.6374,791.75824,789.7436,580.2198,-0.134033203125,0.12493896484375,0.99188232421875,-0.067291259765625,0.777587890625,-1.353302001953125,1,1.0,1.0,1.0,1.0,20.00
2024-09-29 18:17:30.796,1.144332,0.6377446,0.7116759,1.1701206,1.0956173,0.4476113,0.34888494,0.81867075,0.9134293,0.49173173,0.40312502,1.3073351,0.57134604,0.024863604,0.17354287,0.8247384,0.0912112,-0.463463,-0.13926654,0.21776347,814.7253,805.4579,794.9817,798.20514,625.34796,-0.134033203125,0.12493896484375,0.99188232421875,-0.067291259765625,0.777587890625,-1.353302001953125,1,1.0,1.0,1.0,1.0,20.00
2024-09-29 18:17:30.796,1.144332,0.6377446,0.7116759,1.1701206,1.0956173,0.4476113,0.34888494,0.81867075,0.9134293,0.49173173,0.40312502,1.3073351,0.57134604,0.024863604,0.17354287,0.8247384,0.0912112,-0.463463,-0.13926654,0.21776347,812.71063,807.47253,799.011,812.71063,908.20514,-0.134033203125,0.12493896484375,0.99188232421875,-0.067291259765625,0.777587890625,-1.353302001953125,1,1.0,1.0,1.0,1.0,20.00
2024-09-29 18:17:30.797,1.144332,0.6377446,0.7116759,1.1701206,1.0956173,0.4476113,0.34888494,0.81867075,0.9134293,0.49173173,0.40312502,1.3073351,0.57134604,0.024863604,0.17354287,0.8247384,0.0912112,-0.463463,-0.13926654,0.21776347,789.7436,809.0842,799.81683,806.26373,919.89014,-0.134033203125,0.12493896484375,0.99188232421875,-0.067291259765625,0.777587890625,-1.353302001953125,1,1.0,1.0,1.0,1.0,20.00
2024-09-29 18:17:30.798,1.144332,0.6377446,0.7116759,1.1701206,1.0956173,0.4476113,0.34888494,0.81867075,0.9134293,0.49173173,0.40312502,1.3073351,0.57134604,0.024863604,0.17354287,0.8247384,0.0912112,-0.463463,-0.13926654,0.21776347,790.14655,807.8755,798.20514,798.20514,715.6044,-0.134033203125,0.12493896484375,0.99188232421875,-0.067291259765625,0.777587890625,-1.353302001953125,1,1.0,1.0,1.0,1.0,20.00
2024-09-29 18:17:30.799,1.144332,0.6377446,0.7116759,1.1701206,1.0956173,0.4476113,0.34888494,0.81867075,0.9134293,0.49173173,0.40312502,1.3073351,0.57134604,0.024863604,0.17354287,0.8247384,0.0912112,-0.463463,-0.13926654,0.21776347,807.0696,807.8755,794.17584,801.4286,597.9487,-0.134033203125,0.12493896484375,0.99188232421875,-0.067291259765625,0.777587890625,-1.353302001953125,1,1.0,1.0,1.0,1.0,20.00
2024-09-29 18:17:30.799,1.144332,0.6377446,0.7116759,1.1701206,1.0956173,0.4476113,0.34888494,0.81867075,0.9134293,0.49173173,0.40312502,1.3073351,0.57134604,0.024863604,0.17354287,0.8247384,0.0912112,-0.463463,-0.13926654,0.21776347,808.68134,805.8608,797.8022,807.47253,727.28937,-0.134033203125,0.12493896484375,0.99188232421875,-0.067291259765625,0.777587890625,-1.353302001953125,1,1.0,1.0,1.0,1.0,20.00
2024-09-29 18:17:30.800,1.144332,0.6377446,0.7116759,1.1701206,1.0956173,0.4476113,0.34888494,0.81867075,0.9134293,0.49173173,0.40312502,1.3073351,0.57134604,0.024863604,0.17354287,0.8247384,0.0912112,-0.463463,-0.13926654,0.21776347,813.5165,803.44324,802.23444,810.293,788.1319,-0.134033203125,0.12493896484375,0.99188232421875,-0.067291259765625,0.777587890625,-1.353302001953125,1,1.0,1.0,1.0,1.0,20.00
2024-09-29 18:17:30.800,1.144332,0.6377446,0.7116759,1.1701206,1.0956173,0.4476113,0.34888494,0.81867075,0.9134293,0.49173173,0.40312502,1.3073351,0.57134604,0.024863604,0.17354287,0.8247384,0.0912112,-0.463463,-0.13926654,0.21776347,810.696,802.6374,800.2198,807.47253,658.3883,-0.134033203125,0.12493896484375,0.99188232421875,-0.067291259765625,0.777587890625,-1.353302001953125,1,1.0,1.0,1.0,1.0,20.00
2024-09-29 18:17:30.893,1.144332,0.6377446,0.7116759,1.1701206,1.0956173,0.4476113,0.34888494,0.81867075,0.9134293,0.49173173,0.40312502,1.3073351,0.57134604,0.024863604,0.17354287,0.8247384,0.0912112,-0.463463,-0.13926654,0.21776347,810.696,801.8315,798.60803,809.4872,675.31134,-0.13836669921875,0.12420654296875,0.9947509765625,-0.179443359375,1.024322509765625,-0.874786376953125,1,1.0,1.0,1.0,1.0,20.00
2024-09-29 18:17:30.894,1.144332,0.65616155,0.7274035,1.1701206,1.0956173,0.45512843,0.35844037,0.81867075,0.9134293,0.48830327,0.40312502,1.3073351,0.57134604,0.030922592,0.17595583,0.8247384,0.0912112,-0.4697599,-0.15439285,0.21776347,824.7985,802.23444,796.5934,805.8608,788.93774,-0.13836669921875,0.12420654296875,0.9947509765625,-0.179443359375,1.024322509765625,-0.874786376953125,1,1.0,1.0,1.0,1.0,20.00
2024-09-29 18:17:30.899,1.144332,0.65616155,0.7274035,1.1701206,1.0956173,0.45512843,0.35844037,0.81867075,0.9134293,0.48830327,0.40312502,1.3073351,0.57134604,0.030922592,0.17595583,0.8247384,0.0912112,-0.4697599,-0.15439285,0.21776347,821.978,805.8608,791.75824,805.8608,796.5934,-0.13836669921875,0.12420654296875,0.9947509765625,-0.179443359375,1.024322509765625,-0.874786376953125,1,1.0,1.0,1.0,1.0,20.00
2024-09-29 18:17:30.900,1.144332,0.65616155,0.7274035,1.1701206,1.0956173,0.45512843,0.35844037,0.81867075,0.9134293,0.48830327,0.40312502,1.3073351,0.57134604,0.030922592,0.17595583,0.8247384,0.0912112,-0.4697599,-0.15439285,0.21776347,821.1722,806.6667,790.9524,807.47253,752.27106,-0.13836669921875,0.12420654296875,0.9947509765625,-0.179443359375,1.024322509765625,-0.874786376953125,1,1.0,1.0,1.0,1.0,20.00
2024-09-29 18:17:30.901,1.144332,0.65616155,0.7274035,1.1701206,1.0956173,0.45512843,0.35844037,0.81867075,0.9134293,0.48830327,0.40312502,1.3073351,0.57134604,0.030922592,0.17595583,0.8247384,0.0912112,-0.4697599,-0.15439285,0.21776347,829.6337,805.05493,793.36993,801.8315,776.4469,-0.13836669921875,0.12420654296875,0.9947509765625,-0.179443359375,1.024322509765625,-0.874786376953125,1,1.0,1.0,1.0,1.0,20.00
2024-09-29 18:17:30.901,1.144332,0.65616155,0.7274035,1.1701206,1.0956173,0.45512843,0.35844037,0.81867075,0.9134293,0.48830327,0.40312502,1.3073351,0.57134604,0.030922592,0.17595583,0.8247384,0.0912112,-0.4697599,-0.15439285,0.21776347,825.2015,802.23444,795.38464,809.89014,888.46155,-0.13836669921875,0.12420654296875,0.9947509765625,-0.179443359375,1.024322509765625,-0.874786376953125,1,1.0,1.0,1.0,1.0,20.00
2024-09-29 18:17:30.902,1.144332,0.65616155,0.7274035,1.1701206,1.0956173,0.45512843,0.35844037,0.81867075,0.9134293,0.48830327,0.40312502,1.3073351,0.57134604,0.030922592,0.17595583,0.8247384,0.0912112,-0.4697599,-0.15439285,0.21776347,807.8755,799.41394,803.44324,815.9341,859.45056,-0.13836669921875,0.12420654296875,0.9947509765625,-0.179443359375,1.024322509765625,-0.874786376953125,1,1.0,1.0,1.0,1.0,20.00
2024-09-29 18:17:30.903,1.144332,0.65616155,0.7274035,1.1701206,1.0956173,0.45512843,0.35844037,0.81867075,0.9134293,0.48830327,0.40312502,1.3073351,0.57134604,0.030922592,0.17595583,0.8247384,0.0912112,-0.4697599,-0.15439285,0.21776347,811.50183,803.44324,801.8315,813.5165,853.4066,-0.13836669921875,0.12420654296875,0.9947509765625,-0.179443359375,1.024322509765625,-0.874786376953125,1,1.0,1.0,1.0,1.0,20.00
2024-09-29 18:17:30.903,1.144332,0.65616155,0.7274035,1.1701206,1.0956173,0.45512843,0.35844037,0.81867075,0.9134293,0.48830327,0.40312502,1.3073351,0.57134604,0.030922592,0.17595583,0.8247384,0.0912112,-0.4697599,-0.15439285,0.21776347,818.7546,804.2491,790.54944,814.7253,838.49817,-0.13836669921875,0.12420654296875,0.9947509765625,-0.179443359375,1.024322509765625,-0.874786376953125,1,1.0,1.0,1.0,1.0,20.00
2024-09-29 18:17:30.904,1.144332,0.65616155,0.7274035,1.1701206,1.0956173,0.45512843,0.35844037,0.81867075,0.9134293,0.48830327,0.40312502,1.3073351,0.57134604,0.030922592,0.17595583,0.8247384,0.0912112,-0.4697599,-0.15439285,0.21776347,811.0989,800.2198,796.1905,807.47253,738.1685,-0.13836669921875,0.12420654296875,0.9947509765625,-0.179443359375,1.024322509765625,-0.874786376953125,1,1.0,1.0,1.0,1.0,20.00
2024-09-29 18:17:30.905,1.144332,0.65616155,0.7274035,1.1701206,1.0956173,0.45512843,0.35844037,0.81867075,0.9134293,0.48830327,0.40312502,1.3073351,0.57134604,0.030922592,0.17595583,0.8247384,0.0912112,-0.4697599,-0.15439285,0.21776347,811.0989,800.2198,801.02563,801.4286,709.15753,-0.13836669921875,0.12420654296875,0.9947509765625,-0.179443359375,1.024322509765625,-0.874786376953125,1,1.0,1.0,1.0,1.0,20.00
2024-09-29 18:17:30.905,1.144332,0.65616155,0.7274035,1.1701206,1.0956173,0.45512843,0.35844037,0.81867075,0.9134293,0.48830327,0.40312502,1.3073351,0.57134604,0.030922592,0.17595583,0.8247384,0.0912112,-0.4697599,-0.15439285,0.21776347,810.696,799.011,795.78754,808.68134,782.49084,-0.13836669921875,0.12420654296875,0.9947509765625,-0.179443359375,1.024322509765625,-0.874786376953125,1,1.0,1.0,1.0,1.0,20.00
2024-09-29 18:17:30.993,1.144332,0.65616155,0.7274035,1.1701206,1.0956173,0.45512843,0.35844037,0.81867075,0.9134293,0.48830327,0.40312502,1.3073351,0.57134604,0.030922592,0.17595583,0.8247384,0.0912112,-0.4697599,-0.15439285,0.21776347,813.5165,794.57874,792.1612,819.15753,950.9158,-0.1488037109375,0.12054443359375,0.9818115234375,-0.7476806640625,1.502838134765625,-1.173858642578125,1,1.0,1.0,1.0,1.0,20.00
2024-09-29 18:17:30.994,1.144332,0.65616155,0.7274035,1.1701206,1.0956173,0.45512843,0.35844037,0.81867075,0.9134293,0.48830327,0.40312502,1.3073351,0.57134604,0.030922592,0.17595583,0.8247384,0.0912112,-0.4697599,-0.15439285,0.21776347,823.1868,796.1905,793.7729,823.1868,913.0403,-0.1488037109375,0.12054443359375,0.9818115234375,-0.7476806640625,1.502838134765625,-1.173858642578125,1,1.0,1.0,1.0,1.0,20.00
2024-09-29 18:17:30.995,1.144332,0.65616155,0.7274035,1.1701206,1.0956173,0.45512843,0.35844037,0.81867075,0.9134293,0.48830327,0.40312502,1.3073351,0.57134604,0.030922592,0.17595583,0.8247384,0.0912112,-0.4697599,-0.15439285,0.21776347,822.7839,794.57874,790.54944,817.5458,778.46155,-0.1488037109375,0.12054443359375,0.9818115234375,-0.7476806640625,1.502838134765625,-1.173858642578125,1,1.0,1.0,1.0,1.0,20.00
2024-09-29 18:17:30.995,1.144332,0.65616155,0.7274035,1.1701206,1.0956173,0.45512843,0.35844037,0.81867075,0.9134293,0.48830327,0.40312502,1.3073351,0.57134604,0.030922592,0.17595583,0.8247384,0.0912112,-0.4697599,-0.15439285,0.21776347,821.978,788.1319,790.14655,824.3956,849.7802,-0.1488037109375,0.12054443359375,0.9818115234375,-0.7476806640625,1.502838134765625,-1.173858642578125,1,1.0,1.0,1.0,1.0,20.00
2024-09-29 18:17:30.996,1.144332,0.65616155,0.7274035,1.1701206,1.0956173,0.45512843,0.35844037,0.81867075,0.9134293,0.48830327,0.40312502,1.3073351,0.57134604,0.030922592,0.17595583,0.8247384,0.0912112,-0.4697599,-0.15439285,0.21776347,825.2015,787.72894,796.99634,825.2015,801.4286,-0.1488037109375,0.12054443359375,0.9818115234375,-0.7476806640625,1.502838134765625,-1.173858642578125,1,1.0,1.0,1.0,1.0,20.00
2024-09-29 18:17:30.997,1.144332,0.65616155,0.7274035,1.1701206,1.0956173,0.45512843,0.35844037,0.81867075,0.9134293,0.48830327,0.40312502,1.3073351,0.57134604,0.030922592,0.17595583,0.8247384,0.0912112,-0.4697599,-0.15439285,0.21776347,824.3956,788.1319,802.6374,823.1868,828.8278,-0.1488037109375,0.12054443359375,0.9818115234375,-0.7476806640625,1.502838134765625,-1.173858642578125,1,1.0,1.0,1.0,1.0,20.00
2024-09-29 18:17:30.997,1.144332,0.65616155,0.7274035,1.1701206,1.0956173,0.45512843,0.35844037,0.81867075,0.9134293,0.48830327,0.40312502,1.3073351,0.57134604,0.030922592,0.17595583,0.8247384,0.0912112,-0.4697599,-0.15439285,0.21776347,814.7253,790.54944,797.3993,821.5751,884.0293,-0.1488037109375,0.12054443359375,0.9818115234375,-0.7476806640625,1.502838134765625,-1.173858642578125,1,1.0,1.0,1.0,1.0,20.00
2024-09-29 18:17:30.998,1.144332,0.65616155,0.7274035,1.1701206,1.0956173,0.45512843,0.35844037,0.81867075,0.9134293,0.48830327,0.40312502,1.3073351,0.57134604,0.030922592,0.17595583,0.8247384,0.0912112,-0.4697599,-0.15439285,0.21776347,811.0989,793.36993,786.9231,817.5458,780.4762,-0.1488037109375,0.12054443359375,0.9818115234375,-0.7476806640625,1.502838134765625,-1.173858642578125,1,1.0,1.0,1.0,1.0,20.00
2024-09-29 18:17:30.999,1.144332,0.65616155,0.7274035,1.1701206,1.0956173,0.45512843,0.35844037,0.81867075,0.9134293,0.48830327,0.40312502,1.3073351,0.57134604,0.030922592,0.17595583,0.8247384,0.0912112,-0.4697599,-0.15439285,0.21776347,824.3956,792.96704,791.3553,817.5458,864.2857,-0.1488037109375,0.12054443359375,0.9818115234375,-0.7476806640625,1.502838134765625,-1.173858642578125,1,1.0,1.0,1.0,1.0,20.00
2024-09-29 18:17:30.999,1.144332,0.65616155,0.7274035,1.1701206,1.0956173,0.45512843,0.35844037,0.81867075,0.9134293,0.48830327,0.40312502,1.3073351,0.57134604,0.030922592,0.17595583,0.8247384,0.0912112,-0.4697599,-0.15439285,0.21776347,832.8571,799.011,794.9817,807.0696,819.15753,-0.1488037109375,0.12054443359375,0.9818115234375,-0.7476806640625,1.502838134765625,-1.173858642578125,1,1.0,1.0,1.0,1.0,20.00
2024-09-29 18:17:31.000,1.144332,0.65616155,0.7274035,1.1701206,1.0956173,0.45512843,0.35844037,0.81867075,0.9134293,0.48830327,0.40312502,1.3073351,0.57134604,0.030922592,0.17595583,0.8247384,0.0912112,-0.4697599,-0.15439285,0.21776347,834.0659,801.8315,788.93774,804.65204,616.08057,-0.1488037109375,0.12054443359375,0.9818115234375,-0.7476806640625,1.502838134765625,-1.173858642578125,1,1.0,1.0,1.0,1.0,20.00
2024-09-29 18:17:31.000,1.144332,0.65616155,0.7274035,1.1701206,1.0956173,0.45512843,0.35844037,0.81867075,0.9134293,0.48830327,0.40312502,1.3073351,0.57134604,0.030922592,0.17595583,0.8247384,0.0912112,-0.4697599,-0.15439285,0.21776347,835.6777,797.8022,790.54944,815.5311,733.3333,-0.1488037109375,0.12054443359375,0.9818115234375,-0.7476806640625,1.502838134765625,-1.173858642578125,1,1.0,1.0,1.0,1.0,20.00
2024-09-29 18:17:31.028,1.144332,0.65616155,0.7274035,1.1701206,1.0956173,0.45512843,0.35844037,0.81867075,0.9134293,0.48830327,0.40312502,1.3073351,0.57134604,0.030922592,0.17595583,0.8247384,0.0912112,-0.4697599,-0.15439285,0.21776347,834.0659,796.5934,796.5934,821.978,1031.5018,-0.15167236328125,0.11541748046875,0.9874267578125,-0.91217041015625,1.009368896484375,-0.52337646484375,1,1.0,1.0,1.0,1.0,20.00
2024-09-29 18:17:31.029,1.144332,0.65616155,0.7274035,1.1701206,1.0956173,0.45512843,0.35844037,0.81867075,0.9134293,0.48830327,0.40312502,1.3073351,0.57134604,0.030922592,0.17595583,0.8247384,0.0912112,-0.4697599,-0.15439285,0.21776347,834.4689,799.81683,798.60803,821.978,1218.0586,-0.15167236328125,0.11541748046875,0.9874267578125,-0.91217041015625,1.009368896484375,-0.52337646484375,1,1.0,1.0,1.0,1.0,20.00
2024-09-29 18:17:31.030,1.144332,0.65616155,0.7274035,1.1701206,1.0956173,0.45512843,0.35844037,0.81867075,0.9134293,0.48830327,0.40312502,1.3073351,0.57134604,0.030922592,0.17595583,0.8247384,0.0912112,-0.4697599,-0.15439285,0.21776347,839.304,803.0403,791.75824,814.7253,1046.8132,-0.15167236328125,0.11541748046875,0.9874267578125,-0.91217041015625,1.009368896484375,-0.52337646484375,1,1.0,1.0,1.0,1.0,20.00
2024-09-29 18:17:31.031,1.144332,0.68899375,0.7547616,1.1701206,1.0956173,0.46481994,0.3776283,0.81867075,0.9134293,0.46743777,0.40312502,1.3073351,0.57134604,0.038092185,0.18217818,0.8247384,0.0912112,-0.48441887,-0.163742,0.21776347,838.0952,805.4579,786.9231,805.4579,850.18317,-0.15167236328125,0.11541748046875,0.9874267578125,-0.91217041015625,1.009368896484375,-0.52337646484375,1,1.0,1.0,1.0,1.0,20.00
2024-09-29 18:17:31.035,1.144332,0.68899375,0.7547616,1.1701206,1.0956173,0.46481994,0.3776283,0.81867075,0.9134293,0.46743777,0.40312502,1.3073351,0.57134604,0.038092185,0.18217818,0.8247384,0.0912112,-0.48441887,-0.163742,0.21776347,834.4689,805.8608,801.02563,804.2491,842.9304,-0.15167236328125,0.11541748046875,0.9874267578125,-0.91217041015625,1.009368896484375,-0.52337646484375,1,1.0,1.0,1.0,1.0,20.00
2024-09-29 18:17:31.036,1.144332,0.68899375,0.7547616,1.1701206,1.0956173,0.46481994,0.3776283,0.81867075,0.9134293,0.46743777,0.40312502,1.3073351,0.57134604,0.038092185,0.18217818,0.8247384,0.0912112,-0.48441887,-0.163742,0.21776347,837.6923,805.05493,807.47253,807.0696,689.011,-0.15167236328125,0.11541748046875,0.9874267578125,-0.91217041015625,1.009368896484375,-0.52337646484375,1,1.0,1.0,1.0,1.0,20.00
2024-09-29 18:17:31.037,1.144332,0.68899375,0.7547616,1.1701206,1.0956173,0.46481994,0.3776283,0.81867075,0.9134293,0.46743777,0.40312502,1.3073351,0.57134604,0.038092185,0.18217818,0.8247384,0.0912112,-0.48441887,-0.163742,0.21776347,827.2161,803.44324,804.65204,799.81683,573.36993,-0.15167236328125,0.11541748046875,0.9874267578125,-0.91217041015625,1.009368896484375,-0.52337646484375,1,1.0,1.0,1.0,1.0,20.00
2024-09-29 18:17:31.037,1.144332,0.68899375,0.7547616,1.1701206,1.0956173,0.46481994,0.3776283,0.81867075,0.9134293,0.46743777,0.40312502,1.3073351,0.57134604,0.038092185,0.18217818,0.8247384,0.0912112,-0.48441887,-0.163742,0.21776347,819.9634,806.26373,804.65204,796.99634,735.34796,-0.15167236328125,0.11541748046875,0.9874267578125,-0.91217041015625,1.009368896484375,-0.52337646484375,1,1.0,1.0,1.0,1.0,20.00
2024-09-29 18:17:31.038,1.144332,0.68899375,0.7547616,1.1701206,1.0956173,0.46481994,0.3776283,0.81867075,0.9134293,0.46743777,0.40312502,1.3073351,0.57134604,0.038092185,0.18217818,0.8247384,0.0912112,-0.48441887,-0.163742,0.21776347,828.022,810.293,799.011,805.05493,816.337,-0.15167236328125,0.11541748046875,0.9874267578125,-0.91217041015625,1.009368896484375,-0.52337646484375,1,1.0,1.0,1.0,1.0,20.00
2024-09-29 18:17:31.039,1.144332,0.68899375,0.7547616,1.1701206,1.0956173,0.46481994,0.3776283,0.81867075,0.9134293,0.46743777,0.40312502,1.3073351,0.57134604,0.038092185,0.18217818,0.8247384,0.0912112,-0.48441887,-0.163742,0.21776347,834.4689,807.0696,792.96704,807.47253,656.77655,-0.15167236328125,0.11541748046875,0.9874267578125,-0.91217041015625,1.009368896484375,-0.52337646484375,1,1.0,1.0,1.0,1.0,20.00
2024-09-29 18:17:31.039,1.144332,0.68899375,0.7547616,1.1701206,1.0956173,0.46481994,0.3776283,0.81867075,0.9134293,0.46743777,0.40312502,1.3073351,0.57134604,0.038092185,0.18217818,0.8247384,0.0912112,-0.48441887,-0.163742,0.21776347,838.49817,803.44324,793.36993,802.6374,529.0476,-0.15167236328125,0.11541748046875,0.9874267578125,-0.91217041015625,1.009368896484375,-0.52337646484375,1,1.0,1.0,1.0,1.0,20.00
2024-09-29 18:17:31.040,1.144332,0.68899375,0.7547616,1.1701206,1.0956173,0.46481994,0.3776283,0.81867075,0.9134293,0.46743777,0.40312502,1.3073351,0.57134604,0.038092185,0.18217818,0.8247384,0.0912112,-0.48441887,-0.163742,0.21776347,836.08057,803.0403,797.3993,802.23444,587.8755,-0.15167236328125,0.11541748046875,0.9874267578125,-0.91217041015625,1.009368896484375,-0.52337646484375,1,1.0,1.0,1.0,1.0,20.00
2024-09-29 18:17:31.041,1.144332,0.68899375,0.7547616,1.1701206,1.0956173,0.46481994,0.3776283,0.81867075,0.9134293,0.46743777,0.40312502,1.3073351,0.57134604,0.038092185,0.18217818,0.8247384,0.0912112,-0.48441887,-0.163742,0.21776347,831.2454,801.4286,801.8315,807.0696,758.71796,-0.1568603515625,0.10882568359375,0.983642578125,-0.800018310546875,0.515899658203125,0.16448974609375,1,1.0,1.0,1.0,1.0,20.00
2024-09-29 18:17:31.042,1.144332,0.68899375,0.7547616,1.1701206,1.0956173,0.46481994,0.3776283,0.81867075,0.9134293,0.46743777,0.40312502,1.3073351,0.57134604,0.038092185,0.18217818,0.8247384,0.0912112,-0.48441887,-0.163742,0.21776347,821.5751,802.6374,797.3993,806.26373,767.98535,-0.1568603515625,0.10882568359375,0.983642578125,-0.800018310546875,0.515899658203125,0.16448974609375,1,1.0,1.0,1.0,1.0,20.00
2024-09-29 18:17:31.042,1.144332,0.68899375,0.7547616,1.1701206,1.0956173,0.46481994,0.3776283,0.81867075,0.9134293,0.46743777,0.40312502,1.3073351,0.57134604,0.038092185,0.18217818,0.8247384,0.0912112,-0.48441887,-0.163742,0.21776347,816.337,804.2491,803.0403,812.71063,693.44324,-0.1568603515625,0.10882568359375,0.983642578125,-0.800018310546875,0.515899658203125,0.16448974609375,1,1.0,1.0,1.0,1.0,20.00
2024-09-29 18:17:31.043,1.144332,0.68899375,0.7547616,1.1701206,1.0956173,0.46481994,0.3776283,0.81867075,0.9134293,0.46743777,0.40312502,1.3073351,0.57134604,0.038092185,0.18217818,0.8247384,0.0912112,-0.48441887,-0.163742,0.21776347,817.9487,801.02563,805.4579,817.5458,752.27106,-0.1568603515625,0.10882568359375,0.983642578125,-0.800018310546875,0.515899658203125,0.16448974609375,1,1.0,1.0,1.0,1.0,20.00
2024-09-29 18:17:31.043,1.144332,0.68899375,0.7547616,1.1701206,1.0956173,0.46481994,0.3776283,0.81867075,0.9134293,0.46743777,0.40312502,1.3073351,0.57134604,0.038092185,0.18217818,0.8247384,0.0912112,-0.48441887,-0.163742,0.21776347,821.978,802.23444,801.8315,819.15753,834.4689,-0.1568603515625,0.10882568359375,0.983642578125,-0.800018310546875,0.515899658203125,0.16448974609375,1,1.0,1.0,1.0,1.0,20.00
2024-09-29 18:17:31.044,1.144332,0.68899375,0.7547616,1.1701206,1.0956173,0.46481994,0.3776283,0.81867075,0.9134293,0.46743777,0.40312502,1.3073351,0.57134604,0.038092185,0.18217818,0.8247384,0.0912112,-0.48441887,-0.163742,0.21776347,823.9927,805.4579,800.6227,818.7546,918.2784,-0.1568603515625,0.10882568359375,0.983642578125,-0.800018310546875,0.515899658203125,0.16448974609375,1,1.0,1.0,1.0,1.0,20.00
2024-09-29 18:17:31.045,1.144332,0.68899375,0.7547616,1.1701206,1.0956173,0.46481994,0.3776283,0.81867075,0.9134293,0.46743777,0.40312502,1.3073351,0.57134604,0.038092185,0.18217818,0.8247384,0.0912112,-0.48441887,-0.163742,0.21776347,817.9487,802.23444,799.81683,812.3077,879.59705,-0.1568603515625,0.10882568359375,0.983642578125,-0.800018310546875,0.515899658203125,0.16448974609375,1,1.0,1.0,1.0,1.0,20.00
2024-09-29 18:17:31.045,1.144332,0.68899375,0.7547616,1.1701206,1.0956173,0.46481994,0.3776283,0.81867075,0.9134293,0.46743777,0.40312502,1.3073351,0.57134604,0.038092185,0.18217818,0.8247384,0.0912112,-0.48441887,-0.163742,0.21776347,815.5311,800.2198,802.23444,814.3223,771.2088,-0.1568603515625,0.10882568359375,0.983642578125,-0.800018310546875,0.515899658203125,0.16448974609375,1,1.0,1.0,1.0,1.0,20.00
2024-09-29 18:17:31.046,1.144332,0.68899375,0.7547616,1.1701206,1.0956173,0.46481994,0.3776283,0.81867075,0.9134293,0.46743777,0.40312502,1.3073351,0.57134604,0.038092185,0.18217818,0.8247384,0.0912112,-0.48441887,-0.163742,0.21776347,807.8755,798.60803,800.2198,812.71063,740.18317,-0.1568603515625,0.10882568359375,0.983642578125,-0.800018310546875,0.515899658203125,0.16448974609375,1,1.0,1.0,1.0,1.0,20.00
2024-09-29 18:17:31.047,1.144332,0.68899375,0.7547616,1.1701206,1.0956173,0.46481994,0.3776283,0.81867075,0.9134293,0.46743777,0.40312502,1.3073351,0.57134604,0.038092185,0.18217818,0.8247384,0.0912112,-0.48441887,-0.163742,0.21776347,802.6374,801.02563,799.41394,811.0989,711.1722,-0.1568603515625,0.10882568359375,0.983642578125,-0.800018310546875,0.515899658203125,0.16448974609375,1,1.0,1.0,1.0,1.0,20.00
2024-09-29 18:17:31.047,1.144332,0.68899375,0.7547616,1.1701206,1.0956173,0.46481994,0.3776283,0.81867075,0.9134293,0.46743777,0.40312502,1.3073351,0.57134604,0.038092185,0.18217818,0.8247384,0.0912112,-0.48441887,-0.163742,0.21776347,804.2491,803.8461,794.9817,810.293,684.57874,-0.1568603515625,0.10882568359375,0.983642578125,-0.800018310546875,0.515899658203125,0.16448974609375,1,1.0,1.0,1.0,1.0,20.00
2024-09-29 18:17:31.048,1.144332,0.68899375,0.7547616,1.1701206,1.0956173,0.46481994,0.3776283,0.81867075,0.9134293,0.46743777,0.40312502,1.3073351,0.57134604,0.038092185,0.18217818,0.8247384,0.0912112,-0.48441887,-0.163742,0.21776347,813.91943,803.0403,799.81683,811.0989,809.0842,-0.1568603515625,0.10882568359375,0.983642578125,-0.800018310546875,0.515899658203125,0.16448974609375,1,1.0,1.0,1.0,1.0,20.00
2024-09-29 18:17:31.049,1.144332,0.68899375,0.7547616,1.1701206,1.0956173,0.46481994,0.3776283,0.81867075,0.9134293,0.46743777,0.40312502,1.3073351,0.57134604,0.038092185,0.18217818,0.8247384,0.0912112,-0.48441887,-0.163742,0.21776347,819.5604,802.6374,801.4286,812.71063,802.23444,-0.1568603515625,0.10882568359375,0.983642578125,-0.800018310546875,0.515899658203125,0.16448974609375,1,1.0,1.0,1.0,1.0,20.00
2024-09-29 18:17:31.051,1.144332,0.68899375,0.7547616,1.1701206,1.0956173,0.46481994,0.3776283,0.81867075,0.9134293,0.46743777,0.40312502,1.3073351,0.57134604,0.038092185,0.18217818,0.8247384,0.0912112,-0.48441887,-0.163742,0.21776347,819.5604,804.65204,797.3993,812.3077,693.8461,-0.1568603515625,0.10882568359375,0.983642578125,-0.800018310546875,0.515899658203125,0.16448974609375,1,1.0,1.0,1.0,1.0,20.00
2024-09-29 18:17:31.052,1.144332,0.68899375,0.7547616,1.1701206,1.0956173,0.46481994,0.3776283,0.81867075,0.9134293,0.46743777,0.40312502,1.3073351,0.57134604,0.038092185,0.18217818,0.8247384,0.0912112,-0.48441887,-0.163742,0.21776347,822.7839,797.3993,805.8608,814.3223,693.8461,-0.1568603515625,0.10882568359375,0.983642578125,-0.800018310546875,0.515899658203125,0.16448974609375,1,1.0,1.0,1.0,1.0,20.00
2024-09-29 18:17:31.052,1.144332,0.68899375,0.7547616,1.1701206,1.0956173,0.46481994,0.3776283,0.81867075,0.9134293,0.46743777,0.40312502,1.3073351,0.57134604,0.038092185,0.18217818,0.8247384,0.0912112,-0.48441887,-0.163742,0.21776347,826.0073,792.1612,809.0842,809.4872,761.53845,-0.1568603515625,0.10882568359375,0.983642578125,-0.800018310546875,0.515899658203125,0.16448974609375,1,1.0,1.0,1.0,1.0,20.00
2024-09-29 18:17:31.053,1.144332,0.68899375,0.7547616,1.1701206,1.0956173,0.46481994,0.3776283,0.81867075,0.9134293,0.46743777,0.40312502,1.3073351,0.57134604,0.038092185,0.18217818,0.8247384,0.0912112,-0.48441887,-0.163742,0.21776347,831.2454,797.8022,807.0696,809.4872,685.38464,-0.1568603515625,0.10882568359375,0.983642578125,-0.800018310546875,0.515899658203125,0.16448974609375,1,1.0,1.0,1.0,1.0,20.00
2024-09-29 18:17:31.054,1.144332,0.7236029,0.7838074,1.1701206,1.0956173,0.4708199,0.40017238,0.81867075,0.9134293,0.45527813,0.40312502,1.3073351,0.57134604,0.045471065,0.18903589,0.8247384,0.0912112,-0.501732,-0.16599017,0.21776347,825.2015,799.011,813.1135,820.7692,783.69965,-0.1568603515625,0.10882568359375,0.983642578125,-0.800018310546875,0.515899658203125,0.16448974609375,1,1.0,1.0,1.0,1.0,20.00
2024-09-29 18:17:31.058,1.144332,0.7236029,0.7838074,1.1701206,1.0956173,0.4708199,0.40017238,0.81867075,0.9134293,0.45527813,0.40312502,1.3073351,0.57134604,0.045471065,0.18903589,0.8247384,0.0912112,-0.501732,-0.16599017,0.21776347,812.3077,795.78754,806.6667,821.1722,1047.619,-0.1568603515625,0.10882568359375,0.983642578125,-0.800018310546875,0.515899658203125,0.16448974609375,1,1.0,1.0,1.0,1.0,20.00
2024-09-29 18:17:31.059,1.144332,0.7236029,0.7838074,1.1701206,1.0956173,0.4708199,0.40017238,0.81867075,0.9134293,0.45527813,0.40312502,1.3073351,0.57134604,0.045471065,0.18903589,0.8247384,0.0912112,-0.501732,-0.16599017,0.21776347,821.5751,798.60803,800.6227,810.696,874.7619,-0.1568603515625,0.10882568359375,0.983642578125,-0.800018310546875,0.515899658203125,0.16448974609375,1,1.0,1.0,1.0,1.0,20.00
2024-09-29 18:17:31.060,1.144332,0.7236029,0.7838074,1.1701206,1.0956173,0.4708199,0.40017238,0.81867075,0.9134293,0.45527813,0.40312502,1.3073351,0.57134604,0.045471065,0.18903589,0.8247384,0.0912112,-0.501732,-0.16599017,0.21776347,825.2015,801.02563,809.4872,814.3223,619.707,-0.1568603515625,0.10882568359375,0.983642578125,-0.800018310546875,0.515899658203125,0.16448974609375,1,1.0,1.0,1.0,1.0,20.00
2024-09-29 18:17:31.060,1.144332,0.7236029,0.7838074,1.1701206,1.0956173,0.4708199,0.40017238,0.81867075,0.9134293,0.45527813,0.40312502,1.3073351,0.57134604,0.045471065,0.18903589,0.8247384,0.0912112,-0.501732,-0.16599017,0.21776347,824.7985,801.4286,813.1135,821.978,741.39197,-0.1568603515625,0.10882568359375,0.983642578125,-0.800018310546875,0.515899658203125,0.16448974609375,1,1.0,1.0,1.0,1.0,20.00
2024-09-29 18:17:31.061,1.144332,0.7236029,0.7838074,1.1701206,1.0956173,0.4708199,0.40017238,0.81867075,0.9134293,0.45527813,0.40312502,1.3073351,0.57134604,0.045471065,0.18903589,0.8247384,0.0912112,-0.501732,-0.16599017,0.21776347,828.022,801.4286,810.293,817.5458,927.9487,-0.1568603515625,0.10882568359375,0.983642578125,-0.800018310546875,0.515899658203125,0.16448974609375,1,1.0,1.0,1.0,1.0,20.00
2024-09-29 18:17:31.062,1.144332,0.7236029,0.7838074,1.1701206,1.0956173,0.4708199,0.40017238,0.81867075,0.9134293,0.45527813,0.40312502,1.3073351,0.57134604,0.045471065,0.18903589,0.8247384,0.0912112,-0.501732,-0.16599017,0.21776347,828.4249,802.23444,808.68134,812.71063,867.9121,-0.1568603515625,0.10882568359375,0.983642578125,-0.800018310546875,0.515899658203125,0.16448974609375,1,1.0,1.0,1.0,1.0,20.00
2024-09-29 18:17:31.063,1.144332,0.7236029,0.7838074,1.1701206,1.0956173,0.4708199,0.40017238,0.81867075,0.9134293,0.45527813,0.40312502,1.3073351,0.57134604,0.045471065,0.18903589,0.8247384,0.0912112,-0.501732,-0.16599017,0.21776347,836.8865,805.8608,812.3077,811.0989,672.8938,-0.1497802734375,0.1170654296875,0.99468994140625,0.216827392578125,-0.538330078125,0.10467529296875,1,1.0,1.0,1.0,1.0,20.00
2024-09-29 18:17:31.063,1.144332,0.7236029,0.7838074,1.1701206,1.0956173,0.4708199,0.40017238,0.81867075,0.9134293,0.45527813,0.40312502,1.3073351,0.57134604,0.045471065,0.18903589,0.8247384,0.0912112,-0.501732,-0.16599017,0.21776347,842.9304,808.68134,810.293,816.337,687.3993,-0.1497802734375,0.1170654296875,0.99468994140625,0.216827392578125,-0.538330078125,0.10467529296875,1,1.0,1.0,1.0,1.0,20.00
2024-09-29 18:17:31.064,1.144332,0.7236029,0.7838074,1.1701206,1.0956173,0.4708199,0.40017238,0.81867075,0.9134293,0.45527813,0.40312502,1.3073351,0.57134604,0.045471065,0.18903589,0.8247384,0.0912112,-0.501732,-0.16599017,0.21776347,839.304,808.2784,801.4286,822.381,935.6044,-0.1497802734375,0.1170654296875,0.99468994140625,0.216827392578125,-0.538330078125,0.10467529296875,1,1.0,1.0,1.0,1.0,20.00
2024-09-29 18:17:31.065,1.144332,0.7236029,0.7838074,1.1701206,1.0956173,0.4708199,0.40017238,0.81867075,0.9134293,0.45527813,0.40312502,1.3073351,0.57134604,0.045471065,0.18903589,0.8247384,0.0912112,-0.501732,-0.16599017,0.21776347,826.8132,807.47253,798.20514,813.1135,901.75824,-0.1497802734375,0.1170654296875,0.99468994140625,0.216827392578125,-0.538330078125,0.10467529296875,1,1.0,1.0,1.0,1.0,20.00
2024-09-29 18:17:31.065,1.144332,0.7236029,0.7838074,1.1701206,1.0956173,0.4708199,0.40017238,0.81867075,0.9134293,0.45527813,0.40312502,1.3073351,0.57134604,0.045471065,0.18903589,0.8247384,0.0912112,-0.501732,-0.16599017,0.21776347,830.84247,810.696,801.8315,801.8315,636.2271,-0.1497802734375,0.1170654296875,0.99468994140625,0.216827392578125,-0.538330078125,0.10467529296875,1,1.0,1.0,1.0,1.0,20.00
2024-09-29 18:17:31.066,1.144332,0.7236029,0.7838074,1.1701206,1.0956173,0.4708199,0.40017238,0.81867075,0.9134293,0.45527813,0.40312502,1.3073351,0.57134604,0.045471065,0.18903589,0.8247384,0.0912112,-0.501732,-0.16599017,0.21776347,830.0366,809.4872,802.23444,802.23444,713.5897,-0.1497802734375,0.1170654296875,0.99468994140625,0.216827392578125,-0.538330078125,0.10467529296875,1,1.0,1.0,1.0,1.0,20.00
2024-09-29 18:17:31.067,1.144332,0.7236029,0.7838074,1.1701206,1.0956173,0.4708199,0.40017238,0.81867075,0.9134293,0.45527813,0.40312502,1.3073351,0.57134604,0.045471065,0.18903589,0.8247384,0.0912112,-0.501732,-0.16599017,0.21776347,819.15753,807.47253,801.8315,807.47253,942.0513,-0.1497802734375,0.1170654296875,0.99468994140625,0.216827392578125,-0.538330078125,0.10467529296875,1,1.0,1.0,1.0,1.0,20.00
2024-09-29 18:17:31.067,1.144332,0.7236029,0.7838074,1.1701206,1.0956173,0.4708199,0.40017238,0.81867075,0.9134293,0.45527813,0.40312502,1.3073351,0.57134604,0.045471065,0.18903589,0.8247384,0.0912112,-0.501732,-0.16599017,0.21776347,823.1868,810.696,800.6227,806.6667,964.61536,-0.1497802734375,0.1170654296875,0.99468994140625,0.216827392578125,-0.538330078125,0.10467529296875,1,1.0,1.0,1.0,1.0,20.00
2024-09-29 18:17:31.068,1.144332,0.7236029,0.7838074,1.1701206,1.0956173,0.4708199,0.40017238,0.81867075,0.9134293,0.45527813,0.40312502,1.3073351,0.57134604,0.045471065,0.18903589,0.8247384,0.0912112,-0.501732,-0.16599017,0.21776347,821.978,811.0989,799.81683,803.8461,759.12085,-0.1497802734375,0.1170654296875,0.99468994140625,0.216827392578125,-0.538330078125,0.10467529296875,1,1.0,1.0,1.0,1.0,20.00
2024-09-29 18:17:31.069,1.144332,0.7236029,0.7838074,1.1701206,1.0956173,0.4708199,0.40017238,0.81867075,0.9134293,0.45527813,0.40312502,1.3073351,0.57134604,0.045471065,0.18903589,0.8247384,0.0912112,-0.501732,-0.16599017,0.21776347,820.3663,805.8608,796.1905,804.2491,716.4103,-0.1497802734375,0.1170654296875,0.99468994140625,0.216827392578125,-0.538330078125,0.10467529296875,1,1.0,1.0,1.0,1.0,20.00
2024-09-29 18:17:31.069,1.144332,0.7236029,0.7838074,1.1701206,1.0956173,0.4708199,0.40017238,0.81867075,0.9134293,0.45527813,0.40312502,1.3073351,0.57134604,0.045471065,0.18903589,0.8247384,0.0912112,-0.501732,-0.16599017,0.21776347,824.7985,802.6374,795.78754,805.4579,965.82416,-0.1497802734375,0.1170654296875,0.99468994140625,0.216827392578125,-0.538330078125,0.10467529296875,1,1.0,1.0,1.0,1.0,20.00
2024-09-29 18:17:31.070,1.144332,0.7236029,0.7838074,1.1701206,1.0956173,0.4708199,0.40017238,0.81867075,0.9134293,0.45527813,0.40312502,1.3073351,0.57134604,0.045471065,0.18903589,0.8247384,0.0912112,-0.501732,-0.16599017,0.21776347,813.5165,801.8315,799.41394,805.4579,1050.0366,-0.1497802734375,0.1170654296875,0.99468994140625,0.216827392578125,-0.538330078125,0.10467529296875,1,1.0,1.0,1.0,1.0,20.00
2024-09-29 18:17:31.146,1.144332,0.7236029,0.7838074,1.1701206,1.0956173,0.4708199,0.40017238,0.81867075,0.9134293,0.45527813,0.40312502,1.3073351,0.57134604,0.045471065,0.18903589,0.8247384,0.0912112,-0.501732,-0.16599017,0.21776347,800.6227,799.81683,798.20514,797.8022,895.7143,-0.157958984375,0.115478515625,0.987060546875,-0.10467529296875,-0.76263427734375,0.097198486328125,1,1.0,1.0,1.0,1.0,20.00
2024-09-29 18:17:31.147,1.144332,0.7236029,0.7838074,1.1701206,1.0956173,0.4708199,0.40017238,0.81867075,0.9134293,0.45527813,0.40312502,1.3073351,0.57134604,0.045471065,0.18903589,0.8247384,0.0912112,-0.501732,-0.16599017,0.21776347,800.2198,801.8315,796.99634,803.44324,830.84247,-0.157958984375,0.115478515625,0.987060546875,-0.10467529296875,-0.76263427734375,0.097198486328125,1,1.0,1.0,1.0,1.0,20.00
2024-09-29 18:17:31.148,1.144332,0.7236029,0.7838074,1.1701206,1.0956173,0.4708199,0.40017238,0.81867075,0.9134293,0.45527813,0.40312502,1.3073351,0.57134604,0.045471065,0.18903589,0.8247384,0.0912112,-0.501732,-0.16599017,0.21776347,799.81683,800.2198,800.6227,807.8755,988.7912,-0.157958984375,0.115478515625,0.987060546875,-0.10467529296875,-0.76263427734375,0.097198486328125,1,1.0,1.0,1.0,1.0,20.00
2024-09-29 18:17:31.149,1.144332,0.7236029,0.7838074,1.1701206,1.0956173,0.4708199,0.40017238,0.81867075,0.9134293,0.45527813,0.40312502,1.3073351,0.57134604,0.045471065,0.18903589,0.8247384,0.0912112,-0.501732,-0.16599017,0.21776347,803.8461,799.41394,796.5934,797.8022,1036.337,-0.157958984375,0.115478515625,0.987060546875,-0.10467529296875,-0.76263427734375,0.097198486328125,1,1.0,1.0,1.0,1.0,20.00
2024-09-29 18:17:31.150,1.144332,0.7236029,0.7838074,1.1701206,1.0956173,0.4708199,0.40017238,0.81867075,0.9134293,0.45527813,0.40312502,1.3073351,0.57134604,0.045471065,0.18903589,0.8247384,0.0912112,-0.501732,-0.16599017,0.21776347,810.696,798.20514,790.9524,794.9817,898.93774,-0.157958984375,0.115478515625,0.987060546875,-0.10467529296875,-0.76263427734375,0.097198486328125,1,1.0,1.0,1.0,1.0,20.00
2024-09-29 18:17:31.151,1.144332,0.7236029,0.7838074,1.1701206,1.0956173,0.4708199,0.40017238,0.81867075,0.9134293,0.45527813,0.40312502,1.3073351,0.57134604,0.045471065,0.18903589,0.8247384,0.0912112,-0.501732,-0.16599017,0.21776347,810.696,794.9817,790.54944,802.6374,1009.34064,-0.157958984375,0.115478515625,0.987060546875,-0.10467529296875,-0.76263427734375,0.097198486328125,1,1.0,1.0,1.0,1.0,20.00
2024-09-29 18:17:31.152,1.144332,0.7236029,0.7838074,1.1701206,1.0956173,0.4708199,0.40017238,0.81867075,0.9134293,0.45527813,0.40312502,1.3073351,0.57134604,0.045471065,0.18903589,0.8247384,0.0912112,-0.501732,-0.16599017,0.21776347,805.8608,799.011,793.36993,809.89014,1143.5165,-0.157958984375,0.115478515625,0.987060546875,-0.10467529296875,-0.76263427734375,0.097198486328125,1,1.0,1.0,1.0,1.0,20.00
2024-09-29 18:17:31.153,1.144332,0.7408781,0.81238246,1.1701206,1.0956173,0.46205696,0.4115053,0.81867075,0.9134293,0.45079827,0.40312502,1.3073351,0.57134604,0.05183035,0.18793775,0.8247384,0.0912112,-0.51762885,-0.16475566,0.21776347,810.293,803.44324,799.011,813.1135,1018.60803,-0.157958984375,0.115478515625,0.987060546875,-0.10467529296875,-0.76263427734375,0.097198486328125,1,2.0,1.0,1.0,2.0,20.00
2024-09-29 18:17:31.158,1.144332,0.7408781,0.81238246,1.1701206,1.0956173,0.46205696,0.4115053,0.81867075,0.9134293,0.45079827,0.40312502,1.3073351,0.57134604,0.05183035,0.18793775,0.8247384,0.0912112,-0.51762885,-0.16475566,0.21776347,805.05493,798.20514,795.38464,812.3077,854.21246,-0.157958984375,0.115478515625,0.987060546875,-0.10467529296875,-0.76263427734375,0.097198486328125,1,2.0,1.0,1.0,2.0,20.00
2024-09-29 18:17:31.159,1.144332,0.7408781,0.81238246,1.1701206,1.0956173,0.46205696,0.4115053,0.81867075,0.9134293,0.45079827,0.40312502,1.3073351,0.57134604,0.05183035,0.18793775,0.8247384,0.0912112,-0.51762885,-0.16475566,0.21776347,796.99634,794.17584,795.38464,811.0989,881.6117,-0.157958984375,0.115478515625,0.987060546875,-0.10467529296875,-0.76263427734375,0.097198486328125,1,2.0,1.0,1.0,2.0,20.00
2024-09-29 18:17:31.160,1.144332,0.7408781,0.81238246,1.1701206,1.0956173,0.46205696,0.4115053,0.81867075,0.9134293,0.45079827,0.40312502,1.3073351,0.57134604,0.05183035,0.18793775,0.8247384,0.0912112,-0.51762885,-0.16475566,0.21776347,806.6667,795.78754,796.99634,805.05493,902.1612,-0.157958984375,0.115478515625,0.987060546875,-0.10467529296875,-0.76263427734375,0.097198486328125,1,2.0,1.0,1.0,2.0,20.00
2024-09-29 18:17:31.161,1.144332,0.7408781,0.81238246,1.1701206,1.0956173,0.46205696,0.4115053,0.81867075,0.9134293,0.45079827,0.40312502,1.3073351,0.57134604,0.05183035,0.18793775,0.8247384,0.0912112,-0.51762885,-0.16475566,0.21776347,813.5165,800.6227,794.57874,795.38464,826.0073,-0.157958984375,0.115478515625,0.987060546875,-0.10467529296875,-0.76263427734375,0.097198486328125,1,2.0,1.0,1.0,2.0,20.00
2024-09-29 18:17:31.162,1.144332,0.7408781,0.81238246,1.1701206,1.0956173,0.46205696,0.4115053,0.81867075,0.9134293,0.45079827,0.40312502,1.3073351,0.57134604,0.05183035,0.18793775,0.8247384,0.0912112,-0.51762885,-0.16475566,0.21776347,818.7546,805.4579,800.6227,798.20514,819.15753,-0.1458740234375,0.11993408203125,0.98223876953125,0.83740234375,-1.128997802734375,-0.418701171875,1,2.0,1.0,1.0,2.0,20.00
2024-09-29 18:17:31.163,1.144332,0.7408781,0.81238246,1.1701206,1.0956173,0.46205696,0.4115053,0.81867075,0.9134293,0.45079827,0.40312502,1.3073351,0.57134604,0.05183035,0.18793775,0.8247384,0.0912112,-0.51762885,-0.16475566,0.21776347,823.9927,806.26373,802.23444,805.05493,783.2967,-0.1458740234375,0.11993408203125,0.98223876953125,0.83740234375,-1.128997802734375,-0.418701171875,1,2.0,1.0,1.0,2.0,20.00
2024-09-29 18:17:31.163,1.144332,0.7408781,0.81238246,1.1701206,1.0956173,0.46205696,0.4115053,0.81867075,0.9134293,0.45079827,0.40312502,1.3073351,0.57134604,0.05183035,0.18793775,0.8247384,0.0912112,-0.51762885,-0.16475566,0.21776347,827.619,804.65204,796.99634,807.8755,776.4469,-0.1458740234375,0.11993408203125,0.98223876953125,0.83740234375,-1.128997802734375,-0.418701171875,1,2.0,1.0,1.0,2.0,20.00
2024-09-29 18:17:31.164,1.144332,0.7408781,0.81238246,1.1701206,1.0956173,0.46205696,0.4115053,0.81867075,0.9134293,0.45079827,0.40312502,1.3073351,0.57134604,0.05183035,0.18793775,0.8247384,0.0912112,-0.51762885,-0.16475566,0.21776347,834.0659,805.4579,797.3993,814.3223,750.2564,-0.1458740234375,0.11993408203125,0.98223876953125,0.83740234375,-1.128997802734375,-0.418701171875,1,2.0,1.0,1.0,2.0,20.00
2024-09-29 18:17:31.164,1.144332,0.7408781,0.81238246,1.1701206,1.0956173,0.46205696,0.4115053,0.81867075,0.9134293,0.45079827,0.40312502,1.3073351,0.57134604,0.05183035,0.18793775,0.8247384,0.0912112,-0.51762885,-0.16475566,0.21776347,841.31866,803.44324,799.011,810.696,785.31134,-0.1458740234375,0.11993408203125,0.98223876953125,0.83740234375,-1.128997802734375,-0.418701171875,1,2.0,1.0,1.0,2.0,20.00
2024-09-29 18:17:31.165,1.144332,0.7408781,0.81238246,1.1701206,1.0956173,0.46205696,0.4115053,0.81867075,0.9134293,0.45079827,0.40312502,1.3073351,0.57134604,0.05183035,0.18793775,0.8247384,0.0912112,-0.51762885,-0.16475566,0.21776347,842.52747,804.2491,795.78754,809.4872,933.5897,-0.1458740234375,0.11993408203125,0.98223876953125,0.83740234375,-1.128997802734375,-0.418701171875,1,2.0,1.0,1.0,2.0,20.00
2024-09-29 18:17:31.166,1.144332,0.7408781,0.81238246,1.1701206,1.0956173,0.46205696,0.4115053,0.81867075,0.9134293,0.45079827,0.40312502,1.3073351,0.57134604,0.05183035,0.18793775,0.8247384,0.0912112,-0.51762885,-0.16475566,0.21776347,831.6484,805.4579,802.23444,811.0989,947.6923,-0.1458740234375,0.11993408203125,0.98223876953125,0.83740234375,-1.128997802734375,-0.418701171875,1,2.0,1.0,1.0,2.0,20.00
2024-09-29 18:17:31.166,1.144332,0.7408781,0.81238246,1.1701206,1.0956173,0.46205696,0.4115053,0.81867075,0.9134293,0.45079827,0.40312502,1.3073351,0.57134604,0.05183035,0.18793775,0.8247384,0.0912112,-0.51762885,-0.16475566,0.21776347,825.6044,806.6667,807.0696,813.1135,829.6337,-0.1458740234375,0.11993408203125,0.98223876953125,0.83740234375,-1.128997802734375,-0.418701171875,1,2.0,1.0,1.0,2.0,20.00
2024-09-29 18:17:31.167,1.144332,0.7408781,0.81238246,1.1701206,1.0956173,0.46205696,0.4115053,0.81867075,0.9134293,0.45079827,0.40312502,1.3073351,0.57134604,0.05183035,0.18793775,0.8247384,0.0912112,-0.51762885,-0.16475566,0.21776347,829.2308,812.3077,801.8315,814.3223,765.9707,-0.1458740234375,0.11993408203125,0.98223876953125,0.83740234375,-1.128997802734375,-0.418701171875,1,2.0,1.0,1.0,2.0,20.00
2024-09-29 18:17:31.167,1.144332,0.7408781,0.81238246,1.1701206,1.0956173,0.46205696,0.4115053,0.81867075,0.9134293,0.45079827,0.40312502,1.3073351,0.57134604,0.05183035,0.18793775,0.8247384,0.0912112,-0.51762885,-0.16475566,0.21776347,828.4249,812.71063,801.8315,806.6667,699.89014,-0.1458740234375,0.11993408203125,0.98223876953125,0.83740234375,-1.128997802734375,-0.418701171875,1,2.0,1.0,1.0,2.0,20.00
2024-09-29 18:17:31.168,1.144332,0.7408781,0.81238246,1.1701206,1.0956173,0.46205696,0.4115053,0.81867075,0.9134293,0.45079827,0.40312502,1.3073351,0.57134604,0.05183035,0.18793775,0.8247384,0.0912112,-0.51762885,-0.16475566,0.21776347,832.4542,811.9048,802.23444,803.0403,609.6337,-0.1458740234375,0.11993408203125,0.98223876953125,0.83740234375,-1.128997802734375,-0.418701171875,1,2.0,1.0,1.0,2.0,20.00
2024-09-29 18:17:31.169,1.144332,0.7408781,0.81238246,1.1701206,1.0956173,0.46205696,0.4115053,0.81867075,0.9134293,0.45079827,0.40312502,1.3073351,0.57134604,0.05183035,0.18793775,0.8247384,0.0912112,-0.51762885,-0.16475566,0.21776347,840.10986,810.293,804.65204,805.05493,623.3333,-0.1458740234375,0.11993408203125,0.98223876953125,0.83740234375,-1.128997802734375,-0.418701171875,1,2.0,1.0,1.0,2.0,20.00
2024-09-29 18:17:31.171,1.144332,0.7408781,0.81238246,1.1701206,1.0956173,0.46205696,0.4115053,0.81867075,0.9134293,0.45079827,0.40312502,1.3073351,0.57134604,0.05183035,0.18793775,0.8247384,0.0912112,-0.51762885,-0.16475566,0.21776347,833.663,814.7253,807.0696,812.3077,882.8205,-0.15093994140625,0.12066650390625,0.987060546875,0.46356201171875,-0.3887939453125,0.91217041015625,1,2.0,1.0,1.0,2.0,20.00
2024-09-29 18:17:31.172,1.144332,0.7408781,0.81238246,1.1701206,1.0956173,0.46205696,0.4115053,0.81867075,0.9134293,0.45079827,0.40312502,1.3073351,0.57134604,0.05183035,0.18793775,0.8247384,0.0912112,-0.51762885,-0.16475566,0.21776347,829.6337,816.337,802.23444,812.71063,958.1685,-0.15093994140625,0.12066650390625,0.987060546875,0.46356201171875,-0.3887939453125,0.91217041015625,1,2.0,1.0,1.0,2.0,20.00
2024-09-29 18:17:31.172,1.144332,0.7408781,0.81238246,1.1701206,1.0956173,0.46205696,0.4115053,0.81867075,0.9134293,0.45079827,0.40312502,1.3073351,0.57134604,0.05183035,0.18793775,0.8247384,0.0912112,-0.51762885,-0.16475566,0.21776347,828.022,815.12823,801.4286,803.8461,661.6117,-0.15093994140625,0.12066650390625,0.987060546875,0.46356201171875,-0.3887939453125,0.91217041015625,1,2.0,1.0,1.0,2.0,20.00
2024-09-29 18:17:31.173,1.144332,0.7408781,0.81238246,1.1701206,1.0956173,0.46205696,0.4115053,0.81867075,0.9134293,0.45079827,0.40312502,1.3073351,0.57134604,0.05183035,0.18793775,0.8247384,0.0912112,-0.51762885,-0.16475566,0.21776347,821.5751,811.9048,802.23444,799.011,541.53845,-0.15093994140625,0.12066650390625,0.987060546875,0.46356201171875,-0.3887939453125,0.91217041015625,1,2.0,1.0,1.0,2.0,20.00
2024-09-29 18:17:31.173,1.144332,0.7408781,0.81238246,1.1701206,1.0956173,0.46205696,0.4115053,0.81867075,0.9134293,0.45079827,0.40312502,1.3073351,0.57134604,0.05183035,0.18793775,0.8247384,0.0912112,-0.51762885,-0.16475566,0.21776347,824.3956,806.6667,800.6227,812.71063,851.39197,-0.15093994140625,0.12066650390625,0.987060546875,0.46356201171875,-0.3887939453125,0.91217041015625,1,2.0,1.0,1.0,2.0,20.00
2024-09-29 18:17:31.174,1.144332,0.7408781,0.81238246,1.1701206,1.0956173,0.46205696,0.4115053,0.81867075,0.9134293,0.45079827,0.40312502,1.3073351,0.57134604,0.05183035,0.18793775,0.8247384,0.0912112,-0.51762885,-0.16475566,0.21776347,820.3663,807.8755,797.3993,810.696,1114.9084,-0.15093994140625,0.12066650390625,0.987060546875,0.46356201171875,-0.3887939453125,0.91217041015625,1,2.0,1.0,1.0,2.0,20.00
2024-09-29 18:17:31.175,1.144332,0.7408781,0.81238246,1.1701206,1.0956173,0.46205696,0.4115053,0.81867075,0.9134293,0.45079827,0.40312502,1.3073351,0.57134604,0.05183035,0.18793775,0.8247384,0.0912112,-0.51762885,-0.16475566,0.21776347,817.9487,806.26373,791.75824,798.60803,949.707,-0.15093994140625,0.12066650390625,0.987060546875,0.46356201171875,-0.3887939453125,0.91217041015625,1,2.0,1.0,1.0,2.0,20.00
2024-09-29 18:17:31.176,1.144332,0.7408781,0.81238246,1.1701206,1.0956173,0.46205696,0.4115053,0.81867075,0.9134293,0.45079827,0.40312502,1.3073351,0.57134604,0.05183035,0.18793775,0.8247384,0.0912112,-0.51762885,-0.16475566,0.21776347,828.022,805.8608,797.8022,799.81683,802.23444,-0.15093994140625,0.12066650390625,0.987060546875,0.46356201171875,-0.3887939453125,0.91217041015625,1,2.0,1.0,1.0,2.0,20.00
2024-09-29 18:17:31.176,1.144332,0.7408781,0.81238246,1.1701206,1.0956173,0.46205696,0.4115053,0.81867075,0.9134293,0.45079827,0.40312502,1.3073351,0.57134604,0.05183035,0.18793775,0.8247384,0.0912112,-0.51762885,-0.16475566,0.21776347,828.022,809.0842,803.44324,807.47253,915.05493,-0.15093994140625,0.12066650390625,0.987060546875,0.46356201171875,-0.3887939453125,0.91217041015625,1,2.0,1.0,1.0,2.0,20.00
2024-09-29 18:17:31.177,1.144332,0.7322282,0.82634807,1.1701206,1.0956173,0.42243987,0.39334807,0.81867075,0.9134293,0.4483561,0.39629287,1.3073351,0.57134604,0.054747727,0.1687648,0.8247384,0.0912112,-0.533065,-0.16620164,0.21776347,826.0073,808.2784,799.41394,814.7253,992.01465,-0.15093994140625,0.12066650390625,0.987060546875,0.46356201171875,-0.3887939453125,0.91217041015625,1,2.0,1.0,1.0,2.0,20.00
2024-09-29 18:17:31.181,1.144332,0.7322282,0.82634807,1.1701206,1.0956173,0.42243987,0.39334807,0.81867075,0.9134293,0.4483561,0.39629287,1.3073351,0.57134604,0.054747727,0.1687648,0.8247384,0.0912112,-0.533065,-0.16620164,0.21776347,822.7839,808.68134,798.20514,812.3077,861.8681,-0.15093994140625,0.12066650390625,0.987060546875,0.46356201171875,-0.3887939453125,0.91217041015625,1,2.0,1.0,1.0,2.0,20.00
2024-09-29 18:17:31.182,1.144332,0.7322282,0.82634807,1.1701206,1.0956173,0.42243987,0.39334807,0.81867075,0.9134293,0.4483561,0.39629287,1.3073351,0.57134604,0.054747727,0.1687648,0.8247384,0.0912112,-0.533065,-0.16620164,0.21776347,821.1722,803.0403,798.60803,805.05493,752.674,-0.15093994140625,0.12066650390625,0.987060546875,0.46356201171875,-0.3887939453125,0.91217041015625,1,2.0,1.0,1.0,2.0,20.00
2024-09-29 18:17:31.215,1.144332,0.7322282,0.82634807,1.1701206,1.0956173,0.42243987,0.39334807,0.81867075,0.9134293,0.4483561,0.39629287,1.3073351,0.57134604,0.054747727,0.1687648,0.8247384,0.0912112,-0.533065,-0.16620164,0.21776347,815.5311,NaN,798.20514,801.02563,NaN,-0.15093994140625,0.12066650390625,0.987060546875,0.46356201171875,-0.3887939453125,0.91217041015625,1,2.0,1.0,1.0,2.0,20.00
2024-09-29 18:17:31.216,1.144332,0.7322282,0.82634807,1.1701206,1.0956173,0.42243987,0.39334807,0.81867075,0.9134293,0.4483561,0.39629287,1.3073351,0.57134604,0.054747727,0.1687648,0.8247384,0.0912112,-0.533065,-0.16620164,0.21776347,807.0696,NaN,799.41394,799.41394,NaN,-0.15093994140625,0.12066650390625,0.987060546875,0.46356201171875,-0.3887939453125,0.91217041015625,1,2.0,1.0,1.0,2.0,20.00
2024-09-29 18:17:31.217,1.144332,0.7322282,0.82634807,1.1701206,1.0956173,0.42243987,0.39334807,0.81867075,0.9134293,0.4483561,0.39629287,1.3073351,0.57134604,0.054747727,0.1687648,0.8247384,0.0912112,-0.533065,-0.16620164,0.21776347,804.2491,NaN,799.81683,796.5934,NaN,-0.15093994140625,0.12066650390625,0.987060546875,0.46356201171875,-0.3887939453125,0.91217041015625,1,2.0,1.0,1.0,2.0,20.00
2024-09-29 18:17:31.218,1.144332,0.7322282,0.82634807,1.1701206,1.0956173,0.42243987,0.39334807,0.81867075,0.9134293,0.4483561,0.39629287,1.3073351,0.57134604,0.054747727,0.1687648,0.8247384,0.0912112,-0.533065,-0.16620164,0.21776347,805.05493,NaN,797.8022,798.60803,NaN,-0.15093994140625,0.12066650390625,0.987060546875,0.46356201171875,-0.3887939453125,0.91217041015625,1,2.0,1.0,1.0,2.0,20.00
2024-09-29 18:17:31.219,1.144332,0.7322282,0.82634807,1.1701206,1.0956173,0.42243987,0.39334807,0.81867075,0.9134293,0.4483561,0.39629287,1.3073351,0.57134604,0.054747727,0.1687648,0.8247384,0.0912112,-0.533065,-0.16620164,0.21776347,804.2491,NaN,795.38464,804.2491,NaN,-0.15093994140625,0.12066650390625,0.987060546875,0.46356201171875,-0.3887939453125,0.91217041015625,1,2.0,1.0,1.0,2.0,20.00
2024-09-29 18:17:31.220,1.144332,0.7322282,0.82634807,1.1701206,1.0956173,0.42243987,0.39334807,0.81867075,0.9134293,0.4483561,0.39629287,1.3073351,0.57134604,0.054747727,0.1687648,0.8247384,0.0912112,-0.533065,-0.16620164,0.21776347,807.47253,NaN,796.5934,808.68134,NaN,-0.15093994140625,0.12066650390625,0.987060546875,0.46356201171875,-0.3887939453125,0.91217041015625,1,2.0,1.0,1.0,2.0,20.00
2024-09-29 18:17:31.220,1.144332,0.7322282,0.82634807,1.1701206,1.0956173,0.42243987,0.39334807,0.81867075,0.9134293,0.4483561,0.39629287,1.3073351,0.57134604,0.054747727,0.1687648,0.8247384,0.0912112,-0.533065,-0.16620164,0.21776347,814.3223,NaN,798.60803,799.011,NaN,-0.15093994140625,0.12066650390625,0.987060546875,0.46356201171875,-0.3887939453125,0.91217041015625,1,2.0,1.0,1.0,2.0,20.00
2024-09-29 18:17:31.221,1.144332,0.7322282,0.82634807,1.1701206,1.0956173,0.42243987,0.39334807,0.81867075,0.9134293,0.4483561,0.39629287,1.3073351,0.57134604,0.054747727,0.1687648,0.8247384,0.0912112,-0.533065,-0.16620164,0.21776347,817.5458,NaN,796.5934,794.9817,NaN,-0.15093994140625,0.12066650390625,0.987060546875,0.46356201171875,-0.3887939453125,0.91217041015625,1,2.0,1.0,1.0,2.0,20.00
2024-09-29 18:17:31.221,1.144332,0.7322282,0.82634807,1.1701206,1.0956173,0.42243987,0.39334807,0.81867075,0.9134293,0.4483561,0.39629287,1.3073351,0.57134604,0.054747727,0.1687648,0.8247384,0.0912112,-0.533065,-0.16620164,0.21776347,815.5311,NaN,790.54944,800.2198,NaN,-0.15093994140625,0.12066650390625,0.987060546875,0.46356201171875,-0.3887939453125,0.91217041015625,1,2.0,1.0,1.0,2.0,20.00
2024-09-29 18:17:31.222,1.144332,0.7322282,0.82634807,1.1701206,1.0956173,0.42243987,0.39334807,0.81867075,0.9134293,0.4483561,0.39629287,1.3073351,0.57134604,0.054747727,0.1687648,0.8247384,0.0912112,-0.533065,-0.16620164,0.21776347,813.91943,NaN,780.07324,802.23444,NaN,-0.15093994140625,0.12066650390625,0.987060546875,0.46356201171875,-0.3887939453125,0.91217041015625,1,2.0,1.0,1.0,2.0,20.00
2024-09-29 18:17:31.222,1.144332,0.7322282,0.82634807,1.1701206,1.0956173,0.42243987,0.39334807,0.81867075,0.9134293,0.4483561,0.39629287,1.3073351,0.57134604,0.054747727,0.1687648,0.8247384,0.0912112,-0.533065,-0.16620164,0.21776347,814.3223,NaN,790.9524,804.2491,NaN,-0.15093994140625,0.12066650390625,0.987060546875,0.46356201171875,-0.3887939453125,0.91217041015625,1,2.0,1.0,1.0,2.0,20.00
2024-09-29 18:17:31.223,1.144332,0.7322282,0.82634807,1.1701206,1.0956173,0.42243987,0.39334807,0.81867075,0.9134293,0.4483561,0.39629287,1.3073351,0.57134604,0.054747727,0.1687648,0.8247384,0.0912112,-0.533065,-0.16620164,0.21776347,817.9487,NaN,805.4579,804.2491,NaN,-0.15093994140625,0.12066650390625,0.987060546875,0.46356201171875,-0.3887939453125,0.91217041015625,1,2.0,1.0,1.0,2.0,20.00
2024-09-29 18:17:31.224,1.144332,0.7322282,0.82634807,1.1701206,1.0956173,0.42243987,0.39334807,0.81867075,0.9134293,0.4483561,0.39629287,1.3073351,0.57134604,0.054747727,0.1687648,0.8247384,0.0912112,-0.533065,-0.16620164,0.21776347,819.9634,806.26373,802.6374,NaN,892.49084,-0.162109375,0.1207275390625,0.98974609375,0.46356201171875,-0.3887939453125,0.91217041015625,1,2.0,1.0,1.0,2.0,20.00
2024-09-29 18:17:31.224,1.144332,0.7322282,0.82634807,1.1701206,1.0956173,0.42243987,0.39334807,0.81867075,0.9134293,0.4483561,0.39629287,1.3073351,0.57134604,0.054747727,0.1687648,0.8247384,0.0912112,-0.533065,-0.16620164,0.21776347,816.7399,802.6374,803.8461,NaN,967.03296,-0.162109375,0.1207275390625,0.98974609375,0.46356201171875,-0.3887939453125,0.91217041015625,1,2.0,1.0,1.0,2.0,20.00
2024-09-29 18:17:31.225,1.144332,0.7322282,0.82634807,1.1701206,1.0956173,0.42243987,0.39334807,0.81867075,0.9134293,0.4483561,0.39629287,1.3073351,0.57134604,0.054747727,0.1687648,0.8247384,0.0912112,-0.533065,-0.16620164,0.21776347,811.0989,805.8608,806.6667,NaN,925.9341,-0.162109375,0.1207275390625,0.98974609375,0.46356201171875,-0.3887939453125,0.91217041015625,1,2.0,1.0,1.0,2.0,20.00
2024-09-29 18:17:31.225,1.144332,0.7322282,0.82634807,1.1701206,1.0956173,0.42243987,0.39334807,0.81867075,0.9134293,0.4483561,0.39629287,1.3073351,0.57134604,0.054747727,0.1687648,0.8247384,0.0912112,-0.533065,-0.16620164,0.21776347,807.47253,808.68134,805.4579,NaN,974.2857,-0.162109375,0.1207275390625,0.98974609375,0.46356201171875,-0.3887939453125,0.91217041015625,1,2.0,1.0,1.0,2.0,20.00
2024-09-29 18:17:31.226,1.144332,0.7322282,0.82634807,1.1701206,1.0956173,0.42243987,0.39334807,0.81867075,0.9134293,0.4483561,0.39629287,1.3073351,0.57134604,0.054747727,0.1687648,0.8247384,0.0912112,-0.533065,-0.16620164,0.21776347,796.99634,810.293,804.2491,NaN,928.3516,-0.162109375,0.1207275390625,0.98974609375,0.46356201171875,-0.3887939453125,0.91217041015625,1,2.0,1.0,1.0,2.0,20.00
2024-09-29 18:17:31.226,1.144332,0.7322282,0.82634807,1.1701206,1.0956173,0.42243987,0.39334807,0.81867075,0.9134293,0.4483561,0.39629287,1.3073351,0.57134604,0.054747727,0.1687648,0.8247384,0.0912112,-0.533065,-0.16620164,0.21776347,780.4762,809.4872,803.44324,NaN,911.02563,-0.162109375,0.1207275390625,0.98974609375,0.46356201171875,-0.3887939453125,0.91217041015625,1,2.0,1.0,1.0,2.0,20.00
2024-09-29 18:17:31.227,1.144332,0.7322282,0.82634807,1.1701206,1.0956173,0.42243987,0.39334807,0.81867075,0.9134293,0.4483561,0.39629287,1.3073351,0.57134604,0.054747727,0.1687648,0.8247384,0.0912112,-0.533065,-0.16620164,0.21776347,780.4762,805.4579,801.4286,NaN,904.17584,-0.162109375,0.1207275390625,0.98974609375,0.46356201171875,-0.3887939453125,0.91217041015625,1,2.0,1.0,1.0,2.0,20.00
2024-09-29 18:17:31.228,1.144332,0.7322282,0.82634807,1.1701206,1.0956173,0.42243987,0.39334807,0.81867075,0.9134293,0.4483561,0.39629287,1.3073351,0.57134604,0.054747727,0.1687648,0.8247384,0.0912112,-0.533065,-0.16620164,0.21776347,778.0586,807.47253,803.8461,NaN,926.7399,-0.162109375,0.1207275390625,0.98974609375,0.46356201171875,-0.3887939453125,0.91217041015625,1,2.0,1.0,1.0,2.0,20.00
2024-09-29 18:17:31.228,1.144332,0.7322282,0.82634807,1.1701206,1.0956173,0.42243987,0.39334807,0.81867075,0.9134293,0.4483561,0.39629287,1.3073351,0.57134604,0.054747727,0.1687648,0.8247384,0.0912112,-0.533065,-0.16620164,0.21776347,769.59705,808.68134,804.65204,NaN,935.6044,-0.162109375,0.1207275390625,0.98974609375,0.46356201171875,-0.3887939453125,0.91217041015625,1,2.0,1.0,1.0,2.0,20.00
2024-09-29 18:17:31.229,1.144332,0.7322282,0.82634807,1.1701206,1.0956173,0.42243987,0.39334807,0.81867075,0.9134293,0.4483561,0.39629287,1.3073351,0.57134604,0.054747727,0.1687648,0.8247384,0.0912112,-0.533065,-0.16620164,0.21776347,764.7619,803.0403,804.65204,NaN,771.6117,-0.162109375,0.1207275390625,0.98974609375,0.46356201171875,-0.3887939453125,0.91217041015625,1,2.0,1.0,1.0,2.0,20.00
2024-09-29 18:17:31.230,1.144332,0.7322282,0.82634807,1.1701206,1.0956173,0.42243987,0.39334807,0.81867075,0.9134293,0.4483561,0.39629287,1.3073351,0.57134604,0.054747727,0.1687648,0.8247384,0.0912112,-0.533065,-0.16620164,0.21776347,763.5531,801.4286,801.02563,NaN,799.41394,-0.162109375,0.1207275390625,0.98974609375,0.46356201171875,-0.3887939453125,0.91217041015625,1,2.0,1.0,1.0,2.0,20.00
2024-09-29 18:17:31.230,1.144332,0.70138615,0.8160442,1.1701206,1.0956173,0.344061,0.3377735,0.81867075,0.9134293,0.4475603,0.36784968,1.3073351,0.57134604,0.053761248,0.12888996,0.8247384,0.0912112,-0.5474799,-0.17418952,0.21776347,777.6557,801.8315,804.2491,NaN,930.7692,-0.162109375,0.1207275390625,0.98974609375,0.46356201171875,-0.3887939453125,0.91217041015625,1,2.0,1.0,1.0,2.0,20.00
2024-09-29 18:17:31.235,1.144332,0.70138615,0.8160442,1.1701206,1.0956173,0.344061,0.3377735,0.81867075,0.9134293,0.4475603,0.36784968,1.3073351,0.57134604,0.053761248,0.12888996,0.8247384,0.0912112,-0.5474799,-0.17418952,0.21776347,791.75824,804.2491,805.05493,812.71063,NaN,-0.15936279296875,0.11761474609375,0.9925537109375,0.46356201171875,-0.3887939453125,0.91217041015625,1,2.0,1.0,1.0,2.0,20.00
2024-09-29 18:17:31.236,1.144332,0.70138615,0.8160442,1.1701206,1.0956173,0.344061,0.3377735,0.81867075,0.9134293,0.4475603,0.36784968,1.3073351,0.57134604,0.053761248,0.12888996,0.8247384,0.0912112,-0.5474799,-0.17418952,0.21776347,787.72894,809.4872,798.60803,813.5165,NaN,-0.15936279296875,0.11761474609375,0.9925537109375,0.46356201171875,-0.3887939453125,0.91217041015625,1,2.0,1.0,1.0,2.0,20.00
2024-09-29 18:17:31.236,1.144332,0.70138615,0.8160442,1.1701206,1.0956173,0.344061,0.3377735,0.81867075,0.9134293,0.4475603,0.36784968,1.3073351,0.57134604,0.053761248,0.12888996,0.8247384,0.0912112,-0.5474799,-0.17418952,0.21776347,779.67035,803.8461,803.8461,812.3077,NaN,-0.15936279296875,0.11761474609375,0.9925537109375,0.46356201171875,-0.3887939453125,0.91217041015625,1,2.0,1.0,1.0,2.0,20.00
2024-09-29 18:17:31.237,1.144332,0.70138615,0.8160442,1.1701206,1.0956173,0.344061,0.3377735,0.81867075,0.9134293,0.4475603,0.36784968,1.3073351,0.57134604,0.053761248,0.12888996,0.8247384,0.0912112,-0.5474799,-0.17418952,0.21776347,783.2967,799.41394,800.6227,802.6374,NaN,-0.15936279296875,0.11761474609375,0.9925537109375,0.46356201171875,-0.3887939453125,0.91217041015625,1,2.0,1.0,1.0,2.0,20.00
2024-09-29 18:17:31.237,1.144332,0.70138615,0.8160442,1.1701206,1.0956173,0.344061,0.3377735,0.81867075,0.9134293,0.4475603,0.36784968,1.3073351,0.57134604,0.053761248,0.12888996,0.8247384,0.0912112,-0.5474799,-0.17418952,0.21776347,790.54944,800.2198,795.38464,795.38464,NaN,-0.15936279296875,0.11761474609375,0.9925537109375,0.46356201171875,-0.3887939453125,0.91217041015625,1,2.0,1.0,1.0,2.0,20.00
2024-09-29 18:17:31.238,1.144332,0.70138615,0.8160442,1.1701206,1.0956173,0.344061,0.3377735,0.81867075,0.9134293,0.4475603,0.36784968,1.3073351,0.57134604,0.053761248,0.12888996,0.8247384,0.0912112,-0.5474799,-0.17418952,0.21776347,798.60803,802.6374,801.4286,804.2491,NaN,-0.15936279296875,0.11761474609375,0.9925537109375,0.46356201171875,-0.3887939453125,0.91217041015625,1,2.0,1.0,1.0,2.0,20.00
2024-09-29 18:17:31.239,1.144332,0.70138615,0.8160442,1.1701206,1.0956173,0.344061,0.3377735,0.81867075,0.9134293,0.4475603,0.36784968,1.3073351,0.57134604,0.053761248,0.12888996,0.8247384,0.0912112,-0.5474799,-0.17418952,0.21776347,799.41394,798.60803,806.6667,809.89014,NaN,-0.15936279296875,0.11761474609375,0.9925537109375,0.46356201171875,-0.3887939453125,0.91217041015625,1,2.0,1.0,1.0,2.0,20.00
2024-09-29 18:17:31.239,1.144332,0.70138615,0.8160442,1.1701206,1.0956173,0.344061,0.3377735,0.81867075,0.9134293,0.4475603,0.36784968,1.3073351,0.57134604,0.053761248,0.12888996,0.8247384,0.0912112,-0.5474799,-0.17418952,0.21776347,796.1905,796.1905,802.6374,809.4872,NaN,-0.15936279296875,0.11761474609375,0.9925537109375,0.46356201171875,-0.3887939453125,0.91217041015625,1,2.0,1.0,1.0,2.0,20.00
2024-09-29 18:17:31.240,1.144332,0.70138615,0.8160442,1.1701206,1.0956173,0.344061,0.3377735,0.81867075,0.9134293,0.4475603,0.36784968,1.3073351,0.57134604,0.053761248,0.12888996,0.8247384,0.0912112,-0.5474799,-0.17418952,0.21776347,805.4579,800.2198,800.6227,812.3077,NaN,-0.15936279296875,0.11761474609375,0.9925537109375,0.46356201171875,-0.3887939453125,0.91217041015625,1,2.0,1.0,1.0,2.0,20.00
2024-09-29 18:17:31.240,1.144332,0.70138615,0.8160442,1.1701206,1.0956173,0.344061,0.3377735,0.81867075,0.9134293,0.4475603,0.36784968,1.3073351,0.57134604,0.053761248,0.12888996,0.8247384,0.0912112,-0.5474799,-0.17418952,0.21776347,806.6667,802.23444,805.05493,813.91943,NaN,-0.15936279296875,0.11761474609375,0.9925537109375,0.46356201171875,-0.3887939453125,0.91217041015625,1,2.0,1.0,1.0,2.0,20.00
2024-09-29 18:17:31.241,1.144332,0.70138615,0.8160442,1.1701206,1.0956173,0.344061,0.3377735,0.81867075,0.9134293,0.4475603,0.36784968,1.3073351,0.57134604,0.053761248,0.12888996,0.8247384,0.0912112,-0.5474799,-0.17418952,0.21776347,810.293,803.44324,801.4286,807.0696,NaN,-0.15936279296875,0.11761474609375,0.9925537109375,0.46356201171875,-0.3887939453125,0.91217041015625,1,2.0,1.0,1.0,2.0,20.00
2024-09-29 18:17:31.241,1.144332,0.70138615,0.8160442,1.1701206,1.0956173,0.344061,0.3377735,0.81867075,0.9134293,0.4475603,0.36784968,1.3073351,0.57134604,0.053761248,0.12888996,0.8247384,0.0912112,-0.5474799,-0.17418952,0.21776347,814.3223,800.2198,798.20514,803.0403,NaN,-0.15936279296875,0.11761474609375,0.9925537109375,0.46356201171875,-0.3887939453125,0.91217041015625,1,2.0,1.0,1.0,2.0,20.00
2024-09-29 18:17:31.242,1.144332,0.70138615,0.8160442,1.1701206,1.0956173,0.344061,0.3377735,0.81867075,0.9134293,0.4475603,0.36784968,1.3073351,0.57134604,0.053761248,0.12888996,0.8247384,0.0912112,-0.5474799,-0.17418952,0.21776347,813.91943,801.4286,805.4579,803.44324,923.1135,-0.15936279296875,0.11761474609375,0.9925537109375,0.46356201171875,-0.3887939453125,0.91217041015625,1,2.0,1.0,1.0,2.0,20.00
2024-09-29 18:17:31.243,1.144332,0.70138615,0.8160442,1.1701206,1.0956173,0.344061,0.3377735,0.81867075,0.9134293,0.4475603,0.36784968,1.3073351,0.57134604,0.053761248,0.12888996,0.8247384,0.0912112,-0.5474799,-0.17418952,0.21776347,815.5311,800.6227,804.65204,794.57874,670.4762,-0.15936279296875,0.11761474609375,0.9925537109375,0.46356201171875,-0.3887939453125,0.91217041015625,1,2.0,1.0,1.0,2.0,20.00
2024-09-29 18:17:31.243,1.144332,0.70138615,0.8160442,1.1701206,1.0956173,0.344061,0.3377735,0.81867075,0.9134293,0.4475603,0.36784968,1.3073351,0.57134604,0.053761248,0.12888996,0.8247384,0.0912112,-0.5474799,-0.17418952,0.21776347,815.12823,799.011,804.2491,797.8022,733.73627,-0.15936279296875,0.11761474609375,0.9925537109375,0.46356201171875,-0.3887939453125,0.91217041015625,1,2.0,1.0,1.0,2.0,20.00
2024-09-29 18:17:31.244,1.144332,0.70138615,0.8160442,1.1701206,1.0956173,0.344061,0.3377735,0.81867075,0.9134293,0.4475603,0.36784968,1.3073351,0.57134604,0.053761248,0.12888996,0.8247384,0.0912112,-0.5474799,-0.17418952,0.21776347,811.9048,800.6227,802.23444,810.696,989.59705,-0.15936279296875,0.11761474609375,0.9925537109375,0.46356201171875,-0.3887939453125,0.91217041015625,1,2.0,1.0,1.0,2.0,20.00
2024-09-29 18:17:31.244,1.144332,0.70138615,0.8160442,1.1701206,1.0956173,0.344061,0.3377735,0.81867075,0.9134293,0.4475603,0.36784968,1.3073351,0.57134604,0.053761248,0.12888996,0.8247384,0.0912112,-0.5474799,-0.17418952,0.21776347,809.0842,796.5934,798.20514,807.0696,910.6227,-0.15936279296875,0.11761474609375,0.9925537109375,0.46356201171875,-0.3887939453125,0.91217041015625,1,2.0,1.0,1.0,2.0,20.00
2024-09-29 18:17:31.245,1.144332,0.70138615,0.8160442,1.1701206,1.0956173,0.344061,0.3377735,0.81867075,0.9134293,0.4475603,0.36784968,1.3073351,0.57134604,0.053761248,0.12888996,0.8247384,0.0912112,-0.5474799,-0.17418952,0.21776347,811.50183,799.81683,802.6374,803.8461,724.4689,-0.15936279296875,0.11761474609375,0.9925537109375,0.46356201171875,-0.3887939453125,0.91217041015625,1,2.0,1.0,1.0,2.0,20.00
2024-09-29 18:17:31.245,1.144332,0.70138615,0.8160442,1.1701206,1.0956173,0.344061,0.3377735,0.81867075,0.9134293,0.4475603,0.36784968,1.3073351,0.57134604,0.053761248,0.12888996,0.8247384,0.0912112,-0.5474799,-0.17418952,0.21776347,817.5458,803.0403,796.99634,807.8755,979.12085,-0.15936279296875,0.11761474609375,0.9925537109375,0.46356201171875,-0.3887939453125,0.91217041015625,1,2.0,1.0,1.0,2.0,20.00
2024-09-29 18:17:31.246,1.144332,0.70138615,0.8160442,1.1701206,1.0956173,0.344061,0.3377735,0.81867075,0.9134293,0.4475603,0.36784968,1.3073351,0.57134604,0.053761248,0.12888996,0.8247384,0.0912112,-0.5474799,-0.17418952,0.21776347,825.6044,801.4286,798.20514,821.1722,1102.8206,-0.15936279296875,0.11761474609375,0.9925537109375,0.46356201171875,-0.3887939453125,0.91217041015625,1,2.0,1.0,1.0,2.0,20.00
2024-09-29 18:17:31.247,1.144332,0.70138615,0.8160442,1.1701206,1.0956173,0.344061,0.3377735,0.81867075,0.9134293,0.4475603,0.36784968,1.3073351,0.57134604,0.053761248,0.12888996,0.8247384,0.0912112,-0.5474799,-0.17418952,0.21776347,826.0073,805.05493,807.0696,819.9634,857.03296,-0.15936279296875,0.11761474609375,0.9925537109375,0.46356201171875,-0.3887939453125,0.91217041015625,1,2.0,1.0,1.0,2.0,20.00
2024-09-29 18:17:31.247,1.144332,0.70138615,0.8160442,1.1701206,1.0956173,0.344061,0.3377735,0.81867075,0.9134293,0.4475603,0.36784968,1.3073351,0.57134604,0.053761248,0.12888996,0.8247384,0.0912112,-0.5474799,-0.17418952,0.21776347,823.9927,801.4286,803.0403,803.8461,769.59705,-0.15936279296875,0.11761474609375,0.9925537109375,0.46356201171875,-0.3887939453125,0.91217041015625,1,2.0,1.0,1.0,2.0,20.00
2024-09-29 18:17:31.248,1.144332,0.70138615,0.8160442,1.1701206,1.0956173,0.344061,0.3377735,0.81867075,0.9134293,0.4475603,0.36784968,1.3073351,0.57134604,0.053761248,0.12888996,0.8247384,0.0912112,-0.5474799,-0.17418952,0.21776347,822.7839,800.2198,796.1905,805.05493,929.15753,-0.15936279296875,0.11761474609375,0.9925537109375,0.46356201171875,-0.3887939453125,0.91217041015625,1,2.0,1.0,1.0,2.0,20.00
2024-09-29 18:17:31.249,1.144332,0.70138615,0.8160442,1.1701206,1.0956173,0.344061,0.3377735,0.81867075,0.9134293,0.4475603,0.36784968,1.3073351,0.57134604,0.053761248,0.12888996,0.8247384,0.0912112,-0.5474799,-0.17418952,0.21776347,819.5604,804.65204,796.5934,807.8755,1137.8755,-0.15936279296875,0.11761474609375,0.9925537109375,0.46356201171875,-0.3887939453125,0.91217041015625,1,2.0,1.0,1.0,2.0,20.00
2024-09-29 18:17:31.250,1.144332,0.70138615,0.8160442,1.1701206,1.0956173,0.344061,0.3377735,0.81867075,0.9134293,0.4475603,0.36784968,1.3073351,0.57134604,0.053761248,0.12888996,0.8247384,0.0912112,-0.5474799,-0.17418952,0.21776347,820.7692,803.0403,795.78754,795.38464,918.68134,-0.16094970703125,0.1160888671875,0.9849853515625,-0.04486083984375,-1.114044189453125,-0.34393310546875,1,2.0,1.0,1.0,2.0,20.00
2024-09-29 18:17:31.250,1.144332,0.6586668,0.7843946,1.1701206,1.0956173,0.23920664,0.2599335,0.81867075,0.9134293,0.4593932,0.32343477,1.3073351,0.57134604,0.049426824,0.07874477,0.8247384,0.0912112,-0.5564914,-0.18919934,0.21776347,829.2308,799.011,798.20514,790.54944,690.2198,-0.16094970703125,0.1160888671875,0.9849853515625,-0.04486083984375,-1.114044189453125,-0.34393310546875,1,2.0,1.0,1.0,2.0,20.00
2024-09-29 18:17:31.254,1.144332,0.6586668,0.7843946,1.1701206,1.0956173,0.23920664,0.2599335,0.81867075,0.9134293,0.4593932,0.32343477,1.3073351,0.57134604,0.049426824,0.07874477,0.8247384,0.0912112,-0.5564914,-0.18919934,0.21776347,836.4835,800.2198,803.0403,794.17584,624.1392,-0.16094970703125,0.1160888671875,0.9849853515625,-0.04486083984375,-1.114044189453125,-0.34393310546875,1,2.0,1.0,1.0,2.0,20.00
2024-09-29 18:17:31.255,1.144332,0.6586668,0.7843946,1.1701206,1.0956173,0.23920664,0.2599335,0.81867075,0.9134293,0.4593932,0.32343477,1.3073351,0.57134604,0.049426824,0.07874477,0.8247384,0.0912112,-0.5564914,-0.18919934,0.21776347,836.08057,806.6667,802.6374,798.60803,692.6374,-0.16094970703125,0.1160888671875,0.9849853515625,-0.04486083984375,-1.114044189453125,-0.34393310546875,1,2.0,1.0,1.0,2.0,20.00
2024-09-29 18:17:31.255,1.144332,0.6586668,0.7843946,1.1701206,1.0956173,0.23920664,0.2599335,0.81867075,0.9134293,0.4593932,0.32343477,1.3073351,0.57134604,0.049426824,0.07874477,0.8247384,0.0912112,-0.5564914,-0.18919934,0.21776347,836.08057,807.0696,802.6374,806.6667,755.89746,-0.16094970703125,0.1160888671875,0.9849853515625,-0.04486083984375,-1.114044189453125,-0.34393310546875,1,2.0,1.0,1.0,2.0,20.00
2024-09-29 18:17:31.256,1.144332,0.6586668,0.7843946,1.1701206,1.0956173,0.23920664,0.2599335,0.81867075,0.9134293,0.4593932,0.32343477,1.3073351,0.57134604,0.049426824,0.07874477,0.8247384,0.0912112,-0.5564914,-0.18919934,0.21776347,843.3333,798.20514,805.4579,810.696,792.1612,-0.16094970703125,0.1160888671875,0.9849853515625,-0.04486083984375,-1.114044189453125,-0.34393310546875,1,2.0,1.0,1.0,2.0,20.00
2024-09-29 18:17:31.256,1.144332,0.6586668,0.7843946,1.1701206,1.0956173,0.23920664,0.2599335,0.81867075,0.9134293,0.4593932,0.32343477,1.3073351,0.57134604,0.049426824,0.07874477,0.8247384,0.0912112,-0.5564914,-0.18919934,0.21776347,834.4689,796.5934,806.6667,810.696,865.89746,-0.16094970703125,0.1160888671875,0.9849853515625,-0.04486083984375,-1.114044189453125,-0.34393310546875,1,2.0,1.0,1.0,2.0,20.00
2024-09-29 18:17:31.257,1.144332,0.6586668,0.7843946,1.1701206,1.0956173,0.23920664,0.2599335,0.81867075,0.9134293,0.4593932,0.32343477,1.3073351,0.57134604,0.049426824,0.07874477,0.8247384,0.0912112,-0.5564914,-0.18919934,0.21776347,823.5897,798.20514,809.4872,806.6667,802.6374,-0.16094970703125,0.1160888671875,0.9849853515625,-0.04486083984375,-1.114044189453125,-0.34393310546875,1,2.0,1.0,1.0,2.0,20.00
2024-09-29 18:17:31.257,1.144332,0.6586668,0.7843946,1.1701206,1.0956173,0.23920664,0.2599335,0.81867075,0.9134293,0.4593932,0.32343477,1.3073351,0.57134604,0.049426824,0.07874477,0.8247384,0.0912112,-0.5564914,-0.18919934,0.21776347,828.022,797.8022,804.2491,814.3223,703.91943,-0.16094970703125,0.1160888671875,0.9849853515625,-0.04486083984375,-1.114044189453125,-0.34393310546875,1,2.0,1.0,1.0,2.0,20.00
2024-09-29 18:17:31.258,1.144332,0.6586668,0.7843946,1.1701206,1.0956173,0.23920664,0.2599335,0.81867075,0.9134293,0.4593932,0.32343477,1.3073351,0.57134604,0.049426824,0.07874477,0.8247384,0.0912112,-0.5564914,-0.18919934,0.21776347,829.2308,801.8315,802.23444,811.50183,674.10254,-0.16094970703125,0.1160888671875,0.9849853515625,-0.04486083984375,-1.114044189453125,-0.34393310546875,1,2.0,1.0,1.0,2.0,20.00
2024-09-29 18:17:31.258,1.144332,0.6586668,0.7843946,1.1701206,1.0956173,0.23920664,0.2599335,0.81867075,0.9134293,0.4593932,0.32343477,1.3073351,0.57134604,0.049426824,0.07874477,0.8247384,0.0912112,-0.5564914,-0.18919934,0.21776347,831.2454,800.2198,801.8315,809.0842,864.68866,-0.16094970703125,0.1160888671875,0.9849853515625,-0.04486083984375,-1.114044189453125,-0.34393310546875,1,2.0,1.0,1.0,2.0,20.00
2024-09-29 18:17:31.259,1.144332,0.6586668,0.7843946,1.1701206,1.0956173,0.23920664,0.2599335,0.81867075,0.9134293,0.4593932,0.32343477,1.3073351,0.57134604,0.049426824,0.07874477,0.8247384,0.0912112,-0.5564914,-0.18919934,0.21776347,832.8571,798.60803,800.6227,820.3663,1115.3114,-0.16094970703125,0.1160888671875,0.9849853515625,-0.04486083984375,-1.114044189453125,-0.34393310546875,1,2.0,1.0,1.0,2.0,20.00
2024-09-29 18:17:31.295,1.144332,0.6586668,0.7843946,1.1701206,1.0956173,0.23920664,0.2599335,0.81867075,0.9134293,0.4593932,0.32343477,1.3073351,0.57134604,0.049426824,0.07874477,0.8247384,0.0912112,-0.5564914,-0.18919934,0.21776347,828.4249,802.23444,804.2491,820.3663,1254.7252,-0.1572265625,0.11376953125,0.98529052734375,0.456085205078125,-1.1663818359375,-0.829925537109375,1,2.0,1.0,1.0,2.0,20.00
2024-09-29 18:17:31.296,1.144332,0.6586668,0.7843946,1.1701206,1.0956173,0.23920664,0.2599335,0.81867075,0.9134293,0.4593932,0.32343477,1.3073351,0.57134604,0.049426824,0.07874477,0.8247384,0.0912112,-0.5564914,-0.18919934,0.21776347,815.12823,799.011,805.4579,809.89014,1160.8425,-0.1572265625,0.11376953125,0.98529052734375,0.456085205078125,-1.1663818359375,-0.829925537109375,1,2.0,1.0,1.0,2.0,20.00
2024-09-29 18:17:31.297,1.144332,0.6586668,0.7843946,1.1701206,1.0956173,0.23920664,0.2599335,0.81867075,0.9134293,0.4593932,0.32343477,1.3073351,0.57134604,0.049426824,0.07874477,0.8247384,0.0912112,-0.5564914,-0.18919934,0.21776347,813.91943,795.78754,802.23444,803.0403,744.21246,-0.1572265625,0.11376953125,0.98529052734375,0.456085205078125,-1.1663818359375,-0.829925537109375,1,2.0,1.0,1.0,2.0,20.00
2024-09-29 18:17:31.297,1.144332,0.6586668,0.7843946,1.1701206,1.0956173,0.23920664,0.2599335,0.81867075,0.9134293,0.4593932,0.32343477,1.3073351,0.57134604,0.049426824,0.07874477,0.8247384,0.0912112,-0.5564914,-0.18919934,0.21776347,823.5897,799.41394,798.20514,808.2784,525.42126,-0.1572265625,0.11376953125,0.98529052734375,0.456085205078125,-1.1663818359375,-0.829925537109375,1,2.0,1.0,1.0,2.0,20.00
2024-09-29 18:17:31.298,1.144332,0.6586668,0.7843946,1.1701206,1.0956173,0.23920664,0.2599335,0.81867075,0.9134293,0.4593932,0.32343477,1.3073351,0.57134604,0.049426824,0.07874477,0.8247384,0.0912112,-0.5564914,-0.18919934,0.21776347,819.15753,799.81683,795.38464,812.3077,552.8205,-0.1572265625,0.11376953125,0.98529052734375,0.456085205078125,-1.1663818359375,-0.829925537109375,1,2.0,1.0,1.0,2.0,20.00
2024-09-29 18:17:31.298,1.144332,0.6586668,0.7843946,1.1701206,1.0956173,0.23920664,0.2599335,0.81867075,0.9134293,0.4593932,0.32343477,1.3073351,0.57134604,0.049426824,0.07874477,0.8247384,0.0912112,-0.5564914,-0.18919934,0.21776347,814.3223,796.5934,800.6227,811.50183,817.5458,-0.1572265625,0.11376953125,0.98529052734375,0.456085205078125,-1.1663818359375,-0.829925537109375,1,2.0,1.0,1.0,2.0,20.00
2024-09-29 18:17:31.299,1.144332,0.6586668,0.7843946,1.1701206,1.0956173,0.23920664,0.2599335,0.81867075,0.9134293,0.4593932,0.32343477,1.3073351,0.57134604,0.049426824,0.07874477,0.8247384,0.0912112,-0.5564914,-0.18919934,0.21776347,820.7692,796.99634,807.47253,809.4872,945.2747,-0.1572265625,0.11376953125,0.98529052734375,0.456085205078125,-1.1663818359375,-0.829925537109375,1,2.0,1.0,1.0,2.0,20.00
2024-09-29 18:17:31.299,1.144332,0.6586668,0.7843946,1.1701206,1.0956173,0.23920664,0.2599335,0.81867075,0.9134293,0.4593932,0.32343477,1.3073351,0.57134604,0.049426824,0.07874477,0.8247384,0.0912112,-0.5564914,-0.18919934,0.21776347,825.2015,797.3993,807.47253,802.23444,669.67035,-0.1572265625,0.11376953125,0.98529052734375,0.456085205078125,-1.1663818359375,-0.829925537109375,1,2.0,1.0,1.0,2.0,20.00
2024-09-29 18:17:31.300,1.144332,0.6586668,0.7843946,1.1701206,1.0956173,0.23920664,0.2599335,0.81867075,0.9134293,0.4593932,0.32343477,1.3073351,0.57134604,0.049426824,0.07874477,0.8247384,0.0912112,-0.5564914,-0.18919934,0.21776347,821.5751,799.011,807.0696,795.38464,548.3883,-0.1572265625,0.11376953125,0.98529052734375,0.456085205078125,-1.1663818359375,-0.829925537109375,1,2.0,1.0,1.0,2.0,20.00
2024-09-29 18:17:31.300,1.144332,0.6586668,0.7843946,1.1701206,1.0956173,0.23920664,0.2599335,0.81867075,0.9134293,0.4593932,0.32343477,1.3073351,0.57134604,0.049426824,0.07874477,0.8247384,0.0912112,-0.5564914,-0.18919934,0.21776347,818.3516,799.41394,806.6667,802.6374,828.022,-0.1572265625,0.11376953125,0.98529052734375,0.456085205078125,-1.1663818359375,-0.829925537109375,1,2.0,1.0,1.0,2.0,20.00
2024-09-29 18:17:31.301,1.144332,0.6586668,0.7843946,1.1701206,1.0956173,0.23920664,0.2599335,0.81867075,0.9134293,0.4593932,0.32343477,1.3073351,0.57134604,0.049426824,0.07874477,0.8247384,0.0912112,-0.5564914,-0.18919934,0.21776347,822.7839,800.2198,807.0696,817.5458,1225.7142,-0.1572265625,0.11376953125,0.98529052734375,0.456085205078125,-1.1663818359375,-0.829925537109375,1,2.0,1.0,1.0,2.0,20.00
2024-09-29 18:17:31.302,1.144332,0.6586668,0.7843946,1.1701206,1.0956173,0.23920664,0.2599335,0.81867075,0.9134293,0.4593932,0.32343477,1.3073351,0.57134604,0.049426824,0.07874477,0.8247384,0.0912112,-0.5564914,-0.18919934,0.21776347,822.7839,801.02563,806.26373,812.71063,973.0769,-0.1572265625,0.11376953125,0.98529052734375,0.456085205078125,-1.1663818359375,-0.829925537109375,1,2.0,1.0,1.0,2.0,20.00
2024-09-29 18:17:31.302,1.144332,0.6586668,0.7843946,1.1701206,1.0956173,0.23920664,0.2599335,0.81867075,0.9134293,0.4593932,0.32343477,1.3073351,0.57134604,0.049426824,0.07874477,0.8247384,0.0912112,-0.5564914,-0.18919934,0.21776347,820.3663,799.011,802.6374,805.8608,572.1612,-0.1572265625,0.11376953125,0.98529052734375,0.456085205078125,-1.1663818359375,-0.829925537109375,1,2.0,1.0,1.0,2.0,20.00
2024-09-29 18:17:31.303,1.144332,0.6586668,0.7843946,1.1701206,1.0956173,0.23920664,0.2599335,0.81867075,0.9134293,0.4593932,0.32343477,1.3073351,0.57134604,0.049426824,0.07874477,0.8247384,0.0912112,-0.5564914,-0.18919934,0.21776347,813.91943,796.99634,800.2198,813.91943,849.7802,-0.1572265625,0.11376953125,0.98529052734375,0.456085205078125,-1.1663818359375,-0.829925537109375,1,2.0,1.0,1.0,2.0,20.00
2024-09-29 18:17:31.304,1.144332,0.6586668,0.7843946,1.1701206,1.0956173,0.23920664,0.2599335,0.81867075,0.9134293,0.4593932,0.32343477,1.3073351,0.57134604,0.049426824,0.07874477,0.8247384,0.0912112,-0.5564914,-0.18919934,0.21776347,806.6667,796.5934,799.011,807.0696,994.83514,-0.1572265625,0.11376953125,0.98529052734375,0.456085205078125,-1.1663818359375,-0.829925537109375,1,2.0,1.0,1.0,2.0,20.00
2024-09-29 18:17:31.304,1.144332,0.61786073,0.74423766,1.1701206,1.0956173,0.14901513,0.19890693,0.81867075,0.9134293,0.4599552,0.23911321,1.3073351,0.57134604,0.040335394,0.038777735,0.8247384,0.0912112,-0.55681884,-0.21015115,0.21776347,801.02563,799.81683,799.011,795.78754,698.2784,-0.1572265625,0.11376953125,0.98529052734375,0.456085205078125,-1.1663818359375,-0.829925537109375,1,2.0,1.0,1.0,2.0,20.00
2024-09-29 18:17:31.308,1.144332,0.61786073,0.74423766,1.1701206,1.0956173,0.14901513,0.19890693,0.81867075,0.9134293,0.4599552,0.23911321,1.3073351,0.57134604,0.040335394,0.038777735,0.8247384,0.0912112,-0.55681884,-0.21015115,0.21776347,791.75824,799.011,792.96704,796.1905,777.25275,-0.1572265625,0.11376953125,0.98529052734375,0.456085205078125,-1.1663818359375,-0.829925537109375,1,2.0,1.0,1.0,2.0,20.00
2024-09-29 18:17:31.309,1.144332,0.61786073,0.74423766,1.1701206,1.0956173,0.14901513,0.19890693,0.81867075,0.9134293,0.4599552,0.23911321,1.3073351,0.57134604,0.040335394,0.038777735,0.8247384,0.0912112,-0.55681884,-0.21015115,0.21776347,794.57874,798.20514,794.9817,805.4579,1178.9744,-0.1572265625,0.11376953125,0.98529052734375,0.456085205078125,-1.1663818359375,-0.829925537109375,1,2.0,1.0,1.0,2.0,20.00
2024-09-29 18:17:31.310,1.144332,0.61786073,0.74423766,1.1701206,1.0956173,0.14901513,0.19890693,0.81867075,0.9134293,0.4599552,0.23911321,1.3073351,0.57134604,0.040335394,0.038777735,0.8247384,0.0912112,-0.55681884,-0.21015115,0.21776347,801.8315,797.3993,802.6374,805.8608,1160.8425,-0.1572265625,0.11376953125,0.98529052734375,0.456085205078125,-1.1663818359375,-0.829925537109375,1,2.0,1.0,1.0,2.0,20.00
2024-09-29 18:17:31.310,1.144332,0.61786073,0.74423766,1.1701206,1.0956173,0.14901513,0.19890693,0.81867075,0.9134293,0.4599552,0.23911321,1.3073351,0.57134604,0.040335394,0.038777735,0.8247384,0.0912112,-0.55681884,-0.21015115,0.21776347,792.96704,795.78754,802.23444,796.1905,840.9158,-0.1572265625,0.11376953125,0.98529052734375,0.456085205078125,-1.1663818359375,-0.829925537109375,1,2.0,1.0,1.0,2.0,20.00
2024-09-29 18:17:31.311,1.144332,0.61786073,0.74423766,1.1701206,1.0956173,0.14901513,0.19890693,0.81867075,0.9134293,0.4599552,0.23911321,1.3073351,0.57134604,0.040335394,0.038777735,0.8247384,0.0912112,-0.55681884,-0.21015115,0.21776347,794.17584,795.78754,800.6227,799.81683,632.1978,-0.1572265625,0.11376953125,0.98529052734375,0.456085205078125,-1.1663818359375,-0.829925537109375,1,2.0,1.0,1.0,2.0,20.00
2024-09-29 18:17:31.311,1.144332,0.61786073,0.74423766,1.1701206,1.0956173,0.14901513,0.19890693,0.81867075,0.9134293,0.4599552,0.23911321,1.3073351,0.57134604,0.040335394,0.038777735,0.8247384,0.0912112,-0.55681884,-0.21015115,0.21776347,801.4286,798.60803,799.011,794.9817,723.663,-0.1572265625,0.11376953125,0.98529052734375,0.456085205078125,-1.1663818359375,-0.829925537109375,1,2.0,1.0,1.0,2.0,20.00
2024-09-29 18:17:31.312,1.144332,0.61786073,0.74423766,1.1701206,1.0956173,0.14901513,0.19890693,0.81867075,0.9134293,0.4599552,0.23911321,1.3073351,0.57134604,0.040335394,0.038777735,0.8247384,0.0912112,-0.55681884,-0.21015115,0.21776347,807.47253,800.6227,798.20514,799.81683,864.2857,-0.1572265625,0.11376953125,0.98529052734375,0.456085205078125,-1.1663818359375,-0.829925537109375,1,2.0,1.0,1.0,2.0,20.00
2024-09-29 18:17:31.312,1.144332,0.61786073,0.74423766,1.1701206,1.0956173,0.14901513,0.19890693,0.81867075,0.9134293,0.4599552,0.23911321,1.3073351,0.57134604,0.040335394,0.038777735,0.8247384,0.0912112,-0.55681884,-0.21015115,0.21776347,812.3077,800.6227,799.011,803.44324,804.2491,-0.1572265625,0.11376953125,0.98529052734375,0.456085205078125,-1.1663818359375,-0.829925537109375,1,2.0,1.0,1.0,2.0,20.00
2024-09-29 18:17:31.313,1.144332,0.61786073,0.74423766,1.1701206,1.0956173,0.14901513,0.19890693,0.81867075,0.9134293,0.4599552,0.23911321,1.3073351,0.57134604,0.040335394,0.038777735,0.8247384,0.0912112,-0.55681884,-0.21015115,0.21776347,811.50183,801.8315,799.41394,798.20514,693.44324,-0.156982421875,0.11761474609375,0.9913330078125,0.179443359375,-2.16827392578125,0.351409912109375,1,2.0,1.0,1.0,2.0,20.00
2024-09-29 18:17:31.313,1.144332,0.61786073,0.74423766,1.1701206,1.0956173,0.14901513,0.19890693,0.81867075,0.9134293,0.4599552,0.23911321,1.3073351,0.57134604,0.040335394,0.038777735,0.8247384,0.0912112,-0.55681884,-0.21015115,0.21776347,811.50183,802.23444,798.20514,810.696,797.8022,-0.156982421875,0.11761474609375,0.9913330078125,0.179443359375,-2.16827392578125,0.351409912109375,1,2.0,1.0,1.0,2.0,20.00
2024-09-29 18:17:31.314,1.144332,0.61786073,0.74423766,1.1701206,1.0956173,0.14901513,0.19890693,0.81867075,0.9134293,0.4599552,0.23911321,1.3073351,0.57134604,0.040335394,0.038777735,0.8247384,0.0912112,-0.55681884,-0.21015115,0.21776347,804.65204,799.011,798.60803,809.89014,865.09155,-0.156982421875,0.11761474609375,0.9913330078125,0.179443359375,-2.16827392578125,0.351409912109375,1,2.0,1.0,1.0,2.0,20.00
2024-09-29 18:17:31.315,1.144332,0.61786073,0.74423766,1.1701206,1.0956173,0.14901513,0.19890693,0.81867075,0.9134293,0.4599552,0.23911321,1.3073351,0.57134604,0.040335394,0.038777735,0.8247384,0.0912112,-0.55681884,-0.21015115,0.21776347,798.60803,796.99634,801.8315,804.2491,791.3553,-0.156982421875,0.11761474609375,0.9913330078125,0.179443359375,-2.16827392578125,0.351409912109375,1,2.0,1.0,1.0,2.0,20.00
2024-09-29 18:17:31.315,1.144332,0.61786073,0.74423766,1.1701206,1.0956173,0.14901513,0.19890693,0.81867075,0.9134293,0.4599552,0.23911321,1.3073351,0.57134604,0.040335394,0.038777735,0.8247384,0.0912112,-0.55681884,-0.21015115,0.21776347,798.60803,792.5641,805.8608,802.23444,786.52014,-0.156982421875,0.11761474609375,0.9913330078125,0.179443359375,-2.16827392578125,0.351409912109375,1,2.0,1.0,1.0,2.0,20.00
2024-09-29 18:17:31.316,1.144332,0.61786073,0.74423766,1.1701206,1.0956173,0.14901513,0.19890693,0.81867075,0.9134293,0.4599552,0.23911321,1.3073351,0.57134604,0.040335394,0.038777735,0.8247384,0.0912112,-0.55681884,-0.21015115,0.21776347,805.4579,792.5641,802.23444,811.50183,1191.4652,-0.156982421875,0.11761474609375,0.9913330078125,0.179443359375,-2.16827392578125,0.351409912109375,1,2.0,1.0,1.0,2.0,20.00
2024-09-29 18:17:31.316,1.144332,0.61786073,0.74423766,1.1701206,1.0956173,0.14901513,0.19890693,0.81867075,0.9134293,0.4599552,0.23911321,1.3073351,0.57134604,0.040335394,0.038777735,0.8247384,0.0912112,-0.55681884,-0.21015115,0.21776347,808.2784,793.7729,802.23444,822.7839,1565.3846,-0.156982421875,0.11761474609375,0.9913330078125,0.179443359375,-2.16827392578125,0.351409912109375,1,2.0,1.0,1.0,2.0,20.00
2024-09-29 18:17:31.317,1.144332,0.61786073,0.74423766,1.1701206,1.0956173,0.14901513,0.19890693,0.81867075,0.9134293,0.4599552,0.23911321,1.3073351,0.57134604,0.040335394,0.038777735,0.8247384,0.0912112,-0.55681884,-0.21015115,0.21776347,802.23444,790.54944,806.6667,809.4872,1169.7069,-0.156982421875,0.11761474609375,0.9913330078125,0.179443359375,-2.16827392578125,0.351409912109375,1,2.0,1.0,1.0,2.0,20.00
2024-09-29 18:17:31.317,1.144332,0.61786073,0.74423766,1.1701206,1.0956173,0.14901513,0.19890693,0.81867075,0.9134293,0.4599552,0.23911321,1.3073351,0.57134604,0.040335394,0.038777735,0.8247384,0.0912112,-0.55681884,-0.21015115,0.21776347,804.65204,793.7729,805.05493,801.8315,878.3883,-0.156982421875,0.11761474609375,0.9913330078125,0.179443359375,-2.16827392578125,0.351409912109375,1,2.0,1.0,1.0,2.0,20.00
2024-09-29 18:17:31.318,1.144332,0.61786073,0.74423766,1.1701206,1.0956173,0.14901513,0.19890693,0.81867075,0.9134293,0.4599552,0.23911321,1.3073351,0.57134604,0.040335394,0.038777735,0.8247384,0.0912112,-0.55681884,-0.21015115,0.21776347,810.293,795.78754,803.0403,805.4579,1135.0549,-0.156982421875,0.11761474609375,0.9913330078125,0.179443359375,-2.16827392578125,0.351409912109375,1,2.0,1.0,1.0,2.0,20.00
2024-09-29 18:17:31.319,1.144332,0.61786073,0.74423766,1.1701206,1.0956173,0.14901513,0.19890693,0.81867075,0.9134293,0.4599552,0.23911321,1.3073351,0.57134604,0.040335394,0.038777735,0.8247384,0.0912112,-0.55681884,-0.21015115,0.21776347,817.9487,800.2198,806.6667,804.65204,964.21246,-0.156982421875,0.11761474609375,0.9913330078125,0.179443359375,-2.16827392578125,0.351409912109375,1,2.0,1.0,1.0,2.0,20.00
2024-09-29 18:17:31.319,1.144332,0.61786073,0.74423766,1.1701206,1.0956173,0.14901513,0.19890693,0.81867075,0.9134293,0.4599552,0.23911321,1.3073351,0.57134604,0.040335394,0.038777735,0.8247384,0.0912112,-0.55681884,-0.21015115,0.21776347,817.9487,804.2491,803.8461,807.8755,801.8315,-0.156982421875,0.11761474609375,0.9913330078125,0.179443359375,-2.16827392578125,0.351409912109375,1,2.0,1.0,1.0,2.0,20.00
2024-09-29 18:17:31.320,1.144332,0.61786073,0.74423766,1.1701206,1.0956173,0.14901513,0.19890693,0.81867075,0.9134293,0.4599552,0.23911321,1.3073351,0.57134604,0.040335394,0.038777735,0.8247384,0.0912112,-0.55681884,-0.21015115,0.21776347,813.91943,801.02563,801.4286,805.4579,755.09155,-0.1541748046875,0.1136474609375,0.99273681640625,0.2392578125,-1.846771240234375,0.201873779296875,1,2.0,1.0,1.0,2.0,20.00
2024-09-29 18:17:31.320,1.144332,0.61786073,0.74423766,1.1701206,1.0956173,0.14901513,0.19890693,0.81867075,0.9134293,0.4599552,0.23911321,1.3073351,0.57134604,0.040335394,0.038777735,0.8247384,0.0912112,-0.55681884,-0.21015115,0.21776347,815.12823,801.4286,807.0696,801.4286,638.6447,-0.1541748046875,0.1136474609375,0.99273681640625,0.2392578125,-1.846771240234375,0.201873779296875,1,2.0,1.0,1.0,2.0,20.00
2024-09-29 18:17:31.321,1.144332,0.61786073,0.74423766,1.1701206,1.0956173,0.14901513,0.19890693,0.81867075,0.9134293,0.4599552,0.23911321,1.3073351,0.57134604,0.040335394,0.038777735,0.8247384,0.0912112,-0.55681884,-0.21015115,0.21776347,816.337,802.23444,808.68134,801.02563,640.2564,-0.1541748046875,0.1136474609375,0.99273681640625,0.2392578125,-1.846771240234375,0.201873779296875,1,2.0,1.0,1.0,2.0,20.00
2024-09-29 18:17:31.321,1.144332,0.61786073,0.74423766,1.1701206,1.0956173,0.14901513,0.19890693,0.81867075,0.9134293,0.4599552,0.23911321,1.3073351,0.57134604,0.040335394,0.038777735,0.8247384,0.0912112,-0.55681884,-0.21015115,0.21776347,817.5458,803.8461,807.8755,800.2198,647.9121,-0.1541748046875,0.1136474609375,0.99273681640625,0.2392578125,-1.846771240234375,0.201873779296875,1,2.0,1.0,1.0,2.0,20.00
2024-09-29 18:17:31.322,1.144332,0.61786073,0.74423766,1.1701206,1.0956173,0.14901513,0.19890693,0.81867075,0.9134293,0.4599552,0.23911321,1.3073351,0.57134604,0.040335394,0.038777735,0.8247384,0.0912112,-0.55681884,-0.21015115,0.21776347,819.5604,807.8755,798.20514,800.6227,838.49817,-0.1541748046875,0.1136474609375,0.99273681640625,0.2392578125,-1.846771240234375,0.201873779296875,1,2.0,1.0,1.0,2.0,20.00
2024-09-29 18:17:31.322,1.144332,0.59725046,0.74423766,1.1701206,1.0956173,0.1086698,0.19890693,0.81867075,0.9134293,0.43217534,0.23911321,1.3073351,0.57134604,0.023159731,0.038777735,0.8247384,0.0912112,-0.55196655,-0.21015115,0.21776347,822.7839,808.2784,797.8022,807.0696,925.5311,-0.1541748046875,0.1136474609375,0.99273681640625,0.2392578125,-1.846771240234375,0.201873779296875,1,2.0,1.0,1.0,2.0,20.00
2024-09-29 18:17:31.326,1.144332,0.59725046,0.74423766,1.1701206,1.0956173,0.1086698,0.19890693,0.81867075,0.9134293,0.43217534,0.23911321,1.3073351,0.57134604,0.023159731,0.038777735,0.8247384,0.0912112,-0.55196655,-0.21015115,0.21776347,819.15753,809.0842,805.05493,806.6667,786.1172,-0.1541748046875,0.1136474609375,0.99273681640625,0.2392578125,-1.846771240234375,0.201873779296875,1,2.0,1.0,1.0,2.0,20.00
2024-09-29 18:17:31.326,1.144332,0.59725046,0.74423766,1.1701206,1.0956173,0.1086698,0.19890693,0.81867075,0.9134293,0.43217534,0.23911321,1.3073351,0.57134604,0.023159731,0.038777735,0.8247384,0.0912112,-0.55196655,-0.21015115,0.21776347,811.9048,809.89014,802.6374,798.20514,754.2857,-0.1541748046875,0.1136474609375,0.99273681640625,0.2392578125,-1.846771240234375,0.201873779296875,1,2.0,1.0,1.0,2.0,20.00
2024-09-29 18:17:31.327,1.144332,0.59725046,0.74423766,1.1701206,1.0956173,0.1086698,0.19890693,0.81867075,0.9134293,0.43217534,0.23911321,1.3073351,0.57134604,0.023159731,0.038777735,0.8247384,0.0912112,-0.55196655,-0.21015115,0.21776347,803.8461,808.2784,800.6227,810.696,1074.6154,-0.1541748046875,0.1136474609375,0.99273681640625,0.2392578125,-1.846771240234375,0.201873779296875,1,2.0,1.0,1.0,2.0,20.00
2024-09-29 18:17:31.327,1.144332,0.59725046,0.74423766,1.1701206,1.0956173,0.1086698,0.19890693,0.81867075,0.9134293,0.43217534,0.23911321,1.3073351,0.57134604,0.023159731,0.038777735,0.8247384,0.0912112,-0.55196655,-0.21015115,0.21776347,800.2198,806.6667,805.8608,817.1429,1136.6666,-0.1541748046875,0.1136474609375,0.99273681640625,0.2392578125,-1.846771240234375,0.201873779296875,1,2.0,1.0,1.0,2.0,20.00
2024-09-29 18:17:31.328,1.144332,0.59725046,0.74423766,1.1701206,1.0956173,0.1086698,0.19890693,0.81867075,0.9134293,0.43217534,0.23911321,1.3073351,0.57134604,0.023159731,0.038777735,0.8247384,0.0912112,-0.55196655,-0.21015115,0.21776347,804.2491,812.3077,806.6667,804.65204,851.79486,-0.1541748046875,0.1136474609375,0.99273681640625,0.2392578125,-1.846771240234375,0.201873779296875,1,2.0,1.0,1.0,2.0,20.00
2024-09-29 18:17:31.328,1.144332,0.59725046,0.74423766,1.1701206,1.0956173,0.1086698,0.19890693,0.81867075,0.9134293,0.43217534,0.23911321,1.3073351,0.57134604,0.023159731,0.038777735,0.8247384,0.0912112,-0.55196655,-0.21015115,0.21776347,807.0696,814.3223,808.2784,811.0989,808.2784,-0.1541748046875,0.1136474609375,0.99273681640625,0.2392578125,-1.846771240234375,0.201873779296875,1,2.0,1.0,1.0,2.0,20.00
2024-09-29 18:17:31.329,1.144332,0.59725046,0.74423766,1.1701206,1.0956173,0.1086698,0.19890693,0.81867075,0.9134293,0.43217534,0.23911321,1.3073351,0.57134604,0.023159731,0.038777735,0.8247384,0.0912112,-0.55196655,-0.21015115,0.21776347,814.7253,809.4872,811.0989,819.5604,1078.2417,-0.15325927734375,0.11480712890625,0.99078369140625,0.321502685546875,-1.323394775390625,-0.0897216796875,1,2.0,1.0,1.0,2.0,20.00
2024-09-29 18:17:31.329,1.144332,0.59725046,0.74423766,1.1701206,1.0956173,0.1086698,0.19890693,0.81867075,0.9134293,0.43217534,0.23911321,1.3073351,0.57134604,0.023159731,0.038777735,0.8247384,0.0912112,-0.55196655,-0.21015115,0.21776347,807.0696,805.8608,803.0403,814.3223,1256.7399,-0.15325927734375,0.11480712890625,0.99078369140625,0.321502685546875,-1.323394775390625,-0.0897216796875,1,2.0,1.0,1.0,2.0,20.00
2024-09-29 18:17:31.330,1.144332,0.59725046,0.74423766,1.1701206,1.0956173,0.1086698,0.19890693,0.81867075,0.9134293,0.43217534,0.23911321,1.3073351,0.57134604,0.023159731,0.038777735,0.8247384,0.0912112,-0.55196655,-0.21015115,0.21776347,801.8315,805.05493,801.02563,808.68134,1158.4249,-0.15325927734375,0.11480712890625,0.99078369140625,0.321502685546875,-1.323394775390625,-0.0897216796875,1,2.0,1.0,1.0,2.0,20.00
2024-09-29 18:17:31.330,1.144332,0.59725046,0.74423766,1.1701206,1.0956173,0.1086698,0.19890693,0.81867075,0.9134293,0.43217534,0.23911321,1.3073351,0.57134604,0.023159731,0.038777735,0.8247384,0.0912112,-0.55196655,-0.21015115,0.21776347,808.2784,807.0696,803.0403,809.89014,983.95605,-0.15325927734375,0.11480712890625,0.99078369140625,0.321502685546875,-1.323394775390625,-0.0897216796875,1,2.0,1.0,1.0,2.0,20.00
2024-09-29 18:17:31.331,1.144332,0.59725046,0.74423766,1.1701206,1.0956173,0.1086698,0.19890693,0.81867075,0.9134293,0.43217534,0.23911321,1.3073351,0.57134604,0.023159731,0.038777735,0.8247384,0.0912112,-0.55196655,-0.21015115,0.21776347,801.4286,806.6667,800.2198,801.8315,880.0,-0.15325927734375,0.11480712890625,0.99078369140625,0.321502685546875,-1.323394775390625,-0.0897216796875,1,2.0,1.0,1.0,2.0,20.00
2024-09-29 18:17:31.331,1.144332,0.59725046,0.74423766,1.1701206,1.0956173,0.1086698,0.19890693,0.81867075,0.9134293,0.43217534,0.23911321,1.3073351,0.57134604,0.023159731,0.038777735,0.8247384,0.0912112,-0.55196655,-0.21015115,0.21776347,786.52014,800.2198,795.78754,794.9817,738.5714,-0.15325927734375,0.11480712890625,0.99078369140625,0.321502685546875,-1.323394775390625,-0.0897216796875,1,2.0,1.0,1.0,2.0,20.00
2024-09-29 18:17:31.332,1.144332,0.59725046,0.74423766,1.1701206,1.0956173,0.1086698,0.19890693,0.81867075,0.9134293,0.43217534,0.23911321,1.3073351,0.57134604,0.023159731,0.038777735,0.8247384,0.0912112,-0.55196655,-0.21015115,0.21776347,785.31134,801.4286,796.5934,798.20514,561.28204,-0.15325927734375,0.11480712890625,0.99078369140625,0.321502685546875,-1.323394775390625,-0.0897216796875,1,2.0,1.0,1.0,2.0,20.00
2024-09-29 18:17:31.332,1.144332,0.59725046,0.74423766,1.1701206,1.0956173,0.1086698,0.19890693,0.81867075,0.9134293,0.43217534,0.23911321,1.3073351,0.57134604,0.023159731,0.038777735,0.8247384,0.0912112,-0.55196655,-0.21015115,0.21776347,789.7436,802.6374,800.2198,799.011,638.24176,-0.15325927734375,0.11480712890625,0.99078369140625,0.321502685546875,-1.323394775390625,-0.0897216796875,1,2.0,1.0,1.0,2.0,20.00
2024-09-29 18:17:31.333,1.144332,0.59725046,0.74423766,1.1701206,1.0956173,0.1086698,0.19890693,0.81867075,0.9134293,0.43217534,0.23911321,1.3073351,0.57134604,0.023159731,0.038777735,0.8247384,0.0912112,-0.55196655,-0.21015115,0.21776347,787.72894,799.81683,799.41394,796.5934,777.25275,-0.15325927734375,0.11480712890625,0.99078369140625,0.321502685546875,-1.323394775390625,-0.0897216796875,1,2.0,1.0,1.0,2.0,20.00
2024-09-29 18:17:31.333,1.144332,0.59725046,0.74423766,1.1701206,1.0956173,0.1086698,0.19890693,0.81867075,0.9134293,0.43217534,0.23911321,1.3073351,0.57134604,0.023159731,0.038777735,0.8247384,0.0912112,-0.55196655,-0.21015115,0.21776347,790.54944,803.44324,804.65204,797.8022,713.5897,-0.15325927734375,0.11480712890625,0.99078369140625,0.321502685546875,-1.323394775390625,-0.0897216796875,1,2.0,1.0,1.0,2.0,20.00
2024-09-29 18:17:31.333,1.144332,0.59725046,0.74423766,1.1701206,1.0956173,0.1086698,0.19890693,0.81867075,0.9134293,0.43217534,0.23911321,1.3073351,0.57134604,0.023159731,0.038777735,0.8247384,0.0912112,-0.55196655,-0.21015115,0.21776347,795.78754,806.6667,809.89014,802.6374,601.5751,-0.15325927734375,0.11480712890625,0.99078369140625,0.321502685546875,-1.323394775390625,-0.0897216796875,1,2.0,1.0,1.0,2.0,20.00
2024-09-29 18:17:31.334,1.144332,0.59725046,0.74423766,1.1701206,1.0956173,0.1086698,0.19890693,0.81867075,0.9134293,0.43217534,0.23911321,1.3073351,0.57134604,0.023159731,0.038777735,0.8247384,0.0912112,-0.55196655,-0.21015115,0.21776347,783.2967,801.8315,805.8608,812.3077,662.01465,-0.15325927734375,0.11480712890625,0.99078369140625,0.321502685546875,-1.323394775390625,-0.0897216796875,1,2.0,1.0,1.0,2.0,20.00
2024-09-29 18:17:31.366,1.144332,0.59725046,0.74423766,1.1701206,1.0956173,0.1086698,0.19890693,0.81867075,0.9134293,0.43217534,0.23911321,1.3073351,0.57134604,0.023159731,0.038777735,0.8247384,0.0912112,-0.55196655,-0.21015115,0.21776347,770.80585,799.41394,801.02563,809.0842,767.98535,-0.16131591796875,0.1126708984375,0.99310302734375,-0.01495361328125,-1.861724853515625,-0.216827392578125,1,2.0,1.0,1.0,2.0,20.00
2024-09-29 18:17:31.367,1.144332,0.59725046,0.74423766,1.1701206,1.0956173,0.1086698,0.19890693,0.81867075,0.9134293,0.43217534,0.23911321,1.3073351,0.57134604,0.023159731,0.038777735,0.8247384,0.0912112,-0.55196655,-0.21015115,0.21776347,773.22345,801.02563,798.20514,805.8608,770.80585,-0.16131591796875,0.1126708984375,0.99310302734375,-0.01495361328125,-1.861724853515625,-0.216827392578125,1,2.0,1.0,1.0,2.0,20.00
2024-09-29 18:17:31.368,1.144332,0.59725046,0.74423766,1.1701206,1.0956173,0.1086698,0.19890693,0.81867075,0.9134293,0.43217534,0.23911321,1.3073351,0.57134604,0.023159731,0.038777735,0.8247384,0.0912112,-0.55196655,-0.21015115,0.21776347,773.22345,801.4286,797.3993,806.6667,647.9121,-0.16131591796875,0.1126708984375,0.99310302734375,-0.01495361328125,-1.861724853515625,-0.216827392578125,1,2.0,1.0,1.0,2.0,20.00
2024-09-29 18:17:31.369,1.144332,0.59725046,0.74423766,1.1701206,1.0956173,0.1086698,0.19890693,0.81867075,0.9134293,0.43217534,0.23911321,1.3073351,0.57134604,0.023159731,0.038777735,0.8247384,0.0912112,-0.55196655,-0.21015115,0.21776347,771.6117,804.65204,801.02563,805.8608,729.707,-0.16131591796875,0.1126708984375,0.99310302734375,-0.01495361328125,-1.861724853515625,-0.216827392578125,1,2.0,1.0,1.0,2.0,20.00
2024-09-29 18:17:31.370,1.144332,0.59725046,0.74423766,1.1701206,1.0956173,0.1086698,0.19890693,0.81867075,0.9134293,0.43217534,0.23911321,1.3073351,0.57134604,0.023159731,0.038777735,0.8247384,0.0912112,-0.55196655,-0.21015115,0.21776347,772.4176,806.26373,800.2198,807.47253,888.0586,-0.16131591796875,0.1126708984375,0.99310302734375,-0.01495361328125,-1.861724853515625,-0.216827392578125,1,2.0,1.0,1.0,2.0,20.00
2024-09-29 18:17:31.370,1.144332,0.59725046,0.74423766,1.1701206,1.0956173,0.1086698,0.19890693,0.81867075,0.9134293,0.43217534,0.23911321,1.3073351,0.57134604,0.023159731,0.038777735,0.8247384,0.0912112,-0.55196655,-0.21015115,0.21776347,772.4176,801.8315,796.1905,809.0842,862.27106,-0.16131591796875,0.1126708984375,0.99310302734375,-0.01495361328125,-1.861724853515625,-0.216827392578125,1,2.0,1.0,1.0,2.0,20.00
2024-09-29 18:17:31.371,1.144332,0.59725046,0.74423766,1.1701206,1.0956173,0.1086698,0.19890693,0.81867075,0.9134293,0.43217534,0.23911321,1.3073351,0.57134604,0.023159731,0.038777735,0.8247384,0.0912112,-0.55196655,-0.21015115,0.21776347,768.3883,802.23444,799.41394,803.44324,765.16486,-0.16131591796875,0.1126708984375,0.99310302734375,-0.01495361328125,-1.861724853515625,-0.216827392578125,1,2.0,1.0,1.0,2.0,20.00
2024-09-29 18:17:31.371,1.144332,0.5932461,0.74423766,1.1701206,1.0956173,0.103901595,0.19890693,0.81867075,0.9134293,0.41756445,0.23911321,1.3073351,0.57134604,-0.0013290639,0.038777735,0.8247384,0.0912112,-0.548952,-0.21015115,0.21776347,774.43225,808.2784,799.81683,807.47253,884.0293,-0.16131591796875,0.1126708984375,0.99310302734375,-0.01495361328125,-1.861724853515625,-0.216827392578125,1,2.0,1.0,1.0,2.0,20.00
2024-09-29 18:17:31.375,1.144332,0.5932461,0.74423766,1.1701206,1.0956173,0.103901595,0.19890693,0.81867075,0.9134293,0.41756445,0.23911321,1.3073351,0.57134604,-0.0013290639,0.038777735,0.8247384,0.0912112,-0.548952,-0.21015115,0.21776347,778.86444,809.0842,796.5934,821.978,1255.1282,-0.16131591796875,0.1126708984375,0.99310302734375,-0.01495361328125,-1.861724853515625,-0.216827392578125,1,2.0,1.0,1.0,2.0,20.00
2024-09-29 18:17:31.376,1.144332,0.5932461,0.74423766,1.1701206,1.0956173,0.103901595,0.19890693,0.81867075,0.9134293,0.41756445,0.23911321,1.3073351,0.57134604,-0.0013290639,0.038777735,0.8247384,0.0912112,-0.548952,-0.21015115,0.21776347,766.3736,802.23444,797.3993,817.1429,1371.978,-0.16131591796875,0.1126708984375,0.99310302734375,-0.01495361328125,-1.861724853515625,-0.216827392578125,1,2.0,1.0,1.0,2.0,20.00
2024-09-29 18:17:31.376,1.144332,0.5932461,0.74423766,1.1701206,1.0956173,0.103901595,0.19890693,0.81867075,0.9134293,0.41756445,0.23911321,1.3073351,0.57134604,-0.0013290639,0.038777735,0.8247384,0.0912112,-0.548952,-0.21015115,0.21776347,759.5238,801.4286,794.57874,804.2491,976.30035,-0.16131591796875,0.1126708984375,0.99310302734375,-0.01495361328125,-1.861724853515625,-0.216827392578125,1,2.0,1.0,1.0,2.0,20.00
2024-09-29 18:17:31.377,1.144332,0.5932461,0.74423766,1.1701206,1.0956173,0.103901595,0.19890693,0.81867075,0.9134293,0.41756445,0.23911321,1.3073351,0.57134604,-0.0013290639,0.038777735,0.8247384,0.0912112,-0.548952,-0.21015115,0.21776347,765.9707,805.05493,800.2198,797.3993,610.84247,-0.16131591796875,0.1126708984375,0.99310302734375,-0.01495361328125,-1.861724853515625,-0.216827392578125,1,2.0,1.0,1.0,2.0,20.00
2024-09-29 18:17:31.378,1.144332,0.5932461,0.74423766,1.1701206,1.0956173,0.103901595,0.19890693,0.81867075,0.9134293,0.41756445,0.23911321,1.3073351,0.57134604,-0.0013290639,0.038777735,0.8247384,0.0912112,-0.548952,-0.21015115,0.21776347,768.3883,809.89014,807.0696,795.78754,545.56775,-0.16131591796875,0.1126708984375,0.99310302734375,-0.01495361328125,-1.861724853515625,-0.216827392578125,1,2.0,1.0,1.0,2.0,20.00
2024-09-29 18:17:31.378,1.144332,0.5932461,0.74423766,1.1701206,1.0956173,0.103901595,0.19890693,0.81867075,0.9134293,0.41756445,0.23911321,1.3073351,0.57134604,-0.0013290639,0.038777735,0.8247384,0.0912112,-0.548952,-0.21015115,0.21776347,765.9707,809.4872,801.02563,793.36993,597.5458,-0.16131591796875,0.1126708984375,0.99310302734375,-0.01495361328125,-1.861724853515625,-0.216827392578125,1,2.0,1.0,1.0,2.0,20.00
2024-09-29 18:17:31.379,1.144332,0.5932461,0.74423766,1.1701206,1.0956173,0.103901595,0.19890693,0.81867075,0.9134293,0.41756445,0.23911321,1.3073351,0.57134604,-0.0013290639,0.038777735,0.8247384,0.0912112,-0.548952,-0.21015115,0.21776347,765.56775,806.26373,795.78754,788.93774,716.0073,-0.16131591796875,0.1126708984375,0.99310302734375,-0.01495361328125,-1.861724853515625,-0.216827392578125,1,2.0,1.0,1.0,2.0,20.00
2024-09-29 18:17:31.379,1.144332,0.5932461,0.74423766,1.1701206,1.0956173,0.103901595,0.19890693,0.81867075,0.9134293,0.41756445,0.23911321,1.3073351,0.57134604,-0.0013290639,0.038777735,0.8247384,0.0912112,-0.548952,-0.21015115,0.21776347,771.2088,808.2784,802.23444,803.8461,990.80585,-0.16131591796875,0.1126708984375,0.99310302734375,-0.01495361328125,-1.861724853515625,-0.216827392578125,1,2.0,1.0,1.0,2.0,20.00
2024-09-29 18:17:31.380,1.144332,0.5932461,0.74423766,1.1701206,1.0956173,0.103901595,0.19890693,0.81867075,0.9134293,0.41756445,0.23911321,1.3073351,0.57134604,-0.0013290639,0.038777735,0.8247384,0.0912112,-0.548952,-0.21015115,0.21776347,771.6117,809.89014,804.2491,807.8755,1330.0732,-0.16131591796875,0.1126708984375,0.99310302734375,-0.01495361328125,-1.861724853515625,-0.216827392578125,1,2.0,1.0,1.0,2.0,20.00
