TimeStamp,Delta_TP9,Delta_AF7,Delta_AF8,Delta_TP10,Theta_TP9,Theta_AF7,Theta_AF8,Theta_TP10,Alpha_TP9,Alpha_AF7,Alpha_AF8,Alpha_TP10,Beta_TP9,Beta_AF7,Beta_AF8,Beta_TP10,Gamma_TP9,Gamma_AF7,Gamma_AF8,Gamma_TP10,RAW_TP9,RAW_AF7,RAW_AF8,RAW_TP10,AUX_RIGHT,Accelerometer_X,Accelerometer_Y,Accelerometer_Z,Gyro_X,Gyro_Y,Gyro_Z,HeadBandOn,HSI_TP9,HSI_AF7,HSI_AF8,HSI_TP10,Battery,Elements
2024-09-29 18:15:36.492,0.5373679,-0.24594192,0.17653681,0.5977643,0.36046493,0.012019015,0.026729003,0.235554,1.1349367,0.21021481,0.27130532,0.6366492,0.7066886,-0.11570077,-0.06318017,0.41898558,-0.014793945,-0.29464668,-0.5289068,0.013178847,823.1868,800.6227,805.4579,801.02563,674.5055,-0.28802490234375,0.1239013671875,0.96295166015625,-0.276641845703125,-1.577606201171875,0.381317138671875,1,1.0,1.0,1.0,1.0,20.00
2024-09-29 18:15:36.493,0.5373679,-0.24594192,0.17653681,0.5977643,0.36046493,0.012019015,0.026729003,0.235554,1.1349367,0.21021481,0.27130532,0.6366492,0.7066886,-0.11570077,-0.06318017,0.41898558,-0.014793945,-0.29464668,-0.5289068,0.013178847,828.022,797.3993,807.0696,805.4579,658.7912,-0.28802490234375,0.1239013671875,0.96295166015625,-0.276641845703125,-1.577606201171875,0.381317138671875,1,1.0,1.0,1.0,1.0,20.00
2024-09-29 18:15:36.494,0.5373679,-0.24594192,0.17653681,0.5977643,0.36046493,0.012019015,0.026729003,0.235554,1.1349367,0.21021481,0.27130532,0.6366492,0.7066886,-0.11570077,-0.06318017,0.41898558,-0.014793945,-0.29464668,-0.5289068,0.013178847,823.5897,799.41394,807.0696,806.6667,807.0696,-0.28802490234375,0.1239013671875,0.96295166015625,-0.276641845703125,-1.577606201171875,0.381317138671875,1,1.0,1.0,1.0,1.0,20.00
2024-09-29 18:15:36.494,0.5373679,-0.24594192,0.17653681,0.5977643,0.36046493,0.012019015,0.026729003,0.235554,1.1349367,0.21021481,0.27130532,0.6366492,0.7066886,-0.11570077,-0.06318017,0.41898558,-0.014793945,-0.29464668,-0.5289068,0.013178847,821.1722,801.4286,803.0403,811.0989,1158.8279,-0.28802490234375,0.1239013671875,0.96295166015625,-0.276641845703125,-1.577606201171875,0.381317138671875,1,1.0,1.0,1.0,1.0,20.00
2024-09-29 18:15:36.495,0.5373679,-0.24594192,0.17653681,0.5977643,0.36046493,0.012019015,0.026729003,0.235554,1.1349367,0.21021481,0.27130532,0.6366492,0.7066886,-0.11570077,-0.06318017,0.41898558,-0.014793945,-0.29464668,-0.5289068,0.013178847,823.5897,805.4579,802.23444,813.91943,1357.0696,-0.28802490234375,0.1239013671875,0.96295166015625,-0.276641845703125,-1.577606201171875,0.381317138671875,1,1.0,1.0,1.0,1.0,20.00
2024-09-29 18:15:36.495,0.5373679,-0.24594192,0.17653681,0.5977643,0.36046493,0.012019015,0.026729003,0.235554,1.1349367,0.21021481,0.27130532,0.6366492,0.7066886,-0.11570077,-0.06318017,0.41898558,-0.014793945,-0.29464668,-0.5289068,0.013178847,826.4103,802.23444,802.23444,814.3223,1290.586,-0.28802490234375,0.1239013671875,0.96295166015625,-0.276641845703125,-1.577606201171875,0.381317138671875,1,1.0,1.0,1.0,1.0,20.00
2024-09-29 18:15:36.496,0.5373679,-0.24594192,0.17653681,0.5977643,0.36046493,0.012019015,0.026729003,0.235554,1.1349367,0.21021481,0.27130532,0.6366492,0.7066886,-0.11570077,-0.06318017,0.41898558,-0.014793945,-0.29464668,-0.5289068,0.013178847,817.1429,797.3993,798.20514,807.8755,1177.3627,-0.28802490234375,0.1239013671875,0.96295166015625,-0.276641845703125,-1.577606201171875,0.381317138671875,1,1.0,1.0,1.0,1.0,20.00
2024-09-29 18:15:36.496,0.5373679,-0.24594192,0.17653681,0.5977643,0.36046493,0.012019015,0.026729003,0.235554,1.1349367,0.21021481,0.27130532,0.6366492,0.7066886,-0.11570077,-0.06318017,0.41898558,-0.014793945,-0.29464668,-0.5289068,0.013178847,813.91943,797.8022,797.8022,806.26373,1299.0476,-0.28802490234375,0.1239013671875,0.96295166015625,-0.276641845703125,-1.577606201171875,0.381317138671875,1,1.0,1.0,1.0,1.0,20.00
2024-09-29 18:15:36.497,0.5373679,-0.24594192,0.17653681,0.5977643,0.36046493,0.012019015,0.026729003,0.235554,1.1349367,0.21021481,0.27130532,0.6366492,0.7066886,-0.11570077,-0.06318017,0.41898558,-0.014793945,-0.29464668,-0.5289068,0.013178847,816.7399,796.99634,797.3993,801.8315,1166.8865,-0.28802490234375,0.1239013671875,0.96295166015625,-0.276641845703125,-1.577606201171875,0.381317138671875,1,1.0,1.0,1.0,1.0,20.00
2024-09-29 18:15:36.498,0.5373679,-0.24594192,0.17653681,0.5977643,0.36046493,0.012019015,0.026729003,0.235554,1.1349367,0.21021481,0.27130532,0.6366492,0.7066886,-0.11570077,-0.06318017,0.41898558,-0.014793945,-0.29464668,-0.5289068,0.013178847,812.71063,795.38464,796.1905,795.38464,707.5458,-0.28802490234375,0.1239013671875,0.96295166015625,-0.276641845703125,-1.577606201171875,0.381317138671875,1,1.0,1.0,1.0,1.0,20.00
2024-09-29 18:15:36.498,0.5373679,-0.24594192,0.17653681,0.5977643,0.36046493,0.012019015,0.026729003,0.235554,1.1349367,0.21021481,0.27130532,0.6366492,0.7066886,-0.11570077,-0.06318017,0.41898558,-0.014793945,-0.29464668,-0.5289068,0.013178847,809.4872,796.99634,796.1905,799.41394,764.7619,-0.28802490234375,0.1239013671875,0.96295166015625,-0.276641845703125,-1.577606201171875,0.381317138671875,1,1.0,1.0,1.0,1.0,20.00
2024-09-29 18:15:36.499,0.5373679,-0.24594192,0.17653681,0.5977643,0.36046493,0.012019015,0.026729003,0.235554,1.1349367,0.21021481,0.27130532,0.6366492,0.7066886,-0.11570077,-0.06318017,0.41898558,-0.014793945,-0.29464668,-0.5289068,0.013178847,807.0696,799.81683,794.9817,797.3993,832.8571,-0.28802490234375,0.1239013671875,0.96295166015625,-0.276641845703125,-1.577606201171875,0.381317138671875,1,1.0,1.0,1.0,1.0,20.00
2024-09-29 18:15:36.500,0.5373679,-0.24594192,0.17653681,0.5977643,0.36046493,0.012019015,0.026729003,0.235554,1.1349367,0.21021481,0.27130532,0.6366492,0.7066886,-0.11570077,-0.06318017,0.41898558,-0.014793945,-0.29464668,-0.5289068,0.013178847,807.0696,797.3993,798.20514,793.7729,780.4762,-0.28643798828125,0.12188720703125,0.96307373046875,-0.52337646484375,-1.60003662109375,-0.171966552734375,1,1.0,1.0,1.0,1.0,20.00
2024-09-29 18:15:36.500,0.45731497,-0.30588335,0.010383228,0.5960008,0.32141083,-0.011116702,-0.11787722,0.24495293,1.126266,0.20344913,0.057413876,0.66512746,0.69759184,-0.109621994,-0.11069879,0.42275032,-0.0464364,-0.3077841,-0.4869715,-0.006390104,811.9048,794.17584,801.4286,795.38464,645.89746,-0.28643798828125,0.12188720703125,0.96307373046875,-0.52337646484375,-1.60003662109375,-0.171966552734375,1,1.0,1.0,1.0,1.0,20.00
2024-09-29 18:15:36.505,0.45731497,-0.30588335,0.010383228,0.5960008,0.32141083,-0.011116702,-0.11787722,0.24495293,1.126266,0.20344913,0.057413876,0.66512746,0.69759184,-0.109621994,-0.11069879,0.42275032,-0.0464364,-0.3077841,-0.4869715,-0.006390104,818.3516,795.78754,795.38464,799.81683,691.4286,-0.28643798828125,0.12188720703125,0.96307373046875,-0.52337646484375,-1.60003662109375,-0.171966552734375,1,1.0,1.0,1.0,1.0,20.00
2024-09-29 18:15:36.506,0.45731497,-0.30588335,0.010383228,0.5960008,0.32141083,-0.011116702,-0.11787722,0.24495293,1.126266,0.20344913,0.057413876,0.66512746,0.69759184,-0.109621994,-0.11069879,0.42275032,-0.0464364,-0.3077841,-0.4869715,-0.006390104,826.0073,799.81683,796.99634,803.44324,831.6484,-0.28643798828125,0.12188720703125,0.96307373046875,-0.52337646484375,-1.60003662109375,-0.171966552734375,1,1.0,1.0,1.0,1.0,20.00
2024-09-29 18:15:36.506,0.45731497,-0.30588335,0.010383228,0.5960008,0.32141083,-0.011116702,-0.11787722,0.24495293,1.126266,0.20344913,0.057413876,0.66512746,0.69759184,-0.109621994,-0.11069879,0.42275032,-0.0464364,-0.3077841,-0.4869715,-0.006390104,833.2601,800.2198,803.0403,804.2491,725.2747,-0.28643798828125,0.12188720703125,0.96307373046875,-0.52337646484375,-1.60003662109375,-0.171966552734375,1,1.0,1.0,1.0,1.0,20.00
2024-09-29 18:15:36.507,0.45731497,-0.30588335,0.010383228,0.5960008,0.32141083,-0.011116702,-0.11787722,0.24495293,1.126266,0.20344913,0.057413876,0.66512746,0.69759184,-0.109621994,-0.11069879,0.42275032,-0.0464364,-0.3077841,-0.4869715,-0.006390104,830.4396,799.41394,800.6227,800.6227,712.381,-0.28643798828125,0.12188720703125,0.96307373046875,-0.52337646484375,-1.60003662109375,-0.171966552734375,1,1.0,1.0,1.0,1.0,20.00
2024-09-29 18:15:36.507,0.45731497,-0.30588335,0.010383228,0.5960008,0.32141083,-0.011116702,-0.11787722,0.24495293,1.126266,0.20344913,0.057413876,0.66512746,0.69759184,-0.109621994,-0.11069879,0.42275032,-0.0464364,-0.3077841,-0.4869715,-0.006390104,813.91943,799.011,799.41394,804.65204,941.2454,-0.28643798828125,0.12188720703125,0.96307373046875,-0.52337646484375,-1.60003662109375,-0.171966552734375,1,1.0,1.0,1.0,1.0,20.00
2024-09-29 18:15:36.508,0.45731497,-0.30588335,0.010383228,0.5960008,0.32141083,-0.011116702,-0.11787722,0.24495293,1.126266,0.20344913,0.057413876,0.66512746,0.69759184,-0.109621994,-0.11069879,0.42275032,-0.0464364,-0.3077841,-0.4869715,-0.006390104,800.2198,797.8022,799.81683,813.91943,1015.78754,-0.28643798828125,0.12188720703125,0.96307373046875,-0.52337646484375,-1.60003662109375,-0.171966552734375,1,1.0,1.0,1.0,1.0,20.00
2024-09-29 18:15:36.509,0.45731497,-0.30588335,0.010383228,0.5960008,0.32141083,-0.011116702,-0.11787722,0.24495293,1.126266,0.20344913,0.057413876,0.66512746,0.69759184,-0.109621994,-0.11069879,0.42275032,-0.0464364,-0.3077841,-0.4869715,-0.006390104,799.011,798.20514,801.4286,810.293,792.1612,-0.28643798828125,0.12188720703125,0.96307373046875,-0.52337646484375,-1.60003662109375,-0.171966552734375,1,1.0,1.0,1.0,1.0,20.00
2024-09-29 18:15:36.510,0.45731497,-0.30588335,0.010383228,0.5960008,0.32141083,-0.011116702,-0.11787722,0.24495293,1.126266,0.20344913,0.057413876,0.66512746,0.69759184,-0.109621994,-0.11069879,0.42275032,-0.0464364,-0.3077841,-0.4869715,-0.006390104,801.02563,801.4286,799.41394,806.6667,630.989,-0.28643798828125,0.12188720703125,0.96307373046875,-0.52337646484375,-1.60003662109375,-0.171966552734375,1,1.0,1.0,1.0,1.0,20.00
2024-09-29 18:15:36.511,0.45731497,-0.30588335,0.010383228,0.5960008,0.32141083,-0.011116702,-0.11787722,0.24495293,1.126266,0.20344913,0.057413876,0.66512746,0.69759184,-0.109621994,-0.11069879,0.42275032,-0.0464364,-0.3077841,-0.4869715,-0.006390104,806.26373,798.60803,796.5934,815.9341,767.98535,-0.28643798828125,0.12188720703125,0.96307373046875,-0.52337646484375,-1.60003662109375,-0.171966552734375,1,1.0,1.0,1.0,1.0,20.00
2024-09-29 18:15:36.511,0.45731497,-0.30588335,0.010383228,0.5960008,0.32141083,-0.011116702,-0.11787722,0.24495293,1.126266,0.20344913,0.057413876,0.66512746,0.69759184,-0.109621994,-0.11069879,0.42275032,-0.0464364,-0.3077841,-0.4869715,-0.006390104,813.5165,800.6227,801.8315,820.3663,826.0073,-0.28643798828125,0.12188720703125,0.96307373046875,-0.52337646484375,-1.60003662109375,-0.171966552734375,1,1.0,1.0,1.0,1.0,20.00
2024-09-29 18:15:36.546,0.45731497,-0.30588335,0.010383228,0.5960008,0.32141083,-0.011116702,-0.11787722,0.24495293,1.126266,0.20344913,0.057413876,0.66512746,0.69759184,-0.109621994,-0.11069879,0.42275032,-0.0464364,-0.3077841,-0.4869715,-0.006390104,817.5458,801.4286,799.011,813.5165,853.4066,-0.28253173828125,0.125244140625,0.9603271484375,0.381317138671875,-1.876678466796875,-0.157012939453125,1,1.0,1.0,1.0,1.0,20.00
2024-09-29 18:15:36.546,0.45731497,-0.30588335,0.010383228,0.5960008,0.32141083,-0.011116702,-0.11787722,0.24495293,1.126266,0.20344913,0.057413876,0.66512746,0.69759184,-0.109621994,-0.11069879,0.42275032,-0.0464364,-0.3077841,-0.4869715,-0.006390104,824.7985,793.36993,797.3993,810.293,927.9487,-0.28253173828125,0.125244140625,0.9603271484375,0.381317138671875,-1.876678466796875,-0.157012939453125,1,1.0,1.0,1.0,1.0,20.00
2024-09-29 18:15:36.547,0.45731497,-0.30588335,0.010383228,0.5960008,0.32141083,-0.011116702,-0.11787722,0.24495293,1.126266,0.20344913,0.057413876,0.66512746,0.69759184,-0.109621994,-0.11069879,0.42275032,-0.0464364,-0.3077841,-0.4869715,-0.006390104,823.5897,791.3553,801.4286,803.44324,809.89014,-0.28253173828125,0.125244140625,0.9603271484375,0.381317138671875,-1.876678466796875,-0.157012939453125,1,1.0,1.0,1.0,1.0,20.00
2024-09-29 18:15:36.548,0.45731497,-0.30588335,0.010383228,0.5960008,0.32141083,-0.011116702,-0.11787722,0.24495293,1.126266,0.20344913,0.057413876,0.66512746,0.69759184,-0.109621994,-0.11069879,0.42275032,-0.0464364,-0.3077841,-0.4869715,-0.006390104,813.5165,796.99634,807.8755,799.41394,787.326,-0.28253173828125,0.125244140625,0.9603271484375,0.381317138671875,-1.876678466796875,-0.157012939453125,1,1.0,1.0,1.0,1.0,20.00
2024-09-29 18:15:36.549,0.45731497,-0.30588335,0.010383228,0.5960008,0.32141083,-0.011116702,-0.11787722,0.24495293,1.126266,0.20344913,0.057413876,0.66512746,0.69759184,-0.109621994,-0.11069879,0.42275032,-0.0464364,-0.3077841,-0.4869715,-0.006390104,807.47253,798.20514,807.47253,805.4579,862.674,-0.28253173828125,0.125244140625,0.9603271484375,0.381317138671875,-1.876678466796875,-0.157012939453125,1,1.0,1.0,1.0,1.0,20.00
2024-09-29 18:15:36.549,0.45731497,-0.30588335,0.010383228,0.5960008,0.32141083,-0.011116702,-0.11787722,0.24495293,1.126266,0.20344913,0.057413876,0.66512746,0.69759184,-0.109621994,-0.11069879,0.42275032,-0.0464364,-0.3077841,-0.4869715,-0.006390104,800.6227,794.9817,799.81683,805.8608,868.315,-0.28253173828125,0.125244140625,0.9603271484375,0.381317138671875,-1.876678466796875,-0.157012939453125,1,1.0,1.0,1.0,1.0,20.00
2024-09-29 18:15:36.550,0.45731497,-0.30588335,0.010383228,0.5960008,0.32141083,-0.011116702,-0.11787722,0.24495293,1.126266,0.20344913,0.057413876,0.66512746,0.69759184,-0.109621994,-0.11069879,0.42275032,-0.0464364,-0.3077841,-0.4869715,-0.006390104,805.8608,796.5934,799.41394,810.696,1267.619,-0.28253173828125,0.125244140625,0.9603271484375,0.381317138671875,-1.876678466796875,-0.157012939453125,1,1.0,1.0,1.0,1.0,20.00
2024-09-29 18:15:36.551,0.45731497,-0.30588335,0.010383228,0.5960008,0.32141083,-0.011116702,-0.11787722,0.24495293,1.126266,0.20344913,0.057413876,0.66512746,0.69759184,-0.109621994,-0.11069879,0.42275032,-0.0464364,-0.3077841,-0.4869715,-0.006390104,818.3516,800.6227,805.4579,819.15753,1171.3187,-0.28253173828125,0.125244140625,0.9603271484375,0.381317138671875,-1.876678466796875,-0.157012939453125,1,1.0,1.0,1.0,1.0,20.00
2024-09-29 18:15:36.551,0.45731497,-0.30588335,0.010383228,0.5960008,0.32141083,-0.011116702,-0.11787722,0.24495293,1.126266,0.20344913,0.057413876,0.66512746,0.69759184,-0.109621994,-0.11069879,0.42275032,-0.0464364,-0.3077841,-0.4869715,-0.006390104,821.1722,794.57874,803.0403,817.5458,746.2271,-0.28253173828125,0.125244140625,0.9603271484375,0.381317138671875,-1.876678466796875,-0.157012939453125,1,1.0,1.0,1.0,1.0,20.00
2024-09-29 18:15:36.552,0.45731497,-0.30588335,0.010383228,0.5960008,0.32141083,-0.011116702,-0.11787722,0.24495293,1.126266,0.20344913,0.057413876,0.66512746,0.69759184,-0.109621994,-0.11069879,0.42275032,-0.0464364,-0.3077841,-0.4869715,-0.006390104,819.5604,793.7729,794.9817,811.50183,764.35895,-0.28253173828125,0.125244140625,0.9603271484375,0.381317138671875,-1.876678466796875,-0.157012939453125,1,1.0,1.0,1.0,1.0,20.00
2024-09-29 18:15:36.553,0.45731497,-0.30588335,0.010383228,0.5960008,0.32141083,-0.011116702,-0.11787722,0.24495293,1.126266,0.20344913,0.057413876,0.66512746,0.69759184,-0.109621994,-0.11069879,0.42275032,-0.0464364,-0.3077841,-0.4869715,-0.006390104,822.381,800.6227,802.6374,809.0842,726.08057,-0.28253173828125,0.125244140625,0.9603271484375,0.381317138671875,-1.876678466796875,-0.157012939453125,1,1.0,1.0,1.0,1.0,20.00
2024-09-29 18:15:36.553,0.45731497,-0.30588335,0.010383228,0.5960008,0.32141083,-0.011116702,-0.11787722,0.24495293,1.126266,0.20344913,0.057413876,0.66512746,0.69759184,-0.109621994,-0.11069879,0.42275032,-0.0464364,-0.3077841,-0.4869715,-0.006390104,823.1868,799.011,804.2491,807.0696,617.6923,-0.28253173828125,0.125244140625,0.9603271484375,0.381317138671875,-1.876678466796875,-0.157012939453125,1,1.0,1.0,1.0,1.0,20.00
2024-09-29 18:15:36.603,0.45731497,-0.30588335,0.010383228,0.5960008,0.32141083,-0.011116702,-0.11787722,0.24495293,1.126266,0.20344913,0.057413876,0.66512746,0.69759184,-0.109621994,-0.11069879,0.42275032,-0.0464364,-0.3077841,-0.4869715,-0.006390104,819.15753,801.4286,798.60803,805.8608,693.44324,-0.28253173828125,0.125244140625,0.9603271484375,0.381317138671875,-1.876678466796875,-0.157012939453125,1,1.0,1.0,1.0,1.0,20.00
2024-09-29 18:15:36.604,0.45731497,-0.30588335,0.010383228,0.5960008,0.32141083,-0.011116702,-0.11787722,0.24495293,1.126266,0.20344913,0.057413876,0.66512746,0.69759184,-0.109621994,-0.11069879,0.42275032,-0.0464364,-0.3077841,-0.4869715,-0.006390104,811.50183,807.0696,802.23444,809.0842,785.31134,-0.28253173828125,0.125244140625,0.9603271484375,0.381317138671875,-1.876678466796875,-0.157012939453125,1,1.0,1.0,1.0,1.0,20.00
2024-09-29 18:15:36.604,0.45731497,-0.30588335,0.010383228,0.5960008,0.32141083,-0.011116702,-0.11787722,0.24495293,1.126266,0.20344913,0.057413876,0.66512746,0.69759184,-0.109621994,-0.11069879,0.42275032,-0.0464364,-0.3077841,-0.4869715,-0.006390104,809.0842,803.44324,807.47253,811.9048,694.2491,-0.28253173828125,0.125244140625,0.9603271484375,0.381317138671875,-1.876678466796875,-0.157012939453125,1,1.0,1.0,1.0,1.0,20.00
2024-09-29 18:15:36.605,0.40407485,-0.33859676,-0.103634,0.59577143,0.31427982,-0.024811797,-0.18998018,0.2627271,1.1063988,0.17134878,-0.08050546,0.69204175,0.68553257,-0.109347425,-0.15069583,0.42545816,-0.06967614,-0.3196109,-0.45422143,-0.018563904,810.696,803.8461,806.6667,814.7253,683.7729,-0.28253173828125,0.125244140625,0.9603271484375,0.381317138671875,-1.876678466796875,-0.157012939453125,1,1.0,1.0,1.0,1.0,20.00
2024-09-29 18:15:36.610,0.40407485,-0.33859676,-0.103634,0.59577143,0.31427982,-0.024811797,-0.18998018,0.2627271,1.1063988,0.17134878,-0.08050546,0.69204175,0.68553257,-0.109347425,-0.15069583,0.42545816,-0.06967614,-0.3196109,-0.45422143,-0.018563904,816.7399,809.4872,804.2491,815.9341,805.05493,-0.28253173828125,0.125244140625,0.9603271484375,0.381317138671875,-1.876678466796875,-0.157012939453125,1,1.0,1.0,1.0,1.0,20.00
2024-09-29 18:15:36.610,0.40407485,-0.33859676,-0.103634,0.59577143,0.31427982,-0.024811797,-0.18998018,0.2627271,1.1063988,0.17134878,-0.08050546,0.69204175,0.68553257,-0.109347425,-0.15069583,0.42545816,-0.06967614,-0.3196109,-0.45422143,-0.018563904,822.381,807.0696,808.68134,819.15753,1129.011,-0.28253173828125,0.125244140625,0.9603271484375,0.381317138671875,-1.876678466796875,-0.157012939453125,1,1.0,1.0,1.0,1.0,20.00
2024-09-29 18:15:36.611,0.40407485,-0.33859676,-0.103634,0.59577143,0.31427982,-0.024811797,-0.18998018,0.2627271,1.1063988,0.17134878,-0.08050546,0.69204175,0.68553257,-0.109347425,-0.15069583,0.42545816,-0.06967614,-0.3196109,-0.45422143,-0.018563904,820.3663,809.0842,806.26373,815.9341,1254.7252,-0.28253173828125,0.125244140625,0.9603271484375,0.381317138671875,-1.876678466796875,-0.157012939453125,1,1.0,1.0,1.0,1.0,20.00
2024-09-29 18:15:36.611,0.40407485,-0.33859676,-0.103634,0.59577143,0.31427982,-0.024811797,-0.18998018,0.2627271,1.1063988,0.17134878,-0.08050546,0.69204175,0.68553257,-0.109347425,-0.15069583,0.42545816,-0.06967614,-0.3196109,-0.45422143,-0.018563904,821.5751,811.50183,802.6374,807.8755,923.91943,-0.28253173828125,0.125244140625,0.9603271484375,0.381317138671875,-1.876678466796875,-0.157012939453125,1,1.0,1.0,1.0,1.0,20.00
2024-09-29 18:15:36.612,0.40407485,-0.33859676,-0.103634,0.59577143,0.31427982,-0.024811797,-0.18998018,0.2627271,1.1063988,0.17134878,-0.08050546,0.69204175,0.68553257,-0.109347425,-0.15069583,0.42545816,-0.06967614,-0.3196109,-0.45422143,-0.018563904,826.0073,811.0989,801.4286,813.91943,814.3223,-0.28253173828125,0.125244140625,0.9603271484375,0.381317138671875,-1.876678466796875,-0.157012939453125,1,1.0,1.0,1.0,1.0,20.00
2024-09-29 18:15:36.612,0.40407485,-0.33859676,-0.103634,0.59577143,0.31427982,-0.024811797,-0.18998018,0.2627271,1.1063988,0.17134878,-0.08050546,0.69204175,0.68553257,-0.109347425,-0.15069583,0.42545816,-0.06967614,-0.3196109,-0.45422143,-0.018563904,826.0073,810.696,802.23444,821.1722,1106.044,-0.28253173828125,0.125244140625,0.9603271484375,0.381317138671875,-1.876678466796875,-0.157012939453125,1,1.0,1.0,1.0,1.0,20.00
2024-09-29 18:15:36.613,0.40407485,-0.33859676,-0.103634,0.59577143,0.31427982,-0.024811797,-0.18998018,0.2627271,1.1063988,0.17134878,-0.08050546,0.69204175,0.68553257,-0.109347425,-0.15069583,0.42545816,-0.06967614,-0.3196109,-0.45422143,-0.018563904,824.3956,807.47253,810.293,819.5604,1080.6593,-0.28253173828125,0.125244140625,0.9603271484375,0.381317138671875,-1.876678466796875,-0.157012939453125,1,1.0,1.0,1.0,1.0,20.00
2024-09-29 18:15:36.613,0.40407485,-0.33859676,-0.103634,0.59577143,0.31427982,-0.024811797,-0.18998018,0.2627271,1.1063988,0.17134878,-0.08050546,0.69204175,0.68553257,-0.109347425,-0.15069583,0.42545816,-0.06967614,-0.3196109,-0.45422143,-0.018563904,825.6044,804.65204,809.0842,818.7546,812.3077,-0.28253173828125,0.125244140625,0.9603271484375,0.381317138671875,-1.876678466796875,-0.157012939453125,1,1.0,1.0,1.0,1.0,20.00
2024-09-29 18:15:36.614,0.40407485,-0.33859676,-0.103634,0.59577143,0.31427982,-0.024811797,-0.18998018,0.2627271,1.1063988,0.17134878,-0.08050546,0.69204175,0.68553257,-0.109347425,-0.15069583,0.42545816,-0.06967614,-0.3196109,-0.45422143,-0.018563904,820.3663,801.4286,799.011,819.5604,743.00366,-0.28802490234375,0.12860107421875,0.96337890625,0.19439697265625,-1.54022216796875,1.30096435546875,1,1.0,1.0,1.0,1.0,20.00
2024-09-29 18:15:36.615,0.40407485,-0.33859676,-0.103634,0.59577143,0.31427982,-0.024811797,-0.18998018,0.2627271,1.1063988,0.17134878,-0.08050546,0.69204175,0.68553257,-0.109347425,-0.15069583,0.42545816,-0.06967614,-0.3196109,-0.45422143,-0.018563904,824.3956,803.44324,799.81683,826.8132,1104.0293,-0.28802490234375,0.12860107421875,0.96337890625,0.19439697265625,-1.54022216796875,1.30096435546875,1,1.0,1.0,1.0,1.0,20.00
2024-09-29 18:15:36.616,0.40407485,-0.33859676,-0.103634,0.59577143,0.31427982,-0.024811797,-0.18998018,0.2627271,1.1063988,0.17134878,-0.08050546,0.69204175,0.68553257,-0.109347425,-0.15069583,0.42545816,-0.06967614,-0.3196109,-0.45422143,-0.018563904,826.4103,807.47253,800.6227,830.4396,1207.9854,-0.28802490234375,0.12860107421875,0.96337890625,0.19439697265625,-1.54022216796875,1.30096435546875,1,1.0,1.0,1.0,1.0,20.00
2024-09-29 18:15:36.616,0.40407485,-0.33859676,-0.103634,0.59577143,0.31427982,-0.024811797,-0.18998018,0.2627271,1.1063988,0.17134878,-0.08050546,0.69204175,0.68553257,-0.109347425,-0.15069583,0.42545816,-0.06967614,-0.3196109,-0.45422143,-0.018563904,818.7546,803.8461,799.41394,820.3663,781.685,-0.28802490234375,0.12860107421875,0.96337890625,0.19439697265625,-1.54022216796875,1.30096435546875,1,1.0,1.0,1.0,1.0,20.00
2024-09-29 18:15:36.617,0.40407485,-0.33859676,-0.103634,0.59577143,0.31427982,-0.024811797,-0.18998018,0.2627271,1.1063988,0.17134878,-0.08050546,0.69204175,0.68553257,-0.109347425,-0.15069583,0.42545816,-0.06967614,-0.3196109,-0.45422143,-0.018563904,822.7839,805.05493,802.23444,810.293,654.35895,-0.28802490234375,0.12860107421875,0.96337890625,0.19439697265625,-1.54022216796875,1.30096435546875,1,1.0,1.0,1.0,1.0,20.00
2024-09-29 18:15:36.617,0.40407485,-0.33859676,-0.103634,0.59577143,0.31427982,-0.024811797,-0.18998018,0.2627271,1.1063988,0.17134878,-0.08050546,0.69204175,0.68553257,-0.109347425,-0.15069583,0.42545816,-0.06967614,-0.3196109,-0.45422143,-0.018563904,817.5458,803.8461,794.9817,813.5165,867.50916,-0.28802490234375,0.12860107421875,0.96337890625,0.19439697265625,-1.54022216796875,1.30096435546875,1,1.0,1.0,1.0,1.0,20.00
2024-09-29 18:15:36.618,0.40407485,-0.33859676,-0.103634,0.59577143,0.31427982,-0.024811797,-0.18998018,0.2627271,1.1063988,0.17134878,-0.08050546,0.69204175,0.68553257,-0.109347425,-0.15069583,0.42545816,-0.06967614,-0.3196109,-0.45422143,-0.018563904,811.9048,796.99634,792.96704,811.9048,1022.6374,-0.28802490234375,0.12860107421875,0.96337890625,0.19439697265625,-1.54022216796875,1.30096435546875,1,1.0,1.0,1.0,1.0,20.00
2024-09-29 18:15:36.618,0.40407485,-0.33859676,-0.103634,0.59577143,0.31427982,-0.024811797,-0.18998018,0.2627271,1.1063988,0.17134878,-0.08050546,0.69204175,0.68553257,-0.109347425,-0.15069583,0.42545816,-0.06967614,-0.3196109,-0.45422143,-0.018563904,812.3077,794.57874,795.78754,813.1135,885.64105,-0.28802490234375,0.12860107421875,0.96337890625,0.19439697265625,-1.54022216796875,1.30096435546875,1,1.0,1.0,1.0,1.0,20.00
2024-09-29 18:15:36.619,0.40407485,-0.33859676,-0.103634,0.59577143,0.31427982,-0.024811797,-0.18998018,0.2627271,1.1063988,0.17134878,-0.08050546,0.69204175,0.68553257,-0.109347425,-0.15069583,0.42545816,-0.06967614,-0.3196109,-0.45422143,-0.018563904,813.5165,801.02563,796.5934,820.3663,812.3077,-0.28802490234375,0.12860107421875,0.96337890625,0.19439697265625,-1.54022216796875,1.30096435546875,1,1.0,1.0,1.0,1.0,20.00
2024-09-29 18:15:36.620,0.40407485,-0.33859676,-0.103634,0.59577143,0.31427982,-0.024811797,-0.18998018,0.2627271,1.1063988,0.17134878,-0.08050546,0.69204175,0.68553257,-0.109347425,-0.15069583,0.42545816,-0.06967614,-0.3196109,-0.45422143,-0.018563904,814.3223,807.8755,792.96704,820.7692,904.9817,-0.28802490234375,0.12860107421875,0.96337890625,0.19439697265625,-1.54022216796875,1.30096435546875,1,1.0,1.0,1.0,1.0,20.00
2024-09-29 18:15:36.620,0.40407485,-0.33859676,-0.103634,0.59577143,0.31427982,-0.024811797,-0.18998018,0.2627271,1.1063988,0.17134878,-0.08050546,0.69204175,0.68553257,-0.109347425,-0.15069583,0.42545816,-0.06967614,-0.3196109,-0.45422143,-0.018563904,815.9341,808.2784,794.17584,816.7399,897.72894,-0.28802490234375,0.12860107421875,0.96337890625,0.19439697265625,-1.54022216796875,1.30096435546875,1,1.0,1.0,1.0,1.0,20.00
2024-09-29 18:15:36.621,0.40407485,-0.33859676,-0.103634,0.59577143,0.31427982,-0.024811797,-0.18998018,0.2627271,1.1063988,0.17134878,-0.08050546,0.69204175,0.68553257,-0.109347425,-0.15069583,0.42545816,-0.06967614,-0.3196109,-0.45422143,-0.018563904,811.50183,808.2784,805.8608,816.337,839.707,-0.28802490234375,0.12860107421875,0.96337890625,0.19439697265625,-1.54022216796875,1.30096435546875,1,1.0,1.0,1.0,1.0,20.00
2024-09-29 18:15:36.669,0.40407485,-0.33859676,-0.103634,0.59577143,0.31427982,-0.024811797,-0.18998018,0.2627271,1.1063988,0.17134878,-0.08050546,0.69204175,0.68553257,-0.109347425,-0.15069583,0.42545816,-0.06967614,-0.3196109,-0.45422143,-0.018563904,810.293,807.8755,808.68134,815.5311,790.54944,-0.286865234375,0.12890625,0.9556884765625,-0.485992431640625,-1.727142333984375,0.64300537109375,1,1.0,1.0,1.0,1.0,20.00
2024-09-29 18:15:36.669,0.40407485,-0.33859676,-0.103634,0.59577143,0.31427982,-0.024811797,-0.18998018,0.2627271,1.1063988,0.17134878,-0.08050546,0.69204175,0.68553257,-0.109347425,-0.15069583,0.42545816,-0.06967614,-0.3196109,-0.45422143,-0.018563904,813.1135,809.0842,803.44324,819.15753,827.2161,-0.286865234375,0.12890625,0.9556884765625,-0.485992431640625,-1.727142333984375,0.64300537109375,1,1.0,1.0,1.0,1.0,20.00
2024-09-29 18:15:36.670,0.40407485,-0.33859676,-0.103634,0.59577143,0.31427982,-0.024811797,-0.18998018,0.2627271,1.1063988,0.17134878,-0.08050546,0.69204175,0.68553257,-0.109347425,-0.15069583,0.42545816,-0.06967614,-0.3196109,-0.45422143,-0.018563904,809.89014,807.47253,801.02563,825.6044,859.85345,-0.286865234375,0.12890625,0.9556884765625,-0.485992431640625,-1.727142333984375,0.64300537109375,1,1.0,1.0,1.0,1.0,20.00
2024-09-29 18:15:36.671,0.40407485,-0.33859676,-0.103634,0.59577143,0.31427982,-0.024811797,-0.18998018,0.2627271,1.1063988,0.17134878,-0.08050546,0.69204175,0.68553257,-0.109347425,-0.15069583,0.42545816,-0.06967614,-0.3196109,-0.45422143,-0.018563904,805.4579,801.8315,800.6227,821.5751,880.0,-0.286865234375,0.12890625,0.9556884765625,-0.485992431640625,-1.727142333984375,0.64300537109375,1,1.0,1.0,1.0,1.0,20.00
2024-09-29 18:15:36.671,0.40407485,-0.33859676,-0.103634,0.59577143,0.31427982,-0.024811797,-0.18998018,0.2627271,1.1063988,0.17134878,-0.08050546,0.69204175,0.68553257,-0.109347425,-0.15069583,0.42545816,-0.06967614,-0.3196109,-0.45422143,-0.018563904,812.3077,803.44324,802.23444,818.3516,936.0073,-0.286865234375,0.12890625,0.9556884765625,-0.485992431640625,-1.727142333984375,0.64300537109375,1,1.0,1.0,1.0,1.0,20.00
2024-09-29 18:15:36.672,0.3620731,-0.33264276,-0.18664919,0.5951959,0.31626132,-0.026061397,-0.2102493,0.2957975,1.050161,0.13114154,-0.079871535,0.7197014,0.67770374,-0.11531959,-0.17451778,0.42850417,-0.07993637,-0.32573462,-0.43905962,-0.020969398,811.9048,807.0696,799.81683,825.2015,1349.414,-0.286865234375,0.12890625,0.9556884765625,-0.485992431640625,-1.727142333984375,0.64300537109375,1,1.0,1.0,1.0,1.0,20.00
2024-09-29 18:15:36.676,0.3620731,-0.33264276,-0.18664919,0.5951959,0.31626132,-0.026061397,-0.2102493,0.2957975,1.050161,0.13114154,-0.079871535,0.7197014,0.67770374,-0.11531959,-0.17451778,0.42850417,-0.07993637,-0.32573462,-0.43905962,-0.020969398,807.8755,803.8461,792.1612,823.1868,1326.044,-0.286865234375,0.12890625,0.9556884765625,-0.485992431640625,-1.727142333984375,0.64300537109375,1,1.0,1.0,1.0,1.0,20.00
2024-09-29 18:15:36.677,0.3620731,-0.33264276,-0.18664919,0.5951959,0.31626132,-0.026061397,-0.2102493,0.2957975,1.050161,0.13114154,-0.079871535,0.7197014,0.67770374,-0.11531959,-0.17451778,0.42850417,-0.07993637,-0.32573462,-0.43905962,-0.020969398,809.4872,799.81683,793.7729,814.3223,909.011,-0.286865234375,0.12890625,0.9556884765625,-0.485992431640625,-1.727142333984375,0.64300537109375,1,1.0,1.0,1.0,1.0,20.00
2024-09-29 18:15:36.678,0.3620731,-0.33264276,-0.18664919,0.5951959,0.31626132,-0.026061397,-0.2102493,0.2957975,1.050161,0.13114154,-0.079871535,0.7197014,0.67770374,-0.11531959,-0.17451778,0.42850417,-0.07993637,-0.32573462,-0.43905962,-0.020969398,809.89014,799.81683,799.011,800.6227,887.6557,-0.286865234375,0.12890625,0.9556884765625,-0.485992431640625,-1.727142333984375,0.64300537109375,1,1.0,1.0,1.0,1.0,20.00
2024-09-29 18:15:36.678,0.3620731,-0.33264276,-0.18664919,0.5951959,0.31626132,-0.026061397,-0.2102493,0.2957975,1.050161,0.13114154,-0.079871535,0.7197014,0.67770374,-0.11531959,-0.17451778,0.42850417,-0.07993637,-0.32573462,-0.43905962,-0.020969398,811.0989,799.41394,800.2198,801.4286,765.9707,-0.286865234375,0.12890625,0.9556884765625,-0.485992431640625,-1.727142333984375,0.64300537109375,1,1.0,1.0,1.0,1.0,20.00
2024-09-29 18:15:36.679,0.3620731,-0.33264276,-0.18664919,0.5951959,0.31626132,-0.026061397,-0.2102493,0.2957975,1.050161,0.13114154,-0.079871535,0.7197014,0.67770374,-0.11531959,-0.17451778,0.42850417,-0.07993637,-0.32573462,-0.43905962,-0.020969398,810.293,800.2198,801.8315,810.696,606.0073,-0.286865234375,0.12890625,0.9556884765625,-0.485992431640625,-1.727142333984375,0.64300537109375,1,1.0,1.0,1.0,1.0,20.00
2024-09-29 18:15:36.679,0.3620731,-0.33264276,-0.18664919,0.5951959,0.31626132,-0.026061397,-0.2102493,0.2957975,1.050161,0.13114154,-0.079871535,0.7197014,0.67770374,-0.11531959,-0.17451778,0.42850417,-0.07993637,-0.32573462,-0.43905962,-0.020969398,815.12823,805.4579,803.44324,816.337,747.8388,-0.286865234375,0.12890625,0.9556884765625,-0.485992431640625,-1.727142333984375,0.64300537109375,1,1.0,1.0,1.0,1.0,20.00
2024-09-29 18:15:36.804,0.3620731,-0.33264276,-0.18664919,0.5951959,0.31626132,-0.026061397,-0.2102493,0.2957975,1.050161,0.13114154,-0.079871535,0.7197014,0.67770374,-0.11531959,-0.17451778,0.42850417,-0.07993637,-0.32573462,-0.43905962,-0.020969398,816.7399,805.4579,803.0403,817.1429,924.3223,-0.2874755859375,0.13287353515625,0.9571533203125,-0.35888671875,-1.353302001953125,0.097198486328125,1,1.0,1.0,1.0,1.0,20.00
2024-09-29 18:15:36.805,0.3620731,-0.33264276,-0.18664919,0.5951959,0.31626132,-0.026061397,-0.2102493,0.2957975,1.050161,0.13114154,-0.079871535,0.7197014,0.67770374,-0.11531959,-0.17451778,0.42850417,-0.07993637,-0.32573462,-0.43905962,-0.020969398,817.1429,803.8461,803.44324,808.2784,732.9304,-0.2874755859375,0.13287353515625,0.9571533203125,-0.35888671875,-1.353302001953125,0.097198486328125,1,1.0,1.0,1.0,1.0,20.00
2024-09-29 18:15:36.805,0.3620731,-0.33264276,-0.18664919,0.5951959,0.31626132,-0.026061397,-0.2102493,0.2957975,1.050161,0.13114154,-0.079871535,0.7197014,0.67770374,-0.11531959,-0.17451778,0.42850417,-0.07993637,-0.32573462,-0.43905962,-0.020969398,818.3516,804.65204,802.6374,811.50183,616.08057,-0.2874755859375,0.13287353515625,0.9571533203125,-0.35888671875,-1.353302001953125,0.097198486328125,1,1.0,1.0,1.0,1.0,20.00
2024-09-29 18:15:36.806,0.3620731,-0.33264276,-0.18664919,0.5951959,0.31626132,-0.026061397,-0.2102493,0.2957975,1.050161,0.13114154,-0.079871535,0.7197014,0.67770374,-0.11531959,-0.17451778,0.42850417,-0.07993637,-0.32573462,-0.43905962,-0.020969398,818.3516,803.8461,799.41394,820.7692,750.2564,-0.2874755859375,0.13287353515625,0.9571533203125,-0.35888671875,-1.353302001953125,0.097198486328125,1,1.0,1.0,1.0,1.0,20.00
2024-09-29 18:15:36.806,0.3620731,-0.33264276,-0.18664919,0.5951959,0.31626132,-0.026061397,-0.2102493,0.2957975,1.050161,0.13114154,-0.079871535,0.7197014,0.67770374,-0.11531959,-0.17451778,0.42850417,-0.07993637,-0.32573462,-0.43905962,-0.020969398,820.3663,801.8315,803.0403,820.7692,708.3516,-0.2874755859375,0.13287353515625,0.9571533203125,-0.35888671875,-1.353302001953125,0.097198486328125,1,1.0,1.0,1.0,1.0,20.00
2024-09-29 18:15:36.807,0.3620731,-0.33264276,-0.18664919,0.5951959,0.31626132,-0.026061397,-0.2102493,0.2957975,1.050161,0.13114154,-0.079871535,0.7197014,0.67770374,-0.11531959,-0.17451778,0.42850417,-0.07993637,-0.32573462,-0.43905962,-0.020969398,822.7839,799.011,807.47253,811.50183,716.8132,-0.2874755859375,0.13287353515625,0.9571533203125,-0.35888671875,-1.353302001953125,0.097198486328125,1,1.0,1.0,1.0,1.0,20.00
2024-09-29 18:15:36.807,0.3620731,-0.33264276,-0.18664919,0.5951959,0.31626132,-0.026061397,-0.2102493,0.2957975,1.050161,0.13114154,-0.079871535,0.7197014,0.67770374,-0.11531959,-0.17451778,0.42850417,-0.07993637,-0.32573462,-0.43905962,-0.020969398,822.7839,804.65204,805.8608,809.4872,826.0073,-0.2874755859375,0.13287353515625,0.9571533203125,-0.35888671875,-1.353302001953125,0.097198486328125,1,1.0,1.0,1.0,1.0,20.00
2024-09-29 18:15:36.808,0.3620731,-0.33264276,-0.18664919,0.5951959,0.31626132,-0.026061397,-0.2102493,0.2957975,1.050161,0.13114154,-0.079871535,0.7197014,0.67770374,-0.11531959,-0.17451778,0.42850417,-0.07993637,-0.32573462,-0.43905962,-0.020969398,826.0073,813.91943,804.65204,815.9341,842.52747,-0.2874755859375,0.13287353515625,0.9571533203125,-0.35888671875,-1.353302001953125,0.097198486328125,1,1.0,1.0,1.0,1.0,20.00
2024-09-29 18:15:36.809,0.3620731,-0.33264276,-0.18664919,0.5951959,0.31626132,-0.026061397,-0.2102493,0.2957975,1.050161,0.13114154,-0.079871535,0.7197014,0.67770374,-0.11531959,-0.17451778,0.42850417,-0.07993637,-0.32573462,-0.43905962,-0.020969398,832.4542,810.696,804.2491,828.4249,1104.8352,-0.2874755859375,0.13287353515625,0.9571533203125,-0.35888671875,-1.353302001953125,0.097198486328125,1,1.0,1.0,1.0,1.0,20.00
2024-09-29 18:15:36.809,0.3620731,-0.33264276,-0.18664919,0.5951959,0.31626132,-0.026061397,-0.2102493,0.2957975,1.050161,0.13114154,-0.079871535,0.7197014,0.67770374,-0.11531959,-0.17451778,0.42850417,-0.07993637,-0.32573462,-0.43905962,-0.020969398,836.4835,807.8755,805.4579,819.5604,891.28204,-0.2874755859375,0.13287353515625,0.9571533203125,-0.35888671875,-1.353302001953125,0.097198486328125,1,1.0,1.0,1.0,1.0,20.00
2024-09-29 18:15:36.810,0.3620731,-0.33264276,-0.18664919,0.5951959,0.31626132,-0.026061397,-0.2102493,0.2957975,1.050161,0.13114154,-0.079871535,0.7197014,0.67770374,-0.11531959,-0.17451778,0.42850417,-0.07993637,-0.32573462,-0.43905962,-0.020969398,838.49817,810.696,807.8755,808.68134,570.54944,-0.2874755859375,0.13287353515625,0.9571533203125,-0.35888671875,-1.353302001953125,0.097198486328125,1,1.0,1.0,1.0,1.0,20.00
2024-09-29 18:15:36.810,0.3620731,-0.33264276,-0.18664919,0.5951959,0.31626132,-0.026061397,-0.2102493,0.2957975,1.050161,0.13114154,-0.079871535,0.7197014,0.67770374,-0.11531959,-0.17451778,0.42850417,-0.07993637,-0.32573462,-0.43905962,-0.020969398,838.0952,809.0842,804.2491,817.9487,753.0769,-0.2874755859375,0.13287353515625,0.9571533203125,-0.35888671875,-1.353302001953125,0.097198486328125,1,1.0,1.0,1.0,1.0,20.00
2024-09-29 18:15:36.837,0.3620731,-0.33264276,-0.18664919,0.5951959,0.31626132,-0.026061397,-0.2102493,0.2957975,1.050161,0.13114154,-0.079871535,0.7197014,0.67770374,-0.11531959,-0.17451778,0.42850417,-0.07993637,-0.32573462,-0.43905962,-0.020969398,826.8132,805.8608,800.6227,814.3223,928.7546,-0.28582763671875,0.13165283203125,0.96649169921875,-1.323394775390625,-0.6878662109375,0.58319091796875,1,1.0,1.0,1.0,1.0,20.00
2024-09-29 18:15:36.838,0.3620731,-0.33264276,-0.18664919,0.5951959,0.31626132,-0.026061397,-0.2102493,0.2957975,1.050161,0.13114154,-0.079871535,0.7197014,0.67770374,-0.11531959,-0.17451778,0.42850417,-0.07993637,-0.32573462,-0.43905962,-0.020969398,828.8278,807.47253,806.6667,813.91943,724.4689,-0.28582763671875,0.13165283203125,0.96649169921875,-1.323394775390625,-0.6878662109375,0.58319091796875,1,1.0,1.0,1.0,1.0,20.00
2024-09-29 18:15:36.839,0.3620731,-0.33264276,-0.18664919,0.5951959,0.31626132,-0.026061397,-0.2102493,0.2957975,1.050161,0.13114154,-0.079871535,0.7197014,0.67770374,-0.11531959,-0.17451778,0.42850417,-0.07993637,-0.32573462,-0.43905962,-0.020969398,834.0659,807.8755,807.47253,819.5604,562.49084,-0.28582763671875,0.13165283203125,0.96649169921875,-1.323394775390625,-0.6878662109375,0.58319091796875,1,1.0,1.0,1.0,1.0,20.00
2024-09-29 18:15:36.840,0.3620731,-0.33264276,-0.18664919,0.5951959,0.31626132,-0.026061397,-0.2102493,0.2957975,1.050161,0.13114154,-0.079871535,0.7197014,0.67770374,-0.11531959,-0.17451778,0.42850417,-0.07993637,-0.32573462,-0.43905962,-0.020969398,821.978,801.4286,802.6374,816.7399,740.58606,-0.28582763671875,0.13165283203125,0.96649169921875,-1.323394775390625,-0.6878662109375,0.58319091796875,1,1.0,1.0,1.0,1.0,20.00
2024-09-29 18:15:36.840,0.3620731,-0.33264276,-0.18664919,0.5951959,0.31626132,-0.026061397,-0.2102493,0.2957975,1.050161,0.13114154,-0.079871535,0.7197014,0.67770374,-0.11531959,-0.17451778,0.42850417,-0.07993637,-0.32573462,-0.43905962,-0.020969398,822.7839,800.2198,809.0842,820.3663,823.9927,-0.28582763671875,0.13165283203125,0.96649169921875,-1.323394775390625,-0.6878662109375,0.58319091796875,1,1.0,1.0,1.0,1.0,20.00
2024-09-29 18:15:36.841,0.3620731,-0.33264276,-0.18664919,0.5951959,0.31626132,-0.026061397,-0.2102493,0.2957975,1.050161,0.13114154,-0.079871535,0.7197014,0.67770374,-0.11531959,-0.17451778,0.42850417,-0.07993637,-0.32573462,-0.43905962,-0.020969398,819.9634,799.011,807.0696,823.9927,749.85345,-0.28582763671875,0.13165283203125,0.96649169921875,-1.323394775390625,-0.6878662109375,0.58319091796875,1,1.0,1.0,1.0,1.0,20.00
2024-09-29 18:15:36.841,0.3620731,-0.33264276,-0.18664919,0.5951959,0.31626132,-0.026061397,-0.2102493,0.2957975,1.050161,0.13114154,-0.079871535,0.7197014,0.67770374,-0.11531959,-0.17451778,0.42850417,-0.07993637,-0.32573462,-0.43905962,-0.020969398,811.0989,797.3993,799.011,817.1429,712.7839,-0.28582763671875,0.13165283203125,0.96649169921875,-1.323394775390625,-0.6878662109375,0.58319091796875,1,1.0,1.0,1.0,1.0,20.00
2024-09-29 18:15:36.842,0.3448767,-0.2716878,-0.26122516,0.59757435,0.32145545,-0.016558748,-0.21393894,0.3456147,0.93510824,0.14650586,-0.079871535,0.7692885,0.67776394,-0.12594223,-0.18071967,0.433408,-0.07344241,-0.3211067,-0.43749946,-0.014141619,813.91943,796.5934,799.011,814.7253,942.0513,-0.28582763671875,0.13165283203125,0.96649169921875,-1.323394775390625,-0.6878662109375,0.58319091796875,1,1.0,1.0,1.0,1.0,20.00
2024-09-29 18:15:36.847,0.3448767,-0.2716878,-0.26122516,0.59757435,0.32145545,-0.016558748,-0.21393894,0.3456147,0.93510824,0.14650586,-0.079871535,0.7692885,0.67776394,-0.12594223,-0.18071967,0.433408,-0.07344241,-0.3211067,-0.43749946,-0.014141619,813.1135,793.7729,798.60803,817.9487,1107.6556,-0.28582763671875,0.13165283203125,0.96649169921875,-1.323394775390625,-0.6878662109375,0.58319091796875,1,1.0,1.0,1.0,1.0,20.00
2024-09-29 18:15:36.848,0.3448767,-0.2716878,-0.26122516,0.59757435,0.32145545,-0.016558748,-0.21393894,0.3456147,0.93510824,0.14650586,-0.079871535,0.7692885,0.67776394,-0.12594223,-0.18071967,0.433408,-0.07344241,-0.3211067,-0.43749946,-0.014141619,815.5311,804.2491,801.8315,813.5165,871.9414,-0.28582763671875,0.13165283203125,0.96649169921875,-1.323394775390625,-0.6878662109375,0.58319091796875,1,1.0,1.0,1.0,1.0,20.00
2024-09-29 18:15:36.848,0.3448767,-0.2716878,-0.26122516,0.59757435,0.32145545,-0.016558748,-0.21393894,0.3456147,0.93510824,0.14650586,-0.079871535,0.7692885,0.67776394,-0.12594223,-0.18071967,0.433408,-0.07344241,-0.3211067,-0.43749946,-0.014141619,817.1429,810.696,801.4286,808.68134,698.2784,-0.28582763671875,0.13165283203125,0.96649169921875,-1.323394775390625,-0.6878662109375,0.58319091796875,1,1.0,1.0,1.0,1.0,20.00
2024-09-29 18:15:36.849,0.3448767,-0.2716878,-0.26122516,0.59757435,0.32145545,-0.016558748,-0.21393894,0.3456147,0.93510824,0.14650586,-0.079871535,0.7692885,0.67776394,-0.12594223,-0.18071967,0.433408,-0.07344241,-0.3211067,-0.43749946,-0.014141619,815.5311,807.8755,801.02563,809.0842,761.9414,-0.28582763671875,0.13165283203125,0.96649169921875,-1.323394775390625,-0.6878662109375,0.58319091796875,1,1.0,1.0,1.0,1.0,20.00
2024-09-29 18:15:36.850,0.3448767,-0.2716878,-0.26122516,0.59757435,0.32145545,-0.016558748,-0.21393894,0.3456147,0.93510824,0.14650586,-0.079871535,0.7692885,0.67776394,-0.12594223,-0.18071967,0.433408,-0.07344241,-0.3211067,-0.43749946,-0.014141619,815.9341,804.2491,802.23444,809.0842,862.27106,-0.28582763671875,0.13165283203125,0.96649169921875,-1.323394775390625,-0.6878662109375,0.58319091796875,1,1.0,1.0,1.0,1.0,20.00
2024-09-29 18:15:36.850,0.3448767,-0.2716878,-0.26122516,0.59757435,0.32145545,-0.016558748,-0.21393894,0.3456147,0.93510824,0.14650586,-0.079871535,0.7692885,0.67776394,-0.12594223,-0.18071967,0.433408,-0.07344241,-0.3211067,-0.43749946,-0.014141619,814.7253,803.8461,802.6374,813.5165,786.9231,-0.28582763671875,0.13165283203125,0.96649169921875,-1.323394775390625,-0.6878662109375,0.58319091796875,1,1.0,1.0,1.0,1.0,20.00
2024-09-29 18:15:36.851,0.3448767,-0.2716878,-0.26122516,0.59757435,0.32145545,-0.016558748,-0.21393894,0.3456147,0.93510824,0.14650586,-0.079871535,0.7692885,0.67776394,-0.12594223,-0.18071967,0.433408,-0.07344241,-0.3211067,-0.43749946,-0.014141619,809.4872,805.05493,803.0403,816.337,745.42126,-0.28582763671875,0.13165283203125,0.96649169921875,-1.323394775390625,-0.6878662109375,0.58319091796875,1,1.0,1.0,1.0,1.0,20.00
2024-09-29 18:15:36.851,0.3448767,-0.2716878,-0.26122516,0.59757435,0.32145545,-0.016558748,-0.21393894,0.3456147,0.93510824,0.14650586,-0.079871535,0.7692885,0.67776394,-0.12594223,-0.18071967,0.433408,-0.07344241,-0.3211067,-0.43749946,-0.014141619,816.337,803.0403,803.8461,813.1135,836.4835,-0.28582763671875,0.13165283203125,0.96649169921875,-1.323394775390625,-0.6878662109375,0.58319091796875,1,1.0,1.0,1.0,1.0,20.00
2024-09-29 18:15:36.852,0.3448767,-0.2716878,-0.26122516,0.59757435,0.32145545,-0.016558748,-0.21393894,0.3456147,0.93510824,0.14650586,-0.079871535,0.7692885,0.67776394,-0.12594223,-0.18071967,0.433408,-0.07344241,-0.3211067,-0.43749946,-0.014141619,817.9487,803.0403,806.26373,813.5165,793.36993,-0.28582763671875,0.13165283203125,0.96649169921875,-1.323394775390625,-0.6878662109375,0.58319091796875,1,1.0,1.0,1.0,1.0,20.00
2024-09-29 18:15:36.852,0.3448767,-0.2716878,-0.26122516,0.59757435,0.32145545,-0.016558748,-0.21393894,0.3456147,0.93510824,0.14650586,-0.079871535,0.7692885,0.67776394,-0.12594223,-0.18071967,0.433408,-0.07344241,-0.3211067,-0.43749946,-0.014141619,808.2784,803.8461,805.8608,813.91943,848.97437,-0.28582763671875,0.13165283203125,0.96649169921875,-1.323394775390625,-0.6878662109375,0.58319091796875,1,1.0,1.0,1.0,1.0,20.00
2024-09-29 18:15:36.853,0.3448767,-0.2716878,-0.26122516,0.59757435,0.32145545,-0.016558748,-0.21393894,0.3456147,0.93510824,0.14650586,-0.079871535,0.7692885,0.67776394,-0.12594223,-0.18071967,0.433408,-0.07344241,-0.3211067,-0.43749946,-0.014141619,817.1429,805.4579,799.81683,807.47253,959.3773,-0.28582763671875,0.13165283203125,0.96649169921875,-1.323394775390625,-0.6878662109375,0.58319091796875,1,1.0,1.0,1.0,1.0,20.00
2024-09-29 18:15:36.854,0.3448767,-0.2716878,-0.26122516,0.59757435,0.32145545,-0.016558748,-0.21393894,0.3456147,0.93510824,0.14650586,-0.079871535,0.7692885,0.67776394,-0.12594223,-0.18071967,0.433408,-0.07344241,-0.3211067,-0.43749946,-0.014141619,824.3956,804.65204,797.3993,802.6374,881.2088,-0.28582763671875,0.13165283203125,0.96649169921875,-1.323394775390625,-0.6878662109375,0.58319091796875,1,1.0,1.0,1.0,1.0,20.00
2024-09-29 18:15:36.854,0.3448767,-0.2716878,-0.26122516,0.59757435,0.32145545,-0.016558748,-0.21393894,0.3456147,0.93510824,0.14650586,-0.079871535,0.7692885,0.67776394,-0.12594223,-0.18071967,0.433408,-0.07344241,-0.3211067,-0.43749946,-0.014141619,815.9341,803.0403,799.41394,806.26373,860.65936,-0.28582763671875,0.13165283203125,0.96649169921875,-1.323394775390625,-0.6878662109375,0.58319091796875,1,1.0,1.0,1.0,1.0,20.00
2024-09-29 18:15:36.855,0.3448767,-0.2716878,-0.26122516,0.59757435,0.32145545,-0.016558748,-0.21393894,0.3456147,0.93510824,0.14650586,-0.079871535,0.7692885,0.67776394,-0.12594223,-0.18071967,0.433408,-0.07344241,-0.3211067,-0.43749946,-0.014141619,814.7253,808.68134,803.0403,811.0989,900.14655,-0.28582763671875,0.13165283203125,0.96649169921875,-1.323394775390625,-0.6878662109375,0.58319091796875,1,1.0,1.0,1.0,1.0,20.00
2024-09-29 18:15:36.855,0.3448767,-0.2716878,-0.26122516,0.59757435,0.32145545,-0.016558748,-0.21393894,0.3456147,0.93510824,0.14650586,-0.079871535,0.7692885,0.67776394,-0.12594223,-0.18071967,0.433408,-0.07344241,-0.3211067,-0.43749946,-0.014141619,816.7399,803.8461,800.2198,811.0989,911.4286,-0.28582763671875,0.13165283203125,0.96649169921875,-1.323394775390625,-0.6878662109375,0.58319091796875,1,1.0,1.0,1.0,1.0,20.00
2024-09-29 18:15:36.856,0.3448767,-0.2716878,-0.26122516,0.59757435,0.32145545,-0.016558748,-0.21393894,0.3456147,0.93510824,0.14650586,-0.079871535,0.7692885,0.67776394,-0.12594223,-0.18071967,0.433408,-0.07344241,-0.3211067,-0.43749946,-0.014141619,814.7253,795.78754,799.011,810.696,925.9341,-0.28582763671875,0.13165283203125,0.96649169921875,-1.323394775390625,-0.6878662109375,0.58319091796875,1,1.0,1.0,1.0,1.0,20.00
2024-09-29 18:15:36.877,0.3448767,-0.2716878,-0.26122516,0.59757435,0.32145545,-0.016558748,-0.21393894,0.3456147,0.93510824,0.14650586,-0.079871535,0.7692885,0.67776394,-0.12594223,-0.18071967,0.433408,-0.07344241,-0.3211067,-0.43749946,-0.014141619,814.7253,802.23444,803.0403,807.0696,776.04395,-0.29541015625,0.1212158203125,0.95361328125,-1.51031494140625,-1.114044189453125,-0.0897216796875,1,1.0,1.0,1.0,1.0,20.00
2024-09-29 18:15:36.878,0.3448767,-0.2716878,-0.26122516,0.59757435,0.32145545,-0.016558748,-0.21393894,0.3456147,0.93510824,0.14650586,-0.079871535,0.7692885,0.67776394,-0.12594223,-0.18071967,0.433408,-0.07344241,-0.3211067,-0.43749946,-0.014141619,814.3223,807.0696,805.8608,807.0696,778.0586,-0.29541015625,0.1212158203125,0.95361328125,-1.51031494140625,-1.114044189453125,-0.0897216796875,1,1.0,1.0,1.0,1.0,20.00
2024-09-29 18:15:36.879,0.3448767,-0.2716878,-0.26122516,0.59757435,0.32145545,-0.016558748,-0.21393894,0.3456147,0.93510824,0.14650586,-0.079871535,0.7692885,0.67776394,-0.12594223,-0.18071967,0.433408,-0.07344241,-0.3211067,-0.43749946,-0.014141619,811.50183,805.8608,804.2491,813.91943,999.2674,-0.29541015625,0.1212158203125,0.95361328125,-1.51031494140625,-1.114044189453125,-0.0897216796875,1,1.0,1.0,1.0,1.0,20.00
2024-09-29 18:15:36.879,0.3448767,-0.2716878,-0.26122516,0.59757435,0.32145545,-0.016558748,-0.21393894,0.3456147,0.93510824,0.14650586,-0.079871535,0.7692885,0.67776394,-0.12594223,-0.18071967,0.433408,-0.07344241,-0.3211067,-0.43749946,-0.014141619,809.4872,800.2198,799.81683,811.9048,1103.2234,-0.29541015625,0.1212158203125,0.95361328125,-1.51031494140625,-1.114044189453125,-0.0897216796875,1,1.0,1.0,1.0,1.0,20.00
2024-09-29 18:15:36.880,0.3448767,-0.2716878,-0.26122516,0.59757435,0.32145545,-0.016558748,-0.21393894,0.3456147,0.93510824,0.14650586,-0.079871535,0.7692885,0.67776394,-0.12594223,-0.18071967,0.433408,-0.07344241,-0.3211067,-0.43749946,-0.014141619,813.1135,803.0403,801.4286,811.50183,793.7729,-0.29541015625,0.1212158203125,0.95361328125,-1.51031494140625,-1.114044189453125,-0.0897216796875,1,1.0,1.0,1.0,1.0,20.00
2024-09-29 18:15:36.880,0.3448767,-0.2716878,-0.26122516,0.59757435,0.32145545,-0.016558748,-0.21393894,0.3456147,0.93510824,0.14650586,-0.079871535,0.7692885,0.67776394,-0.12594223,-0.18071967,0.433408,-0.07344241,-0.3211067,-0.43749946,-0.014141619,821.5751,810.293,805.05493,823.5897,842.52747,-0.29541015625,0.1212158203125,0.95361328125,-1.51031494140625,-1.114044189453125,-0.0897216796875,1,1.0,1.0,1.0,1.0,20.00
2024-09-29 18:15:36.881,0.3448767,-0.2716878,-0.26122516,0.59757435,0.32145545,-0.016558748,-0.21393894,0.3456147,0.93510824,0.14650586,-0.079871535,0.7692885,0.67776394,-0.12594223,-0.18071967,0.433408,-0.07344241,-0.3211067,-0.43749946,-0.014141619,819.5604,807.8755,808.68134,822.381,1106.8499,-0.29541015625,0.1212158203125,0.95361328125,-1.51031494140625,-1.114044189453125,-0.0897216796875,1,1.0,1.0,1.0,1.0,20.00
2024-09-29 18:15:36.881,0.3448767,-0.2716878,-0.26122516,0.59757435,0.32145545,-0.016558748,-0.21393894,0.3456147,0.93510824,0.14650586,-0.079871535,0.7692885,0.67776394,-0.12594223,-0.18071967,0.433408,-0.07344241,-0.3211067,-0.43749946,-0.014141619,820.7692,807.0696,809.0842,809.4872,974.68866,-0.29541015625,0.1212158203125,0.95361328125,-1.51031494140625,-1.114044189453125,-0.0897216796875,1,1.0,1.0,1.0,1.0,20.00
2024-09-29 18:15:36.882,0.3448767,-0.2716878,-0.26122516,0.59757435,0.32145545,-0.016558748,-0.21393894,0.3456147,0.93510824,0.14650586,-0.079871535,0.7692885,0.67776394,-0.12594223,-0.18071967,0.433408,-0.07344241,-0.3211067,-0.43749946,-0.014141619,825.6044,811.0989,805.8608,805.8608,670.4762,-0.29541015625,0.1212158203125,0.95361328125,-1.51031494140625,-1.114044189453125,-0.0897216796875,1,1.0,1.0,1.0,1.0,20.00
2024-09-29 18:15:36.883,0.36086267,-0.17460674,-0.3098693,0.6034401,0.33255303,-0.004380626,-0.21145546,0.39661488,0.80639863,0.18462831,-0.079871535,0.7984284,0.68174416,-0.14045116,-0.17676467,0.43863258,-0.052548066,-0.3064015,-0.43988383,-9.989257E-4,821.978,808.68134,807.0696,809.4872,692.6374,-0.29541015625,0.1212158203125,0.95361328125,-1.51031494140625,-1.114044189453125,-0.0897216796875,1,1.0,1.0,1.0,1.0,20.00
2024-09-29 18:15:36.888,0.36086267,-0.17460674,-0.3098693,0.6034401,0.33255303,-0.004380626,-0.21145546,0.39661488,0.80639863,0.18462831,-0.079871535,0.7984284,0.68174416,-0.14045116,-0.17676467,0.43863258,-0.052548066,-0.3064015,-0.43988383,-9.989257E-4,820.3663,805.05493,810.696,815.9341,1075.0183,-0.29541015625,0.1212158203125,0.95361328125,-1.51031494140625,-1.114044189453125,-0.0897216796875,1,1.0,1.0,1.0,1.0,20.00
2024-09-29 18:15:36.888,0.36086267,-0.17460674,-0.3098693,0.6034401,0.33255303,-0.004380626,-0.21145546,0.39661488,0.80639863,0.18462831,-0.079871535,0.7984284,0.68174416,-0.14045116,-0.17676467,0.43863258,-0.052548066,-0.3064015,-0.43988383,-9.989257E-4,827.619,809.0842,807.47253,811.0989,1011.3553,-0.29541015625,0.1212158203125,0.95361328125,-1.51031494140625,-1.114044189453125,-0.0897216796875,1,1.0,1.0,1.0,1.0,20.00
2024-09-29 18:15:36.910,0.36086267,-0.17460674,-0.3098693,0.6034401,0.33255303,-0.004380626,-0.21145546,0.39661488,0.80639863,0.18462831,-0.079871535,0.7984284,0.68174416,-0.14045116,-0.17676467,0.43863258,-0.052548066,-0.3064015,-0.43988383,-9.989257E-4,829.2308,805.8608,800.2198,807.0696,664.43225,-0.2877197265625,0.12200927734375,0.960205078125,-1.592559814453125,-1.667327880859375,0.097198486328125,1,1.0,1.0,1.0,1.0,20.00
2024-09-29 18:15:36.910,0.36086267,-0.17460674,-0.3098693,0.6034401,0.33255303,-0.004380626,-0.21145546,0.39661488,0.80639863,0.18462831,-0.079871535,0.7984284,0.68174416,-0.14045116,-0.17676467,0.43863258,-0.052548066,-0.3064015,-0.43988383,-9.989257E-4,824.3956,804.2491,805.05493,806.6667,669.2674,-0.2877197265625,0.12200927734375,0.960205078125,-1.592559814453125,-1.667327880859375,0.097198486328125,1,1.0,1.0,1.0,1.0,20.00
2024-09-29 18:15:36.911,0.36086267,-0.17460674,-0.3098693,0.6034401,0.33255303,-0.004380626,-0.21145546,0.39661488,0.80639863,0.18462831,-0.079871535,0.7984284,0.68174416,-0.14045116,-0.17676467,0.43863258,-0.052548066,-0.3064015,-0.43988383,-9.989257E-4,817.1429,807.0696,806.6667,816.337,1031.5018,-0.2877197265625,0.12200927734375,0.960205078125,-1.592559814453125,-1.667327880859375,0.097198486328125,1,1.0,1.0,1.0,1.0,20.00
2024-09-29 18:15:36.912,0.36086267,-0.17460674,-0.3098693,0.6034401,0.33255303,-0.004380626,-0.21145546,0.39661488,0.80639863,0.18462831,-0.079871535,0.7984284,0.68174416,-0.14045116,-0.17676467,0.43863258,-0.052548066,-0.3064015,-0.43988383,-9.989257E-4,814.3223,803.44324,802.23444,828.022,1312.3444,-0.2877197265625,0.12200927734375,0.960205078125,-1.592559814453125,-1.667327880859375,0.097198486328125,1,1.0,1.0,1.0,1.0,20.00
2024-09-29 18:15:36.912,0.36086267,-0.17460674,-0.3098693,0.6034401,0.33255303,-0.004380626,-0.21145546,0.39661488,0.80639863,0.18462831,-0.079871535,0.7984284,0.68174416,-0.14045116,-0.17676467,0.43863258,-0.052548066,-0.3064015,-0.43988383,-9.989257E-4,816.7399,805.8608,804.65204,814.7253,861.06226,-0.2877197265625,0.12200927734375,0.960205078125,-1.592559814453125,-1.667327880859375,0.097198486328125,1,1.0,1.0,1.0,1.0,20.00
2024-09-29 18:15:36.913,0.36086267,-0.17460674,-0.3098693,0.6034401,0.33255303,-0.004380626,-0.21145546,0.39661488,0.80639863,0.18462831,-0.079871535,0.7984284,0.68174416,-0.14045116,-0.17676467,0.43863258,-0.052548066,-0.3064015,-0.43988383,-9.989257E-4,815.9341,805.8608,805.8608,805.4579,703.91943,-0.2877197265625,0.12200927734375,0.960205078125,-1.592559814453125,-1.667327880859375,0.097198486328125,1,1.0,1.0,1.0,1.0,20.00
2024-09-29 18:15:36.913,0.36086267,-0.17460674,-0.3098693,0.6034401,0.33255303,-0.004380626,-0.21145546,0.39661488,0.80639863,0.18462831,-0.079871535,0.7984284,0.68174416,-0.14045116,-0.17676467,0.43863258,-0.052548066,-0.3064015,-0.43988383,-9.989257E-4,818.3516,803.8461,807.0696,812.3077,989.19415,-0.2877197265625,0.12200927734375,0.960205078125,-1.592559814453125,-1.667327880859375,0.097198486328125,1,1.0,1.0,1.0,1.0,20.00
2024-09-29 18:15:36.914,0.36086267,-0.17460674,-0.3098693,0.6034401,0.33255303,-0.004380626,-0.21145546,0.39661488,0.80639863,0.18462831,-0.079871535,0.7984284,0.68174416,-0.14045116,-0.17676467,0.43863258,-0.052548066,-0.3064015,-0.43988383,-9.989257E-4,818.3516,799.81683,807.0696,810.293,908.20514,-0.2877197265625,0.12200927734375,0.960205078125,-1.592559814453125,-1.667327880859375,0.097198486328125,1,1.0,1.0,1.0,1.0,20.00
2024-09-29 18:15:36.914,0.36086267,-0.17460674,-0.3098693,0.6034401,0.33255303,-0.004380626,-0.21145546,0.39661488,0.80639863,0.18462831,-0.079871535,0.7984284,0.68174416,-0.14045116,-0.17676467,0.43863258,-0.052548066,-0.3064015,-0.43988383,-9.989257E-4,817.5458,798.20514,802.23444,810.696,690.2198,-0.2877197265625,0.12200927734375,0.960205078125,-1.592559814453125,-1.667327880859375,0.097198486328125,1,1.0,1.0,1.0,1.0,20.00
2024-09-29 18:15:36.915,0.36086267,-0.17460674,-0.3098693,0.6034401,0.33255303,-0.004380626,-0.21145546,0.39661488,0.80639863,0.18462831,-0.079871535,0.7984284,0.68174416,-0.14045116,-0.17676467,0.43863258,-0.052548066,-0.3064015,-0.43988383,-9.989257E-4,819.15753,796.1905,796.1905,810.293,602.381,-0.2877197265625,0.12200927734375,0.960205078125,-1.592559814453125,-1.667327880859375,0.097198486328125,1,1.0,1.0,1.0,1.0,20.00
2024-09-29 18:15:36.915,0.36086267,-0.17460674,-0.3098693,0.6034401,0.33255303,-0.004380626,-0.21145546,0.39661488,0.80639863,0.18462831,-0.079871535,0.7984284,0.68174416,-0.14045116,-0.17676467,0.43863258,-0.052548066,-0.3064015,-0.43988383,-9.989257E-4,812.3077,794.9817,798.20514,808.68134,976.7033,-0.2877197265625,0.12200927734375,0.960205078125,-1.592559814453125,-1.667327880859375,0.097198486328125,1,1.0,1.0,1.0,1.0,20.00
2024-09-29 18:15:36.916,0.36086267,-0.17460674,-0.3098693,0.6034401,0.33255303,-0.004380626,-0.21145546,0.39661488,0.80639863,0.18462831,-0.079871535,0.7984284,0.68174416,-0.14045116,-0.17676467,0.43863258,-0.052548066,-0.3064015,-0.43988383,-9.989257E-4,805.4579,795.78754,803.0403,805.4579,955.34796,-0.2877197265625,0.12200927734375,0.960205078125,-1.592559814453125,-1.667327880859375,0.097198486328125,1,1.0,1.0,1.0,1.0,20.00
2024-09-29 18:15:36.971,0.36086267,-0.17460674,-0.3098693,0.6034401,0.33255303,-0.004380626,-0.21145546,0.39661488,0.80639863,0.18462831,-0.079871535,0.7984284,0.68174416,-0.14045116,-0.17676467,0.43863258,-0.052548066,-0.3064015,-0.43988383,-9.989257E-4,808.2784,796.5934,803.0403,805.05493,592.3077,-0.290771484375,0.113525390625,0.965087890625,-1.79443359375,-2.699127197265625,0.58319091796875,1,1.0,1.0,1.0,1.0,20.00
2024-09-29 18:15:36.972,0.36086267,-0.17460674,-0.3098693,0.6034401,0.33255303,-0.004380626,-0.21145546,0.39661488,0.80639863,0.18462831,-0.079871535,0.7984284,0.68174416,-0.14045116,-0.17676467,0.43863258,-0.052548066,-0.3064015,-0.43988383,-9.989257E-4,812.71063,799.41394,801.8315,806.6667,659.59705,-0.290771484375,0.113525390625,0.965087890625,-1.79443359375,-2.699127197265625,0.58319091796875,1,1.0,1.0,1.0,1.0,20.00
2024-09-29 18:15:36.973,0.36086267,-0.17460674,-0.3098693,0.6034401,0.33255303,-0.004380626,-0.21145546,0.39661488,0.80639863,0.18462831,-0.079871535,0.7984284,0.68174416,-0.14045116,-0.17676467,0.43863258,-0.052548066,-0.3064015,-0.43988383,-9.989257E-4,810.696,800.2198,799.41394,802.23444,836.08057,-0.290771484375,0.113525390625,0.965087890625,-1.79443359375,-2.699127197265625,0.58319091796875,1,1.0,1.0,1.0,1.0,20.00
2024-09-29 18:15:36.974,0.36086267,-0.17460674,-0.3098693,0.6034401,0.33255303,-0.004380626,-0.21145546,0.39661488,0.80639863,0.18462831,-0.079871535,0.7984284,0.68174416,-0.14045116,-0.17676467,0.43863258,-0.052548066,-0.3064015,-0.43988383,-9.989257E-4,807.0696,798.60803,795.38464,796.5934,831.2454,-0.290771484375,0.113525390625,0.965087890625,-1.79443359375,-2.699127197265625,0.58319091796875,1,1.0,1.0,1.0,1.0,20.00
2024-09-29 18:15:36.974,0.36086267,-0.17460674,-0.3098693,0.6034401,0.33255303,-0.004380626,-0.21145546,0.39661488,0.80639863,0.18462831,-0.079871535,0.7984284,0.68174416,-0.14045116,-0.17676467,0.43863258,-0.052548066,-0.3064015,-0.43988383,-9.989257E-4,815.12823,796.5934,797.3993,803.44324,733.3333,-0.290771484375,0.113525390625,0.965087890625,-1.79443359375,-2.699127197265625,0.58319091796875,1,1.0,1.0,1.0,1.0,20.00
2024-09-29 18:15:36.975,0.36086267,-0.17460674,-0.3098693,0.6034401,0.33255303,-0.004380626,-0.21145546,0.39661488,0.80639863,0.18462831,-0.079871535,0.7984284,0.68174416,-0.14045116,-0.17676467,0.43863258,-0.052548066,-0.3064015,-0.43988383,-9.989257E-4,821.978,793.7729,796.1905,813.1135,841.7216,-0.290771484375,0.113525390625,0.965087890625,-1.79443359375,-2.699127197265625,0.58319091796875,1,1.0,1.0,1.0,1.0,20.00
2024-09-29 18:15:36.976,0.36086267,-0.17460674,-0.3098693,0.6034401,0.33255303,-0.004380626,-0.21145546,0.39661488,0.80639863,0.18462831,-0.079871535,0.7984284,0.68174416,-0.14045116,-0.17676467,0.43863258,-0.052548066,-0.3064015,-0.43988383,-9.989257E-4,817.5458,794.9817,790.54944,813.1135,969.45056,-0.290771484375,0.113525390625,0.965087890625,-1.79443359375,-2.699127197265625,0.58319091796875,1,1.0,1.0,1.0,1.0,20.00
2024-09-29 18:15:36.976,0.36086267,-0.17460674,-0.3098693,0.6034401,0.33255303,-0.004380626,-0.21145546,0.39661488,0.80639863,0.18462831,-0.079871535,0.7984284,0.68174416,-0.14045116,-0.17676467,0.43863258,-0.052548066,-0.3064015,-0.43988383,-9.989257E-4,817.1429,795.78754,795.78754,811.9048,896.1172,-0.290771484375,0.113525390625,0.965087890625,-1.79443359375,-2.699127197265625,0.58319091796875,1,1.0,1.0,1.0,1.0,20.00
2024-09-29 18:15:36.977,0.36086267,-0.17460674,-0.3098693,0.6034401,0.33255303,-0.004380626,-0.21145546,0.39661488,0.80639863,0.18462831,-0.079871535,0.7984284,0.68174416,-0.14045116,-0.17676467,0.43863258,-0.052548066,-0.3064015,-0.43988383,-9.989257E-4,817.5458,798.60803,804.2491,812.3077,767.98535,-0.290771484375,0.113525390625,0.965087890625,-1.79443359375,-2.699127197265625,0.58319091796875,1,1.0,1.0,1.0,1.0,20.00
2024-09-29 18:15:36.977,0.36086267,-0.17460674,-0.3098693,0.6034401,0.33255303,-0.004380626,-0.21145546,0.39661488,0.80639863,0.18462831,-0.079871535,0.7984284,0.68174416,-0.14045116,-0.17676467,0.43863258,-0.052548066,-0.3064015,-0.43988383,-9.989257E-4,817.1429,795.78754,805.05493,814.7253,928.7546,-0.290771484375,0.113525390625,0.965087890625,-1.79443359375,-2.699127197265625,0.58319091796875,1,1.0,1.0,1.0,1.0,20.00
2024-09-29 18:15:36.978,0.36086267,-0.17460674,-0.3098693,0.6034401,0.33255303,-0.004380626,-0.21145546,0.39661488,0.80639863,0.18462831,-0.079871535,0.7984284,0.68174416,-0.14045116,-0.17676467,0.43863258,-0.052548066,-0.3064015,-0.43988383,-9.989257E-4,813.91943,796.1905,803.0403,808.68134,1066.1538,-0.290771484375,0.113525390625,0.965087890625,-1.79443359375,-2.699127197265625,0.58319091796875,1,1.0,1.0,1.0,1.0,20.00
2024-09-29 18:15:36.978,0.3847033,-0.08898049,-0.3506406,0.6102861,0.3510158,0.0023652788,-0.20518526,0.42876706,0.77395624,0.21660817,-0.07716183,0.7810209,0.6833259,-0.15775685,-0.17296427,0.442948,-0.028771376,-0.28900498,-0.4407559,-0.005727405,812.71063,801.02563,801.02563,796.99634,891.28204,-0.290771484375,0.113525390625,0.965087890625,-1.79443359375,-2.699127197265625,0.58319091796875,1,1.0,1.0,1.0,1.0,20.00
2024-09-29 18:15:37.075,0.3847033,-0.08898049,-0.3506406,0.6102861,0.3510158,0.0023652788,-0.20518526,0.42876706,0.77395624,0.21660817,-0.07716183,0.7810209,0.6833259,-0.15775685,-0.17296427,0.442948,-0.028771376,-0.28900498,-0.4407559,-0.005727405,814.3223,800.2198,803.0403,806.6667,918.68134,-0.2825927734375,0.1146240234375,0.961181640625,-1.77947998046875,-2.160797119140625,-0.73272705078125,1,1.0,1.0,1.0,1.0,20.00
2024-09-29 18:15:37.077,0.3847033,-0.08898049,-0.3506406,0.6102861,0.3510158,0.0023652788,-0.20518526,0.42876706,0.77395624,0.21660817,-0.07716183,0.7810209,0.6833259,-0.15775685,-0.17296427,0.442948,-0.028771376,-0.28900498,-0.4407559,-0.005727405,819.15753,798.60803,801.02563,816.337,954.5421,-0.2825927734375,0.1146240234375,0.961181640625,-1.77947998046875,-2.160797119140625,-0.73272705078125,1,1.0,1.0,1.0,1.0,20.00
2024-09-29 18:15:37.077,0.3847033,-0.08898049,-0.3506406,0.6102861,0.3510158,0.0023652788,-0.20518526,0.42876706,0.77395624,0.21660817,-0.07716183,0.7810209,0.6833259,-0.15775685,-0.17296427,0.442948,-0.028771376,-0.28900498,-0.4407559,-0.005727405,826.0073,797.3993,799.41394,809.4872,788.5348,-0.2825927734375,0.1146240234375,0.961181640625,-1.77947998046875,-2.160797119140625,-0.73272705078125,1,1.0,1.0,1.0,1.0,20.00
2024-09-29 18:15:37.078,0.3847033,-0.08898049,-0.3506406,0.6102861,0.3510158,0.0023652788,-0.20518526,0.42876706,0.77395624,0.21660817,-0.07716183,0.7810209,0.6833259,-0.15775685,-0.17296427,0.442948,-0.028771376,-0.28900498,-0.4407559,-0.005727405,826.0073,802.23444,806.26373,813.91943,787.72894,-0.2825927734375,0.1146240234375,0.961181640625,-1.77947998046875,-2.160797119140625,-0.73272705078125,1,1.0,1.0,1.0,1.0,20.00
2024-09-29 18:15:37.079,0.3847033,-0.08898049,-0.3506406,0.6102861,0.3510158,0.0023652788,-0.20518526,0.42876706,0.77395624,0.21660817,-0.07716183,0.7810209,0.6833259,-0.15775685,-0.17296427,0.442948,-0.028771376,-0.28900498,-0.4407559,-0.005727405,819.5604,806.26373,804.2491,822.381,842.52747,-0.2825927734375,0.1146240234375,0.961181640625,-1.77947998046875,-2.160797119140625,-0.73272705078125,1,1.0,1.0,1.0,1.0,20.00
2024-09-29 18:15:37.079,0.3847033,-0.08898049,-0.3506406,0.6102861,0.3510158,0.0023652788,-0.20518526,0.42876706,0.77395624,0.21660817,-0.07716183,0.7810209,0.6833259,-0.15775685,-0.17296427,0.442948,-0.028771376,-0.28900498,-0.4407559,-0.005727405,818.3516,803.8461,797.8022,818.3516,871.9414,-0.2825927734375,0.1146240234375,0.961181640625,-1.77947998046875,-2.160797119140625,-0.73272705078125,1,1.0,1.0,1.0,1.0,20.00
2024-09-29 18:15:37.080,0.3847033,-0.08898049,-0.3506406,0.6102861,0.3510158,0.0023652788,-0.20518526,0.42876706,0.77395624,0.21660817,-0.07716183,0.7810209,0.6833259,-0.15775685,-0.17296427,0.442948,-0.028771376,-0.28900498,-0.4407559,-0.005727405,825.6044,807.0696,801.02563,811.9048,865.09155,-0.2825927734375,0.1146240234375,0.961181640625,-1.77947998046875,-2.160797119140625,-0.73272705078125,1,1.0,1.0,1.0,1.0,20.00
2024-09-29 18:15:37.080,0.3847033,-0.08898049,-0.3506406,0.6102861,0.3510158,0.0023652788,-0.20518526,0.42876706,0.77395624,0.21660817,-0.07716183,0.7810209,0.6833259,-0.15775685,-0.17296427,0.442948,-0.028771376,-0.28900498,-0.4407559,-0.005727405,831.6484,812.3077,809.4872,811.50183,770.40295,-0.2825927734375,0.1146240234375,0.961181640625,-1.77947998046875,-2.160797119140625,-0.73272705078125,1,1.0,1.0,1.0,1.0,20.00
2024-09-29 18:15:37.081,0.3847033,-0.08898049,-0.3506406,0.6102861,0.3510158,0.0023652788,-0.20518526,0.42876706,0.77395624,0.21660817,-0.07716183,0.7810209,0.6833259,-0.15775685,-0.17296427,0.442948,-0.028771376,-0.28900498,-0.4407559,-0.005727405,828.022,810.293,811.0989,817.9487,836.08057,-0.2825927734375,0.1146240234375,0.961181640625,-1.77947998046875,-2.160797119140625,-0.73272705078125,1,1.0,1.0,1.0,1.0,20.00
2024-09-29 18:15:37.081,0.3847033,-0.08898049,-0.3506406,0.6102861,0.3510158,0.0023652788,-0.20518526,0.42876706,0.77395624,0.21660817,-0.07716183,0.7810209,0.6833259,-0.15775685,-0.17296427,0.442948,-0.028771376,-0.28900498,-0.4407559,-0.005727405,822.381,805.8608,805.05493,816.7399,936.8132,-0.2825927734375,0.1146240234375,0.961181640625,-1.77947998046875,-2.160797119140625,-0.73272705078125,1,1.0,1.0,1.0,1.0,20.00
2024-09-29 18:15:37.082,0.3847033,-0.08898049,-0.3506406,0.6102861,0.3510158,0.0023652788,-0.20518526,0.42876706,0.77395624,0.21660817,-0.07716183,0.7810209,0.6833259,-0.15775685,-0.17296427,0.442948,-0.028771376,-0.28900498,-0.4407559,-0.005727405,815.12823,802.23444,798.60803,810.293,751.4652,-0.2825927734375,0.1146240234375,0.961181640625,-1.77947998046875,-2.160797119140625,-0.73272705078125,1,1.0,1.0,1.0,1.0,20.00
2024-09-29 18:15:37.082,0.3847033,-0.08898049,-0.3506406,0.6102861,0.3510158,0.0023652788,-0.20518526,0.42876706,0.77395624,0.21660817,-0.07716183,0.7810209,0.6833259,-0.15775685,-0.17296427,0.442948,-0.028771376,-0.28900498,-0.4407559,-0.005727405,811.0989,800.2198,799.81683,808.2784,604.3956,-0.2825927734375,0.1146240234375,0.961181640625,-1.77947998046875,-2.160797119140625,-0.73272705078125,1,1.0,1.0,1.0,1.0,20.00
2024-09-29 18:15:37.174,0.3847033,-0.08898049,-0.3506406,0.6102861,0.3510158,0.0023652788,-0.20518526,0.42876706,0.77395624,0.21660817,-0.07716183,0.7810209,0.6833259,-0.15775685,-0.17296427,0.442948,-0.028771376,-0.28900498,-0.4407559,-0.005727405,815.5311,796.5934,803.44324,811.0989,871.53845,-0.28363037109375,0.10748291015625,0.96356201171875,-1.256103515625,-2.1234130859375,-1.592559814453125,1,1.0,1.0,1.0,1.0,20.00
2024-09-29 18:15:37.175,0.3847033,-0.08898049,-0.3506406,0.6102861,0.3510158,0.0023652788,-0.20518526,0.42876706,0.77395624,0.21660817,-0.07716183,0.7810209,0.6833259,-0.15775685,-0.17296427,0.442948,-0.028771376,-0.28900498,-0.4407559,-0.005727405,819.5604,794.17584,805.8608,822.7839,1224.5055,-0.28363037109375,0.10748291015625,0.96356201171875,-1.256103515625,-2.1234130859375,-1.592559814453125,1,1.0,1.0,1.0,1.0,20.00
2024-09-29 18:15:37.176,0.3847033,-0.08898049,-0.3506406,0.6102861,0.3510158,0.0023652788,-0.20518526,0.42876706,0.77395624,0.21660817,-0.07716183,0.7810209,0.6833259,-0.15775685,-0.17296427,0.442948,-0.028771376,-0.28900498,-0.4407559,-0.005727405,822.381,799.81683,808.68134,817.5458,866.7033,-0.28363037109375,0.10748291015625,0.96356201171875,-1.256103515625,-2.1234130859375,-1.592559814453125,1,1.0,1.0,1.0,1.0,20.00
2024-09-29 18:15:37.176,0.3847033,-0.08898049,-0.3506406,0.6102861,0.3510158,0.0023652788,-0.20518526,0.42876706,0.77395624,0.21660817,-0.07716183,0.7810209,0.6833259,-0.15775685,-0.17296427,0.442948,-0.028771376,-0.28900498,-0.4407559,-0.005727405,829.6337,804.65204,809.4872,816.337,626.9597,-0.28363037109375,0.10748291015625,0.96356201171875,-1.256103515625,-2.1234130859375,-1.592559814453125,1,1.0,1.0,1.0,1.0,20.00
2024-09-29 18:15:37.177,0.3847033,-0.08898049,-0.3506406,0.6102861,0.3510158,0.0023652788,-0.20518526,0.42876706,0.77395624,0.21660817,-0.07716183,0.7810209,0.6833259,-0.15775685,-0.17296427,0.442948,-0.028771376,-0.28900498,-0.4407559,-0.005727405,824.7985,804.65204,810.696,825.6044,857.03296,-0.28363037109375,0.10748291015625,0.96356201171875,-1.256103515625,-2.1234130859375,-1.592559814453125,1,1.0,1.0,1.0,1.0,20.00
2024-09-29 18:15:37.178,0.3847033,-0.08898049,-0.3506406,0.6102861,0.3510158,0.0023652788,-0.20518526,0.42876706,0.77395624,0.21660817,-0.07716183,0.7810209,0.6833259,-0.15775685,-0.17296427,0.442948,-0.028771376,-0.28900498,-0.4407559,-0.005727405,815.5311,801.02563,807.0696,825.6044,1030.6959,-0.28363037109375,0.10748291015625,0.96356201171875,-1.256103515625,-2.1234130859375,-1.592559814453125,1,1.0,1.0,1.0,1.0,20.00
2024-09-29 18:15:37.178,0.3847033,-0.08898049,-0.3506406,0.6102861,0.3510158,0.0023652788,-0.20518526,0.42876706,0.77395624,0.21660817,-0.07716183,0.7810209,0.6833259,-0.15775685,-0.17296427,0.442948,-0.028771376,-0.28900498,-0.4407559,-0.005727405,817.9487,800.2198,802.23444,812.71063,951.7216,-0.28363037109375,0.10748291015625,0.96356201171875,-1.256103515625,-2.1234130859375,-1.592559814453125,1,1.0,1.0,1.0,1.0,20.00
2024-09-29 18:15:37.179,0.3847033,-0.08898049,-0.3506406,0.6102861,0.3510158,0.0023652788,-0.20518526,0.42876706,0.77395624,0.21660817,-0.07716183,0.7810209,0.6833259,-0.15775685,-0.17296427,0.442948,-0.028771376,-0.28900498,-0.4407559,-0.005727405,819.5604,801.8315,805.05493,807.47253,820.7692,-0.28363037109375,0.10748291015625,0.96356201171875,-1.256103515625,-2.1234130859375,-1.592559814453125,1,1.0,1.0,1.0,1.0,20.00
2024-09-29 18:15:37.180,0.3847033,-0.08898049,-0.3506406,0.6102861,0.3510158,0.0023652788,-0.20518526,0.42876706,0.77395624,0.21660817,-0.07716183,0.7810209,0.6833259,-0.15775685,-0.17296427,0.442948,-0.028771376,-0.28900498,-0.4407559,-0.005727405,821.1722,803.44324,801.4286,814.7253,985.9707,-0.28363037109375,0.10748291015625,0.96356201171875,-1.256103515625,-2.1234130859375,-1.592559814453125,1,1.0,1.0,1.0,1.0,20.00
2024-09-29 18:15:37.180,0.3847033,-0.08898049,-0.3506406,0.6102861,0.3510158,0.0023652788,-0.20518526,0.42876706,0.77395624,0.21660817,-0.07716183,0.7810209,0.6833259,-0.15775685,-0.17296427,0.442948,-0.028771376,-0.28900498,-0.4407559,-0.005727405,819.15753,804.65204,801.02563,816.337,1078.6447,-0.28363037109375,0.10748291015625,0.96356201171875,-1.256103515625,-2.1234130859375,-1.592559814453125,1,1.0,1.0,1.0,1.0,20.00
2024-09-29 18:15:37.181,0.3847033,-0.08898049,-0.3506406,0.6102861,0.3510158,0.0023652788,-0.20518526,0.42876706,0.77395624,0.21660817,-0.07716183,0.7810209,0.6833259,-0.15775685,-0.17296427,0.442948,-0.028771376,-0.28900498,-0.4407559,-0.005727405,819.5604,806.6667,805.8608,811.0989,892.49084,-0.28363037109375,0.10748291015625,0.96356201171875,-1.256103515625,-2.1234130859375,-1.592559814453125,1,1.0,1.0,1.0,1.0,20.00
2024-09-29 18:15:37.181,0.3847033,-0.08898049,-0.3506406,0.6102861,0.3510158,0.0023652788,-0.20518526,0.42876706,0.77395624,0.21660817,-0.07716183,0.7810209,0.6833259,-0.15775685,-0.17296427,0.442948,-0.028771376,-0.28900498,-0.4407559,-0.005727405,818.3516,808.68134,806.6667,808.68134,850.989,-0.28363037109375,0.10748291015625,0.96356201171875,-1.256103515625,-2.1234130859375,-1.592559814453125,1,1.0,1.0,1.0,1.0,20.00
2024-09-29 18:15:37.241,0.3847033,-0.08898049,-0.3506406,0.6102861,0.3510158,0.0023652788,-0.20518526,0.42876706,0.77395624,0.21660817,-0.07716183,0.7810209,0.6833259,-0.15775685,-0.17296427,0.442948,-0.028771376,-0.28900498,-0.4407559,-0.005727405,819.9634,808.68134,805.8608,822.7839,1131.4286,-0.28363037109375,0.10748291015625,0.96356201171875,-1.256103515625,-2.1234130859375,-1.592559814453125,1,1.0,1.0,1.0,1.0,20.00
2024-09-29 18:15:37.242,0.39683387,-0.03861434,-0.37877533,0.61839604,0.376989,0.005961476,-0.1938824,0.44106713,0.7799515,0.23649624,-0.076376,0.7613182,0.67944765,-0.17282835,-0.17085394,0.4395531,-0.015496124,-0.2782461,-0.44160193,-0.0027249136,825.2015,809.0842,807.8755,826.0073,1230.9524,-0.28363037109375,0.10748291015625,0.96356201171875,-1.256103515625,-2.1234130859375,-1.592559814453125,1,1.0,1.0,1.0,1.0,20.00
2024-09-29 18:15:37.247,0.39683387,-0.03861434,-0.37877533,0.61839604,0.376989,0.005961476,-0.1938824,0.44106713,0.7799515,0.23649624,-0.076376,0.7613182,0.67944765,-0.17282835,-0.17085394,0.4395531,-0.015496124,-0.2782461,-0.44160193,-0.0027249136,823.9927,806.26373,808.68134,807.8755,882.01465,-0.28363037109375,0.10748291015625,0.96356201171875,-1.256103515625,-2.1234130859375,-1.592559814453125,1,1.0,1.0,1.0,1.0,20.00
2024-09-29 18:15:37.248,0.39683387,-0.03861434,-0.37877533,0.61839604,0.376989,0.005961476,-0.1938824,0.44106713,0.7799515,0.23649624,-0.076376,0.7613182,0.67944765,-0.17282835,-0.17085394,0.4395531,-0.015496124,-0.2782461,-0.44160193,-0.0027249136,828.022,805.8608,801.02563,801.4286,832.4542,-0.28363037109375,0.10748291015625,0.96356201171875,-1.256103515625,-2.1234130859375,-1.592559814453125,1,1.0,1.0,1.0,1.0,20.00
2024-09-29 18:15:37.248,0.39683387,-0.03861434,-0.37877533,0.61839604,0.376989,0.005961476,-0.1938824,0.44106713,0.7799515,0.23649624,-0.076376,0.7613182,0.67944765,-0.17282835,-0.17085394,0.4395531,-0.015496124,-0.2782461,-0.44160193,-0.0027249136,825.6044,806.6667,795.38464,819.5604,1174.1392,-0.28363037109375,0.10748291015625,0.96356201171875,-1.256103515625,-2.1234130859375,-1.592559814453125,1,1.0,1.0,1.0,1.0,20.00
2024-09-29 18:15:37.249,0.39683387,-0.03861434,-0.37877533,0.61839604,0.376989,0.005961476,-0.1938824,0.44106713,0.7799515,0.23649624,-0.076376,0.7613182,0.67944765,-0.17282835,-0.17085394,0.4395531,-0.015496124,-0.2782461,-0.44160193,-0.0027249136,818.3516,809.0842,798.60803,824.7985,1150.7693,-0.28363037109375,0.10748291015625,0.96356201171875,-1.256103515625,-2.1234130859375,-1.592559814453125,1,1.0,1.0,1.0,1.0,20.00
2024-09-29 18:15:37.249,0.39683387,-0.03861434,-0.37877533,0.61839604,0.376989,0.005961476,-0.1938824,0.44106713,0.7799515,0.23649624,-0.076376,0.7613182,0.67944765,-0.17282835,-0.17085394,0.4395531,-0.015496124,-0.2782461,-0.44160193,-0.0027249136,815.9341,805.8608,800.6227,813.91943,976.7033,-0.28363037109375,0.10748291015625,0.96356201171875,-1.256103515625,-2.1234130859375,-1.592559814453125,1,1.0,1.0,1.0,1.0,20.00
2024-09-29 18:15:37.250,0.39683387,-0.03861434,-0.37877533,0.61839604,0.376989,0.005961476,-0.1938824,0.44106713,0.7799515,0.23649624,-0.076376,0.7613182,0.67944765,-0.17282835,-0.17085394,0.4395531,-0.015496124,-0.2782461,-0.44160193,-0.0027249136,816.337,800.6227,802.23444,811.50183,859.45056,-0.28363037109375,0.10748291015625,0.96356201171875,-1.256103515625,-2.1234130859375,-1.592559814453125,1,1.0,1.0,1.0,1.0,20.00
2024-09-29 18:15:37.251,0.39683387,-0.03861434,-0.37877533,0.61839604,0.376989,0.005961476,-0.1938824,0.44106713,0.7799515,0.23649624,-0.076376,0.7613182,0.67944765,-0.17282835,-0.17085394,0.4395531,-0.015496124,-0.2782461,-0.44160193,-0.0027249136,812.71063,802.23444,805.8608,810.293,917.0696,-0.28363037109375,0.10748291015625,0.96356201171875,-1.256103515625,-2.1234130859375,-1.592559814453125,1,1.0,1.0,1.0,1.0,20.00
2024-09-29 18:15:37.251,0.39683387,-0.03861434,-0.37877533,0.61839604,0.376989,0.005961476,-0.1938824,0.44106713,0.7799515,0.23649624,-0.076376,0.7613182,0.67944765,-0.17282835,-0.17085394,0.4395531,-0.015496124,-0.2782461,-0.44160193,-0.0027249136,803.8461,803.44324,803.44324,801.8315,937.2161,-0.28363037109375,0.10748291015625,0.96356201171875,-1.256103515625,-2.1234130859375,-1.592559814453125,1,1.0,1.0,1.0,1.0,20.00
2024-09-29 18:15:37.252,0.39683387,-0.03861434,-0.37877533,0.61839604,0.376989,0.005961476,-0.1938824,0.44106713,0.7799515,0.23649624,-0.076376,0.7613182,0.67944765,-0.17282835,-0.17085394,0.4395531,-0.015496124,-0.2782461,-0.44160193,-0.0027249136,805.05493,806.6667,800.2198,802.6374,773.6264,-0.28363037109375,0.10748291015625,0.96356201171875,-1.256103515625,-2.1234130859375,-1.592559814453125,1,1.0,1.0,1.0,1.0,20.00
2024-09-29 18:15:37.252,0.39683387,-0.03861434,-0.37877533,0.61839604,0.376989,0.005961476,-0.1938824,0.44106713,0.7799515,0.23649624,-0.076376,0.7613182,0.67944765,-0.17282835,-0.17085394,0.4395531,-0.015496124,-0.2782461,-0.44160193,-0.0027249136,810.696,807.8755,801.8315,805.8608,715.6044,-0.28363037109375,0.10748291015625,0.96356201171875,-1.256103515625,-2.1234130859375,-1.592559814453125,1,1.0,1.0,1.0,1.0,20.00
2024-09-29 18:15:37.375,0.39683387,-0.03861434,-0.37877533,0.61839604,0.376989,0.005961476,-0.1938824,0.44106713,0.7799515,0.23649624,-0.076376,0.7613182,0.67944765,-0.17282835,-0.17085394,0.4395531,-0.015496124,-0.2782461,-0.44160193,-0.0027249136,815.5311,808.68134,803.8461,805.4579,756.30035,-0.27392578125,0.108642578125,0.96893310546875,-1.1962890625,-2.04864501953125,-0.11962890625,1,1.0,1.0,1.0,1.0,20.00
2024-09-29 18:15:37.376,0.39683387,-0.03861434,-0.37877533,0.61839604,0.376989,0.005961476,-0.1938824,0.44106713,0.7799515,0.23649624,-0.076376,0.7613182,0.67944765,-0.17282835,-0.17085394,0.4395531,-0.015496124,-0.2782461,-0.44160193,-0.0027249136,812.3077,810.696,798.20514,802.23444,695.8608,-0.27392578125,0.108642578125,0.96893310546875,-1.1962890625,-2.04864501953125,-0.11962890625,1,1.0,1.0,1.0,1.0,20.00
2024-09-29 18:15:37.376,0.39683387,-0.03861434,-0.37877533,0.61839604,0.376989,0.005961476,-0.1938824,0.44106713,0.7799515,0.23649624,-0.076376,0.7613182,0.67944765,-0.17282835,-0.17085394,0.4395531,-0.015496124,-0.2782461,-0.44160193,-0.0027249136,802.6374,807.8755,791.75824,797.8022,735.7509,-0.27392578125,0.108642578125,0.96893310546875,-1.1962890625,-2.04864501953125,-0.11962890625,1,1.0,1.0,1.0,1.0,20.00
2024-09-29 18:15:37.377,0.39683387,-0.03861434,-0.37877533,0.61839604,0.376989,0.005961476,-0.1938824,0.44106713,0.7799515,0.23649624,-0.076376,0.7613182,0.67944765,-0.17282835,-0.17085394,0.4395531,-0.015496124,-0.2782461,-0.44160193,-0.0027249136,807.0696,810.696,799.011,800.2198,729.707,-0.27392578125,0.108642578125,0.96893310546875,-1.1962890625,-2.04864501953125,-0.11962890625,1,1.0,1.0,1.0,1.0,20.00
2024-09-29 18:15:37.378,0.39683387,-0.03861434,-0.37877533,0.61839604,0.376989,0.005961476,-0.1938824,0.44106713,0.7799515,0.23649624,-0.076376,0.7613182,0.67944765,-0.17282835,-0.17085394,0.4395531,-0.015496124,-0.2782461,-0.44160193,-0.0027249136,811.50183,816.337,803.8461,799.81683,633.8095,-0.27392578125,0.108642578125,0.96893310546875,-1.1962890625,-2.04864501953125,-0.11962890625,1,1.0,1.0,1.0,1.0,20.00
2024-09-29 18:15:37.378,0.39683387,-0.03861434,-0.37877533,0.61839604,0.376989,0.005961476,-0.1938824,0.44106713,0.7799515,0.23649624,-0.076376,0.7613182,0.67944765,-0.17282835,-0.17085394,0.4395531,-0.015496124,-0.2782461,-0.44160193,-0.0027249136,811.9048,811.50183,796.5934,805.8608,705.12823,-0.27392578125,0.108642578125,0.96893310546875,-1.1962890625,-2.04864501953125,-0.11962890625,1,1.0,1.0,1.0,1.0,20.00
2024-09-29 18:15:37.379,0.39683387,-0.03861434,-0.37877533,0.61839604,0.376989,0.005961476,-0.1938824,0.44106713,0.7799515,0.23649624,-0.076376,0.7613182,0.67944765,-0.17282835,-0.17085394,0.4395531,-0.015496124,-0.2782461,-0.44160193,-0.0027249136,817.1429,805.4579,792.96704,814.3223,866.7033,-0.27392578125,0.108642578125,0.96893310546875,-1.1962890625,-2.04864501953125,-0.11962890625,1,1.0,1.0,1.0,1.0,20.00
2024-09-29 18:15:37.379,0.39683387,-0.03861434,-0.37877533,0.61839604,0.376989,0.005961476,-0.1938824,0.44106713,0.7799515,0.23649624,-0.076376,0.7613182,0.67944765,-0.17282835,-0.17085394,0.4395531,-0.015496124,-0.2782461,-0.44160193,-0.0027249136,818.7546,807.0696,798.60803,814.3223,1029.0842,-0.27392578125,0.108642578125,0.96893310546875,-1.1962890625,-2.04864501953125,-0.11962890625,1,1.0,1.0,1.0,1.0,20.00
2024-09-29 18:15:37.380,0.39683387,-0.03861434,-0.37877533,0.61839604,0.376989,0.005961476,-0.1938824,0.44106713,0.7799515,0.23649624,-0.076376,0.7613182,0.67944765,-0.17282835,-0.17085394,0.4395531,-0.015496124,-0.2782461,-0.44160193,-0.0027249136,821.1722,808.2784,805.4579,816.337,949.707,-0.27392578125,0.108642578125,0.96893310546875,-1.1962890625,-2.04864501953125,-0.11962890625,1,1.0,1.0,1.0,1.0,20.00
2024-09-29 18:15:37.381,0.39683387,-0.03861434,-0.37877533,0.61839604,0.376989,0.005961476,-0.1938824,0.44106713,0.7799515,0.23649624,-0.076376,0.7613182,0.67944765,-0.17282835,-0.17085394,0.4395531,-0.015496124,-0.2782461,-0.44160193,-0.0027249136,818.7546,803.0403,804.2491,811.9048,636.2271,-0.27392578125,0.108642578125,0.96893310546875,-1.1962890625,-2.04864501953125,-0.11962890625,1,1.0,1.0,1.0,1.0,20.00
2024-09-29 18:15:37.381,0.39683387,-0.03861434,-0.37877533,0.61839604,0.376989,0.005961476,-0.1938824,0.44106713,0.7799515,0.23649624,-0.076376,0.7613182,0.67944765,-0.17282835,-0.17085394,0.4395531,-0.015496124,-0.2782461,-0.44160193,-0.0027249136,814.3223,806.6667,801.02563,805.05493,690.2198,-0.27392578125,0.108642578125,0.96893310546875,-1.1962890625,-2.04864501953125,-0.11962890625,1,1.0,1.0,1.0,1.0,20.00
2024-09-29 18:15:37.382,0.39683387,-0.03861434,-0.37877533,0.61839604,0.376989,0.005961476,-0.1938824,0.44106713,0.7799515,0.23649624,-0.076376,0.7613182,0.67944765,-0.17282835,-0.17085394,0.4395531,-0.015496124,-0.2782461,-0.44160193,-0.0027249136,813.1135,809.4872,801.8315,801.02563,883.22345,-0.27392578125,0.108642578125,0.96893310546875,-1.1962890625,-2.04864501953125,-0.11962890625,1,1.0,1.0,1.0,1.0,20.00
2024-09-29 18:15:37.442,0.39683387,-0.03861434,-0.37877533,0.61839604,0.376989,0.005961476,-0.1938824,0.44106713,0.7799515,0.23649624,-0.076376,0.7613182,0.67944765,-0.17282835,-0.17085394,0.4395531,-0.015496124,-0.2782461,-0.44160193,-0.0027249136,813.5165,805.05493,804.2491,798.20514,760.7326,-0.2813720703125,0.103271484375,0.9678955078125,-1.21124267578125,-1.816864013671875,1.18133544921875,1,1.0,1.0,1.0,1.0,20.00
2024-09-29 18:15:37.443,0.39683387,-0.03861434,-0.37877533,0.61839604,0.376989,0.005961476,-0.1938824,0.44106713,0.7799515,0.23649624,-0.076376,0.7613182,0.67944765,-0.17282835,-0.17085394,0.4395531,-0.015496124,-0.2782461,-0.44160193,-0.0027249136,808.68134,807.8755,805.8608,803.8461,662.01465,-0.2813720703125,0.103271484375,0.9678955078125,-1.21124267578125,-1.816864013671875,1.18133544921875,1,1.0,1.0,1.0,1.0,20.00
2024-09-29 18:15:37.443,0.39683387,-0.03861434,-0.37877533,0.61839604,0.376989,0.005961476,-0.1938824,0.44106713,0.7799515,0.23649624,-0.076376,0.7613182,0.67944765,-0.17282835,-0.17085394,0.4395531,-0.015496124,-0.2782461,-0.44160193,-0.0027249136,808.2784,803.8461,801.02563,806.26373,789.7436,-0.2813720703125,0.103271484375,0.9678955078125,-1.21124267578125,-1.816864013671875,1.18133544921875,1,1.0,1.0,1.0,1.0,20.00
2024-09-29 18:15:37.444,0.39033964,-0.017747423,-0.4003236,0.61663306,0.4059044,0.013210103,-0.1766776,0.439596,0.7791048,0.24023835,-0.07643949,0.7447582,0.67037404,-0.17915203,-0.16680555,0.43031907,-0.019555038,-0.27904955,-0.44464526,0.0053332713,811.0989,805.05493,799.81683,815.5311,1004.10254,-0.2813720703125,0.103271484375,0.9678955078125,-1.21124267578125,-1.816864013671875,1.18133544921875,1,1.0,1.0,1.0,1.0,20.00
2024-09-29 18:15:37.449,0.39033964,-0.017747423,-0.4003236,0.61663306,0.4059044,0.013210103,-0.1766776,0.439596,0.7791048,0.24023835,-0.07643949,0.7447582,0.67037404,-0.17915203,-0.16680555,0.43031907,-0.019555038,-0.27904955,-0.44464526,0.0053332713,813.91943,810.696,801.4286,821.1722,833.2601,-0.2813720703125,0.103271484375,0.9678955078125,-1.21124267578125,-1.816864013671875,1.18133544921875,1,1.0,1.0,1.0,1.0,20.00
2024-09-29 18:15:37.450,0.39033964,-0.017747423,-0.4003236,0.61663306,0.4059044,0.013210103,-0.1766776,0.439596,0.7791048,0.24023835,-0.07643949,0.7447582,0.67037404,-0.17915203,-0.16680555,0.43031907,-0.019555038,-0.27904955,-0.44464526,0.0053332713,820.3663,809.89014,798.20514,815.12823,641.8681,-0.2813720703125,0.103271484375,0.9678955078125,-1.21124267578125,-1.816864013671875,1.18133544921875,1,1.0,1.0,1.0,1.0,20.00
2024-09-29 18:15:37.450,0.39033964,-0.017747423,-0.4003236,0.61663306,0.4059044,0.013210103,-0.1766776,0.439596,0.7791048,0.24023835,-0.07643949,0.7447582,0.67037404,-0.17915203,-0.16680555,0.43031907,-0.019555038,-0.27904955,-0.44464526,0.0053332713,817.1429,805.05493,798.60803,816.7399,906.99634,-0.2813720703125,0.103271484375,0.9678955078125,-1.21124267578125,-1.816864013671875,1.18133544921875,1,1.0,1.0,1.0,1.0,20.00
2024-09-29 18:15:37.451,0.39033964,-0.017747423,-0.4003236,0.61663306,0.4059044,0.013210103,-0.1766776,0.439596,0.7791048,0.24023835,-0.07643949,0.7447582,0.67037404,-0.17915203,-0.16680555,0.43031907,-0.019555038,-0.27904955,-0.44464526,0.0053332713,813.1135,806.6667,795.78754,821.978,1012.96704,-0.2813720703125,0.103271484375,0.9678955078125,-1.21124267578125,-1.816864013671875,1.18133544921875,1,1.0,1.0,1.0,1.0,20.00
2024-09-29 18:15:37.451,0.39033964,-0.017747423,-0.4003236,0.61663306,0.4059044,0.013210103,-0.1766776,0.439596,0.7791048,0.24023835,-0.07643949,0.7447582,0.67037404,-0.17915203,-0.16680555,0.43031907,-0.019555038,-0.27904955,-0.44464526,0.0053332713,812.71063,807.8755,796.5934,821.1722,693.8461,-0.2813720703125,0.103271484375,0.9678955078125,-1.21124267578125,-1.816864013671875,1.18133544921875,1,1.0,1.0,1.0,1.0,20.00
2024-09-29 18:15:37.452,0.39033964,-0.017747423,-0.4003236,0.61663306,0.4059044,0.013210103,-0.1766776,0.439596,0.7791048,0.24023835,-0.07643949,0.7447582,0.67037404,-0.17915203,-0.16680555,0.43031907,-0.019555038,-0.27904955,-0.44464526,0.0053332713,813.91943,803.8461,804.2491,819.9634,571.3553,-0.2813720703125,0.103271484375,0.9678955078125,-1.21124267578125,-1.816864013671875,1.18133544921875,1,1.0,1.0,1.0,1.0,20.00
2024-09-29 18:15:37.453,0.39033964,-0.017747423,-0.4003236,0.61663306,0.4059044,0.013210103,-0.1766776,0.439596,0.7791048,0.24023835,-0.07643949,0.7447582,0.67037404,-0.17915203,-0.16680555,0.43031907,-0.019555038,-0.27904955,-0.44464526,0.0053332713,815.12823,808.2784,804.65204,813.5165,735.7509,-0.2813720703125,0.103271484375,0.9678955078125,-1.21124267578125,-1.816864013671875,1.18133544921875,1,1.0,1.0,1.0,1.0,20.00
2024-09-29 18:15:37.453,0.39033964,-0.017747423,-0.4003236,0.61663306,0.4059044,0.013210103,-0.1766776,0.439596,0.7791048,0.24023835,-0.07643949,0.7447582,0.67037404,-0.17915203,-0.16680555,0.43031907,-0.019555038,-0.27904955,-0.44464526,0.0053332713,814.7253,805.4579,806.26373,805.8608,894.10254,-0.2813720703125,0.103271484375,0.9678955078125,-1.21124267578125,-1.816864013671875,1.18133544921875,1,1.0,1.0,1.0,1.0,20.00
2024-09-29 18:15:37.475,0.39033964,-0.017747423,-0.4003236,0.61663306,0.4059044,0.013210103,-0.1766776,0.439596,0.7791048,0.24023835,-0.07643949,0.7447582,0.67037404,-0.17915203,-0.16680555,0.43031907,-0.019555038,-0.27904955,-0.44464526,0.0053332713,811.9048,798.60803,799.81683,807.47253,870.7326,-0.28082275390625,0.109375,0.96697998046875,-0.456085205078125,-1.21124267578125,1.188812255859375,1,1.0,1.0,1.0,1.0,20.00
2024-09-29 18:15:37.475,0.39033964,-0.017747423,-0.4003236,0.61663306,0.4059044,0.013210103,-0.1766776,0.439596,0.7791048,0.24023835,-0.07643949,0.7447582,0.67037404,-0.17915203,-0.16680555,0.43031907,-0.019555038,-0.27904955,-0.44464526,0.0053332713,813.5165,801.02563,795.38464,813.1135,743.4066,-0.28082275390625,0.109375,0.96697998046875,-0.456085205078125,-1.21124267578125,1.188812255859375,1,1.0,1.0,1.0,1.0,20.00
2024-09-29 18:15:37.476,0.39033964,-0.017747423,-0.4003236,0.61663306,0.4059044,0.013210103,-0.1766776,0.439596,0.7791048,0.24023835,-0.07643949,0.7447582,0.67037404,-0.17915203,-0.16680555,0.43031907,-0.019555038,-0.27904955,-0.44464526,0.0053332713,816.337,809.4872,800.2198,817.5458,843.73627,-0.28082275390625,0.109375,0.96697998046875,-0.456085205078125,-1.21124267578125,1.188812255859375,1,1.0,1.0,1.0,1.0,20.00
2024-09-29 18:15:37.477,0.39033964,-0.017747423,-0.4003236,0.61663306,0.4059044,0.013210103,-0.1766776,0.439596,0.7791048,0.24023835,-0.07643949,0.7447582,0.67037404,-0.17915203,-0.16680555,0.43031907,-0.019555038,-0.27904955,-0.44464526,0.0053332713,810.696,811.50183,801.4286,819.5604,1019.011,-0.28082275390625,0.109375,0.96697998046875,-0.456085205078125,-1.21124267578125,1.188812255859375,1,1.0,1.0,1.0,1.0,20.00
2024-09-29 18:15:37.477,0.39033964,-0.017747423,-0.4003236,0.61663306,0.4059044,0.013210103,-0.1766776,0.439596,0.7791048,0.24023835,-0.07643949,0.7447582,0.67037404,-0.17915203,-0.16680555,0.43031907,-0.019555038,-0.27904955,-0.44464526,0.0053332713,810.293,810.696,804.65204,820.3663,993.22345,-0.28082275390625,0.109375,0.96697998046875,-0.456085205078125,-1.21124267578125,1.188812255859375,1,1.0,1.0,1.0,1.0,20.00
2024-09-29 18:15:37.478,0.39033964,-0.017747423,-0.4003236,0.61663306,0.4059044,0.013210103,-0.1766776,0.439596,0.7791048,0.24023835,-0.07643949,0.7447582,0.67037404,-0.17915203,-0.16680555,0.43031907,-0.019555038,-0.27904955,-0.44464526,0.0053332713,807.0696,809.0842,807.8755,820.3663,904.9817,-0.28082275390625,0.109375,0.96697998046875,-0.456085205078125,-1.21124267578125,1.188812255859375,1,1.0,1.0,1.0,1.0,20.00
2024-09-29 18:15:37.479,0.39033964,-0.017747423,-0.4003236,0.61663306,0.4059044,0.013210103,-0.1766776,0.439596,0.7791048,0.24023835,-0.07643949,0.7447582,0.67037404,-0.17915203,-0.16680555,0.43031907,-0.019555038,-0.27904955,-0.44464526,0.0053332713,811.50183,809.0842,805.8608,823.5897,1045.6044,-0.28082275390625,0.109375,0.96697998046875,-0.456085205078125,-1.21124267578125,1.188812255859375,1,1.0,1.0,1.0,1.0,20.00
2024-09-29 18:15:37.479,0.39033964,-0.017747423,-0.4003236,0.61663306,0.4059044,0.013210103,-0.1766776,0.439596,0.7791048,0.24023835,-0.07643949,0.7447582,0.67037404,-0.17915203,-0.16680555,0.43031907,-0.019555038,-0.27904955,-0.44464526,0.0053332713,817.5458,811.0989,805.05493,823.9927,1053.663,-0.28082275390625,0.109375,0.96697998046875,-0.456085205078125,-1.21124267578125,1.188812255859375,1,1.0,1.0,1.0,1.0,20.00
2024-09-29 18:15:37.480,0.39033964,-0.017747423,-0.4003236,0.61663306,0.4059044,0.013210103,-0.1766776,0.439596,0.7791048,0.24023835,-0.07643949,0.7447582,0.67037404,-0.17915203,-0.16680555,0.43031907,-0.019555038,-0.27904955,-0.44464526,0.0053332713,816.337,810.696,810.696,822.7839,872.74725,-0.28082275390625,0.109375,0.96697998046875,-0.456085205078125,-1.21124267578125,1.188812255859375,1,1.0,1.0,1.0,1.0,20.00
2024-09-29 18:15:37.480,0.39033964,-0.017747423,-0.4003236,0.61663306,0.4059044,0.013210103,-0.1766776,0.439596,0.7791048,0.24023835,-0.07643949,0.7447582,0.67037404,-0.17915203,-0.16680555,0.43031907,-0.019555038,-0.27904955,-0.44464526,0.0053332713,823.1868,814.3223,815.9341,819.5604,797.3993,-0.28082275390625,0.109375,0.96697998046875,-0.456085205078125,-1.21124267578125,1.188812255859375,1,1.0,1.0,1.0,1.0,20.00
2024-09-29 18:15:37.481,0.39033964,-0.017747423,-0.4003236,0.61663306,0.4059044,0.013210103,-0.1766776,0.439596,0.7791048,0.24023835,-0.07643949,0.7447582,0.67037404,-0.17915203,-0.16680555,0.43031907,-0.019555038,-0.27904955,-0.44464526,0.0053332713,821.1722,815.5311,809.89014,822.7839,921.0989,-0.28082275390625,0.109375,0.96697998046875,-0.456085205078125,-1.21124267578125,1.188812255859375,1,1.0,1.0,1.0,1.0,20.00
2024-09-29 18:15:37.481,0.39033964,-0.017747423,-0.4003236,0.61663306,0.4059044,0.013210103,-0.1766776,0.439596,0.7791048,0.24023835,-0.07643949,0.7447582,0.67037404,-0.17915203,-0.16680555,0.43031907,-0.019555038,-0.27904955,-0.44464526,0.0053332713,809.4872,806.6667,800.2198,818.7546,903.36993,-0.28082275390625,0.109375,0.96697998046875,-0.456085205078125,-1.21124267578125,1.188812255859375,1,1.0,1.0,1.0,1.0,20.00
2024-09-29 18:15:37.543,0.39033964,-0.017747423,-0.4003236,0.61663306,0.4059044,0.013210103,-0.1766776,0.439596,0.7791048,0.24023835,-0.07643949,0.7447582,0.67037404,-0.17915203,-0.16680555,0.43031907,-0.019555038,-0.27904955,-0.44464526,0.0053332713,812.71063,805.4579,803.8461,815.5311,819.5604,-0.2835693359375,0.105224609375,0.9576416015625,-0.680389404296875,-1.861724853515625,1.368255615234375,1,1.0,1.0,1.0,1.0,20.00
2024-09-29 18:15:37.544,0.39033964,-0.017747423,-0.4003236,0.61663306,0.4059044,0.013210103,-0.1766776,0.439596,0.7791048,0.24023835,-0.07643949,0.7447582,0.67037404,-0.17915203,-0.16680555,0.43031907,-0.019555038,-0.27904955,-0.44464526,0.0053332713,818.7546,806.26373,808.2784,816.7399,974.2857,-0.2835693359375,0.105224609375,0.9576416015625,-0.680389404296875,-1.861724853515625,1.368255615234375,1,1.0,1.0,1.0,1.0,20.00
2024-09-29 18:15:37.545,0.39033964,-0.017747423,-0.4003236,0.61663306,0.4059044,0.013210103,-0.1766776,0.439596,0.7791048,0.24023835,-0.07643949,0.7447582,0.67037404,-0.17915203,-0.16680555,0.43031907,-0.019555038,-0.27904955,-0.44464526,0.0053332713,813.1135,803.0403,809.0842,812.3077,963.00366,-0.2835693359375,0.105224609375,0.9576416015625,-0.680389404296875,-1.861724853515625,1.368255615234375,1,1.0,1.0,1.0,1.0,20.00
2024-09-29 18:15:37.546,0.39033964,-0.017747423,-0.4003236,0.61663306,0.4059044,0.013210103,-0.1766776,0.439596,0.7791048,0.24023835,-0.07643949,0.7447582,0.67037404,-0.17915203,-0.16680555,0.43031907,-0.019555038,-0.27904955,-0.44464526,0.0053332713,806.26373,802.23444,805.8608,817.9487,782.8938,-0.2835693359375,0.105224609375,0.9576416015625,-0.680389404296875,-1.861724853515625,1.368255615234375,1,1.0,1.0,1.0,1.0,20.00
2024-09-29 18:15:37.546,0.39033964,-0.017747423,-0.4003236,0.61663306,0.4059044,0.013210103,-0.1766776,0.439596,0.7791048,0.24023835,-0.07643949,0.7447582,0.67037404,-0.17915203,-0.16680555,0.43031907,-0.019555038,-0.27904955,-0.44464526,0.0053332713,806.26373,802.6374,796.99634,820.7692,747.4359,-0.2835693359375,0.105224609375,0.9576416015625,-0.680389404296875,-1.861724853515625,1.368255615234375,1,1.0,1.0,1.0,1.0,20.00
2024-09-29 18:15:37.547,0.37127253,-0.008458954,-0.412182,0.5993532,0.4308705,0.025874509,-0.15365306,0.43619186,0.7372716,0.23981999,-0.07643949,0.74199355,0.6548704,-0.17477994,-0.15746863,0.4182667,-0.03690769,-0.288801,-0.44703317,0.0123468395,804.65204,796.1905,799.011,814.3223,844.1392,-0.2835693359375,0.105224609375,0.9576416015625,-0.680389404296875,-1.861724853515625,1.368255615234375,1,1.0,1.0,1.0,1.0,20.00
2024-09-29 18:15:37.552,0.37127253,-0.008458954,-0.412182,0.5993532,0.4308705,0.025874509,-0.15365306,0.43619186,0.7372716,0.23981999,-0.07643949,0.74199355,0.6548704,-0.17477994,-0.15746863,0.4182667,-0.03690769,-0.288801,-0.44703317,0.0123468395,811.50183,796.5934,803.44324,816.337,880.40295,-0.2835693359375,0.105224609375,0.9576416015625,-0.680389404296875,-1.861724853515625,1.368255615234375,1,1.0,1.0,1.0,1.0,20.00
2024-09-29 18:15:37.553,0.37127253,-0.008458954,-0.412182,0.5993532,0.4308705,0.025874509,-0.15365306,0.43619186,0.7372716,0.23981999,-0.07643949,0.74199355,0.6548704,-0.17477994,-0.15746863,0.4182667,-0.03690769,-0.288801,-0.44703317,0.0123468395,819.9634,802.6374,803.44324,806.6667,752.674,-0.2835693359375,0.105224609375,0.9576416015625,-0.680389404296875,-1.861724853515625,1.368255615234375,1,1.0,1.0,1.0,1.0,20.00
2024-09-29 18:15:37.553,0.37127253,-0.008458954,-0.412182,0.5993532,0.4308705,0.025874509,-0.15365306,0.43619186,0.7372716,0.23981999,-0.07643949,0.74199355,0.6548704,-0.17477994,-0.15746863,0.4182667,-0.03690769,-0.288801,-0.44703317,0.0123468395,818.3516,803.8461,801.4286,802.6374,765.16486,-0.2835693359375,0.105224609375,0.9576416015625,-0.680389404296875,-1.861724853515625,1.368255615234375,1,1.0,1.0,1.0,1.0,20.00
2024-09-29 18:15:37.554,0.37127253,-0.008458954,-0.412182,0.5993532,0.4308705,0.025874509,-0.15365306,0.43619186,0.7372716,0.23981999,-0.07643949,0.74199355,0.6548704,-0.17477994,-0.15746863,0.4182667,-0.03690769,-0.288801,-0.44703317,0.0123468395,814.7253,803.44324,798.60803,813.91943,864.2857,-0.2835693359375,0.105224609375,0.9576416015625,-0.680389404296875,-1.861724853515625,1.368255615234375,1,1.0,1.0,1.0,1.0,20.00
2024-09-29 18:15:37.554,0.37127253,-0.008458954,-0.412182,0.5993532,0.4308705,0.025874509,-0.15365306,0.43619186,0.7372716,0.23981999,-0.07643949,0.74199355,0.6548704,-0.17477994,-0.15746863,0.4182667,-0.03690769,-0.288801,-0.44703317,0.0123468395,810.293,804.65204,794.9817,808.68134,950.5128,-0.2835693359375,0.105224609375,0.9576416015625,-0.680389404296875,-1.861724853515625,1.368255615234375,1,1.0,1.0,1.0,1.0,20.00
2024-09-29 18:15:37.555,0.37127253,-0.008458954,-0.412182,0.5993532,0.4308705,0.025874509,-0.15365306,0.43619186,0.7372716,0.23981999,-0.07643949,0.74199355,0.6548704,-0.17477994,-0.15746863,0.4182667,-0.03690769,-0.288801,-0.44703317,0.0123468395,817.5458,806.6667,794.57874,801.4286,813.91943,-0.2835693359375,0.105224609375,0.9576416015625,-0.680389404296875,-1.861724853515625,1.368255615234375,1,1.0,1.0,1.0,1.0,20.00
2024-09-29 18:15:37.613,0.37127253,-0.008458954,-0.412182,0.5993532,0.4308705,0.025874509,-0.15365306,0.43619186,0.7372716,0.23981999,-0.07643949,0.74199355,0.6548704,-0.17477994,-0.15746863,0.4182667,-0.03690769,-0.288801,-0.44703317,0.0123468395,821.978,803.44324,799.011,803.8461,736.9597,-0.2835693359375,0.105224609375,0.9576416015625,-0.680389404296875,-1.861724853515625,1.368255615234375,1,1.0,1.0,1.0,1.0,20.00
2024-09-29 18:15:37.614,0.37127253,-0.008458954,-0.412182,0.5993532,0.4308705,0.025874509,-0.15365306,0.43619186,0.7372716,0.23981999,-0.07643949,0.74199355,0.6548704,-0.17477994,-0.15746863,0.4182667,-0.03690769,-0.288801,-0.44703317,0.0123468395,820.7692,794.9817,797.8022,805.4579,870.7326,-0.2835693359375,0.105224609375,0.9576416015625,-0.680389404296875,-1.861724853515625,1.368255615234375,1,1.0,1.0,1.0,1.0,20.00
2024-09-29 18:15:37.615,0.37127253,-0.008458954,-0.412182,0.5993532,0.4308705,0.025874509,-0.15365306,0.43619186,0.7372716,0.23981999,-0.07643949,0.74199355,0.6548704,-0.17477994,-0.15746863,0.4182667,-0.03690769,-0.288801,-0.44703317,0.0123468395,818.3516,794.9817,794.9817,807.8755,923.91943,-0.2835693359375,0.105224609375,0.9576416015625,-0.680389404296875,-1.861724853515625,1.368255615234375,1,1.0,1.0,1.0,1.0,20.00
2024-09-29 18:15:37.616,0.37127253,-0.008458954,-0.412182,0.5993532,0.4308705,0.025874509,-0.15365306,0.43619186,0.7372716,0.23981999,-0.07643949,0.74199355,0.6548704,-0.17477994,-0.15746863,0.4182667,-0.03690769,-0.288801,-0.44703317,0.0123468395,817.5458,797.8022,801.02563,813.1135,770.0,-0.2835693359375,0.105224609375,0.9576416015625,-0.680389404296875,-1.861724853515625,1.368255615234375,1,1.0,1.0,1.0,1.0,20.00
2024-09-29 18:15:37.617,0.37127253,-0.008458954,-0.412182,0.5993532,0.4308705,0.025874509,-0.15365306,0.43619186,0.7372716,0.23981999,-0.07643949,0.74199355,0.6548704,-0.17477994,-0.15746863,0.4182667,-0.03690769,-0.288801,-0.44703317,0.0123468395,817.5458,798.20514,803.44324,815.5311,653.95605,-0.2835693359375,0.105224609375,0.9576416015625,-0.680389404296875,-1.861724853515625,1.368255615234375,1,1.0,1.0,1.0,1.0,20.00
2024-09-29 18:15:37.619,0.37127253,-0.008458954,-0.412182,0.5993532,0.4308705,0.025874509,-0.15365306,0.43619186,0.7372716,0.23981999,-0.07643949,0.74199355,0.6548704,-0.17477994,-0.15746863,0.4182667,-0.03690769,-0.288801,-0.44703317,0.0123468395,813.1135,802.23444,803.44324,815.12823,921.50183,-0.2835693359375,0.105224609375,0.9576416015625,-0.680389404296875,-1.861724853515625,1.368255615234375,1,1.0,1.0,1.0,1.0,20.00
2024-09-29 18:15:37.620,0.37127253,-0.008458954,-0.412182,0.5993532,0.4308705,0.025874509,-0.15365306,0.43619186,0.7372716,0.23981999,-0.07643949,0.74199355,0.6548704,-0.17477994,-0.15746863,0.4182667,-0.03690769,-0.288801,-0.44703317,0.0123468395,812.71063,803.8461,804.65204,817.9487,1016.5934,-0.2835693359375,0.105224609375,0.9576416015625,-0.680389404296875,-1.861724853515625,1.368255615234375,1,1.0,1.0,1.0,1.0,20.00
2024-09-29 18:15:37.620,0.37127253,-0.008458954,-0.412182,0.5993532,0.4308705,0.025874509,-0.15365306,0.43619186,0.7372716,0.23981999,-0.07643949,0.74199355,0.6548704,-0.17477994,-0.15746863,0.4182667,-0.03690769,-0.288801,-0.44703317,0.0123468395,810.696,803.8461,802.23444,814.7253,671.28204,-0.2835693359375,0.105224609375,0.9576416015625,-0.680389404296875,-1.861724853515625,1.368255615234375,1,1.0,1.0,1.0,1.0,20.00
2024-09-29 18:15:37.621,0.37127253,-0.008458954,-0.412182,0.5993532,0.4308705,0.025874509,-0.15365306,0.43619186,0.7372716,0.23981999,-0.07643949,0.74199355,0.6548704,-0.17477994,-0.15746863,0.4182667,-0.03690769,-0.288801,-0.44703317,0.0123468395,814.3223,801.8315,803.44324,809.89014,596.337,-0.2835693359375,0.105224609375,0.9576416015625,-0.680389404296875,-1.861724853515625,1.368255615234375,1,1.0,1.0,1.0,1.0,20.00
2024-09-29 18:15:37.621,0.37127253,-0.008458954,-0.412182,0.5993532,0.4308705,0.025874509,-0.15365306,0.43619186,0.7372716,0.23981999,-0.07643949,0.74199355,0.6548704,-0.17477994,-0.15746863,0.4182667,-0.03690769,-0.288801,-0.44703317,0.0123468395,814.7253,798.60803,799.41394,810.293,875.9707,-0.2835693359375,0.105224609375,0.9576416015625,-0.680389404296875,-1.861724853515625,1.368255615234375,1,1.0,1.0,1.0,1.0,20.00
2024-09-29 18:15:37.622,0.37127253,-0.008458954,-0.412182,0.5993532,0.4308705,0.025874509,-0.15365306,0.43619186,0.7372716,0.23981999,-0.07643949,0.74199355,0.6548704,-0.17477994,-0.15746863,0.4182667,-0.03690769,-0.288801,-0.44703317,0.0123468395,815.12823,801.8315,795.78754,812.3077,908.20514,-0.2835693359375,0.105224609375,0.9576416015625,-0.680389404296875,-1.861724853515625,1.368255615234375,1,1.0,1.0,1.0,1.0,20.00
2024-09-29 18:15:37.623,0.37127253,-0.008458954,-0.412182,0.5993532,0.4308705,0.025874509,-0.15365306,0.43619186,0.7372716,0.23981999,-0.07643949,0.74199355,0.6548704,-0.17477994,-0.15746863,0.4182667,-0.03690769,-0.288801,-0.44703317,0.0123468395,823.1868,803.0403,796.99634,804.65204,740.989,-0.2835693359375,0.105224609375,0.9576416015625,-0.680389404296875,-1.861724853515625,1.368255615234375,1,1.0,1.0,1.0,1.0,20.00
2024-09-29 18:15:37.646,0.37127253,-0.008458954,-0.412182,0.5993532,0.4308705,0.025874509,-0.15365306,0.43619186,0.7372716,0.23981999,-0.07643949,0.74199355,0.6548704,-0.17477994,-0.15746863,0.4182667,-0.03690769,-0.288801,-0.44703317,0.0123468395,826.8132,802.6374,795.38464,807.47253,794.17584,-0.2840576171875,0.10589599609375,0.96942138671875,-0.441131591796875,-1.607513427734375,0.471038818359375,1,1.0,1.0,1.0,1.0,20.00
2024-09-29 18:15:37.647,0.37127253,-0.008458954,-0.412182,0.5993532,0.4308705,0.025874509,-0.15365306,0.43619186,0.7372716,0.23981999,-0.07643949,0.74199355,0.6548704,-0.17477994,-0.15746863,0.4182667,-0.03690769,-0.288801,-0.44703317,0.0123468395,819.15753,801.4286,797.3993,816.7399,1134.652,-0.2840576171875,0.10589599609375,0.96942138671875,-0.441131591796875,-1.607513427734375,0.471038818359375,1,1.0,1.0,1.0,1.0,20.00
2024-09-29 18:15:37.648,0.37127253,-0.008458954,-0.412182,0.5993532,0.4308705,0.025874509,-0.15365306,0.43619186,0.7372716,0.23981999,-0.07643949,0.74199355,0.6548704,-0.17477994,-0.15746863,0.4182667,-0.03690769,-0.288801,-0.44703317,0.0123468395,815.9341,796.99634,803.0403,815.5311,1061.7216,-0.2840576171875,0.10589599609375,0.96942138671875,-0.441131591796875,-1.607513427734375,0.471038818359375,1,1.0,1.0,1.0,1.0,20.00
2024-09-29 18:15:37.649,0.37127253,-0.008458954,-0.412182,0.5993532,0.4308705,0.025874509,-0.15365306,0.43619186,0.7372716,0.23981999,-0.07643949,0.74199355,0.6548704,-0.17477994,-0.15746863,0.4182667,-0.03690769,-0.288801,-0.44703317,0.0123468395,815.12823,797.3993,804.2491,804.65204,744.21246,-0.2840576171875,0.10589599609375,0.96942138671875,-0.441131591796875,-1.607513427734375,0.471038818359375,1,1.0,1.0,1.0,1.0,20.00
2024-09-29 18:15:37.649,0.37127253,-0.008458954,-0.412182,0.5993532,0.4308705,0.025874509,-0.15365306,0.43619186,0.7372716,0.23981999,-0.07643949,0.74199355,0.6548704,-0.17477994,-0.15746863,0.4182667,-0.03690769,-0.288801,-0.44703317,0.0123468395,806.26373,800.2198,802.6374,798.20514,780.4762,-0.2840576171875,0.10589599609375,0.96942138671875,-0.441131591796875,-1.607513427734375,0.471038818359375,1,1.0,1.0,1.0,1.0,20.00
2024-09-29 18:15:37.650,0.37127253,-0.008458954,-0.412182,0.5993532,0.4308705,0.025874509,-0.15365306,0.43619186,0.7372716,0.23981999,-0.07643949,0.74199355,0.6548704,-0.17477994,-0.15746863,0.4182667,-0.03690769,-0.288801,-0.44703317,0.0123468395,813.5165,799.81683,799.011,801.4286,1031.9048,-0.2840576171875,0.10589599609375,0.96942138671875,-0.441131591796875,-1.607513427734375,0.471038818359375,1,1.0,1.0,1.0,1.0,20.00
2024-09-29 18:15:37.651,0.37127253,-0.008458954,-0.412182,0.5993532,0.4308705,0.025874509,-0.15365306,0.43619186,0.7372716,0.23981999,-0.07643949,0.74199355,0.6548704,-0.17477994,-0.15746863,0.4182667,-0.03690769,-0.288801,-0.44703317,0.0123468395,821.1722,799.81683,797.3993,801.4286,1046.8132,-0.2840576171875,0.10589599609375,0.96942138671875,-0.441131591796875,-1.607513427734375,0.471038818359375,1,1.0,1.0,1.0,1.0,20.00
2024-09-29 18:15:37.652,0.35391662,0.0047529526,-0.42151523,0.5739823,0.4452668,0.03732544,-0.12783103,0.4369953,0.6945318,0.23421516,-0.07264614,0.74199355,0.6303048,-0.16247302,-0.1427452,0.40728316,-0.05658955,-0.29920346,-0.44305745,0.0156711,813.91943,798.60803,799.41394,803.8461,969.85345,-0.2840576171875,0.10589599609375,0.96942138671875,-0.441131591796875,-1.607513427734375,0.471038818359375,1,1.0,1.0,1.0,1.0,20.00
2024-09-29 18:15:37.657,0.35391662,0.0047529526,-0.42151523,0.5739823,0.4452668,0.03732544,-0.12783103,0.4369953,0.6945318,0.23421516,-0.07264614,0.74199355,0.6303048,-0.16247302,-0.1427452,0.40728316,-0.05658955,-0.29920346,-0.44305745,0.0156711,811.9048,803.8461,798.60803,805.05493,896.1172,-0.2840576171875,0.10589599609375,0.96942138671875,-0.441131591796875,-1.607513427734375,0.471038818359375,1,1.0,1.0,1.0,1.0,20.00
2024-09-29 18:15:37.658,0.35391662,0.0047529526,-0.42151523,0.5739823,0.4452668,0.03732544,-0.12783103,0.4369953,0.6945318,0.23421516,-0.07264614,0.74199355,0.6303048,-0.16247302,-0.1427452,0.40728316,-0.05658955,-0.29920346,-0.44305745,0.0156711,815.9341,807.8755,796.99634,803.0403,938.4249,-0.2840576171875,0.10589599609375,0.96942138671875,-0.441131591796875,-1.607513427734375,0.471038818359375,1,1.0,1.0,1.0,1.0,20.00
2024-09-29 18:15:37.658,0.35391662,0.0047529526,-0.42151523,0.5739823,0.4452668,0.03732544,-0.12783103,0.4369953,0.6945318,0.23421516,-0.07264614,0.74199355,0.6303048,-0.16247302,-0.1427452,0.40728316,-0.05658955,-0.29920346,-0.44305745,0.0156711,817.1429,805.4579,793.7729,805.8608,959.7802,-0.2840576171875,0.10589599609375,0.96942138671875,-0.441131591796875,-1.607513427734375,0.471038818359375,1,1.0,1.0,1.0,1.0,20.00
2024-09-29 18:15:37.659,0.35391662,0.0047529526,-0.42151523,0.5739823,0.4452668,0.03732544,-0.12783103,0.4369953,0.6945318,0.23421516,-0.07264614,0.74199355,0.6303048,-0.16247302,-0.1427452,0.40728316,-0.05658955,-0.29920346,-0.44305745,0.0156711,821.978,812.71063,798.20514,807.8755,841.31866,-0.2840576171875,0.10589599609375,0.96942138671875,-0.441131591796875,-1.607513427734375,0.471038818359375,1,1.0,1.0,1.0,1.0,20.00
2024-09-29 18:15:37.660,0.35391662,0.0047529526,-0.42151523,0.5739823,0.4452668,0.03732544,-0.12783103,0.4369953,0.6945318,0.23421516,-0.07264614,0.74199355,0.6303048,-0.16247302,-0.1427452,0.40728316,-0.05658955,-0.29920346,-0.44305745,0.0156711,824.3956,806.6667,803.0403,800.6227,835.2747,-0.27728271484375,0.10186767578125,0.95770263671875,-0.3887939453125,-1.502838134765625,0.007476806640625,1,1.0,1.0,1.0,1.0,20.00
2024-09-29 18:15:37.660,0.35391662,0.0047529526,-0.42151523,0.5739823,0.4452668,0.03732544,-0.12783103,0.4369953,0.6945318,0.23421516,-0.07264614,0.74199355,0.6303048,-0.16247302,-0.1427452,0.40728316,-0.05658955,-0.29920346,-0.44305745,0.0156711,825.6044,802.23444,798.20514,799.81683,987.5824,-0.27728271484375,0.10186767578125,0.95770263671875,-0.3887939453125,-1.502838134765625,0.007476806640625,1,1.0,1.0,1.0,1.0,20.00
2024-09-29 18:15:37.661,0.35391662,0.0047529526,-0.42151523,0.5739823,0.4452668,0.03732544,-0.12783103,0.4369953,0.6945318,0.23421516,-0.07264614,0.74199355,0.6303048,-0.16247302,-0.1427452,0.40728316,-0.05658955,-0.29920346,-0.44305745,0.0156711,823.1868,807.0696,800.2198,805.4579,946.08057,-0.27728271484375,0.10186767578125,0.95770263671875,-0.3887939453125,-1.502838134765625,0.007476806640625,1,1.0,1.0,1.0,1.0,20.00
2024-09-29 18:15:37.662,0.35391662,0.0047529526,-0.42151523,0.5739823,0.4452668,0.03732544,-0.12783103,0.4369953,0.6945318,0.23421516,-0.07264614,0.74199355,0.6303048,-0.16247302,-0.1427452,0.40728316,-0.05658955,-0.29920346,-0.44305745,0.0156711,813.5165,807.47253,804.2491,807.47253,846.9597,-0.27728271484375,0.10186767578125,0.95770263671875,-0.3887939453125,-1.502838134765625,0.007476806640625,1,1.0,1.0,1.0,1.0,20.00
2024-09-29 18:15:37.662,0.35391662,0.0047529526,-0.42151523,0.5739823,0.4452668,0.03732544,-0.12783103,0.4369953,0.6945318,0.23421516,-0.07264614,0.74199355,0.6303048,-0.16247302,-0.1427452,0.40728316,-0.05658955,-0.29920346,-0.44305745,0.0156711,812.71063,798.20514,801.4286,810.696,848.97437,-0.27728271484375,0.10186767578125,0.95770263671875,-0.3887939453125,-1.502838134765625,0.007476806640625,1,1.0,1.0,1.0,1.0,20.00
2024-09-29 18:15:37.663,0.35391662,0.0047529526,-0.42151523,0.5739823,0.4452668,0.03732544,-0.12783103,0.4369953,0.6945318,0.23421516,-0.07264614,0.74199355,0.6303048,-0.16247302,-0.1427452,0.40728316,-0.05658955,-0.29920346,-0.44305745,0.0156711,819.5604,794.57874,801.02563,813.91943,1019.81683,-0.27728271484375,0.10186767578125,0.95770263671875,-0.3887939453125,-1.502838134765625,0.007476806640625,1,1.0,1.0,1.0,1.0,20.00
2024-09-29 18:15:37.663,0.35391662,0.0047529526,-0.42151523,0.5739823,0.4452668,0.03732544,-0.12783103,0.4369953,0.6945318,0.23421516,-0.07264614,0.74199355,0.6303048,-0.16247302,-0.1427452,0.40728316,-0.05658955,-0.29920346,-0.44305745,0.0156711,823.9927,801.8315,802.6374,812.3077,1040.3663,-0.27728271484375,0.10186767578125,0.95770263671875,-0.3887939453125,-1.502838134765625,0.007476806640625,1,1.0,1.0,1.0,1.0,20.00
2024-09-29 18:15:37.664,0.35391662,0.0047529526,-0.42151523,0.5739823,0.4452668,0.03732544,-0.12783103,0.4369953,0.6945318,0.23421516,-0.07264614,0.74199355,0.6303048,-0.16247302,-0.1427452,0.40728316,-0.05658955,-0.29920346,-0.44305745,0.0156711,817.5458,807.47253,794.9817,811.50183,883.6264,-0.27728271484375,0.10186767578125,0.95770263671875,-0.3887939453125,-1.502838134765625,0.007476806640625,1,1.0,1.0,1.0,1.0,20.00
2024-09-29 18:15:37.666,0.35391662,0.0047529526,-0.42151523,0.5739823,0.4452668,0.03732544,-0.12783103,0.4369953,0.6945318,0.23421516,-0.07264614,0.74199355,0.6303048,-0.16247302,-0.1427452,0.40728316,-0.05658955,-0.29920346,-0.44305745,0.0156711,818.7546,805.05493,792.5641,813.91943,957.3626,-0.27728271484375,0.10186767578125,0.95770263671875,-0.3887939453125,-1.502838134765625,0.007476806640625,1,1.0,1.0,1.0,1.0,20.00
2024-09-29 18:15:37.666,0.35391662,0.0047529526,-0.42151523,0.5739823,0.4452668,0.03732544,-0.12783103,0.4369953,0.6945318,0.23421516,-0.07264614,0.74199355,0.6303048,-0.16247302,-0.1427452,0.40728316,-0.05658955,-0.29920346,-0.44305745,0.0156711,823.5897,801.8315,794.57874,810.696,973.8828,-0.27728271484375,0.10186767578125,0.95770263671875,-0.3887939453125,-1.502838134765625,0.007476806640625,1,1.0,1.0,1.0,1.0,20.00
2024-09-29 18:15:37.668,0.35391662,0.0047529526,-0.42151523,0.5739823,0.4452668,0.03732544,-0.12783103,0.4369953,0.6945318,0.23421516,-0.07264614,0.74199355,0.6303048,-0.16247302,-0.1427452,0.40728316,-0.05658955,-0.29920346,-0.44305745,0.0156711,821.5751,806.26373,795.78754,818.3516,795.78754,-0.27728271484375,0.10186767578125,0.95770263671875,-0.3887939453125,-1.502838134765625,0.007476806640625,1,1.0,1.0,1.0,1.0,20.00
2024-09-29 18:15:37.672,0.35391662,0.0047529526,-0.42151523,0.5739823,0.4452668,0.03732544,-0.12783103,0.4369953,0.6945318,0.23421516,-0.07264614,0.74199355,0.6303048,-0.16247302,-0.1427452,0.40728316,-0.05658955,-0.29920346,-0.44305745,0.0156711,819.15753,802.6374,803.8461,826.8132,816.337,-0.27728271484375,0.10186767578125,0.95770263671875,-0.3887939453125,-1.502838134765625,0.007476806640625,1,1.0,1.0,1.0,1.0,20.00
2024-09-29 18:15:37.673,0.35391662,0.0047529526,-0.42151523,0.5739823,0.4452668,0.03732544,-0.12783103,0.4369953,0.6945318,0.23421516,-0.07264614,0.74199355,0.6303048,-0.16247302,-0.1427452,0.40728316,-0.05658955,-0.29920346,-0.44305745,0.0156711,815.12823,799.41394,804.65204,827.619,906.5934,-0.28662109375,0.099853515625,0.96337890625,-0.426177978515625,-1.009368896484375,-0.500946044921875,1,1.0,1.0,1.0,1.0,20.00
2024-09-29 18:15:37.674,0.35391662,0.0047529526,-0.42151523,0.5739823,0.4452668,0.03732544,-0.12783103,0.4369953,0.6945318,0.23421516,-0.07264614,0.74199355,0.6303048,-0.16247302,-0.1427452,0.40728316,-0.05658955,-0.29920346,-0.44305745,0.0156711,817.1429,801.4286,802.6374,819.15753,751.8681,-0.28662109375,0.099853515625,0.96337890625,-0.426177978515625,-1.009368896484375,-0.500946044921875,1,1.0,1.0,1.0,1.0,20.00
2024-09-29 18:15:37.675,0.35391662,0.0047529526,-0.42151523,0.5739823,0.4452668,0.03732544,-0.12783103,0.4369953,0.6945318,0.23421516,-0.07264614,0.74199355,0.6303048,-0.16247302,-0.1427452,0.40728316,-0.05658955,-0.29920346,-0.44305745,0.0156711,820.7692,801.8315,801.8315,811.50183,718.8278,-0.28662109375,0.099853515625,0.96337890625,-0.426177978515625,-1.009368896484375,-0.500946044921875,1,1.0,1.0,1.0,1.0,20.00
2024-09-29 18:15:37.675,0.35391662,0.0047529526,-0.42151523,0.5739823,0.4452668,0.03732544,-0.12783103,0.4369953,0.6945318,0.23421516,-0.07264614,0.74199355,0.6303048,-0.16247302,-0.1427452,0.40728316,-0.05658955,-0.29920346,-0.44305745,0.0156711,823.5897,798.60803,801.4286,813.91943,957.3626,-0.28662109375,0.099853515625,0.96337890625,-0.426177978515625,-1.009368896484375,-0.500946044921875,1,1.0,1.0,1.0,1.0,20.00
2024-09-29 18:15:37.676,0.35391662,0.0047529526,-0.42151523,0.5739823,0.4452668,0.03732544,-0.12783103,0.4369953,0.6945318,0.23421516,-0.07264614,0.74199355,0.6303048,-0.16247302,-0.1427452,0.40728316,-0.05658955,-0.29920346,-0.44305745,0.0156711,823.1868,793.7729,800.6227,811.50183,1032.3077,-0.28662109375,0.099853515625,0.96337890625,-0.426177978515625,-1.009368896484375,-0.500946044921875,1,1.0,1.0,1.0,1.0,20.00
2024-09-29 18:15:37.676,0.35391662,0.0047529526,-0.42151523,0.5739823,0.4452668,0.03732544,-0.12783103,0.4369953,0.6945318,0.23421516,-0.07264614,0.74199355,0.6303048,-0.16247302,-0.1427452,0.40728316,-0.05658955,-0.29920346,-0.44305745,0.0156711,814.7253,795.38464,796.1905,807.47253,920.696,-0.28662109375,0.099853515625,0.96337890625,-0.426177978515625,-1.009368896484375,-0.500946044921875,1,1.0,1.0,1.0,1.0,20.00
2024-09-29 18:15:37.677,0.35391662,0.0047529526,-0.42151523,0.5739823,0.4452668,0.03732544,-0.12783103,0.4369953,0.6945318,0.23421516,-0.07264614,0.74199355,0.6303048,-0.16247302,-0.1427452,0.40728316,-0.05658955,-0.29920346,-0.44305745,0.0156711,811.9048,798.20514,789.34064,804.65204,867.50916,-0.28662109375,0.099853515625,0.96337890625,-0.426177978515625,-1.009368896484375,-0.500946044921875,1,1.0,1.0,1.0,1.0,20.00
2024-09-29 18:15:37.678,0.35391662,0.0047529526,-0.42151523,0.5739823,0.4452668,0.03732544,-0.12783103,0.4369953,0.6945318,0.23421516,-0.07264614,0.74199355,0.6303048,-0.16247302,-0.1427452,0.40728316,-0.05658955,-0.29920346,-0.44305745,0.0156711,817.1429,796.5934,792.5641,803.44324,915.05493,-0.28662109375,0.099853515625,0.96337890625,-0.426177978515625,-1.009368896484375,-0.500946044921875,1,1.0,1.0,1.0,1.0,20.00
2024-09-29 18:15:37.678,0.35391662,0.0047529526,-0.42151523,0.5739823,0.4452668,0.03732544,-0.12783103,0.4369953,0.6945318,0.23421516,-0.07264614,0.74199355,0.6303048,-0.16247302,-0.1427452,0.40728316,-0.05658955,-0.29920346,-0.44305745,0.0156711,819.9634,794.9817,798.20514,807.0696,970.2564,-0.28662109375,0.099853515625,0.96337890625,-0.426177978515625,-1.009368896484375,-0.500946044921875,1,1.0,1.0,1.0,1.0,20.00
2024-09-29 18:15:37.679,0.33925447,0.029552095,-0.4250534,0.54452264,0.44958422,0.042416103,-0.102018714,0.44543016,0.6688815,0.22021453,-0.048363138,0.74199355,0.59665954,-0.14619946,-0.12510389,0.40114173,-0.06776029,-0.30322403,-0.43154776,0.017473247,823.1868,798.20514,798.20514,806.6667,810.696,-0.28662109375,0.099853515625,0.96337890625,-0.426177978515625,-1.009368896484375,-0.500946044921875,1,1.0,1.0,1.0,1.0,20.00
2024-09-29 18:15:37.683,0.33925447,0.029552095,-0.4250534,0.54452264,0.44958422,0.042416103,-0.102018714,0.44543016,0.6688815,0.22021453,-0.048363138,0.74199355,0.59665954,-0.14619946,-0.12510389,0.40114173,-0.06776029,-0.30322403,-0.43154776,0.017473247,829.2308,803.8461,801.4286,802.23444,656.77655,-0.28662109375,0.099853515625,0.96337890625,-0.426177978515625,-1.009368896484375,-0.500946044921875,1,1.0,1.0,1.0,1.0,20.00
2024-09-29 18:15:37.684,0.33925447,0.029552095,-0.4250534,0.54452264,0.44958422,0.042416103,-0.102018714,0.44543016,0.6688815,0.22021453,-0.048363138,0.74199355,0.59665954,-0.14619946,-0.12510389,0.40114173,-0.06776029,-0.30322403,-0.43154776,0.017473247,835.6777,807.8755,805.05493,805.8608,861.06226,-0.28662109375,0.099853515625,0.96337890625,-0.426177978515625,-1.009368896484375,-0.500946044921875,1,1.0,1.0,1.0,1.0,20.00
2024-09-29 18:15:37.684,0.33925447,0.029552095,-0.4250534,0.54452264,0.44958422,0.042416103,-0.102018714,0.44543016,0.6688815,0.22021453,-0.048363138,0.74199355,0.59665954,-0.14619946,-0.12510389,0.40114173,-0.06776029,-0.30322403,-0.43154776,0.017473247,834.87177,799.41394,803.0403,818.7546,1366.7399,-0.29248046875,0.09588623046875,0.9593505859375,0.40374755859375,-0.657958984375,-1.30096435546875,1,1.0,1.0,1.0,1.0,20.00
2024-09-29 18:15:37.685,0.33925447,0.029552095,-0.4250534,0.54452264,0.44958422,0.042416103,-0.102018714,0.44543016,0.6688815,0.22021453,-0.048363138,0.74199355,0.59665954,-0.14619946,-0.12510389,0.40114173,-0.06776029,-0.30322403,-0.43154776,0.017473247,828.8278,794.57874,805.4579,823.5897,1323.2234,-0.29248046875,0.09588623046875,0.9593505859375,0.40374755859375,-0.657958984375,-1.30096435546875,1,1.0,1.0,1.0,1.0,20.00
2024-09-29 18:15:37.686,0.33925447,0.029552095,-0.4250534,0.54452264,0.44958422,0.042416103,-0.102018714,0.44543016,0.6688815,0.22021453,-0.048363138,0.74199355,0.59665954,-0.14619946,-0.12510389,0.40114173,-0.06776029,-0.30322403,-0.43154776,0.017473247,830.0366,800.6227,809.89014,821.5751,753.47986,-0.29248046875,0.09588623046875,0.9593505859375,0.40374755859375,-0.657958984375,-1.30096435546875,1,1.0,1.0,1.0,1.0,20.00
2024-09-29 18:15:37.686,0.33925447,0.029552095,-0.4250534,0.54452264,0.44958422,0.042416103,-0.102018714,0.44543016,0.6688815,0.22021453,-0.048363138,0.74199355,0.59665954,-0.14619946,-0.12510389,0.40114173,-0.06776029,-0.30322403,-0.43154776,0.017473247,831.2454,801.02563,810.293,823.9927,671.28204,-0.29248046875,0.09588623046875,0.9593505859375,0.40374755859375,-0.657958984375,-1.30096435546875,1,1.0,1.0,1.0,1.0,20.00
2024-09-29 18:15:37.687,0.33925447,0.029552095,-0.4250534,0.54452264,0.44958422,0.042416103,-0.102018714,0.44543016,0.6688815,0.22021453,-0.048363138,0.74199355,0.59665954,-0.14619946,-0.12510389,0.40114173,-0.06776029,-0.30322403,-0.43154776,0.017473247,822.381,802.23444,805.05493,827.2161,830.4396,-0.29248046875,0.09588623046875,0.9593505859375,0.40374755859375,-0.657958984375,-1.30096435546875,1,1.0,1.0,1.0,1.0,20.00
2024-09-29 18:15:37.687,0.33925447,0.029552095,-0.4250534,0.54452264,0.44958422,0.042416103,-0.102018714,0.44543016,0.6688815,0.22021453,-0.048363138,0.74199355,0.59665954,-0.14619946,-0.12510389,0.40114173,-0.06776029,-0.30322403,-0.43154776,0.017473247,824.7985,806.6667,801.02563,828.8278,761.13556,-0.29248046875,0.09588623046875,0.9593505859375,0.40374755859375,-0.657958984375,-1.30096435546875,1,1.0,1.0,1.0,1.0,20.00
