TimeStamp,Delta_TP9,Delta_AF7,Delta_AF8,Delta_TP10,Theta_TP9,Theta_AF7,Theta_AF8,Theta_TP10,Alpha_TP9,Alpha_AF7,Alpha_AF8,Alpha_TP10,Beta_TP9,Beta_AF7,Beta_AF8,Beta_TP10,Gamma_TP9,Gamma_AF7,Gamma_AF8,Gamma_TP10,RAW_TP9,RAW_AF7,RAW_AF8,RAW_TP10,AUX_RIGHT,Accelerometer_X,Accelerometer_Y,Accelerometer_Z,Gyro_X,Gyro_Y,Gyro_Z,HeadBandOn,HSI_TP9,HSI_AF7,HSI_AF8,HSI_TP10,Battery,Elements
2024-09-29 18:19:23.435,0.5921109,0.18341054,0.27674046,0.56285924,0.5649255,-0.5180331,0.048699167,0.48626816,0.18942745,-0.19485249,0.080984086,-0.030099533,0.5354991,-0.22362258,-0.111742005,0.16084474,0.049136437,-0.5746682,-0.24818853,0.09568625,815.5311,796.99634,786.1172,808.2784,780.87915,-0.12884521484375,0.16033935546875,0.9912109375,0.157012939453125,-0.201873779296875,-0.022430419921875,1,1.0,1.0,1.0,1.0,20.00
2024-09-29 18:19:23.436,0.5921109,0.18341054,0.27674046,0.56285924,0.5649255,-0.5180331,0.048699167,0.48626816,0.18942745,-0.19485249,0.080984086,-0.030099533,0.5354991,-0.22362258,-0.111742005,0.16084474,0.049136437,-0.5746682,-0.24818853,0.09568625,817.1429,798.20514,782.0879,813.1135,865.89746,-0.12884521484375,0.16033935546875,0.9912109375,0.157012939453125,-0.201873779296875,-0.022430419921875,1,1.0,1.0,1.0,1.0,20.00
2024-09-29 18:19:23.437,0.5921109,0.18341054,0.27674046,0.56285924,0.5649255,-0.5180331,0.048699167,0.48626816,0.18942745,-0.19485249,0.080984086,-0.030099533,0.5354991,-0.22362258,-0.111742005,0.16084474,0.049136437,-0.5746682,-0.24818853,0.09568625,818.3516,794.57874,779.2674,811.0989,843.3333,-0.12884521484375,0.16033935546875,0.9912109375,0.157012939453125,-0.201873779296875,-0.022430419921875,1,1.0,1.0,1.0,1.0,20.00
2024-09-29 18:19:23.437,0.5921109,0.18341054,0.27674046,0.56285924,0.5649255,-0.5180331,0.048699167,0.48626816,0.18942745,-0.19485249,0.080984086,-0.030099533,0.5354991,-0.22362258,-0.111742005,0.16084474,0.049136437,-0.5746682,-0.24818853,0.09568625,811.9048,794.57874,784.5055,811.9048,703.5165,-0.12884521484375,0.16033935546875,0.9912109375,0.157012939453125,-0.201873779296875,-0.022430419921875,1,1.0,1.0,1.0,1.0,20.00
2024-09-29 18:19:23.438,0.5921109,0.18341054,0.27674046,0.56285924,0.5649255,-0.5180331,0.048699167,0.48626816,0.18942745,-0.19485249,0.080984086,-0.030099533,0.5354991,-0.22362258,-0.111742005,0.16084474,0.049136437,-0.5746682,-0.24818853,0.09568625,811.0989,792.1612,782.8938,814.7253,813.91943,-0.12884521484375,0.16033935546875,0.9912109375,0.157012939453125,-0.201873779296875,-0.022430419921875,1,1.0,1.0,1.0,1.0,20.00
2024-09-29 18:19:23.439,0.5921109,0.18341054,0.27674046,0.56285924,0.5649255,-0.5180331,0.048699167,0.48626816,0.18942745,-0.19485249,0.080984086,-0.030099533,0.5354991,-0.22362258,-0.111742005,0.16084474,0.049136437,-0.5746682,-0.24818853,0.09568625,813.5165,788.93774,782.49084,819.15753,965.82416,-0.12884521484375,0.16033935546875,0.9912109375,0.157012939453125,-0.201873779296875,-0.022430419921875,1,1.0,1.0,1.0,1.0,20.00
2024-09-29 18:19:23.439,0.5921109,0.18341054,0.27674046,0.56285924,0.5649255,-0.5180331,0.048699167,0.48626816,0.18942745,-0.19485249,0.080984086,-0.030099533,0.5354991,-0.22362258,-0.111742005,0.16084474,0.049136437,-0.5746682,-0.24818853,0.09568625,810.696,791.3553,787.326,828.8278,1139.4872,-0.12884521484375,0.16033935546875,0.9912109375,0.157012939453125,-0.201873779296875,-0.022430419921875,1,1.0,1.0,1.0,1.0,20.00
2024-09-29 18:19:23.440,0.5921109,0.18341054,0.27674046,0.56285924,0.5649255,-0.5180331,0.048699167,0.48626816,0.18942745,-0.19485249,0.080984086,-0.030099533,0.5354991,-0.22362258,-0.111742005,0.16084474,0.049136437,-0.5746682,-0.24818853,0.09568625,811.50183,793.36993,786.52014,834.4689,1315.1648,-0.12884521484375,0.16033935546875,0.9912109375,0.157012939453125,-0.201873779296875,-0.022430419921875,1,1.0,1.0,1.0,1.0,20.00
2024-09-29 18:19:23.441,0.5921109,0.18341054,0.27674046,0.56285924,0.5649255,-0.5180331,0.048699167,0.48626816,0.18942745,-0.19485249,0.080984086,-0.030099533,0.5354991,-0.22362258,-0.111742005,0.16084474,0.049136437,-0.5746682,-0.24818853,0.09568625,813.5165,799.011,785.7143,826.8132,1156.0073,-0.12884521484375,0.16033935546875,0.9912109375,0.157012939453125,-0.201873779296875,-0.022430419921875,1,1.0,1.0,1.0,1.0,20.00
2024-09-29 18:19:23.441,0.5921109,0.18341054,0.27674046,0.56285924,0.5649255,-0.5180331,0.048699167,0.48626816,0.18942745,-0.19485249,0.080984086,-0.030099533,0.5354991,-0.22362258,-0.111742005,0.16084474,0.049136437,-0.5746682,-0.24818853,0.09568625,809.4872,800.6227,788.93774,821.5751,932.381,-0.12884521484375,0.16033935546875,0.9912109375,0.157012939453125,-0.201873779296875,-0.022430419921875,1,1.0,1.0,1.0,1.0,20.00
2024-09-29 18:19:23.442,0.5921109,0.18341054,0.27674046,0.56285924,0.5649255,-0.5180331,0.048699167,0.48626816,0.18942745,-0.19485249,0.080984086,-0.030099533,0.5354991,-0.22362258,-0.111742005,0.16084474,0.049136437,-0.5746682,-0.24818853,0.09568625,811.0989,799.011,787.326,822.7839,896.9231,-0.12884521484375,0.16033935546875,0.9912109375,0.157012939453125,-0.201873779296875,-0.022430419921875,1,1.0,1.0,1.0,1.0,20.00
2024-09-29 18:19:23.442,0.5921109,0.18341054,0.27674046,0.56285924,0.5649255,-0.5180331,0.048699167,0.48626816,0.18942745,-0.19485249,0.080984086,-0.030099533,0.5354991,-0.22362258,-0.111742005,0.16084474,0.049136437,-0.5746682,-0.24818853,0.09568625,817.5458,798.60803,788.5348,818.7546,638.6447,-0.12884521484375,0.16033935546875,0.9912109375,0.157012939453125,-0.201873779296875,-0.022430419921875,1,1.0,1.0,1.0,1.0,20.00
2024-09-29 18:19:23.443,0.5921109,0.18341054,0.27674046,0.56285924,0.5649255,-0.5180331,0.048699167,0.48626816,0.18942745,-0.19485249,0.080984086,-0.030099533,0.5354991,-0.22362258,-0.111742005,0.16084474,0.049136437,-0.5746682,-0.24818853,0.09568625,815.5311,799.011,791.75824,820.3663,564.10254,-0.126220703125,0.16302490234375,0.98712158203125,-0.366363525390625,-0.538330078125,0.022430419921875,1,1.0,1.0,1.0,1.0,20.00
2024-09-29 18:19:23.444,0.5921109,0.18341054,0.27674046,0.56285924,0.5649255,-0.5180331,0.048699167,0.48626816,0.18942745,-0.19485249,0.080984086,-0.030099533,0.5354991,-0.22362258,-0.111742005,0.16084474,0.049136437,-0.5746682,-0.24818853,0.09568625,815.9341,799.81683,790.54944,817.1429,689.81683,-0.126220703125,0.16302490234375,0.98712158203125,-0.366363525390625,-0.538330078125,0.022430419921875,1,1.0,1.0,1.0,1.0,20.00
2024-09-29 18:19:23.445,0.5921109,0.18341054,0.27674046,0.56285924,0.5649255,-0.5180331,0.048699167,0.48626816,0.18942745,-0.19485249,0.080984086,-0.030099533,0.5354991,-0.22362258,-0.111742005,0.16084474,0.049136437,-0.5746682,-0.24818853,0.09568625,817.9487,796.99634,792.96704,813.5165,730.9158,-0.126220703125,0.16302490234375,0.98712158203125,-0.366363525390625,-0.538330078125,0.022430419921875,1,1.0,1.0,1.0,1.0,20.00
2024-09-29 18:19:23.445,0.5921109,0.18341054,0.27674046,0.56285924,0.5649255,-0.5180331,0.048699167,0.48626816,0.18942745,-0.19485249,0.080984086,-0.030099533,0.5354991,-0.22362258,-0.111742005,0.16084474,0.049136437,-0.5746682,-0.24818853,0.09568625,808.2784,794.9817,793.7729,815.5311,623.3333,-0.126220703125,0.16302490234375,0.98712158203125,-0.366363525390625,-0.538330078125,0.022430419921875,1,1.0,1.0,1.0,1.0,20.00
2024-09-29 18:19:23.446,0.5921109,0.18341054,0.27674046,0.56285924,0.5649255,-0.5180331,0.048699167,0.48626816,0.18942745,-0.19485249,0.080984086,-0.030099533,0.5354991,-0.22362258,-0.111742005,0.16084474,0.049136437,-0.5746682,-0.24818853,0.09568625,804.65204,794.17584,790.9524,813.5165,575.78754,-0.126220703125,0.16302490234375,0.98712158203125,-0.366363525390625,-0.538330078125,0.022430419921875,1,1.0,1.0,1.0,1.0,20.00
2024-09-29 18:19:23.446,0.5921109,0.18047729,0.2949912,0.56285924,0.5649255,-0.5128219,0.047452588,0.48626816,0.18942745,-0.24709882,0.080984086,-0.030099533,0.5354991,-0.23622921,-0.125805,0.16084474,0.049136437,-0.5850173,-0.23410474,0.09568625,807.8755,791.75824,790.14655,814.7253,872.3443,-0.126220703125,0.16302490234375,0.98712158203125,-0.366363525390625,-0.538330078125,0.022430419921875,1,1.0,1.0,1.0,1.0,20.00
2024-09-29 18:19:23.451,0.5921109,0.18047729,0.2949912,0.56285924,0.5649255,-0.5128219,0.047452588,0.48626816,0.18942745,-0.24709882,0.080984086,-0.030099533,0.5354991,-0.23622921,-0.125805,0.16084474,0.049136437,-0.5850173,-0.23410474,0.09568625,809.89014,790.54944,788.1319,809.89014,1000.87915,-0.126220703125,0.16302490234375,0.98712158203125,-0.366363525390625,-0.538330078125,0.022430419921875,1,1.0,1.0,1.0,1.0,20.00
2024-09-29 18:19:23.452,0.5921109,0.18047729,0.2949912,0.56285924,0.5649255,-0.5128219,0.047452588,0.48626816,0.18942745,-0.24709882,0.080984086,-0.030099533,0.5354991,-0.23622921,-0.125805,0.16084474,0.049136437,-0.5850173,-0.23410474,0.09568625,815.9341,790.14655,788.93774,809.0842,886.04395,-0.126220703125,0.16302490234375,0.98712158203125,-0.366363525390625,-0.538330078125,0.022430419921875,1,1.0,1.0,1.0,1.0,20.00
2024-09-29 18:19:23.453,0.5921109,0.18047729,0.2949912,0.56285924,0.5649255,-0.5128219,0.047452588,0.48626816,0.18942745,-0.24709882,0.080984086,-0.030099533,0.5354991,-0.23622921,-0.125805,0.16084474,0.049136437,-0.5850173,-0.23410474,0.09568625,820.3663,792.5641,792.5641,810.293,761.9414,-0.126220703125,0.16302490234375,0.98712158203125,-0.366363525390625,-0.538330078125,0.022430419921875,1,1.0,1.0,1.0,1.0,20.00
2024-09-29 18:19:23.453,0.5921109,0.18047729,0.2949912,0.56285924,0.5649255,-0.5128219,0.047452588,0.48626816,0.18942745,-0.24709882,0.080984086,-0.030099533,0.5354991,-0.23622921,-0.125805,0.16084474,0.049136437,-0.5850173,-0.23410474,0.09568625,817.1429,795.78754,788.5348,808.68134,814.3223,-0.126220703125,0.16302490234375,0.98712158203125,-0.366363525390625,-0.538330078125,0.022430419921875,1,1.0,1.0,1.0,1.0,20.00
2024-09-29 18:19:23.454,0.5921109,0.18047729,0.2949912,0.56285924,0.5649255,-0.5128219,0.047452588,0.48626816,0.18942745,-0.24709882,0.080984086,-0.030099533,0.5354991,-0.23622921,-0.125805,0.16084474,0.049136437,-0.5850173,-0.23410474,0.09568625,817.5458,794.17584,791.75824,815.5311,963.4066,-0.126220703125,0.16302490234375,0.98712158203125,-0.366363525390625,-0.538330078125,0.022430419921875,1,1.0,1.0,1.0,1.0,20.00
2024-09-29 18:19:23.454,0.5921109,0.18047729,0.2949912,0.56285924,0.5649255,-0.5128219,0.047452588,0.48626816,0.18942745,-0.24709882,0.080984086,-0.030099533,0.5354991,-0.23622921,-0.125805,0.16084474,0.049136437,-0.5850173,-0.23410474,0.09568625,816.7399,791.75824,790.9524,812.71063,829.2308,-0.126220703125,0.16302490234375,0.98712158203125,-0.366363525390625,-0.538330078125,0.022430419921875,1,1.0,1.0,1.0,1.0,20.00
2024-09-29 18:19:23.498,0.5921109,0.18047729,0.2949912,0.56285924,0.5649255,-0.5128219,0.047452588,0.48626816,0.18942745,-0.24709882,0.080984086,-0.030099533,0.5354991,-0.23622921,-0.125805,0.16084474,0.049136437,-0.5850173,-0.23410474,0.09568625,816.337,791.3553,788.5348,809.0842,645.89746,-0.1392822265625,0.1607666015625,0.99114990234375,-0.620574951171875,0.142059326171875,-0.770111083984375,1,1.0,1.0,1.0,1.0,20.00
2024-09-29 18:19:23.499,0.5921109,0.18047729,0.2949912,0.56285924,0.5649255,-0.5128219,0.047452588,0.48626816,0.18942745,-0.24709882,0.080984086,-0.030099533,0.5354991,-0.23622921,-0.125805,0.16084474,0.049136437,-0.5850173,-0.23410474,0.09568625,821.5751,788.93774,790.14655,812.3077,911.8315,-0.1392822265625,0.1607666015625,0.99114990234375,-0.620574951171875,0.142059326171875,-0.770111083984375,1,1.0,1.0,1.0,1.0,20.00
2024-09-29 18:19:23.500,0.5921109,0.18047729,0.2949912,0.56285924,0.5649255,-0.5128219,0.047452588,0.48626816,0.18942745,-0.24709882,0.080984086,-0.030099533,0.5354991,-0.23622921,-0.125805,0.16084474,0.049136437,-0.5850173,-0.23410474,0.09568625,823.1868,788.93774,790.9524,814.3223,1035.5311,-0.1392822265625,0.1607666015625,0.99114990234375,-0.620574951171875,0.142059326171875,-0.770111083984375,1,1.0,1.0,1.0,1.0,20.00
2024-09-29 18:19:23.500,0.5921109,0.18047729,0.2949912,0.56285924,0.5649255,-0.5128219,0.047452588,0.48626816,0.18942745,-0.24709882,0.080984086,-0.030099533,0.5354991,-0.23622921,-0.125805,0.16084474,0.049136437,-0.5850173,-0.23410474,0.09568625,824.3956,790.9524,791.3553,816.337,720.4396,-0.1392822265625,0.1607666015625,0.99114990234375,-0.620574951171875,0.142059326171875,-0.770111083984375,1,1.0,1.0,1.0,1.0,20.00
2024-09-29 18:19:23.501,0.5921109,0.18047729,0.2949912,0.56285924,0.5649255,-0.5128219,0.047452588,0.48626816,0.18942745,-0.24709882,0.080984086,-0.030099533,0.5354991,-0.23622921,-0.125805,0.16084474,0.049136437,-0.5850173,-0.23410474,0.09568625,823.9927,789.7436,792.96704,813.91943,660.0,-0.1392822265625,0.1607666015625,0.99114990234375,-0.620574951171875,0.142059326171875,-0.770111083984375,1,1.0,1.0,1.0,1.0,20.00
2024-09-29 18:19:23.501,0.5921109,0.18047729,0.2949912,0.56285924,0.5649255,-0.5128219,0.047452588,0.48626816,0.18942745,-0.24709882,0.080984086,-0.030099533,0.5354991,-0.23622921,-0.125805,0.16084474,0.049136437,-0.5850173,-0.23410474,0.09568625,815.12823,781.685,794.17584,809.4872,966.2271,-0.1392822265625,0.1607666015625,0.99114990234375,-0.620574951171875,0.142059326171875,-0.770111083984375,1,1.0,1.0,1.0,1.0,20.00
2024-09-29 18:19:23.502,0.5921109,0.18047729,0.2949912,0.56285924,0.5649255,-0.5128219,0.047452588,0.48626816,0.18942745,-0.24709882,0.080984086,-0.030099533,0.5354991,-0.23622921,-0.125805,0.16084474,0.049136437,-0.5850173,-0.23410474,0.09568625,815.12823,783.69965,791.75824,811.50183,959.7802,-0.1392822265625,0.1607666015625,0.99114990234375,-0.620574951171875,0.142059326171875,-0.770111083984375,1,1.0,1.0,1.0,1.0,20.00
2024-09-29 18:19:23.502,0.5921109,0.18047729,0.2949912,0.56285924,0.5649255,-0.5128219,0.047452588,0.48626816,0.18942745,-0.24709882,0.080984086,-0.030099533,0.5354991,-0.23622921,-0.125805,0.16084474,0.049136437,-0.5850173,-0.23410474,0.09568625,814.7253,784.5055,789.34064,817.9487,753.0769,-0.1392822265625,0.1607666015625,0.99114990234375,-0.620574951171875,0.142059326171875,-0.770111083984375,1,1.0,1.0,1.0,1.0,20.00
2024-09-29 18:19:23.503,0.5921109,0.18047729,0.2949912,0.56285924,0.5649255,-0.5128219,0.047452588,0.48626816,0.18942745,-0.24709882,0.080984086,-0.030099533,0.5354991,-0.23622921,-0.125805,0.16084474,0.049136437,-0.5850173,-0.23410474,0.09568625,806.6667,778.46155,788.1319,815.9341,637.4359,-0.1392822265625,0.1607666015625,0.99114990234375,-0.620574951171875,0.142059326171875,-0.770111083984375,1,1.0,1.0,1.0,1.0,20.00
2024-09-29 18:19:23.504,0.5921109,0.18047729,0.2949912,0.56285924,0.5649255,-0.5128219,0.047452588,0.48626816,0.18942745,-0.24709882,0.080984086,-0.030099533,0.5354991,-0.23622921,-0.125805,0.16084474,0.049136437,-0.5850173,-0.23410474,0.09568625,807.8755,777.25275,782.49084,817.9487,929.15753,-0.1392822265625,0.1607666015625,0.99114990234375,-0.620574951171875,0.142059326171875,-0.770111083984375,1,1.0,1.0,1.0,1.0,20.00
2024-09-29 18:19:23.504,0.5921109,0.18047729,0.2949912,0.56285924,0.5649255,-0.5128219,0.047452588,0.48626816,0.18942745,-0.24709882,0.080984086,-0.030099533,0.5354991,-0.23622921,-0.125805,0.16084474,0.049136437,-0.5850173,-0.23410474,0.09568625,801.02563,778.0586,783.69965,833.2601,1350.6227,-0.1392822265625,0.1607666015625,0.99114990234375,-0.620574951171875,0.142059326171875,-0.770111083984375,1,1.0,1.0,1.0,1.0,20.00
2024-09-29 18:19:23.505,0.5921109,0.18047729,0.2949912,0.56285924,0.5649255,-0.5128219,0.047452588,0.48626816,0.18942745,-0.24709882,0.080984086,-0.030099533,0.5354991,-0.23622921,-0.125805,0.16084474,0.049136437,-0.5850173,-0.23410474,0.09568625,796.99634,780.4762,790.14655,828.8278,1095.9707,-0.1392822265625,0.1607666015625,0.99114990234375,-0.620574951171875,0.142059326171875,-0.770111083984375,1,1.0,1.0,1.0,1.0,20.00
2024-09-29 18:19:23.530,0.5921109,0.18047729,0.2949912,0.56285924,0.5649255,-0.5128219,0.047452588,0.48626816,0.18942745,-0.24709882,0.080984086,-0.030099533,0.5354991,-0.23622921,-0.125805,0.16084474,0.049136437,-0.5850173,-0.23410474,0.09568625,806.26373,782.49084,788.5348,816.7399,611.2454,-0.139404296875,0.15478515625,0.98541259765625,-0.8074951171875,-1.4654541015625,-0.777587890625,1,1.0,1.0,1.0,1.0,20.00
2024-09-29 18:19:23.531,0.5921109,0.18047729,0.2949912,0.56285924,0.5649255,-0.5128219,0.047452588,0.48626816,0.18942745,-0.24709882,0.080984086,-0.030099533,0.5354991,-0.23622921,-0.125805,0.16084474,0.049136437,-0.5850173,-0.23410474,0.09568625,812.71063,784.10254,791.75824,820.7692,494.3956,-0.139404296875,0.15478515625,0.98541259765625,-0.8074951171875,-1.4654541015625,-0.777587890625,1,1.0,1.0,1.0,1.0,20.00
2024-09-29 18:19:23.532,0.5921109,0.18047729,0.2949912,0.56285924,0.5649255,-0.5128219,0.047452588,0.48626816,0.18942745,-0.24709882,0.080984086,-0.030099533,0.5354991,-0.23622921,-0.125805,0.16084474,0.049136437,-0.5850173,-0.23410474,0.09568625,818.7546,781.28204,797.8022,823.5897,560.4762,-0.139404296875,0.15478515625,0.98541259765625,-0.8074951171875,-1.4654541015625,-0.777587890625,1,1.0,1.0,1.0,1.0,20.00
2024-09-29 18:19:23.533,0.5921109,0.18047729,0.2949912,0.56285924,0.5649255,-0.5128219,0.047452588,0.48626816,0.18942745,-0.24709882,0.080984086,-0.030099533,0.5354991,-0.23622921,-0.125805,0.16084474,0.049136437,-0.5850173,-0.23410474,0.09568625,813.5165,784.10254,795.38464,813.1135,691.02563,-0.139404296875,0.15478515625,0.98541259765625,-0.8074951171875,-1.4654541015625,-0.777587890625,1,1.0,1.0,1.0,1.0,20.00
2024-09-29 18:19:23.533,0.5921109,0.18047729,0.2949912,0.56285924,0.5649255,-0.5128219,0.047452588,0.48626816,0.18942745,-0.24709882,0.080984086,-0.030099533,0.5354991,-0.23622921,-0.125805,0.16084474,0.049136437,-0.5850173,-0.23410474,0.09568625,814.3223,781.685,793.7729,812.3077,781.28204,-0.139404296875,0.15478515625,0.98541259765625,-0.8074951171875,-1.4654541015625,-0.777587890625,1,1.0,1.0,1.0,1.0,20.00
2024-09-29 18:19:23.534,0.5921109,0.18047729,0.2949912,0.56285924,0.5649255,-0.5128219,0.047452588,0.48626816,0.18942745,-0.24709882,0.080984086,-0.030099533,0.5354991,-0.23622921,-0.125805,0.16084474,0.049136437,-0.5850173,-0.23410474,0.09568625,821.978,775.64105,791.75824,815.12823,815.5311,-0.139404296875,0.15478515625,0.98541259765625,-0.8074951171875,-1.4654541015625,-0.777587890625,1,1.0,1.0,1.0,1.0,20.00
2024-09-29 18:19:23.534,0.5921109,0.18047729,0.2949912,0.56285924,0.5649255,-0.5128219,0.047452588,0.48626816,0.18942745,-0.24709882,0.080984086,-0.030099533,0.5354991,-0.23622921,-0.125805,0.16084474,0.049136437,-0.5850173,-0.23410474,0.09568625,821.1722,781.685,790.14655,813.1135,825.2015,-0.139404296875,0.15478515625,0.98541259765625,-0.8074951171875,-1.4654541015625,-0.777587890625,1,1.0,1.0,1.0,1.0,20.00
2024-09-29 18:19:23.535,0.5921109,0.18237583,0.2986359,0.56285924,0.5649255,-0.50005937,0.023595462,0.48626816,0.18942745,-0.3030027,0.056509074,-0.030099533,0.5354991,-0.24396357,-0.1289962,0.16084474,0.049136437,-0.58253914,-0.22264694,0.09568625,821.978,782.49084,788.1319,815.5311,743.4066,-0.139404296875,0.15478515625,0.98541259765625,-0.8074951171875,-1.4654541015625,-0.777587890625,1,1.0,1.0,1.0,1.0,20.00
2024-09-29 18:19:23.539,0.5921109,0.18237583,0.2986359,0.56285924,0.5649255,-0.50005937,0.023595462,0.48626816,0.18942745,-0.3030027,0.056509074,-0.030099533,0.5354991,-0.24396357,-0.1289962,0.16084474,0.049136437,-0.58253914,-0.22264694,0.09568625,826.0073,779.67035,786.9231,825.2015,806.26373,-0.139404296875,0.15478515625,0.98541259765625,-0.8074951171875,-1.4654541015625,-0.777587890625,1,1.0,1.0,1.0,1.0,20.00
2024-09-29 18:19:23.540,0.5921109,0.18237583,0.2986359,0.56285924,0.5649255,-0.50005937,0.023595462,0.48626816,0.18942745,-0.3030027,0.056509074,-0.030099533,0.5354991,-0.24396357,-0.1289962,0.16084474,0.049136437,-0.58253914,-0.22264694,0.09568625,826.8132,781.685,789.7436,827.619,931.5751,-0.139404296875,0.15478515625,0.98541259765625,-0.8074951171875,-1.4654541015625,-0.777587890625,1,1.0,1.0,1.0,1.0,20.00
2024-09-29 18:19:23.540,0.5921109,0.18237583,0.2986359,0.56285924,0.5649255,-0.50005937,0.023595462,0.48626816,0.18942745,-0.3030027,0.056509074,-0.030099533,0.5354991,-0.24396357,-0.1289962,0.16084474,0.049136437,-0.58253914,-0.22264694,0.09568625,819.9634,777.6557,787.72894,822.381,700.696,-0.139404296875,0.15478515625,0.98541259765625,-0.8074951171875,-1.4654541015625,-0.777587890625,1,1.0,1.0,1.0,1.0,20.00
2024-09-29 18:19:23.541,0.5921109,0.18237583,0.2986359,0.56285924,0.5649255,-0.50005937,0.023595462,0.48626816,0.18942745,-0.3030027,0.056509074,-0.030099533,0.5354991,-0.24396357,-0.1289962,0.16084474,0.049136437,-0.58253914,-0.22264694,0.09568625,817.1429,773.22345,787.72894,822.7839,632.1978,-0.139404296875,0.15478515625,0.98541259765625,-0.8074951171875,-1.4654541015625,-0.777587890625,1,1.0,1.0,1.0,1.0,20.00
2024-09-29 18:19:23.542,0.5921109,0.18237583,0.2986359,0.56285924,0.5649255,-0.50005937,0.023595462,0.48626816,0.18942745,-0.3030027,0.056509074,-0.030099533,0.5354991,-0.24396357,-0.1289962,0.16084474,0.049136437,-0.58253914,-0.22264694,0.09568625,817.9487,776.8498,791.75824,817.9487,941.6484,-0.1337890625,0.15447998046875,0.98272705078125,-0.538330078125,-1.951446533203125,-0.904693603515625,1,1.0,1.0,1.0,1.0,20.00
2024-09-29 18:19:23.542,0.5921109,0.18237583,0.2986359,0.56285924,0.5649255,-0.50005937,0.023595462,0.48626816,0.18942745,-0.3030027,0.056509074,-0.030099533,0.5354991,-0.24396357,-0.1289962,0.16084474,0.049136437,-0.58253914,-0.22264694,0.09568625,813.1135,773.6264,788.93774,810.293,904.57874,-0.1337890625,0.15447998046875,0.98272705078125,-0.538330078125,-1.951446533203125,-0.904693603515625,1,1.0,1.0,1.0,1.0,20.00
2024-09-29 18:19:23.543,0.5921109,0.18237583,0.2986359,0.56285924,0.5649255,-0.50005937,0.023595462,0.48626816,0.18942745,-0.3030027,0.056509074,-0.030099533,0.5354991,-0.24396357,-0.1289962,0.16084474,0.049136437,-0.58253914,-0.22264694,0.09568625,814.7253,772.01465,786.52014,808.2784,620.9158,-0.1337890625,0.15447998046875,0.98272705078125,-0.538330078125,-1.951446533203125,-0.904693603515625,1,1.0,1.0,1.0,1.0,20.00
2024-09-29 18:19:23.543,0.5921109,0.18237583,0.2986359,0.56285924,0.5649255,-0.50005937,0.023595462,0.48626816,0.18942745,-0.3030027,0.056509074,-0.030099533,0.5354991,-0.24396357,-0.1289962,0.16084474,0.049136437,-0.58253914,-0.22264694,0.09568625,819.5604,778.0586,786.9231,815.5311,735.34796,-0.1337890625,0.15447998046875,0.98272705078125,-0.538330078125,-1.951446533203125,-0.904693603515625,1,1.0,1.0,1.0,1.0,20.00
2024-09-29 18:19:23.544,0.5921109,0.18237583,0.2986359,0.56285924,0.5649255,-0.50005937,0.023595462,0.48626816,0.18942745,-0.3030027,0.056509074,-0.030099533,0.5354991,-0.24396357,-0.1289962,0.16084474,0.049136437,-0.58253914,-0.22264694,0.09568625,817.5458,775.2381,785.7143,819.5604,868.315,-0.1337890625,0.15447998046875,0.98272705078125,-0.538330078125,-1.951446533203125,-0.904693603515625,1,1.0,1.0,1.0,1.0,20.00
2024-09-29 18:19:23.545,0.5921109,0.18237583,0.2986359,0.56285924,0.5649255,-0.50005937,0.023595462,0.48626816,0.18942745,-0.3030027,0.056509074,-0.030099533,0.5354991,-0.24396357,-0.1289962,0.16084474,0.049136437,-0.58253914,-0.22264694,0.09568625,809.0842,771.6117,787.326,809.4872,774.43225,-0.1337890625,0.15447998046875,0.98272705078125,-0.538330078125,-1.951446533203125,-0.904693603515625,1,1.0,1.0,1.0,1.0,20.00
2024-09-29 18:19:23.545,0.5921109,0.18237583,0.2986359,0.56285924,0.5649255,-0.50005937,0.023595462,0.48626816,0.18942745,-0.3030027,0.056509074,-0.030099533,0.5354991,-0.24396357,-0.1289962,0.16084474,0.049136437,-0.58253914,-0.22264694,0.09568625,817.5458,777.6557,790.14655,807.47253,775.2381,-0.1337890625,0.15447998046875,0.98272705078125,-0.538330078125,-1.951446533203125,-0.904693603515625,1,1.0,1.0,1.0,1.0,20.00
2024-09-29 18:19:23.546,0.5921109,0.18237583,0.2986359,0.56285924,0.5649255,-0.50005937,0.023595462,0.48626816,0.18942745,-0.3030027,0.056509074,-0.030099533,0.5354991,-0.24396357,-0.1289962,0.16084474,0.049136437,-0.58253914,-0.22264694,0.09568625,819.15753,776.4469,791.75824,813.1135,836.4835,-0.1337890625,0.15447998046875,0.98272705078125,-0.538330078125,-1.951446533203125,-0.904693603515625,1,1.0,1.0,1.0,1.0,20.00
2024-09-29 18:19:23.546,0.5921109,0.18237583,0.2986359,0.56285924,0.5649255,-0.50005937,0.023595462,0.48626816,0.18942745,-0.3030027,0.056509074,-0.030099533,0.5354991,-0.24396357,-0.1289962,0.16084474,0.049136437,-0.58253914,-0.22264694,0.09568625,808.68134,770.0,787.326,815.5311,896.52014,-0.1337890625,0.15447998046875,0.98272705078125,-0.538330078125,-1.951446533203125,-0.904693603515625,1,1.0,1.0,1.0,1.0,20.00
2024-09-29 18:19:23.547,0.5921109,0.18237583,0.2986359,0.56285924,0.5649255,-0.50005937,0.023595462,0.48626816,0.18942745,-0.3030027,0.056509074,-0.030099533,0.5354991,-0.24396357,-0.1289962,0.16084474,0.049136437,-0.58253914,-0.22264694,0.09568625,803.44324,767.98535,785.31134,813.5165,824.3956,-0.1337890625,0.15447998046875,0.98272705078125,-0.538330078125,-1.951446533203125,-0.904693603515625,1,1.0,1.0,1.0,1.0,20.00
2024-09-29 18:19:23.547,0.5921109,0.18237583,0.2986359,0.56285924,0.5649255,-0.50005937,0.023595462,0.48626816,0.18942745,-0.3030027,0.056509074,-0.030099533,0.5354991,-0.24396357,-0.1289962,0.16084474,0.049136437,-0.58253914,-0.22264694,0.09568625,802.6374,773.22345,785.31134,811.9048,636.2271,-0.1337890625,0.15447998046875,0.98272705078125,-0.538330078125,-1.951446533203125,-0.904693603515625,1,1.0,1.0,1.0,1.0,20.00
2024-09-29 18:19:23.548,0.5921109,0.18237583,0.2986359,0.56285924,0.5649255,-0.50005937,0.023595462,0.48626816,0.18942745,-0.3030027,0.056509074,-0.030099533,0.5354991,-0.24396357,-0.1289962,0.16084474,0.049136437,-0.58253914,-0.22264694,0.09568625,806.6667,772.4176,784.10254,820.7692,648.315,-0.1337890625,0.15447998046875,0.98272705078125,-0.538330078125,-1.951446533203125,-0.904693603515625,1,1.0,1.0,1.0,1.0,20.00
2024-09-29 18:19:23.678,0.5921109,0.18237583,0.2986359,0.56285924,0.5649255,-0.50005937,0.023595462,0.48626816,0.18942745,-0.3030027,0.056509074,-0.030099533,0.5354991,-0.24396357,-0.1289962,0.16084474,0.049136437,-0.58253914,-0.22264694,0.09568625,812.71063,767.98535,788.1319,826.8132,925.12823,-0.1337890625,0.15447998046875,0.98272705078125,-0.538330078125,-1.951446533203125,-0.904693603515625,1,1.0,1.0,1.0,1.0,20.00
2024-09-29 18:19:23.679,0.5921109,0.18237583,0.2986359,0.56285924,0.5649255,-0.50005937,0.023595462,0.48626816,0.18942745,-0.3030027,0.056509074,-0.030099533,0.5354991,-0.24396357,-0.1289962,0.16084474,0.049136437,-0.58253914,-0.22264694,0.09568625,812.71063,770.0,790.54944,818.7546,886.8498,-0.1337890625,0.15447998046875,0.98272705078125,-0.538330078125,-1.951446533203125,-0.904693603515625,1,1.0,1.0,1.0,1.0,20.00
2024-09-29 18:19:23.680,0.5921109,0.18237583,0.2986359,0.56285924,0.5649255,-0.50005937,0.023595462,0.48626816,0.18942745,-0.3030027,0.056509074,-0.030099533,0.5354991,-0.24396357,-0.1289962,0.16084474,0.049136437,-0.58253914,-0.22264694,0.09568625,811.9048,771.2088,792.5641,809.0842,593.91943,-0.1337890625,0.15447998046875,0.98272705078125,-0.538330078125,-1.951446533203125,-0.904693603515625,1,1.0,1.0,1.0,1.0,20.00
2024-09-29 18:19:23.680,0.5921109,0.18237583,0.2986359,0.56285924,0.5649255,-0.50005937,0.023595462,0.48626816,0.18942745,-0.3030027,0.056509074,-0.030099533,0.5354991,-0.24396357,-0.1289962,0.16084474,0.049136437,-0.58253914,-0.22264694,0.09568625,818.7546,768.3883,793.7729,810.293,776.04395,-0.1337890625,0.15447998046875,0.98272705078125,-0.538330078125,-1.951446533203125,-0.904693603515625,1,1.0,1.0,1.0,1.0,20.00
2024-09-29 18:19:23.681,0.5921109,0.18237583,0.2986359,0.56285924,0.5649255,-0.50005937,0.023595462,0.48626816,0.18942745,-0.3030027,0.056509074,-0.030099533,0.5354991,-0.24396357,-0.1289962,0.16084474,0.049136437,-0.58253914,-0.22264694,0.09568625,823.1868,766.3736,792.1612,828.4249,1247.0696,-0.1337890625,0.15447998046875,0.98272705078125,-0.538330078125,-1.951446533203125,-0.904693603515625,1,1.0,1.0,1.0,1.0,20.00
2024-09-29 18:19:23.681,0.5921109,0.18237583,0.2986359,0.56285924,0.5649255,-0.50005937,0.023595462,0.48626816,0.18942745,-0.3030027,0.056509074,-0.030099533,0.5354991,-0.24396357,-0.1289962,0.16084474,0.049136437,-0.58253914,-0.22264694,0.09568625,820.7692,765.16486,788.5348,827.2161,1174.5421,-0.1337890625,0.15447998046875,0.98272705078125,-0.538330078125,-1.951446533203125,-0.904693603515625,1,1.0,1.0,1.0,1.0,20.00
2024-09-29 18:19:23.682,0.5921109,0.18237583,0.2986359,0.56285924,0.5649255,-0.50005937,0.023595462,0.48626816,0.18942745,-0.3030027,0.056509074,-0.030099533,0.5354991,-0.24396357,-0.1289962,0.16084474,0.049136437,-0.58253914,-0.22264694,0.09568625,821.978,763.5531,786.52014,813.5165,766.3736,-0.1337890625,0.15447998046875,0.98272705078125,-0.538330078125,-1.951446533203125,-0.904693603515625,1,1.0,1.0,1.0,1.0,20.00
2024-09-29 18:19:23.682,0.5921109,0.18237583,0.2986359,0.56285924,0.5649255,-0.50005937,0.023595462,0.48626816,0.18942745,-0.3030027,0.056509074,-0.030099533,0.5354991,-0.24396357,-0.1289962,0.16084474,0.049136437,-0.58253914,-0.22264694,0.09568625,826.8132,764.7619,788.1319,821.1722,720.0366,-0.1337890625,0.15447998046875,0.98272705078125,-0.538330078125,-1.951446533203125,-0.904693603515625,1,1.0,1.0,1.0,1.0,20.00
2024-09-29 18:19:23.683,0.5921109,0.18237583,0.2986359,0.56285924,0.5649255,-0.50005937,0.023595462,0.48626816,0.18942745,-0.3030027,0.056509074,-0.030099533,0.5354991,-0.24396357,-0.1289962,0.16084474,0.049136437,-0.58253914,-0.22264694,0.09568625,823.9927,764.7619,789.7436,830.0366,1006.52014,-0.1337890625,0.15447998046875,0.98272705078125,-0.538330078125,-1.951446533203125,-0.904693603515625,1,1.0,1.0,1.0,1.0,20.00
2024-09-29 18:19:23.683,0.5921109,0.20668496,0.3054026,0.56285924,0.5649255,-0.4868018,-0.005050489,0.48626816,0.18942745,-0.28367698,0.027209375,-0.030099533,0.5354991,-0.24212708,-0.122841425,0.16084474,0.049136437,-0.5704798,-0.21657437,0.09568625,819.9634,762.74725,790.14655,825.2015,798.60803,-0.1337890625,0.15447998046875,0.98272705078125,-0.538330078125,-1.951446533203125,-0.904693603515625,1,1.0,1.0,1.0,1.0,20.00
2024-09-29 18:19:23.688,0.5921109,0.20668496,0.3054026,0.56285924,0.5649255,-0.4868018,-0.005050489,0.48626816,0.18942745,-0.28367698,0.027209375,-0.030099533,0.5354991,-0.24212708,-0.122841425,0.16084474,0.049136437,-0.5704798,-0.21657437,0.09568625,820.3663,757.1062,788.93774,819.5604,626.1539,-0.1337890625,0.15447998046875,0.98272705078125,-0.538330078125,-1.951446533203125,-0.904693603515625,1,1.0,1.0,1.0,1.0,20.00
2024-09-29 18:19:23.688,0.5921109,0.20668496,0.3054026,0.56285924,0.5649255,-0.4868018,-0.005050489,0.48626816,0.18942745,-0.28367698,0.027209375,-0.030099533,0.5354991,-0.24212708,-0.122841425,0.16084474,0.049136437,-0.5704798,-0.21657437,0.09568625,811.9048,757.9121,789.7436,821.978,741.79486,-0.1337890625,0.15447998046875,0.98272705078125,-0.538330078125,-1.951446533203125,-0.904693603515625,1,1.0,1.0,1.0,1.0,20.00
2024-09-29 18:19:23.689,0.5921109,0.20668496,0.3054026,0.56285924,0.5649255,-0.4868018,-0.005050489,0.48626816,0.18942745,-0.28367698,0.027209375,-0.030099533,0.5354991,-0.24212708,-0.122841425,0.16084474,0.049136437,-0.5704798,-0.21657437,0.09568625,800.2198,758.315,791.3553,822.7839,736.1539,-0.12689208984375,0.15411376953125,0.9912109375,-0.545806884765625,-2.594451904296875,-0.231781005859375,1,1.0,1.0,1.0,1.0,20.00
2024-09-29 18:19:23.690,0.5921109,0.20668496,0.3054026,0.56285924,0.5649255,-0.4868018,-0.005050489,0.48626816,0.18942745,-0.28367698,0.027209375,-0.030099533,0.5354991,-0.24212708,-0.122841425,0.16084474,0.049136437,-0.5704798,-0.21657437,0.09568625,805.8608,756.7033,790.14655,823.1868,712.381,-0.12689208984375,0.15411376953125,0.9912109375,-0.545806884765625,-2.594451904296875,-0.231781005859375,1,1.0,1.0,1.0,1.0,20.00
2024-09-29 18:19:23.691,0.5921109,0.20668496,0.3054026,0.56285924,0.5649255,-0.4868018,-0.005050489,0.48626816,0.18942745,-0.28367698,0.027209375,-0.030099533,0.5354991,-0.24212708,-0.122841425,0.16084474,0.049136437,-0.5704798,-0.21657437,0.09568625,815.5311,756.7033,788.93774,819.9634,717.619,-0.12689208984375,0.15411376953125,0.9912109375,-0.545806884765625,-2.594451904296875,-0.231781005859375,1,1.0,1.0,1.0,1.0,20.00
2024-09-29 18:19:23.691,0.5921109,0.20668496,0.3054026,0.56285924,0.5649255,-0.4868018,-0.005050489,0.48626816,0.18942745,-0.28367698,0.027209375,-0.030099533,0.5354991,-0.24212708,-0.122841425,0.16084474,0.049136437,-0.5704798,-0.21657437,0.09568625,818.3516,756.30035,788.93774,819.15753,718.8278,-0.12689208984375,0.15411376953125,0.9912109375,-0.545806884765625,-2.594451904296875,-0.231781005859375,1,1.0,1.0,1.0,1.0,20.00
2024-09-29 18:19:23.692,0.5921109,0.20668496,0.3054026,0.56285924,0.5649255,-0.4868018,-0.005050489,0.48626816,0.18942745,-0.28367698,0.027209375,-0.030099533,0.5354991,-0.24212708,-0.122841425,0.16084474,0.049136437,-0.5704798,-0.21657437,0.09568625,821.5751,758.315,790.14655,823.1868,689.81683,-0.12689208984375,0.15411376953125,0.9912109375,-0.545806884765625,-2.594451904296875,-0.231781005859375,1,1.0,1.0,1.0,1.0,20.00
2024-09-29 18:19:23.692,0.5921109,0.20668496,0.3054026,0.56285924,0.5649255,-0.4868018,-0.005050489,0.48626816,0.18942745,-0.28367698,0.027209375,-0.030099533,0.5354991,-0.24212708,-0.122841425,0.16084474,0.049136437,-0.5704798,-0.21657437,0.09568625,822.7839,761.53845,791.75824,823.5897,760.32965,-0.12689208984375,0.15411376953125,0.9912109375,-0.545806884765625,-2.594451904296875,-0.231781005859375,1,1.0,1.0,1.0,1.0,20.00
2024-09-29 18:19:23.693,0.5921109,0.20668496,0.3054026,0.56285924,0.5649255,-0.4868018,-0.005050489,0.48626816,0.18942745,-0.28367698,0.027209375,-0.030099533,0.5354991,-0.24212708,-0.122841425,0.16084474,0.049136437,-0.5704798,-0.21657437,0.09568625,818.7546,759.5238,792.1612,820.7692,1040.3663,-0.12689208984375,0.15411376953125,0.9912109375,-0.545806884765625,-2.594451904296875,-0.231781005859375,1,1.0,1.0,1.0,1.0,20.00
2024-09-29 18:19:23.693,0.5921109,0.20668496,0.3054026,0.56285924,0.5649255,-0.4868018,-0.005050489,0.48626816,0.18942745,-0.28367698,0.027209375,-0.030099533,0.5354991,-0.24212708,-0.122841425,0.16084474,0.049136437,-0.5704798,-0.21657437,0.09568625,825.2015,757.1062,791.75824,826.4103,1255.5311,-0.12689208984375,0.15411376953125,0.9912109375,-0.545806884765625,-2.594451904296875,-0.231781005859375,1,1.0,1.0,1.0,1.0,20.00
2024-09-29 18:19:23.694,0.5921109,0.20668496,0.3054026,0.56285924,0.5649255,-0.4868018,-0.005050489,0.48626816,0.18942745,-0.28367698,0.027209375,-0.030099533,0.5354991,-0.24212708,-0.122841425,0.16084474,0.049136437,-0.5704798,-0.21657437,0.09568625,830.4396,758.315,795.38464,830.4396,944.0659,-0.12689208984375,0.15411376953125,0.9912109375,-0.545806884765625,-2.594451904296875,-0.231781005859375,1,1.0,1.0,1.0,1.0,20.00
2024-09-29 18:19:23.695,0.5921109,0.20668496,0.3054026,0.56285924,0.5649255,-0.4868018,-0.005050489,0.48626816,0.18942745,-0.28367698,0.027209375,-0.030099533,0.5354991,-0.24212708,-0.122841425,0.16084474,0.049136437,-0.5704798,-0.21657437,0.09568625,827.2161,758.71796,793.36993,826.8132,752.674,-0.12689208984375,0.15411376953125,0.9912109375,-0.545806884765625,-2.594451904296875,-0.231781005859375,1,1.0,1.0,1.0,1.0,20.00
2024-09-29 18:19:23.695,0.5921109,0.20668496,0.3054026,0.56285924,0.5649255,-0.4868018,-0.005050489,0.48626816,0.18942745,-0.28367698,0.027209375,-0.030099533,0.5354991,-0.24212708,-0.122841425,0.16084474,0.049136437,-0.5704798,-0.21657437,0.09568625,820.7692,759.5238,792.96704,825.2015,933.1868,-0.12689208984375,0.15411376953125,0.9912109375,-0.545806884765625,-2.594451904296875,-0.231781005859375,1,1.0,1.0,1.0,1.0,20.00
2024-09-29 18:19:23.696,0.5921109,0.20668496,0.3054026,0.56285924,0.5649255,-0.4868018,-0.005050489,0.48626816,0.18942745,-0.28367698,0.027209375,-0.030099533,0.5354991,-0.24212708,-0.122841425,0.16084474,0.049136437,-0.5704798,-0.21657437,0.09568625,826.0073,761.53845,794.9817,830.0366,958.97437,-0.12689208984375,0.15411376953125,0.9912109375,-0.545806884765625,-2.594451904296875,-0.231781005859375,1,1.0,1.0,1.0,1.0,20.00
2024-09-29 18:19:23.697,0.5921109,0.20668496,0.3054026,0.56285924,0.5649255,-0.4868018,-0.005050489,0.48626816,0.18942745,-0.28367698,0.027209375,-0.030099533,0.5354991,-0.24212708,-0.122841425,0.16084474,0.049136437,-0.5704798,-0.21657437,0.09568625,831.6484,764.35895,793.36993,829.6337,765.16486,-0.125244140625,0.14654541015625,0.9942626953125,-1.4654541015625,-2.549591064453125,0.43365478515625,1,1.0,1.0,1.0,1.0,20.00
2024-09-29 18:19:23.697,0.5921109,0.20668496,0.3054026,0.56285924,0.5649255,-0.4868018,-0.005050489,0.48626816,0.18942745,-0.28367698,0.027209375,-0.030099533,0.5354991,-0.24212708,-0.122841425,0.16084474,0.049136437,-0.5704798,-0.21657437,0.09568625,832.4542,760.32965,792.1612,831.2454,724.0659,-0.125244140625,0.14654541015625,0.9942626953125,-1.4654541015625,-2.549591064453125,0.43365478515625,1,1.0,1.0,1.0,1.0,20.00
2024-09-29 18:19:23.698,0.5921109,0.20668496,0.3054026,0.56285924,0.5649255,-0.4868018,-0.005050489,0.48626816,0.18942745,-0.28367698,0.027209375,-0.030099533,0.5354991,-0.24212708,-0.122841425,0.16084474,0.049136437,-0.5704798,-0.21657437,0.09568625,831.6484,756.30035,793.36993,829.2308,844.1392,-0.125244140625,0.14654541015625,0.9942626953125,-1.4654541015625,-2.549591064453125,0.43365478515625,1,1.0,1.0,1.0,1.0,20.00
2024-09-29 18:19:23.699,0.5921109,0.20668496,0.3054026,0.56285924,0.5649255,-0.4868018,-0.005050489,0.48626816,0.18942745,-0.28367698,0.027209375,-0.030099533,0.5354991,-0.24212708,-0.122841425,0.16084474,0.049136437,-0.5704798,-0.21657437,0.09568625,826.4103,756.30035,794.57874,820.3663,902.1612,-0.125244140625,0.14654541015625,0.9942626953125,-1.4654541015625,-2.549591064453125,0.43365478515625,1,1.0,1.0,1.0,1.0,20.00
2024-09-29 18:19:23.699,0.5921109,0.20668496,0.3054026,0.56285924,0.5649255,-0.4868018,-0.005050489,0.48626816,0.18942745,-0.28367698,0.027209375,-0.030099533,0.5354991,-0.24212708,-0.122841425,0.16084474,0.049136437,-0.5704798,-0.21657437,0.09568625,821.5751,760.7326,794.17584,820.3663,794.17584,-0.125244140625,0.14654541015625,0.9942626953125,-1.4654541015625,-2.549591064453125,0.43365478515625,1,1.0,1.0,1.0,1.0,20.00
2024-09-29 18:19:23.700,0.5921109,0.20668496,0.3054026,0.56285924,0.5649255,-0.4868018,-0.005050489,0.48626816,0.18942745,-0.28367698,0.027209375,-0.030099533,0.5354991,-0.24212708,-0.122841425,0.16084474,0.049136437,-0.5704798,-0.21657437,0.09568625,827.619,759.5238,794.9817,822.381,846.9597,-0.125244140625,0.14654541015625,0.9942626953125,-1.4654541015625,-2.549591064453125,0.43365478515625,1,1.0,1.0,1.0,1.0,20.00
2024-09-29 18:19:23.700,0.5921109,0.20668496,0.3054026,0.56285924,0.5649255,-0.4868018,-0.005050489,0.48626816,0.18942745,-0.28367698,0.027209375,-0.030099533,0.5354991,-0.24212708,-0.122841425,0.16084474,0.049136437,-0.5704798,-0.21657437,0.09568625,821.5751,751.8681,793.7729,820.3663,997.6557,-0.125244140625,0.14654541015625,0.9942626953125,-1.4654541015625,-2.549591064453125,0.43365478515625,1,1.0,1.0,1.0,1.0,20.00
2024-09-29 18:19:23.701,0.5921109,0.20668496,0.3054026,0.56285924,0.5649255,-0.4868018,-0.005050489,0.48626816,0.18942745,-0.28367698,0.027209375,-0.030099533,0.5354991,-0.24212708,-0.122841425,0.16084474,0.049136437,-0.5704798,-0.21657437,0.09568625,810.293,752.27106,791.75824,823.9927,895.31134,-0.125244140625,0.14654541015625,0.9942626953125,-1.4654541015625,-2.549591064453125,0.43365478515625,1,1.0,1.0,1.0,1.0,20.00
2024-09-29 18:19:23.701,0.5921109,0.20668496,0.3054026,0.56285924,0.5649255,-0.4868018,-0.005050489,0.48626816,0.18942745,-0.28367698,0.027209375,-0.030099533,0.5354991,-0.24212708,-0.122841425,0.16084474,0.049136437,-0.5704798,-0.21657437,0.09568625,809.4872,754.2857,791.75824,822.381,632.6007,-0.125244140625,0.14654541015625,0.9942626953125,-1.4654541015625,-2.549591064453125,0.43365478515625,1,1.0,1.0,1.0,1.0,20.00
2024-09-29 18:19:23.702,0.5921109,0.20668496,0.3054026,0.56285924,0.5649255,-0.4868018,-0.005050489,0.48626816,0.18942745,-0.28367698,0.027209375,-0.030099533,0.5354991,-0.24212708,-0.122841425,0.16084474,0.049136437,-0.5704798,-0.21657437,0.09568625,808.2784,753.0769,793.7729,826.0073,686.99634,-0.125244140625,0.14654541015625,0.9942626953125,-1.4654541015625,-2.549591064453125,0.43365478515625,1,1.0,1.0,1.0,1.0,20.00
2024-09-29 18:19:23.702,0.5921109,0.20668496,0.3054026,0.56285924,0.5649255,-0.4868018,-0.005050489,0.48626816,0.18942745,-0.28367698,0.027209375,-0.030099533,0.5354991,-0.24212708,-0.122841425,0.16084474,0.049136437,-0.5704798,-0.21657437,0.09568625,811.9048,751.06226,795.38464,831.6484,865.09155,-0.125244140625,0.14654541015625,0.9942626953125,-1.4654541015625,-2.549591064453125,0.43365478515625,1,1.0,1.0,1.0,1.0,20.00
2024-09-29 18:19:23.703,0.5921109,0.30047047,0.32975906,0.56285924,0.5649255,-0.4744986,-0.026499696,0.48626816,0.18942745,-0.28633967,0.019030293,-0.030099533,0.5354991,-0.23130837,-0.11218179,0.16084474,0.049136437,-0.55251426,-0.21686026,0.09568625,813.91943,752.27106,791.3553,829.6337,841.31866,-0.125244140625,0.14654541015625,0.9942626953125,-1.4654541015625,-2.549591064453125,0.43365478515625,1,1.0,1.0,1.0,1.0,20.00
2024-09-29 18:19:23.732,0.5921109,0.30047047,0.32975906,0.56285924,0.5649255,-0.4744986,-0.026499696,0.48626816,0.18942745,-0.28633967,0.019030293,-0.030099533,0.5354991,-0.23130837,-0.11218179,0.16084474,0.049136437,-0.55251426,-0.21686026,0.09568625,821.5751,750.2564,789.7436,824.3956,640.2564,-0.1224365234375,0.14361572265625,0.98699951171875,-0.874786376953125,-2.40753173828125,-1.15142822265625,1,1.0,1.0,1.0,1.0,20.00
2024-09-29 18:19:23.733,0.5921109,0.30047047,0.32975906,0.56285924,0.5649255,-0.4744986,-0.026499696,0.48626816,0.18942745,-0.28633967,0.019030293,-0.030099533,0.5354991,-0.23130837,-0.11218179,0.16084474,0.049136437,-0.55251426,-0.21686026,0.09568625,830.84247,747.03296,790.9524,830.0366,604.3956,-0.1224365234375,0.14361572265625,0.98699951171875,-0.874786376953125,-2.40753173828125,-1.15142822265625,1,1.0,1.0,1.0,1.0,20.00
2024-09-29 18:19:23.733,0.5921109,0.30047047,0.32975906,0.56285924,0.5649255,-0.4744986,-0.026499696,0.48626816,0.18942745,-0.28633967,0.019030293,-0.030099533,0.5354991,-0.23130837,-0.11218179,0.16084474,0.049136437,-0.55251426,-0.21686026,0.09568625,829.2308,747.8388,792.5641,832.4542,897.326,-0.1224365234375,0.14361572265625,0.98699951171875,-0.874786376953125,-2.40753173828125,-1.15142822265625,1,1.0,1.0,1.0,1.0,20.00
2024-09-29 18:19:23.734,0.5921109,0.30047047,0.32975906,0.56285924,0.5649255,-0.4744986,-0.026499696,0.48626816,0.18942745,-0.28633967,0.019030293,-0.030099533,0.5354991,-0.23130837,-0.11218179,0.16084474,0.049136437,-0.55251426,-0.21686026,0.09568625,823.9927,745.82416,796.99634,824.7985,870.32965,-0.1224365234375,0.14361572265625,0.98699951171875,-0.874786376953125,-2.40753173828125,-1.15142822265625,1,1.0,1.0,1.0,1.0,20.00
2024-09-29 18:19:23.734,0.5921109,0.30047047,0.32975906,0.56285924,0.5649255,-0.4744986,-0.026499696,0.48626816,0.18942745,-0.28633967,0.019030293,-0.030099533,0.5354991,-0.23130837,-0.11218179,0.16084474,0.049136437,-0.55251426,-0.21686026,0.09568625,824.3956,743.8095,794.9817,824.3956,651.13556,-0.1224365234375,0.14361572265625,0.98699951171875,-0.874786376953125,-2.40753173828125,-1.15142822265625,1,1.0,1.0,1.0,1.0,20.00
2024-09-29 18:19:23.735,0.5921109,0.30047047,0.32975906,0.56285924,0.5649255,-0.4744986,-0.026499696,0.48626816,0.18942745,-0.28633967,0.019030293,-0.030099533,0.5354991,-0.23130837,-0.11218179,0.16084474,0.049136437,-0.55251426,-0.21686026,0.09568625,830.84247,745.0183,794.9817,833.2601,818.7546,-0.1224365234375,0.14361572265625,0.98699951171875,-0.874786376953125,-2.40753173828125,-1.15142822265625,1,1.0,1.0,1.0,1.0,20.00
2024-09-29 18:19:23.735,0.5921109,0.30047047,0.32975906,0.56285924,0.5649255,-0.4744986,-0.026499696,0.48626816,0.18942745,-0.28633967,0.019030293,-0.030099533,0.5354991,-0.23130837,-0.11218179,0.16084474,0.049136437,-0.55251426,-0.21686026,0.09568625,834.0659,744.21246,798.20514,834.4689,1098.7913,-0.1224365234375,0.14361572265625,0.98699951171875,-0.874786376953125,-2.40753173828125,-1.15142822265625,1,1.0,1.0,1.0,1.0,20.00
2024-09-29 18:19:23.736,0.5921109,0.30047047,0.32975906,0.56285924,0.5649255,-0.4744986,-0.026499696,0.48626816,0.18942745,-0.28633967,0.019030293,-0.030099533,0.5354991,-0.23130837,-0.11218179,0.16084474,0.049136437,-0.55251426,-0.21686026,0.09568625,828.4249,741.39197,797.8022,827.619,958.97437,-0.1224365234375,0.14361572265625,0.98699951171875,-0.874786376953125,-2.40753173828125,-1.15142822265625,1,1.0,1.0,1.0,1.0,20.00
2024-09-29 18:19:23.737,0.5921109,0.30047047,0.32975906,0.56285924,0.5649255,-0.4744986,-0.026499696,0.48626816,0.18942745,-0.28633967,0.019030293,-0.030099533,0.5354991,-0.23130837,-0.11218179,0.16084474,0.049136437,-0.55251426,-0.21686026,0.09568625,834.0659,742.1978,795.38464,829.2308,662.01465,-0.1224365234375,0.14361572265625,0.98699951171875,-0.874786376953125,-2.40753173828125,-1.15142822265625,1,1.0,1.0,1.0,1.0,20.00
2024-09-29 18:19:23.737,0.5921109,0.30047047,0.32975906,0.56285924,0.5649255,-0.4744986,-0.026499696,0.48626816,0.18942745,-0.28633967,0.019030293,-0.030099533,0.5354991,-0.23130837,-0.11218179,0.16084474,0.049136437,-0.55251426,-0.21686026,0.09568625,839.707,744.61536,796.5934,836.08057,576.99634,-0.1224365234375,0.14361572265625,0.98699951171875,-0.874786376953125,-2.40753173828125,-1.15142822265625,1,1.0,1.0,1.0,1.0,20.00
2024-09-29 18:19:23.738,0.5921109,0.30047047,0.32975906,0.56285924,0.5649255,-0.4744986,-0.026499696,0.48626816,0.18942745,-0.28633967,0.019030293,-0.030099533,0.5354991,-0.23130837,-0.11218179,0.16084474,0.049136437,-0.55251426,-0.21686026,0.09568625,834.4689,745.42126,801.4286,842.52747,960.58606,-0.1224365234375,0.14361572265625,0.98699951171875,-0.874786376953125,-2.40753173828125,-1.15142822265625,1,1.0,1.0,1.0,1.0,20.00
2024-09-29 18:19:23.738,0.5921109,0.30047047,0.32975906,0.56285924,0.5649255,-0.4744986,-0.026499696,0.48626816,0.18942745,-0.28633967,0.019030293,-0.030099533,0.5354991,-0.23130837,-0.11218179,0.16084474,0.049136437,-0.55251426,-0.21686026,0.09568625,826.0073,740.58606,799.41394,845.7509,1407.4359,-0.1224365234375,0.14361572265625,0.98699951171875,-0.874786376953125,-2.40753173828125,-1.15142822265625,1,1.0,1.0,1.0,1.0,20.00
2024-09-29 18:19:23.796,0.5921109,0.30047047,0.32975906,0.56285924,0.5649255,-0.4744986,-0.026499696,0.48626816,0.18942745,-0.28633967,0.019030293,-0.030099533,0.5354991,-0.23130837,-0.11218179,0.16084474,0.049136437,-0.55251426,-0.21686026,0.09568625,824.3956,734.94507,799.011,843.73627,1427.1794,-0.11810302734375,0.14129638671875,0.9852294921875,-0.67291259765625,-1.846771240234375,-1.83929443359375,1,1.0,1.0,1.0,1.0,20.00
2024-09-29 18:19:23.797,0.5921109,0.30047047,0.32975906,0.56285924,0.5649255,-0.4744986,-0.026499696,0.48626816,0.18942745,-0.28633967,0.019030293,-0.030099533,0.5354991,-0.23130837,-0.11218179,0.16084474,0.049136437,-0.55251426,-0.21686026,0.09568625,827.619,739.7802,796.1905,831.6484,979.5238,-0.11810302734375,0.14129638671875,0.9852294921875,-0.67291259765625,-1.846771240234375,-1.83929443359375,1,1.0,1.0,1.0,1.0,20.00
2024-09-29 18:19:23.798,0.5921109,0.30047047,0.32975906,0.56285924,0.5649255,-0.4744986,-0.026499696,0.48626816,0.18942745,-0.28633967,0.019030293,-0.030099533,0.5354991,-0.23130837,-0.11218179,0.16084474,0.049136437,-0.55251426,-0.21686026,0.09568625,821.5751,739.7802,788.5348,825.6044,766.77655,-0.11810302734375,0.14129638671875,0.9852294921875,-0.67291259765625,-1.846771240234375,-1.83929443359375,1,1.0,1.0,1.0,1.0,20.00
2024-09-29 18:19:23.799,0.5921109,0.30047047,0.32975906,0.56285924,0.5649255,-0.4744986,-0.026499696,0.48626816,0.18942745,-0.28633967,0.019030293,-0.030099533,0.5354991,-0.23130837,-0.11218179,0.16084474,0.049136437,-0.55251426,-0.21686026,0.09568625,814.7253,740.18317,786.52014,821.5751,774.0293,-0.11810302734375,0.14129638671875,0.9852294921875,-0.67291259765625,-1.846771240234375,-1.83929443359375,1,1.0,1.0,1.0,1.0,20.00
2024-09-29 18:19:23.799,0.5921109,0.30047047,0.32975906,0.56285924,0.5649255,-0.4744986,-0.026499696,0.48626816,0.18942745,-0.28633967,0.019030293,-0.030099533,0.5354991,-0.23130837,-0.11218179,0.16084474,0.049136437,-0.55251426,-0.21686026,0.09568625,821.1722,743.4066,792.1612,815.9341,661.6117,-0.11810302734375,0.14129638671875,0.9852294921875,-0.67291259765625,-1.846771240234375,-1.83929443359375,1,1.0,1.0,1.0,1.0,20.00
2024-09-29 18:19:23.800,0.5921109,0.30047047,0.32975906,0.56285924,0.5649255,-0.4744986,-0.026499696,0.48626816,0.18942745,-0.28633967,0.019030293,-0.030099533,0.5354991,-0.23130837,-0.11218179,0.16084474,0.049136437,-0.55251426,-0.21686026,0.09568625,826.8132,740.58606,794.9817,817.9487,685.78754,-0.11810302734375,0.14129638671875,0.9852294921875,-0.67291259765625,-1.846771240234375,-1.83929443359375,1,1.0,1.0,1.0,1.0,20.00
2024-09-29 18:19:23.801,0.5921109,0.30047047,0.32975906,0.56285924,0.5649255,-0.4744986,-0.026499696,0.48626816,0.18942745,-0.28633967,0.019030293,-0.030099533,0.5354991,-0.23130837,-0.11218179,0.16084474,0.049136437,-0.55251426,-0.21686026,0.09568625,826.4103,735.7509,788.93774,819.5604,770.0,-0.11810302734375,0.14129638671875,0.9852294921875,-0.67291259765625,-1.846771240234375,-1.83929443359375,1,1.0,1.0,1.0,1.0,20.00
2024-09-29 18:19:23.801,0.5921109,0.30047047,0.32975906,0.56285924,0.5649255,-0.4744986,-0.026499696,0.48626816,0.18942745,-0.28633967,0.019030293,-0.030099533,0.5354991,-0.23130837,-0.11218179,0.16084474,0.049136437,-0.55251426,-0.21686026,0.09568625,828.4249,735.34796,790.9524,819.5604,771.6117,-0.11810302734375,0.14129638671875,0.9852294921875,-0.67291259765625,-1.846771240234375,-1.83929443359375,1,1.0,1.0,1.0,1.0,20.00
2024-09-29 18:19:23.802,0.5921109,0.30047047,0.32975906,0.56285924,0.5649255,-0.4744986,-0.026499696,0.48626816,0.18942745,-0.28633967,0.019030293,-0.030099533,0.5354991,-0.23130837,-0.11218179,0.16084474,0.049136437,-0.55251426,-0.21686026,0.09568625,834.0659,740.58606,792.96704,825.2015,719.2308,-0.11810302734375,0.14129638671875,0.9852294921875,-0.67291259765625,-1.846771240234375,-1.83929443359375,1,1.0,1.0,1.0,1.0,20.00
2024-09-29 18:19:23.802,0.5921109,0.30047047,0.32975906,0.56285924,0.5649255,-0.4744986,-0.026499696,0.48626816,0.18942745,-0.28633967,0.019030293,-0.030099533,0.5354991,-0.23130837,-0.11218179,0.16084474,0.049136437,-0.55251426,-0.21686026,0.09568625,833.663,737.3626,788.93774,832.4542,705.12823,-0.11810302734375,0.14129638671875,0.9852294921875,-0.67291259765625,-1.846771240234375,-1.83929443359375,1,1.0,1.0,1.0,1.0,20.00
2024-09-29 18:19:23.803,0.5921109,0.30047047,0.32975906,0.56285924,0.5649255,-0.4744986,-0.026499696,0.48626816,0.18942745,-0.28633967,0.019030293,-0.030099533,0.5354991,-0.23130837,-0.11218179,0.16084474,0.049136437,-0.55251426,-0.21686026,0.09568625,834.0659,731.7216,792.96704,834.87177,594.7253,-0.11810302734375,0.14129638671875,0.9852294921875,-0.67291259765625,-1.846771240234375,-1.83929443359375,1,1.0,1.0,1.0,1.0,20.00
2024-09-29 18:19:23.804,0.5921109,0.30047047,0.32975906,0.56285924,0.5649255,-0.4744986,-0.026499696,0.48626816,0.18942745,-0.28633967,0.019030293,-0.030099533,0.5354991,-0.23130837,-0.11218179,0.16084474,0.049136437,-0.55251426,-0.21686026,0.09568625,837.6923,733.73627,797.8022,834.87177,576.99634,-0.11810302734375,0.14129638671875,0.9852294921875,-0.67291259765625,-1.846771240234375,-1.83929443359375,1,1.0,1.0,1.0,1.0,20.00
2024-09-29 18:19:23.829,0.5921109,0.30047047,0.32975906,0.56285924,0.5649255,-0.4744986,-0.026499696,0.48626816,0.18942745,-0.28633967,0.019030293,-0.030099533,0.5354991,-0.23130837,-0.11218179,0.16084474,0.049136437,-0.55251426,-0.21686026,0.09568625,844.1392,736.9597,795.38464,832.0513,689.41394,-0.11810302734375,0.14129638671875,0.9852294921875,-0.67291259765625,-1.846771240234375,-1.83929443359375,1,1.0,1.0,1.0,1.0,20.00
2024-09-29 18:19:23.830,0.5921109,0.31547546,0.36716154,0.56285924,0.5649255,-0.4882589,-0.04037205,0.48626816,0.18942745,-0.28745407,0.019030293,-0.030099533,0.5354991,-0.22691432,-0.10275203,0.16084474,0.049136437,-0.5436402,-0.22277524,0.09568625,845.34796,738.97437,794.9817,838.49817,873.1502,-0.11810302734375,0.14129638671875,0.9852294921875,-0.67291259765625,-1.846771240234375,-1.83929443359375,1,1.0,1.0,1.0,1.0,20.00
2024-09-29 18:19:23.834,0.5921109,0.31547546,0.36716154,0.56285924,0.5649255,-0.4882589,-0.04037205,0.48626816,0.18942745,-0.28745407,0.019030293,-0.030099533,0.5354991,-0.22691432,-0.10275203,0.16084474,0.049136437,-0.5436402,-0.22277524,0.09568625,838.9011,734.1392,795.38464,838.0952,947.28937,-0.11810302734375,0.14129638671875,0.9852294921875,-0.67291259765625,-1.846771240234375,-1.83929443359375,1,1.0,1.0,1.0,1.0,20.00
2024-09-29 18:19:23.835,0.5921109,0.31547546,0.36716154,0.56285924,0.5649255,-0.4882589,-0.04037205,0.48626816,0.18942745,-0.28745407,0.019030293,-0.030099533,0.5354991,-0.22691432,-0.10275203,0.16084474,0.049136437,-0.5436402,-0.22277524,0.09568625,837.28937,730.10986,792.1612,833.2601,671.28204,-0.11810302734375,0.14129638671875,0.9852294921875,-0.67291259765625,-1.846771240234375,-1.83929443359375,1,1.0,1.0,1.0,1.0,20.00
2024-09-29 18:19:23.835,0.5921109,0.31547546,0.36716154,0.56285924,0.5649255,-0.4882589,-0.04037205,0.48626816,0.18942745,-0.28745407,0.019030293,-0.030099533,0.5354991,-0.22691432,-0.10275203,0.16084474,0.049136437,-0.5436402,-0.22277524,0.09568625,835.2747,732.52747,791.3553,834.87177,649.92676,-0.11810302734375,0.14129638671875,0.9852294921875,-0.67291259765625,-1.846771240234375,-1.83929443359375,1,1.0,1.0,1.0,1.0,20.00
2024-09-29 18:19:23.836,0.5921109,0.31547546,0.36716154,0.56285924,0.5649255,-0.4882589,-0.04037205,0.48626816,0.18942745,-0.28745407,0.019030293,-0.030099533,0.5354991,-0.22691432,-0.10275203,0.16084474,0.049136437,-0.5436402,-0.22277524,0.09568625,837.28937,730.9158,796.99634,839.707,850.18317,-0.11810302734375,0.14129638671875,0.9852294921875,-0.67291259765625,-1.846771240234375,-1.83929443359375,1,1.0,1.0,1.0,1.0,20.00
2024-09-29 18:19:23.836,0.5921109,0.31547546,0.36716154,0.56285924,0.5649255,-0.4882589,-0.04037205,0.48626816,0.18942745,-0.28745407,0.019030293,-0.030099533,0.5354991,-0.22691432,-0.10275203,0.16084474,0.049136437,-0.5436402,-0.22277524,0.09568625,840.10986,725.6777,796.99634,836.4835,833.663,-0.11810302734375,0.14129638671875,0.9852294921875,-0.67291259765625,-1.846771240234375,-1.83929443359375,1,1.0,1.0,1.0,1.0,20.00
2024-09-29 18:19:23.837,0.5921109,0.31547546,0.36716154,0.56285924,0.5649255,-0.4882589,-0.04037205,0.48626816,0.18942745,-0.28745407,0.019030293,-0.030099533,0.5354991,-0.22691432,-0.10275203,0.16084474,0.049136437,-0.5436402,-0.22277524,0.09568625,840.9158,725.6777,795.78754,834.4689,670.87915,-0.11810302734375,0.14129638671875,0.9852294921875,-0.67291259765625,-1.846771240234375,-1.83929443359375,1,1.0,1.0,1.0,1.0,20.00
2024-09-29 18:19:23.838,0.5921109,0.31547546,0.36716154,0.56285924,0.5649255,-0.4882589,-0.04037205,0.48626816,0.18942745,-0.28745407,0.019030293,-0.030099533,0.5354991,-0.22691432,-0.10275203,0.16084474,0.049136437,-0.5436402,-0.22277524,0.09568625,840.9158,725.2747,796.5934,840.10986,805.8608,-0.11810302734375,0.14129638671875,0.9852294921875,-0.67291259765625,-1.846771240234375,-1.83929443359375,1,1.0,1.0,1.0,1.0,20.00
2024-09-29 18:19:23.838,0.5921109,0.31547546,0.36716154,0.56285924,0.5649255,-0.4882589,-0.04037205,0.48626816,0.18942745,-0.28745407,0.019030293,-0.030099533,0.5354991,-0.22691432,-0.10275203,0.16084474,0.049136437,-0.5436402,-0.22277524,0.09568625,836.08057,725.2747,791.75824,839.304,1032.7106,-0.11810302734375,0.14129638671875,0.9852294921875,-0.67291259765625,-1.846771240234375,-1.83929443359375,1,1.0,1.0,1.0,1.0,20.00
2024-09-29 18:19:23.839,0.5921109,0.31547546,0.36716154,0.56285924,0.5649255,-0.4882589,-0.04037205,0.48626816,0.18942745,-0.28745407,0.019030293,-0.030099533,0.5354991,-0.22691432,-0.10275203,0.16084474,0.049136437,-0.5436402,-0.22277524,0.09568625,825.6044,726.08057,792.5641,825.2015,805.8608,-0.11810302734375,0.14129638671875,0.9852294921875,-0.67291259765625,-1.846771240234375,-1.83929443359375,1,1.0,1.0,1.0,1.0,20.00
2024-09-29 18:19:23.839,0.5921109,0.31547546,0.36716154,0.56285924,0.5649255,-0.4882589,-0.04037205,0.48626816,0.18942745,-0.28745407,0.019030293,-0.030099533,0.5354991,-0.22691432,-0.10275203,0.16084474,0.049136437,-0.5436402,-0.22277524,0.09568625,828.4249,724.0659,796.5934,825.6044,697.47253,-0.11810302734375,0.14129638671875,0.9852294921875,-0.67291259765625,-1.846771240234375,-1.83929443359375,1,1.0,1.0,1.0,1.0,20.00
2024-09-29 18:19:23.865,0.5921109,0.31547546,0.36716154,0.56285924,0.5649255,-0.4882589,-0.04037205,0.48626816,0.18942745,-0.28745407,0.019030293,-0.030099533,0.5354991,-0.22691432,-0.10275203,0.16084474,0.049136437,-0.5436402,-0.22277524,0.09568625,830.84247,728.49817,791.3553,835.6777,846.1539,-0.11676025390625,0.14404296875,0.99200439453125,-0.01495361328125,-1.89910888671875,-0.67291259765625,1,1.0,1.0,1.0,1.0,20.00
2024-09-29 18:19:23.866,0.5921109,0.31547546,0.36716154,0.56285924,0.5649255,-0.4882589,-0.04037205,0.48626816,0.18942745,-0.28745407,0.019030293,-0.030099533,0.5354991,-0.22691432,-0.10275203,0.16084474,0.049136437,-0.5436402,-0.22277524,0.09568625,827.619,727.28937,788.1319,826.0073,925.12823,-0.11676025390625,0.14404296875,0.99200439453125,-0.01495361328125,-1.89910888671875,-0.67291259765625,1,1.0,1.0,1.0,1.0,20.00
2024-09-29 18:19:23.867,0.5921109,0.31547546,0.36716154,0.56285924,0.5649255,-0.4882589,-0.04037205,0.48626816,0.18942745,-0.28745407,0.019030293,-0.030099533,0.5354991,-0.22691432,-0.10275203,0.16084474,0.049136437,-0.5436402,-0.22277524,0.09568625,826.4103,722.4542,788.1319,816.7399,779.67035,-0.11676025390625,0.14404296875,0.99200439453125,-0.01495361328125,-1.89910888671875,-0.67291259765625,1,1.0,1.0,1.0,1.0,20.00
2024-09-29 18:19:23.868,0.5921109,0.31547546,0.36716154,0.56285924,0.5649255,-0.4882589,-0.04037205,0.48626816,0.18942745,-0.28745407,0.019030293,-0.030099533,0.5354991,-0.22691432,-0.10275203,0.16084474,0.049136437,-0.5436402,-0.22277524,0.09568625,832.4542,728.49817,788.93774,815.9341,639.85345,-0.11676025390625,0.14404296875,0.99200439453125,-0.01495361328125,-1.89910888671875,-0.67291259765625,1,1.0,1.0,1.0,1.0,20.00
2024-09-29 18:19:23.869,0.5921109,0.31547546,0.36716154,0.56285924,0.5649255,-0.4882589,-0.04037205,0.48626816,0.18942745,-0.28745407,0.019030293,-0.030099533,0.5354991,-0.22691432,-0.10275203,0.16084474,0.049136437,-0.5436402,-0.22277524,0.09568625,833.2601,726.8865,788.1319,814.7253,811.0989,-0.11676025390625,0.14404296875,0.99200439453125,-0.01495361328125,-1.89910888671875,-0.67291259765625,1,1.0,1.0,1.0,1.0,20.00
2024-09-29 18:19:23.869,0.5921109,0.31547546,0.36716154,0.56285924,0.5649255,-0.4882589,-0.04037205,0.48626816,0.18942745,-0.28745407,0.019030293,-0.030099533,0.5354991,-0.22691432,-0.10275203,0.16084474,0.049136437,-0.5436402,-0.22277524,0.09568625,834.4689,721.6484,789.7436,813.91943,1147.5458,-0.11676025390625,0.14404296875,0.99200439453125,-0.01495361328125,-1.89910888671875,-0.67291259765625,1,1.0,1.0,1.0,1.0,20.00
2024-09-29 18:19:23.870,0.5921109,0.31547546,0.36716154,0.56285924,0.5649255,-0.4882589,-0.04037205,0.48626816,0.18942745,-0.28745407,0.019030293,-0.030099533,0.5354991,-0.22691432,-0.10275203,0.16084474,0.049136437,-0.5436402,-0.22277524,0.09568625,831.6484,724.0659,792.96704,815.5311,1061.7216,-0.11676025390625,0.14404296875,0.99200439453125,-0.01495361328125,-1.89910888671875,-0.67291259765625,1,1.0,1.0,1.0,1.0,20.00
2024-09-29 18:19:23.870,0.5921109,0.31547546,0.36716154,0.56285924,0.5649255,-0.4882589,-0.04037205,0.48626816,0.18942745,-0.28745407,0.019030293,-0.030099533,0.5354991,-0.22691432,-0.10275203,0.16084474,0.049136437,-0.5436402,-0.22277524,0.09568625,832.8571,728.49817,795.78754,813.1135,801.8315,-0.11676025390625,0.14404296875,0.99200439453125,-0.01495361328125,-1.89910888671875,-0.67291259765625,1,1.0,1.0,1.0,1.0,20.00
2024-09-29 18:19:23.871,0.5921109,0.31547546,0.36716154,0.56285924,0.5649255,-0.4882589,-0.04037205,0.48626816,0.18942745,-0.28745407,0.019030293,-0.030099533,0.5354991,-0.22691432,-0.10275203,0.16084474,0.049136437,-0.5436402,-0.22277524,0.09568625,834.87177,727.6923,796.5934,817.9487,892.8938,-0.11676025390625,0.14404296875,0.99200439453125,-0.01495361328125,-1.89910888671875,-0.67291259765625,1,1.0,1.0,1.0,1.0,20.00
2024-09-29 18:19:23.872,0.5921109,0.31547546,0.36716154,0.56285924,0.5649255,-0.4882589,-0.04037205,0.48626816,0.18942745,-0.28745407,0.019030293,-0.030099533,0.5354991,-0.22691432,-0.10275203,0.16084474,0.049136437,-0.5436402,-0.22277524,0.09568625,828.022,721.6484,797.3993,838.49817,1403.4066,-0.11676025390625,0.14404296875,0.99200439453125,-0.01495361328125,-1.89910888671875,-0.67291259765625,1,1.0,1.0,1.0,1.0,20.00
2024-09-29 18:19:23.872,0.5921109,0.31547546,0.36716154,0.56285924,0.5649255,-0.4882589,-0.04037205,0.48626816,0.18942745,-0.28745407,0.019030293,-0.030099533,0.5354991,-0.22691432,-0.10275203,0.16084474,0.049136437,-0.5436402,-0.22277524,0.09568625,829.2308,723.663,797.8022,843.73627,1463.4432,-0.11676025390625,0.14404296875,0.99200439453125,-0.01495361328125,-1.89910888671875,-0.67291259765625,1,1.0,1.0,1.0,1.0,20.00
2024-09-29 18:19:23.873,0.5921109,0.31547546,0.36716154,0.56285924,0.5649255,-0.4882589,-0.04037205,0.48626816,0.18942745,-0.28745407,0.019030293,-0.030099533,0.5354991,-0.22691432,-0.10275203,0.16084474,0.049136437,-0.5436402,-0.22277524,0.09568625,832.0513,728.9011,794.9817,832.8571,895.31134,-0.11676025390625,0.14404296875,0.99200439453125,-0.01495361328125,-1.89910888671875,-0.67291259765625,1,1.0,1.0,1.0,1.0,20.00
2024-09-29 18:19:23.898,0.5921109,0.31547546,0.36716154,0.56285924,0.5649255,-0.4882589,-0.04037205,0.48626816,0.18942745,-0.28745407,0.019030293,-0.030099533,0.5354991,-0.22691432,-0.10275203,0.16084474,0.049136437,-0.5436402,-0.22277524,0.09568625,836.08057,726.4835,790.54944,832.8571,794.17584,-0.12213134765625,0.14825439453125,0.9913330078125,-0.291595458984375,-1.457977294921875,0.829925537109375,1,1.0,1.0,1.0,1.0,20.00
2024-09-29 18:19:23.899,0.5921109,0.31547546,0.36716154,0.56285924,0.5649255,-0.4882589,-0.04037205,0.48626816,0.18942745,-0.28745407,0.019030293,-0.030099533,0.5354991,-0.22691432,-0.10275203,0.16084474,0.049136437,-0.5436402,-0.22277524,0.09568625,840.9158,724.0659,793.36993,843.73627,891.28204,-0.12213134765625,0.14825439453125,0.9913330078125,-0.291595458984375,-1.457977294921875,0.829925537109375,1,1.0,1.0,1.0,1.0,20.00
2024-09-29 18:19:23.900,0.5921109,0.31547546,0.36716154,0.56285924,0.5649255,-0.4882589,-0.04037205,0.48626816,0.18942745,-0.28745407,0.019030293,-0.030099533,0.5354991,-0.22691432,-0.10275203,0.16084474,0.049136437,-0.5436402,-0.22277524,0.09568625,833.2601,722.4542,795.78754,844.1392,762.74725,-0.12213134765625,0.14825439453125,0.9913330078125,-0.291595458984375,-1.457977294921875,0.829925537109375,1,1.0,1.0,1.0,1.0,20.00
2024-09-29 18:19:23.900,0.5921109,0.33215854,0.3998291,0.56285924,0.5649255,-0.48169002,-0.051442083,0.48626816,0.18942745,-0.29134056,0.019030293,-0.030099533,0.5354991,-0.2232899,-0.09892199,0.16084474,0.049136437,-0.53565264,-0.2330848,0.09568625,829.2308,720.0366,792.96704,845.34796,708.7546,-0.12213134765625,0.14825439453125,0.9913330078125,-0.291595458984375,-1.457977294921875,0.829925537109375,1,1.0,1.0,1.0,1.0,20.00
2024-09-29 18:19:23.905,0.5921109,0.33215854,0.3998291,0.56285924,0.5649255,-0.48169002,-0.051442083,0.48626816,0.18942745,-0.29134056,0.019030293,-0.030099533,0.5354991,-0.2232899,-0.09892199,0.16084474,0.049136437,-0.53565264,-0.2330848,0.09568625,838.49817,720.84247,793.7729,854.61536,884.43225,-0.12213134765625,0.14825439453125,0.9913330078125,-0.291595458984375,-1.457977294921875,0.829925537109375,1,1.0,1.0,1.0,1.0,20.00
2024-09-29 18:19:23.907,0.5921109,0.33215854,0.3998291,0.56285924,0.5649255,-0.48169002,-0.051442083,0.48626816,0.18942745,-0.29134056,0.019030293,-0.030099533,0.5354991,-0.2232899,-0.09892199,0.16084474,0.049136437,-0.53565264,-0.2330848,0.09568625,840.10986,720.84247,790.9524,854.21246,1055.6776,-0.12213134765625,0.14825439453125,0.9913330078125,-0.291595458984375,-1.457977294921875,0.829925537109375,1,1.0,1.0,1.0,1.0,20.00
2024-09-29 18:19:23.908,0.5921109,0.33215854,0.3998291,0.56285924,0.5649255,-0.48169002,-0.051442083,0.48626816,0.18942745,-0.29134056,0.019030293,-0.030099533,0.5354991,-0.2232899,-0.09892199,0.16084474,0.049136437,-0.53565264,-0.2330848,0.09568625,839.707,723.663,792.1612,847.76556,983.95605,-0.12213134765625,0.14825439453125,0.9913330078125,-0.291595458984375,-1.457977294921875,0.829925537109375,1,1.0,1.0,1.0,1.0,20.00
2024-09-29 18:19:23.908,0.5921109,0.33215854,0.3998291,0.56285924,0.5649255,-0.48169002,-0.051442083,0.48626816,0.18942745,-0.29134056,0.019030293,-0.030099533,0.5354991,-0.2232899,-0.09892199,0.16084474,0.049136437,-0.53565264,-0.2330848,0.09568625,846.1539,727.28937,800.6227,843.3333,757.50916,-0.12213134765625,0.14825439453125,0.9913330078125,-0.291595458984375,-1.457977294921875,0.829925537109375,1,1.0,1.0,1.0,1.0,20.00
2024-09-29 18:19:23.909,0.5921109,0.33215854,0.3998291,0.56285924,0.5649255,-0.48169002,-0.051442083,0.48626816,0.18942745,-0.29134056,0.019030293,-0.030099533,0.5354991,-0.2232899,-0.09892199,0.16084474,0.049136437,-0.53565264,-0.2330848,0.09568625,843.73627,723.2601,801.02563,846.1539,1029.0842,-0.12213134765625,0.14825439453125,0.9913330078125,-0.291595458984375,-1.457977294921875,0.829925537109375,1,1.0,1.0,1.0,1.0,20.00
2024-09-29 18:19:23.910,0.5921109,0.33215854,0.3998291,0.56285924,0.5649255,-0.48169002,-0.051442083,0.48626816,0.18942745,-0.29134056,0.019030293,-0.030099533,0.5354991,-0.2232899,-0.09892199,0.16084474,0.049136437,-0.53565264,-0.2330848,0.09568625,839.304,719.6337,798.20514,842.9304,1114.9084,-0.12213134765625,0.14825439453125,0.9913330078125,-0.291595458984375,-1.457977294921875,0.829925537109375,1,1.0,1.0,1.0,1.0,20.00
2024-09-29 18:19:23.911,0.5921109,0.33215854,0.3998291,0.56285924,0.5649255,-0.48169002,-0.051442083,0.48626816,0.18942745,-0.29134056,0.019030293,-0.030099533,0.5354991,-0.2232899,-0.09892199,0.16084474,0.049136437,-0.53565264,-0.2330848,0.09568625,835.2747,719.2308,797.8022,836.8865,697.0696,-0.12213134765625,0.14825439453125,0.9913330078125,-0.291595458984375,-1.457977294921875,0.829925537109375,1,1.0,1.0,1.0,1.0,20.00
2024-09-29 18:19:23.912,0.5921109,0.33215854,0.3998291,0.56285924,0.5649255,-0.48169002,-0.051442083,0.48626816,0.18942745,-0.29134056,0.019030293,-0.030099533,0.5354991,-0.2232899,-0.09892199,0.16084474,0.049136437,-0.53565264,-0.2330848,0.09568625,833.2601,715.6044,796.99634,836.8865,646.7033,-0.12213134765625,0.14825439453125,0.9913330078125,-0.291595458984375,-1.457977294921875,0.829925537109375,1,1.0,1.0,1.0,1.0,20.00
2024-09-29 18:19:23.936,0.5921109,0.33215854,0.3998291,0.56285924,0.5649255,-0.48169002,-0.051442083,0.48626816,0.18942745,-0.29134056,0.019030293,-0.030099533,0.5354991,-0.2232899,-0.09892199,0.16084474,0.049136437,-0.53565264,-0.2330848,0.09568625,828.8278,713.5897,792.96704,837.6923,843.73627,-0.12933349609375,0.1466064453125,0.98870849609375,-0.73272705078125,-1.248626708984375,0.35888671875,1,1.0,1.0,1.0,1.0,20.00
2024-09-29 18:19:23.937,0.5921109,0.33215854,0.3998291,0.56285924,0.5649255,-0.48169002,-0.051442083,0.48626816,0.18942745,-0.29134056,0.019030293,-0.030099533,0.5354991,-0.2232899,-0.09892199,0.16084474,0.049136437,-0.53565264,-0.2330848,0.09568625,829.6337,713.9927,791.75824,830.0366,637.8388,-0.12933349609375,0.1466064453125,0.98870849609375,-0.73272705078125,-1.248626708984375,0.35888671875,1,1.0,1.0,1.0,1.0,20.00
2024-09-29 18:19:23.938,0.5921109,0.33215854,0.3998291,0.56285924,0.5649255,-0.48169002,-0.051442083,0.48626816,0.18942745,-0.29134056,0.019030293,-0.030099533,0.5354991,-0.2232899,-0.09892199,0.16084474,0.049136437,-0.53565264,-0.2330848,0.09568625,836.4835,713.5897,794.57874,832.8571,630.989,-0.12933349609375,0.1466064453125,0.98870849609375,-0.73272705078125,-1.248626708984375,0.35888671875,1,1.0,1.0,1.0,1.0,20.00
2024-09-29 18:19:23.938,0.5921109,0.33215854,0.3998291,0.56285924,0.5649255,-0.48169002,-0.051442083,0.48626816,0.18942745,-0.29134056,0.019030293,-0.030099533,0.5354991,-0.2232899,-0.09892199,0.16084474,0.049136437,-0.53565264,-0.2330848,0.09568625,834.4689,711.978,794.9817,834.87177,765.9707,-0.12933349609375,0.1466064453125,0.98870849609375,-0.73272705078125,-1.248626708984375,0.35888671875,1,1.0,1.0,1.0,1.0,20.00
2024-09-29 18:19:23.939,0.5921109,0.33215854,0.3998291,0.56285924,0.5649255,-0.48169002,-0.051442083,0.48626816,0.18942745,-0.29134056,0.019030293,-0.030099533,0.5354991,-0.2232899,-0.09892199,0.16084474,0.049136437,-0.53565264,-0.2330848,0.09568625,833.2601,707.9487,795.38464,832.0513,630.58606,-0.12933349609375,0.1466064453125,0.98870849609375,-0.73272705078125,-1.248626708984375,0.35888671875,1,1.0,1.0,1.0,1.0,20.00
2024-09-29 18:19:23.939,0.5921109,0.33215854,0.3998291,0.56285924,0.5649255,-0.48169002,-0.051442083,0.48626816,0.18942745,-0.29134056,0.019030293,-0.030099533,0.5354991,-0.2232899,-0.09892199,0.16084474,0.049136437,-0.53565264,-0.2330848,0.09568625,836.4835,704.7253,793.7729,838.9011,688.60803,-0.12933349609375,0.1466064453125,0.98870849609375,-0.73272705078125,-1.248626708984375,0.35888671875,1,1.0,1.0,1.0,1.0,20.00
2024-09-29 18:19:23.940,0.5921109,0.33215854,0.3998291,0.56285924,0.5649255,-0.48169002,-0.051442083,0.48626816,0.18942745,-0.29134056,0.019030293,-0.030099533,0.5354991,-0.2232899,-0.09892199,0.16084474,0.049136437,-0.53565264,-0.2330848,0.09568625,837.6923,706.337,792.96704,836.8865,800.6227,-0.12933349609375,0.1466064453125,0.98870849609375,-0.73272705078125,-1.248626708984375,0.35888671875,1,1.0,1.0,1.0,1.0,20.00
2024-09-29 18:19:23.940,0.5921109,0.33215854,0.3998291,0.56285924,0.5649255,-0.48169002,-0.051442083,0.48626816,0.18942745,-0.29134056,0.019030293,-0.030099533,0.5354991,-0.2232899,-0.09892199,0.16084474,0.049136437,-0.53565264,-0.2330848,0.09568625,836.08057,710.7692,795.38464,836.8865,1028.2784,-0.12933349609375,0.1466064453125,0.98870849609375,-0.73272705078125,-1.248626708984375,0.35888671875,1,1.0,1.0,1.0,1.0,20.00
2024-09-29 18:19:23.941,0.5921109,0.33215854,0.3998291,0.56285924,0.5649255,-0.48169002,-0.051442083,0.48626816,0.18942745,-0.29134056,0.019030293,-0.030099533,0.5354991,-0.2232899,-0.09892199,0.16084474,0.049136437,-0.53565264,-0.2330848,0.09568625,831.6484,714.3956,798.20514,846.9597,1148.3517,-0.12933349609375,0.1466064453125,0.98870849609375,-0.73272705078125,-1.248626708984375,0.35888671875,1,1.0,1.0,1.0,1.0,20.00
2024-09-29 18:19:23.942,0.5921109,0.33215854,0.3998291,0.56285924,0.5649255,-0.48169002,-0.051442083,0.48626816,0.18942745,-0.29134056,0.019030293,-0.030099533,0.5354991,-0.2232899,-0.09892199,0.16084474,0.049136437,-0.53565264,-0.2330848,0.09568625,825.2015,715.6044,796.5934,843.73627,712.7839,-0.12933349609375,0.1466064453125,0.98870849609375,-0.73272705078125,-1.248626708984375,0.35888671875,1,1.0,1.0,1.0,1.0,20.00
2024-09-29 18:19:23.942,0.5921109,0.33215854,0.3998291,0.56285924,0.5649255,-0.48169002,-0.051442083,0.48626816,0.18942745,-0.29134056,0.019030293,-0.030099533,0.5354991,-0.2232899,-0.09892199,0.16084474,0.049136437,-0.53565264,-0.2330848,0.09568625,830.0366,711.978,799.41394,843.73627,624.94507,-0.12933349609375,0.1466064453125,0.98870849609375,-0.73272705078125,-1.248626708984375,0.35888671875,1,1.0,1.0,1.0,1.0,20.00
2024-09-29 18:19:23.943,0.5921109,0.33215854,0.3998291,0.56285924,0.5649255,-0.48169002,-0.051442083,0.48626816,0.18942745,-0.29134056,0.019030293,-0.030099533,0.5354991,-0.2232899,-0.09892199,0.16084474,0.049136437,-0.53565264,-0.2330848,0.09568625,834.0659,712.7839,799.41394,852.1978,894.90845,-0.12933349609375,0.1466064453125,0.98870849609375,-0.73272705078125,-1.248626708984375,0.35888671875,1,1.0,1.0,1.0,1.0,20.00
2024-09-29 18:19:24.035,0.5921109,0.33215854,0.3998291,0.56285924,0.5649255,-0.48169002,-0.051442083,0.48626816,0.18942745,-0.29134056,0.019030293,-0.030099533,0.5354991,-0.2232899,-0.09892199,0.16084474,0.049136437,-0.53565264,-0.2330848,0.09568625,836.8865,715.6044,793.36993,853.4066,764.7619,-0.12823486328125,0.140625,0.988525390625,-1.5252685546875,-1.51031494140625,-0.814971923828125,1,1.0,1.0,1.0,1.0,20.00
2024-09-29 18:19:24.036,0.5921109,0.33215854,0.3998291,0.56285924,0.5649255,-0.48169002,-0.051442083,0.48626816,0.18942745,-0.29134056,0.019030293,-0.030099533,0.5354991,-0.2232899,-0.09892199,0.16084474,0.049136437,-0.53565264,-0.2330848,0.09568625,842.9304,715.2015,791.75824,841.31866,558.46155,-0.12823486328125,0.140625,0.988525390625,-1.5252685546875,-1.51031494140625,-0.814971923828125,1,1.0,1.0,1.0,1.0,20.00
2024-09-29 18:19:24.037,0.5921109,0.33215854,0.3998291,0.56285924,0.5649255,-0.48169002,-0.051442083,0.48626816,0.18942745,-0.29134056,0.019030293,-0.030099533,0.5354991,-0.2232899,-0.09892199,0.16084474,0.049136437,-0.53565264,-0.2330848,0.09568625,845.34796,720.4396,796.1905,840.9158,614.0659,-0.12823486328125,0.140625,0.988525390625,-1.5252685546875,-1.51031494140625,-0.814971923828125,1,1.0,1.0,1.0,1.0,20.00
2024-09-29 18:19:24.038,0.5921109,0.33215854,0.3998291,0.56285924,0.5649255,-0.48169002,-0.051442083,0.48626816,0.18942745,-0.29134056,0.019030293,-0.030099533,0.5354991,-0.2232899,-0.09892199,0.16084474,0.049136437,-0.53565264,-0.2330848,0.09568625,846.55676,722.8571,797.3993,858.24176,805.8608,-0.12823486328125,0.140625,0.988525390625,-1.5252685546875,-1.51031494140625,-0.814971923828125,1,1.0,1.0,1.0,1.0,20.00
2024-09-29 18:19:24.038,0.5921109,0.33215854,0.3998291,0.56285924,0.5649255,-0.48169002,-0.051442083,0.48626816,0.18942745,-0.29134056,0.019030293,-0.030099533,0.5354991,-0.2232899,-0.09892199,0.16084474,0.049136437,-0.53565264,-0.2330848,0.09568625,846.9597,721.6484,799.011,863.8828,759.92676,-0.12823486328125,0.140625,0.988525390625,-1.5252685546875,-1.51031494140625,-0.814971923828125,1,1.0,1.0,1.0,1.0,20.00
2024-09-29 18:19:24.039,0.5921109,0.34559473,0.42028072,0.5728428,0.5649255,-0.45959085,-0.06311406,0.051746316,0.18942745,-0.31137666,0.01739561,0.84485424,0.5354991,-0.22075483,-0.10069526,0.3654778,0.049136437,-0.53157437,-0.2503181,0.04731154,854.21246,724.0659,800.2198,857.4359,680.9524,-0.12823486328125,0.140625,0.988525390625,-1.5252685546875,-1.51031494140625,-0.814971923828125,1,1.0,1.0,1.0,1.0,20.00
2024-09-29 18:19:24.045,0.5921109,0.34559473,0.42028072,0.5728428,0.5649255,-0.45959085,-0.06311406,0.051746316,0.18942745,-0.31137666,0.01739561,0.84485424,0.5354991,-0.22075483,-0.10069526,0.3654778,0.049136437,-0.53157437,-0.2503181,0.04731154,854.61536,722.8571,797.8022,853.00366,794.17584,-0.12823486328125,0.140625,0.988525390625,-1.5252685546875,-1.51031494140625,-0.814971923828125,1,1.0,1.0,1.0,1.0,20.00
2024-09-29 18:19:24.046,0.5921109,0.34559473,0.42028072,0.5728428,0.5649255,-0.45959085,-0.06311406,0.051746316,0.18942745,-0.31137666,0.01739561,0.84485424,0.5354991,-0.22075483,-0.10069526,0.3654778,0.049136437,-0.53157437,-0.2503181,0.04731154,852.1978,718.4249,797.3993,861.06226,1134.249,-0.12823486328125,0.140625,0.988525390625,-1.5252685546875,-1.51031494140625,-0.814971923828125,1,1.0,1.0,1.0,1.0,20.00
2024-09-29 18:19:24.046,0.5921109,0.34559473,0.42028072,0.5728428,0.5649255,-0.45959085,-0.06311406,0.051746316,0.18942745,-0.31137666,0.01739561,0.84485424,0.5354991,-0.22075483,-0.10069526,0.3654778,0.049136437,-0.53157437,-0.2503181,0.04731154,855.82416,720.4396,797.8022,869.12085,1131.8315,-0.12823486328125,0.140625,0.988525390625,-1.5252685546875,-1.51031494140625,-0.814971923828125,1,1.0,1.0,1.0,1.0,20.00
2024-09-29 18:19:24.047,0.5921109,0.34559473,0.42028072,0.5728428,0.5649255,-0.45959085,-0.06311406,0.051746316,0.18942745,-0.31137666,0.01739561,0.84485424,0.5354991,-0.22075483,-0.10069526,0.3654778,0.049136437,-0.53157437,-0.2503181,0.04731154,859.85345,726.08057,799.41394,862.27106,662.8205,-0.12823486328125,0.140625,0.988525390625,-1.5252685546875,-1.51031494140625,-0.814971923828125,1,1.0,1.0,1.0,1.0,20.00
2024-09-29 18:19:24.048,0.5921109,0.34559473,0.42028072,0.5728428,0.5649255,-0.45959085,-0.06311406,0.051746316,0.18942745,-0.31137666,0.01739561,0.84485424,0.5354991,-0.22075483,-0.10069526,0.3654778,0.049136437,-0.53157437,-0.2503181,0.04731154,860.65936,724.0659,797.3993,849.7802,517.3626,-0.12823486328125,0.140625,0.988525390625,-1.5252685546875,-1.51031494140625,-0.814971923828125,1,1.0,1.0,1.0,1.0,20.00
2024-09-29 18:19:24.048,0.5921109,0.34559473,0.42028072,0.5728428,0.5649255,-0.45959085,-0.06311406,0.051746316,0.18942745,-0.31137666,0.01739561,0.84485424,0.5354991,-0.22075483,-0.10069526,0.3654778,0.049136437,-0.53157437,-0.2503181,0.04731154,857.03296,725.6777,792.96704,835.6777,683.7729,-0.12823486328125,0.140625,0.988525390625,-1.5252685546875,-1.51031494140625,-0.814971923828125,1,1.0,1.0,1.0,1.0,20.00
2024-09-29 18:19:24.049,0.5921109,0.34559473,0.42028072,0.5728428,0.5649255,-0.45959085,-0.06311406,0.051746316,0.18942745,-0.31137666,0.01739561,0.84485424,0.5354991,-0.22075483,-0.10069526,0.3654778,0.049136437,-0.53157437,-0.2503181,0.04731154,853.4066,730.10986,792.5641,838.0952,765.9707,-0.13458251953125,0.13397216796875,0.99200439453125,-1.1962890625,-1.4056396484375,-0.897216796875,1,1.0,1.0,1.0,1.0,20.00
2024-09-29 18:19:24.050,0.5921109,0.34559473,0.42028072,0.5728428,0.5649255,-0.45959085,-0.06311406,0.051746316,0.18942745,-0.31137666,0.01739561,0.84485424,0.5354991,-0.22075483,-0.10069526,0.3654778,0.049136437,-0.53157437,-0.2503181,0.04731154,858.24176,729.707,794.57874,838.49817,734.5421,-0.13458251953125,0.13397216796875,0.99200439453125,-1.1962890625,-1.4056396484375,-0.897216796875,1,1.0,1.0,1.0,1.0,20.00
2024-09-29 18:19:24.051,0.5921109,0.34559473,0.42028072,0.5728428,0.5649255,-0.45959085,-0.06311406,0.051746316,0.18942745,-0.31137666,0.01739561,0.84485424,0.5354991,-0.22075483,-0.10069526,0.3654778,0.049136437,-0.53157437,-0.2503181,0.04731154,855.82416,729.304,793.36993,830.84247,714.3956,-0.13458251953125,0.13397216796875,0.99200439453125,-1.1962890625,-1.4056396484375,-0.897216796875,1,1.0,1.0,1.0,1.0,20.00
2024-09-29 18:19:24.051,0.5921109,0.34559473,0.42028072,0.5728428,0.5649255,-0.45959085,-0.06311406,0.051746316,0.18942745,-0.31137666,0.01739561,0.84485424,0.5354991,-0.22075483,-0.10069526,0.3654778,0.049136437,-0.53157437,-0.2503181,0.04731154,849.7802,731.7216,796.1905,832.0513,805.8608,-0.13458251953125,0.13397216796875,0.99200439453125,-1.1962890625,-1.4056396484375,-0.897216796875,1,1.0,1.0,1.0,1.0,20.00
2024-09-29 18:19:24.052,0.5921109,0.34559473,0.42028072,0.5728428,0.5649255,-0.45959085,-0.06311406,0.051746316,0.18942745,-0.31137666,0.01739561,0.84485424,0.5354991,-0.22075483,-0.10069526,0.3654778,0.049136437,-0.53157437,-0.2503181,0.04731154,837.6923,729.707,795.38464,831.6484,854.21246,-0.13458251953125,0.13397216796875,0.99200439453125,-1.1962890625,-1.4056396484375,-0.897216796875,1,1.0,1.0,1.0,1.0,20.00
2024-09-29 18:19:24.053,0.5921109,0.34559473,0.42028072,0.5728428,0.5649255,-0.45959085,-0.06311406,0.051746316,0.18942745,-0.31137666,0.01739561,0.84485424,0.5354991,-0.22075483,-0.10069526,0.3654778,0.049136437,-0.53157437,-0.2503181,0.04731154,842.9304,729.707,793.36993,833.663,779.67035,-0.13458251953125,0.13397216796875,0.99200439453125,-1.1962890625,-1.4056396484375,-0.897216796875,1,1.0,1.0,1.0,1.0,20.00
2024-09-29 18:19:24.053,0.5921109,0.34559473,0.42028072,0.5728428,0.5649255,-0.45959085,-0.06311406,0.051746316,0.18942745,-0.31137666,0.01739561,0.84485424,0.5354991,-0.22075483,-0.10069526,0.3654778,0.049136437,-0.53157437,-0.2503181,0.04731154,848.1685,730.10986,794.17584,836.8865,837.6923,-0.13458251953125,0.13397216796875,0.99200439453125,-1.1962890625,-1.4056396484375,-0.897216796875,1,1.0,1.0,1.0,1.0,20.00
2024-09-29 18:19:24.054,0.5921109,0.34559473,0.42028072,0.5728428,0.5649255,-0.45959085,-0.06311406,0.051746316,0.18942745,-0.31137666,0.01739561,0.84485424,0.5354991,-0.22075483,-0.10069526,0.3654778,0.049136437,-0.53157437,-0.2503181,0.04731154,842.1245,728.0952,792.1612,832.8571,950.5128,-0.13458251953125,0.13397216796875,0.99200439453125,-1.1962890625,-1.4056396484375,-0.897216796875,1,1.0,1.0,1.0,1.0,20.00
2024-09-29 18:19:24.055,0.5921109,0.34559473,0.42028072,0.5728428,0.5649255,-0.45959085,-0.06311406,0.051746316,0.18942745,-0.31137666,0.01739561,0.84485424,0.5354991,-0.22075483,-0.10069526,0.3654778,0.049136437,-0.53157437,-0.2503181,0.04731154,840.9158,727.28937,789.34064,828.022,840.9158,-0.13458251953125,0.13397216796875,0.99200439453125,-1.1962890625,-1.4056396484375,-0.897216796875,1,1.0,1.0,1.0,1.0,20.00
2024-09-29 18:19:24.055,0.5921109,0.34559473,0.42028072,0.5728428,0.5649255,-0.45959085,-0.06311406,0.051746316,0.18942745,-0.31137666,0.01739561,0.84485424,0.5354991,-0.22075483,-0.10069526,0.3654778,0.049136437,-0.53157437,-0.2503181,0.04731154,840.10986,722.0513,782.49084,823.9927,695.05493,-0.13458251953125,0.13397216796875,0.99200439453125,-1.1962890625,-1.4056396484375,-0.897216796875,1,1.0,1.0,1.0,1.0,20.00
2024-09-29 18:19:24.056,0.5921109,0.34559473,0.42028072,0.5728428,0.5649255,-0.45959085,-0.06311406,0.051746316,0.18942745,-0.31137666,0.01739561,0.84485424,0.5354991,-0.22075483,-0.10069526,0.3654778,0.049136437,-0.53157437,-0.2503181,0.04731154,844.1392,722.4542,783.69965,829.2308,733.3333,-0.13458251953125,0.13397216796875,0.99200439453125,-1.1962890625,-1.4056396484375,-0.897216796875,1,1.0,1.0,1.0,1.0,20.00
2024-09-29 18:19:24.057,0.5921109,0.34559473,0.42028072,0.5728428,0.5649255,-0.45959085,-0.06311406,0.051746316,0.18942745,-0.31137666,0.01739561,0.84485424,0.5354991,-0.22075483,-0.10069526,0.3654778,0.049136437,-0.53157437,-0.2503181,0.04731154,852.6007,733.3333,792.5641,835.2747,740.989,-0.13458251953125,0.13397216796875,0.99200439453125,-1.1962890625,-1.4056396484375,-0.897216796875,1,1.0,1.0,1.0,1.0,20.00
2024-09-29 18:19:24.085,0.5921109,0.34559473,0.42028072,0.5728428,0.5649255,-0.45959085,-0.06311406,0.051746316,0.18942745,-0.31137666,0.01739561,0.84485424,0.5354991,-0.22075483,-0.10069526,0.3654778,0.049136437,-0.53157437,-0.2503181,0.04731154,857.8388,735.7509,796.5934,838.0952,754.68866,-0.13458251953125,0.13397216796875,0.99200439453125,-1.1962890625,-1.4056396484375,-0.897216796875,1,1.0,1.0,1.0,1.0,20.00
2024-09-29 18:19:24.086,0.5921109,0.34559473,0.42028072,0.5728428,0.5649255,-0.45959085,-0.06311406,0.051746316,0.18942745,-0.31137666,0.01739561,0.84485424,0.5354991,-0.22075483,-0.10069526,0.3654778,0.049136437,-0.53157437,-0.2503181,0.04731154,861.06226,732.1245,794.57874,842.1245,880.0,-0.13458251953125,0.13397216796875,0.99200439453125,-1.1962890625,-1.4056396484375,-0.897216796875,1,1.0,1.0,1.0,1.0,20.00
2024-09-29 18:19:24.087,0.5921109,0.34559473,0.42028072,0.5728428,0.5649255,-0.45959085,-0.06311406,0.051746316,0.18942745,-0.31137666,0.01739561,0.84485424,0.5354991,-0.22075483,-0.10069526,0.3654778,0.049136437,-0.53157437,-0.2503181,0.04731154,856.63007,730.9158,790.54944,841.7216,984.7619,-0.13458251953125,0.13397216796875,0.99200439453125,-1.1962890625,-1.4056396484375,-0.897216796875,1,1.0,1.0,1.0,1.0,20.00
2024-09-29 18:19:24.087,0.5921109,0.34559473,0.42028072,0.5728428,0.5649255,-0.45959085,-0.06311406,0.051746316,0.18942745,-0.31137666,0.01739561,0.84485424,0.5354991,-0.22075483,-0.10069526,0.3654778,0.049136437,-0.53157437,-0.2503181,0.04731154,848.1685,729.707,791.75824,845.7509,826.4103,-0.13458251953125,0.13397216796875,0.99200439453125,-1.1962890625,-1.4056396484375,-0.897216796875,1,1.0,1.0,1.0,1.0,20.00
2024-09-29 18:19:24.088,0.5921109,0.34559473,0.42028072,0.5728428,0.5649255,-0.45959085,-0.06311406,0.051746316,0.18942745,-0.31137666,0.01739561,0.84485424,0.5354991,-0.22075483,-0.10069526,0.3654778,0.049136437,-0.53157437,-0.2503181,0.04731154,846.9597,730.9158,796.1905,849.3773,780.87915,-0.13458251953125,0.13397216796875,0.99200439453125,-1.1962890625,-1.4056396484375,-0.897216796875,1,1.0,1.0,1.0,1.0,20.00
2024-09-29 18:19:24.088,0.5921109,0.34559473,0.42028072,0.5728428,0.5649255,-0.45959085,-0.06311406,0.051746316,0.18942745,-0.31137666,0.01739561,0.84485424,0.5354991,-0.22075483,-0.10069526,0.3654778,0.049136437,-0.53157437,-0.2503181,0.04731154,842.1245,733.3333,794.57874,844.1392,1029.4872,-0.13458251953125,0.13397216796875,0.99200439453125,-1.1962890625,-1.4056396484375,-0.897216796875,1,1.0,1.0,1.0,1.0,20.00
2024-09-29 18:19:24.089,0.5921109,0.34559473,0.42028072,0.5728428,0.5649255,-0.45959085,-0.06311406,0.051746316,0.18942745,-0.31137666,0.01739561,0.84485424,0.5354991,-0.22075483,-0.10069526,0.3654778,0.049136437,-0.53157437,-0.2503181,0.04731154,840.9158,734.94507,795.38464,844.94507,1122.1611,-0.13458251953125,0.13397216796875,0.99200439453125,-1.1962890625,-1.4056396484375,-0.897216796875,1,1.0,1.0,1.0,1.0,20.00
2024-09-29 18:19:24.089,0.5921109,0.34672403,0.4311905,0.63298887,0.5649255,-0.43108687,-0.07528074,0.015814502,0.18942745,-0.32679543,0.01366817,0.84485424,0.5354991,-0.2195839,-0.10526478,0.37506503,0.049136437,-0.53333724,-0.2805471,0.009760601,844.5421,734.1392,794.17584,853.00366,1228.9377,-0.13458251953125,0.13397216796875,0.99200439453125,-1.1962890625,-1.4056396484375,-0.897216796875,1,1.0,1.0,1.0,1.0,20.00
2024-09-29 18:19:24.094,0.5921109,0.34672403,0.4311905,0.63298887,0.5649255,-0.43108687,-0.07528074,0.015814502,0.18942745,-0.32679543,0.01366817,0.84485424,0.5354991,-0.2195839,-0.10526478,0.37506503,0.049136437,-0.53333724,-0.2805471,0.009760601,844.5421,732.9304,789.7436,853.4066,1235.3846,-0.13458251953125,0.13397216796875,0.99200439453125,-1.1962890625,-1.4056396484375,-0.897216796875,1,1.0,1.0,1.0,1.0,20.00
2024-09-29 18:19:24.095,0.5921109,0.34672403,0.4311905,0.63298887,0.5649255,-0.43108687,-0.07528074,0.015814502,0.18942745,-0.32679543,0.01366817,0.84485424,0.5354991,-0.2195839,-0.10526478,0.37506503,0.049136437,-0.53333724,-0.2805471,0.009760601,848.5714,732.9304,788.5348,846.1539,966.63007,-0.13458251953125,0.13397216796875,0.99200439453125,-1.1962890625,-1.4056396484375,-0.897216796875,1,1.0,1.0,1.0,1.0,20.00
2024-09-29 18:19:24.095,0.5921109,0.34672403,0.4311905,0.63298887,0.5649255,-0.43108687,-0.07528074,0.015814502,0.18942745,-0.32679543,0.01366817,0.84485424,0.5354991,-0.2195839,-0.10526478,0.37506503,0.049136437,-0.53333724,-0.2805471,0.009760601,857.8388,735.34796,788.5348,839.304,746.2271,-0.13458251953125,0.13397216796875,0.99200439453125,-1.1962890625,-1.4056396484375,-0.897216796875,1,1.0,1.0,1.0,1.0,20.00
2024-09-29 18:19:24.096,0.5921109,0.34672403,0.4311905,0.63298887,0.5649255,-0.43108687,-0.07528074,0.015814502,0.18942745,-0.32679543,0.01366817,0.84485424,0.5354991,-0.2195839,-0.10526478,0.37506503,0.049136437,-0.53333724,-0.2805471,0.009760601,864.68866,740.18317,790.14655,831.2454,597.1429,-0.13458251953125,0.13397216796875,0.99200439453125,-1.1962890625,-1.4056396484375,-0.897216796875,1,1.0,1.0,1.0,1.0,20.00
2024-09-29 18:19:24.121,0.5921109,0.34672403,0.4311905,0.63298887,0.5649255,-0.43108687,-0.07528074,0.015814502,0.18942745,-0.32679543,0.01366817,0.84485424,0.5354991,-0.2195839,-0.10526478,0.37506503,0.049136437,-0.53333724,-0.2805471,0.009760601,842.9304,741.39197,789.34064,823.5897,535.4945,-0.12762451171875,0.1328125,0.9869384765625,-0.291595458984375,-1.1663818359375,-1.443023681640625,1,1.0,1.0,1.0,1.0,20.00
2024-09-29 18:19:24.122,0.5921109,0.34672403,0.4311905,0.63298887,0.5649255,-0.43108687,-0.07528074,0.015814502,0.18942745,-0.32679543,0.01366817,0.84485424,0.5354991,-0.2195839,-0.10526478,0.37506503,0.049136437,-0.53333724,-0.2805471,0.009760601,834.0659,743.4066,787.72894,829.2308,654.7619,-0.12762451171875,0.1328125,0.9869384765625,-0.291595458984375,-1.1663818359375,-1.443023681640625,1,1.0,1.0,1.0,1.0,20.00
2024-09-29 18:19:24.122,0.5921109,0.34672403,0.4311905,0.63298887,0.5649255,-0.43108687,-0.07528074,0.015814502,0.18942745,-0.32679543,0.01366817,0.84485424,0.5354991,-0.2195839,-0.10526478,0.37506503,0.049136437,-0.53333724,-0.2805471,0.009760601,841.31866,744.61536,788.5348,834.87177,788.5348,-0.12762451171875,0.1328125,0.9869384765625,-0.291595458984375,-1.1663818359375,-1.443023681640625,1,1.0,1.0,1.0,1.0,20.00
2024-09-29 18:19:24.123,0.5921109,0.34672403,0.4311905,0.63298887,0.5649255,-0.43108687,-0.07528074,0.015814502,0.18942745,-0.32679543,0.01366817,0.84485424,0.5354991,-0.2195839,-0.10526478,0.37506503,0.049136437,-0.53333724,-0.2805471,0.009760601,844.1392,746.2271,791.75824,832.8571,673.69965,-0.12762451171875,0.1328125,0.9869384765625,-0.291595458984375,-1.1663818359375,-1.443023681640625,1,1.0,1.0,1.0,1.0,20.00
2024-09-29 18:19:24.123,0.5921109,0.34672403,0.4311905,0.63298887,0.5649255,-0.43108687,-0.07528074,0.015814502,0.18942745,-0.32679543,0.01366817,0.84485424,0.5354991,-0.2195839,-0.10526478,0.37506503,0.049136437,-0.53333724,-0.2805471,0.009760601,846.55676,744.61536,790.14655,832.8571,544.35895,-0.12762451171875,0.1328125,0.9869384765625,-0.291595458984375,-1.1663818359375,-1.443023681640625,1,1.0,1.0,1.0,1.0,20.00
2024-09-29 18:19:24.124,0.5921109,0.34672403,0.4311905,0.63298887,0.5649255,-0.43108687,-0.07528074,0.015814502,0.18942745,-0.32679543,0.01366817,0.84485424,0.5354991,-0.2195839,-0.10526478,0.37506503,0.049136437,-0.53333724,-0.2805471,0.009760601,848.1685,744.21246,792.1612,835.6777,843.73627,-0.12762451171875,0.1328125,0.9869384765625,-0.291595458984375,-1.1663818359375,-1.443023681640625,1,1.0,1.0,1.0,1.0,20.00
2024-09-29 18:19:24.124,0.5921109,0.34672403,0.4311905,0.63298887,0.5649255,-0.43108687,-0.07528074,0.015814502,0.18942745,-0.32679543,0.01366817,0.84485424,0.5354991,-0.2195839,-0.10526478,0.37506503,0.049136437,-0.53333724,-0.2805471,0.009760601,849.7802,748.24176,794.57874,838.9011,1010.54944,-0.12762451171875,0.1328125,0.9869384765625,-0.291595458984375,-1.1663818359375,-1.443023681640625,1,1.0,1.0,1.0,1.0,20.00
2024-09-29 18:19:24.125,0.5921109,0.34672403,0.4311905,0.63298887,0.5649255,-0.43108687,-0.07528074,0.015814502,0.18942745,-0.32679543,0.01366817,0.84485424,0.5354991,-0.2195839,-0.10526478,0.37506503,0.049136437,-0.53333724,-0.2805471,0.009760601,855.0183,749.85345,792.5641,837.28937,848.1685,-0.12762451171875,0.1328125,0.9869384765625,-0.291595458984375,-1.1663818359375,-1.443023681640625,1,1.0,1.0,1.0,1.0,20.00
2024-09-29 18:19:24.125,0.5921109,0.34672403,0.4311905,0.63298887,0.5649255,-0.43108687,-0.07528074,0.015814502,0.18942745,-0.32679543,0.01366817,0.84485424,0.5354991,-0.2195839,-0.10526478,0.37506503,0.049136437,-0.53333724,-0.2805471,0.009760601,858.6447,749.85345,794.17584,830.0366,719.2308,-0.12762451171875,0.1328125,0.9869384765625,-0.291595458984375,-1.1663818359375,-1.443023681640625,1,1.0,1.0,1.0,1.0,20.00
2024-09-29 18:19:24.126,0.5921109,0.34672403,0.4311905,0.63298887,0.5649255,-0.43108687,-0.07528074,0.015814502,0.18942745,-0.32679543,0.01366817,0.84485424,0.5354991,-0.2195839,-0.10526478,0.37506503,0.049136437,-0.53333724,-0.2805471,0.009760601,859.45056,748.24176,798.20514,827.2161,817.1429,-0.12762451171875,0.1328125,0.9869384765625,-0.291595458984375,-1.1663818359375,-1.443023681640625,1,1.0,1.0,1.0,1.0,20.00
2024-09-29 18:19:24.127,0.5921109,0.34672403,0.4311905,0.63298887,0.5649255,-0.43108687,-0.07528074,0.015814502,0.18942745,-0.32679543,0.01366817,0.84485424,0.5354991,-0.2195839,-0.10526478,0.37506503,0.049136437,-0.53333724,-0.2805471,0.009760601,855.82416,749.45056,798.20514,836.4835,909.41394,-0.12762451171875,0.1328125,0.9869384765625,-0.291595458984375,-1.1663818359375,-1.443023681640625,1,1.0,1.0,1.0,1.0,20.00
2024-09-29 18:19:24.127,0.5921109,0.34672403,0.4311905,0.63298887,0.5649255,-0.43108687,-0.07528074,0.015814502,0.18942745,-0.32679543,0.01366817,0.84485424,0.5354991,-0.2195839,-0.10526478,0.37506503,0.049136437,-0.53333724,-0.2805471,0.009760601,849.7802,751.4652,798.60803,840.9158,797.8022,-0.12762451171875,0.1328125,0.9869384765625,-0.291595458984375,-1.1663818359375,-1.443023681640625,1,1.0,1.0,1.0,1.0,20.00
2024-09-29 18:19:24.182,0.5921109,0.34672403,0.4311905,0.63298887,0.5649255,-0.43108687,-0.07528074,0.015814502,0.18942745,-0.32679543,0.01366817,0.84485424,0.5354991,-0.2195839,-0.10526478,0.37506503,0.049136437,-0.53333724,-0.2805471,0.009760601,851.39197,751.8681,795.38464,833.663,693.0403,-0.12213134765625,0.1396484375,0.99554443359375,0.2093505859375,-3.18511962890625,-0.10467529296875,1,1.0,1.0,1.0,1.0,20.00
2024-09-29 18:19:24.183,0.5921109,0.34672403,0.4311905,0.63298887,0.5649255,-0.43108687,-0.07528074,0.015814502,0.18942745,-0.32679543,0.01366817,0.84485424,0.5354991,-0.2195839,-0.10526478,0.37506503,0.049136437,-0.53333724,-0.2805471,0.009760601,850.18317,748.24176,791.3553,832.8571,954.94507,-0.12213134765625,0.1396484375,0.99554443359375,0.2093505859375,-3.18511962890625,-0.10467529296875,1,1.0,1.0,1.0,1.0,20.00
2024-09-29 18:19:24.184,0.5921109,0.34672403,0.4311905,0.63298887,0.5649255,-0.43108687,-0.07528074,0.015814502,0.18942745,-0.32679543,0.01366817,0.84485424,0.5354991,-0.2195839,-0.10526478,0.37506503,0.049136437,-0.53333724,-0.2805471,0.009760601,844.94507,745.82416,791.75824,836.4835,1324.0293,-0.12213134765625,0.1396484375,0.99554443359375,0.2093505859375,-3.18511962890625,-0.10467529296875,1,1.0,1.0,1.0,1.0,20.00
2024-09-29 18:19:24.184,0.5921109,0.34672403,0.4311905,0.63298887,0.5649255,-0.43108687,-0.07528074,0.015814502,0.18942745,-0.32679543,0.01366817,0.84485424,0.5354991,-0.2195839,-0.10526478,0.37506503,0.049136437,-0.53333724,-0.2805471,0.009760601,845.34796,752.674,792.96704,830.0366,917.47253,-0.12213134765625,0.1396484375,0.99554443359375,0.2093505859375,-3.18511962890625,-0.10467529296875,1,1.0,1.0,1.0,1.0,20.00
2024-09-29 18:19:24.185,0.5921109,0.34672403,0.4311905,0.63298887,0.5649255,-0.43108687,-0.07528074,0.015814502,0.18942745,-0.32679543,0.01366817,0.84485424,0.5354991,-0.2195839,-0.10526478,0.37506503,0.049136437,-0.53333724,-0.2805471,0.009760601,842.1245,758.315,789.7436,823.9927,597.5458,-0.12213134765625,0.1396484375,0.99554443359375,0.2093505859375,-3.18511962890625,-0.10467529296875,1,1.0,1.0,1.0,1.0,20.00
2024-09-29 18:19:24.185,0.5921109,0.34672403,0.4311905,0.63298887,0.5649255,-0.43108687,-0.07528074,0.015814502,0.18942745,-0.32679543,0.01366817,0.84485424,0.5354991,-0.2195839,-0.10526478,0.37506503,0.049136437,-0.53333724,-0.2805471,0.009760601,837.6923,757.9121,788.5348,828.4249,852.1978,-0.12213134765625,0.1396484375,0.99554443359375,0.2093505859375,-3.18511962890625,-0.10467529296875,1,1.0,1.0,1.0,1.0,20.00
2024-09-29 18:19:24.186,0.5921109,0.34672403,0.4311905,0.63298887,0.5649255,-0.43108687,-0.07528074,0.015814502,0.18942745,-0.32679543,0.01366817,0.84485424,0.5354991,-0.2195839,-0.10526478,0.37506503,0.049136437,-0.53333724,-0.2805471,0.009760601,838.49817,757.1062,791.3553,839.707,979.12085,-0.12213134765625,0.1396484375,0.99554443359375,0.2093505859375,-3.18511962890625,-0.10467529296875,1,1.0,1.0,1.0,1.0,20.00
2024-09-29 18:19:24.186,0.5921109,0.34672403,0.4311905,0.63298887,0.5649255,-0.43108687,-0.07528074,0.015814502,0.18942745,-0.32679543,0.01366817,0.84485424,0.5354991,-0.2195839,-0.10526478,0.37506503,0.049136437,-0.53333724,-0.2805471,0.009760601,829.2308,758.315,792.1612,839.304,758.315,-0.12213134765625,0.1396484375,0.99554443359375,0.2093505859375,-3.18511962890625,-0.10467529296875,1,1.0,1.0,1.0,1.0,20.00
2024-09-29 18:19:24.187,0.5921109,0.34672403,0.4311905,0.63298887,0.5649255,-0.43108687,-0.07528074,0.015814502,0.18942745,-0.32679543,0.01366817,0.84485424,0.5354991,-0.2195839,-0.10526478,0.37506503,0.049136437,-0.53333724,-0.2805471,0.009760601,827.619,765.16486,795.38464,834.87177,651.13556,-0.12213134765625,0.1396484375,0.99554443359375,0.2093505859375,-3.18511962890625,-0.10467529296875,1,1.0,1.0,1.0,1.0,20.00
2024-09-29 18:19:24.187,0.5921109,0.33445376,0.4369674,0.63298887,0.5649255,-0.40015468,-0.08622041,0.015814502,0.18942745,-0.32990932,0.008262066,0.84485424,0.5354991,-0.21982883,-0.111832075,0.37506503,0.049136437,-0.54064155,-0.32477742,0.009760601,846.1539,773.6264,799.81683,844.94507,952.52747,-0.12213134765625,0.1396484375,0.99554443359375,0.2093505859375,-3.18511962890625,-0.10467529296875,1,1.0,1.0,1.0,1.0,20.00
2024-09-29 18:19:24.192,0.5921109,0.33445376,0.4369674,0.63298887,0.5649255,-0.40015468,-0.08622041,0.015814502,0.18942745,-0.32990932,0.008262066,0.84485424,0.5354991,-0.21982883,-0.111832075,0.37506503,0.049136437,-0.54064155,-0.32477742,0.009760601,847.76556,770.80585,797.8022,842.1245,1012.5641,-0.12213134765625,0.1396484375,0.99554443359375,0.2093505859375,-3.18511962890625,-0.10467529296875,1,1.0,1.0,1.0,1.0,20.00
2024-09-29 18:19:24.192,0.5921109,0.33445376,0.4369674,0.63298887,0.5649255,-0.40015468,-0.08622041,0.015814502,0.18942745,-0.32990932,0.008262066,0.84485424,0.5354991,-0.21982883,-0.111832075,0.37506503,0.049136437,-0.54064155,-0.32477742,0.009760601,852.1978,768.3883,796.99634,830.4396,740.18317,-0.12213134765625,0.1396484375,0.99554443359375,0.2093505859375,-3.18511962890625,-0.10467529296875,1,1.0,1.0,1.0,1.0,20.00
2024-09-29 18:19:24.250,0.5921109,0.33445376,0.4369674,0.63298887,0.5649255,-0.40015468,-0.08622041,0.015814502,0.18942745,-0.32990932,0.008262066,0.84485424,0.5354991,-0.21982883,-0.111832075,0.37506503,0.049136437,-0.54064155,-0.32477742,0.009760601,849.7802,770.0,802.6374,832.0513,694.2491,-0.125,0.139892578125,0.99273681640625,0.276641845703125,-1.65985107421875,0.3289794921875,1,1.0,1.0,1.0,1.0,20.00
2024-09-29 18:19:24.251,0.5921109,0.33445376,0.4369674,0.63298887,0.5649255,-0.40015468,-0.08622041,0.015814502,0.18942745,-0.32990932,0.008262066,0.84485424,0.5354991,-0.21982883,-0.111832075,0.37506503,0.049136437,-0.54064155,-0.32477742,0.009760601,841.7216,767.98535,792.5641,826.4103,747.4359,-0.125,0.139892578125,0.99273681640625,0.276641845703125,-1.65985107421875,0.3289794921875,1,1.0,1.0,1.0,1.0,20.00
2024-09-29 18:19:24.252,0.5921109,0.33445376,0.4369674,0.63298887,0.5649255,-0.40015468,-0.08622041,0.015814502,0.18942745,-0.32990932,0.008262066,0.84485424,0.5354991,-0.21982883,-0.111832075,0.37506503,0.049136437,-0.54064155,-0.32477742,0.009760601,848.1685,770.0,789.7436,830.84247,736.9597,-0.125,0.139892578125,0.99273681640625,0.276641845703125,-1.65985107421875,0.3289794921875,1,1.0,1.0,1.0,1.0,20.00
2024-09-29 18:19:24.252,0.5921109,0.33445376,0.4369674,0.63298887,0.5649255,-0.40015468,-0.08622041,0.015814502,0.18942745,-0.32990932,0.008262066,0.84485424,0.5354991,-0.21982883,-0.111832075,0.37506503,0.049136437,-0.54064155,-0.32477742,0.009760601,852.6007,772.01465,796.5934,832.0513,771.6117,-0.125,0.139892578125,0.99273681640625,0.276641845703125,-1.65985107421875,0.3289794921875,1,1.0,1.0,1.0,1.0,20.00
2024-09-29 18:19:24.253,0.5921109,0.33445376,0.4369674,0.63298887,0.5649255,-0.40015468,-0.08622041,0.015814502,0.18942745,-0.32990932,0.008262066,0.84485424,0.5354991,-0.21982883,-0.111832075,0.37506503,0.049136437,-0.54064155,-0.32477742,0.009760601,855.0183,772.8205,798.20514,831.6484,751.8681,-0.125,0.139892578125,0.99273681640625,0.276641845703125,-1.65985107421875,0.3289794921875,1,1.0,1.0,1.0,1.0,20.00
2024-09-29 18:19:24.253,0.5921109,0.33445376,0.4369674,0.63298887,0.5649255,-0.40015468,-0.08622041,0.015814502,0.18942745,-0.32990932,0.008262066,0.84485424,0.5354991,-0.21982883,-0.111832075,0.37506503,0.049136437,-0.54064155,-0.32477742,0.009760601,861.8681,773.6264,795.78754,835.6777,847.3626,-0.125,0.139892578125,0.99273681640625,0.276641845703125,-1.65985107421875,0.3289794921875,1,1.0,1.0,1.0,1.0,20.00
2024-09-29 18:19:24.254,0.5921109,0.33445376,0.4369674,0.63298887,0.5649255,-0.40015468,-0.08622041,0.015814502,0.18942745,-0.32990932,0.008262066,0.84485424,0.5354991,-0.21982883,-0.111832075,0.37506503,0.049136437,-0.54064155,-0.32477742,0.009760601,860.65936,778.0586,799.011,832.0513,979.12085,-0.125,0.139892578125,0.99273681640625,0.276641845703125,-1.65985107421875,0.3289794921875,1,1.0,1.0,1.0,1.0,20.00
2024-09-29 18:19:24.254,0.5921109,0.33445376,0.4369674,0.63298887,0.5649255,-0.40015468,-0.08622041,0.015814502,0.18942745,-0.32990932,0.008262066,0.84485424,0.5354991,-0.21982883,-0.111832075,0.37506503,0.049136437,-0.54064155,-0.32477742,0.009760601,853.4066,778.86444,806.26373,834.87177,881.6117,-0.125,0.139892578125,0.99273681640625,0.276641845703125,-1.65985107421875,0.3289794921875,1,1.0,1.0,1.0,1.0,20.00
2024-09-29 18:19:24.255,0.5921109,0.33445376,0.4369674,0.63298887,0.5649255,-0.40015468,-0.08622041,0.015814502,0.18942745,-0.32990932,0.008262066,0.84485424,0.5354991,-0.21982883,-0.111832075,0.37506503,0.049136437,-0.54064155,-0.32477742,0.009760601,855.0183,776.04395,805.05493,834.0659,925.5311,-0.125,0.139892578125,0.99273681640625,0.276641845703125,-1.65985107421875,0.3289794921875,1,1.0,1.0,1.0,1.0,20.00
2024-09-29 18:19:24.255,0.5921109,0.33445376,0.4369674,0.63298887,0.5649255,-0.40015468,-0.08622041,0.015814502,0.18942745,-0.32990932,0.008262066,0.84485424,0.5354991,-0.21982883,-0.111832075,0.37506503,0.049136437,-0.54064155,-0.32477742,0.009760601,855.82416,779.2674,801.8315,829.6337,1025.8608,-0.125,0.139892578125,0.99273681640625,0.276641845703125,-1.65985107421875,0.3289794921875,1,1.0,1.0,1.0,1.0,20.00
2024-09-29 18:19:24.256,0.5921109,0.33445376,0.4369674,0.63298887,0.5649255,-0.40015468,-0.08622041,0.015814502,0.18942745,-0.32990932,0.008262066,0.84485424,0.5354991,-0.21982883,-0.111832075,0.37506503,0.049136437,-0.54064155,-0.32477742,0.009760601,850.989,780.4762,799.011,825.6044,805.8608,-0.125,0.139892578125,0.99273681640625,0.276641845703125,-1.65985107421875,0.3289794921875,1,1.0,1.0,1.0,1.0,20.00
2024-09-29 18:19:24.256,0.5921109,0.33445376,0.4369674,0.63298887,0.5649255,-0.40015468,-0.08622041,0.015814502,0.18942745,-0.32990932,0.008262066,0.84485424,0.5354991,-0.21982883,-0.111832075,0.37506503,0.049136437,-0.54064155,-0.32477742,0.009760601,848.1685,777.25275,796.1905,825.6044,813.91943,-0.125,0.139892578125,0.99273681640625,0.276641845703125,-1.65985107421875,0.3289794921875,1,1.0,1.0,1.0,1.0,20.00
2024-09-29 18:19:24.317,0.5921109,0.33445376,0.4369674,0.63298887,0.5649255,-0.40015468,-0.08622041,0.015814502,0.18942745,-0.32990932,0.008262066,0.84485424,0.5354991,-0.21982883,-0.111832075,0.37506503,0.049136437,-0.54064155,-0.32477742,0.009760601,850.989,778.0586,794.9817,830.84247,1104.4323,-0.12811279296875,0.1368408203125,0.98797607421875,-0.1495361328125,-0.6878662109375,-1.2860107421875,1,1.0,1.0,1.0,1.0,20.00
2024-09-29 18:19:24.318,0.5921109,0.33445376,0.4369674,0.63298887,0.5649255,-0.40015468,-0.08622041,0.015814502,0.18942745,-0.32990932,0.008262066,0.84485424,0.5354991,-0.21982883,-0.111832075,0.37506503,0.049136437,-0.54064155,-0.32477742,0.009760601,856.2271,782.0879,798.20514,835.6777,1202.3444,-0.12811279296875,0.1368408203125,0.98797607421875,-0.1495361328125,-0.6878662109375,-1.2860107421875,1,1.0,1.0,1.0,1.0,20.00
2024-09-29 18:19:24.319,0.5921109,0.33445376,0.4369674,0.63298887,0.5649255,-0.40015468,-0.08622041,0.015814502,0.18942745,-0.32990932,0.008262066,0.84485424,0.5354991,-0.21982883,-0.111832075,0.37506503,0.049136437,-0.54064155,-0.32477742,0.009760601,851.79486,784.5055,799.011,830.84247,750.2564,-0.12811279296875,0.1368408203125,0.98797607421875,-0.1495361328125,-0.6878662109375,-1.2860107421875,1,1.0,1.0,1.0,1.0,20.00
2024-09-29 18:19:24.319,0.5921109,0.33445376,0.4369674,0.63298887,0.5649255,-0.40015468,-0.08622041,0.015814502,0.18942745,-0.32990932,0.008262066,0.84485424,0.5354991,-0.21982883,-0.111832075,0.37506503,0.049136437,-0.54064155,-0.32477742,0.009760601,837.6923,788.5348,801.02563,836.4835,672.8938,-0.12811279296875,0.1368408203125,0.98797607421875,-0.1495361328125,-0.6878662109375,-1.2860107421875,1,1.0,1.0,1.0,1.0,20.00
2024-09-29 18:19:24.320,0.5921109,0.33445376,0.4369674,0.63298887,0.5649255,-0.40015468,-0.08622041,0.015814502,0.18942745,-0.32990932,0.008262066,0.84485424,0.5354991,-0.21982883,-0.111832075,0.37506503,0.049136437,-0.54064155,-0.32477742,0.009760601,836.4835,787.326,803.0403,842.52747,990.0,-0.12811279296875,0.1368408203125,0.98797607421875,-0.1495361328125,-0.6878662109375,-1.2860107421875,1,1.0,1.0,1.0,1.0,20.00
2024-09-29 18:19:24.320,0.5921109,0.33445376,0.4369674,0.63298887,0.5649255,-0.40015468,-0.08622041,0.015814502,0.18942745,-0.32990932,0.008262066,0.84485424,0.5354991,-0.21982883,-0.111832075,0.37506503,0.049136437,-0.54064155,-0.32477742,0.009760601,833.663,783.69965,799.011,840.5128,956.1539,-0.12811279296875,0.1368408203125,0.98797607421875,-0.1495361328125,-0.6878662109375,-1.2860107421875,1,1.0,1.0,1.0,1.0,20.00
2024-09-29 18:19:24.321,0.5921109,0.33445376,0.4369674,0.63298887,0.5649255,-0.40015468,-0.08622041,0.015814502,0.18942745,-0.32990932,0.008262066,0.84485424,0.5354991,-0.21982883,-0.111832075,0.37506503,0.049136437,-0.54064155,-0.32477742,0.009760601,836.8865,788.1319,798.60803,836.8865,843.73627,-0.12811279296875,0.1368408203125,0.98797607421875,-0.1495361328125,-0.6878662109375,-1.2860107421875,1,1.0,1.0,1.0,1.0,20.00
2024-09-29 18:19:24.321,0.5921109,0.33445376,0.4369674,0.63298887,0.5649255,-0.40015468,-0.08622041,0.015814502,0.18942745,-0.32990932,0.008262066,0.84485424,0.5354991,-0.21982883,-0.111832075,0.37506503,0.049136437,-0.54064155,-0.32477742,0.009760601,841.31866,788.5348,799.81683,840.5128,825.6044,-0.12811279296875,0.1368408203125,0.98797607421875,-0.1495361328125,-0.6878662109375,-1.2860107421875,1,1.0,1.0,1.0,1.0,20.00
2024-09-29 18:19:24.322,0.5921109,0.33445376,0.4369674,0.63298887,0.5649255,-0.40015468,-0.08622041,0.015814502,0.18942745,-0.32990932,0.008262066,0.84485424,0.5354991,-0.21982883,-0.111832075,0.37506503,0.049136437,-0.54064155,-0.32477742,0.009760601,840.5128,786.9231,804.2491,844.5421,915.05493,-0.12811279296875,0.1368408203125,0.98797607421875,-0.1495361328125,-0.6878662109375,-1.2860107421875,1,1.0,1.0,1.0,1.0,20.00
2024-09-29 18:19:24.322,0.5921109,0.33445376,0.4369674,0.63298887,0.5649255,-0.40015468,-0.08622041,0.015814502,0.18942745,-0.32990932,0.008262066,0.84485424,0.5354991,-0.21982883,-0.111832075,0.37506503,0.049136437,-0.54064155,-0.32477742,0.009760601,838.9011,787.72894,805.05493,844.5421,866.7033,-0.12811279296875,0.1368408203125,0.98797607421875,-0.1495361328125,-0.6878662109375,-1.2860107421875,1,1.0,1.0,1.0,1.0,20.00
2024-09-29 18:19:24.323,0.5921109,0.33445376,0.4369674,0.63298887,0.5649255,-0.40015468,-0.08622041,0.015814502,0.18942745,-0.32990932,0.008262066,0.84485424,0.5354991,-0.21982883,-0.111832075,0.37506503,0.049136437,-0.54064155,-0.32477742,0.009760601,842.1245,788.93774,801.8315,841.7216,593.1135,-0.12811279296875,0.1368408203125,0.98797607421875,-0.1495361328125,-0.6878662109375,-1.2860107421875,1,1.0,1.0,1.0,1.0,20.00
2024-09-29 18:19:24.323,0.9523925,0.32044196,0.4340034,0.63298887,-0.08699945,-0.3672217,-0.09879368,0.015814502,0.60523164,-0.33314466,-0.0053228014,0.84485424,0.65568286,-0.22174172,-0.12240427,0.37506503,-0.046363737,-0.5498675,-0.37289602,0.009760601,850.18317,790.9524,805.4579,842.1245,658.3883,-0.12811279296875,0.1368408203125,0.98797607421875,-0.1495361328125,-0.6878662109375,-1.2860107421875,1,1.0,1.0,1.0,1.0,20.00
2024-09-29 18:19:24.328,0.9523925,0.32044196,0.4340034,0.63298887,-0.08699945,-0.3672217,-0.09879368,0.015814502,0.60523164,-0.33314466,-0.0053228014,0.84485424,0.65568286,-0.22174172,-0.12240427,0.37506503,-0.046363737,-0.5498675,-0.37289602,0.009760601,850.989,789.7436,805.4579,841.7216,967.8388,-0.12811279296875,0.1368408203125,0.98797607421875,-0.1495361328125,-0.6878662109375,-1.2860107421875,1,1.0,1.0,1.0,1.0,20.00
2024-09-29 18:19:24.329,0.9523925,0.32044196,0.4340034,0.63298887,-0.08699945,-0.3672217,-0.09879368,0.015814502,0.60523164,-0.33314466,-0.0053228014,0.84485424,0.65568286,-0.22174172,-0.12240427,0.37506503,-0.046363737,-0.5498675,-0.37289602,0.009760601,853.00366,788.1319,801.4286,840.9158,859.45056,-0.12811279296875,0.1368408203125,0.98797607421875,-0.1495361328125,-0.6878662109375,-1.2860107421875,1,1.0,1.0,1.0,1.0,20.00
2024-09-29 18:19:24.329,0.9523925,0.32044196,0.4340034,0.63298887,-0.08699945,-0.3672217,-0.09879368,0.015814502,0.60523164,-0.33314466,-0.0053228014,0.84485424,0.65568286,-0.22174172,-0.12240427,0.37506503,-0.046363737,-0.5498675,-0.37289602,0.009760601,857.4359,792.96704,794.9817,838.0952,630.989,-0.12811279296875,0.1368408203125,0.98797607421875,-0.1495361328125,-0.6878662109375,-1.2860107421875,1,1.0,1.0,1.0,1.0,20.00
2024-09-29 18:19:24.330,0.9523925,0.32044196,0.4340034,0.63298887,-0.08699945,-0.3672217,-0.09879368,0.015814502,0.60523164,-0.33314466,-0.0053228014,0.84485424,0.65568286,-0.22174172,-0.12240427,0.37506503,-0.046363737,-0.5498675,-0.37289602,0.009760601,859.45056,798.20514,796.99634,840.10986,709.9634,-0.12811279296875,0.1368408203125,0.98797607421875,-0.1495361328125,-0.6878662109375,-1.2860107421875,1,1.0,1.0,1.0,1.0,20.00
2024-09-29 18:19:24.330,0.9523925,0.32044196,0.4340034,0.63298887,-0.08699945,-0.3672217,-0.09879368,0.015814502,0.60523164,-0.33314466,-0.0053228014,0.84485424,0.65568286,-0.22174172,-0.12240427,0.37506503,-0.046363737,-0.5498675,-0.37289602,0.009760601,861.06226,794.57874,804.2491,853.00366,1168.9011,-0.12811279296875,0.1368408203125,0.98797607421875,-0.1495361328125,-0.6878662109375,-1.2860107421875,1,1.0,1.0,1.0,1.0,20.00
2024-09-29 18:19:24.331,0.9523925,0.32044196,0.4340034,0.63298887,-0.08699945,-0.3672217,-0.09879368,0.015814502,0.60523164,-0.33314466,-0.0053228014,0.84485424,0.65568286,-0.22174172,-0.12240427,0.37506503,-0.046363737,-0.5498675,-0.37289602,0.009760601,850.18317,792.96704,804.2491,844.1392,1182.1978,-0.12811279296875,0.1368408203125,0.98797607421875,-0.1495361328125,-0.6878662109375,-1.2860107421875,1,1.0,1.0,1.0,1.0,20.00
2024-09-29 18:19:24.331,0.9523925,0.32044196,0.4340034,0.63298887,-0.08699945,-0.3672217,-0.09879368,0.015814502,0.60523164,-0.33314466,-0.0053228014,0.84485424,0.65568286,-0.22174172,-0.12240427,0.37506503,-0.046363737,-0.5498675,-0.37289602,0.009760601,845.7509,794.9817,801.02563,841.31866,827.619,-0.12811279296875,0.1368408203125,0.98797607421875,-0.1495361328125,-0.6878662109375,-1.2860107421875,1,1.0,1.0,1.0,1.0,20.00
2024-09-29 18:19:24.332,0.9523925,0.32044196,0.4340034,0.63298887,-0.08699945,-0.3672217,-0.09879368,0.015814502,0.60523164,-0.33314466,-0.0053228014,0.84485424,0.65568286,-0.22174172,-0.12240427,0.37506503,-0.046363737,-0.5498675,-0.37289602,0.009760601,850.18317,796.1905,797.8022,841.7216,699.4872,-0.12811279296875,0.1368408203125,0.98797607421875,-0.1495361328125,-0.6878662109375,-1.2860107421875,1,1.0,1.0,1.0,1.0,20.00
2024-09-29 18:19:24.333,0.9523925,0.32044196,0.4340034,0.63298887,-0.08699945,-0.3672217,-0.09879368,0.015814502,0.60523164,-0.33314466,-0.0053228014,0.84485424,0.65568286,-0.22174172,-0.12240427,0.37506503,-0.046363737,-0.5498675,-0.37289602,0.009760601,845.7509,800.6227,798.60803,837.6923,752.27106,-0.12811279296875,0.1368408203125,0.98797607421875,-0.1495361328125,-0.6878662109375,-1.2860107421875,1,1.0,1.0,1.0,1.0,20.00
2024-09-29 18:19:24.333,0.9523925,0.32044196,0.4340034,0.63298887,-0.08699945,-0.3672217,-0.09879368,0.015814502,0.60523164,-0.33314466,-0.0053228014,0.84485424,0.65568286,-0.22174172,-0.12240427,0.37506503,-0.046363737,-0.5498675,-0.37289602,0.009760601,830.4396,797.8022,799.81683,834.4689,841.7216,-0.12811279296875,0.1368408203125,0.98797607421875,-0.1495361328125,-0.6878662109375,-1.2860107421875,1,1.0,1.0,1.0,1.0,20.00
2024-09-29 18:19:24.334,0.9523925,0.32044196,0.4340034,0.63298887,-0.08699945,-0.3672217,-0.09879368,0.015814502,0.60523164,-0.33314466,-0.0053228014,0.84485424,0.65568286,-0.22174172,-0.12240427,0.37506503,-0.046363737,-0.5498675,-0.37289602,0.009760601,829.2308,797.8022,797.3993,834.4689,766.3736,-0.12811279296875,0.1368408203125,0.98797607421875,-0.1495361328125,-0.6878662109375,-1.2860107421875,1,1.0,1.0,1.0,1.0,20.00
2024-09-29 18:19:24.334,0.9523925,0.32044196,0.4340034,0.63298887,-0.08699945,-0.3672217,-0.09879368,0.015814502,0.60523164,-0.33314466,-0.0053228014,0.84485424,0.65568286,-0.22174172,-0.12240427,0.37506503,-0.046363737,-0.5498675,-0.37289602,0.009760601,838.9011,796.5934,796.99634,834.0659,714.7985,-0.12811279296875,0.1368408203125,0.98797607421875,-0.1495361328125,-0.6878662109375,-1.2860107421875,1,1.0,1.0,1.0,1.0,20.00
2024-09-29 18:19:24.358,0.9523925,0.32044196,0.4340034,0.63298887,-0.08699945,-0.3672217,-0.09879368,0.015814502,0.60523164,-0.33314466,-0.0053228014,0.84485424,0.65568286,-0.22174172,-0.12240427,0.37506503,-0.046363737,-0.5498675,-0.37289602,0.009760601,838.9011,794.57874,796.5934,841.31866,714.7985,-0.1162109375,0.1368408203125,0.99664306640625,0.067291259765625,-2.3028564453125,-0.740203857421875,1,1.0,1.0,1.0,1.0,20.00
2024-09-29 18:19:24.359,0.9523925,0.32044196,0.4340034,0.63298887,-0.08699945,-0.3672217,-0.09879368,0.015814502,0.60523164,-0.33314466,-0.0053228014,0.84485424,0.65568286,-0.22174172,-0.12240427,0.37506503,-0.046363737,-0.5498675,-0.37289602,0.009760601,845.7509,801.4286,804.2491,850.18317,672.8938,-0.1162109375,0.1368408203125,0.99664306640625,0.067291259765625,-2.3028564453125,-0.740203857421875,1,1.0,1.0,1.0,1.0,20.00
2024-09-29 18:19:24.360,0.9523925,0.32044196,0.4340034,0.63298887,-0.08699945,-0.3672217,-0.09879368,0.015814502,0.60523164,-0.33314466,-0.0053228014,0.84485424,0.65568286,-0.22174172,-0.12240427,0.37506503,-0.046363737,-0.5498675,-0.37289602,0.009760601,849.3773,801.4286,805.8608,846.1539,653.1502,-0.1162109375,0.1368408203125,0.99664306640625,0.067291259765625,-2.3028564453125,-0.740203857421875,1,1.0,1.0,1.0,1.0,20.00
2024-09-29 18:19:24.360,0.9523925,0.32044196,0.4340034,0.63298887,-0.08699945,-0.3672217,-0.09879368,0.015814502,0.60523164,-0.33314466,-0.0053228014,0.84485424,0.65568286,-0.22174172,-0.12240427,0.37506503,-0.046363737,-0.5498675,-0.37289602,0.009760601,843.73627,799.011,800.6227,842.1245,851.39197,-0.1162109375,0.1368408203125,0.99664306640625,0.067291259765625,-2.3028564453125,-0.740203857421875,1,1.0,1.0,1.0,1.0,20.00
2024-09-29 18:19:24.361,0.9523925,0.32044196,0.4340034,0.63298887,-0.08699945,-0.3672217,-0.09879368,0.015814502,0.60523164,-0.33314466,-0.0053228014,0.84485424,0.65568286,-0.22174172,-0.12240427,0.37506503,-0.046363737,-0.5498675,-0.37289602,0.009760601,847.76556,798.20514,803.0403,844.94507,918.68134,-0.1162109375,0.1368408203125,0.99664306640625,0.067291259765625,-2.3028564453125,-0.740203857421875,1,1.0,1.0,1.0,1.0,20.00
2024-09-29 18:19:24.362,0.9523925,0.32044196,0.4340034,0.63298887,-0.08699945,-0.3672217,-0.09879368,0.015814502,0.60523164,-0.33314466,-0.0053228014,0.84485424,0.65568286,-0.22174172,-0.12240427,0.37506503,-0.046363737,-0.5498675,-0.37289602,0.009760601,846.1539,801.4286,804.2491,843.73627,747.8388,-0.1162109375,0.1368408203125,0.99664306640625,0.067291259765625,-2.3028564453125,-0.740203857421875,1,1.0,1.0,1.0,1.0,20.00
2024-09-29 18:19:24.362,0.9523925,0.32044196,0.4340034,0.63298887,-0.08699945,-0.3672217,-0.09879368,0.015814502,0.60523164,-0.33314466,-0.0053228014,0.84485424,0.65568286,-0.22174172,-0.12240427,0.37506503,-0.046363737,-0.5498675,-0.37289602,0.009760601,834.4689,799.011,802.23444,844.1392,867.1062,-0.1162109375,0.1368408203125,0.99664306640625,0.067291259765625,-2.3028564453125,-0.740203857421875,1,1.0,1.0,1.0,1.0,20.00
2024-09-29 18:19:24.363,0.9523925,0.32044196,0.4340034,0.63298887,-0.08699945,-0.3672217,-0.09879368,0.015814502,0.60523164,-0.33314466,-0.0053228014,0.84485424,0.65568286,-0.22174172,-0.12240427,0.37506503,-0.046363737,-0.5498675,-0.37289602,0.009760601,829.6337,794.17584,799.41394,850.989,1041.978,-0.1162109375,0.1368408203125,0.99664306640625,0.067291259765625,-2.3028564453125,-0.740203857421875,1,1.0,1.0,1.0,1.0,20.00
2024-09-29 18:19:24.363,0.9523925,0.32044196,0.4340034,0.63298887,-0.08699945,-0.3672217,-0.09879368,0.015814502,0.60523164,-0.33314466,-0.0053228014,0.84485424,0.65568286,-0.22174172,-0.12240427,0.37506503,-0.046363737,-0.5498675,-0.37289602,0.009760601,836.8865,800.2198,799.41394,853.00366,810.696,-0.1162109375,0.1368408203125,0.99664306640625,0.067291259765625,-2.3028564453125,-0.740203857421875,1,1.0,1.0,1.0,1.0,20.00
2024-09-29 18:19:24.364,0.9523925,0.32044196,0.4340034,0.63298887,-0.08699945,-0.3672217,-0.09879368,0.015814502,0.60523164,-0.33314466,-0.0053228014,0.84485424,0.65568286,-0.22174172,-0.12240427,0.37506503,-0.046363737,-0.5498675,-0.37289602,0.009760601,849.7802,807.0696,801.8315,840.10986,624.94507,-0.1162109375,0.1368408203125,0.99664306640625,0.067291259765625,-2.3028564453125,-0.740203857421875,1,1.0,1.0,1.0,1.0,20.00
2024-09-29 18:19:24.364,0.9523925,0.32044196,0.4340034,0.63298887,-0.08699945,-0.3672217,-0.09879368,0.015814502,0.60523164,-0.33314466,-0.0053228014,0.84485424,0.65568286,-0.22174172,-0.12240427,0.37506503,-0.046363737,-0.5498675,-0.37289602,0.009760601,844.94507,802.6374,799.011,834.0659,782.49084,-0.1162109375,0.1368408203125,0.99664306640625,0.067291259765625,-2.3028564453125,-0.740203857421875,1,1.0,1.0,1.0,1.0,20.00
2024-09-29 18:19:24.365,0.9523925,0.32044196,0.4340034,0.63298887,-0.08699945,-0.3672217,-0.09879368,0.015814502,0.60523164,-0.33314466,-0.0053228014,0.84485424,0.65568286,-0.22174172,-0.12240427,0.37506503,-0.046363737,-0.5498675,-0.37289602,0.009760601,849.7802,803.8461,796.5934,844.1392,1180.1831,-0.1162109375,0.1368408203125,0.99664306640625,0.067291259765625,-2.3028564453125,-0.740203857421875,1,1.0,1.0,1.0,1.0,20.00
2024-09-29 18:19:24.490,0.9523925,0.32044196,0.4340034,0.63298887,-0.08699945,-0.3672217,-0.09879368,0.015814502,0.60523164,-0.33314466,-0.0053228014,0.84485424,0.65568286,-0.22174172,-0.12240427,0.37506503,-0.046363737,-0.5498675,-0.37289602,0.009760601,850.989,803.0403,795.38464,842.52747,1190.6593,-0.11785888671875,0.13580322265625,0.9915771484375,-0.2093505859375,-0.70281982421875,1.7047119140625,1,1.0,1.0,1.0,1.0,20.00
2024-09-29 18:19:24.491,0.9787284,0.31181112,0.4166241,0.63298887,-0.012231325,-0.3317868,-0.12330335,0.015814502,0.6697754,-0.33620167,-0.0053228014,0.84485424,0.6334874,-0.22497407,-0.13707487,0.37506503,-0.028612815,-0.55447876,-0.40821216,0.009760601,838.0952,799.81683,799.011,832.8571,912.6374,-0.11785888671875,0.13580322265625,0.9915771484375,-0.2093505859375,-0.70281982421875,1.7047119140625,1,1.0,1.0,1.0,1.0,20.00
2024-09-29 18:19:24.496,0.9787284,0.31181112,0.4166241,0.63298887,-0.012231325,-0.3317868,-0.12330335,0.015814502,0.6697754,-0.33620167,-0.0053228014,0.84485424,0.6334874,-0.22497407,-0.13707487,0.37506503,-0.028612815,-0.55447876,-0.40821216,0.009760601,831.6484,803.44324,798.60803,830.4396,921.9048,-0.11785888671875,0.13580322265625,0.9915771484375,-0.2093505859375,-0.70281982421875,1.7047119140625,1,1.0,1.0,1.0,1.0,20.00
2024-09-29 18:19:24.497,0.9787284,0.31181112,0.4166241,0.63298887,-0.012231325,-0.3317868,-0.12330335,0.015814502,0.6697754,-0.33620167,-0.0053228014,0.84485424,0.6334874,-0.22497407,-0.13707487,0.37506503,-0.028612815,-0.55447876,-0.40821216,0.009760601,815.5311,802.23444,795.78754,832.0513,763.5531,-0.11785888671875,0.13580322265625,0.9915771484375,-0.2093505859375,-0.70281982421875,1.7047119140625,1,1.0,1.0,1.0,1.0,20.00
2024-09-29 18:19:24.497,0.9787284,0.31181112,0.4166241,0.63298887,-0.012231325,-0.3317868,-0.12330335,0.015814502,0.6697754,-0.33620167,-0.0053228014,0.84485424,0.6334874,-0.22497407,-0.13707487,0.37506503,-0.028612815,-0.55447876,-0.40821216,0.009760601,809.0842,803.8461,797.3993,828.8278,574.57874,-0.11785888671875,0.13580322265625,0.9915771484375,-0.2093505859375,-0.70281982421875,1.7047119140625,1,1.0,1.0,1.0,1.0,20.00
2024-09-29 18:19:24.498,0.9787284,0.31181112,0.4166241,0.63298887,-0.012231325,-0.3317868,-0.12330335,0.015814502,0.6697754,-0.33620167,-0.0053228014,0.84485424,0.6334874,-0.22497407,-0.13707487,0.37506503,-0.028612815,-0.55447876,-0.40821216,0.009760601,816.337,805.8608,799.011,823.5897,763.1502,-0.11785888671875,0.13580322265625,0.9915771484375,-0.2093505859375,-0.70281982421875,1.7047119140625,1,1.0,1.0,1.0,1.0,20.00
2024-09-29 18:19:24.498,0.9787284,0.31181112,0.4166241,0.63298887,-0.012231325,-0.3317868,-0.12330335,0.015814502,0.6697754,-0.33620167,-0.0053228014,0.84485424,0.6334874,-0.22497407,-0.13707487,0.37506503,-0.028612815,-0.55447876,-0.40821216,0.009760601,823.9927,805.8608,803.8461,830.84247,1061.3187,-0.11785888671875,0.13580322265625,0.9915771484375,-0.2093505859375,-0.70281982421875,1.7047119140625,1,1.0,1.0,1.0,1.0,20.00
