TimeStamp,Delta_TP9,Delta_AF7,Delta_AF8,Delta_TP10,Theta_TP9,Theta_AF7,Theta_AF8,Theta_TP10,Alpha_TP9,Alpha_AF7,Alpha_AF8,Alpha_TP10,Beta_TP9,Beta_AF7,Beta_AF8,Beta_TP10,Gamma_TP9,Gamma_AF7,Gamma_AF8,Gamma_TP10,RAW_TP9,RAW_AF7,RAW_AF8,RAW_TP10,AUX_RIGHT,Accelerometer_X,Accelerometer_Y,Accelerometer_Z,Gyro_X,Gyro_Y,Gyro_Z,HeadBandOn,HSI_TP9,HSI_AF7,HSI_AF8,HSI_TP10,Battery,Elements
2024-09-29 18:19:13.880,0.9947994,0.18340184,0.11317045,0.86529034,0.66493666,-0.27831826,-0.10816777,0.43408957,1.0920929,0.09817215,0.22839259,1.1157131,0.7753823,-0.20135626,-0.3019023,0.34144422,0.38519192,-0.5500305,-0.6909847,0.09603153,825.6044,802.6374,787.326,806.26373,1093.1501,-0.13775634765625,0.11602783203125,0.9888916015625,-0.10467529296875,3.45428466796875,-0.575714111328125,1,1.0,1.0,1.0,1.0,20.00
2024-09-29 18:19:13.882,0.9947994,0.18340184,0.11317045,0.86529034,0.66493666,-0.27831826,-0.10816777,0.43408957,1.0920929,0.09817215,0.22839259,1.1157131,0.7753823,-0.20135626,-0.3019023,0.34144422,0.38519192,-0.5500305,-0.6909847,0.09603153,830.84247,806.26373,785.7143,811.0989,703.1135,-0.13775634765625,0.11602783203125,0.9888916015625,-0.10467529296875,3.45428466796875,-0.575714111328125,1,1.0,1.0,1.0,1.0,20.00
2024-09-29 18:19:13.883,0.9947994,0.18340184,0.11317045,0.86529034,0.66493666,-0.27831826,-0.10816777,0.43408957,1.0920929,0.09817215,0.22839259,1.1157131,0.7753823,-0.20135626,-0.3019023,0.34144422,0.38519192,-0.5500305,-0.6909847,0.09603153,829.2308,803.44324,785.31134,809.89014,736.55676,-0.13775634765625,0.11602783203125,0.9888916015625,-0.10467529296875,3.45428466796875,-0.575714111328125,1,1.0,1.0,1.0,1.0,20.00
2024-09-29 18:19:13.885,0.9947994,0.18340184,0.11317045,0.86529034,0.66493666,-0.27831826,-0.10816777,0.43408957,1.0920929,0.09817215,0.22839259,1.1157131,0.7753823,-0.20135626,-0.3019023,0.34144422,0.38519192,-0.5500305,-0.6909847,0.09603153,833.2601,799.81683,783.2967,812.3077,1169.7069,-0.13775634765625,0.11602783203125,0.9888916015625,-0.10467529296875,3.45428466796875,-0.575714111328125,1,1.0,1.0,1.0,1.0,20.00
2024-09-29 18:19:13.886,0.9947994,0.18340184,0.11317045,0.86529034,0.66493666,-0.27831826,-0.10816777,0.43408957,1.0920929,0.09817215,0.22839259,1.1157131,0.7753823,-0.20135626,-0.3019023,0.34144422,0.38519192,-0.5500305,-0.6909847,0.09603153,836.08057,799.011,784.90845,824.7985,1470.2931,-0.13775634765625,0.11602783203125,0.9888916015625,-0.10467529296875,3.45428466796875,-0.575714111328125,1,1.0,1.0,1.0,1.0,20.00
2024-09-29 18:19:13.887,0.9947994,0.18340184,0.11317045,0.86529034,0.66493666,-0.27831826,-0.10816777,0.43408957,1.0920929,0.09817215,0.22839259,1.1157131,0.7753823,-0.20135626,-0.3019023,0.34144422,0.38519192,-0.5500305,-0.6909847,0.09603153,833.2601,799.81683,783.69965,824.3956,1320.8059,-0.13775634765625,0.11602783203125,0.9888916015625,-0.10467529296875,3.45428466796875,-0.575714111328125,1,1.0,1.0,1.0,1.0,20.00
2024-09-29 18:19:13.887,0.9947994,0.18340184,0.11317045,0.86529034,0.66493666,-0.27831826,-0.10816777,0.43408957,1.0920929,0.09817215,0.22839259,1.1157131,0.7753823,-0.20135626,-0.3019023,0.34144422,0.38519192,-0.5500305,-0.6909847,0.09603153,841.31866,800.2198,783.69965,821.978,1081.8682,-0.13775634765625,0.11602783203125,0.9888916015625,-0.10467529296875,3.45428466796875,-0.575714111328125,1,1.0,1.0,1.0,1.0,20.00
2024-09-29 18:19:13.888,0.9571173,0.09934974,0.023373585,0.8291957,0.6671603,-0.23696126,-0.22194566,0.399776,1.0765688,0.088456795,0.15803196,1.1501276,0.78379947,-0.21954957,-0.31434804,0.32086948,0.41718727,-0.5720138,-0.7054309,0.095061176,846.9597,805.8608,789.34064,824.3956,868.71796,-0.13775634765625,0.11602783203125,0.9888916015625,-0.10467529296875,3.45428466796875,-0.575714111328125,1,1.0,1.0,1.0,1.0,20.00
2024-09-29 18:19:13.893,0.9571173,0.09934974,0.023373585,0.8291957,0.6671603,-0.23696126,-0.22194566,0.399776,1.0765688,0.088456795,0.15803196,1.1501276,0.78379947,-0.21954957,-0.31434804,0.32086948,0.41718727,-0.5720138,-0.7054309,0.095061176,836.8865,807.0696,788.93774,823.1868,714.7985,-0.13775634765625,0.11602783203125,0.9888916015625,-0.10467529296875,3.45428466796875,-0.575714111328125,1,1.0,1.0,1.0,1.0,20.00
2024-09-29 18:19:13.893,0.9571173,0.09934974,0.023373585,0.8291957,0.6671603,-0.23696126,-0.22194566,0.399776,1.0765688,0.088456795,0.15803196,1.1501276,0.78379947,-0.21954957,-0.31434804,0.32086948,0.41718727,-0.5720138,-0.7054309,0.095061176,834.4689,799.41394,786.52014,823.1868,681.75824,-0.13775634765625,0.11602783203125,0.9888916015625,-0.10467529296875,3.45428466796875,-0.575714111328125,1,1.0,1.0,1.0,1.0,20.00
2024-09-29 18:19:13.894,0.9571173,0.09934974,0.023373585,0.8291957,0.6671603,-0.23696126,-0.22194566,0.399776,1.0765688,0.088456795,0.15803196,1.1501276,0.78379947,-0.21954957,-0.31434804,0.32086948,0.41718727,-0.5720138,-0.7054309,0.095061176,834.0659,800.6227,786.9231,821.978,707.5458,-0.13775634765625,0.11602783203125,0.9888916015625,-0.10467529296875,3.45428466796875,-0.575714111328125,1,1.0,1.0,1.0,1.0,20.00
2024-09-29 18:19:13.895,0.9571173,0.09934974,0.023373585,0.8291957,0.6671603,-0.23696126,-0.22194566,0.399776,1.0765688,0.088456795,0.15803196,1.1501276,0.78379947,-0.21954957,-0.31434804,0.32086948,0.41718727,-0.5720138,-0.7054309,0.095061176,832.8571,803.8461,790.54944,819.15753,664.0293,-0.13775634765625,0.11602783203125,0.9888916015625,-0.10467529296875,3.45428466796875,-0.575714111328125,1,1.0,1.0,1.0,1.0,20.00
2024-09-29 18:19:13.973,0.9571173,0.09934974,0.023373585,0.8291957,0.6671603,-0.23696126,-0.22194566,0.399776,1.0765688,0.088456795,0.15803196,1.1501276,0.78379947,-0.21954957,-0.31434804,0.32086948,0.41718727,-0.5720138,-0.7054309,0.095061176,827.2161,798.60803,787.326,808.2784,651.53845,-0.15435791015625,0.11102294921875,0.99346923828125,0.5682373046875,-0.471038818359375,-0.740203857421875,1,1.0,1.0,1.0,1.0,20.00
2024-09-29 18:19:13.974,0.9571173,0.09934974,0.023373585,0.8291957,0.6671603,-0.23696126,-0.22194566,0.399776,1.0765688,0.088456795,0.15803196,1.1501276,0.78379947,-0.21954957,-0.31434804,0.32086948,0.41718727,-0.5720138,-0.7054309,0.095061176,826.0073,796.99634,785.31134,795.78754,765.9707,-0.15435791015625,0.11102294921875,0.99346923828125,0.5682373046875,-0.471038818359375,-0.740203857421875,1,1.0,1.0,1.0,1.0,20.00
2024-09-29 18:19:13.976,0.9571173,0.09934974,0.023373585,0.8291957,0.6671603,-0.23696126,-0.22194566,0.399776,1.0765688,0.088456795,0.15803196,1.1501276,0.78379947,-0.21954957,-0.31434804,0.32086948,0.41718727,-0.5720138,-0.7054309,0.095061176,828.8278,800.6227,787.72894,796.5934,868.71796,-0.15435791015625,0.11102294921875,0.99346923828125,0.5682373046875,-0.471038818359375,-0.740203857421875,1,1.0,1.0,1.0,1.0,20.00
2024-09-29 18:19:13.977,0.9571173,0.09934974,0.023373585,0.8291957,0.6671603,-0.23696126,-0.22194566,0.399776,1.0765688,0.088456795,0.15803196,1.1501276,0.78379947,-0.21954957,-0.31434804,0.32086948,0.41718727,-0.5720138,-0.7054309,0.095061176,830.84247,803.0403,786.52014,803.44324,683.36993,-0.15435791015625,0.11102294921875,0.99346923828125,0.5682373046875,-0.471038818359375,-0.740203857421875,1,1.0,1.0,1.0,1.0,20.00
2024-09-29 18:19:13.978,0.9571173,0.09934974,0.023373585,0.8291957,0.6671603,-0.23696126,-0.22194566,0.399776,1.0765688,0.088456795,0.15803196,1.1501276,0.78379947,-0.21954957,-0.31434804,0.32086948,0.41718727,-0.5720138,-0.7054309,0.095061176,834.0659,805.8608,789.34064,798.60803,547.5824,-0.15435791015625,0.11102294921875,0.99346923828125,0.5682373046875,-0.471038818359375,-0.740203857421875,1,1.0,1.0,1.0,1.0,20.00
2024-09-29 18:19:13.979,0.9571173,0.09934974,0.023373585,0.8291957,0.6671603,-0.23696126,-0.22194566,0.399776,1.0765688,0.088456795,0.15803196,1.1501276,0.78379947,-0.21954957,-0.31434804,0.32086948,0.41718727,-0.5720138,-0.7054309,0.095061176,822.7839,801.02563,790.9524,797.3993,785.7143,-0.15435791015625,0.11102294921875,0.99346923828125,0.5682373046875,-0.471038818359375,-0.740203857421875,1,1.0,1.0,1.0,1.0,20.00
2024-09-29 18:19:13.979,0.9571173,0.09934974,0.023373585,0.8291957,0.6671603,-0.23696126,-0.22194566,0.399776,1.0765688,0.088456795,0.15803196,1.1501276,0.78379947,-0.21954957,-0.31434804,0.32086948,0.41718727,-0.5720138,-0.7054309,0.095061176,828.8278,801.4286,791.3553,802.6374,939.6337,-0.15435791015625,0.11102294921875,0.99346923828125,0.5682373046875,-0.471038818359375,-0.740203857421875,1,1.0,1.0,1.0,1.0,20.00
2024-09-29 18:19:13.980,0.9571173,0.09934974,0.023373585,0.8291957,0.6671603,-0.23696126,-0.22194566,0.399776,1.0765688,0.088456795,0.15803196,1.1501276,0.78379947,-0.21954957,-0.31434804,0.32086948,0.41718727,-0.5720138,-0.7054309,0.095061176,842.1245,799.011,791.3553,796.1905,723.2601,-0.15435791015625,0.11102294921875,0.99346923828125,0.5682373046875,-0.471038818359375,-0.740203857421875,1,1.0,1.0,1.0,1.0,20.00
2024-09-29 18:19:13.980,0.9571173,0.09934974,0.023373585,0.8291957,0.6671603,-0.23696126,-0.22194566,0.399776,1.0765688,0.088456795,0.15803196,1.1501276,0.78379947,-0.21954957,-0.31434804,0.32086948,0.41718727,-0.5720138,-0.7054309,0.095061176,845.7509,800.2198,789.7436,799.81683,541.13556,-0.15435791015625,0.11102294921875,0.99346923828125,0.5682373046875,-0.471038818359375,-0.740203857421875,1,1.0,1.0,1.0,1.0,20.00
2024-09-29 18:19:13.981,0.9571173,0.09934974,0.023373585,0.8291957,0.6671603,-0.23696126,-0.22194566,0.399776,1.0765688,0.088456795,0.15803196,1.1501276,0.78379947,-0.21954957,-0.31434804,0.32086948,0.41718727,-0.5720138,-0.7054309,0.095061176,832.0513,803.0403,788.93774,808.2784,693.44324,-0.15435791015625,0.11102294921875,0.99346923828125,0.5682373046875,-0.471038818359375,-0.740203857421875,1,1.0,1.0,1.0,1.0,20.00
2024-09-29 18:19:13.982,0.9571173,0.09934974,0.023373585,0.8291957,0.6671603,-0.23696126,-0.22194566,0.399776,1.0765688,0.088456795,0.15803196,1.1501276,0.78379947,-0.21954957,-0.31434804,0.32086948,0.41718727,-0.5720138,-0.7054309,0.095061176,800.6227,800.6227,788.5348,805.8608,863.8828,-0.15435791015625,0.11102294921875,0.99346923828125,0.5682373046875,-0.471038818359375,-0.740203857421875,1,1.0,1.0,1.0,1.0,20.00
2024-09-29 18:19:13.982,0.9571173,0.09934974,0.023373585,0.8291957,0.6671603,-0.23696126,-0.22194566,0.399776,1.0765688,0.088456795,0.15803196,1.1501276,0.78379947,-0.21954957,-0.31434804,0.32086948,0.41718727,-0.5720138,-0.7054309,0.095061176,807.0696,797.8022,785.31134,805.05493,698.68134,-0.15435791015625,0.11102294921875,0.99346923828125,0.5682373046875,-0.471038818359375,-0.740203857421875,1,1.0,1.0,1.0,1.0,20.00
2024-09-29 18:19:13.983,0.9571173,0.09934974,0.023373585,0.8291957,0.6671603,-0.23696126,-0.22194566,0.399776,1.0765688,0.088456795,0.15803196,1.1501276,0.78379947,-0.21954957,-0.31434804,0.32086948,0.41718727,-0.5720138,-0.7054309,0.095061176,827.619,795.38464,782.49084,811.50183,691.02563,-0.15435791015625,0.11102294921875,0.99346923828125,0.5682373046875,-0.471038818359375,-0.740203857421875,1,1.0,1.0,1.0,1.0,20.00
2024-09-29 18:19:13.983,0.9571173,0.09934974,0.023373585,0.8291957,0.6671603,-0.23696126,-0.22194566,0.399776,1.0765688,0.088456795,0.15803196,1.1501276,0.78379947,-0.21954957,-0.31434804,0.32086948,0.41718727,-0.5720138,-0.7054309,0.095061176,835.2747,797.8022,784.90845,821.1722,896.9231,-0.15435791015625,0.11102294921875,0.99346923828125,0.5682373046875,-0.471038818359375,-0.740203857421875,1,1.0,1.0,1.0,1.0,20.00
2024-09-29 18:19:13.984,0.9571173,0.09934974,0.023373585,0.8291957,0.6671603,-0.23696126,-0.22194566,0.399776,1.0765688,0.088456795,0.15803196,1.1501276,0.78379947,-0.21954957,-0.31434804,0.32086948,0.41718727,-0.5720138,-0.7054309,0.095061176,831.2454,802.23444,785.7143,821.978,936.4103,-0.15435791015625,0.11102294921875,0.99346923828125,0.5682373046875,-0.471038818359375,-0.740203857421875,1,1.0,1.0,1.0,1.0,20.00
2024-09-29 18:19:13.984,0.9571173,0.09934974,0.023373585,0.8291957,0.6671603,-0.23696126,-0.22194566,0.399776,1.0765688,0.088456795,0.15803196,1.1501276,0.78379947,-0.21954957,-0.31434804,0.32086948,0.41718727,-0.5720138,-0.7054309,0.095061176,827.619,803.44324,786.9231,818.7546,847.76556,-0.15435791015625,0.11102294921875,0.99346923828125,0.5682373046875,-0.471038818359375,-0.740203857421875,1,1.0,1.0,1.0,1.0,20.00
2024-09-29 18:19:13.985,0.9571173,0.09934974,0.023373585,0.8291957,0.6671603,-0.23696126,-0.22194566,0.399776,1.0765688,0.088456795,0.15803196,1.1501276,0.78379947,-0.21954957,-0.31434804,0.32086948,0.41718727,-0.5720138,-0.7054309,0.095061176,826.8132,804.2491,790.9524,825.2015,789.34064,-0.15435791015625,0.11102294921875,0.99346923828125,0.5682373046875,-0.471038818359375,-0.740203857421875,1,1.0,1.0,1.0,1.0,20.00
2024-09-29 18:19:13.986,0.9571173,0.09934974,0.023373585,0.8291957,0.6671603,-0.23696126,-0.22194566,0.399776,1.0765688,0.088456795,0.15803196,1.1501276,0.78379947,-0.21954957,-0.31434804,0.32086948,0.41718727,-0.5720138,-0.7054309,0.095061176,813.1135,800.6227,793.36993,827.2161,1023.44324,-0.15435791015625,0.11102294921875,0.99346923828125,0.5682373046875,-0.471038818359375,-0.740203857421875,1,1.0,1.0,1.0,1.0,20.00
2024-09-29 18:19:13.986,0.9571173,0.09934974,0.023373585,0.8291957,0.6671603,-0.23696126,-0.22194566,0.399776,1.0765688,0.088456795,0.15803196,1.1501276,0.78379947,-0.21954957,-0.31434804,0.32086948,0.41718727,-0.5720138,-0.7054309,0.095061176,813.1135,797.8022,794.57874,826.0073,1043.1868,-0.15435791015625,0.11102294921875,0.99346923828125,0.5682373046875,-0.471038818359375,-0.740203857421875,1,1.0,1.0,1.0,1.0,20.00
2024-09-29 18:19:13.987,0.9571173,0.09934974,0.023373585,0.8291957,0.6671603,-0.23696126,-0.22194566,0.399776,1.0765688,0.088456795,0.15803196,1.1501276,0.78379947,-0.21954957,-0.31434804,0.32086948,0.41718727,-0.5720138,-0.7054309,0.095061176,822.381,801.8315,798.20514,828.4249,772.4176,-0.15435791015625,0.11102294921875,0.99346923828125,0.5682373046875,-0.471038818359375,-0.740203857421875,1,1.0,1.0,1.0,1.0,20.00
2024-09-29 18:19:13.988,0.9571173,0.09934974,0.023373585,0.8291957,0.6671603,-0.23696126,-0.22194566,0.399776,1.0765688,0.088456795,0.15803196,1.1501276,0.78379947,-0.21954957,-0.31434804,0.32086948,0.41718727,-0.5720138,-0.7054309,0.095061176,819.5604,800.2198,798.20514,826.8132,643.8828,-0.15435791015625,0.11102294921875,0.99346923828125,0.5682373046875,-0.471038818359375,-0.740203857421875,1,1.0,1.0,1.0,1.0,20.00
2024-09-29 18:19:13.988,0.9375079,0.049746733,-0.035938434,0.79666156,0.674411,-0.18582152,-0.30172518,0.37034667,1.0987331,0.12489049,0.110348135,1.1732684,0.789054,-0.2260741,-0.32236335,0.29839656,0.42879465,-0.5866088,-0.70911735,0.089387685,826.0073,796.5934,792.1612,831.2454,843.3333,-0.15435791015625,0.11102294921875,0.99346923828125,0.5682373046875,-0.471038818359375,-0.740203857421875,1,1.0,1.0,1.0,1.0,20.00
2024-09-29 18:19:13.993,0.9375079,0.049746733,-0.035938434,0.79666156,0.674411,-0.18582152,-0.30172518,0.37034667,1.0987331,0.12489049,0.110348135,1.1732684,0.789054,-0.2260741,-0.32236335,0.29839656,0.42879465,-0.5866088,-0.70911735,0.089387685,833.663,801.02563,791.75824,833.663,913.44324,-0.15435791015625,0.11102294921875,0.99346923828125,0.5682373046875,-0.471038818359375,-0.740203857421875,1,1.0,1.0,1.0,1.0,20.00
2024-09-29 18:19:13.994,0.9375079,0.049746733,-0.035938434,0.79666156,0.674411,-0.18582152,-0.30172518,0.37034667,1.0987331,0.12489049,0.110348135,1.1732684,0.789054,-0.2260741,-0.32236335,0.29839656,0.42879465,-0.5866088,-0.70911735,0.089387685,828.8278,800.6227,789.7436,823.5897,683.36993,-0.15435791015625,0.11102294921875,0.99346923828125,0.5682373046875,-0.471038818359375,-0.740203857421875,1,1.0,1.0,1.0,1.0,20.00
2024-09-29 18:19:13.995,0.9375079,0.049746733,-0.035938434,0.79666156,0.674411,-0.18582152,-0.30172518,0.37034667,1.0987331,0.12489049,0.110348135,1.1732684,0.789054,-0.2260741,-0.32236335,0.29839656,0.42879465,-0.5866088,-0.70911735,0.089387685,834.87177,800.6227,792.1612,813.91943,684.57874,-0.1441650390625,0.11767578125,0.9942626953125,0.605621337890625,-5.465545654296875,-2.100982666015625,1,1.0,1.0,1.0,1.0,20.00
2024-09-29 18:19:13.995,0.9375079,0.049746733,-0.035938434,0.79666156,0.674411,-0.18582152,-0.30172518,0.37034667,1.0987331,0.12489049,0.110348135,1.1732684,0.789054,-0.2260741,-0.32236335,0.29839656,0.42879465,-0.5866088,-0.70911735,0.089387685,836.4835,801.8315,793.36993,813.91943,860.2564,-0.1441650390625,0.11767578125,0.9942626953125,0.605621337890625,-5.465545654296875,-2.100982666015625,1,1.0,1.0,1.0,1.0,20.00
2024-09-29 18:19:13.996,0.9375079,0.049746733,-0.035938434,0.79666156,0.674411,-0.18582152,-0.30172518,0.37034667,1.0987331,0.12489049,0.110348135,1.1732684,0.789054,-0.2260741,-0.32236335,0.29839656,0.42879465,-0.5866088,-0.70911735,0.089387685,829.2308,800.2198,789.7436,810.696,870.7326,-0.1441650390625,0.11767578125,0.9942626953125,0.605621337890625,-5.465545654296875,-2.100982666015625,1,1.0,1.0,1.0,1.0,20.00
2024-09-29 18:19:13.996,0.9375079,0.049746733,-0.035938434,0.79666156,0.674411,-0.18582152,-0.30172518,0.37034667,1.0987331,0.12489049,0.110348135,1.1732684,0.789054,-0.2260741,-0.32236335,0.29839656,0.42879465,-0.5866088,-0.70911735,0.089387685,830.0366,802.23444,792.5641,811.0989,875.9707,-0.1441650390625,0.11767578125,0.9942626953125,0.605621337890625,-5.465545654296875,-2.100982666015625,1,1.0,1.0,1.0,1.0,20.00
2024-09-29 18:19:13.997,0.9375079,0.049746733,-0.035938434,0.79666156,0.674411,-0.18582152,-0.30172518,0.37034667,1.0987331,0.12489049,0.110348135,1.1732684,0.789054,-0.2260741,-0.32236335,0.29839656,0.42879465,-0.5866088,-0.70911735,0.089387685,830.84247,803.0403,794.57874,810.696,863.8828,-0.1441650390625,0.11767578125,0.9942626953125,0.605621337890625,-5.465545654296875,-2.100982666015625,1,1.0,1.0,1.0,1.0,20.00
2024-09-29 18:19:13.998,0.9375079,0.049746733,-0.035938434,0.79666156,0.674411,-0.18582152,-0.30172518,0.37034667,1.0987331,0.12489049,0.110348135,1.1732684,0.789054,-0.2260741,-0.32236335,0.29839656,0.42879465,-0.5866088,-0.70911735,0.089387685,831.2454,799.41394,792.96704,807.47253,1054.8718,-0.1441650390625,0.11767578125,0.9942626953125,0.605621337890625,-5.465545654296875,-2.100982666015625,1,1.0,1.0,1.0,1.0,20.00
2024-09-29 18:19:13.998,0.9375079,0.049746733,-0.035938434,0.79666156,0.674411,-0.18582152,-0.30172518,0.37034667,1.0987331,0.12489049,0.110348135,1.1732684,0.789054,-0.2260741,-0.32236335,0.29839656,0.42879465,-0.5866088,-0.70911735,0.089387685,832.0513,800.6227,794.57874,810.696,1046.8132,-0.1441650390625,0.11767578125,0.9942626953125,0.605621337890625,-5.465545654296875,-2.100982666015625,1,1.0,1.0,1.0,1.0,20.00
2024-09-29 18:19:13.999,0.9375079,0.049746733,-0.035938434,0.79666156,0.674411,-0.18582152,-0.30172518,0.37034667,1.0987331,0.12489049,0.110348135,1.1732684,0.789054,-0.2260741,-0.32236335,0.29839656,0.42879465,-0.5866088,-0.70911735,0.089387685,821.978,800.2198,794.9817,811.9048,906.5934,-0.1441650390625,0.11767578125,0.9942626953125,0.605621337890625,-5.465545654296875,-2.100982666015625,1,1.0,1.0,1.0,1.0,20.00
2024-09-29 18:19:13.999,0.9375079,0.049746733,-0.035938434,0.79666156,0.674411,-0.18582152,-0.30172518,0.37034667,1.0987331,0.12489049,0.110348135,1.1732684,0.789054,-0.2260741,-0.32236335,0.29839656,0.42879465,-0.5866088,-0.70911735,0.089387685,814.7253,796.1905,798.60803,811.9048,803.8461,-0.1441650390625,0.11767578125,0.9942626953125,0.605621337890625,-5.465545654296875,-2.100982666015625,1,1.0,1.0,1.0,1.0,20.00
2024-09-29 18:19:14.000,0.9375079,0.049746733,-0.035938434,0.79666156,0.674411,-0.18582152,-0.30172518,0.37034667,1.0987331,0.12489049,0.110348135,1.1732684,0.789054,-0.2260741,-0.32236335,0.29839656,0.42879465,-0.5866088,-0.70911735,0.089387685,821.978,796.99634,797.8022,815.12823,733.73627,-0.1441650390625,0.11767578125,0.9942626953125,0.605621337890625,-5.465545654296875,-2.100982666015625,1,1.0,1.0,1.0,1.0,20.00
2024-09-29 18:19:14.001,0.9375079,0.049746733,-0.035938434,0.79666156,0.674411,-0.18582152,-0.30172518,0.37034667,1.0987331,0.12489049,0.110348135,1.1732684,0.789054,-0.2260741,-0.32236335,0.29839656,0.42879465,-0.5866088,-0.70911735,0.089387685,826.0073,797.3993,791.75824,814.3223,763.1502,-0.1441650390625,0.11767578125,0.9942626953125,0.605621337890625,-5.465545654296875,-2.100982666015625,1,1.0,1.0,1.0,1.0,20.00
2024-09-29 18:19:14.001,0.9375079,0.049746733,-0.035938434,0.79666156,0.674411,-0.18582152,-0.30172518,0.37034667,1.0987331,0.12489049,0.110348135,1.1732684,0.789054,-0.2260741,-0.32236335,0.29839656,0.42879465,-0.5866088,-0.70911735,0.089387685,832.0513,796.99634,791.75824,819.9634,739.7802,-0.1441650390625,0.11767578125,0.9942626953125,0.605621337890625,-5.465545654296875,-2.100982666015625,1,1.0,1.0,1.0,1.0,20.00
2024-09-29 18:19:14.002,0.9375079,0.049746733,-0.035938434,0.79666156,0.674411,-0.18582152,-0.30172518,0.37034667,1.0987331,0.12489049,0.110348135,1.1732684,0.789054,-0.2260741,-0.32236335,0.29839656,0.42879465,-0.5866088,-0.70911735,0.089387685,836.8865,800.6227,797.3993,828.8278,774.83514,-0.12774658203125,0.12298583984375,0.99554443359375,-0.426177978515625,-6.80389404296875,-0.777587890625,1,1.0,1.0,1.0,1.0,20.00
2024-09-29 18:19:14.003,0.9375079,0.049746733,-0.035938434,0.79666156,0.674411,-0.18582152,-0.30172518,0.37034667,1.0987331,0.12489049,0.110348135,1.1732684,0.789054,-0.2260741,-0.32236335,0.29839656,0.42879465,-0.5866088,-0.70911735,0.089387685,828.4249,801.4286,796.99634,826.4103,756.7033,-0.12774658203125,0.12298583984375,0.99554443359375,-0.426177978515625,-6.80389404296875,-0.777587890625,1,1.0,1.0,1.0,1.0,20.00
2024-09-29 18:19:14.003,0.9375079,0.049746733,-0.035938434,0.79666156,0.674411,-0.18582152,-0.30172518,0.37034667,1.0987331,0.12489049,0.110348135,1.1732684,0.789054,-0.2260741,-0.32236335,0.29839656,0.42879465,-0.5866088,-0.70911735,0.089387685,812.71063,796.99634,798.60803,823.9927,681.75824,-0.12774658203125,0.12298583984375,0.99554443359375,-0.426177978515625,-6.80389404296875,-0.777587890625,1,1.0,1.0,1.0,1.0,20.00
2024-09-29 18:19:14.004,0.9375079,0.049746733,-0.035938434,0.79666156,0.674411,-0.18582152,-0.30172518,0.37034667,1.0987331,0.12489049,0.110348135,1.1732684,0.789054,-0.2260741,-0.32236335,0.29839656,0.42879465,-0.5866088,-0.70911735,0.089387685,810.696,794.9817,800.2198,820.7692,711.5751,-0.12774658203125,0.12298583984375,0.99554443359375,-0.426177978515625,-6.80389404296875,-0.777587890625,1,1.0,1.0,1.0,1.0,20.00
2024-09-29 18:19:14.005,0.9375079,0.049746733,-0.035938434,0.79666156,0.674411,-0.18582152,-0.30172518,0.37034667,1.0987331,0.12489049,0.110348135,1.1732684,0.789054,-0.2260741,-0.32236335,0.29839656,0.42879465,-0.5866088,-0.70911735,0.089387685,826.8132,796.99634,801.4286,820.3663,867.50916,-0.12774658203125,0.12298583984375,0.99554443359375,-0.426177978515625,-6.80389404296875,-0.777587890625,1,1.0,1.0,1.0,1.0,20.00
2024-09-29 18:19:14.005,0.9375079,0.049746733,-0.035938434,0.79666156,0.674411,-0.18582152,-0.30172518,0.37034667,1.0987331,0.12489049,0.110348135,1.1732684,0.789054,-0.2260741,-0.32236335,0.29839656,0.42879465,-0.5866088,-0.70911735,0.089387685,824.7985,793.36993,803.0403,825.6044,1317.1794,-0.12774658203125,0.12298583984375,0.99554443359375,-0.426177978515625,-6.80389404296875,-0.777587890625,1,1.0,1.0,1.0,1.0,20.00
2024-09-29 18:19:14.006,0.9375079,0.049746733,-0.035938434,0.79666156,0.674411,-0.18582152,-0.30172518,0.37034667,1.0987331,0.12489049,0.110348135,1.1732684,0.789054,-0.2260741,-0.32236335,0.29839656,0.42879465,-0.5866088,-0.70911735,0.089387685,814.7253,796.99634,803.8461,827.2161,1050.8425,-0.12774658203125,0.12298583984375,0.99554443359375,-0.426177978515625,-6.80389404296875,-0.777587890625,1,1.0,1.0,1.0,1.0,20.00
2024-09-29 18:19:14.006,0.9375079,0.049746733,-0.035938434,0.79666156,0.674411,-0.18582152,-0.30172518,0.37034667,1.0987331,0.12489049,0.110348135,1.1732684,0.789054,-0.2260741,-0.32236335,0.29839656,0.42879465,-0.5866088,-0.70911735,0.089387685,817.5458,802.23444,798.60803,818.7546,696.6667,-0.12774658203125,0.12298583984375,0.99554443359375,-0.426177978515625,-6.80389404296875,-0.777587890625,1,1.0,1.0,1.0,1.0,20.00
2024-09-29 18:19:14.007,0.9375079,0.049746733,-0.035938434,0.79666156,0.674411,-0.18582152,-0.30172518,0.37034667,1.0987331,0.12489049,0.110348135,1.1732684,0.789054,-0.2260741,-0.32236335,0.29839656,0.42879465,-0.5866088,-0.70911735,0.089387685,818.3516,798.60803,795.38464,808.2784,908.20514,-0.12774658203125,0.12298583984375,0.99554443359375,-0.426177978515625,-6.80389404296875,-0.777587890625,1,1.0,1.0,1.0,1.0,20.00
2024-09-29 18:19:14.008,0.9375079,0.049746733,-0.035938434,0.79666156,0.674411,-0.18582152,-0.30172518,0.37034667,1.0987331,0.12489049,0.110348135,1.1732684,0.789054,-0.2260741,-0.32236335,0.29839656,0.42879465,-0.5866088,-0.70911735,0.089387685,807.47253,796.99634,799.41394,807.0696,780.87915,-0.12774658203125,0.12298583984375,0.99554443359375,-0.426177978515625,-6.80389404296875,-0.777587890625,1,1.0,1.0,1.0,1.0,20.00
2024-09-29 18:19:14.008,0.9375079,0.049746733,-0.035938434,0.79666156,0.674411,-0.18582152,-0.30172518,0.37034667,1.0987331,0.12489049,0.110348135,1.1732684,0.789054,-0.2260741,-0.32236335,0.29839656,0.42879465,-0.5866088,-0.70911735,0.089387685,800.2198,802.23444,797.3993,807.0696,626.55676,-0.12774658203125,0.12298583984375,0.99554443359375,-0.426177978515625,-6.80389404296875,-0.777587890625,1,1.0,1.0,1.0,1.0,20.00
2024-09-29 18:19:14.009,0.9335514,0.032778893,-0.067798376,0.77940094,0.6841841,-0.13486755,-0.346584,0.33973607,1.1206702,0.15866603,0.079474635,1.195341,0.79647285,-0.22558519,-0.33190992,0.27833143,0.43021116,-0.5882806,-0.7013839,0.08423564,796.5934,801.4286,794.9817,802.6374,748.24176,-0.12774658203125,0.12298583984375,0.99554443359375,-0.426177978515625,-6.80389404296875,-0.777587890625,1,1.0,1.0,1.0,1.0,20.00
2024-09-29 18:19:14.047,0.9335514,0.032778893,-0.067798376,0.77940094,0.6841841,-0.13486755,-0.346584,0.33973607,1.1206702,0.15866603,0.079474635,1.195341,0.79647285,-0.22558519,-0.33190992,0.27833143,0.43021116,-0.5882806,-0.7013839,0.08423564,799.81683,798.20514,794.57874,796.5934,876.77655,-0.10400390625,0.12432861328125,0.999267578125,-1.712188720703125,-4.725341796875,0.79254150390625,1,1.0,1.0,1.0,1.0,20.00
2024-09-29 18:19:14.048,0.9335514,0.032778893,-0.067798376,0.77940094,0.6841841,-0.13486755,-0.346584,0.33973607,1.1206702,0.15866603,0.079474635,1.195341,0.79647285,-0.22558519,-0.33190992,0.27833143,0.43021116,-0.5882806,-0.7013839,0.08423564,799.41394,799.81683,798.60803,792.96704,720.4396,-0.10400390625,0.12432861328125,0.999267578125,-1.712188720703125,-4.725341796875,0.79254150390625,1,1.0,1.0,1.0,1.0,20.00
2024-09-29 18:19:14.049,0.9335514,0.032778893,-0.067798376,0.77940094,0.6841841,-0.13486755,-0.346584,0.33973607,1.1206702,0.15866603,0.079474635,1.195341,0.79647285,-0.22558519,-0.33190992,0.27833143,0.43021116,-0.5882806,-0.7013839,0.08423564,794.57874,801.02563,799.81683,794.57874,531.8681,-0.10400390625,0.12432861328125,0.999267578125,-1.712188720703125,-4.725341796875,0.79254150390625,1,1.0,1.0,1.0,1.0,20.00
2024-09-29 18:19:14.050,0.9335514,0.032778893,-0.067798376,0.77940094,0.6841841,-0.13486755,-0.346584,0.33973607,1.1206702,0.15866603,0.079474635,1.195341,0.79647285,-0.22558519,-0.33190992,0.27833143,0.43021116,-0.5882806,-0.7013839,0.08423564,801.4286,801.4286,795.38464,801.02563,691.4286,-0.10400390625,0.12432861328125,0.999267578125,-1.712188720703125,-4.725341796875,0.79254150390625,1,1.0,1.0,1.0,1.0,20.00
2024-09-29 18:19:14.051,0.9335514,0.032778893,-0.067798376,0.77940094,0.6841841,-0.13486755,-0.346584,0.33973607,1.1206702,0.15866603,0.079474635,1.195341,0.79647285,-0.22558519,-0.33190992,0.27833143,0.43021116,-0.5882806,-0.7013839,0.08423564,806.6667,802.23444,795.38464,807.47253,876.3736,-0.10400390625,0.12432861328125,0.999267578125,-1.712188720703125,-4.725341796875,0.79254150390625,1,1.0,1.0,1.0,1.0,20.00
2024-09-29 18:19:14.051,0.9335514,0.032778893,-0.067798376,0.77940094,0.6841841,-0.13486755,-0.346584,0.33973607,1.1206702,0.15866603,0.079474635,1.195341,0.79647285,-0.22558519,-0.33190992,0.27833143,0.43021116,-0.5882806,-0.7013839,0.08423564,807.0696,805.8608,794.17584,804.65204,817.1429,-0.10400390625,0.12432861328125,0.999267578125,-1.712188720703125,-4.725341796875,0.79254150390625,1,1.0,1.0,1.0,1.0,20.00
2024-09-29 18:19:14.052,0.9335514,0.032778893,-0.067798376,0.77940094,0.6841841,-0.13486755,-0.346584,0.33973607,1.1206702,0.15866603,0.079474635,1.195341,0.79647285,-0.22558519,-0.33190992,0.27833143,0.43021116,-0.5882806,-0.7013839,0.08423564,799.41394,800.6227,794.17584,801.8315,745.0183,-0.10400390625,0.12432861328125,0.999267578125,-1.712188720703125,-4.725341796875,0.79254150390625,1,1.0,1.0,1.0,1.0,20.00
2024-09-29 18:19:14.053,0.9335514,0.032778893,-0.067798376,0.77940094,0.6841841,-0.13486755,-0.346584,0.33973607,1.1206702,0.15866603,0.079474635,1.195341,0.79647285,-0.22558519,-0.33190992,0.27833143,0.43021116,-0.5882806,-0.7013839,0.08423564,802.23444,795.38464,794.9817,796.99634,774.43225,-0.10400390625,0.12432861328125,0.999267578125,-1.712188720703125,-4.725341796875,0.79254150390625,1,1.0,1.0,1.0,1.0,20.00
2024-09-29 18:19:14.054,0.9335514,0.032778893,-0.067798376,0.77940094,0.6841841,-0.13486755,-0.346584,0.33973607,1.1206702,0.15866603,0.079474635,1.195341,0.79647285,-0.22558519,-0.33190992,0.27833143,0.43021116,-0.5882806,-0.7013839,0.08423564,808.68134,799.011,792.5641,803.8461,1162.0513,-0.10400390625,0.12432861328125,0.999267578125,-1.712188720703125,-4.725341796875,0.79254150390625,1,1.0,1.0,1.0,1.0,20.00
2024-09-29 18:19:14.054,0.9335514,0.032778893,-0.067798376,0.77940094,0.6841841,-0.13486755,-0.346584,0.33973607,1.1206702,0.15866603,0.079474635,1.195341,0.79647285,-0.22558519,-0.33190992,0.27833143,0.43021116,-0.5882806,-0.7013839,0.08423564,813.1135,800.2198,794.57874,811.9048,1357.8755,-0.10400390625,0.12432861328125,0.999267578125,-1.712188720703125,-4.725341796875,0.79254150390625,1,1.0,1.0,1.0,1.0,20.00
2024-09-29 18:19:14.055,0.9335514,0.032778893,-0.067798376,0.77940094,0.6841841,-0.13486755,-0.346584,0.33973607,1.1206702,0.15866603,0.079474635,1.195341,0.79647285,-0.22558519,-0.33190992,0.27833143,0.43021116,-0.5882806,-0.7013839,0.08423564,805.8608,800.6227,795.78754,803.8461,973.0769,-0.10400390625,0.12432861328125,0.999267578125,-1.712188720703125,-4.725341796875,0.79254150390625,1,1.0,1.0,1.0,1.0,20.00
2024-09-29 18:19:14.056,0.9335514,0.032778893,-0.067798376,0.77940094,0.6841841,-0.13486755,-0.346584,0.33973607,1.1206702,0.15866603,0.079474635,1.195341,0.79647285,-0.22558519,-0.33190992,0.27833143,0.43021116,-0.5882806,-0.7013839,0.08423564,799.81683,799.41394,798.20514,802.23444,781.28204,-0.10400390625,0.12432861328125,0.999267578125,-1.712188720703125,-4.725341796875,0.79254150390625,1,1.0,1.0,1.0,1.0,20.00
2024-09-29 18:19:14.057,0.9335514,0.032778893,-0.067798376,0.77940094,0.6841841,-0.13486755,-0.346584,0.33973607,1.1206702,0.15866603,0.079474635,1.195341,0.79647285,-0.22558519,-0.33190992,0.27833143,0.43021116,-0.5882806,-0.7013839,0.08423564,809.4872,799.011,796.1905,806.26373,952.9304,-0.09698486328125,0.12762451171875,0.99517822265625,-1.622467041015625,3.69354248046875,1.218719482421875,1,1.0,1.0,1.0,1.0,20.00
2024-09-29 18:19:14.058,0.9335514,0.032778893,-0.067798376,0.77940094,0.6841841,-0.13486755,-0.346584,0.33973607,1.1206702,0.15866603,0.079474635,1.195341,0.79647285,-0.22558519,-0.33190992,0.27833143,0.43021116,-0.5882806,-0.7013839,0.08423564,807.8755,800.6227,793.36993,798.20514,897.326,-0.09698486328125,0.12762451171875,0.99517822265625,-1.622467041015625,3.69354248046875,1.218719482421875,1,1.0,1.0,1.0,1.0,20.00
2024-09-29 18:19:14.059,0.9335514,0.032778893,-0.067798376,0.77940094,0.6841841,-0.13486755,-0.346584,0.33973607,1.1206702,0.15866603,0.079474635,1.195341,0.79647285,-0.22558519,-0.33190992,0.27833143,0.43021116,-0.5882806,-0.7013839,0.08423564,801.02563,801.4286,796.5934,796.1905,732.9304,-0.09698486328125,0.12762451171875,0.99517822265625,-1.622467041015625,3.69354248046875,1.218719482421875,1,1.0,1.0,1.0,1.0,20.00
2024-09-29 18:19:14.061,0.9335514,0.032778893,-0.067798376,0.77940094,0.6841841,-0.13486755,-0.346584,0.33973607,1.1206702,0.15866603,0.079474635,1.195341,0.79647285,-0.22558519,-0.33190992,0.27833143,0.43021116,-0.5882806,-0.7013839,0.08423564,803.8461,803.0403,796.1905,807.0696,860.2564,-0.09698486328125,0.12762451171875,0.99517822265625,-1.622467041015625,3.69354248046875,1.218719482421875,1,1.0,1.0,1.0,1.0,20.00
2024-09-29 18:19:14.062,0.9335514,0.032778893,-0.067798376,0.77940094,0.6841841,-0.13486755,-0.346584,0.33973607,1.1206702,0.15866603,0.079474635,1.195341,0.79647285,-0.22558519,-0.33190992,0.27833143,0.43021116,-0.5882806,-0.7013839,0.08423564,809.4872,803.8461,795.78754,819.5604,1266.0073,-0.09698486328125,0.12762451171875,0.99517822265625,-1.622467041015625,3.69354248046875,1.218719482421875,1,1.0,1.0,1.0,1.0,20.00
2024-09-29 18:19:14.063,0.9335514,0.032778893,-0.067798376,0.77940094,0.6841841,-0.13486755,-0.346584,0.33973607,1.1206702,0.15866603,0.079474635,1.195341,0.79647285,-0.22558519,-0.33190992,0.27833143,0.43021116,-0.5882806,-0.7013839,0.08423564,816.337,803.44324,801.8315,823.5897,1464.652,-0.09698486328125,0.12762451171875,0.99517822265625,-1.622467041015625,3.69354248046875,1.218719482421875,1,1.0,1.0,1.0,1.0,20.00
2024-09-29 18:19:14.064,0.9335514,0.032778893,-0.067798376,0.77940094,0.6841841,-0.13486755,-0.346584,0.33973607,1.1206702,0.15866603,0.079474635,1.195341,0.79647285,-0.22558519,-0.33190992,0.27833143,0.43021116,-0.5882806,-0.7013839,0.08423564,822.7839,801.02563,804.65204,811.0989,1125.7876,-0.09698486328125,0.12762451171875,0.99517822265625,-1.622467041015625,3.69354248046875,1.218719482421875,1,1.0,1.0,1.0,1.0,20.00
2024-09-29 18:19:14.064,0.9335514,0.032778893,-0.067798376,0.77940094,0.6841841,-0.13486755,-0.346584,0.33973607,1.1206702,0.15866603,0.079474635,1.195341,0.79647285,-0.22558519,-0.33190992,0.27833143,0.43021116,-0.5882806,-0.7013839,0.08423564,816.7399,805.8608,801.4286,810.293,809.0842,-0.09698486328125,0.12762451171875,0.99517822265625,-1.622467041015625,3.69354248046875,1.218719482421875,1,1.0,1.0,1.0,1.0,20.00
2024-09-29 18:19:14.065,0.9335514,0.032778893,-0.067798376,0.77940094,0.6841841,-0.13486755,-0.346584,0.33973607,1.1206702,0.15866603,0.079474635,1.195341,0.79647285,-0.22558519,-0.33190992,0.27833143,0.43021116,-0.5882806,-0.7013839,0.08423564,809.0842,805.8608,802.6374,813.91943,755.4945,-0.09698486328125,0.12762451171875,0.99517822265625,-1.622467041015625,3.69354248046875,1.218719482421875,1,1.0,1.0,1.0,1.0,20.00
2024-09-29 18:19:14.065,0.9335514,0.032778893,-0.067798376,0.77940094,0.6841841,-0.13486755,-0.346584,0.33973607,1.1206702,0.15866603,0.079474635,1.195341,0.79647285,-0.22558519,-0.33190992,0.27833143,0.43021116,-0.5882806,-0.7013839,0.08423564,805.4579,803.44324,802.6374,812.3077,703.1135,-0.09698486328125,0.12762451171875,0.99517822265625,-1.622467041015625,3.69354248046875,1.218719482421875,1,1.0,1.0,1.0,1.0,20.00
2024-09-29 18:19:14.066,0.9335514,0.032778893,-0.067798376,0.77940094,0.6841841,-0.13486755,-0.346584,0.33973607,1.1206702,0.15866603,0.079474635,1.195341,0.79647285,-0.22558519,-0.33190992,0.27833143,0.43021116,-0.5882806,-0.7013839,0.08423564,809.0842,805.8608,796.5934,803.44324,651.9414,-0.09698486328125,0.12762451171875,0.99517822265625,-1.622467041015625,3.69354248046875,1.218719482421875,1,1.0,1.0,1.0,1.0,20.00
2024-09-29 18:19:14.067,0.9335514,0.032778893,-0.067798376,0.77940094,0.6841841,-0.13486755,-0.346584,0.33973607,1.1206702,0.15866603,0.079474635,1.195341,0.79647285,-0.22558519,-0.33190992,0.27833143,0.43021116,-0.5882806,-0.7013839,0.08423564,815.5311,805.4579,796.99634,804.65204,799.011,-0.09698486328125,0.12762451171875,0.99517822265625,-1.622467041015625,3.69354248046875,1.218719482421875,1,1.0,1.0,1.0,1.0,20.00
2024-09-29 18:19:14.068,0.9335514,0.032778893,-0.067798376,0.77940094,0.6841841,-0.13486755,-0.346584,0.33973607,1.1206702,0.15866603,0.079474635,1.195341,0.79647285,-0.22558519,-0.33190992,0.27833143,0.43021116,-0.5882806,-0.7013839,0.08423564,813.91943,810.293,798.20514,807.8755,724.0659,-0.09698486328125,0.12762451171875,0.99517822265625,-1.622467041015625,3.69354248046875,1.218719482421875,1,1.0,1.0,1.0,1.0,20.00
2024-09-29 18:19:14.068,0.9391151,0.025554117,-0.06450464,0.78675145,0.69907504,-0.09357821,-0.3734532,0.3080904,1.1344639,0.15580803,0.0736574,1.2310894,0.8048734,-0.22606453,-0.34019816,0.26001227,0.42987624,-0.57630414,-0.6907761,0.08001893,811.9048,809.89014,796.5934,798.60803,606.4103,-0.09698486328125,0.12762451171875,0.99517822265625,-1.622467041015625,3.69354248046875,1.218719482421875,1,1.0,1.0,1.0,1.0,20.00
2024-09-29 18:19:14.074,0.9391151,0.025554117,-0.06450464,0.78675145,0.69907504,-0.09357821,-0.3734532,0.3080904,1.1344639,0.15580803,0.0736574,1.2310894,0.8048734,-0.22606453,-0.34019816,0.26001227,0.42987624,-0.57630414,-0.6907761,0.08001893,810.293,803.44324,796.99634,793.7729,672.49084,-0.09698486328125,0.12762451171875,0.99517822265625,-1.622467041015625,3.69354248046875,1.218719482421875,1,1.0,1.0,1.0,1.0,20.00
2024-09-29 18:19:14.075,0.9391151,0.025554117,-0.06450464,0.78675145,0.69907504,-0.09357821,-0.3734532,0.3080904,1.1344639,0.15580803,0.0736574,1.2310894,0.8048734,-0.22606453,-0.34019816,0.26001227,0.42987624,-0.57630414,-0.6907761,0.08001893,801.02563,800.6227,791.75824,790.14655,760.32965,-0.09698486328125,0.12762451171875,0.99517822265625,-1.622467041015625,3.69354248046875,1.218719482421875,1,1.0,1.0,1.0,1.0,20.00
2024-09-29 18:19:14.075,0.9391151,0.025554117,-0.06450464,0.78675145,0.69907504,-0.09357821,-0.3734532,0.3080904,1.1344639,0.15580803,0.0736574,1.2310894,0.8048734,-0.22606453,-0.34019816,0.26001227,0.42987624,-0.57630414,-0.6907761,0.08001893,802.23444,801.8315,791.75824,793.7729,620.9158,-0.09698486328125,0.12762451171875,0.99517822265625,-1.622467041015625,3.69354248046875,1.218719482421875,1,1.0,1.0,1.0,1.0,20.00
2024-09-29 18:19:14.076,0.9391151,0.025554117,-0.06450464,0.78675145,0.69907504,-0.09357821,-0.3734532,0.3080904,1.1344639,0.15580803,0.0736574,1.2310894,0.8048734,-0.22606453,-0.34019816,0.26001227,0.42987624,-0.57630414,-0.6907761,0.08001893,808.2784,803.0403,799.81683,792.96704,645.09155,-0.09698486328125,0.12762451171875,0.99517822265625,-1.622467041015625,3.69354248046875,1.218719482421875,1,1.0,1.0,1.0,1.0,20.00
2024-09-29 18:19:14.077,0.9391151,0.025554117,-0.06450464,0.78675145,0.69907504,-0.09357821,-0.3734532,0.3080904,1.1344639,0.15580803,0.0736574,1.2310894,0.8048734,-0.22606453,-0.34019816,0.26001227,0.42987624,-0.57630414,-0.6907761,0.08001893,805.8608,801.02563,799.011,789.7436,916.6667,-0.09698486328125,0.12762451171875,0.99517822265625,-1.622467041015625,3.69354248046875,1.218719482421875,1,1.0,1.0,1.0,1.0,20.00
2024-09-29 18:19:14.077,0.9391151,0.025554117,-0.06450464,0.78675145,0.69907504,-0.09357821,-0.3734532,0.3080904,1.1344639,0.15580803,0.0736574,1.2310894,0.8048734,-0.22606453,-0.34019816,0.26001227,0.42987624,-0.57630414,-0.6907761,0.08001893,809.0842,798.60803,792.5641,794.17584,836.4835,-0.09698486328125,0.12762451171875,0.99517822265625,-1.622467041015625,3.69354248046875,1.218719482421875,1,1.0,1.0,1.0,1.0,20.00
2024-09-29 18:19:14.078,0.9391151,0.025554117,-0.06450464,0.78675145,0.69907504,-0.09357821,-0.3734532,0.3080904,1.1344639,0.15580803,0.0736574,1.2310894,0.8048734,-0.22606453,-0.34019816,0.26001227,0.42987624,-0.57630414,-0.6907761,0.08001893,810.696,799.41394,794.9817,793.7729,626.55676,-0.09698486328125,0.12762451171875,0.99517822265625,-1.622467041015625,3.69354248046875,1.218719482421875,1,1.0,1.0,1.0,1.0,20.00
2024-09-29 18:19:14.079,0.9391151,0.025554117,-0.06450464,0.78675145,0.69907504,-0.09357821,-0.3734532,0.3080904,1.1344639,0.15580803,0.0736574,1.2310894,0.8048734,-0.22606453,-0.34019816,0.26001227,0.42987624,-0.57630414,-0.6907761,0.08001893,813.91943,804.2491,796.1905,795.78754,677.72894,-0.09698486328125,0.12762451171875,0.99517822265625,-1.622467041015625,3.69354248046875,1.218719482421875,1,1.0,1.0,1.0,1.0,20.00
2024-09-29 18:19:14.080,0.9391151,0.025554117,-0.06450464,0.78675145,0.69907504,-0.09357821,-0.3734532,0.3080904,1.1344639,0.15580803,0.0736574,1.2310894,0.8048734,-0.22606453,-0.34019816,0.26001227,0.42987624,-0.57630414,-0.6907761,0.08001893,817.1429,804.2491,795.78754,798.20514,787.72894,-0.09698486328125,0.12762451171875,0.99517822265625,-1.622467041015625,3.69354248046875,1.218719482421875,1,1.0,1.0,1.0,1.0,20.00
2024-09-29 18:19:14.080,0.9391151,0.025554117,-0.06450464,0.78675145,0.69907504,-0.09357821,-0.3734532,0.3080904,1.1344639,0.15580803,0.0736574,1.2310894,0.8048734,-0.22606453,-0.34019816,0.26001227,0.42987624,-0.57630414,-0.6907761,0.08001893,819.5604,801.02563,800.2198,795.38464,747.4359,-0.09698486328125,0.12762451171875,0.99517822265625,-1.622467041015625,3.69354248046875,1.218719482421875,1,1.0,1.0,1.0,1.0,20.00
2024-09-29 18:19:14.118,0.9391151,0.025554117,-0.06450464,0.78675145,0.69907504,-0.09357821,-0.3734532,0.3080904,1.1344639,0.15580803,0.0736574,1.2310894,0.8048734,-0.22606453,-0.34019816,0.26001227,0.42987624,-0.57630414,-0.6907761,0.08001893,828.4249,803.8461,797.8022,793.36993,537.1062,-0.12860107421875,0.1187744140625,0.99029541015625,-0.785064697265625,7.245025634765625,0.94207763671875,1,1.0,1.0,1.0,1.0,20.00
2024-09-29 18:19:14.119,0.9391151,0.025554117,-0.06450464,0.78675145,0.69907504,-0.09357821,-0.3734532,0.3080904,1.1344639,0.15580803,0.0736574,1.2310894,0.8048734,-0.22606453,-0.34019816,0.26001227,0.42987624,-0.57630414,-0.6907761,0.08001893,821.5751,802.6374,796.1905,794.57874,515.34796,-0.12860107421875,0.1187744140625,0.99029541015625,-0.785064697265625,7.245025634765625,0.94207763671875,1,1.0,1.0,1.0,1.0,20.00
2024-09-29 18:19:14.120,0.9391151,0.025554117,-0.06450464,0.78675145,0.69907504,-0.09357821,-0.3734532,0.3080904,1.1344639,0.15580803,0.0736574,1.2310894,0.8048734,-0.22606453,-0.34019816,0.26001227,0.42987624,-0.57630414,-0.6907761,0.08001893,812.3077,802.23444,794.57874,808.2784,773.22345,-0.12860107421875,0.1187744140625,0.99029541015625,-0.785064697265625,7.245025634765625,0.94207763671875,1,1.0,1.0,1.0,1.0,20.00
2024-09-29 18:19:14.121,0.9391151,0.025554117,-0.06450464,0.78675145,0.69907504,-0.09357821,-0.3734532,0.3080904,1.1344639,0.15580803,0.0736574,1.2310894,0.8048734,-0.22606453,-0.34019816,0.26001227,0.42987624,-0.57630414,-0.6907761,0.08001893,817.9487,805.8608,794.57874,817.5458,861.8681,-0.12860107421875,0.1187744140625,0.99029541015625,-0.785064697265625,7.245025634765625,0.94207763671875,1,1.0,1.0,1.0,1.0,20.00
2024-09-29 18:19:14.122,0.9391151,0.025554117,-0.06450464,0.78675145,0.69907504,-0.09357821,-0.3734532,0.3080904,1.1344639,0.15580803,0.0736574,1.2310894,0.8048734,-0.22606453,-0.34019816,0.26001227,0.42987624,-0.57630414,-0.6907761,0.08001893,819.5604,803.8461,799.81683,813.5165,718.4249,-0.12860107421875,0.1187744140625,0.99029541015625,-0.785064697265625,7.245025634765625,0.94207763671875,1,1.0,1.0,1.0,1.0,20.00
2024-09-29 18:19:14.124,0.9391151,0.025554117,-0.06450464,0.78675145,0.69907504,-0.09357821,-0.3734532,0.3080904,1.1344639,0.15580803,0.0736574,1.2310894,0.8048734,-0.22606453,-0.34019816,0.26001227,0.42987624,-0.57630414,-0.6907761,0.08001893,819.15753,802.23444,801.4286,814.3223,694.65204,-0.12860107421875,0.1187744140625,0.99029541015625,-0.785064697265625,7.245025634765625,0.94207763671875,1,1.0,1.0,1.0,1.0,20.00
2024-09-29 18:19:14.125,0.9391151,0.025554117,-0.06450464,0.78675145,0.69907504,-0.09357821,-0.3734532,0.3080904,1.1344639,0.15580803,0.0736574,1.2310894,0.8048734,-0.22606453,-0.34019816,0.26001227,0.42987624,-0.57630414,-0.6907761,0.08001893,819.5604,801.4286,794.9817,815.5311,967.8388,-0.12860107421875,0.1187744140625,0.99029541015625,-0.785064697265625,7.245025634765625,0.94207763671875,1,1.0,1.0,1.0,1.0,20.00
2024-09-29 18:19:14.126,0.9391151,0.025554117,-0.06450464,0.78675145,0.69907504,-0.09357821,-0.3734532,0.3080904,1.1344639,0.15580803,0.0736574,1.2310894,0.8048734,-0.22606453,-0.34019816,0.26001227,0.42987624,-0.57630414,-0.6907761,0.08001893,822.381,799.81683,795.38464,815.9341,1150.3663,-0.12860107421875,0.1187744140625,0.99029541015625,-0.785064697265625,7.245025634765625,0.94207763671875,1,1.0,1.0,1.0,1.0,20.00
2024-09-29 18:19:14.127,0.9391151,0.025554117,-0.06450464,0.78675145,0.69907504,-0.09357821,-0.3734532,0.3080904,1.1344639,0.15580803,0.0736574,1.2310894,0.8048734,-0.22606453,-0.34019816,0.26001227,0.42987624,-0.57630414,-0.6907761,0.08001893,825.6044,800.2198,801.02563,806.6667,804.65204,-0.12860107421875,0.1187744140625,0.99029541015625,-0.785064697265625,7.245025634765625,0.94207763671875,1,1.0,1.0,1.0,1.0,20.00
2024-09-29 18:19:14.128,0.9391151,0.025554117,-0.06450464,0.78675145,0.69907504,-0.09357821,-0.3734532,0.3080904,1.1344639,0.15580803,0.0736574,1.2310894,0.8048734,-0.22606453,-0.34019816,0.26001227,0.42987624,-0.57630414,-0.6907761,0.08001893,819.15753,802.23444,802.23444,799.011,566.1172,-0.12860107421875,0.1187744140625,0.99029541015625,-0.785064697265625,7.245025634765625,0.94207763671875,1,1.0,1.0,1.0,1.0,20.00
2024-09-29 18:19:14.128,0.9391151,0.025554117,-0.06450464,0.78675145,0.69907504,-0.09357821,-0.3734532,0.3080904,1.1344639,0.15580803,0.0736574,1.2310894,0.8048734,-0.22606453,-0.34019816,0.26001227,0.42987624,-0.57630414,-0.6907761,0.08001893,811.9048,794.9817,801.4286,800.6227,938.8278,-0.12860107421875,0.1187744140625,0.99029541015625,-0.785064697265625,7.245025634765625,0.94207763671875,1,1.0,1.0,1.0,1.0,20.00
2024-09-29 18:19:14.129,0.9391151,0.025554117,-0.06450464,0.78675145,0.69907504,-0.09357821,-0.3734532,0.3080904,1.1344639,0.15580803,0.0736574,1.2310894,0.8048734,-0.22606453,-0.34019816,0.26001227,0.42987624,-0.57630414,-0.6907761,0.08001893,810.293,788.1319,801.02563,810.293,1426.3737,-0.12860107421875,0.1187744140625,0.99029541015625,-0.785064697265625,7.245025634765625,0.94207763671875,1,1.0,1.0,1.0,1.0,20.00
2024-09-29 18:19:14.209,0.9391151,0.025554117,-0.06450464,0.78675145,0.69907504,-0.09357821,-0.3734532,0.3080904,1.1344639,0.15580803,0.0736574,1.2310894,0.8048734,-0.22606453,-0.34019816,0.26001227,0.42987624,-0.57630414,-0.6907761,0.08001893,804.2491,791.75824,800.6227,805.05493,1134.249,-0.1605224609375,0.11328125,0.98748779296875,0.059814453125,5.211334228515625,0.478515625,1,1.0,1.0,1.0,1.0,20.00
2024-09-29 18:19:14.210,0.9391151,0.025554117,-0.06450464,0.78675145,0.69907504,-0.09357821,-0.3734532,0.3080904,1.1344639,0.15580803,0.0736574,1.2310894,0.8048734,-0.22606453,-0.34019816,0.26001227,0.42987624,-0.57630414,-0.6907761,0.08001893,799.81683,793.36993,799.81683,793.7729,660.80585,-0.1605224609375,0.11328125,0.98748779296875,0.059814453125,5.211334228515625,0.478515625,1,1.0,1.0,1.0,1.0,20.00
2024-09-29 18:19:14.211,0.9391151,0.025554117,-0.06450464,0.78675145,0.69907504,-0.09357821,-0.3734532,0.3080904,1.1344639,0.15580803,0.0736574,1.2310894,0.8048734,-0.22606453,-0.34019816,0.26001227,0.42987624,-0.57630414,-0.6907761,0.08001893,804.2491,788.93774,801.02563,800.6227,718.8278,-0.1605224609375,0.11328125,0.98748779296875,0.059814453125,5.211334228515625,0.478515625,1,1.0,1.0,1.0,1.0,20.00
2024-09-29 18:19:14.211,0.9572568,0.01019699,-0.02787254,0.81075066,0.7182203,-0.06788298,-0.38835508,0.28281644,1.128884,0.13939771,0.08494288,1.2721502,0.8118509,-0.23154242,-0.3416548,0.24523003,0.4332485,-0.5584433,-0.68516207,0.07334802,805.05493,786.9231,805.4579,802.6374,747.03296,-0.1605224609375,0.11328125,0.98748779296875,0.059814453125,5.211334228515625,0.478515625,1,1.0,1.0,1.0,1.0,20.00
2024-09-29 18:19:14.216,0.9572568,0.01019699,-0.02787254,0.81075066,0.7182203,-0.06788298,-0.38835508,0.28281644,1.128884,0.13939771,0.08494288,1.2721502,0.8118509,-0.23154242,-0.3416548,0.24523003,0.4332485,-0.5584433,-0.68516207,0.07334802,804.2491,788.93774,805.4579,801.8315,684.9817,-0.1605224609375,0.11328125,0.98748779296875,0.059814453125,5.211334228515625,0.478515625,1,1.0,1.0,1.0,1.0,20.00
2024-09-29 18:19:14.216,0.9572568,0.01019699,-0.02787254,0.81075066,0.7182203,-0.06788298,-0.38835508,0.28281644,1.128884,0.13939771,0.08494288,1.2721502,0.8118509,-0.23154242,-0.3416548,0.24523003,0.4332485,-0.5584433,-0.68516207,0.07334802,809.0842,792.1612,803.44324,803.44324,788.5348,-0.1605224609375,0.11328125,0.98748779296875,0.059814453125,5.211334228515625,0.478515625,1,1.0,1.0,1.0,1.0,20.00
2024-09-29 18:19:14.217,0.9572568,0.01019699,-0.02787254,0.81075066,0.7182203,-0.06788298,-0.38835508,0.28281644,1.128884,0.13939771,0.08494288,1.2721502,0.8118509,-0.23154242,-0.3416548,0.24523003,0.4332485,-0.5584433,-0.68516207,0.07334802,805.4579,792.96704,805.4579,808.68134,894.10254,-0.1605224609375,0.11328125,0.98748779296875,0.059814453125,5.211334228515625,0.478515625,1,1.0,1.0,1.0,1.0,20.00
2024-09-29 18:19:14.217,0.9572568,0.01019699,-0.02787254,0.81075066,0.7182203,-0.06788298,-0.38835508,0.28281644,1.128884,0.13939771,0.08494288,1.2721502,0.8118509,-0.23154242,-0.3416548,0.24523003,0.4332485,-0.5584433,-0.68516207,0.07334802,801.02563,792.96704,805.8608,811.0989,791.75824,-0.1605224609375,0.11328125,0.98748779296875,0.059814453125,5.211334228515625,0.478515625,1,1.0,1.0,1.0,1.0,20.00
2024-09-29 18:19:14.218,0.9572568,0.01019699,-0.02787254,0.81075066,0.7182203,-0.06788298,-0.38835508,0.28281644,1.128884,0.13939771,0.08494288,1.2721502,0.8118509,-0.23154242,-0.3416548,0.24523003,0.4332485,-0.5584433,-0.68516207,0.07334802,783.69965,791.75824,803.8461,806.6667,691.02563,-0.1605224609375,0.11328125,0.98748779296875,0.059814453125,5.211334228515625,0.478515625,1,1.0,1.0,1.0,1.0,20.00
2024-09-29 18:19:14.218,0.9572568,0.01019699,-0.02787254,0.81075066,0.7182203,-0.06788298,-0.38835508,0.28281644,1.128884,0.13939771,0.08494288,1.2721502,0.8118509,-0.23154242,-0.3416548,0.24523003,0.4332485,-0.5584433,-0.68516207,0.07334802,783.69965,786.52014,803.8461,800.6227,765.16486,-0.1605224609375,0.11328125,0.98748779296875,0.059814453125,5.211334228515625,0.478515625,1,1.0,1.0,1.0,1.0,20.00
2024-09-29 18:19:14.219,0.9572568,0.01019699,-0.02787254,0.81075066,0.7182203,-0.06788298,-0.38835508,0.28281644,1.128884,0.13939771,0.08494288,1.2721502,0.8118509,-0.23154242,-0.3416548,0.24523003,0.4332485,-0.5584433,-0.68516207,0.07334802,802.6374,790.54944,810.293,815.12823,994.43225,-0.1605224609375,0.11328125,0.98748779296875,0.059814453125,5.211334228515625,0.478515625,1,1.0,1.0,1.0,1.0,20.00
2024-09-29 18:19:14.219,0.9572568,0.01019699,-0.02787254,0.81075066,0.7182203,-0.06788298,-0.38835508,0.28281644,1.128884,0.13939771,0.08494288,1.2721502,0.8118509,-0.23154242,-0.3416548,0.24523003,0.4332485,-0.5584433,-0.68516207,0.07334802,800.2198,796.99634,807.47253,821.1722,886.8498,-0.1605224609375,0.11328125,0.98748779296875,0.059814453125,5.211334228515625,0.478515625,1,1.0,1.0,1.0,1.0,20.00
2024-09-29 18:19:14.220,0.9572568,0.01019699,-0.02787254,0.81075066,0.7182203,-0.06788298,-0.38835508,0.28281644,1.128884,0.13939771,0.08494288,1.2721502,0.8118509,-0.23154242,-0.3416548,0.24523003,0.4332485,-0.5584433,-0.68516207,0.07334802,791.75824,794.9817,799.81683,817.1429,677.72894,-0.1651611328125,0.116455078125,0.994384765625,0.321502685546875,0.366363525390625,-0.814971923828125,1,1.0,1.0,1.0,1.0,20.00
2024-09-29 18:19:14.221,0.9572568,0.01019699,-0.02787254,0.81075066,0.7182203,-0.06788298,-0.38835508,0.28281644,1.128884,0.13939771,0.08494288,1.2721502,0.8118509,-0.23154242,-0.3416548,0.24523003,0.4332485,-0.5584433,-0.68516207,0.07334802,795.38464,795.38464,801.8315,821.1722,704.7253,-0.1651611328125,0.116455078125,0.994384765625,0.321502685546875,0.366363525390625,-0.814971923828125,1,1.0,1.0,1.0,1.0,20.00
2024-09-29 18:19:14.221,0.9572568,0.01019699,-0.02787254,0.81075066,0.7182203,-0.06788298,-0.38835508,0.28281644,1.128884,0.13939771,0.08494288,1.2721502,0.8118509,-0.23154242,-0.3416548,0.24523003,0.4332485,-0.5584433,-0.68516207,0.07334802,797.8022,794.17584,801.4286,816.337,798.20514,-0.1651611328125,0.116455078125,0.994384765625,0.321502685546875,0.366363525390625,-0.814971923828125,1,1.0,1.0,1.0,1.0,20.00
2024-09-29 18:19:14.222,0.9572568,0.01019699,-0.02787254,0.81075066,0.7182203,-0.06788298,-0.38835508,0.28281644,1.128884,0.13939771,0.08494288,1.2721502,0.8118509,-0.23154242,-0.3416548,0.24523003,0.4332485,-0.5584433,-0.68516207,0.07334802,801.8315,796.99634,805.05493,815.9341,703.5165,-0.1651611328125,0.116455078125,0.994384765625,0.321502685546875,0.366363525390625,-0.814971923828125,1,1.0,1.0,1.0,1.0,20.00
2024-09-29 18:19:14.222,0.9572568,0.01019699,-0.02787254,0.81075066,0.7182203,-0.06788298,-0.38835508,0.28281644,1.128884,0.13939771,0.08494288,1.2721502,0.8118509,-0.23154242,-0.3416548,0.24523003,0.4332485,-0.5584433,-0.68516207,0.07334802,809.0842,797.8022,807.47253,819.5604,725.2747,-0.1651611328125,0.116455078125,0.994384765625,0.321502685546875,0.366363525390625,-0.814971923828125,1,1.0,1.0,1.0,1.0,20.00
2024-09-29 18:19:14.223,0.9572568,0.01019699,-0.02787254,0.81075066,0.7182203,-0.06788298,-0.38835508,0.28281644,1.128884,0.13939771,0.08494288,1.2721502,0.8118509,-0.23154242,-0.3416548,0.24523003,0.4332485,-0.5584433,-0.68516207,0.07334802,809.4872,793.36993,807.0696,826.0073,901.3553,-0.1651611328125,0.116455078125,0.994384765625,0.321502685546875,0.366363525390625,-0.814971923828125,1,1.0,1.0,1.0,1.0,20.00
2024-09-29 18:19:14.223,0.9572568,0.01019699,-0.02787254,0.81075066,0.7182203,-0.06788298,-0.38835508,0.28281644,1.128884,0.13939771,0.08494288,1.2721502,0.8118509,-0.23154242,-0.3416548,0.24523003,0.4332485,-0.5584433,-0.68516207,0.07334802,813.1135,796.1905,811.0989,833.2601,867.9121,-0.1651611328125,0.116455078125,0.994384765625,0.321502685546875,0.366363525390625,-0.814971923828125,1,1.0,1.0,1.0,1.0,20.00
2024-09-29 18:19:14.224,0.9572568,0.01019699,-0.02787254,0.81075066,0.7182203,-0.06788298,-0.38835508,0.28281644,1.128884,0.13939771,0.08494288,1.2721502,0.8118509,-0.23154242,-0.3416548,0.24523003,0.4332485,-0.5584433,-0.68516207,0.07334802,814.7253,801.02563,809.89014,826.4103,765.9707,-0.1651611328125,0.116455078125,0.994384765625,0.321502685546875,0.366363525390625,-0.814971923828125,1,1.0,1.0,1.0,1.0,20.00
2024-09-29 18:19:14.224,0.9572568,0.01019699,-0.02787254,0.81075066,0.7182203,-0.06788298,-0.38835508,0.28281644,1.128884,0.13939771,0.08494288,1.2721502,0.8118509,-0.23154242,-0.3416548,0.24523003,0.4332485,-0.5584433,-0.68516207,0.07334802,811.9048,797.3993,803.44324,820.3663,781.685,-0.1651611328125,0.116455078125,0.994384765625,0.321502685546875,0.366363525390625,-0.814971923828125,1,1.0,1.0,1.0,1.0,20.00
2024-09-29 18:19:14.225,0.9572568,0.01019699,-0.02787254,0.81075066,0.7182203,-0.06788298,-0.38835508,0.28281644,1.128884,0.13939771,0.08494288,1.2721502,0.8118509,-0.23154242,-0.3416548,0.24523003,0.4332485,-0.5584433,-0.68516207,0.07334802,809.0842,795.38464,806.26373,818.3516,931.5751,-0.1651611328125,0.116455078125,0.994384765625,0.321502685546875,0.366363525390625,-0.814971923828125,1,1.0,1.0,1.0,1.0,20.00
2024-09-29 18:19:14.225,0.9572568,0.01019699,-0.02787254,0.81075066,0.7182203,-0.06788298,-0.38835508,0.28281644,1.128884,0.13939771,0.08494288,1.2721502,0.8118509,-0.23154242,-0.3416548,0.24523003,0.4332485,-0.5584433,-0.68516207,0.07334802,812.71063,799.011,807.47253,817.9487,858.6447,-0.1651611328125,0.116455078125,0.994384765625,0.321502685546875,0.366363525390625,-0.814971923828125,1,1.0,1.0,1.0,1.0,20.00
2024-09-29 18:19:14.226,0.9572568,0.01019699,-0.02787254,0.81075066,0.7182203,-0.06788298,-0.38835508,0.28281644,1.128884,0.13939771,0.08494288,1.2721502,0.8118509,-0.23154242,-0.3416548,0.24523003,0.4332485,-0.5584433,-0.68516207,0.07334802,810.293,798.20514,799.81683,814.3223,760.7326,-0.1651611328125,0.116455078125,0.994384765625,0.321502685546875,0.366363525390625,-0.814971923828125,1,1.0,1.0,1.0,1.0,20.00
2024-09-29 18:19:14.251,0.9572568,0.01019699,-0.02787254,0.81075066,0.7182203,-0.06788298,-0.38835508,0.28281644,1.128884,0.13939771,0.08494288,1.2721502,0.8118509,-0.23154242,-0.3416548,0.24523003,0.4332485,-0.5584433,-0.68516207,0.07334802,802.6374,797.8022,800.6227,810.696,940.0366,-0.14599609375,0.121337890625,0.98956298828125,-0.635528564453125,-4.6356201171875,0.55328369140625,1,1.0,1.0,1.0,1.0,20.00
2024-09-29 18:19:14.252,0.9572568,0.01019699,-0.02787254,0.81075066,0.7182203,-0.06788298,-0.38835508,0.28281644,1.128884,0.13939771,0.08494288,1.2721502,0.8118509,-0.23154242,-0.3416548,0.24523003,0.4332485,-0.5584433,-0.68516207,0.07334802,792.1612,795.38464,803.0403,811.9048,1061.7216,-0.14599609375,0.121337890625,0.98956298828125,-0.635528564453125,-4.6356201171875,0.55328369140625,1,1.0,1.0,1.0,1.0,20.00
2024-09-29 18:19:14.253,0.9572568,0.01019699,-0.02787254,0.81075066,0.7182203,-0.06788298,-0.38835508,0.28281644,1.128884,0.13939771,0.08494288,1.2721502,0.8118509,-0.23154242,-0.3416548,0.24523003,0.4332485,-0.5584433,-0.68516207,0.07334802,794.9817,796.5934,798.60803,805.4579,834.0659,-0.14599609375,0.121337890625,0.98956298828125,-0.635528564453125,-4.6356201171875,0.55328369140625,1,1.0,1.0,1.0,1.0,20.00
2024-09-29 18:19:14.253,0.9572568,0.01019699,-0.02787254,0.81075066,0.7182203,-0.06788298,-0.38835508,0.28281644,1.128884,0.13939771,0.08494288,1.2721502,0.8118509,-0.23154242,-0.3416548,0.24523003,0.4332485,-0.5584433,-0.68516207,0.07334802,803.0403,800.2198,801.02563,804.2491,627.3626,-0.14599609375,0.121337890625,0.98956298828125,-0.635528564453125,-4.6356201171875,0.55328369140625,1,1.0,1.0,1.0,1.0,20.00
2024-09-29 18:19:14.254,0.9572568,0.01019699,-0.02787254,0.81075066,0.7182203,-0.06788298,-0.38835508,0.28281644,1.128884,0.13939771,0.08494288,1.2721502,0.8118509,-0.23154242,-0.3416548,0.24523003,0.4332485,-0.5584433,-0.68516207,0.07334802,802.6374,798.60803,803.8461,809.89014,854.61536,-0.14599609375,0.121337890625,0.98956298828125,-0.635528564453125,-4.6356201171875,0.55328369140625,1,1.0,1.0,1.0,1.0,20.00
2024-09-29 18:19:14.254,0.98861766,-0.017202677,0.037465308,0.8353612,0.7396942,-0.057446323,-0.3944255,0.26846552,1.1143165,0.124144636,0.06872618,1.262145,0.81607366,-0.24303547,-0.33697554,0.23808183,0.44187075,-0.54637355,-0.68424946,0.064820126,806.6667,794.9817,802.6374,809.0842,1220.8792,-0.14599609375,0.121337890625,0.98956298828125,-0.635528564453125,-4.6356201171875,0.55328369140625,1,1.0,1.0,1.0,1.0,20.00
2024-09-29 18:19:14.259,0.98861766,-0.017202677,0.037465308,0.8353612,0.7396942,-0.057446323,-0.3944255,0.26846552,1.1143165,0.124144636,0.06872618,1.262145,0.81607366,-0.24303547,-0.33697554,0.23808183,0.44187075,-0.54637355,-0.68424946,0.064820126,817.5458,794.57874,803.8461,803.44324,1021.8315,-0.14599609375,0.121337890625,0.98956298828125,-0.635528564453125,-4.6356201171875,0.55328369140625,1,1.0,1.0,1.0,1.0,20.00
2024-09-29 18:19:14.260,0.98861766,-0.017202677,0.037465308,0.8353612,0.7396942,-0.057446323,-0.3944255,0.26846552,1.1143165,0.124144636,0.06872618,1.262145,0.81607366,-0.24303547,-0.33697554,0.23808183,0.44187075,-0.54637355,-0.68424946,0.064820126,824.7985,796.5934,799.41394,804.65204,689.011,-0.14599609375,0.121337890625,0.98956298828125,-0.635528564453125,-4.6356201171875,0.55328369140625,1,1.0,1.0,1.0,1.0,20.00
2024-09-29 18:19:14.260,0.98861766,-0.017202677,0.037465308,0.8353612,0.7396942,-0.057446323,-0.3944255,0.26846552,1.1143165,0.124144636,0.06872618,1.262145,0.81607366,-0.24303547,-0.33697554,0.23808183,0.44187075,-0.54637355,-0.68424946,0.064820126,813.5165,796.99634,794.9817,811.50183,754.2857,-0.14599609375,0.121337890625,0.98956298828125,-0.635528564453125,-4.6356201171875,0.55328369140625,1,1.0,1.0,1.0,1.0,20.00
2024-09-29 18:19:14.261,0.98861766,-0.017202677,0.037465308,0.8353612,0.7396942,-0.057446323,-0.3944255,0.26846552,1.1143165,0.124144636,0.06872618,1.262145,0.81607366,-0.24303547,-0.33697554,0.23808183,0.44187075,-0.54637355,-0.68424946,0.064820126,806.6667,796.99634,795.78754,815.12823,896.52014,-0.14599609375,0.121337890625,0.98956298828125,-0.635528564453125,-4.6356201171875,0.55328369140625,1,1.0,1.0,1.0,1.0,20.00
2024-09-29 18:19:14.261,0.98861766,-0.017202677,0.037465308,0.8353612,0.7396942,-0.057446323,-0.3944255,0.26846552,1.1143165,0.124144636,0.06872618,1.262145,0.81607366,-0.24303547,-0.33697554,0.23808183,0.44187075,-0.54637355,-0.68424946,0.064820126,809.89014,796.99634,799.41394,811.0989,707.1429,-0.14599609375,0.121337890625,0.98956298828125,-0.635528564453125,-4.6356201171875,0.55328369140625,1,1.0,1.0,1.0,1.0,20.00
2024-09-29 18:19:14.262,0.98861766,-0.017202677,0.037465308,0.8353612,0.7396942,-0.057446323,-0.3944255,0.26846552,1.1143165,0.124144636,0.06872618,1.262145,0.81607366,-0.24303547,-0.33697554,0.23808183,0.44187075,-0.54637355,-0.68424946,0.064820126,816.7399,800.6227,801.4286,812.3077,507.69232,-0.14599609375,0.121337890625,0.98956298828125,-0.635528564453125,-4.6356201171875,0.55328369140625,1,1.0,1.0,1.0,1.0,20.00
2024-09-29 18:19:14.328,0.98861766,-0.017202677,0.037465308,0.8353612,0.7396942,-0.057446323,-0.3944255,0.26846552,1.1143165,0.124144636,0.06872618,1.262145,0.81607366,-0.24303547,-0.33697554,0.23808183,0.44187075,-0.54637355,-0.68424946,0.064820126,818.7546,802.6374,800.6227,817.9487,589.4872,-0.14599609375,0.121337890625,0.98956298828125,-0.635528564453125,-4.6356201171875,0.55328369140625,1,1.0,1.0,1.0,1.0,20.00
2024-09-29 18:19:14.329,0.98861766,-0.017202677,0.037465308,0.8353612,0.7396942,-0.057446323,-0.3944255,0.26846552,1.1143165,0.124144636,0.06872618,1.262145,0.81607366,-0.24303547,-0.33697554,0.23808183,0.44187075,-0.54637355,-0.68424946,0.064820126,828.022,800.6227,800.6227,821.978,1147.5458,-0.14599609375,0.121337890625,0.98956298828125,-0.635528564453125,-4.6356201171875,0.55328369140625,1,1.0,1.0,1.0,1.0,20.00
2024-09-29 18:19:14.329,0.98861766,-0.017202677,0.037465308,0.8353612,0.7396942,-0.057446323,-0.3944255,0.26846552,1.1143165,0.124144636,0.06872618,1.262145,0.81607366,-0.24303547,-0.33697554,0.23808183,0.44187075,-0.54637355,-0.68424946,0.064820126,832.0513,802.6374,803.8461,817.5458,1259.9634,-0.14599609375,0.121337890625,0.98956298828125,-0.635528564453125,-4.6356201171875,0.55328369140625,1,1.0,1.0,1.0,1.0,20.00
2024-09-29 18:19:14.330,0.98861766,-0.017202677,0.037465308,0.8353612,0.7396942,-0.057446323,-0.3944255,0.26846552,1.1143165,0.124144636,0.06872618,1.262145,0.81607366,-0.24303547,-0.33697554,0.23808183,0.44187075,-0.54637355,-0.68424946,0.064820126,822.381,802.23444,807.0696,816.7399,734.5421,-0.14599609375,0.121337890625,0.98956298828125,-0.635528564453125,-4.6356201171875,0.55328369140625,1,1.0,1.0,1.0,1.0,20.00
2024-09-29 18:19:14.330,0.98861766,-0.017202677,0.037465308,0.8353612,0.7396942,-0.057446323,-0.3944255,0.26846552,1.1143165,0.124144636,0.06872618,1.262145,0.81607366,-0.24303547,-0.33697554,0.23808183,0.44187075,-0.54637355,-0.68424946,0.064820126,813.91943,797.8022,808.68134,827.2161,651.9414,-0.14599609375,0.121337890625,0.98956298828125,-0.635528564453125,-4.6356201171875,0.55328369140625,1,1.0,1.0,1.0,1.0,20.00
2024-09-29 18:19:14.331,0.98861766,-0.017202677,0.037465308,0.8353612,0.7396942,-0.057446323,-0.3944255,0.26846552,1.1143165,0.124144636,0.06872618,1.262145,0.81607366,-0.24303547,-0.33697554,0.23808183,0.44187075,-0.54637355,-0.68424946,0.064820126,809.4872,796.5934,806.26373,826.8132,921.0989,-0.14599609375,0.121337890625,0.98956298828125,-0.635528564453125,-4.6356201171875,0.55328369140625,1,1.0,1.0,1.0,1.0,20.00
2024-09-29 18:19:14.331,0.98861766,-0.017202677,0.037465308,0.8353612,0.7396942,-0.057446323,-0.3944255,0.26846552,1.1143165,0.124144636,0.06872618,1.262145,0.81607366,-0.24303547,-0.33697554,0.23808183,0.44187075,-0.54637355,-0.68424946,0.064820126,806.6667,795.38464,799.81683,811.0989,929.9634,-0.14599609375,0.121337890625,0.98956298828125,-0.635528564453125,-4.6356201171875,0.55328369140625,1,1.0,1.0,1.0,1.0,20.00
2024-09-29 18:19:14.332,0.98861766,-0.017202677,0.037465308,0.8353612,0.7396942,-0.057446323,-0.3944255,0.26846552,1.1143165,0.124144636,0.06872618,1.262145,0.81607366,-0.24303547,-0.33697554,0.23808183,0.44187075,-0.54637355,-0.68424946,0.064820126,812.3077,795.78754,801.8315,805.05493,713.5897,-0.14599609375,0.121337890625,0.98956298828125,-0.635528564453125,-4.6356201171875,0.55328369140625,1,1.0,1.0,1.0,1.0,20.00
2024-09-29 18:19:14.332,0.98861766,-0.017202677,0.037465308,0.8353612,0.7396942,-0.057446323,-0.3944255,0.26846552,1.1143165,0.124144636,0.06872618,1.262145,0.81607366,-0.24303547,-0.33697554,0.23808183,0.44187075,-0.54637355,-0.68424946,0.064820126,813.91943,796.1905,798.60803,811.50183,879.19415,-0.14599609375,0.121337890625,0.98956298828125,-0.635528564453125,-4.6356201171875,0.55328369140625,1,1.0,1.0,1.0,1.0,20.00
2024-09-29 18:19:14.333,0.98861766,-0.017202677,0.037465308,0.8353612,0.7396942,-0.057446323,-0.3944255,0.26846552,1.1143165,0.124144636,0.06872618,1.262145,0.81607366,-0.24303547,-0.33697554,0.23808183,0.44187075,-0.54637355,-0.68424946,0.064820126,802.6374,796.5934,797.8022,809.0842,1043.9927,-0.14599609375,0.121337890625,0.98956298828125,-0.635528564453125,-4.6356201171875,0.55328369140625,1,1.0,1.0,1.0,1.0,20.00
2024-09-29 18:19:14.333,0.98861766,-0.017202677,0.037465308,0.8353612,0.7396942,-0.057446323,-0.3944255,0.26846552,1.1143165,0.124144636,0.06872618,1.262145,0.81607366,-0.24303547,-0.33697554,0.23808183,0.44187075,-0.54637355,-0.68424946,0.064820126,807.0696,798.20514,801.8315,803.8461,745.42126,-0.14599609375,0.121337890625,0.98956298828125,-0.635528564453125,-4.6356201171875,0.55328369140625,1,1.0,1.0,1.0,1.0,20.00
2024-09-29 18:19:14.334,0.98861766,-0.017202677,0.037465308,0.8353612,0.7396942,-0.057446323,-0.3944255,0.26846552,1.1143165,0.124144636,0.06872618,1.262145,0.81607366,-0.24303547,-0.33697554,0.23808183,0.44187075,-0.54637355,-0.68424946,0.064820126,814.3223,799.41394,803.44324,800.6227,620.5128,-0.14599609375,0.121337890625,0.98956298828125,-0.635528564453125,-4.6356201171875,0.55328369140625,1,1.0,1.0,1.0,1.0,20.00
2024-09-29 18:19:14.358,0.98861766,-0.017202677,0.037465308,0.8353612,0.7396942,-0.057446323,-0.3944255,0.26846552,1.1143165,0.124144636,0.06872618,1.262145,0.81607366,-0.24303547,-0.33697554,0.23808183,0.44187075,-0.54637355,-0.68424946,0.064820126,807.0696,799.81683,803.8461,797.3993,606.0073,-0.13995361328125,0.11041259765625,0.99200439453125,-2.3028564453125,-5.1739501953125,1.622467041015625,1,1.0,1.0,1.0,1.0,20.00
2024-09-29 18:19:14.359,0.98861766,-0.017202677,0.037465308,0.8353612,0.7396942,-0.057446323,-0.3944255,0.26846552,1.1143165,0.124144636,0.06872618,1.262145,0.81607366,-0.24303547,-0.33697554,0.23808183,0.44187075,-0.54637355,-0.68424946,0.064820126,793.7729,799.41394,803.44324,800.6227,659.19415,-0.13995361328125,0.11041259765625,0.99200439453125,-2.3028564453125,-5.1739501953125,1.622467041015625,1,1.0,1.0,1.0,1.0,20.00
2024-09-29 18:19:14.360,0.98861766,-0.017202677,0.037465308,0.8353612,0.7396942,-0.057446323,-0.3944255,0.26846552,1.1143165,0.124144636,0.06872618,1.262145,0.81607366,-0.24303547,-0.33697554,0.23808183,0.44187075,-0.54637355,-0.68424946,0.064820126,795.38464,801.02563,800.6227,801.8315,747.8388,-0.13995361328125,0.11041259765625,0.99200439453125,-2.3028564453125,-5.1739501953125,1.622467041015625,1,1.0,1.0,1.0,1.0,20.00
2024-09-29 18:19:14.361,0.98861766,-0.017202677,0.037465308,0.8353612,0.7396942,-0.057446323,-0.3944255,0.26846552,1.1143165,0.124144636,0.06872618,1.262145,0.81607366,-0.24303547,-0.33697554,0.23808183,0.44187075,-0.54637355,-0.68424946,0.064820126,797.3993,803.8461,802.23444,802.6374,724.87177,-0.13995361328125,0.11041259765625,0.99200439453125,-2.3028564453125,-5.1739501953125,1.622467041015625,1,1.0,1.0,1.0,1.0,20.00
2024-09-29 18:19:14.361,0.98861766,-0.017202677,0.037465308,0.8353612,0.7396942,-0.057446323,-0.3944255,0.26846552,1.1143165,0.124144636,0.06872618,1.262145,0.81607366,-0.24303547,-0.33697554,0.23808183,0.44187075,-0.54637355,-0.68424946,0.064820126,800.2198,803.0403,799.41394,803.0403,705.5311,-0.13995361328125,0.11041259765625,0.99200439453125,-2.3028564453125,-5.1739501953125,1.622467041015625,1,1.0,1.0,1.0,1.0,20.00
2024-09-29 18:19:14.362,0.98861766,-0.017202677,0.037465308,0.8353612,0.7396942,-0.057446323,-0.3944255,0.26846552,1.1143165,0.124144636,0.06872618,1.262145,0.81607366,-0.24303547,-0.33697554,0.23808183,0.44187075,-0.54637355,-0.68424946,0.064820126,805.05493,801.4286,794.9817,796.99634,871.13556,-0.13995361328125,0.11041259765625,0.99200439453125,-2.3028564453125,-5.1739501953125,1.622467041015625,1,1.0,1.0,1.0,1.0,20.00
2024-09-29 18:19:14.362,0.98861766,-0.017202677,0.037465308,0.8353612,0.7396942,-0.057446323,-0.3944255,0.26846552,1.1143165,0.124144636,0.06872618,1.262145,0.81607366,-0.24303547,-0.33697554,0.23808183,0.44187075,-0.54637355,-0.68424946,0.064820126,805.05493,797.8022,794.9817,795.38464,975.89746,-0.13995361328125,0.11041259765625,0.99200439453125,-2.3028564453125,-5.1739501953125,1.622467041015625,1,1.0,1.0,1.0,1.0,20.00
2024-09-29 18:19:14.363,1.0156568,-0.05791454,0.10061403,0.8469936,0.7620201,-0.05488769,-0.39853695,0.26313353,1.0960597,0.12179491,0.05882759,1.2484798,0.8169451,-0.25891915,-0.3338022,0.23914805,0.4516839,-0.54698133,-0.68342125,0.056204624,806.6667,799.41394,794.17584,794.9817,1018.60803,-0.13995361328125,0.11041259765625,0.99200439453125,-2.3028564453125,-5.1739501953125,1.622467041015625,1,1.0,1.0,1.0,1.0,20.00
2024-09-29 18:19:14.367,1.0156568,-0.05791454,0.10061403,0.8469936,0.7620201,-0.05488769,-0.39853695,0.26313353,1.0960597,0.12179491,0.05882759,1.2484798,0.8169451,-0.25891915,-0.3338022,0.23914805,0.4516839,-0.54698133,-0.68342125,0.056204624,809.4872,801.4286,791.75824,791.75824,978.71796,-0.13995361328125,0.11041259765625,0.99200439453125,-2.3028564453125,-5.1739501953125,1.622467041015625,1,1.0,1.0,1.0,1.0,20.00
2024-09-29 18:19:14.368,1.0156568,-0.05791454,0.10061403,0.8469936,0.7620201,-0.05488769,-0.39853695,0.26313353,1.0960597,0.12179491,0.05882759,1.2484798,0.8169451,-0.25891915,-0.3338022,0.23914805,0.4516839,-0.54698133,-0.68342125,0.056204624,811.50183,800.6227,792.1612,790.14655,751.8681,-0.13995361328125,0.11041259765625,0.99200439453125,-2.3028564453125,-5.1739501953125,1.622467041015625,1,1.0,1.0,1.0,1.0,20.00
2024-09-29 18:19:14.368,1.0156568,-0.05791454,0.10061403,0.8469936,0.7620201,-0.05488769,-0.39853695,0.26313353,1.0960597,0.12179491,0.05882759,1.2484798,0.8169451,-0.25891915,-0.3338022,0.23914805,0.4516839,-0.54698133,-0.68342125,0.056204624,811.9048,799.81683,791.75824,793.7729,679.7436,-0.13995361328125,0.11041259765625,0.99200439453125,-2.3028564453125,-5.1739501953125,1.622467041015625,1,1.0,1.0,1.0,1.0,20.00
2024-09-29 18:19:14.369,1.0156568,-0.05791454,0.10061403,0.8469936,0.7620201,-0.05488769,-0.39853695,0.26313353,1.0960597,0.12179491,0.05882759,1.2484798,0.8169451,-0.25891915,-0.3338022,0.23914805,0.4516839,-0.54698133,-0.68342125,0.056204624,806.26373,801.02563,790.9524,801.4286,720.0366,-0.13995361328125,0.11041259765625,0.99200439453125,-2.3028564453125,-5.1739501953125,1.622467041015625,1,1.0,1.0,1.0,1.0,20.00
2024-09-29 18:19:14.462,1.0156568,-0.05791454,0.10061403,0.8469936,0.7620201,-0.05488769,-0.39853695,0.26313353,1.0960597,0.12179491,0.05882759,1.2484798,0.8169451,-0.25891915,-0.3338022,0.23914805,0.4516839,-0.54698133,-0.68342125,0.056204624,799.81683,805.8608,791.75824,806.6667,753.47986,-0.1260986328125,0.10498046875,0.99005126953125,-0.785064697265625,-4.6954345703125,0.37384033203125,1,1.0,1.0,1.0,1.0,20.00
2024-09-29 18:19:14.463,1.0156568,-0.05791454,0.10061403,0.8469936,0.7620201,-0.05488769,-0.39853695,0.26313353,1.0960597,0.12179491,0.05882759,1.2484798,0.8169451,-0.25891915,-0.3338022,0.23914805,0.4516839,-0.54698133,-0.68342125,0.056204624,807.8755,807.0696,793.7729,811.50183,681.75824,-0.1260986328125,0.10498046875,0.99005126953125,-0.785064697265625,-4.6954345703125,0.37384033203125,1,1.0,1.0,1.0,1.0,20.00
2024-09-29 18:19:14.463,1.0156568,-0.05791454,0.10061403,0.8469936,0.7620201,-0.05488769,-0.39853695,0.26313353,1.0960597,0.12179491,0.05882759,1.2484798,0.8169451,-0.25891915,-0.3338022,0.23914805,0.4516839,-0.54698133,-0.68342125,0.056204624,819.15753,803.44324,796.1905,814.3223,655.9707,-0.1260986328125,0.10498046875,0.99005126953125,-0.785064697265625,-4.6954345703125,0.37384033203125,1,1.0,1.0,1.0,1.0,20.00
2024-09-29 18:19:14.464,1.0156568,-0.05791454,0.10061403,0.8469936,0.7620201,-0.05488769,-0.39853695,0.26313353,1.0960597,0.12179491,0.05882759,1.2484798,0.8169451,-0.25891915,-0.3338022,0.23914805,0.4516839,-0.54698133,-0.68342125,0.056204624,816.7399,801.8315,796.1905,817.9487,832.0513,-0.1260986328125,0.10498046875,0.99005126953125,-0.785064697265625,-4.6954345703125,0.37384033203125,1,1.0,1.0,1.0,1.0,20.00
2024-09-29 18:19:14.464,1.0156568,-0.05791454,0.10061403,0.8469936,0.7620201,-0.05488769,-0.39853695,0.26313353,1.0960597,0.12179491,0.05882759,1.2484798,0.8169451,-0.25891915,-0.3338022,0.23914805,0.4516839,-0.54698133,-0.68342125,0.056204624,811.50183,798.60803,792.96704,815.12823,978.315,-0.1260986328125,0.10498046875,0.99005126953125,-0.785064697265625,-4.6954345703125,0.37384033203125,1,1.0,1.0,1.0,1.0,20.00
2024-09-29 18:19:14.465,1.0156568,-0.05791454,0.10061403,0.8469936,0.7620201,-0.05488769,-0.39853695,0.26313353,1.0960597,0.12179491,0.05882759,1.2484798,0.8169451,-0.25891915,-0.3338022,0.23914805,0.4516839,-0.54698133,-0.68342125,0.056204624,813.91943,797.8022,794.57874,807.8755,911.02563,-0.1260986328125,0.10498046875,0.99005126953125,-0.785064697265625,-4.6954345703125,0.37384033203125,1,1.0,1.0,1.0,1.0,20.00
2024-09-29 18:19:14.465,1.0156568,-0.05791454,0.10061403,0.8469936,0.7620201,-0.05488769,-0.39853695,0.26313353,1.0960597,0.12179491,0.05882759,1.2484798,0.8169451,-0.25891915,-0.3338022,0.23914805,0.4516839,-0.54698133,-0.68342125,0.056204624,813.1135,799.41394,796.99634,800.2198,828.022,-0.1260986328125,0.10498046875,0.99005126953125,-0.785064697265625,-4.6954345703125,0.37384033203125,1,1.0,1.0,1.0,1.0,20.00
2024-09-29 18:19:14.466,1.0156568,-0.05791454,0.10061403,0.8469936,0.7620201,-0.05488769,-0.39853695,0.26313353,1.0960597,0.12179491,0.05882759,1.2484798,0.8169451,-0.25891915,-0.3338022,0.23914805,0.4516839,-0.54698133,-0.68342125,0.056204624,819.9634,800.6227,795.38464,796.99634,1031.9048,-0.1260986328125,0.10498046875,0.99005126953125,-0.785064697265625,-4.6954345703125,0.37384033203125,1,1.0,1.0,1.0,1.0,20.00
2024-09-29 18:19:14.467,1.0156568,-0.05791454,0.10061403,0.8469936,0.7620201,-0.05488769,-0.39853695,0.26313353,1.0960597,0.12179491,0.05882759,1.2484798,0.8169451,-0.25891915,-0.3338022,0.23914805,0.4516839,-0.54698133,-0.68342125,0.056204624,826.8132,802.23444,793.36993,807.47253,1398.5714,-0.1260986328125,0.10498046875,0.99005126953125,-0.785064697265625,-4.6954345703125,0.37384033203125,1,1.0,1.0,1.0,1.0,20.00
2024-09-29 18:19:14.467,1.0156568,-0.05791454,0.10061403,0.8469936,0.7620201,-0.05488769,-0.39853695,0.26313353,1.0960597,0.12179491,0.05882759,1.2484798,0.8169451,-0.25891915,-0.3338022,0.23914805,0.4516839,-0.54698133,-0.68342125,0.056204624,820.7692,800.6227,794.17584,799.011,994.43225,-0.1260986328125,0.10498046875,0.99005126953125,-0.785064697265625,-4.6954345703125,0.37384033203125,1,1.0,1.0,1.0,1.0,20.00
2024-09-29 18:19:14.468,1.0156568,-0.05791454,0.10061403,0.8469936,0.7620201,-0.05488769,-0.39853695,0.26313353,1.0960597,0.12179491,0.05882759,1.2484798,0.8169451,-0.25891915,-0.3338022,0.23914805,0.4516839,-0.54698133,-0.68342125,0.056204624,819.15753,799.41394,799.011,794.17584,739.7802,-0.1260986328125,0.10498046875,0.99005126953125,-0.785064697265625,-4.6954345703125,0.37384033203125,1,1.0,1.0,1.0,1.0,20.00
2024-09-29 18:19:14.468,1.0156568,-0.05791454,0.10061403,0.8469936,0.7620201,-0.05488769,-0.39853695,0.26313353,1.0960597,0.12179491,0.05882759,1.2484798,0.8169451,-0.25891915,-0.3338022,0.23914805,0.4516839,-0.54698133,-0.68342125,0.056204624,809.0842,801.02563,798.60803,803.0403,1009.34064,-0.1260986328125,0.10498046875,0.99005126953125,-0.785064697265625,-4.6954345703125,0.37384033203125,1,1.0,1.0,1.0,1.0,20.00
2024-09-29 18:19:14.495,1.0156568,-0.05791454,0.10061403,0.8469936,0.7620201,-0.05488769,-0.39853695,0.26313353,1.0960597,0.12179491,0.05882759,1.2484798,0.8169451,-0.25891915,-0.3338022,0.23914805,0.4516839,-0.54698133,-0.68342125,0.056204624,790.54944,799.81683,795.78754,799.41394,887.25275,-0.12548828125,0.1058349609375,0.99078369140625,0.299072265625,-1.996307373046875,0.3887939453125,1,1.0,1.0,1.0,1.0,20.00
2024-09-29 18:19:14.495,1.0156568,-0.05791454,0.10061403,0.8469936,0.7620201,-0.05488769,-0.39853695,0.26313353,1.0960597,0.12179491,0.05882759,1.2484798,0.8169451,-0.25891915,-0.3338022,0.23914805,0.4516839,-0.54698133,-0.68342125,0.056204624,795.38464,801.02563,798.60803,795.78754,599.9634,-0.12548828125,0.1058349609375,0.99078369140625,0.299072265625,-1.996307373046875,0.3887939453125,1,1.0,1.0,1.0,1.0,20.00
2024-09-29 18:19:14.496,1.0156568,-0.05791454,0.10061403,0.8469936,0.7620201,-0.05488769,-0.39853695,0.26313353,1.0960597,0.12179491,0.05882759,1.2484798,0.8169451,-0.25891915,-0.3338022,0.23914805,0.4516839,-0.54698133,-0.68342125,0.056204624,803.44324,802.6374,798.60803,799.011,650.7326,-0.12548828125,0.1058349609375,0.99078369140625,0.299072265625,-1.996307373046875,0.3887939453125,1,1.0,1.0,1.0,1.0,20.00
2024-09-29 18:19:14.497,1.0156568,-0.05791454,0.10061403,0.8469936,0.7620201,-0.05488769,-0.39853695,0.26313353,1.0960597,0.12179491,0.05882759,1.2484798,0.8169451,-0.25891915,-0.3338022,0.23914805,0.4516839,-0.54698133,-0.68342125,0.056204624,804.2491,796.99634,794.9817,795.78754,811.50183,-0.12548828125,0.1058349609375,0.99078369140625,0.299072265625,-1.996307373046875,0.3887939453125,1,1.0,1.0,1.0,1.0,20.00
2024-09-29 18:19:14.497,1.0156568,-0.05791454,0.10061403,0.8469936,0.7620201,-0.05488769,-0.39853695,0.26313353,1.0960597,0.12179491,0.05882759,1.2484798,0.8169451,-0.25891915,-0.3338022,0.23914805,0.4516839,-0.54698133,-0.68342125,0.056204624,792.96704,796.1905,794.57874,788.5348,745.0183,-0.12548828125,0.1058349609375,0.99078369140625,0.299072265625,-1.996307373046875,0.3887939453125,1,1.0,1.0,1.0,1.0,20.00
2024-09-29 18:19:14.498,1.0156568,-0.05791454,0.10061403,0.8469936,0.7620201,-0.05488769,-0.39853695,0.26313353,1.0960597,0.12179491,0.05882759,1.2484798,0.8169451,-0.25891915,-0.3338022,0.23914805,0.4516839,-0.54698133,-0.68342125,0.056204624,787.326,801.02563,796.5934,797.3993,686.99634,-0.12548828125,0.1058349609375,0.99078369140625,0.299072265625,-1.996307373046875,0.3887939453125,1,1.0,1.0,1.0,1.0,20.00
2024-09-29 18:19:14.498,1.0156568,-0.05791454,0.10061403,0.8469936,0.7620201,-0.05488769,-0.39853695,0.26313353,1.0960597,0.12179491,0.05882759,1.2484798,0.8169451,-0.25891915,-0.3338022,0.23914805,0.4516839,-0.54698133,-0.68342125,0.056204624,798.60803,799.41394,796.1905,802.6374,748.6447,-0.12548828125,0.1058349609375,0.99078369140625,0.299072265625,-1.996307373046875,0.3887939453125,1,1.0,1.0,1.0,1.0,20.00
2024-09-29 18:19:14.499,1.0156568,-0.05791454,0.10061403,0.8469936,0.7620201,-0.05488769,-0.39853695,0.26313353,1.0960597,0.12179491,0.05882759,1.2484798,0.8169451,-0.25891915,-0.3338022,0.23914805,0.4516839,-0.54698133,-0.68342125,0.056204624,791.75824,797.3993,790.54944,796.5934,880.80585,-0.12548828125,0.1058349609375,0.99078369140625,0.299072265625,-1.996307373046875,0.3887939453125,1,1.0,1.0,1.0,1.0,20.00
2024-09-29 18:19:14.499,1.0156568,-0.05791454,0.10061403,0.8469936,0.7620201,-0.05488769,-0.39853695,0.26313353,1.0960597,0.12179491,0.05882759,1.2484798,0.8169451,-0.25891915,-0.3338022,0.23914805,0.4516839,-0.54698133,-0.68342125,0.056204624,793.36993,799.011,790.14655,800.2198,811.9048,-0.12548828125,0.1058349609375,0.99078369140625,0.299072265625,-1.996307373046875,0.3887939453125,1,1.0,1.0,1.0,1.0,20.00
2024-09-29 18:19:14.500,1.0264076,-0.104744874,0.14843689,0.84831077,0.78582555,-0.048104327,-0.39902806,0.25760317,1.093811,0.15836887,0.060240246,1.2376099,0.81444633,-0.27813,-0.3361637,0.2436086,0.45798862,-0.55928713,-0.67896307,0.04775801,800.2198,799.011,793.7729,801.02563,633.4066,-0.12548828125,0.1058349609375,0.99078369140625,0.299072265625,-1.996307373046875,0.3887939453125,1,1.0,1.0,1.0,1.0,20.00
2024-09-29 18:19:14.504,1.0264076,-0.104744874,0.14843689,0.84831077,0.78582555,-0.048104327,-0.39902806,0.25760317,1.093811,0.15836887,0.060240246,1.2376099,0.81444633,-0.27813,-0.3361637,0.2436086,0.45798862,-0.55928713,-0.67896307,0.04775801,807.8755,800.6227,796.5934,798.20514,717.2161,-0.12548828125,0.1058349609375,0.99078369140625,0.299072265625,-1.996307373046875,0.3887939453125,1,1.0,1.0,1.0,1.0,20.00
2024-09-29 18:19:14.505,1.0264076,-0.104744874,0.14843689,0.84831077,0.78582555,-0.048104327,-0.39902806,0.25760317,1.093811,0.15836887,0.060240246,1.2376099,0.81444633,-0.27813,-0.3361637,0.2436086,0.45798862,-0.55928713,-0.67896307,0.04775801,809.89014,802.23444,795.78754,809.4872,1120.5494,-0.12548828125,0.1058349609375,0.99078369140625,0.299072265625,-1.996307373046875,0.3887939453125,1,1.0,1.0,1.0,1.0,20.00
2024-09-29 18:19:14.506,1.0264076,-0.104744874,0.14843689,0.84831077,0.78582555,-0.048104327,-0.39902806,0.25760317,1.093811,0.15836887,0.060240246,1.2376099,0.81444633,-0.27813,-0.3361637,0.2436086,0.45798862,-0.55928713,-0.67896307,0.04775801,801.8315,799.81683,793.7729,809.0842,883.22345,-0.1258544921875,0.10955810546875,0.9947509765625,1.33087158203125,-2.071075439453125,1.353302001953125,1,1.0,1.0,1.0,1.0,20.00
2024-09-29 18:19:14.506,1.0264076,-0.104744874,0.14843689,0.84831077,0.78582555,-0.048104327,-0.39902806,0.25760317,1.093811,0.15836887,0.060240246,1.2376099,0.81444633,-0.27813,-0.3361637,0.2436086,0.45798862,-0.55928713,-0.67896307,0.04775801,806.6667,799.81683,794.57874,797.3993,528.6447,-0.1258544921875,0.10955810546875,0.9947509765625,1.33087158203125,-2.071075439453125,1.353302001953125,1,1.0,1.0,1.0,1.0,20.00
2024-09-29 18:19:14.507,1.0264076,-0.104744874,0.14843689,0.84831077,0.78582555,-0.048104327,-0.39902806,0.25760317,1.093811,0.15836887,0.060240246,1.2376099,0.81444633,-0.27813,-0.3361637,0.2436086,0.45798862,-0.55928713,-0.67896307,0.04775801,802.23444,803.8461,794.9817,791.3553,621.7216,-0.1258544921875,0.10955810546875,0.9947509765625,1.33087158203125,-2.071075439453125,1.353302001953125,1,1.0,1.0,1.0,1.0,20.00
2024-09-29 18:19:14.507,1.0264076,-0.104744874,0.14843689,0.84831077,0.78582555,-0.048104327,-0.39902806,0.25760317,1.093811,0.15836887,0.060240246,1.2376099,0.81444633,-0.27813,-0.3361637,0.2436086,0.45798862,-0.55928713,-0.67896307,0.04775801,799.81683,802.6374,796.5934,787.72894,684.17584,-0.1258544921875,0.10955810546875,0.9947509765625,1.33087158203125,-2.071075439453125,1.353302001953125,1,1.0,1.0,1.0,1.0,20.00
2024-09-29 18:19:14.508,1.0264076,-0.104744874,0.14843689,0.84831077,0.78582555,-0.048104327,-0.39902806,0.25760317,1.093811,0.15836887,0.060240246,1.2376099,0.81444633,-0.27813,-0.3361637,0.2436086,0.45798862,-0.55928713,-0.67896307,0.04775801,807.47253,797.3993,794.17584,788.93774,678.1319,-0.1258544921875,0.10955810546875,0.9947509765625,1.33087158203125,-2.071075439453125,1.353302001953125,1,1.0,1.0,1.0,1.0,20.00
2024-09-29 18:19:14.509,1.0264076,-0.104744874,0.14843689,0.84831077,0.78582555,-0.048104327,-0.39902806,0.25760317,1.093811,0.15836887,0.060240246,1.2376099,0.81444633,-0.27813,-0.3361637,0.2436086,0.45798862,-0.55928713,-0.67896307,0.04775801,809.4872,800.2198,796.1905,796.1905,810.293,-0.1258544921875,0.10955810546875,0.9947509765625,1.33087158203125,-2.071075439453125,1.353302001953125,1,1.0,1.0,1.0,1.0,20.00
2024-09-29 18:19:14.509,1.0264076,-0.104744874,0.14843689,0.84831077,0.78582555,-0.048104327,-0.39902806,0.25760317,1.093811,0.15836887,0.060240246,1.2376099,0.81444633,-0.27813,-0.3361637,0.2436086,0.45798862,-0.55928713,-0.67896307,0.04775801,805.4579,798.60803,800.6227,793.36993,895.7143,-0.1258544921875,0.10955810546875,0.9947509765625,1.33087158203125,-2.071075439453125,1.353302001953125,1,1.0,1.0,1.0,1.0,20.00
2024-09-29 18:19:14.510,1.0264076,-0.104744874,0.14843689,0.84831077,0.78582555,-0.048104327,-0.39902806,0.25760317,1.093811,0.15836887,0.060240246,1.2376099,0.81444633,-0.27813,-0.3361637,0.2436086,0.45798862,-0.55928713,-0.67896307,0.04775801,811.50183,800.6227,797.8022,793.36993,698.2784,-0.1258544921875,0.10955810546875,0.9947509765625,1.33087158203125,-2.071075439453125,1.353302001953125,1,1.0,1.0,1.0,1.0,20.00
2024-09-29 18:19:14.510,1.0264076,-0.104744874,0.14843689,0.84831077,0.78582555,-0.048104327,-0.39902806,0.25760317,1.093811,0.15836887,0.060240246,1.2376099,0.81444633,-0.27813,-0.3361637,0.2436086,0.45798862,-0.55928713,-0.67896307,0.04775801,817.9487,803.8461,793.36993,800.6227,597.1429,-0.1258544921875,0.10955810546875,0.9947509765625,1.33087158203125,-2.071075439453125,1.353302001953125,1,1.0,1.0,1.0,1.0,20.00
2024-09-29 18:19:14.511,1.0264076,-0.104744874,0.14843689,0.84831077,0.78582555,-0.048104327,-0.39902806,0.25760317,1.093811,0.15836887,0.060240246,1.2376099,0.81444633,-0.27813,-0.3361637,0.2436086,0.45798862,-0.55928713,-0.67896307,0.04775801,818.3516,803.44324,796.99634,801.02563,709.9634,-0.1258544921875,0.10955810546875,0.9947509765625,1.33087158203125,-2.071075439453125,1.353302001953125,1,1.0,1.0,1.0,1.0,20.00
2024-09-29 18:19:14.511,1.0264076,-0.104744874,0.14843689,0.84831077,0.78582555,-0.048104327,-0.39902806,0.25760317,1.093811,0.15836887,0.060240246,1.2376099,0.81444633,-0.27813,-0.3361637,0.2436086,0.45798862,-0.55928713,-0.67896307,0.04775801,815.9341,805.4579,798.60803,806.6667,793.36993,-0.1258544921875,0.10955810546875,0.9947509765625,1.33087158203125,-2.071075439453125,1.353302001953125,1,1.0,1.0,1.0,1.0,20.00
2024-09-29 18:19:14.512,1.0264076,-0.104744874,0.14843689,0.84831077,0.78582555,-0.048104327,-0.39902806,0.25760317,1.093811,0.15836887,0.060240246,1.2376099,0.81444633,-0.27813,-0.3361637,0.2436086,0.45798862,-0.55928713,-0.67896307,0.04775801,805.05493,805.4579,799.81683,805.05493,597.5458,-0.1258544921875,0.10955810546875,0.9947509765625,1.33087158203125,-2.071075439453125,1.353302001953125,1,1.0,1.0,1.0,1.0,20.00
2024-09-29 18:19:14.512,1.0264076,-0.104744874,0.14843689,0.84831077,0.78582555,-0.048104327,-0.39902806,0.25760317,1.093811,0.15836887,0.060240246,1.2376099,0.81444633,-0.27813,-0.3361637,0.2436086,0.45798862,-0.55928713,-0.67896307,0.04775801,806.6667,802.23444,805.05493,806.6667,573.7729,-0.13348388671875,0.11077880859375,0.99310302734375,0.40374755859375,-1.532745361328125,1.8841552734375,1,1.0,1.0,1.0,1.0,20.00
2024-09-29 18:19:14.513,1.0264076,-0.104744874,0.14843689,0.84831077,0.78582555,-0.048104327,-0.39902806,0.25760317,1.093811,0.15836887,0.060240246,1.2376099,0.81444633,-0.27813,-0.3361637,0.2436086,0.45798862,-0.55928713,-0.67896307,0.04775801,811.50183,800.6227,804.2491,807.8755,838.0952,-0.13348388671875,0.11077880859375,0.99310302734375,0.40374755859375,-1.532745361328125,1.8841552734375,1,1.0,1.0,1.0,1.0,20.00
2024-09-29 18:19:14.514,1.0264076,-0.104744874,0.14843689,0.84831077,0.78582555,-0.048104327,-0.39902806,0.25760317,1.093811,0.15836887,0.060240246,1.2376099,0.81444633,-0.27813,-0.3361637,0.2436086,0.45798862,-0.55928713,-0.67896307,0.04775801,812.3077,804.2491,799.011,806.6667,1016.5934,-0.13348388671875,0.11077880859375,0.99310302734375,0.40374755859375,-1.532745361328125,1.8841552734375,1,1.0,1.0,1.0,1.0,20.00
2024-09-29 18:19:14.514,1.0264076,-0.104744874,0.14843689,0.84831077,0.78582555,-0.048104327,-0.39902806,0.25760317,1.093811,0.15836887,0.060240246,1.2376099,0.81444633,-0.27813,-0.3361637,0.2436086,0.45798862,-0.55928713,-0.67896307,0.04775801,801.02563,805.4579,798.60803,802.23444,831.6484,-0.13348388671875,0.11077880859375,0.99310302734375,0.40374755859375,-1.532745361328125,1.8841552734375,1,1.0,1.0,1.0,1.0,20.00
2024-09-29 18:19:14.515,1.0264076,-0.104744874,0.14843689,0.84831077,0.78582555,-0.048104327,-0.39902806,0.25760317,1.093811,0.15836887,0.060240246,1.2376099,0.81444633,-0.27813,-0.3361637,0.2436086,0.45798862,-0.55928713,-0.67896307,0.04775801,805.8608,810.696,796.99634,801.8315,591.0989,-0.13348388671875,0.11077880859375,0.99310302734375,0.40374755859375,-1.532745361328125,1.8841552734375,1,1.0,1.0,1.0,1.0,20.00
2024-09-29 18:19:14.515,1.0264076,-0.104744874,0.14843689,0.84831077,0.78582555,-0.048104327,-0.39902806,0.25760317,1.093811,0.15836887,0.060240246,1.2376099,0.81444633,-0.27813,-0.3361637,0.2436086,0.45798862,-0.55928713,-0.67896307,0.04775801,813.5165,811.0989,797.3993,805.8608,828.022,-0.13348388671875,0.11077880859375,0.99310302734375,0.40374755859375,-1.532745361328125,1.8841552734375,1,1.0,1.0,1.0,1.0,20.00
2024-09-29 18:19:14.516,1.0264076,-0.104744874,0.14843689,0.84831077,0.78582555,-0.048104327,-0.39902806,0.25760317,1.093811,0.15836887,0.060240246,1.2376099,0.81444633,-0.27813,-0.3361637,0.2436086,0.45798862,-0.55928713,-0.67896307,0.04775801,799.41394,801.8315,799.81683,807.0696,1042.7839,-0.13348388671875,0.11077880859375,0.99310302734375,0.40374755859375,-1.532745361328125,1.8841552734375,1,1.0,1.0,1.0,1.0,20.00
2024-09-29 18:19:14.516,1.0264076,-0.104744874,0.14843689,0.84831077,0.78582555,-0.048104327,-0.39902806,0.25760317,1.093811,0.15836887,0.060240246,1.2376099,0.81444633,-0.27813,-0.3361637,0.2436086,0.45798862,-0.55928713,-0.67896307,0.04775801,792.1612,803.8461,802.6374,805.8608,794.17584,-0.13348388671875,0.11077880859375,0.99310302734375,0.40374755859375,-1.532745361328125,1.8841552734375,1,1.0,1.0,1.0,1.0,20.00
2024-09-29 18:19:14.517,1.0264076,-0.104744874,0.14843689,0.84831077,0.78582555,-0.048104327,-0.39902806,0.25760317,1.093811,0.15836887,0.060240246,1.2376099,0.81444633,-0.27813,-0.3361637,0.2436086,0.45798862,-0.55928713,-0.67896307,0.04775801,786.9231,804.65204,802.6374,805.4579,624.94507,-0.13348388671875,0.11077880859375,0.99310302734375,0.40374755859375,-1.532745361328125,1.8841552734375,1,1.0,1.0,1.0,1.0,20.00
2024-09-29 18:19:14.517,1.0264076,-0.104744874,0.14843689,0.84831077,0.78582555,-0.048104327,-0.39902806,0.25760317,1.093811,0.15836887,0.060240246,1.2376099,0.81444633,-0.27813,-0.3361637,0.2436086,0.45798862,-0.55928713,-0.67896307,0.04775801,788.1319,802.23444,801.8315,812.3077,754.68866,-0.13348388671875,0.11077880859375,0.99310302734375,0.40374755859375,-1.532745361328125,1.8841552734375,1,1.0,1.0,1.0,1.0,20.00
2024-09-29 18:19:14.518,1.0264076,-0.104744874,0.14843689,0.84831077,0.78582555,-0.048104327,-0.39902806,0.25760317,1.093811,0.15836887,0.060240246,1.2376099,0.81444633,-0.27813,-0.3361637,0.2436086,0.45798862,-0.55928713,-0.67896307,0.04775801,796.99634,803.0403,805.8608,823.1868,1106.044,-0.13348388671875,0.11077880859375,0.99310302734375,0.40374755859375,-1.532745361328125,1.8841552734375,1,1.0,1.0,1.0,1.0,20.00
2024-09-29 18:19:14.518,1.0150546,-0.12330271,0.18946715,0.8437608,0.8113403,-0.033295948,-0.3910126,0.24794208,1.093811,0.18517306,0.05646939,1.2328137,0.80949336,-0.29729462,-0.33785164,0.24686952,0.4607301,-0.5778731,-0.671196,0.037727468,799.41394,804.2491,809.0842,813.91943,923.1135,-0.13348388671875,0.11077880859375,0.99310302734375,0.40374755859375,-1.532745361328125,1.8841552734375,1,1.0,1.0,1.0,1.0,20.00
2024-09-29 18:19:14.612,1.0150546,-0.12330271,0.18946715,0.8437608,0.8113403,-0.033295948,-0.3910126,0.24794208,1.093811,0.18517306,0.05646939,1.2328137,0.80949336,-0.29729462,-0.33785164,0.24686952,0.4607301,-0.5778731,-0.671196,0.037727468,807.8755,809.89014,804.65204,801.02563,558.46155,-0.13348388671875,0.11077880859375,0.99310302734375,0.40374755859375,-1.532745361328125,1.8841552734375,1,1.0,1.0,1.0,1.0,20.00
2024-09-29 18:19:14.613,1.0150546,-0.12330271,0.18946715,0.8437608,0.8113403,-0.033295948,-0.3910126,0.24794208,1.093811,0.18517306,0.05646939,1.2328137,0.80949336,-0.29729462,-0.33785164,0.24686952,0.4607301,-0.5778731,-0.671196,0.037727468,812.3077,807.8755,801.8315,802.6374,703.5165,-0.13348388671875,0.11077880859375,0.99310302734375,0.40374755859375,-1.532745361328125,1.8841552734375,1,1.0,1.0,1.0,1.0,20.00
2024-09-29 18:19:14.613,1.0150546,-0.12330271,0.18946715,0.8437608,0.8113403,-0.033295948,-0.3910126,0.24794208,1.093811,0.18517306,0.05646939,1.2328137,0.80949336,-0.29729462,-0.33785164,0.24686952,0.4607301,-0.5778731,-0.671196,0.037727468,806.26373,801.8315,802.6374,806.26373,1118.5348,-0.13348388671875,0.11077880859375,0.99310302734375,0.40374755859375,-1.532745361328125,1.8841552734375,1,1.0,1.0,1.0,1.0,20.00
2024-09-29 18:19:14.614,1.0150546,-0.12330271,0.18946715,0.8437608,0.8113403,-0.033295948,-0.3910126,0.24794208,1.093811,0.18517306,0.05646939,1.2328137,0.80949336,-0.29729462,-0.33785164,0.24686952,0.4607301,-0.5778731,-0.671196,0.037727468,802.23444,800.2198,795.38464,805.4579,1230.9524,-0.13348388671875,0.11077880859375,0.99310302734375,0.40374755859375,-1.532745361328125,1.8841552734375,1,1.0,1.0,1.0,1.0,20.00
2024-09-29 18:19:14.614,1.0150546,-0.12330271,0.18946715,0.8437608,0.8113403,-0.033295948,-0.3910126,0.24794208,1.093811,0.18517306,0.05646939,1.2328137,0.80949336,-0.29729462,-0.33785164,0.24686952,0.4607301,-0.5778731,-0.671196,0.037727468,788.93774,797.3993,795.78754,797.8022,893.2967,-0.13348388671875,0.11077880859375,0.99310302734375,0.40374755859375,-1.532745361328125,1.8841552734375,1,1.0,1.0,1.0,1.0,20.00
2024-09-29 18:19:14.615,1.0150546,-0.12330271,0.18946715,0.8437608,0.8113403,-0.033295948,-0.3910126,0.24794208,1.093811,0.18517306,0.05646939,1.2328137,0.80949336,-0.29729462,-0.33785164,0.24686952,0.4607301,-0.5778731,-0.671196,0.037727468,777.25275,800.2198,796.5934,795.78754,921.0989,-0.13348388671875,0.11077880859375,0.99310302734375,0.40374755859375,-1.532745361328125,1.8841552734375,1,1.0,1.0,1.0,1.0,20.00
2024-09-29 18:19:14.616,1.0150546,-0.12330271,0.18946715,0.8437608,0.8113403,-0.033295948,-0.3910126,0.24794208,1.093811,0.18517306,0.05646939,1.2328137,0.80949336,-0.29729462,-0.33785164,0.24686952,0.4607301,-0.5778731,-0.671196,0.037727468,785.31134,805.8608,796.5934,804.65204,1229.3407,-0.13348388671875,0.11077880859375,0.99310302734375,0.40374755859375,-1.532745361328125,1.8841552734375,1,1.0,1.0,1.0,1.0,20.00
2024-09-29 18:19:14.616,1.0150546,-0.12330271,0.18946715,0.8437608,0.8113403,-0.033295948,-0.3910126,0.24794208,1.093811,0.18517306,0.05646939,1.2328137,0.80949336,-0.29729462,-0.33785164,0.24686952,0.4607301,-0.5778731,-0.671196,0.037727468,790.9524,803.0403,800.6227,793.7729,734.5421,-0.13348388671875,0.11077880859375,0.99310302734375,0.40374755859375,-1.532745361328125,1.8841552734375,1,1.0,1.0,1.0,1.0,20.00
2024-09-29 18:19:14.617,1.0150546,-0.12330271,0.18946715,0.8437608,0.8113403,-0.033295948,-0.3910126,0.24794208,1.093811,0.18517306,0.05646939,1.2328137,0.80949336,-0.29729462,-0.33785164,0.24686952,0.4607301,-0.5778731,-0.671196,0.037727468,791.3553,803.0403,800.2198,789.34064,472.63736,-0.13348388671875,0.11077880859375,0.99310302734375,0.40374755859375,-1.532745361328125,1.8841552734375,1,1.0,1.0,1.0,1.0,20.00
2024-09-29 18:19:14.617,1.0150546,-0.12330271,0.18946715,0.8437608,0.8113403,-0.033295948,-0.3910126,0.24794208,1.093811,0.18517306,0.05646939,1.2328137,0.80949336,-0.29729462,-0.33785164,0.24686952,0.4607301,-0.5778731,-0.671196,0.037727468,797.3993,804.2491,800.6227,802.6374,731.7216,-0.13348388671875,0.11077880859375,0.99310302734375,0.40374755859375,-1.532745361328125,1.8841552734375,1,1.0,1.0,1.0,1.0,20.00
2024-09-29 18:19:14.618,1.0150546,-0.12330271,0.18946715,0.8437608,0.8113403,-0.033295948,-0.3910126,0.24794208,1.093811,0.18517306,0.05646939,1.2328137,0.80949336,-0.29729462,-0.33785164,0.24686952,0.4607301,-0.5778731,-0.671196,0.037727468,807.0696,803.44324,799.41394,807.47253,729.707,-0.13348388671875,0.11077880859375,0.99310302734375,0.40374755859375,-1.532745361328125,1.8841552734375,1,1.0,1.0,1.0,1.0,20.00
2024-09-29 18:19:14.618,1.0150546,-0.12330271,0.18946715,0.8437608,0.8113403,-0.033295948,-0.3910126,0.24794208,1.093811,0.18517306,0.05646939,1.2328137,0.80949336,-0.29729462,-0.33785164,0.24686952,0.4607301,-0.5778731,-0.671196,0.037727468,815.12823,804.2491,797.3993,806.6667,646.30035,-0.13348388671875,0.11077880859375,0.99310302734375,0.40374755859375,-1.532745361328125,1.8841552734375,1,1.0,1.0,1.0,1.0,20.00
2024-09-29 18:19:14.749,1.0150546,-0.12330271,0.18946715,0.8437608,0.8113403,-0.033295948,-0.3910126,0.24794208,1.093811,0.18517306,0.05646939,1.2328137,0.80949336,-0.29729462,-0.33785164,0.24686952,0.4607301,-0.5778731,-0.671196,0.037727468,818.7546,804.65204,800.2198,800.6227,618.49817,-0.13311767578125,0.1204833984375,0.99700927734375,0.485992431640625,-4.14215087890625,2.1234130859375,1,1.0,1.0,1.0,1.0,20.00
2024-09-29 18:19:14.750,1.0150546,-0.12330271,0.18946715,0.8437608,0.8113403,-0.033295948,-0.3910126,0.24794208,1.093811,0.18517306,0.05646939,1.2328137,0.80949336,-0.29729462,-0.33785164,0.24686952,0.4607301,-0.5778731,-0.671196,0.037727468,810.293,805.8608,796.99634,797.8022,729.304,-0.13311767578125,0.1204833984375,0.99700927734375,0.485992431640625,-4.14215087890625,2.1234130859375,1,1.0,1.0,1.0,1.0,20.00
2024-09-29 18:19:14.750,1.0150546,-0.12330271,0.18946715,0.8437608,0.8113403,-0.033295948,-0.3910126,0.24794208,1.093811,0.18517306,0.05646939,1.2328137,0.80949336,-0.29729462,-0.33785164,0.24686952,0.4607301,-0.5778731,-0.671196,0.037727468,807.8755,802.6374,794.9817,808.2784,821.5751,-0.13311767578125,0.1204833984375,0.99700927734375,0.485992431640625,-4.14215087890625,2.1234130859375,1,1.0,1.0,1.0,1.0,20.00
2024-09-29 18:19:14.751,1.0150546,-0.12330271,0.18946715,0.8437608,0.8113403,-0.033295948,-0.3910126,0.24794208,1.093811,0.18517306,0.05646939,1.2328137,0.80949336,-0.29729462,-0.33785164,0.24686952,0.4607301,-0.5778731,-0.671196,0.037727468,808.68134,799.011,796.5934,812.71063,760.7326,-0.13311767578125,0.1204833984375,0.99700927734375,0.485992431640625,-4.14215087890625,2.1234130859375,1,1.0,1.0,1.0,1.0,20.00
2024-09-29 18:19:14.751,1.0150546,-0.12330271,0.18946715,0.8437608,0.8113403,-0.033295948,-0.3910126,0.24794208,1.093811,0.18517306,0.05646939,1.2328137,0.80949336,-0.29729462,-0.33785164,0.24686952,0.4607301,-0.5778731,-0.671196,0.037727468,812.71063,796.5934,795.38464,810.293,639.0476,-0.13311767578125,0.1204833984375,0.99700927734375,0.485992431640625,-4.14215087890625,2.1234130859375,1,1.0,1.0,1.0,1.0,20.00
2024-09-29 18:19:14.752,1.0150546,-0.12330271,0.18946715,0.8437608,0.8113403,-0.033295948,-0.3910126,0.24794208,1.093811,0.18517306,0.05646939,1.2328137,0.80949336,-0.29729462,-0.33785164,0.24686952,0.4607301,-0.5778731,-0.671196,0.037727468,806.6667,794.9817,791.75824,806.6667,784.5055,-0.13311767578125,0.1204833984375,0.99700927734375,0.485992431640625,-4.14215087890625,2.1234130859375,1,1.0,1.0,1.0,1.0,20.00
2024-09-29 18:19:14.753,1.0150546,-0.12330271,0.18946715,0.8437608,0.8113403,-0.033295948,-0.3910126,0.24794208,1.093811,0.18517306,0.05646939,1.2328137,0.80949336,-0.29729462,-0.33785164,0.24686952,0.4607301,-0.5778731,-0.671196,0.037727468,799.011,798.20514,793.7729,816.337,850.58606,-0.13311767578125,0.1204833984375,0.99700927734375,0.485992431640625,-4.14215087890625,2.1234130859375,1,1.0,1.0,1.0,1.0,20.00
2024-09-29 18:19:14.753,1.0150546,-0.12330271,0.18946715,0.8437608,0.8113403,-0.033295948,-0.3910126,0.24794208,1.093811,0.18517306,0.05646939,1.2328137,0.80949336,-0.29729462,-0.33785164,0.24686952,0.4607301,-0.5778731,-0.671196,0.037727468,803.8461,795.78754,793.36993,816.337,800.2198,-0.13311767578125,0.1204833984375,0.99700927734375,0.485992431640625,-4.14215087890625,2.1234130859375,1,1.0,1.0,1.0,1.0,20.00
2024-09-29 18:19:14.754,1.0150546,-0.12330271,0.18946715,0.8437608,0.8113403,-0.033295948,-0.3910126,0.24794208,1.093811,0.18517306,0.05646939,1.2328137,0.80949336,-0.29729462,-0.33785164,0.24686952,0.4607301,-0.5778731,-0.671196,0.037727468,808.68134,791.75824,790.54944,809.4872,858.6447,-0.13311767578125,0.1204833984375,0.99700927734375,0.485992431640625,-4.14215087890625,2.1234130859375,1,1.0,1.0,1.0,1.0,20.00
2024-09-29 18:19:14.754,1.0150546,-0.12330271,0.18946715,0.8437608,0.8113403,-0.033295948,-0.3910126,0.24794208,1.093811,0.18517306,0.05646939,1.2328137,0.80949336,-0.29729462,-0.33785164,0.24686952,0.4607301,-0.5778731,-0.671196,0.037727468,819.5604,793.36993,788.5348,806.26373,882.8205,-0.13311767578125,0.1204833984375,0.99700927734375,0.485992431640625,-4.14215087890625,2.1234130859375,1,1.0,1.0,1.0,1.0,20.00
2024-09-29 18:19:14.755,1.0150546,-0.12330271,0.18946715,0.8437608,0.8113403,-0.033295948,-0.3910126,0.24794208,1.093811,0.18517306,0.05646939,1.2328137,0.80949336,-0.29729462,-0.33785164,0.24686952,0.4607301,-0.5778731,-0.671196,0.037727468,817.9487,792.5641,786.9231,799.011,724.87177,-0.13311767578125,0.1204833984375,0.99700927734375,0.485992431640625,-4.14215087890625,2.1234130859375,1,1.0,1.0,1.0,1.0,20.00
2024-09-29 18:19:14.755,1.0150546,-0.12330271,0.18946715,0.8437608,0.8113403,-0.033295948,-0.3910126,0.24794208,1.093811,0.18517306,0.05646939,1.2328137,0.80949336,-0.29729462,-0.33785164,0.24686952,0.4607301,-0.5778731,-0.671196,0.037727468,799.41394,792.1612,788.93774,799.011,677.326,-0.13311767578125,0.1204833984375,0.99700927734375,0.485992431640625,-4.14215087890625,2.1234130859375,1,1.0,1.0,1.0,1.0,20.00
2024-09-29 18:19:14.846,1.0150546,-0.12330271,0.18946715,0.8437608,0.8113403,-0.033295948,-0.3910126,0.24794208,1.093811,0.18517306,0.05646939,1.2328137,0.80949336,-0.29729462,-0.33785164,0.24686952,0.4607301,-0.5778731,-0.671196,0.037727468,794.57874,793.7729,791.75824,797.8022,786.52014,-0.1279296875,0.1175537109375,0.99639892578125,-1.069183349609375,-5.674896240234375,1.55517578125,1,1.0,1.0,1.0,1.0,20.00
2024-09-29 18:19:14.847,0.98667705,-0.099911466,0.22787596,0.84007263,0.8338706,-0.0181999,-0.37694404,0.2363505,1.093811,0.19054604,0.05960287,1.2328137,0.8019379,-0.31383544,-0.33039743,0.24936898,0.4628855,-0.5970376,-0.6626196,0.025868967,798.60803,793.36993,795.38464,794.9817,932.381,-0.1279296875,0.1175537109375,0.99639892578125,-1.069183349609375,-5.674896240234375,1.55517578125,1,1.0,1.0,1.0,1.0,20.00
2024-09-29 18:19:14.852,0.98667705,-0.099911466,0.22787596,0.84007263,0.8338706,-0.0181999,-0.37694404,0.2363505,1.093811,0.19054604,0.05960287,1.2328137,0.8019379,-0.31383544,-0.33039743,0.24936898,0.4628855,-0.5970376,-0.6626196,0.025868967,799.011,792.5641,793.36993,792.96704,753.0769,-0.1279296875,0.1175537109375,0.99639892578125,-1.069183349609375,-5.674896240234375,1.55517578125,1,1.0,1.0,1.0,1.0,20.00
2024-09-29 18:19:14.852,0.98667705,-0.099911466,0.22787596,0.84007263,0.8338706,-0.0181999,-0.37694404,0.2363505,1.093811,0.19054604,0.05960287,1.2328137,0.8019379,-0.31383544,-0.33039743,0.24936898,0.4628855,-0.5970376,-0.6626196,0.025868967,798.60803,796.5934,793.36993,796.5934,644.2857,-0.1279296875,0.1175537109375,0.99639892578125,-1.069183349609375,-5.674896240234375,1.55517578125,1,1.0,1.0,1.0,1.0,20.00
2024-09-29 18:19:14.853,0.98667705,-0.099911466,0.22787596,0.84007263,0.8338706,-0.0181999,-0.37694404,0.2363505,1.093811,0.19054604,0.05960287,1.2328137,0.8019379,-0.31383544,-0.33039743,0.24936898,0.4628855,-0.5970376,-0.6626196,0.025868967,801.8315,799.81683,796.99634,802.6374,775.2381,-0.1279296875,0.1175537109375,0.99639892578125,-1.069183349609375,-5.674896240234375,1.55517578125,1,1.0,1.0,1.0,1.0,20.00
2024-09-29 18:19:14.854,0.98667705,-0.099911466,0.22787596,0.84007263,0.8338706,-0.0181999,-0.37694404,0.2363505,1.093811,0.19054604,0.05960287,1.2328137,0.8019379,-0.31383544,-0.33039743,0.24936898,0.4628855,-0.5970376,-0.6626196,0.025868967,809.0842,797.8022,791.75824,798.60803,817.1429,-0.1279296875,0.1175537109375,0.99639892578125,-1.069183349609375,-5.674896240234375,1.55517578125,1,1.0,1.0,1.0,1.0,20.00
2024-09-29 18:19:14.854,0.98667705,-0.099911466,0.22787596,0.84007263,0.8338706,-0.0181999,-0.37694404,0.2363505,1.093811,0.19054604,0.05960287,1.2328137,0.8019379,-0.31383544,-0.33039743,0.24936898,0.4628855,-0.5970376,-0.6626196,0.025868967,815.5311,796.5934,786.9231,792.1612,722.0513,-0.1279296875,0.1175537109375,0.99639892578125,-1.069183349609375,-5.674896240234375,1.55517578125,1,1.0,1.0,1.0,1.0,20.00
2024-09-29 18:19:14.855,0.98667705,-0.099911466,0.22787596,0.84007263,0.8338706,-0.0181999,-0.37694404,0.2363505,1.093811,0.19054604,0.05960287,1.2328137,0.8019379,-0.31383544,-0.33039743,0.24936898,0.4628855,-0.5970376,-0.6626196,0.025868967,816.337,794.17584,785.7143,794.57874,749.0476,-0.1279296875,0.1175537109375,0.99639892578125,-1.069183349609375,-5.674896240234375,1.55517578125,1,1.0,1.0,1.0,1.0,20.00
2024-09-29 18:19:14.855,0.98667705,-0.099911466,0.22787596,0.84007263,0.8338706,-0.0181999,-0.37694404,0.2363505,1.093811,0.19054604,0.05960287,1.2328137,0.8019379,-0.31383544,-0.33039743,0.24936898,0.4628855,-0.5970376,-0.6626196,0.025868967,820.3663,790.9524,788.1319,797.3993,858.24176,-0.1279296875,0.1175537109375,0.99639892578125,-1.069183349609375,-5.674896240234375,1.55517578125,1,1.0,1.0,1.0,1.0,20.00
2024-09-29 18:19:14.856,0.98667705,-0.099911466,0.22787596,0.84007263,0.8338706,-0.0181999,-0.37694404,0.2363505,1.093811,0.19054604,0.05960287,1.2328137,0.8019379,-0.31383544,-0.33039743,0.24936898,0.4628855,-0.5970376,-0.6626196,0.025868967,823.5897,791.75824,792.1612,797.8022,762.74725,-0.1279296875,0.1175537109375,0.99639892578125,-1.069183349609375,-5.674896240234375,1.55517578125,1,1.0,1.0,1.0,1.0,20.00
2024-09-29 18:19:14.856,0.98667705,-0.099911466,0.22787596,0.84007263,0.8338706,-0.0181999,-0.37694404,0.2363505,1.093811,0.19054604,0.05960287,1.2328137,0.8019379,-0.31383544,-0.33039743,0.24936898,0.4628855,-0.5970376,-0.6626196,0.025868967,816.337,793.36993,790.54944,796.99634,645.4945,-0.1279296875,0.1175537109375,0.99639892578125,-1.069183349609375,-5.674896240234375,1.55517578125,1,1.0,1.0,1.0,1.0,20.00
2024-09-29 18:19:14.857,0.98667705,-0.099911466,0.22787596,0.84007263,0.8338706,-0.0181999,-0.37694404,0.2363505,1.093811,0.19054604,0.05960287,1.2328137,0.8019379,-0.31383544,-0.33039743,0.24936898,0.4628855,-0.5970376,-0.6626196,0.025868967,812.71063,791.3553,788.1319,794.57874,686.1905,-0.1279296875,0.1175537109375,0.99639892578125,-1.069183349609375,-5.674896240234375,1.55517578125,1,1.0,1.0,1.0,1.0,20.00
2024-09-29 18:19:14.982,0.98667705,-0.099911466,0.22787596,0.84007263,0.8338706,-0.0181999,-0.37694404,0.2363505,1.093811,0.19054604,0.05960287,1.2328137,0.8019379,-0.31383544,-0.33039743,0.24936898,0.4628855,-0.5970376,-0.6626196,0.025868967,804.65204,787.326,788.1319,801.02563,946.08057,-0.104248046875,0.11016845703125,0.99688720703125,0.13458251953125,-3.828125,-0.0897216796875,1,1.0,1.0,1.0,1.0,20.00
2024-09-29 18:19:14.983,0.98667705,-0.099911466,0.22787596,0.84007263,0.8338706,-0.0181999,-0.37694404,0.2363505,1.093811,0.19054604,0.05960287,1.2328137,0.8019379,-0.31383544,-0.33039743,0.24936898,0.4628855,-0.5970376,-0.6626196,0.025868967,793.7729,790.54944,790.9524,796.5934,837.6923,-0.104248046875,0.11016845703125,0.99688720703125,0.13458251953125,-3.828125,-0.0897216796875,1,1.0,1.0,1.0,1.0,20.00
2024-09-29 18:19:14.984,0.98667705,-0.099911466,0.22787596,0.84007263,0.8338706,-0.0181999,-0.37694404,0.2363505,1.093811,0.19054604,0.05960287,1.2328137,0.8019379,-0.31383544,-0.33039743,0.24936898,0.4628855,-0.5970376,-0.6626196,0.025868967,796.99634,790.14655,792.1612,795.78754,606.4103,-0.104248046875,0.11016845703125,0.99688720703125,0.13458251953125,-3.828125,-0.0897216796875,1,1.0,1.0,1.0,1.0,20.00
2024-09-29 18:19:14.984,0.98667705,-0.099911466,0.22787596,0.84007263,0.8338706,-0.0181999,-0.37694404,0.2363505,1.093811,0.19054604,0.05960287,1.2328137,0.8019379,-0.31383544,-0.33039743,0.24936898,0.4628855,-0.5970376,-0.6626196,0.025868967,796.5934,788.93774,791.3553,807.8755,741.39197,-0.104248046875,0.11016845703125,0.99688720703125,0.13458251953125,-3.828125,-0.0897216796875,1,1.0,1.0,1.0,1.0,20.00
2024-09-29 18:19:14.985,0.98667705,-0.099911466,0.22787596,0.84007263,0.8338706,-0.0181999,-0.37694404,0.2363505,1.093811,0.19054604,0.05960287,1.2328137,0.8019379,-0.31383544,-0.33039743,0.24936898,0.4628855,-0.5970376,-0.6626196,0.025868967,792.1612,792.5641,790.54944,813.5165,990.0,-0.104248046875,0.11016845703125,0.99688720703125,0.13458251953125,-3.828125,-0.0897216796875,1,1.0,1.0,1.0,1.0,20.00
2024-09-29 18:19:14.986,0.98667705,-0.099911466,0.22787596,0.84007263,0.8338706,-0.0181999,-0.37694404,0.2363505,1.093811,0.19054604,0.05960287,1.2328137,0.8019379,-0.31383544,-0.33039743,0.24936898,0.4628855,-0.5970376,-0.6626196,0.025868967,792.96704,792.96704,788.93774,805.8608,1021.02563,-0.104248046875,0.11016845703125,0.99688720703125,0.13458251953125,-3.828125,-0.0897216796875,1,1.0,1.0,1.0,1.0,20.00
2024-09-29 18:19:14.986,0.98667705,-0.099911466,0.22787596,0.84007263,0.8338706,-0.0181999,-0.37694404,0.2363505,1.093811,0.19054604,0.05960287,1.2328137,0.8019379,-0.31383544,-0.33039743,0.24936898,0.4628855,-0.5970376,-0.6626196,0.025868967,803.0403,793.36993,789.7436,803.8461,929.5604,-0.104248046875,0.11016845703125,0.99688720703125,0.13458251953125,-3.828125,-0.0897216796875,1,1.0,1.0,1.0,1.0,20.00
2024-09-29 18:19:14.987,0.98667705,-0.099911466,0.22787596,0.84007263,0.8338706,-0.0181999,-0.37694404,0.2363505,1.093811,0.19054604,0.05960287,1.2328137,0.8019379,-0.31383544,-0.33039743,0.24936898,0.4628855,-0.5970376,-0.6626196,0.025868967,816.7399,792.5641,792.5641,811.50183,918.2784,-0.104248046875,0.11016845703125,0.99688720703125,0.13458251953125,-3.828125,-0.0897216796875,1,1.0,1.0,1.0,1.0,20.00
2024-09-29 18:19:14.987,0.98667705,-0.099911466,0.22787596,0.84007263,0.8338706,-0.0181999,-0.37694404,0.2363505,1.093811,0.19054604,0.05960287,1.2328137,0.8019379,-0.31383544,-0.33039743,0.24936898,0.4628855,-0.5970376,-0.6626196,0.025868967,817.5458,793.36993,794.9817,821.5751,1036.337,-0.104248046875,0.11016845703125,0.99688720703125,0.13458251953125,-3.828125,-0.0897216796875,1,1.0,1.0,1.0,1.0,20.00
2024-09-29 18:19:14.988,0.98667705,-0.099911466,0.22787596,0.84007263,0.8338706,-0.0181999,-0.37694404,0.2363505,1.093811,0.19054604,0.05960287,1.2328137,0.8019379,-0.31383544,-0.33039743,0.24936898,0.4628855,-0.5970376,-0.6626196,0.025868967,811.0989,796.1905,795.38464,822.7839,938.022,-0.104248046875,0.11016845703125,0.99688720703125,0.13458251953125,-3.828125,-0.0897216796875,1,1.0,1.0,1.0,1.0,20.00
2024-09-29 18:19:14.988,0.98667705,-0.099911466,0.22787596,0.84007263,0.8338706,-0.0181999,-0.37694404,0.2363505,1.093811,0.19054604,0.05960287,1.2328137,0.8019379,-0.31383544,-0.33039743,0.24936898,0.4628855,-0.5970376,-0.6626196,0.025868967,807.8755,794.17584,795.38464,816.7399,767.98535,-0.104248046875,0.11016845703125,0.99688720703125,0.13458251953125,-3.828125,-0.0897216796875,1,1.0,1.0,1.0,1.0,20.00
2024-09-29 18:19:14.989,0.98667705,-0.099911466,0.22787596,0.84007263,0.8338706,-0.0181999,-0.37694404,0.2363505,1.093811,0.19054604,0.05960287,1.2328137,0.8019379,-0.31383544,-0.33039743,0.24936898,0.4628855,-0.5970376,-0.6626196,0.025868967,811.9048,796.5934,794.57874,819.5604,819.5604,-0.104248046875,0.11016845703125,0.99688720703125,0.13458251953125,-3.828125,-0.0897216796875,1,1.0,1.0,1.0,1.0,20.00
2024-09-29 18:19:14.990,0.98667705,-0.099911466,0.22787596,0.84007263,0.8338706,-0.0181999,-0.37694404,0.2363505,1.093811,0.19054604,0.05960287,1.2328137,0.8019379,-0.31383544,-0.33039743,0.24936898,0.4628855,-0.5970376,-0.6626196,0.025868967,809.0842,800.6227,797.3993,816.337,1043.5897,-0.1123046875,0.1015625,0.99737548828125,0.366363525390625,-1.502838134765625,0.22430419921875,1,1.0,1.0,1.0,1.0,20.00
2024-09-29 18:19:14.990,0.98667705,-0.099911466,0.22787596,0.84007263,0.8338706,-0.0181999,-0.37694404,0.2363505,1.093811,0.19054604,0.05960287,1.2328137,0.8019379,-0.31383544,-0.33039743,0.24936898,0.4628855,-0.5970376,-0.6626196,0.025868967,809.0842,801.4286,801.02563,804.2491,1031.0989,-0.1123046875,0.1015625,0.99737548828125,0.366363525390625,-1.502838134765625,0.22430419921875,1,1.0,1.0,1.0,1.0,20.00
2024-09-29 18:19:14.991,0.98667705,-0.099911466,0.22787596,0.84007263,0.8338706,-0.0181999,-0.37694404,0.2363505,1.093811,0.19054604,0.05960287,1.2328137,0.8019379,-0.31383544,-0.33039743,0.24936898,0.4628855,-0.5970376,-0.6626196,0.025868967,814.7253,798.60803,797.3993,799.81683,801.8315,-0.1123046875,0.1015625,0.99737548828125,0.366363525390625,-1.502838134765625,0.22430419921875,1,1.0,1.0,1.0,1.0,20.00
2024-09-29 18:19:14.991,0.95489496,-0.07464798,0.26200297,0.8414566,0.8455654,-0.01108207,-0.36562935,0.22361392,1.0956318,0.19054604,0.05960287,1.2340997,0.788618,-0.32738337,-0.31395227,0.25589898,0.4627112,-0.6119729,-0.65615493,0.01366427,818.7546,798.20514,798.20514,801.02563,801.02563,-0.1123046875,0.1015625,0.99737548828125,0.366363525390625,-1.502838134765625,0.22430419921875,1,1.0,1.0,1.0,1.0,20.00
2024-09-29 18:19:14.996,0.95489496,-0.07464798,0.26200297,0.8414566,0.8455654,-0.01108207,-0.36562935,0.22361392,1.0956318,0.19054604,0.05960287,1.2340997,0.788618,-0.32738337,-0.31395227,0.25589898,0.4627112,-0.6119729,-0.65615493,0.01366427,817.1429,804.65204,800.2198,801.8315,911.02563,-0.1123046875,0.1015625,0.99737548828125,0.366363525390625,-1.502838134765625,0.22430419921875,1,1.0,1.0,1.0,1.0,20.00
2024-09-29 18:19:14.997,0.95489496,-0.07464798,0.26200297,0.8414566,0.8455654,-0.01108207,-0.36562935,0.22361392,1.0956318,0.19054604,0.05960287,1.2340997,0.788618,-0.32738337,-0.31395227,0.25589898,0.4627112,-0.6119729,-0.65615493,0.01366427,813.1135,804.65204,799.41394,803.8461,919.0842,-0.1123046875,0.1015625,0.99737548828125,0.366363525390625,-1.502838134765625,0.22430419921875,1,1.0,1.0,1.0,1.0,20.00
2024-09-29 18:19:14.997,0.95489496,-0.07464798,0.26200297,0.8414566,0.8455654,-0.01108207,-0.36562935,0.22361392,1.0956318,0.19054604,0.05960287,1.2340997,0.788618,-0.32738337,-0.31395227,0.25589898,0.4627112,-0.6119729,-0.65615493,0.01366427,807.0696,800.6227,795.78754,794.9817,939.2308,-0.1123046875,0.1015625,0.99737548828125,0.366363525390625,-1.502838134765625,0.22430419921875,1,1.0,1.0,1.0,1.0,20.00
2024-09-29 18:19:14.998,0.95489496,-0.07464798,0.26200297,0.8414566,0.8455654,-0.01108207,-0.36562935,0.22361392,1.0956318,0.19054604,0.05960287,1.2340997,0.788618,-0.32738337,-0.31395227,0.25589898,0.4627112,-0.6119729,-0.65615493,0.01366427,805.8608,801.4286,794.17584,794.9817,1056.8865,-0.1123046875,0.1015625,0.99737548828125,0.366363525390625,-1.502838134765625,0.22430419921875,1,1.0,1.0,1.0,1.0,20.00
2024-09-29 18:19:14.998,0.95489496,-0.07464798,0.26200297,0.8414566,0.8455654,-0.01108207,-0.36562935,0.22361392,1.0956318,0.19054604,0.05960287,1.2340997,0.788618,-0.32738337,-0.31395227,0.25589898,0.4627112,-0.6119729,-0.65615493,0.01366427,805.8608,801.8315,793.36993,798.20514,1001.28204,-0.1123046875,0.1015625,0.99737548828125,0.366363525390625,-1.502838134765625,0.22430419921875,1,1.0,1.0,1.0,1.0,20.00
2024-09-29 18:19:14.999,0.95489496,-0.07464798,0.26200297,0.8414566,0.8455654,-0.01108207,-0.36562935,0.22361392,1.0956318,0.19054604,0.05960287,1.2340997,0.788618,-0.32738337,-0.31395227,0.25589898,0.4627112,-0.6119729,-0.65615493,0.01366427,804.65204,798.60803,793.7729,800.6227,871.13556,-0.1123046875,0.1015625,0.99737548828125,0.366363525390625,-1.502838134765625,0.22430419921875,1,1.0,1.0,1.0,1.0,20.00
2024-09-29 18:19:14.999,0.95489496,-0.07464798,0.26200297,0.8414566,0.8455654,-0.01108207,-0.36562935,0.22361392,1.0956318,0.19054604,0.05960287,1.2340997,0.788618,-0.32738337,-0.31395227,0.25589898,0.4627112,-0.6119729,-0.65615493,0.01366427,806.26373,799.81683,798.20514,809.0842,818.7546,-0.1123046875,0.1015625,0.99737548828125,0.366363525390625,-1.502838134765625,0.22430419921875,1,1.0,1.0,1.0,1.0,20.00
2024-09-29 18:19:15.000,0.95489496,-0.07464798,0.26200297,0.8414566,0.8455654,-0.01108207,-0.36562935,0.22361392,1.0956318,0.19054604,0.05960287,1.2340997,0.788618,-0.32738337,-0.31395227,0.25589898,0.4627112,-0.6119729,-0.65615493,0.01366427,811.50183,801.4286,801.8315,815.5311,850.18317,-0.1123046875,0.1015625,0.99737548828125,0.366363525390625,-1.502838134765625,0.22430419921875,1,1.0,1.0,1.0,1.0,20.00
2024-09-29 18:19:15.000,0.95489496,-0.07464798,0.26200297,0.8414566,0.8455654,-0.01108207,-0.36562935,0.22361392,1.0956318,0.19054604,0.05960287,1.2340997,0.788618,-0.32738337,-0.31395227,0.25589898,0.4627112,-0.6119729,-0.65615493,0.01366427,812.3077,799.41394,799.41394,813.91943,792.5641,-0.1123046875,0.1015625,0.99737548828125,0.366363525390625,-1.502838134765625,0.22430419921875,1,1.0,1.0,1.0,1.0,20.00
2024-09-29 18:19:15.001,0.95489496,-0.07464798,0.26200297,0.8414566,0.8455654,-0.01108207,-0.36562935,0.22361392,1.0956318,0.19054604,0.05960287,1.2340997,0.788618,-0.32738337,-0.31395227,0.25589898,0.4627112,-0.6119729,-0.65615493,0.01366427,803.0403,799.41394,796.1905,814.3223,757.50916,-0.1123046875,0.1015625,0.99737548828125,0.366363525390625,-1.502838134765625,0.22430419921875,1,1.0,1.0,1.0,1.0,20.00
2024-09-29 18:19:15.002,0.95489496,-0.07464798,0.26200297,0.8414566,0.8455654,-0.01108207,-0.36562935,0.22361392,1.0956318,0.19054604,0.05960287,1.2340997,0.788618,-0.32738337,-0.31395227,0.25589898,0.4627112,-0.6119729,-0.65615493,0.01366427,803.8461,797.8022,801.02563,817.1429,791.75824,-0.1123046875,0.1015625,0.99737548828125,0.366363525390625,-1.502838134765625,0.22430419921875,1,1.0,1.0,1.0,1.0,20.00
2024-09-29 18:19:15.002,0.95489496,-0.07464798,0.26200297,0.8414566,0.8455654,-0.01108207,-0.36562935,0.22361392,1.0956318,0.19054604,0.05960287,1.2340997,0.788618,-0.32738337,-0.31395227,0.25589898,0.4627112,-0.6119729,-0.65615493,0.01366427,812.71063,796.5934,800.2198,811.9048,911.8315,-0.1123046875,0.1015625,0.99737548828125,0.366363525390625,-1.502838134765625,0.22430419921875,1,1.0,1.0,1.0,1.0,20.00
2024-09-29 18:19:15.003,0.95489496,-0.07464798,0.26200297,0.8414566,0.8455654,-0.01108207,-0.36562935,0.22361392,1.0956318,0.19054604,0.05960287,1.2340997,0.788618,-0.32738337,-0.31395227,0.25589898,0.4627112,-0.6119729,-0.65615493,0.01366427,817.9487,798.60803,798.20514,812.3077,885.64105,-0.1123046875,0.1015625,0.99737548828125,0.366363525390625,-1.502838134765625,0.22430419921875,1,1.0,1.0,1.0,1.0,20.00
2024-09-29 18:19:15.003,0.95489496,-0.07464798,0.26200297,0.8414566,0.8455654,-0.01108207,-0.36562935,0.22361392,1.0956318,0.19054604,0.05960287,1.2340997,0.788618,-0.32738337,-0.31395227,0.25589898,0.4627112,-0.6119729,-0.65615493,0.01366427,808.2784,801.02563,793.36993,811.0989,845.7509,-0.1123046875,0.1015625,0.99737548828125,0.366363525390625,-1.502838134765625,0.22430419921875,1,1.0,1.0,1.0,1.0,20.00
2024-09-29 18:19:15.004,0.95489496,-0.07464798,0.26200297,0.8414566,0.8455654,-0.01108207,-0.36562935,0.22361392,1.0956318,0.19054604,0.05960287,1.2340997,0.788618,-0.32738337,-0.31395227,0.25589898,0.4627112,-0.6119729,-0.65615493,0.01366427,802.6374,801.4286,790.14655,813.91943,1065.751,-0.1123046875,0.1015625,0.99737548828125,0.366363525390625,-1.502838134765625,0.22430419921875,1,1.0,1.0,1.0,1.0,20.00
2024-09-29 18:19:15.004,0.95489496,-0.07464798,0.26200297,0.8414566,0.8455654,-0.01108207,-0.36562935,0.22361392,1.0956318,0.19054604,0.05960287,1.2340997,0.788618,-0.32738337,-0.31395227,0.25589898,0.4627112,-0.6119729,-0.65615493,0.01366427,807.47253,798.60803,792.5641,804.65204,1085.0916,-0.1123046875,0.1015625,0.99737548828125,0.366363525390625,-1.502838134765625,0.22430419921875,1,1.0,1.0,1.0,1.0,20.00
2024-09-29 18:19:15.005,0.95489496,-0.07464798,0.26200297,0.8414566,0.8455654,-0.01108207,-0.36562935,0.22361392,1.0956318,0.19054604,0.05960287,1.2340997,0.788618,-0.32738337,-0.31395227,0.25589898,0.4627112,-0.6119729,-0.65615493,0.01366427,804.2491,797.3993,795.78754,799.41394,764.7619,-0.1123046875,0.1015625,0.99737548828125,0.366363525390625,-1.502838134765625,0.22430419921875,1,1.0,1.0,1.0,1.0,20.00
2024-09-29 18:19:15.005,0.95489496,-0.07464798,0.26200297,0.8414566,0.8455654,-0.01108207,-0.36562935,0.22361392,1.0956318,0.19054604,0.05960287,1.2340997,0.788618,-0.32738337,-0.31395227,0.25589898,0.4627112,-0.6119729,-0.65615493,0.01366427,801.4286,800.2198,799.011,809.89014,713.5897,-0.1123046875,0.1015625,0.99737548828125,0.366363525390625,-1.502838134765625,0.22430419921875,1,1.0,1.0,1.0,1.0,20.00
2024-09-29 18:19:15.006,0.95489496,-0.07464798,0.26200297,0.8414566,0.8455654,-0.01108207,-0.36562935,0.22361392,1.0956318,0.19054604,0.05960287,1.2340997,0.788618,-0.32738337,-0.31395227,0.25589898,0.4627112,-0.6119729,-0.65615493,0.01366427,804.2491,805.4579,800.6227,814.3223,952.52747,-0.1123046875,0.1015625,0.99737548828125,0.366363525390625,-1.502838134765625,0.22430419921875,1,1.0,1.0,1.0,1.0,20.00
