TimeStamp,Delta_TP9,Delta_AF7,Delta_AF8,Delta_TP10,Theta_TP9,Theta_AF7,Theta_AF8,Theta_TP10,Alpha_TP9,Alpha_AF7,Alpha_AF8,Alpha_TP10,Beta_TP9,Beta_AF7,Beta_AF8,Beta_TP10,Gamma_TP9,Gamma_AF7,Gamma_AF8,Gamma_TP10,RAW_TP9,RAW_AF7,RAW_AF8,RAW_TP10,AUX_RIGHT,Accelerometer_X,Accelerometer_Y,Accelerometer_Z,Gyro_X,Gyro_Y,Gyro_Z,HeadBandOn,HSI_TP9,HSI_AF7,HSI_AF8,HSI_TP10,Battery,Elements
2024-09-29 18:16:53.653,0.7259896,0.40635705,0.5227589,0.76123,0.461966,-0.34585518,-0.35409632,0.08203083,1.2545528,-0.019542342,0.109088846,1.3268111,0.539656,-0.22742768,-0.054194905,0.35792333,-0.005078325,-0.49924216,-0.52595073,0.08158923,817.5458,796.5934,800.6227,813.91943,755.89746,-0.2003173828125,0.09368896484375,0.98199462890625,-0.37384033203125,-0.650482177734375,0.800018310546875,1,1.0,1.0,1.0,1.0,20.00
2024-09-29 18:16:53.654,0.7259896,0.40635705,0.5227589,0.76123,0.461966,-0.34585518,-0.35409632,0.08203083,1.2545528,-0.019542342,0.109088846,1.3268111,0.539656,-0.22742768,-0.054194905,0.35792333,-0.005078325,-0.49924216,-0.52595073,0.08158923,813.5165,797.8022,798.20514,810.696,801.8315,-0.2003173828125,0.09368896484375,0.98199462890625,-0.37384033203125,-0.650482177734375,0.800018310546875,1,1.0,1.0,1.0,1.0,20.00
2024-09-29 18:16:53.655,0.7259896,0.40635705,0.5227589,0.76123,0.461966,-0.34585518,-0.35409632,0.08203083,1.2545528,-0.019542342,0.109088846,1.3268111,0.539656,-0.22742768,-0.054194905,0.35792333,-0.005078325,-0.49924216,-0.52595073,0.08158923,813.1135,795.78754,802.23444,816.337,813.5165,-0.2003173828125,0.09368896484375,0.98199462890625,-0.37384033203125,-0.650482177734375,0.800018310546875,1,1.0,1.0,1.0,1.0,20.00
2024-09-29 18:16:53.655,0.7259896,0.40635705,0.5227589,0.76123,0.461966,-0.34585518,-0.35409632,0.08203083,1.2545528,-0.019542342,0.109088846,1.3268111,0.539656,-0.22742768,-0.054194905,0.35792333,-0.005078325,-0.49924216,-0.52595073,0.08158923,810.696,793.7729,805.4579,820.3663,740.58606,-0.2003173828125,0.09368896484375,0.98199462890625,-0.37384033203125,-0.650482177734375,0.800018310546875,1,1.0,1.0,1.0,1.0,20.00
2024-09-29 18:16:53.656,0.7259896,0.40635705,0.5227589,0.76123,0.461966,-0.34585518,-0.35409632,0.08203083,1.2545528,-0.019542342,0.109088846,1.3268111,0.539656,-0.22742768,-0.054194905,0.35792333,-0.005078325,-0.49924216,-0.52595073,0.08158923,815.9341,799.011,803.44324,815.9341,784.5055,-0.2003173828125,0.09368896484375,0.98199462890625,-0.37384033203125,-0.650482177734375,0.800018310546875,1,1.0,1.0,1.0,1.0,20.00
2024-09-29 18:16:53.657,0.7259896,0.40635705,0.5227589,0.76123,0.461966,-0.34585518,-0.35409632,0.08203083,1.2545528,-0.019542342,0.109088846,1.3268111,0.539656,-0.22742768,-0.054194905,0.35792333,-0.005078325,-0.49924216,-0.52595073,0.08158923,820.3663,796.5934,802.6374,813.91943,1091.9414,-0.2003173828125,0.09368896484375,0.98199462890625,-0.37384033203125,-0.650482177734375,0.800018310546875,1,1.0,1.0,1.0,1.0,20.00
2024-09-29 18:16:53.657,0.7259896,0.40635705,0.5227589,0.76123,0.461966,-0.34585518,-0.35409632,0.08203083,1.2545528,-0.019542342,0.109088846,1.3268111,0.539656,-0.22742768,-0.054194905,0.35792333,-0.005078325,-0.49924216,-0.52595073,0.08158923,814.3223,796.5934,803.8461,823.5897,1336.5201,-0.2003173828125,0.09368896484375,0.98199462890625,-0.37384033203125,-0.650482177734375,0.800018310546875,1,1.0,1.0,1.0,1.0,20.00
2024-09-29 18:16:53.658,0.7259896,0.40635705,0.5227589,0.76123,0.461966,-0.34585518,-0.35409632,0.08203083,1.2545528,-0.019542342,0.109088846,1.3268111,0.539656,-0.22742768,-0.054194905,0.35792333,-0.005078325,-0.49924216,-0.52595073,0.08158923,814.3223,802.23444,802.6374,823.5897,988.3883,-0.2003173828125,0.09368896484375,0.98199462890625,-0.37384033203125,-0.650482177734375,0.800018310546875,1,1.0,1.0,1.0,1.0,20.00
2024-09-29 18:16:53.659,0.7259896,0.40635705,0.5227589,0.76123,0.461966,-0.34585518,-0.35409632,0.08203083,1.2545528,-0.019542342,0.109088846,1.3268111,0.539656,-0.22742768,-0.054194905,0.35792333,-0.005078325,-0.49924216,-0.52595073,0.08158923,813.1135,800.6227,800.6227,810.696,643.8828,-0.2003173828125,0.09368896484375,0.98199462890625,-0.37384033203125,-0.650482177734375,0.800018310546875,1,1.0,1.0,1.0,1.0,20.00
2024-09-29 18:16:53.659,0.7259896,0.40635705,0.5227589,0.76123,0.461966,-0.34585518,-0.35409632,0.08203083,1.2545528,-0.019542342,0.109088846,1.3268111,0.539656,-0.22742768,-0.054194905,0.35792333,-0.005078325,-0.49924216,-0.52595073,0.08158923,811.50183,799.41394,796.5934,807.0696,614.4689,-0.2003173828125,0.09368896484375,0.98199462890625,-0.37384033203125,-0.650482177734375,0.800018310546875,1,1.0,1.0,1.0,1.0,20.00
2024-09-29 18:16:53.660,0.7259896,0.40635705,0.5227589,0.76123,0.461966,-0.34585518,-0.35409632,0.08203083,1.2545528,-0.019542342,0.109088846,1.3268111,0.539656,-0.22742768,-0.054194905,0.35792333,-0.005078325,-0.49924216,-0.52595073,0.08158923,823.5897,802.23444,796.5934,814.7253,594.7253,-0.2003173828125,0.09368896484375,0.98199462890625,-0.37384033203125,-0.650482177734375,0.800018310546875,1,1.0,1.0,1.0,1.0,20.00
2024-09-29 18:16:53.660,0.7259896,0.40635705,0.5227589,0.76123,0.461966,-0.34585518,-0.35409632,0.08203083,1.2545528,-0.019542342,0.109088846,1.3268111,0.539656,-0.22742768,-0.054194905,0.35792333,-0.005078325,-0.49924216,-0.52595073,0.08158923,837.28937,803.8461,797.8022,821.5751,634.21246,-0.2003173828125,0.09368896484375,0.98199462890625,-0.37384033203125,-0.650482177734375,0.800018310546875,1,1.0,1.0,1.0,1.0,20.00
2024-09-29 18:16:53.780,0.7259896,0.40635705,0.5227589,0.76123,0.461966,-0.34585518,-0.35409632,0.08203083,1.2545528,-0.019542342,0.109088846,1.3268111,0.539656,-0.22742768,-0.054194905,0.35792333,-0.005078325,-0.49924216,-0.52595073,0.08158923,834.0659,797.8022,797.8022,823.5897,840.5128,-0.19818115234375,0.09808349609375,0.98419189453125,-0.560760498046875,-1.7047119140625,-0.127105712890625,1,1.0,1.0,1.0,1.0,20.00
2024-09-29 18:16:53.781,0.7259896,0.40635705,0.5227589,0.76123,0.461966,-0.34585518,-0.35409632,0.08203083,1.2545528,-0.019542342,0.109088846,1.3268111,0.539656,-0.22742768,-0.054194905,0.35792333,-0.005078325,-0.49924216,-0.52595073,0.08158923,820.7692,794.57874,801.4286,823.9927,849.3773,-0.19818115234375,0.09808349609375,0.98419189453125,-0.560760498046875,-1.7047119140625,-0.127105712890625,1,1.0,1.0,1.0,1.0,20.00
2024-09-29 18:16:53.782,0.7259896,0.40635705,0.5227589,0.76123,0.461966,-0.34585518,-0.35409632,0.08203083,1.2545528,-0.019542342,0.109088846,1.3268111,0.539656,-0.22742768,-0.054194905,0.35792333,-0.005078325,-0.49924216,-0.52595073,0.08158923,810.293,796.5934,808.2784,821.978,669.67035,-0.19818115234375,0.09808349609375,0.98419189453125,-0.560760498046875,-1.7047119140625,-0.127105712890625,1,1.0,1.0,1.0,1.0,20.00
2024-09-29 18:16:53.782,0.7259896,0.40635705,0.5227589,0.76123,0.461966,-0.34585518,-0.35409632,0.08203083,1.2545528,-0.019542342,0.109088846,1.3268111,0.539656,-0.22742768,-0.054194905,0.35792333,-0.005078325,-0.49924216,-0.52595073,0.08158923,813.1135,793.7729,807.47253,817.1429,711.978,-0.19818115234375,0.09808349609375,0.98419189453125,-0.560760498046875,-1.7047119140625,-0.127105712890625,1,1.0,1.0,1.0,1.0,20.00
2024-09-29 18:16:53.783,0.7259896,0.40635705,0.5227589,0.76123,0.461966,-0.34585518,-0.35409632,0.08203083,1.2545528,-0.019542342,0.109088846,1.3268111,0.539656,-0.22742768,-0.054194905,0.35792333,-0.005078325,-0.49924216,-0.52595073,0.08158923,823.9927,796.1905,804.2491,818.7546,888.86444,-0.19818115234375,0.09808349609375,0.98419189453125,-0.560760498046875,-1.7047119140625,-0.127105712890625,1,1.0,1.0,1.0,1.0,20.00
2024-09-29 18:16:53.784,0.7259896,0.40635705,0.5227589,0.76123,0.461966,-0.34585518,-0.35409632,0.08203083,1.2545528,-0.019542342,0.109088846,1.3268111,0.539656,-0.22742768,-0.054194905,0.35792333,-0.005078325,-0.49924216,-0.52595073,0.08158923,828.8278,797.8022,805.8608,820.7692,1032.7106,-0.19818115234375,0.09808349609375,0.98419189453125,-0.560760498046875,-1.7047119140625,-0.127105712890625,1,1.0,1.0,1.0,1.0,20.00
2024-09-29 18:16:53.785,0.7259896,0.40635705,0.5227589,0.76123,0.461966,-0.34585518,-0.35409632,0.08203083,1.2545528,-0.019542342,0.109088846,1.3268111,0.539656,-0.22742768,-0.054194905,0.35792333,-0.005078325,-0.49924216,-0.52595073,0.08158923,821.978,796.1905,804.65204,818.7546,917.0696,-0.19818115234375,0.09808349609375,0.98419189453125,-0.560760498046875,-1.7047119140625,-0.127105712890625,1,1.0,1.0,1.0,1.0,20.00
2024-09-29 18:16:53.785,0.7259896,0.40635705,0.5227589,0.76123,0.461966,-0.34585518,-0.35409632,0.08203083,1.2545528,-0.019542342,0.109088846,1.3268111,0.539656,-0.22742768,-0.054194905,0.35792333,-0.005078325,-0.49924216,-0.52595073,0.08158923,820.7692,800.2198,803.44324,821.5751,731.31866,-0.19818115234375,0.09808349609375,0.98419189453125,-0.560760498046875,-1.7047119140625,-0.127105712890625,1,1.0,1.0,1.0,1.0,20.00
2024-09-29 18:16:53.786,0.7259896,0.40635705,0.5227589,0.76123,0.461966,-0.34585518,-0.35409632,0.08203083,1.2545528,-0.019542342,0.109088846,1.3268111,0.539656,-0.22742768,-0.054194905,0.35792333,-0.005078325,-0.49924216,-0.52595073,0.08158923,818.7546,801.4286,803.44324,815.5311,824.7985,-0.19818115234375,0.09808349609375,0.98419189453125,-0.560760498046875,-1.7047119140625,-0.127105712890625,1,1.0,1.0,1.0,1.0,20.00
2024-09-29 18:16:53.787,0.6622689,0.47074914,0.50363684,0.7398467,0.501111,-0.31425622,-0.38610953,0.11091748,1.3313578,0.019088514,0.109088846,1.330155,0.5005732,-0.2055585,-0.0520092,0.383332,0.0030543131,-0.521445,-0.5234912,0.09513392,808.68134,804.65204,805.05493,816.7399,944.4689,-0.19818115234375,0.09808349609375,0.98419189453125,-0.560760498046875,-1.7047119140625,-0.127105712890625,1,1.0,1.0,1.0,1.0,20.00
2024-09-29 18:16:53.793,0.6622689,0.47074914,0.50363684,0.7398467,0.501111,-0.31425622,-0.38610953,0.11091748,1.3313578,0.019088514,0.109088846,1.330155,0.5005732,-0.2055585,-0.0520092,0.383332,0.0030543131,-0.521445,-0.5234912,0.09513392,809.0842,803.8461,803.44324,820.7692,776.4469,-0.19818115234375,0.09808349609375,0.98419189453125,-0.560760498046875,-1.7047119140625,-0.127105712890625,1,1.0,1.0,1.0,1.0,20.00
2024-09-29 18:16:53.794,0.6622689,0.47074914,0.50363684,0.7398467,0.501111,-0.31425622,-0.38610953,0.11091748,1.3313578,0.019088514,0.109088846,1.330155,0.5005732,-0.2055585,-0.0520092,0.383332,0.0030543131,-0.521445,-0.5234912,0.09513392,806.6667,799.41394,801.02563,813.91943,683.7729,-0.19818115234375,0.09808349609375,0.98419189453125,-0.560760498046875,-1.7047119140625,-0.127105712890625,1,1.0,1.0,1.0,1.0,20.00
2024-09-29 18:16:53.795,0.6622689,0.47074914,0.50363684,0.7398467,0.501111,-0.31425622,-0.38610953,0.11091748,1.3313578,0.019088514,0.109088846,1.330155,0.5005732,-0.2055585,-0.0520092,0.383332,0.0030543131,-0.521445,-0.5234912,0.09513392,803.8461,796.99634,803.0403,809.4872,900.9524,-0.19818115234375,0.09808349609375,0.98419189453125,-0.560760498046875,-1.7047119140625,-0.127105712890625,1,1.0,1.0,1.0,1.0,20.00
2024-09-29 18:16:53.796,0.6622689,0.47074914,0.50363684,0.7398467,0.501111,-0.31425622,-0.38610953,0.11091748,1.3313578,0.019088514,0.109088846,1.330155,0.5005732,-0.2055585,-0.0520092,0.383332,0.0030543131,-0.521445,-0.5234912,0.09513392,809.89014,795.38464,805.05493,813.1135,953.73627,-0.19818115234375,0.09808349609375,0.98419189453125,-0.560760498046875,-1.7047119140625,-0.127105712890625,1,1.0,1.0,1.0,1.0,20.00
2024-09-29 18:16:53.796,0.6622689,0.47074914,0.50363684,0.7398467,0.501111,-0.31425622,-0.38610953,0.11091748,1.3313578,0.019088514,0.109088846,1.330155,0.5005732,-0.2055585,-0.0520092,0.383332,0.0030543131,-0.521445,-0.5234912,0.09513392,809.89014,795.78754,802.23444,814.3223,743.4066,-0.19818115234375,0.09808349609375,0.98419189453125,-0.560760498046875,-1.7047119140625,-0.127105712890625,1,1.0,1.0,1.0,1.0,20.00
2024-09-29 18:16:53.797,0.6622689,0.47074914,0.50363684,0.7398467,0.501111,-0.31425622,-0.38610953,0.11091748,1.3313578,0.019088514,0.109088846,1.330155,0.5005732,-0.2055585,-0.0520092,0.383332,0.0030543131,-0.521445,-0.5234912,0.09513392,807.47253,800.2198,799.41394,806.6667,771.6117,-0.19818115234375,0.09808349609375,0.98419189453125,-0.560760498046875,-1.7047119140625,-0.127105712890625,1,1.0,1.0,1.0,1.0,20.00
2024-09-29 18:16:53.798,0.6622689,0.47074914,0.50363684,0.7398467,0.501111,-0.31425622,-0.38610953,0.11091748,1.3313578,0.019088514,0.109088846,1.330155,0.5005732,-0.2055585,-0.0520092,0.383332,0.0030543131,-0.521445,-0.5234912,0.09513392,806.6667,803.44324,801.8315,813.5165,827.619,-0.19818115234375,0.09808349609375,0.98419189453125,-0.560760498046875,-1.7047119140625,-0.127105712890625,1,1.0,1.0,1.0,1.0,20.00
2024-09-29 18:16:53.799,0.6622689,0.47074914,0.50363684,0.7398467,0.501111,-0.31425622,-0.38610953,0.11091748,1.3313578,0.019088514,0.109088846,1.330155,0.5005732,-0.2055585,-0.0520092,0.383332,0.0030543131,-0.521445,-0.5234912,0.09513392,813.91943,801.02563,800.2198,828.4249,819.15753,-0.19818115234375,0.09808349609375,0.98419189453125,-0.560760498046875,-1.7047119140625,-0.127105712890625,1,1.0,1.0,1.0,1.0,20.00
2024-09-29 18:16:53.799,0.6622689,0.47074914,0.50363684,0.7398467,0.501111,-0.31425622,-0.38610953,0.11091748,1.3313578,0.019088514,0.109088846,1.330155,0.5005732,-0.2055585,-0.0520092,0.383332,0.0030543131,-0.521445,-0.5234912,0.09513392,819.9634,796.1905,800.2198,823.9927,762.3443,-0.19818115234375,0.09808349609375,0.98419189453125,-0.560760498046875,-1.7047119140625,-0.127105712890625,1,1.0,1.0,1.0,1.0,20.00
2024-09-29 18:16:53.800,0.6622689,0.47074914,0.50363684,0.7398467,0.501111,-0.31425622,-0.38610953,0.11091748,1.3313578,0.019088514,0.109088846,1.330155,0.5005732,-0.2055585,-0.0520092,0.383332,0.0030543131,-0.521445,-0.5234912,0.09513392,815.12823,796.1905,801.02563,812.3077,563.2967,-0.19818115234375,0.09808349609375,0.98419189453125,-0.560760498046875,-1.7047119140625,-0.127105712890625,1,1.0,1.0,1.0,1.0,20.00
2024-09-29 18:16:53.801,0.6622689,0.47074914,0.50363684,0.7398467,0.501111,-0.31425622,-0.38610953,0.11091748,1.3313578,0.019088514,0.109088846,1.330155,0.5005732,-0.2055585,-0.0520092,0.383332,0.0030543131,-0.521445,-0.5234912,0.09513392,820.7692,794.57874,802.23444,822.7839,830.4396,-0.19818115234375,0.09808349609375,0.98419189453125,-0.560760498046875,-1.7047119140625,-0.127105712890625,1,1.0,1.0,1.0,1.0,20.00
2024-09-29 18:16:53.802,0.6622689,0.47074914,0.50363684,0.7398467,0.501111,-0.31425622,-0.38610953,0.11091748,1.3313578,0.019088514,0.109088846,1.330155,0.5005732,-0.2055585,-0.0520092,0.383332,0.0030543131,-0.521445,-0.5234912,0.09513392,817.9487,793.36993,804.65204,832.8571,1289.3773,-0.19818115234375,0.09808349609375,0.98419189453125,-0.560760498046875,-1.7047119140625,-0.127105712890625,1,1.0,1.0,1.0,1.0,20.00
2024-09-29 18:16:53.802,0.6622689,0.47074914,0.50363684,0.7398467,0.501111,-0.31425622,-0.38610953,0.11091748,1.3313578,0.019088514,0.109088846,1.330155,0.5005732,-0.2055585,-0.0520092,0.383332,0.0030543131,-0.521445,-0.5234912,0.09513392,811.9048,800.2198,803.8461,831.6484,1037.9487,-0.19818115234375,0.09808349609375,0.98419189453125,-0.560760498046875,-1.7047119140625,-0.127105712890625,1,1.0,1.0,1.0,1.0,20.00
2024-09-29 18:16:53.803,0.6622689,0.47074914,0.50363684,0.7398467,0.501111,-0.31425622,-0.38610953,0.11091748,1.3313578,0.019088514,0.109088846,1.330155,0.5005732,-0.2055585,-0.0520092,0.383332,0.0030543131,-0.521445,-0.5234912,0.09513392,816.337,803.44324,803.8461,826.8132,652.74725,-0.19818115234375,0.09808349609375,0.98419189453125,-0.560760498046875,-1.7047119140625,-0.127105712890625,1,1.0,1.0,1.0,1.0,20.00
2024-09-29 18:16:53.804,0.6622689,0.47074914,0.50363684,0.7398467,0.501111,-0.31425622,-0.38610953,0.11091748,1.3313578,0.019088514,0.109088846,1.330155,0.5005732,-0.2055585,-0.0520092,0.383332,0.0030543131,-0.521445,-0.5234912,0.09513392,814.7253,803.0403,810.696,823.9927,655.9707,-0.19244384765625,0.091552734375,0.98211669921875,-0.904693603515625,-1.622467041015625,-0.381317138671875,1,1.0,1.0,1.0,1.0,20.00
2024-09-29 18:16:53.805,0.6622689,0.47074914,0.50363684,0.7398467,0.501111,-0.31425622,-0.38610953,0.11091748,1.3313578,0.019088514,0.109088846,1.330155,0.5005732,-0.2055585,-0.0520092,0.383332,0.0030543131,-0.521445,-0.5234912,0.09513392,818.7546,801.8315,806.6667,826.0073,730.9158,-0.19244384765625,0.091552734375,0.98211669921875,-0.904693603515625,-1.622467041015625,-0.381317138671875,1,1.0,1.0,1.0,1.0,20.00
2024-09-29 18:16:53.806,0.6622689,0.47074914,0.50363684,0.7398467,0.501111,-0.31425622,-0.38610953,0.11091748,1.3313578,0.019088514,0.109088846,1.330155,0.5005732,-0.2055585,-0.0520092,0.383332,0.0030543131,-0.521445,-0.5234912,0.09513392,817.1429,795.78754,804.65204,823.1868,800.6227,-0.19244384765625,0.091552734375,0.98211669921875,-0.904693603515625,-1.622467041015625,-0.381317138671875,1,1.0,1.0,1.0,1.0,20.00
2024-09-29 18:16:53.807,0.6622689,0.47074914,0.50363684,0.7398467,0.501111,-0.31425622,-0.38610953,0.11091748,1.3313578,0.019088514,0.109088846,1.330155,0.5005732,-0.2055585,-0.0520092,0.383332,0.0030543131,-0.521445,-0.5234912,0.09513392,817.9487,798.60803,808.68134,826.8132,753.47986,-0.19244384765625,0.091552734375,0.98211669921875,-0.904693603515625,-1.622467041015625,-0.381317138671875,1,1.0,1.0,1.0,1.0,20.00
2024-09-29 18:16:53.807,0.6622689,0.47074914,0.50363684,0.7398467,0.501111,-0.31425622,-0.38610953,0.11091748,1.3313578,0.019088514,0.109088846,1.330155,0.5005732,-0.2055585,-0.0520092,0.383332,0.0030543131,-0.521445,-0.5234912,0.09513392,818.3516,802.6374,805.05493,827.619,716.0073,-0.19244384765625,0.091552734375,0.98211669921875,-0.904693603515625,-1.622467041015625,-0.381317138671875,1,1.0,1.0,1.0,1.0,20.00
2024-09-29 18:16:53.808,0.6622689,0.47074914,0.50363684,0.7398467,0.501111,-0.31425622,-0.38610953,0.11091748,1.3313578,0.019088514,0.109088846,1.330155,0.5005732,-0.2055585,-0.0520092,0.383332,0.0030543131,-0.521445,-0.5234912,0.09513392,812.3077,801.02563,804.65204,819.5604,784.90845,-0.19244384765625,0.091552734375,0.98211669921875,-0.904693603515625,-1.622467041015625,-0.381317138671875,1,1.0,1.0,1.0,1.0,20.00
2024-09-29 18:16:53.809,0.6622689,0.47074914,0.50363684,0.7398467,0.501111,-0.31425622,-0.38610953,0.11091748,1.3313578,0.019088514,0.109088846,1.330155,0.5005732,-0.2055585,-0.0520092,0.383332,0.0030543131,-0.521445,-0.5234912,0.09513392,814.7253,801.8315,808.68134,819.15753,835.6777,-0.19244384765625,0.091552734375,0.98211669921875,-0.904693603515625,-1.622467041015625,-0.381317138671875,1,1.0,1.0,1.0,1.0,20.00
2024-09-29 18:16:53.810,0.6622689,0.47074914,0.50363684,0.7398467,0.501111,-0.31425622,-0.38610953,0.11091748,1.3313578,0.019088514,0.109088846,1.330155,0.5005732,-0.2055585,-0.0520092,0.383332,0.0030543131,-0.521445,-0.5234912,0.09513392,826.4103,806.26373,808.2784,827.2161,929.9634,-0.19244384765625,0.091552734375,0.98211669921875,-0.904693603515625,-1.622467041015625,-0.381317138671875,1,1.0,1.0,1.0,1.0,20.00
2024-09-29 18:16:53.810,0.6622689,0.47074914,0.50363684,0.7398467,0.501111,-0.31425622,-0.38610953,0.11091748,1.3313578,0.019088514,0.109088846,1.330155,0.5005732,-0.2055585,-0.0520092,0.383332,0.0030543131,-0.521445,-0.5234912,0.09513392,826.4103,807.47253,806.6667,827.619,917.0696,-0.19244384765625,0.091552734375,0.98211669921875,-0.904693603515625,-1.622467041015625,-0.381317138671875,1,1.0,1.0,1.0,1.0,20.00
2024-09-29 18:16:53.811,0.6622689,0.47074914,0.50363684,0.7398467,0.501111,-0.31425622,-0.38610953,0.11091748,1.3313578,0.019088514,0.109088846,1.330155,0.5005732,-0.2055585,-0.0520092,0.383332,0.0030543131,-0.521445,-0.5234912,0.09513392,814.3223,810.696,807.47253,816.337,803.0403,-0.19244384765625,0.091552734375,0.98211669921875,-0.904693603515625,-1.622467041015625,-0.381317138671875,1,1.0,1.0,1.0,1.0,20.00
2024-09-29 18:16:53.812,0.6622689,0.47074914,0.50363684,0.7398467,0.501111,-0.31425622,-0.38610953,0.11091748,1.3313578,0.019088514,0.109088846,1.330155,0.5005732,-0.2055585,-0.0520092,0.383332,0.0030543131,-0.521445,-0.5234912,0.09513392,803.44324,806.26373,806.6667,809.89014,893.69965,-0.19244384765625,0.091552734375,0.98211669921875,-0.904693603515625,-1.622467041015625,-0.381317138671875,1,1.0,1.0,1.0,1.0,20.00
2024-09-29 18:16:53.812,0.6451829,0.5191505,0.50066584,0.73227006,0.50628805,-0.28141868,-0.40713754,0.14059988,1.371047,0.02468999,0.109088846,1.330155,0.4690282,-0.18237385,-0.0537471,0.4085804,0.010954674,-0.53201556,-0.5278582,0.10711947,800.6227,802.23444,804.65204,813.91943,936.4103,-0.19244384765625,0.091552734375,0.98211669921875,-0.904693603515625,-1.622467041015625,-0.381317138671875,1,1.0,1.0,1.0,1.0,20.00
2024-09-29 18:16:53.849,0.6451829,0.5191505,0.50066584,0.73227006,0.50628805,-0.28141868,-0.40713754,0.14059988,1.371047,0.02468999,0.109088846,1.330155,0.4690282,-0.18237385,-0.0537471,0.4085804,0.010954674,-0.53201556,-0.5278582,0.10711947,802.23444,801.8315,801.4286,812.71063,842.1245,-0.20050048828125,0.08734130859375,0.98443603515625,-0.6878662109375,-1.502838134765625,-0.934600830078125,1,1.0,1.0,1.0,1.0,20.00
2024-09-29 18:16:53.850,0.6451829,0.5191505,0.50066584,0.73227006,0.50628805,-0.28141868,-0.40713754,0.14059988,1.371047,0.02468999,0.109088846,1.330155,0.4690282,-0.18237385,-0.0537471,0.4085804,0.010954674,-0.53201556,-0.5278582,0.10711947,801.8315,799.41394,800.2198,802.23444,741.39197,-0.20050048828125,0.08734130859375,0.98443603515625,-0.6878662109375,-1.502838134765625,-0.934600830078125,1,1.0,1.0,1.0,1.0,20.00
2024-09-29 18:16:53.850,0.6451829,0.5191505,0.50066584,0.73227006,0.50628805,-0.28141868,-0.40713754,0.14059988,1.371047,0.02468999,0.109088846,1.330155,0.4690282,-0.18237385,-0.0537471,0.4085804,0.010954674,-0.53201556,-0.5278582,0.10711947,805.4579,803.44324,801.4286,798.60803,840.10986,-0.20050048828125,0.08734130859375,0.98443603515625,-0.6878662109375,-1.502838134765625,-0.934600830078125,1,1.0,1.0,1.0,1.0,20.00
2024-09-29 18:16:53.851,0.6451829,0.5191505,0.50066584,0.73227006,0.50628805,-0.28141868,-0.40713754,0.14059988,1.371047,0.02468999,0.109088846,1.330155,0.4690282,-0.18237385,-0.0537471,0.4085804,0.010954674,-0.53201556,-0.5278582,0.10711947,805.8608,803.44324,799.81683,807.8755,965.0183,-0.20050048828125,0.08734130859375,0.98443603515625,-0.6878662109375,-1.502838134765625,-0.934600830078125,1,1.0,1.0,1.0,1.0,20.00
2024-09-29 18:16:53.851,0.6451829,0.5191505,0.50066584,0.73227006,0.50628805,-0.28141868,-0.40713754,0.14059988,1.371047,0.02468999,0.109088846,1.330155,0.4690282,-0.18237385,-0.0537471,0.4085804,0.010954674,-0.53201556,-0.5278582,0.10711947,809.0842,800.2198,799.41394,806.6667,814.3223,-0.20050048828125,0.08734130859375,0.98443603515625,-0.6878662109375,-1.502838134765625,-0.934600830078125,1,1.0,1.0,1.0,1.0,20.00
2024-09-29 18:16:53.852,0.6451829,0.5191505,0.50066584,0.73227006,0.50628805,-0.28141868,-0.40713754,0.14059988,1.371047,0.02468999,0.109088846,1.330155,0.4690282,-0.18237385,-0.0537471,0.4085804,0.010954674,-0.53201556,-0.5278582,0.10711947,812.71063,802.6374,799.41394,802.23444,801.8315,-0.20050048828125,0.08734130859375,0.98443603515625,-0.6878662109375,-1.502838134765625,-0.934600830078125,1,1.0,1.0,1.0,1.0,20.00
2024-09-29 18:16:53.852,0.6451829,0.5191505,0.50066584,0.73227006,0.50628805,-0.28141868,-0.40713754,0.14059988,1.371047,0.02468999,0.109088846,1.330155,0.4690282,-0.18237385,-0.0537471,0.4085804,0.010954674,-0.53201556,-0.5278582,0.10711947,803.0403,799.41394,798.60803,807.0696,1038.7546,-0.20050048828125,0.08734130859375,0.98443603515625,-0.6878662109375,-1.502838134765625,-0.934600830078125,1,1.0,1.0,1.0,1.0,20.00
2024-09-29 18:16:53.853,0.6451829,0.5191505,0.50066584,0.73227006,0.50628805,-0.28141868,-0.40713754,0.14059988,1.371047,0.02468999,0.109088846,1.330155,0.4690282,-0.18237385,-0.0537471,0.4085804,0.010954674,-0.53201556,-0.5278582,0.10711947,800.2198,794.17584,798.60803,816.7399,1163.663,-0.20050048828125,0.08734130859375,0.98443603515625,-0.6878662109375,-1.502838134765625,-0.934600830078125,1,1.0,1.0,1.0,1.0,20.00
2024-09-29 18:16:53.854,0.6451829,0.5191505,0.50066584,0.73227006,0.50628805,-0.28141868,-0.40713754,0.14059988,1.371047,0.02468999,0.109088846,1.330155,0.4690282,-0.18237385,-0.0537471,0.4085804,0.010954674,-0.53201556,-0.5278582,0.10711947,806.6667,798.60803,801.4286,814.3223,983.5531,-0.20050048828125,0.08734130859375,0.98443603515625,-0.6878662109375,-1.502838134765625,-0.934600830078125,1,1.0,1.0,1.0,1.0,20.00
2024-09-29 18:16:53.854,0.6451829,0.5191505,0.50066584,0.73227006,0.50628805,-0.28141868,-0.40713754,0.14059988,1.371047,0.02468999,0.109088846,1.330155,0.4690282,-0.18237385,-0.0537471,0.4085804,0.010954674,-0.53201556,-0.5278582,0.10711947,806.6667,805.05493,799.81683,815.12823,838.49817,-0.20050048828125,0.08734130859375,0.98443603515625,-0.6878662109375,-1.502838134765625,-0.934600830078125,1,1.0,1.0,1.0,1.0,20.00
2024-09-29 18:16:53.855,0.6451829,0.5191505,0.50066584,0.73227006,0.50628805,-0.28141868,-0.40713754,0.14059988,1.371047,0.02468999,0.109088846,1.330155,0.4690282,-0.18237385,-0.0537471,0.4085804,0.010954674,-0.53201556,-0.5278582,0.10711947,805.4579,807.0696,798.60803,815.5311,824.3956,-0.20050048828125,0.08734130859375,0.98443603515625,-0.6878662109375,-1.502838134765625,-0.934600830078125,1,1.0,1.0,1.0,1.0,20.00
2024-09-29 18:16:53.855,0.6451829,0.5191505,0.50066584,0.73227006,0.50628805,-0.28141868,-0.40713754,0.14059988,1.371047,0.02468999,0.109088846,1.330155,0.4690282,-0.18237385,-0.0537471,0.4085804,0.010954674,-0.53201556,-0.5278582,0.10711947,810.293,801.4286,799.011,808.2784,928.7546,-0.20050048828125,0.08734130859375,0.98443603515625,-0.6878662109375,-1.502838134765625,-0.934600830078125,1,1.0,1.0,1.0,1.0,20.00
2024-09-29 18:16:53.856,0.6451829,0.5191505,0.50066584,0.73227006,0.50628805,-0.28141868,-0.40713754,0.14059988,1.371047,0.02468999,0.109088846,1.330155,0.4690282,-0.18237385,-0.0537471,0.4085804,0.010954674,-0.53201556,-0.5278582,0.10711947,813.5165,801.8315,799.41394,807.8755,837.28937,-0.19403076171875,0.0841064453125,0.98602294921875,-0.0299072265625,-1.83929443359375,-1.36077880859375,1,1.0,1.0,1.0,1.0,20.00
2024-09-29 18:16:53.857,0.6451829,0.5191505,0.50066584,0.73227006,0.50628805,-0.28141868,-0.40713754,0.14059988,1.371047,0.02468999,0.109088846,1.330155,0.4690282,-0.18237385,-0.0537471,0.4085804,0.010954674,-0.53201556,-0.5278582,0.10711947,814.7253,801.8315,802.6374,805.4579,709.15753,-0.19403076171875,0.0841064453125,0.98602294921875,-0.0299072265625,-1.83929443359375,-1.36077880859375,1,1.0,1.0,1.0,1.0,20.00
2024-09-29 18:16:53.858,0.6451829,0.5191505,0.50066584,0.73227006,0.50628805,-0.28141868,-0.40713754,0.14059988,1.371047,0.02468999,0.109088846,1.330155,0.4690282,-0.18237385,-0.0537471,0.4085804,0.010954674,-0.53201556,-0.5278582,0.10711947,817.9487,799.41394,802.23444,814.3223,807.8755,-0.19403076171875,0.0841064453125,0.98602294921875,-0.0299072265625,-1.83929443359375,-1.36077880859375,1,1.0,1.0,1.0,1.0,20.00
2024-09-29 18:16:53.858,0.6451829,0.5191505,0.50066584,0.73227006,0.50628805,-0.28141868,-0.40713754,0.14059988,1.371047,0.02468999,0.109088846,1.330155,0.4690282,-0.18237385,-0.0537471,0.4085804,0.010954674,-0.53201556,-0.5278582,0.10711947,810.293,801.4286,804.65204,824.7985,947.6923,-0.19403076171875,0.0841064453125,0.98602294921875,-0.0299072265625,-1.83929443359375,-1.36077880859375,1,1.0,1.0,1.0,1.0,20.00
2024-09-29 18:16:53.859,0.6451829,0.5191505,0.50066584,0.73227006,0.50628805,-0.28141868,-0.40713754,0.14059988,1.371047,0.02468999,0.109088846,1.330155,0.4690282,-0.18237385,-0.0537471,0.4085804,0.010954674,-0.53201556,-0.5278582,0.10711947,805.4579,803.44324,804.65204,821.1722,751.4652,-0.19403076171875,0.0841064453125,0.98602294921875,-0.0299072265625,-1.83929443359375,-1.36077880859375,1,1.0,1.0,1.0,1.0,20.00
2024-09-29 18:16:53.859,0.6451829,0.5191505,0.50066584,0.73227006,0.50628805,-0.28141868,-0.40713754,0.14059988,1.371047,0.02468999,0.109088846,1.330155,0.4690282,-0.18237385,-0.0537471,0.4085804,0.010954674,-0.53201556,-0.5278582,0.10711947,805.8608,801.4286,799.81683,816.337,655.56775,-0.19403076171875,0.0841064453125,0.98602294921875,-0.0299072265625,-1.83929443359375,-1.36077880859375,1,1.0,1.0,1.0,1.0,20.00
2024-09-29 18:16:53.860,0.6451829,0.5191505,0.50066584,0.73227006,0.50628805,-0.28141868,-0.40713754,0.14059988,1.371047,0.02468999,0.109088846,1.330155,0.4690282,-0.18237385,-0.0537471,0.4085804,0.010954674,-0.53201556,-0.5278582,0.10711947,803.44324,794.9817,800.6227,818.3516,855.82416,-0.19403076171875,0.0841064453125,0.98602294921875,-0.0299072265625,-1.83929443359375,-1.36077880859375,1,1.0,1.0,1.0,1.0,20.00
2024-09-29 18:16:53.860,0.6451829,0.5191505,0.50066584,0.73227006,0.50628805,-0.28141868,-0.40713754,0.14059988,1.371047,0.02468999,0.109088846,1.330155,0.4690282,-0.18237385,-0.0537471,0.4085804,0.010954674,-0.53201556,-0.5278582,0.10711947,805.05493,792.5641,804.2491,823.5897,1274.4689,-0.19403076171875,0.0841064453125,0.98602294921875,-0.0299072265625,-1.83929443359375,-1.36077880859375,1,1.0,1.0,1.0,1.0,20.00
2024-09-29 18:16:53.861,0.6451829,0.5191505,0.50066584,0.73227006,0.50628805,-0.28141868,-0.40713754,0.14059988,1.371047,0.02468999,0.109088846,1.330155,0.4690282,-0.18237385,-0.0537471,0.4085804,0.010954674,-0.53201556,-0.5278582,0.10711947,805.4579,797.8022,806.26373,825.2015,1373.1868,-0.19403076171875,0.0841064453125,0.98602294921875,-0.0299072265625,-1.83929443359375,-1.36077880859375,1,1.0,1.0,1.0,1.0,20.00
2024-09-29 18:16:53.862,0.6451829,0.5191505,0.50066584,0.73227006,0.50628805,-0.28141868,-0.40713754,0.14059988,1.371047,0.02468999,0.109088846,1.330155,0.4690282,-0.18237385,-0.0537471,0.4085804,0.010954674,-0.53201556,-0.5278582,0.10711947,800.2198,797.3993,803.8461,809.89014,787.72894,-0.19403076171875,0.0841064453125,0.98602294921875,-0.0299072265625,-1.83929443359375,-1.36077880859375,1,1.0,1.0,1.0,1.0,20.00
2024-09-29 18:16:53.862,0.6451829,0.5191505,0.50066584,0.73227006,0.50628805,-0.28141868,-0.40713754,0.14059988,1.371047,0.02468999,0.109088846,1.330155,0.4690282,-0.18237385,-0.0537471,0.4085804,0.010954674,-0.53201556,-0.5278582,0.10711947,800.6227,794.57874,803.44324,803.44324,686.1905,-0.19403076171875,0.0841064453125,0.98602294921875,-0.0299072265625,-1.83929443359375,-1.36077880859375,1,1.0,1.0,1.0,1.0,20.00
2024-09-29 18:16:53.863,0.6451829,0.5191505,0.50066584,0.73227006,0.50628805,-0.28141868,-0.40713754,0.14059988,1.371047,0.02468999,0.109088846,1.330155,0.4690282,-0.18237385,-0.0537471,0.4085804,0.010954674,-0.53201556,-0.5278582,0.10711947,803.44324,797.3993,803.0403,817.1429,1113.6996,-0.19403076171875,0.0841064453125,0.98602294921875,-0.0299072265625,-1.83929443359375,-1.36077880859375,1,1.0,1.0,1.0,1.0,20.00
2024-09-29 18:16:53.888,0.6451829,0.5191505,0.50066584,0.73227006,0.50628805,-0.28141868,-0.40713754,0.14059988,1.371047,0.02468999,0.109088846,1.330155,0.4690282,-0.18237385,-0.0537471,0.4085804,0.010954674,-0.53201556,-0.5278582,0.10711947,804.65204,803.0403,801.8315,805.8608,822.7839,-0.1947021484375,0.093505859375,0.98431396484375,0.40374755859375,-2.026214599609375,0.515899658203125,1,1.0,1.0,1.0,1.0,20.00
2024-09-29 18:16:53.889,0.6598666,0.5516428,0.5063211,0.7360198,0.48765853,-0.25820237,-0.41247788,0.16476914,1.3783937,0.025067963,0.10678347,1.330155,0.4437634,-0.16132143,-0.060543388,0.42622966,0.028097933,-0.5267584,-0.5449773,0.1144666,807.0696,803.44324,805.4579,799.011,473.44324,-0.1947021484375,0.093505859375,0.98431396484375,0.40374755859375,-2.026214599609375,0.515899658203125,1,1.0,1.0,1.0,1.0,20.00
2024-09-29 18:16:53.894,0.6598666,0.5516428,0.5063211,0.7360198,0.48765853,-0.25820237,-0.41247788,0.16476914,1.3783937,0.025067963,0.10678347,1.330155,0.4437634,-0.16132143,-0.060543388,0.42622966,0.028097933,-0.5267584,-0.5449773,0.1144666,814.7253,805.05493,802.6374,807.47253,716.4103,-0.1947021484375,0.093505859375,0.98431396484375,0.40374755859375,-2.026214599609375,0.515899658203125,1,1.0,1.0,1.0,1.0,20.00
2024-09-29 18:16:53.894,0.6598666,0.5516428,0.5063211,0.7360198,0.48765853,-0.25820237,-0.41247788,0.16476914,1.3783937,0.025067963,0.10678347,1.330155,0.4437634,-0.16132143,-0.060543388,0.42622966,0.028097933,-0.5267584,-0.5449773,0.1144666,817.1429,805.05493,799.81683,811.0989,848.5714,-0.1947021484375,0.093505859375,0.98431396484375,0.40374755859375,-2.026214599609375,0.515899658203125,1,1.0,1.0,1.0,1.0,20.00
2024-09-29 18:16:53.895,0.6598666,0.5516428,0.5063211,0.7360198,0.48765853,-0.25820237,-0.41247788,0.16476914,1.3783937,0.025067963,0.10678347,1.330155,0.4437634,-0.16132143,-0.060543388,0.42622966,0.028097933,-0.5267584,-0.5449773,0.1144666,816.337,805.05493,801.02563,812.3077,720.4396,-0.1947021484375,0.093505859375,0.98431396484375,0.40374755859375,-2.026214599609375,0.515899658203125,1,1.0,1.0,1.0,1.0,20.00
2024-09-29 18:16:53.895,0.6598666,0.5516428,0.5063211,0.7360198,0.48765853,-0.25820237,-0.41247788,0.16476914,1.3783937,0.025067963,0.10678347,1.330155,0.4437634,-0.16132143,-0.060543388,0.42622966,0.028097933,-0.5267584,-0.5449773,0.1144666,813.5165,805.05493,801.8315,807.8755,774.83514,-0.1947021484375,0.093505859375,0.98431396484375,0.40374755859375,-2.026214599609375,0.515899658203125,1,1.0,1.0,1.0,1.0,20.00
2024-09-29 18:16:53.896,0.6598666,0.5516428,0.5063211,0.7360198,0.48765853,-0.25820237,-0.41247788,0.16476914,1.3783937,0.025067963,0.10678347,1.330155,0.4437634,-0.16132143,-0.060543388,0.42622966,0.028097933,-0.5267584,-0.5449773,0.1144666,808.2784,802.6374,801.8315,809.4872,1035.5311,-0.1947021484375,0.093505859375,0.98431396484375,0.40374755859375,-2.026214599609375,0.515899658203125,1,1.0,1.0,1.0,1.0,20.00
2024-09-29 18:16:53.897,0.6598666,0.5516428,0.5063211,0.7360198,0.48765853,-0.25820237,-0.41247788,0.16476914,1.3783937,0.025067963,0.10678347,1.330155,0.4437634,-0.16132143,-0.060543388,0.42622966,0.028097933,-0.5267584,-0.5449773,0.1144666,811.0989,797.8022,801.4286,815.9341,1186.227,-0.1947021484375,0.093505859375,0.98431396484375,0.40374755859375,-2.026214599609375,0.515899658203125,1,1.0,1.0,1.0,1.0,20.00
2024-09-29 18:16:53.897,0.6598666,0.5516428,0.5063211,0.7360198,0.48765853,-0.25820237,-0.41247788,0.16476914,1.3783937,0.025067963,0.10678347,1.330155,0.4437634,-0.16132143,-0.060543388,0.42622966,0.028097933,-0.5267584,-0.5449773,0.1144666,807.8755,795.78754,802.6374,813.91943,886.04395,-0.1947021484375,0.093505859375,0.98431396484375,0.40374755859375,-2.026214599609375,0.515899658203125,1,1.0,1.0,1.0,1.0,20.00
2024-09-29 18:16:53.898,0.6598666,0.5516428,0.5063211,0.7360198,0.48765853,-0.25820237,-0.41247788,0.16476914,1.3783937,0.025067963,0.10678347,1.330155,0.4437634,-0.16132143,-0.060543388,0.42622966,0.028097933,-0.5267584,-0.5449773,0.1144666,805.4579,799.81683,805.8608,814.3223,686.1905,-0.1947021484375,0.093505859375,0.98431396484375,0.40374755859375,-2.026214599609375,0.515899658203125,1,1.0,1.0,1.0,1.0,20.00
2024-09-29 18:16:53.898,0.6598666,0.5516428,0.5063211,0.7360198,0.48765853,-0.25820237,-0.41247788,0.16476914,1.3783937,0.025067963,0.10678347,1.330155,0.4437634,-0.16132143,-0.060543388,0.42622966,0.028097933,-0.5267584,-0.5449773,0.1144666,809.4872,801.02563,803.8461,819.5604,630.18317,-0.1947021484375,0.093505859375,0.98431396484375,0.40374755859375,-2.026214599609375,0.515899658203125,1,1.0,1.0,1.0,1.0,20.00
2024-09-29 18:16:53.899,0.6598666,0.5516428,0.5063211,0.7360198,0.48765853,-0.25820237,-0.41247788,0.16476914,1.3783937,0.025067963,0.10678347,1.330155,0.4437634,-0.16132143,-0.060543388,0.42622966,0.028097933,-0.5267584,-0.5449773,0.1144666,809.4872,803.0403,800.2198,822.381,559.2674,-0.1947021484375,0.093505859375,0.98431396484375,0.40374755859375,-2.026214599609375,0.515899658203125,1,1.0,1.0,1.0,1.0,20.00
2024-09-29 18:16:53.924,0.6598666,0.5516428,0.5063211,0.7360198,0.48765853,-0.25820237,-0.41247788,0.16476914,1.3783937,0.025067963,0.10678347,1.330155,0.4437634,-0.16132143,-0.060543388,0.42622966,0.028097933,-0.5267584,-0.5449773,0.1144666,813.5165,806.6667,796.99634,824.3956,641.8681,-0.1947021484375,0.093505859375,0.98431396484375,0.40374755859375,-2.026214599609375,0.515899658203125,1,1.0,1.0,1.0,1.0,20.00
2024-09-29 18:16:53.925,0.6598666,0.5516428,0.5063211,0.7360198,0.48765853,-0.25820237,-0.41247788,0.16476914,1.3783937,0.025067963,0.10678347,1.330155,0.4437634,-0.16132143,-0.060543388,0.42622966,0.028097933,-0.5267584,-0.5449773,0.1144666,815.12823,799.41394,800.6227,825.2015,782.49084,-0.1947021484375,0.093505859375,0.98431396484375,0.40374755859375,-2.026214599609375,0.515899658203125,1,1.0,1.0,1.0,1.0,20.00
2024-09-29 18:16:53.926,0.6598666,0.5516428,0.5063211,0.7360198,0.48765853,-0.25820237,-0.41247788,0.16476914,1.3783937,0.025067963,0.10678347,1.330155,0.4437634,-0.16132143,-0.060543388,0.42622966,0.028097933,-0.5267584,-0.5449773,0.1144666,814.3223,796.1905,801.8315,815.5311,837.28937,-0.1947021484375,0.093505859375,0.98431396484375,0.40374755859375,-2.026214599609375,0.515899658203125,1,1.0,1.0,1.0,1.0,20.00
2024-09-29 18:16:53.927,0.6598666,0.5516428,0.5063211,0.7360198,0.48765853,-0.25820237,-0.41247788,0.16476914,1.3783937,0.025067963,0.10678347,1.330155,0.4437634,-0.16132143,-0.060543388,0.42622966,0.028097933,-0.5267584,-0.5449773,0.1144666,812.71063,800.6227,795.78754,809.0842,763.1502,-0.1947021484375,0.093505859375,0.98431396484375,0.40374755859375,-2.026214599609375,0.515899658203125,1,1.0,1.0,1.0,1.0,20.00
2024-09-29 18:16:53.927,0.6598666,0.5516428,0.5063211,0.7360198,0.48765853,-0.25820237,-0.41247788,0.16476914,1.3783937,0.025067963,0.10678347,1.330155,0.4437634,-0.16132143,-0.060543388,0.42622966,0.028097933,-0.5267584,-0.5449773,0.1144666,811.50183,796.5934,796.5934,812.71063,721.2454,-0.1947021484375,0.093505859375,0.98431396484375,0.40374755859375,-2.026214599609375,0.515899658203125,1,1.0,1.0,1.0,1.0,20.00
2024-09-29 18:16:53.928,0.6598666,0.5516428,0.5063211,0.7360198,0.48765853,-0.25820237,-0.41247788,0.16476914,1.3783937,0.025067963,0.10678347,1.330155,0.4437634,-0.16132143,-0.060543388,0.42622966,0.028097933,-0.5267584,-0.5449773,0.1144666,813.91943,794.57874,797.8022,815.5311,966.2271,-0.1947021484375,0.093505859375,0.98431396484375,0.40374755859375,-2.026214599609375,0.515899658203125,1,1.0,1.0,1.0,1.0,20.00
2024-09-29 18:16:53.928,0.6598666,0.5516428,0.5063211,0.7360198,0.48765853,-0.25820237,-0.41247788,0.16476914,1.3783937,0.025067963,0.10678347,1.330155,0.4437634,-0.16132143,-0.060543388,0.42622966,0.028097933,-0.5267584,-0.5449773,0.1144666,814.7253,796.1905,802.6374,824.3956,1285.751,-0.1947021484375,0.093505859375,0.98431396484375,0.40374755859375,-2.026214599609375,0.515899658203125,1,1.0,1.0,1.0,1.0,20.00
2024-09-29 18:16:53.929,0.6598666,0.5516428,0.5063211,0.7360198,0.48765853,-0.25820237,-0.41247788,0.16476914,1.3783937,0.025067963,0.10678347,1.330155,0.4437634,-0.16132143,-0.060543388,0.42622966,0.028097933,-0.5267584,-0.5449773,0.1144666,807.8755,799.41394,808.68134,818.3516,909.41394,-0.1947021484375,0.093505859375,0.98431396484375,0.40374755859375,-2.026214599609375,0.515899658203125,1,1.0,1.0,1.0,1.0,20.00
2024-09-29 18:16:53.930,0.6598666,0.5516428,0.5063211,0.7360198,0.48765853,-0.25820237,-0.41247788,0.16476914,1.3783937,0.025067963,0.10678347,1.330155,0.4437634,-0.16132143,-0.060543388,0.42622966,0.028097933,-0.5267584,-0.5449773,0.1144666,806.26373,800.6227,808.68134,811.50183,682.5641,-0.1947021484375,0.093505859375,0.98431396484375,0.40374755859375,-2.026214599609375,0.515899658203125,1,1.0,1.0,1.0,1.0,20.00
2024-09-29 18:16:53.930,0.6598666,0.5516428,0.5063211,0.7360198,0.48765853,-0.25820237,-0.41247788,0.16476914,1.3783937,0.025067963,0.10678347,1.330155,0.4437634,-0.16132143,-0.060543388,0.42622966,0.028097933,-0.5267584,-0.5449773,0.1144666,807.8755,796.1905,799.41394,813.5165,907.8022,-0.1947021484375,0.093505859375,0.98431396484375,0.40374755859375,-2.026214599609375,0.515899658203125,1,1.0,1.0,1.0,1.0,20.00
2024-09-29 18:16:53.931,0.6598666,0.5516428,0.5063211,0.7360198,0.48765853,-0.25820237,-0.41247788,0.16476914,1.3783937,0.025067963,0.10678347,1.330155,0.4437634,-0.16132143,-0.060543388,0.42622966,0.028097933,-0.5267584,-0.5449773,0.1144666,806.26373,793.7729,796.5934,805.4579,959.3773,-0.1947021484375,0.093505859375,0.98431396484375,0.40374755859375,-2.026214599609375,0.515899658203125,1,1.0,1.0,1.0,1.0,20.00
2024-09-29 18:16:53.931,0.6598666,0.5516428,0.5063211,0.7360198,0.48765853,-0.25820237,-0.41247788,0.16476914,1.3783937,0.025067963,0.10678347,1.330155,0.4437634,-0.16132143,-0.060543388,0.42622966,0.028097933,-0.5267584,-0.5449773,0.1144666,811.9048,796.5934,801.4286,797.8022,672.8938,-0.1947021484375,0.093505859375,0.98431396484375,0.40374755859375,-2.026214599609375,0.515899658203125,1,1.0,1.0,1.0,1.0,20.00
2024-09-29 18:16:54.027,0.6598666,0.5516428,0.5063211,0.7360198,0.48765853,-0.25820237,-0.41247788,0.16476914,1.3783937,0.025067963,0.10678347,1.330155,0.4437634,-0.16132143,-0.060543388,0.42622966,0.028097933,-0.5267584,-0.5449773,0.1144666,824.3956,799.41394,803.0403,799.011,607.2161,-0.20037841796875,0.08746337890625,0.99432373046875,0.01495361328125,-1.89910888671875,1.375732421875,1,1.0,1.0,1.0,1.0,20.00
2024-09-29 18:16:54.028,0.6598666,0.5516428,0.5063211,0.7360198,0.48765853,-0.25820237,-0.41247788,0.16476914,1.3783937,0.025067963,0.10678347,1.330155,0.4437634,-0.16132143,-0.060543388,0.42622966,0.028097933,-0.5267584,-0.5449773,0.1144666,828.8278,801.4286,802.6374,799.41394,975.89746,-0.20037841796875,0.08746337890625,0.99432373046875,0.01495361328125,-1.89910888671875,1.375732421875,1,1.0,1.0,1.0,1.0,20.00
2024-09-29 18:16:54.029,0.6598666,0.5516428,0.5063211,0.7360198,0.48765853,-0.25820237,-0.41247788,0.16476914,1.3783937,0.025067963,0.10678347,1.330155,0.4437634,-0.16132143,-0.060543388,0.42622966,0.028097933,-0.5267584,-0.5449773,0.1144666,807.47253,803.44324,801.8315,796.1905,1085.8975,-0.20037841796875,0.08746337890625,0.99432373046875,0.01495361328125,-1.89910888671875,1.375732421875,1,1.0,1.0,1.0,1.0,20.00
2024-09-29 18:16:54.030,0.67420226,0.5707625,0.51066875,0.7499061,0.45958957,-0.24444279,-0.41010854,0.17929195,1.3783937,0.025067963,0.08628664,1.3253716,0.42424592,-0.14317088,-0.06793838,0.42983526,0.061589833,-0.5096607,-0.5791082,0.116295844,788.93774,794.9817,801.8315,788.5348,777.6557,-0.20037841796875,0.08746337890625,0.99432373046875,0.01495361328125,-1.89910888671875,1.375732421875,1,1.0,1.0,1.0,1.0,20.00
2024-09-29 18:16:54.035,0.67420226,0.5707625,0.51066875,0.7499061,0.45958957,-0.24444279,-0.41010854,0.17929195,1.3783937,0.025067963,0.08628664,1.3253716,0.42424592,-0.14317088,-0.06793838,0.42983526,0.061589833,-0.5096607,-0.5791082,0.116295844,792.5641,792.5641,795.78754,784.10254,695.4579,-0.20037841796875,0.08746337890625,0.99432373046875,0.01495361328125,-1.89910888671875,1.375732421875,1,1.0,1.0,1.0,1.0,20.00
2024-09-29 18:16:54.035,0.67420226,0.5707625,0.51066875,0.7499061,0.45958957,-0.24444279,-0.41010854,0.17929195,1.3783937,0.025067963,0.08628664,1.3253716,0.42424592,-0.14317088,-0.06793838,0.42983526,0.061589833,-0.5096607,-0.5791082,0.116295844,800.2198,797.8022,795.38464,787.326,971.4652,-0.20037841796875,0.08746337890625,0.99432373046875,0.01495361328125,-1.89910888671875,1.375732421875,1,1.0,1.0,1.0,1.0,20.00
2024-09-29 18:16:54.036,0.67420226,0.5707625,0.51066875,0.7499061,0.45958957,-0.24444279,-0.41010854,0.17929195,1.3783937,0.025067963,0.08628664,1.3253716,0.42424592,-0.14317088,-0.06793838,0.42983526,0.061589833,-0.5096607,-0.5791082,0.116295844,799.41394,800.2198,798.20514,789.34064,990.0,-0.20037841796875,0.08746337890625,0.99432373046875,0.01495361328125,-1.89910888671875,1.375732421875,1,1.0,1.0,1.0,1.0,20.00
2024-09-29 18:16:54.037,0.67420226,0.5707625,0.51066875,0.7499061,0.45958957,-0.24444279,-0.41010854,0.17929195,1.3783937,0.025067963,0.08628664,1.3253716,0.42424592,-0.14317088,-0.06793838,0.42983526,0.061589833,-0.5096607,-0.5791082,0.116295844,796.99634,798.20514,801.4286,793.36993,682.1612,-0.20037841796875,0.08746337890625,0.99432373046875,0.01495361328125,-1.89910888671875,1.375732421875,1,1.0,1.0,1.0,1.0,20.00
2024-09-29 18:16:54.037,0.67420226,0.5707625,0.51066875,0.7499061,0.45958957,-0.24444279,-0.41010854,0.17929195,1.3783937,0.025067963,0.08628664,1.3253716,0.42424592,-0.14317088,-0.06793838,0.42983526,0.061589833,-0.5096607,-0.5791082,0.116295844,802.23444,795.78754,807.0696,797.3993,683.7729,-0.20037841796875,0.08746337890625,0.99432373046875,0.01495361328125,-1.89910888671875,1.375732421875,1,1.0,1.0,1.0,1.0,20.00
2024-09-29 18:16:54.038,0.67420226,0.5707625,0.51066875,0.7499061,0.45958957,-0.24444279,-0.41010854,0.17929195,1.3783937,0.025067963,0.08628664,1.3253716,0.42424592,-0.14317088,-0.06793838,0.42983526,0.061589833,-0.5096607,-0.5791082,0.116295844,801.02563,796.99634,803.0403,798.20514,827.2161,-0.20037841796875,0.08746337890625,0.99432373046875,0.01495361328125,-1.89910888671875,1.375732421875,1,1.0,1.0,1.0,1.0,20.00
2024-09-29 18:16:54.038,0.67420226,0.5707625,0.51066875,0.7499061,0.45958957,-0.24444279,-0.41010854,0.17929195,1.3783937,0.025067963,0.08628664,1.3253716,0.42424592,-0.14317088,-0.06793838,0.42983526,0.061589833,-0.5096607,-0.5791082,0.116295844,802.6374,799.81683,799.011,797.8022,784.10254,-0.20037841796875,0.08746337890625,0.99432373046875,0.01495361328125,-1.89910888671875,1.375732421875,1,1.0,1.0,1.0,1.0,20.00
2024-09-29 18:16:54.039,0.67420226,0.5707625,0.51066875,0.7499061,0.45958957,-0.24444279,-0.41010854,0.17929195,1.3783937,0.025067963,0.08628664,1.3253716,0.42424592,-0.14317088,-0.06793838,0.42983526,0.061589833,-0.5096607,-0.5791082,0.116295844,810.293,799.81683,801.02563,792.5641,691.8315,-0.20037841796875,0.08746337890625,0.99432373046875,0.01495361328125,-1.89910888671875,1.375732421875,1,1.0,1.0,1.0,1.0,20.00
2024-09-29 18:16:54.065,0.67420226,0.5707625,0.51066875,0.7499061,0.45958957,-0.24444279,-0.41010854,0.17929195,1.3783937,0.025067963,0.08628664,1.3253716,0.42424592,-0.14317088,-0.06793838,0.42983526,0.061589833,-0.5096607,-0.5791082,0.116295844,813.5165,798.20514,802.6374,791.75824,660.0,-0.198974609375,0.088623046875,0.983154296875,0.276641845703125,-1.248626708984375,0.291595458984375,1,1.0,1.0,1.0,1.0,20.00
2024-09-29 18:16:54.066,0.67420226,0.5707625,0.51066875,0.7499061,0.45958957,-0.24444279,-0.41010854,0.17929195,1.3783937,0.025067963,0.08628664,1.3253716,0.42424592,-0.14317088,-0.06793838,0.42983526,0.061589833,-0.5096607,-0.5791082,0.116295844,816.7399,799.011,804.2491,811.9048,984.35895,-0.198974609375,0.088623046875,0.983154296875,0.276641845703125,-1.248626708984375,0.291595458984375,1,1.0,1.0,1.0,1.0,20.00
2024-09-29 18:16:54.067,0.67420226,0.5707625,0.51066875,0.7499061,0.45958957,-0.24444279,-0.41010854,0.17929195,1.3783937,0.025067963,0.08628664,1.3253716,0.42424592,-0.14317088,-0.06793838,0.42983526,0.061589833,-0.5096607,-0.5791082,0.116295844,817.5458,801.4286,804.2491,816.337,966.63007,-0.198974609375,0.088623046875,0.983154296875,0.276641845703125,-1.248626708984375,0.291595458984375,1,1.0,1.0,1.0,1.0,20.00
2024-09-29 18:16:54.068,0.67420226,0.5707625,0.51066875,0.7499061,0.45958957,-0.24444279,-0.41010854,0.17929195,1.3783937,0.025067963,0.08628664,1.3253716,0.42424592,-0.14317088,-0.06793838,0.42983526,0.061589833,-0.5096607,-0.5791082,0.116295844,823.1868,803.8461,802.6374,813.5165,699.89014,-0.198974609375,0.088623046875,0.983154296875,0.276641845703125,-1.248626708984375,0.291595458984375,1,1.0,1.0,1.0,1.0,20.00
2024-09-29 18:16:54.068,0.67420226,0.5707625,0.51066875,0.7499061,0.45958957,-0.24444279,-0.41010854,0.17929195,1.3783937,0.025067963,0.08628664,1.3253716,0.42424592,-0.14317088,-0.06793838,0.42983526,0.061589833,-0.5096607,-0.5791082,0.116295844,815.5311,802.23444,804.2491,818.7546,760.7326,-0.198974609375,0.088623046875,0.983154296875,0.276641845703125,-1.248626708984375,0.291595458984375,1,1.0,1.0,1.0,1.0,20.00
2024-09-29 18:16:54.069,0.67420226,0.5707625,0.51066875,0.7499061,0.45958957,-0.24444279,-0.41010854,0.17929195,1.3783937,0.025067963,0.08628664,1.3253716,0.42424592,-0.14317088,-0.06793838,0.42983526,0.061589833,-0.5096607,-0.5791082,0.116295844,807.0696,801.8315,805.05493,823.1868,992.01465,-0.198974609375,0.088623046875,0.983154296875,0.276641845703125,-1.248626708984375,0.291595458984375,1,1.0,1.0,1.0,1.0,20.00
2024-09-29 18:16:54.069,0.67420226,0.5707625,0.51066875,0.7499061,0.45958957,-0.24444279,-0.41010854,0.17929195,1.3783937,0.025067963,0.08628664,1.3253716,0.42424592,-0.14317088,-0.06793838,0.42983526,0.061589833,-0.5096607,-0.5791082,0.116295844,808.2784,801.8315,803.8461,825.2015,1007.72894,-0.198974609375,0.088623046875,0.983154296875,0.276641845703125,-1.248626708984375,0.291595458984375,1,1.0,1.0,1.0,1.0,20.00
2024-09-29 18:16:54.070,0.67420226,0.5707625,0.51066875,0.7499061,0.45958957,-0.24444279,-0.41010854,0.17929195,1.3783937,0.025067963,0.08628664,1.3253716,0.42424592,-0.14317088,-0.06793838,0.42983526,0.061589833,-0.5096607,-0.5791082,0.116295844,805.4579,801.8315,803.0403,822.381,856.2271,-0.198974609375,0.088623046875,0.983154296875,0.276641845703125,-1.248626708984375,0.291595458984375,1,1.0,1.0,1.0,1.0,20.00
2024-09-29 18:16:54.071,0.67420226,0.5707625,0.51066875,0.7499061,0.45958957,-0.24444279,-0.41010854,0.17929195,1.3783937,0.025067963,0.08628664,1.3253716,0.42424592,-0.14317088,-0.06793838,0.42983526,0.061589833,-0.5096607,-0.5791082,0.116295844,803.44324,803.0403,802.6374,817.1429,763.1502,-0.198974609375,0.088623046875,0.983154296875,0.276641845703125,-1.248626708984375,0.291595458984375,1,1.0,1.0,1.0,1.0,20.00
2024-09-29 18:16:54.071,0.67420226,0.5707625,0.51066875,0.7499061,0.45958957,-0.24444279,-0.41010854,0.17929195,1.3783937,0.025067963,0.08628664,1.3253716,0.42424592,-0.14317088,-0.06793838,0.42983526,0.061589833,-0.5096607,-0.5791082,0.116295844,813.1135,804.2491,803.44324,822.7839,697.8755,-0.198974609375,0.088623046875,0.983154296875,0.276641845703125,-1.248626708984375,0.291595458984375,1,1.0,1.0,1.0,1.0,20.00
2024-09-29 18:16:54.072,0.67420226,0.5707625,0.51066875,0.7499061,0.45958957,-0.24444279,-0.41010854,0.17929195,1.3783937,0.025067963,0.08628664,1.3253716,0.42424592,-0.14317088,-0.06793838,0.42983526,0.061589833,-0.5096607,-0.5791082,0.116295844,816.7399,804.2491,802.23444,825.2015,765.56775,-0.198974609375,0.088623046875,0.983154296875,0.276641845703125,-1.248626708984375,0.291595458984375,1,1.0,1.0,1.0,1.0,20.00
2024-09-29 18:16:54.072,0.67420226,0.5707625,0.51066875,0.7499061,0.45958957,-0.24444279,-0.41010854,0.17929195,1.3783937,0.025067963,0.08628664,1.3253716,0.42424592,-0.14317088,-0.06793838,0.42983526,0.061589833,-0.5096607,-0.5791082,0.116295844,811.9048,806.26373,804.2491,812.71063,888.46155,-0.198974609375,0.088623046875,0.983154296875,0.276641845703125,-1.248626708984375,0.291595458984375,1,1.0,1.0,1.0,1.0,20.00
2024-09-29 18:16:54.128,0.67420226,0.5707625,0.51066875,0.7499061,0.45958957,-0.24444279,-0.41010854,0.17929195,1.3783937,0.025067963,0.08628664,1.3253716,0.42424592,-0.14317088,-0.06793838,0.42983526,0.061589833,-0.5096607,-0.5791082,0.116295844,816.337,810.293,805.05493,810.696,895.31134,-0.1851806640625,0.092529296875,0.988525390625,0.1495361328125,-2.504730224609375,0.949554443359375,1,1.0,1.0,1.0,1.0,20.00
2024-09-29 18:16:54.129,0.67420226,0.5707625,0.51066875,0.7499061,0.45958957,-0.24444279,-0.41010854,0.17929195,1.3783937,0.025067963,0.08628664,1.3253716,0.42424592,-0.14317088,-0.06793838,0.42983526,0.061589833,-0.5096607,-0.5791082,0.116295844,813.1135,809.4872,800.6227,808.2784,817.5458,-0.1851806640625,0.092529296875,0.988525390625,0.1495361328125,-2.504730224609375,0.949554443359375,1,1.0,1.0,1.0,1.0,20.00
2024-09-29 18:16:54.129,0.67420226,0.5707625,0.51066875,0.7499061,0.45958957,-0.24444279,-0.41010854,0.17929195,1.3783937,0.025067963,0.08628664,1.3253716,0.42424592,-0.14317088,-0.06793838,0.42983526,0.061589833,-0.5096607,-0.5791082,0.116295844,805.4579,807.8755,799.81683,808.68134,788.1319,-0.1851806640625,0.092529296875,0.988525390625,0.1495361328125,-2.504730224609375,0.949554443359375,1,1.0,1.0,1.0,1.0,20.00
2024-09-29 18:16:54.130,0.67420226,0.5707625,0.51066875,0.7499061,0.45958957,-0.24444279,-0.41010854,0.17929195,1.3783937,0.025067963,0.08628664,1.3253716,0.42424592,-0.14317088,-0.06793838,0.42983526,0.061589833,-0.5096607,-0.5791082,0.116295844,805.05493,805.4579,800.6227,805.4579,806.26373,-0.1851806640625,0.092529296875,0.988525390625,0.1495361328125,-2.504730224609375,0.949554443359375,1,1.0,1.0,1.0,1.0,20.00
2024-09-29 18:16:54.130,0.67420226,0.5707625,0.51066875,0.7499061,0.45958957,-0.24444279,-0.41010854,0.17929195,1.3783937,0.025067963,0.08628664,1.3253716,0.42424592,-0.14317088,-0.06793838,0.42983526,0.061589833,-0.5096607,-0.5791082,0.116295844,801.4286,803.44324,797.8022,800.2198,978.315,-0.1851806640625,0.092529296875,0.988525390625,0.1495361328125,-2.504730224609375,0.949554443359375,1,1.0,1.0,1.0,1.0,20.00
2024-09-29 18:16:54.131,0.6755266,0.5787676,0.5066995,0.75475305,0.42952335,-0.2371507,-0.41026425,0.19250888,1.3783937,0.025067963,0.06428921,1.3239871,0.41128775,-0.12561195,-0.074206404,0.42406878,0.10262533,-0.49120933,-0.62945056,0.1037585,799.41394,808.68134,796.1905,797.3993,1037.9487,-0.1851806640625,0.092529296875,0.988525390625,0.1495361328125,-2.504730224609375,0.949554443359375,1,1.0,1.0,1.0,1.0,20.00
2024-09-29 18:16:54.136,0.6755266,0.5787676,0.5066995,0.75475305,0.42952335,-0.2371507,-0.41026425,0.19250888,1.3783937,0.025067963,0.06428921,1.3239871,0.41128775,-0.12561195,-0.074206404,0.42406878,0.10262533,-0.49120933,-0.62945056,0.1037585,796.5934,813.91943,799.81683,794.9817,873.1502,-0.1851806640625,0.092529296875,0.988525390625,0.1495361328125,-2.504730224609375,0.949554443359375,1,1.0,1.0,1.0,1.0,20.00
2024-09-29 18:16:54.137,0.6755266,0.5787676,0.5066995,0.75475305,0.42952335,-0.2371507,-0.41026425,0.19250888,1.3783937,0.025067963,0.06428921,1.3239871,0.41128775,-0.12561195,-0.074206404,0.42406878,0.10262533,-0.49120933,-0.62945056,0.1037585,798.60803,808.2784,802.23444,799.81683,860.65936,-0.1851806640625,0.092529296875,0.988525390625,0.1495361328125,-2.504730224609375,0.949554443359375,1,1.0,1.0,1.0,1.0,20.00
2024-09-29 18:16:54.138,0.6755266,0.5787676,0.5066995,0.75475305,0.42952335,-0.2371507,-0.41026425,0.19250888,1.3783937,0.025067963,0.06428921,1.3239871,0.41128775,-0.12561195,-0.074206404,0.42406878,0.10262533,-0.49120933,-0.62945056,0.1037585,801.8315,806.26373,801.8315,808.2784,925.5311,-0.1851806640625,0.092529296875,0.988525390625,0.1495361328125,-2.504730224609375,0.949554443359375,1,1.0,1.0,1.0,1.0,20.00
2024-09-29 18:16:54.138,0.6755266,0.5787676,0.5066995,0.75475305,0.42952335,-0.2371507,-0.41026425,0.19250888,1.3783937,0.025067963,0.06428921,1.3239871,0.41128775,-0.12561195,-0.074206404,0.42406878,0.10262533,-0.49120933,-0.62945056,0.1037585,800.2198,807.0696,801.8315,800.6227,695.05493,-0.1851806640625,0.092529296875,0.988525390625,0.1495361328125,-2.504730224609375,0.949554443359375,1,1.0,1.0,1.0,1.0,20.00
2024-09-29 18:16:54.139,0.6755266,0.5787676,0.5066995,0.75475305,0.42952335,-0.2371507,-0.41026425,0.19250888,1.3783937,0.025067963,0.06428921,1.3239871,0.41128775,-0.12561195,-0.074206404,0.42406878,0.10262533,-0.49120933,-0.62945056,0.1037585,796.99634,806.6667,800.2198,795.78754,697.47253,-0.1851806640625,0.092529296875,0.988525390625,0.1495361328125,-2.504730224609375,0.949554443359375,1,1.0,1.0,1.0,1.0,20.00
2024-09-29 18:16:54.140,0.6755266,0.5787676,0.5066995,0.75475305,0.42952335,-0.2371507,-0.41026425,0.19250888,1.3783937,0.025067963,0.06428921,1.3239871,0.41128775,-0.12561195,-0.074206404,0.42406878,0.10262533,-0.49120933,-0.62945056,0.1037585,802.6374,807.0696,801.8315,807.8755,932.381,-0.1851806640625,0.092529296875,0.988525390625,0.1495361328125,-2.504730224609375,0.949554443359375,1,1.0,1.0,1.0,1.0,20.00
2024-09-29 18:16:54.166,0.6755266,0.5787676,0.5066995,0.75475305,0.42952335,-0.2371507,-0.41026425,0.19250888,1.3783937,0.025067963,0.06428921,1.3239871,0.41128775,-0.12561195,-0.074206404,0.42406878,0.10262533,-0.49120933,-0.62945056,0.1037585,809.89014,806.6667,808.2784,815.5311,1160.0366,-0.1986083984375,0.08843994140625,0.9884033203125,-0.4486083984375,-1.293487548828125,1.06170654296875,1,1.0,1.0,1.0,1.0,20.00
2024-09-29 18:16:54.167,0.6755266,0.5787676,0.5066995,0.75475305,0.42952335,-0.2371507,-0.41026425,0.19250888,1.3783937,0.025067963,0.06428921,1.3239871,0.41128775,-0.12561195,-0.074206404,0.42406878,0.10262533,-0.49120933,-0.62945056,0.1037585,809.0842,807.47253,811.9048,808.68134,904.57874,-0.1986083984375,0.08843994140625,0.9884033203125,-0.4486083984375,-1.293487548828125,1.06170654296875,1,1.0,1.0,1.0,1.0,20.00
2024-09-29 18:16:54.168,0.6755266,0.5787676,0.5066995,0.75475305,0.42952335,-0.2371507,-0.41026425,0.19250888,1.3783937,0.025067963,0.06428921,1.3239871,0.41128775,-0.12561195,-0.074206404,0.42406878,0.10262533,-0.49120933,-0.62945056,0.1037585,810.293,808.2784,804.2491,809.89014,606.8132,-0.1986083984375,0.08843994140625,0.9884033203125,-0.4486083984375,-1.293487548828125,1.06170654296875,1,1.0,1.0,1.0,1.0,20.00
2024-09-29 18:16:54.169,0.6755266,0.5787676,0.5066995,0.75475305,0.42952335,-0.2371507,-0.41026425,0.19250888,1.3783937,0.025067963,0.06428921,1.3239871,0.41128775,-0.12561195,-0.074206404,0.42406878,0.10262533,-0.49120933,-0.62945056,0.1037585,814.7253,802.6374,797.3993,822.381,745.82416,-0.1986083984375,0.08843994140625,0.9884033203125,-0.4486083984375,-1.293487548828125,1.06170654296875,1,1.0,1.0,1.0,1.0,20.00
2024-09-29 18:16:54.169,0.6755266,0.5787676,0.5066995,0.75475305,0.42952335,-0.2371507,-0.41026425,0.19250888,1.3783937,0.025067963,0.06428921,1.3239871,0.41128775,-0.12561195,-0.074206404,0.42406878,0.10262533,-0.49120933,-0.62945056,0.1037585,814.3223,799.41394,799.81683,822.381,854.21246,-0.1986083984375,0.08843994140625,0.9884033203125,-0.4486083984375,-1.293487548828125,1.06170654296875,1,1.0,1.0,1.0,1.0,20.00
2024-09-29 18:16:54.170,0.6755266,0.5787676,0.5066995,0.75475305,0.42952335,-0.2371507,-0.41026425,0.19250888,1.3783937,0.025067963,0.06428921,1.3239871,0.41128775,-0.12561195,-0.074206404,0.42406878,0.10262533,-0.49120933,-0.62945056,0.1037585,815.12823,802.6374,801.4286,818.3516,807.47253,-0.1986083984375,0.08843994140625,0.9884033203125,-0.4486083984375,-1.293487548828125,1.06170654296875,1,1.0,1.0,1.0,1.0,20.00
2024-09-29 18:16:54.171,0.6755266,0.5787676,0.5066995,0.75475305,0.42952335,-0.2371507,-0.41026425,0.19250888,1.3783937,0.025067963,0.06428921,1.3239871,0.41128775,-0.12561195,-0.074206404,0.42406878,0.10262533,-0.49120933,-0.62945056,0.1037585,817.1429,799.011,800.6227,818.7546,688.20514,-0.1986083984375,0.08843994140625,0.9884033203125,-0.4486083984375,-1.293487548828125,1.06170654296875,1,1.0,1.0,1.0,1.0,20.00
2024-09-29 18:16:54.171,0.6755266,0.5787676,0.5066995,0.75475305,0.42952335,-0.2371507,-0.41026425,0.19250888,1.3783937,0.025067963,0.06428921,1.3239871,0.41128775,-0.12561195,-0.074206404,0.42406878,0.10262533,-0.49120933,-0.62945056,0.1037585,815.9341,795.38464,800.2198,823.1868,738.97437,-0.1986083984375,0.08843994140625,0.9884033203125,-0.4486083984375,-1.293487548828125,1.06170654296875,1,1.0,1.0,1.0,1.0,20.00
2024-09-29 18:16:54.172,0.6755266,0.5787676,0.5066995,0.75475305,0.42952335,-0.2371507,-0.41026425,0.19250888,1.3783937,0.025067963,0.06428921,1.3239871,0.41128775,-0.12561195,-0.074206404,0.42406878,0.10262533,-0.49120933,-0.62945056,0.1037585,817.1429,798.20514,800.6227,830.4396,869.92676,-0.1986083984375,0.08843994140625,0.9884033203125,-0.4486083984375,-1.293487548828125,1.06170654296875,1,1.0,1.0,1.0,1.0,20.00
2024-09-29 18:16:54.172,0.6755266,0.5787676,0.5066995,0.75475305,0.42952335,-0.2371507,-0.41026425,0.19250888,1.3783937,0.025067963,0.06428921,1.3239871,0.41128775,-0.12561195,-0.074206404,0.42406878,0.10262533,-0.49120933,-0.62945056,0.1037585,810.696,806.26373,801.4286,826.0073,763.95605,-0.1986083984375,0.08843994140625,0.9884033203125,-0.4486083984375,-1.293487548828125,1.06170654296875,1,1.0,1.0,1.0,1.0,20.00
2024-09-29 18:16:54.173,0.6755266,0.5787676,0.5066995,0.75475305,0.42952335,-0.2371507,-0.41026425,0.19250888,1.3783937,0.025067963,0.06428921,1.3239871,0.41128775,-0.12561195,-0.074206404,0.42406878,0.10262533,-0.49120933,-0.62945056,0.1037585,806.26373,810.696,803.44324,817.9487,578.20514,-0.1986083984375,0.08843994140625,0.9884033203125,-0.4486083984375,-1.293487548828125,1.06170654296875,1,1.0,1.0,1.0,1.0,20.00
2024-09-29 18:16:54.174,0.6755266,0.5787676,0.5066995,0.75475305,0.42952335,-0.2371507,-0.41026425,0.19250888,1.3783937,0.025067963,0.06428921,1.3239871,0.41128775,-0.12561195,-0.074206404,0.42406878,0.10262533,-0.49120933,-0.62945056,0.1037585,806.6667,809.4872,801.8315,820.7692,703.1135,-0.1986083984375,0.08843994140625,0.9884033203125,-0.4486083984375,-1.293487548828125,1.06170654296875,1,1.0,1.0,1.0,1.0,20.00
2024-09-29 18:16:54.174,0.6755266,0.5787676,0.5066995,0.75475305,0.42952335,-0.2371507,-0.41026425,0.19250888,1.3783937,0.025067963,0.06428921,1.3239871,0.41128775,-0.12561195,-0.074206404,0.42406878,0.10262533,-0.49120933,-0.62945056,0.1037585,800.2198,803.8461,800.2198,815.12823,813.5165,-0.20111083984375,0.087646484375,0.98895263671875,-0.157012939453125,-1.697235107421875,0.934600830078125,1,1.0,1.0,1.0,1.0,20.00
2024-09-29 18:16:54.175,0.6755266,0.5787676,0.5066995,0.75475305,0.42952335,-0.2371507,-0.41026425,0.19250888,1.3783937,0.025067963,0.06428921,1.3239871,0.41128775,-0.12561195,-0.074206404,0.42406878,0.10262533,-0.49120933,-0.62945056,0.1037585,790.54944,800.2198,796.99634,809.4872,652.74725,-0.20111083984375,0.087646484375,0.98895263671875,-0.157012939453125,-1.697235107421875,0.934600830078125,1,1.0,1.0,1.0,1.0,20.00
2024-09-29 18:16:54.176,0.6755266,0.5787676,0.5066995,0.75475305,0.42952335,-0.2371507,-0.41026425,0.19250888,1.3783937,0.025067963,0.06428921,1.3239871,0.41128775,-0.12561195,-0.074206404,0.42406878,0.10262533,-0.49120933,-0.62945056,0.1037585,789.7436,802.6374,794.57874,801.02563,616.4835,-0.20111083984375,0.087646484375,0.98895263671875,-0.157012939453125,-1.697235107421875,0.934600830078125,1,1.0,1.0,1.0,1.0,20.00
2024-09-29 18:16:54.176,0.6755266,0.5787676,0.5066995,0.75475305,0.42952335,-0.2371507,-0.41026425,0.19250888,1.3783937,0.025067963,0.06428921,1.3239871,0.41128775,-0.12561195,-0.074206404,0.42406878,0.10262533,-0.49120933,-0.62945056,0.1037585,794.57874,805.8608,797.3993,792.96704,765.16486,-0.20111083984375,0.087646484375,0.98895263671875,-0.157012939453125,-1.697235107421875,0.934600830078125,1,1.0,1.0,1.0,1.0,20.00
2024-09-29 18:16:54.177,0.6755266,0.5787676,0.5066995,0.75475305,0.42952335,-0.2371507,-0.41026425,0.19250888,1.3783937,0.025067963,0.06428921,1.3239871,0.41128775,-0.12561195,-0.074206404,0.42406878,0.10262533,-0.49120933,-0.62945056,0.1037585,795.38464,809.4872,799.81683,795.78754,885.2381,-0.20111083984375,0.087646484375,0.98895263671875,-0.157012939453125,-1.697235107421875,0.934600830078125,1,1.0,1.0,1.0,1.0,20.00
2024-09-29 18:16:54.178,0.6755266,0.5787676,0.5066995,0.75475305,0.42952335,-0.2371507,-0.41026425,0.19250888,1.3783937,0.025067963,0.06428921,1.3239871,0.41128775,-0.12561195,-0.074206404,0.42406878,0.10262533,-0.49120933,-0.62945056,0.1037585,794.9817,809.0842,801.02563,796.5934,868.71796,-0.20111083984375,0.087646484375,0.98895263671875,-0.157012939453125,-1.697235107421875,0.934600830078125,1,1.0,1.0,1.0,1.0,20.00
2024-09-29 18:16:54.178,0.6755266,0.5787676,0.5066995,0.75475305,0.42952335,-0.2371507,-0.41026425,0.19250888,1.3783937,0.025067963,0.06428921,1.3239871,0.41128775,-0.12561195,-0.074206404,0.42406878,0.10262533,-0.49120933,-0.62945056,0.1037585,793.7729,803.44324,798.20514,790.54944,915.4579,-0.20111083984375,0.087646484375,0.98895263671875,-0.157012939453125,-1.697235107421875,0.934600830078125,1,1.0,1.0,1.0,1.0,20.00
2024-09-29 18:16:54.179,0.6659862,0.57601887,0.48817322,0.7545964,0.39936987,-0.23467508,-0.4174455,0.20546658,1.3783937,0.025067963,0.051891617,1.3221102,0.40637323,-0.10812136,-0.08465795,0.4150323,0.13655922,-0.4792248,-0.6863595,0.08171451,794.17584,808.2784,796.5934,797.3993,1088.3151,-0.20111083984375,0.087646484375,0.98895263671875,-0.157012939453125,-1.697235107421875,0.934600830078125,1,1.0,1.0,1.0,1.0,20.00
2024-09-29 18:16:54.184,0.6659862,0.57601887,0.48817322,0.7545964,0.39936987,-0.23467508,-0.4174455,0.20546658,1.3783937,0.025067963,0.051891617,1.3221102,0.40637323,-0.10812136,-0.08465795,0.4150323,0.13655922,-0.4792248,-0.6863595,0.08171451,792.1612,813.5165,797.3993,797.8022,1037.9487,-0.20111083984375,0.087646484375,0.98895263671875,-0.157012939453125,-1.697235107421875,0.934600830078125,1,1.0,1.0,1.0,1.0,20.00
2024-09-29 18:16:54.184,0.6659862,0.57601887,0.48817322,0.7545964,0.39936987,-0.23467508,-0.4174455,0.20546658,1.3783937,0.025067963,0.051891617,1.3221102,0.40637323,-0.10812136,-0.08465795,0.4150323,0.13655922,-0.4792248,-0.6863595,0.08171451,788.1319,811.9048,794.57874,786.1172,848.1685,-0.20111083984375,0.087646484375,0.98895263671875,-0.157012939453125,-1.697235107421875,0.934600830078125,1,1.0,1.0,1.0,1.0,20.00
2024-09-29 18:16:54.185,0.6659862,0.57601887,0.48817322,0.7545964,0.39936987,-0.23467508,-0.4174455,0.20546658,1.3783937,0.025067963,0.051891617,1.3221102,0.40637323,-0.10812136,-0.08465795,0.4150323,0.13655922,-0.4792248,-0.6863595,0.08171451,789.7436,809.4872,796.5934,786.1172,798.60803,-0.20111083984375,0.087646484375,0.98895263671875,-0.157012939453125,-1.697235107421875,0.934600830078125,1,1.0,1.0,1.0,1.0,20.00
2024-09-29 18:16:54.185,0.6659862,0.57601887,0.48817322,0.7545964,0.39936987,-0.23467508,-0.4174455,0.20546658,1.3783937,0.025067963,0.051891617,1.3221102,0.40637323,-0.10812136,-0.08465795,0.4150323,0.13655922,-0.4792248,-0.6863595,0.08171451,793.36993,811.9048,800.6227,787.72894,843.73627,-0.20111083984375,0.087646484375,0.98895263671875,-0.157012939453125,-1.697235107421875,0.934600830078125,1,1.0,1.0,1.0,1.0,20.00
2024-09-29 18:16:54.248,0.6659862,0.57601887,0.48817322,0.7545964,0.39936987,-0.23467508,-0.4174455,0.20546658,1.3783937,0.025067963,0.051891617,1.3221102,0.40637323,-0.10812136,-0.08465795,0.4150323,0.13655922,-0.4792248,-0.6863595,0.08171451,792.96704,811.0989,798.60803,786.1172,784.10254,-0.20111083984375,0.087646484375,0.98895263671875,-0.157012939453125,-1.697235107421875,0.934600830078125,1,1.0,1.0,1.0,1.0,20.00
2024-09-29 18:16:54.249,0.6659862,0.57601887,0.48817322,0.7545964,0.39936987,-0.23467508,-0.4174455,0.20546658,1.3783937,0.025067963,0.051891617,1.3221102,0.40637323,-0.10812136,-0.08465795,0.4150323,0.13655922,-0.4792248,-0.6863595,0.08171451,800.2198,808.2784,799.41394,794.17584,679.7436,-0.20111083984375,0.087646484375,0.98895263671875,-0.157012939453125,-1.697235107421875,0.934600830078125,1,1.0,1.0,1.0,1.0,20.00
2024-09-29 18:16:54.249,0.6659862,0.57601887,0.48817322,0.7545964,0.39936987,-0.23467508,-0.4174455,0.20546658,1.3783937,0.025067963,0.051891617,1.3221102,0.40637323,-0.10812136,-0.08465795,0.4150323,0.13655922,-0.4792248,-0.6863595,0.08171451,811.50183,807.47253,802.23444,804.65204,720.0366,-0.20111083984375,0.087646484375,0.98895263671875,-0.157012939453125,-1.697235107421875,0.934600830078125,1,1.0,1.0,1.0,1.0,20.00
2024-09-29 18:16:54.250,0.6659862,0.57601887,0.48817322,0.7545964,0.39936987,-0.23467508,-0.4174455,0.20546658,1.3783937,0.025067963,0.051891617,1.3221102,0.40637323,-0.10812136,-0.08465795,0.4150323,0.13655922,-0.4792248,-0.6863595,0.08171451,807.0696,808.2784,800.6227,811.50183,935.6044,-0.20111083984375,0.087646484375,0.98895263671875,-0.157012939453125,-1.697235107421875,0.934600830078125,1,1.0,1.0,1.0,1.0,20.00
2024-09-29 18:16:54.250,0.6659862,0.57601887,0.48817322,0.7545964,0.39936987,-0.23467508,-0.4174455,0.20546658,1.3783937,0.025067963,0.051891617,1.3221102,0.40637323,-0.10812136,-0.08465795,0.4150323,0.13655922,-0.4792248,-0.6863595,0.08171451,807.47253,813.1135,805.4579,823.5897,901.75824,-0.20111083984375,0.087646484375,0.98895263671875,-0.157012939453125,-1.697235107421875,0.934600830078125,1,1.0,1.0,1.0,1.0,20.00
2024-09-29 18:16:54.251,0.6659862,0.57601887,0.48817322,0.7545964,0.39936987,-0.23467508,-0.4174455,0.20546658,1.3783937,0.025067963,0.051891617,1.3221102,0.40637323,-0.10812136,-0.08465795,0.4150323,0.13655922,-0.4792248,-0.6863595,0.08171451,821.1722,811.0989,805.8608,827.2161,925.12823,-0.20111083984375,0.087646484375,0.98895263671875,-0.157012939453125,-1.697235107421875,0.934600830078125,1,1.0,1.0,1.0,1.0,20.00
2024-09-29 18:16:54.252,0.6659862,0.57601887,0.48817322,0.7545964,0.39936987,-0.23467508,-0.4174455,0.20546658,1.3783937,0.025067963,0.051891617,1.3221102,0.40637323,-0.10812136,-0.08465795,0.4150323,0.13655922,-0.4792248,-0.6863595,0.08171451,828.8278,809.89014,801.8315,822.381,1062.1245,-0.20111083984375,0.087646484375,0.98895263671875,-0.157012939453125,-1.697235107421875,0.934600830078125,1,1.0,1.0,1.0,1.0,20.00
2024-09-29 18:16:54.252,0.6659862,0.57601887,0.48817322,0.7545964,0.39936987,-0.23467508,-0.4174455,0.20546658,1.3783937,0.025067963,0.051891617,1.3221102,0.40637323,-0.10812136,-0.08465795,0.4150323,0.13655922,-0.4792248,-0.6863595,0.08171451,825.2015,809.4872,808.68134,831.2454,1241.4286,-0.20111083984375,0.087646484375,0.98895263671875,-0.157012939453125,-1.697235107421875,0.934600830078125,1,1.0,1.0,1.0,1.0,20.00
2024-09-29 18:16:54.253,0.6659862,0.57601887,0.48817322,0.7545964,0.39936987,-0.23467508,-0.4174455,0.20546658,1.3783937,0.025067963,0.051891617,1.3221102,0.40637323,-0.10812136,-0.08465795,0.4150323,0.13655922,-0.4792248,-0.6863595,0.08171451,818.3516,812.3077,814.3223,836.08057,1271.2454,-0.20111083984375,0.087646484375,0.98895263671875,-0.157012939453125,-1.697235107421875,0.934600830078125,1,1.0,1.0,1.0,1.0,20.00
2024-09-29 18:16:54.254,0.6659862,0.57601887,0.48817322,0.7545964,0.39936987,-0.23467508,-0.4174455,0.20546658,1.3783937,0.025067963,0.051891617,1.3221102,0.40637323,-0.10812136,-0.08465795,0.4150323,0.13655922,-0.4792248,-0.6863595,0.08171451,807.8755,814.3223,811.0989,825.2015,973.47986,-0.20111083984375,0.087646484375,0.98895263671875,-0.157012939453125,-1.697235107421875,0.934600830078125,1,1.0,1.0,1.0,1.0,20.00
2024-09-29 18:16:54.255,0.6659862,0.57601887,0.48817322,0.7545964,0.39936987,-0.23467508,-0.4174455,0.20546658,1.3783937,0.025067963,0.051891617,1.3221102,0.40637323,-0.10812136,-0.08465795,0.4150323,0.13655922,-0.4792248,-0.6863595,0.08171451,797.3993,806.6667,811.50183,814.7253,857.4359,-0.20111083984375,0.087646484375,0.98895263671875,-0.157012939453125,-1.697235107421875,0.934600830078125,1,1.0,1.0,1.0,1.0,20.00
2024-09-29 18:16:54.256,0.6659862,0.57601887,0.48817322,0.7545964,0.39936987,-0.23467508,-0.4174455,0.20546658,1.3783937,0.025067963,0.051891617,1.3221102,0.40637323,-0.10812136,-0.08465795,0.4150323,0.13655922,-0.4792248,-0.6863595,0.08171451,800.2198,807.8755,807.0696,816.337,761.9414,-0.20111083984375,0.087646484375,0.98895263671875,-0.157012939453125,-1.697235107421875,0.934600830078125,1,1.0,1.0,1.0,1.0,20.00
2024-09-29 18:16:54.257,0.6659862,0.57601887,0.48817322,0.7545964,0.39936987,-0.23467508,-0.4174455,0.20546658,1.3783937,0.025067963,0.051891617,1.3221102,0.40637323,-0.10812136,-0.08465795,0.4150323,0.13655922,-0.4792248,-0.6863595,0.08171451,804.65204,811.9048,805.05493,820.7692,541.13556,-0.20501708984375,0.08477783203125,0.98870849609375,0.299072265625,-1.173858642578125,-0.0299072265625,1,1.0,1.0,1.0,1.0,20.00
2024-09-29 18:16:54.258,0.6659862,0.57601887,0.48817322,0.7545964,0.39936987,-0.23467508,-0.4174455,0.20546658,1.3783937,0.025067963,0.051891617,1.3221102,0.40637323,-0.10812136,-0.08465795,0.4150323,0.13655922,-0.4792248,-0.6863595,0.08171451,805.05493,809.4872,807.47253,810.696,636.63007,-0.20501708984375,0.08477783203125,0.98870849609375,0.299072265625,-1.173858642578125,-0.0299072265625,1,1.0,1.0,1.0,1.0,20.00
2024-09-29 18:16:54.259,0.6659862,0.57601887,0.48817322,0.7545964,0.39936987,-0.23467508,-0.4174455,0.20546658,1.3783937,0.025067963,0.051891617,1.3221102,0.40637323,-0.10812136,-0.08465795,0.4150323,0.13655922,-0.4792248,-0.6863595,0.08171451,802.6374,811.0989,803.44324,801.8315,840.9158,-0.20501708984375,0.08477783203125,0.98870849609375,0.299072265625,-1.173858642578125,-0.0299072265625,1,1.0,1.0,1.0,1.0,20.00
2024-09-29 18:16:54.259,0.6659862,0.57601887,0.48817322,0.7545964,0.39936987,-0.23467508,-0.4174455,0.20546658,1.3783937,0.025067963,0.051891617,1.3221102,0.40637323,-0.10812136,-0.08465795,0.4150323,0.13655922,-0.4792248,-0.6863595,0.08171451,796.1905,808.2784,801.02563,799.011,732.52747,-0.20501708984375,0.08477783203125,0.98870849609375,0.299072265625,-1.173858642578125,-0.0299072265625,1,1.0,1.0,1.0,1.0,20.00
2024-09-29 18:16:54.260,0.6659862,0.57601887,0.48817322,0.7545964,0.39936987,-0.23467508,-0.4174455,0.20546658,1.3783937,0.025067963,0.051891617,1.3221102,0.40637323,-0.10812136,-0.08465795,0.4150323,0.13655922,-0.4792248,-0.6863595,0.08171451,799.41394,804.65204,804.65204,795.78754,621.31866,-0.20501708984375,0.08477783203125,0.98870849609375,0.299072265625,-1.173858642578125,-0.0299072265625,1,1.0,1.0,1.0,1.0,20.00
2024-09-29 18:16:54.261,0.6659862,0.57601887,0.48817322,0.7545964,0.39936987,-0.23467508,-0.4174455,0.20546658,1.3783937,0.025067963,0.051891617,1.3221102,0.40637323,-0.10812136,-0.08465795,0.4150323,0.13655922,-0.4792248,-0.6863595,0.08171451,806.26373,805.05493,805.05493,798.60803,901.3553,-0.20501708984375,0.08477783203125,0.98870849609375,0.299072265625,-1.173858642578125,-0.0299072265625,1,1.0,1.0,1.0,1.0,20.00
2024-09-29 18:16:54.261,0.6659862,0.57601887,0.48817322,0.7545964,0.39936987,-0.23467508,-0.4174455,0.20546658,1.3783937,0.025067963,0.051891617,1.3221102,0.40637323,-0.10812136,-0.08465795,0.4150323,0.13655922,-0.4792248,-0.6863595,0.08171451,795.38464,800.6227,803.0403,799.81683,1185.8242,-0.20501708984375,0.08477783203125,0.98870849609375,0.299072265625,-1.173858642578125,-0.0299072265625,1,1.0,1.0,1.0,1.0,20.00
2024-09-29 18:16:54.262,0.6659862,0.57601887,0.48817322,0.7545964,0.39936987,-0.23467508,-0.4174455,0.20546658,1.3783937,0.025067963,0.051891617,1.3221102,0.40637323,-0.10812136,-0.08465795,0.4150323,0.13655922,-0.4792248,-0.6863595,0.08171451,790.54944,803.0403,805.4579,794.9817,960.18317,-0.20501708984375,0.08477783203125,0.98870849609375,0.299072265625,-1.173858642578125,-0.0299072265625,1,1.0,1.0,1.0,1.0,20.00
2024-09-29 18:16:54.263,0.6659862,0.57601887,0.48817322,0.7545964,0.39936987,-0.23467508,-0.4174455,0.20546658,1.3783937,0.025067963,0.051891617,1.3221102,0.40637323,-0.10812136,-0.08465795,0.4150323,0.13655922,-0.4792248,-0.6863595,0.08171451,787.72894,805.05493,803.8461,786.9231,671.685,-0.20501708984375,0.08477783203125,0.98870849609375,0.299072265625,-1.173858642578125,-0.0299072265625,1,1.0,1.0,1.0,1.0,20.00
2024-09-29 18:16:54.263,0.6484545,0.5693176,0.45227373,0.7553449,0.37090734,-0.2351595,-0.4260801,0.23140092,1.3783937,0.025067963,0.051891617,1.3206372,0.41027036,-0.09384717,-0.105818026,0.40840313,0.15812615,-0.47383982,-0.72741586,0.061099757,782.0879,803.8461,803.44324,783.69965,658.7912,-0.20501708984375,0.08477783203125,0.98870849609375,0.299072265625,-1.173858642578125,-0.0299072265625,1,1.0,1.0,1.0,1.0,20.00
2024-09-29 18:16:54.269,0.6484545,0.5693176,0.45227373,0.7553449,0.37090734,-0.2351595,-0.4260801,0.23140092,1.3783937,0.025067963,0.051891617,1.3206372,0.41027036,-0.09384717,-0.105818026,0.40840313,0.15812615,-0.47383982,-0.72741586,0.061099757,785.7143,803.0403,803.44324,791.75824,871.13556,-0.20501708984375,0.08477783203125,0.98870849609375,0.299072265625,-1.173858642578125,-0.0299072265625,1,1.0,1.0,1.0,1.0,20.00
2024-09-29 18:16:54.269,0.6484545,0.5693176,0.45227373,0.7553449,0.37090734,-0.2351595,-0.4260801,0.23140092,1.3783937,0.025067963,0.051891617,1.3206372,0.41027036,-0.09384717,-0.105818026,0.40840313,0.15812615,-0.47383982,-0.72741586,0.061099757,790.54944,799.011,796.1905,791.3553,849.3773,-0.20501708984375,0.08477783203125,0.98870849609375,0.299072265625,-1.173858642578125,-0.0299072265625,1,1.0,1.0,1.0,1.0,20.00
2024-09-29 18:16:54.297,0.6484545,0.5693176,0.45227373,0.7553449,0.37090734,-0.2351595,-0.4260801,0.23140092,1.3783937,0.025067963,0.051891617,1.3206372,0.41027036,-0.09384717,-0.105818026,0.40840313,0.15812615,-0.47383982,-0.72741586,0.061099757,796.99634,797.3993,795.38464,791.3553,697.47253,-0.19549560546875,0.09234619140625,0.989990234375,0.112152099609375,-1.495361328125,-0.3887939453125,1,1.0,1.0,1.0,1.0,20.00
2024-09-29 18:16:54.299,0.6484545,0.5693176,0.45227373,0.7553449,0.37090734,-0.2351595,-0.4260801,0.23140092,1.3783937,0.025067963,0.051891617,1.3206372,0.41027036,-0.09384717,-0.105818026,0.40840313,0.15812615,-0.47383982,-0.72741586,0.061099757,796.1905,803.8461,797.3993,792.96704,648.71796,-0.19549560546875,0.09234619140625,0.989990234375,0.112152099609375,-1.495361328125,-0.3887939453125,1,1.0,1.0,1.0,1.0,20.00
2024-09-29 18:16:54.300,0.6484545,0.5693176,0.45227373,0.7553449,0.37090734,-0.2351595,-0.4260801,0.23140092,1.3783937,0.025067963,0.051891617,1.3206372,0.41027036,-0.09384717,-0.105818026,0.40840313,0.15812615,-0.47383982,-0.72741586,0.061099757,794.17584,805.8608,799.41394,793.7729,800.6227,-0.19549560546875,0.09234619140625,0.989990234375,0.112152099609375,-1.495361328125,-0.3887939453125,1,1.0,1.0,1.0,1.0,20.00
2024-09-29 18:16:54.301,0.6484545,0.5693176,0.45227373,0.7553449,0.37090734,-0.2351595,-0.4260801,0.23140092,1.3783937,0.025067963,0.051891617,1.3206372,0.41027036,-0.09384717,-0.105818026,0.40840313,0.15812615,-0.47383982,-0.72741586,0.061099757,799.81683,801.4286,801.4286,804.2491,837.6923,-0.19549560546875,0.09234619140625,0.989990234375,0.112152099609375,-1.495361328125,-0.3887939453125,1,1.0,1.0,1.0,1.0,20.00
2024-09-29 18:16:54.302,0.6484545,0.5693176,0.45227373,0.7553449,0.37090734,-0.2351595,-0.4260801,0.23140092,1.3783937,0.025067963,0.051891617,1.3206372,0.41027036,-0.09384717,-0.105818026,0.40840313,0.15812615,-0.47383982,-0.72741586,0.061099757,806.26373,802.6374,801.4286,803.8461,721.6484,-0.19549560546875,0.09234619140625,0.989990234375,0.112152099609375,-1.495361328125,-0.3887939453125,1,1.0,1.0,1.0,1.0,20.00
2024-09-29 18:16:54.302,0.6484545,0.5693176,0.45227373,0.7553449,0.37090734,-0.2351595,-0.4260801,0.23140092,1.3783937,0.025067963,0.051891617,1.3206372,0.41027036,-0.09384717,-0.105818026,0.40840313,0.15812615,-0.47383982,-0.72741586,0.061099757,804.2491,805.4579,804.2491,801.02563,808.2784,-0.19549560546875,0.09234619140625,0.989990234375,0.112152099609375,-1.495361328125,-0.3887939453125,1,1.0,1.0,1.0,1.0,20.00
2024-09-29 18:16:54.303,0.6484545,0.5693176,0.45227373,0.7553449,0.37090734,-0.2351595,-0.4260801,0.23140092,1.3783937,0.025067963,0.051891617,1.3206372,0.41027036,-0.09384717,-0.105818026,0.40840313,0.15812615,-0.47383982,-0.72741586,0.061099757,811.0989,805.4579,801.02563,807.0696,1061.3187,-0.19549560546875,0.09234619140625,0.989990234375,0.112152099609375,-1.495361328125,-0.3887939453125,1,1.0,1.0,1.0,1.0,20.00
2024-09-29 18:16:54.304,0.6484545,0.5693176,0.45227373,0.7553449,0.37090734,-0.2351595,-0.4260801,0.23140092,1.3783937,0.025067963,0.051891617,1.3206372,0.41027036,-0.09384717,-0.105818026,0.40840313,0.15812615,-0.47383982,-0.72741586,0.061099757,819.5604,804.2491,795.78754,812.3077,953.3333,-0.19549560546875,0.09234619140625,0.989990234375,0.112152099609375,-1.495361328125,-0.3887939453125,1,1.0,1.0,1.0,1.0,20.00
2024-09-29 18:16:54.305,0.6484545,0.5693176,0.45227373,0.7553449,0.37090734,-0.2351595,-0.4260801,0.23140092,1.3783937,0.025067963,0.051891617,1.3206372,0.41027036,-0.09384717,-0.105818026,0.40840313,0.15812615,-0.47383982,-0.72741586,0.061099757,819.9634,804.2491,800.2198,823.5897,721.6484,-0.19549560546875,0.09234619140625,0.989990234375,0.112152099609375,-1.495361328125,-0.3887939453125,1,1.0,1.0,1.0,1.0,20.00
2024-09-29 18:16:54.305,0.6484545,0.5693176,0.45227373,0.7553449,0.37090734,-0.2351595,-0.4260801,0.23140092,1.3783937,0.025067963,0.051891617,1.3206372,0.41027036,-0.09384717,-0.105818026,0.40840313,0.15812615,-0.47383982,-0.72741586,0.061099757,820.3663,805.05493,803.8461,832.4542,725.6777,-0.19549560546875,0.09234619140625,0.989990234375,0.112152099609375,-1.495361328125,-0.3887939453125,1,1.0,1.0,1.0,1.0,20.00
2024-09-29 18:16:54.307,0.6484545,0.5693176,0.45227373,0.7553449,0.37090734,-0.2351595,-0.4260801,0.23140092,1.3783937,0.025067963,0.051891617,1.3206372,0.41027036,-0.09384717,-0.105818026,0.40840313,0.15812615,-0.47383982,-0.72741586,0.061099757,816.7399,806.6667,800.6227,838.9011,1129.414,-0.19549560546875,0.09234619140625,0.989990234375,0.112152099609375,-1.495361328125,-0.3887939453125,1,1.0,1.0,1.0,1.0,20.00
2024-09-29 18:16:54.308,0.6484545,0.5693176,0.45227373,0.7553449,0.37090734,-0.2351595,-0.4260801,0.23140092,1.3783937,0.025067963,0.051891617,1.3206372,0.41027036,-0.09384717,-0.105818026,0.40840313,0.15812615,-0.47383982,-0.72741586,0.061099757,817.9487,805.8608,799.011,840.10986,1331.2821,-0.19549560546875,0.09234619140625,0.989990234375,0.112152099609375,-1.495361328125,-0.3887939453125,1,1.0,1.0,1.0,1.0,20.00
2024-09-29 18:16:54.396,0.6484545,0.5693176,0.45227373,0.7553449,0.37090734,-0.2351595,-0.4260801,0.23140092,1.3783937,0.025067963,0.051891617,1.3206372,0.41027036,-0.09384717,-0.105818026,0.40840313,0.15812615,-0.47383982,-0.72741586,0.061099757,814.7253,801.8315,802.23444,825.6044,969.85345,-0.19635009765625,0.08624267578125,0.98028564453125,-0.695343017578125,-1.95892333984375,0.246734619140625,1,1.0,1.0,1.0,1.0,20.00
2024-09-29 18:16:54.397,0.6484545,0.5693176,0.45227373,0.7553449,0.37090734,-0.2351595,-0.4260801,0.23140092,1.3783937,0.025067963,0.051891617,1.3206372,0.41027036,-0.09384717,-0.105818026,0.40840313,0.15812615,-0.47383982,-0.72741586,0.061099757,810.293,800.2198,800.6227,809.89014,757.1062,-0.19635009765625,0.08624267578125,0.98028564453125,-0.695343017578125,-1.95892333984375,0.246734619140625,1,1.0,1.0,1.0,1.0,20.00
2024-09-29 18:16:54.398,0.6484545,0.5693176,0.45227373,0.7553449,0.37090734,-0.2351595,-0.4260801,0.23140092,1.3783937,0.025067963,0.051891617,1.3206372,0.41027036,-0.09384717,-0.105818026,0.40840313,0.15812615,-0.47383982,-0.72741586,0.061099757,809.4872,805.4579,803.44324,815.5311,751.06226,-0.19635009765625,0.08624267578125,0.98028564453125,-0.695343017578125,-1.95892333984375,0.246734619140625,1,1.0,1.0,1.0,1.0,20.00
2024-09-29 18:16:54.398,0.6484545,0.5693176,0.45227373,0.7553449,0.37090734,-0.2351595,-0.4260801,0.23140092,1.3783937,0.025067963,0.051891617,1.3206372,0.41027036,-0.09384717,-0.105818026,0.40840313,0.15812615,-0.47383982,-0.72741586,0.061099757,810.293,807.8755,807.0696,818.3516,781.685,-0.19635009765625,0.08624267578125,0.98028564453125,-0.695343017578125,-1.95892333984375,0.246734619140625,1,1.0,1.0,1.0,1.0,20.00
2024-09-29 18:16:54.399,0.6484545,0.5693176,0.45227373,0.7553449,0.37090734,-0.2351595,-0.4260801,0.23140092,1.3783937,0.025067963,0.051891617,1.3206372,0.41027036,-0.09384717,-0.105818026,0.40840313,0.15812615,-0.47383982,-0.72741586,0.061099757,816.337,803.0403,804.65204,811.9048,796.1905,-0.19635009765625,0.08624267578125,0.98028564453125,-0.695343017578125,-1.95892333984375,0.246734619140625,1,1.0,1.0,1.0,1.0,20.00
2024-09-29 18:16:54.400,0.6484545,0.5693176,0.45227373,0.7553449,0.37090734,-0.2351595,-0.4260801,0.23140092,1.3783937,0.025067963,0.051891617,1.3206372,0.41027036,-0.09384717,-0.105818026,0.40840313,0.15812615,-0.47383982,-0.72741586,0.061099757,819.5604,804.2491,803.0403,808.68134,937.619,-0.19635009765625,0.08624267578125,0.98028564453125,-0.695343017578125,-1.95892333984375,0.246734619140625,1,1.0,1.0,1.0,1.0,20.00
2024-09-29 18:16:54.400,0.6484545,0.5693176,0.45227373,0.7553449,0.37090734,-0.2351595,-0.4260801,0.23140092,1.3783937,0.025067963,0.051891617,1.3206372,0.41027036,-0.09384717,-0.105818026,0.40840313,0.15812615,-0.47383982,-0.72741586,0.061099757,813.91943,809.89014,801.02563,801.02563,854.21246,-0.19635009765625,0.08624267578125,0.98028564453125,-0.695343017578125,-1.95892333984375,0.246734619140625,1,1.0,1.0,1.0,1.0,20.00
2024-09-29 18:16:54.401,0.6484545,0.5693176,0.45227373,0.7553449,0.37090734,-0.2351595,-0.4260801,0.23140092,1.3783937,0.025067963,0.051891617,1.3206372,0.41027036,-0.09384717,-0.105818026,0.40840313,0.15812615,-0.47383982,-0.72741586,0.061099757,805.05493,809.4872,800.6227,796.5934,724.87177,-0.19635009765625,0.08624267578125,0.98028564453125,-0.695343017578125,-1.95892333984375,0.246734619140625,1,1.0,1.0,1.0,1.0,20.00
2024-09-29 18:16:54.401,0.6484545,0.5693176,0.45227373,0.7553449,0.37090734,-0.2351595,-0.4260801,0.23140092,1.3783937,0.025067963,0.051891617,1.3206372,0.41027036,-0.09384717,-0.105818026,0.40840313,0.15812615,-0.47383982,-0.72741586,0.061099757,802.23444,806.26373,802.23444,797.8022,780.4762,-0.19635009765625,0.08624267578125,0.98028564453125,-0.695343017578125,-1.95892333984375,0.246734619140625,1,1.0,1.0,1.0,1.0,20.00
2024-09-29 18:16:54.402,0.6484545,0.5693176,0.45227373,0.7553449,0.37090734,-0.2351595,-0.4260801,0.23140092,1.3783937,0.025067963,0.051891617,1.3206372,0.41027036,-0.09384717,-0.105818026,0.40840313,0.15812615,-0.47383982,-0.72741586,0.061099757,787.72894,807.0696,803.8461,792.96704,941.6484,-0.19635009765625,0.08624267578125,0.98028564453125,-0.695343017578125,-1.95892333984375,0.246734619140625,1,1.0,1.0,1.0,1.0,20.00
2024-09-29 18:16:54.402,0.6484545,0.5693176,0.45227373,0.7553449,0.37090734,-0.2351595,-0.4260801,0.23140092,1.3783937,0.025067963,0.051891617,1.3206372,0.41027036,-0.09384717,-0.105818026,0.40840313,0.15812615,-0.47383982,-0.72741586,0.061099757,782.8938,810.696,796.99634,787.326,808.68134,-0.19635009765625,0.08624267578125,0.98028564453125,-0.695343017578125,-1.95892333984375,0.246734619140625,1,1.0,1.0,1.0,1.0,20.00
2024-09-29 18:16:54.403,0.62563175,0.5661488,0.39225873,0.7450695,0.3445702,-0.23203303,-0.4310369,0.269134,1.3783937,0.025067963,0.051891617,1.3371103,0.42079058,-0.08745308,-0.13639814,0.40469155,0.16915905,-0.4700554,-0.7340777,0.051501494,795.38464,809.89014,794.57874,784.90845,645.09155,-0.19635009765625,0.08624267578125,0.98028564453125,-0.695343017578125,-1.95892333984375,0.246734619140625,1,1.0,1.0,1.0,1.0,20.00
2024-09-29 18:16:54.409,0.62563175,0.5661488,0.39225873,0.7450695,0.3445702,-0.23203303,-0.4310369,0.269134,1.3783937,0.025067963,0.051891617,1.3371103,0.42079058,-0.08745308,-0.13639814,0.40469155,0.16915905,-0.4700554,-0.7340777,0.051501494,792.96704,806.6667,798.20514,791.75824,872.3443,-0.19927978515625,0.0870361328125,0.9854736328125,-0.231781005859375,-1.831817626953125,-0.5084228515625,1,1.0,1.0,1.0,1.0,20.00
2024-09-29 18:16:54.409,0.62563175,0.5661488,0.39225873,0.7450695,0.3445702,-0.23203303,-0.4310369,0.269134,1.3783937,0.025067963,0.051891617,1.3371103,0.42079058,-0.08745308,-0.13639814,0.40469155,0.16915905,-0.4700554,-0.7340777,0.051501494,782.0879,806.6667,799.011,801.4286,1222.8938,-0.19927978515625,0.0870361328125,0.9854736328125,-0.231781005859375,-1.831817626953125,-0.5084228515625,1,1.0,1.0,1.0,1.0,20.00
2024-09-29 18:16:54.410,0.62563175,0.5661488,0.39225873,0.7450695,0.3445702,-0.23203303,-0.4310369,0.269134,1.3783937,0.025067963,0.051891617,1.3371103,0.42079058,-0.08745308,-0.13639814,0.40469155,0.16915905,-0.4700554,-0.7340777,0.051501494,778.0586,805.4579,795.38464,795.78754,977.1062,-0.19927978515625,0.0870361328125,0.9854736328125,-0.231781005859375,-1.831817626953125,-0.5084228515625,1,1.0,1.0,1.0,1.0,20.00
2024-09-29 18:16:54.410,0.62563175,0.5661488,0.39225873,0.7450695,0.3445702,-0.23203303,-0.4310369,0.269134,1.3783937,0.025067963,0.051891617,1.3371103,0.42079058,-0.08745308,-0.13639814,0.40469155,0.16915905,-0.4700554,-0.7340777,0.051501494,783.2967,802.23444,794.57874,792.5641,762.74725,-0.19927978515625,0.0870361328125,0.9854736328125,-0.231781005859375,-1.831817626953125,-0.5084228515625,1,1.0,1.0,1.0,1.0,20.00
2024-09-29 18:16:54.411,0.62563175,0.5661488,0.39225873,0.7450695,0.3445702,-0.23203303,-0.4310369,0.269134,1.3783937,0.025067963,0.051891617,1.3371103,0.42079058,-0.08745308,-0.13639814,0.40469155,0.16915905,-0.4700554,-0.7340777,0.051501494,791.3553,801.02563,799.011,797.3993,894.5055,-0.19927978515625,0.0870361328125,0.9854736328125,-0.231781005859375,-1.831817626953125,-0.5084228515625,1,1.0,1.0,1.0,1.0,20.00
2024-09-29 18:16:54.411,0.62563175,0.5661488,0.39225873,0.7450695,0.3445702,-0.23203303,-0.4310369,0.269134,1.3783937,0.025067963,0.051891617,1.3371103,0.42079058,-0.08745308,-0.13639814,0.40469155,0.16915905,-0.4700554,-0.7340777,0.051501494,799.41394,803.0403,796.1905,799.41394,817.9487,-0.19927978515625,0.0870361328125,0.9854736328125,-0.231781005859375,-1.831817626953125,-0.5084228515625,1,1.0,1.0,1.0,1.0,20.00
2024-09-29 18:16:54.412,0.62563175,0.5661488,0.39225873,0.7450695,0.3445702,-0.23203303,-0.4310369,0.269134,1.3783937,0.025067963,0.051891617,1.3371103,0.42079058,-0.08745308,-0.13639814,0.40469155,0.16915905,-0.4700554,-0.7340777,0.051501494,802.23444,802.23444,794.9817,797.8022,692.23444,-0.19927978515625,0.0870361328125,0.9854736328125,-0.231781005859375,-1.831817626953125,-0.5084228515625,1,1.0,1.0,1.0,1.0,20.00
2024-09-29 18:16:54.412,0.62563175,0.5661488,0.39225873,0.7450695,0.3445702,-0.23203303,-0.4310369,0.269134,1.3783937,0.025067963,0.051891617,1.3371103,0.42079058,-0.08745308,-0.13639814,0.40469155,0.16915905,-0.4700554,-0.7340777,0.051501494,802.6374,806.26373,796.1905,801.02563,676.1172,-0.19927978515625,0.0870361328125,0.9854736328125,-0.231781005859375,-1.831817626953125,-0.5084228515625,1,1.0,1.0,1.0,1.0,20.00
2024-09-29 18:16:54.413,0.62563175,0.5661488,0.39225873,0.7450695,0.3445702,-0.23203303,-0.4310369,0.269134,1.3783937,0.025067963,0.051891617,1.3371103,0.42079058,-0.08745308,-0.13639814,0.40469155,0.16915905,-0.4700554,-0.7340777,0.051501494,801.02563,811.9048,800.2198,814.3223,875.56775,-0.19927978515625,0.0870361328125,0.9854736328125,-0.231781005859375,-1.831817626953125,-0.5084228515625,1,1.0,1.0,1.0,1.0,20.00
2024-09-29 18:16:54.413,0.62563175,0.5661488,0.39225873,0.7450695,0.3445702,-0.23203303,-0.4310369,0.269134,1.3783937,0.025067963,0.051891617,1.3371103,0.42079058,-0.08745308,-0.13639814,0.40469155,0.16915905,-0.4700554,-0.7340777,0.051501494,803.44324,809.89014,803.0403,826.4103,1174.5421,-0.19927978515625,0.0870361328125,0.9854736328125,-0.231781005859375,-1.831817626953125,-0.5084228515625,1,1.0,1.0,1.0,1.0,20.00
2024-09-29 18:16:54.414,0.62563175,0.5661488,0.39225873,0.7450695,0.3445702,-0.23203303,-0.4310369,0.269134,1.3783937,0.025067963,0.051891617,1.3371103,0.42079058,-0.08745308,-0.13639814,0.40469155,0.16915905,-0.4700554,-0.7340777,0.051501494,809.0842,807.47253,803.0403,814.3223,861.4652,-0.19927978515625,0.0870361328125,0.9854736328125,-0.231781005859375,-1.831817626953125,-0.5084228515625,1,1.0,1.0,1.0,1.0,20.00
2024-09-29 18:16:54.414,0.62563175,0.5661488,0.39225873,0.7450695,0.3445702,-0.23203303,-0.4310369,0.269134,1.3783937,0.025067963,0.051891617,1.3371103,0.42079058,-0.08745308,-0.13639814,0.40469155,0.16915905,-0.4700554,-0.7340777,0.051501494,810.696,806.26373,804.2491,812.3077,637.4359,-0.19927978515625,0.0870361328125,0.9854736328125,-0.231781005859375,-1.831817626953125,-0.5084228515625,1,1.0,1.0,1.0,1.0,20.00
2024-09-29 18:16:54.545,0.62563175,0.5661488,0.39225873,0.7450695,0.3445702,-0.23203303,-0.4310369,0.269134,1.3783937,0.025067963,0.051891617,1.3371103,0.42079058,-0.08745308,-0.13639814,0.40469155,0.16915905,-0.4700554,-0.7340777,0.051501494,809.4872,805.8608,803.44324,822.381,840.9158,-0.19927978515625,0.0870361328125,0.9854736328125,-0.231781005859375,-1.831817626953125,-0.5084228515625,1,1.0,1.0,1.0,1.0,20.00
2024-09-29 18:16:54.546,0.62563175,0.5661488,0.39225873,0.7450695,0.3445702,-0.23203303,-0.4310369,0.269134,1.3783937,0.025067963,0.051891617,1.3371103,0.42079058,-0.08745308,-0.13639814,0.40469155,0.16915905,-0.4700554,-0.7340777,0.051501494,809.4872,806.26373,805.8608,824.7985,855.42126,-0.19927978515625,0.0870361328125,0.9854736328125,-0.231781005859375,-1.831817626953125,-0.5084228515625,1,1.0,1.0,1.0,1.0,20.00
2024-09-29 18:16:54.547,0.62563175,0.5661488,0.39225873,0.7450695,0.3445702,-0.23203303,-0.4310369,0.269134,1.3783937,0.025067963,0.051891617,1.3371103,0.42079058,-0.08745308,-0.13639814,0.40469155,0.16915905,-0.4700554,-0.7340777,0.051501494,811.9048,807.47253,802.6374,821.978,701.50183,-0.19927978515625,0.0870361328125,0.9854736328125,-0.231781005859375,-1.831817626953125,-0.5084228515625,1,1.0,1.0,1.0,1.0,20.00
2024-09-29 18:16:54.548,0.62563175,0.5661488,0.39225873,0.7450695,0.3445702,-0.23203303,-0.4310369,0.269134,1.3783937,0.025067963,0.051891617,1.3371103,0.42079058,-0.08745308,-0.13639814,0.40469155,0.16915905,-0.4700554,-0.7340777,0.051501494,812.3077,804.65204,799.41394,817.9487,737.76556,-0.19927978515625,0.0870361328125,0.9854736328125,-0.231781005859375,-1.831817626953125,-0.5084228515625,1,1.0,1.0,1.0,1.0,20.00
2024-09-29 18:16:54.548,0.62563175,0.5661488,0.39225873,0.7450695,0.3445702,-0.23203303,-0.4310369,0.269134,1.3783937,0.025067963,0.051891617,1.3371103,0.42079058,-0.08745308,-0.13639814,0.40469155,0.16915905,-0.4700554,-0.7340777,0.051501494,813.5165,805.05493,799.011,816.7399,904.17584,-0.19927978515625,0.0870361328125,0.9854736328125,-0.231781005859375,-1.831817626953125,-0.5084228515625,1,1.0,1.0,1.0,1.0,20.00
2024-09-29 18:16:54.549,0.62563175,0.5661488,0.39225873,0.7450695,0.3445702,-0.23203303,-0.4310369,0.269134,1.3783937,0.025067963,0.051891617,1.3371103,0.42079058,-0.08745308,-0.13639814,0.40469155,0.16915905,-0.4700554,-0.7340777,0.051501494,809.89014,809.4872,796.5934,819.15753,887.6557,-0.19927978515625,0.0870361328125,0.9854736328125,-0.231781005859375,-1.831817626953125,-0.5084228515625,1,1.0,1.0,1.0,1.0,20.00
2024-09-29 18:16:54.549,0.62563175,0.5661488,0.39225873,0.7450695,0.3445702,-0.23203303,-0.4310369,0.269134,1.3783937,0.025067963,0.051891617,1.3371103,0.42079058,-0.08745308,-0.13639814,0.40469155,0.16915905,-0.4700554,-0.7340777,0.051501494,809.4872,805.05493,799.81683,824.7985,844.5421,-0.19927978515625,0.0870361328125,0.9854736328125,-0.231781005859375,-1.831817626953125,-0.5084228515625,1,1.0,1.0,1.0,1.0,20.00
2024-09-29 18:16:54.550,0.62563175,0.5661488,0.39225873,0.7450695,0.3445702,-0.23203303,-0.4310369,0.269134,1.3783937,0.025067963,0.051891617,1.3371103,0.42079058,-0.08745308,-0.13639814,0.40469155,0.16915905,-0.4700554,-0.7340777,0.051501494,816.337,804.65204,805.8608,823.5897,789.7436,-0.19927978515625,0.0870361328125,0.9854736328125,-0.231781005859375,-1.831817626953125,-0.5084228515625,1,1.0,1.0,1.0,1.0,20.00
2024-09-29 18:16:54.550,0.62563175,0.5661488,0.39225873,0.7450695,0.3445702,-0.23203303,-0.4310369,0.269134,1.3783937,0.025067963,0.051891617,1.3371103,0.42079058,-0.08745308,-0.13639814,0.40469155,0.16915905,-0.4700554,-0.7340777,0.051501494,815.9341,804.2491,799.81683,817.5458,839.707,-0.19927978515625,0.0870361328125,0.9854736328125,-0.231781005859375,-1.831817626953125,-0.5084228515625,1,1.0,1.0,1.0,1.0,20.00
2024-09-29 18:16:54.551,0.62563175,0.5661488,0.39225873,0.7450695,0.3445702,-0.23203303,-0.4310369,0.269134,1.3783937,0.025067963,0.051891617,1.3371103,0.42079058,-0.08745308,-0.13639814,0.40469155,0.16915905,-0.4700554,-0.7340777,0.051501494,805.05493,803.0403,795.78754,810.293,815.9341,-0.19927978515625,0.0870361328125,0.9854736328125,-0.231781005859375,-1.831817626953125,-0.5084228515625,1,1.0,1.0,1.0,1.0,20.00
2024-09-29 18:16:54.552,0.62563175,0.5661488,0.39225873,0.7450695,0.3445702,-0.23203303,-0.4310369,0.269134,1.3783937,0.025067963,0.051891617,1.3371103,0.42079058,-0.08745308,-0.13639814,0.40469155,0.16915905,-0.4700554,-0.7340777,0.051501494,804.65204,803.0403,799.81683,810.696,768.3883,-0.19927978515625,0.0870361328125,0.9854736328125,-0.231781005859375,-1.831817626953125,-0.5084228515625,1,1.0,1.0,1.0,1.0,20.00
2024-09-29 18:16:54.552,0.62563175,0.5661488,0.39225873,0.7450695,0.3445702,-0.23203303,-0.4310369,0.269134,1.3783937,0.025067963,0.051891617,1.3371103,0.42079058,-0.08745308,-0.13639814,0.40469155,0.16915905,-0.4700554,-0.7340777,0.051501494,811.50183,803.0403,803.8461,815.9341,678.1319,-0.19927978515625,0.0870361328125,0.9854736328125,-0.231781005859375,-1.831817626953125,-0.5084228515625,1,1.0,1.0,1.0,1.0,20.00
2024-09-29 18:16:54.618,0.62563175,0.5661488,0.39225873,0.7450695,0.3445702,-0.23203303,-0.4310369,0.269134,1.3783937,0.025067963,0.051891617,1.3371103,0.42079058,-0.08745308,-0.13639814,0.40469155,0.16915905,-0.4700554,-0.7340777,0.051501494,815.5311,803.44324,803.44324,821.978,974.2857,-0.19586181640625,0.07989501953125,0.9847412109375,-0.16448974609375,-2.100982666015625,-0.605621337890625,1,1.0,1.0,1.0,1.0,20.00
2024-09-29 18:16:54.619,0.60305107,0.56894493,0.30508244,0.7168433,0.32057896,-0.21909015,-0.42597383,0.3045791,1.3785251,0.025067963,0.052530173,1.403434,0.43278405,-0.091599524,-0.16808932,0.4024972,0.17307219,-0.46429276,-0.7105887,0.053038236,815.9341,804.65204,796.99634,818.3516,1268.4249,-0.19586181640625,0.07989501953125,0.9847412109375,-0.16448974609375,-2.100982666015625,-0.605621337890625,1,1.0,1.0,1.0,1.0,20.00
2024-09-29 18:16:54.623,0.60305107,0.56894493,0.30508244,0.7168433,0.32057896,-0.21909015,-0.42597383,0.3045791,1.3785251,0.025067963,0.052530173,1.403434,0.43278405,-0.091599524,-0.16808932,0.4024972,0.17307219,-0.46429276,-0.7105887,0.053038236,808.2784,805.05493,793.7729,807.8755,915.05493,-0.19586181640625,0.07989501953125,0.9847412109375,-0.16448974609375,-2.100982666015625,-0.605621337890625,1,1.0,1.0,1.0,1.0,20.00
2024-09-29 18:16:54.624,0.60305107,0.56894493,0.30508244,0.7168433,0.32057896,-0.21909015,-0.42597383,0.3045791,1.3785251,0.025067963,0.052530173,1.403434,0.43278405,-0.091599524,-0.16808932,0.4024972,0.17307219,-0.46429276,-0.7105887,0.053038236,808.2784,805.8608,795.38464,805.8608,664.83514,-0.19586181640625,0.07989501953125,0.9847412109375,-0.16448974609375,-2.100982666015625,-0.605621337890625,1,1.0,1.0,1.0,1.0,20.00
2024-09-29 18:16:54.624,0.60305107,0.56894493,0.30508244,0.7168433,0.32057896,-0.21909015,-0.42597383,0.3045791,1.3785251,0.025067963,0.052530173,1.403434,0.43278405,-0.091599524,-0.16808932,0.4024972,0.17307219,-0.46429276,-0.7105887,0.053038236,817.9487,813.5165,797.8022,804.2491,692.6374,-0.19586181640625,0.07989501953125,0.9847412109375,-0.16448974609375,-2.100982666015625,-0.605621337890625,1,1.0,1.0,1.0,1.0,20.00
2024-09-29 18:16:54.625,0.60305107,0.56894493,0.30508244,0.7168433,0.32057896,-0.21909015,-0.42597383,0.3045791,1.3785251,0.025067963,0.052530173,1.403434,0.43278405,-0.091599524,-0.16808932,0.4024972,0.17307219,-0.46429276,-0.7105887,0.053038236,817.1429,809.0842,799.81683,799.011,853.8095,-0.19586181640625,0.07989501953125,0.9847412109375,-0.16448974609375,-2.100982666015625,-0.605621337890625,1,1.0,1.0,1.0,1.0,20.00
2024-09-29 18:16:54.625,0.60305107,0.56894493,0.30508244,0.7168433,0.32057896,-0.21909015,-0.42597383,0.3045791,1.3785251,0.025067963,0.052530173,1.403434,0.43278405,-0.091599524,-0.16808932,0.4024972,0.17307219,-0.46429276,-0.7105887,0.053038236,802.23444,801.8315,799.41394,793.7729,967.4359,-0.19586181640625,0.07989501953125,0.9847412109375,-0.16448974609375,-2.100982666015625,-0.605621337890625,1,1.0,1.0,1.0,1.0,20.00
2024-09-29 18:16:54.626,0.60305107,0.56894493,0.30508244,0.7168433,0.32057896,-0.21909015,-0.42597383,0.3045791,1.3785251,0.025067963,0.052530173,1.403434,0.43278405,-0.091599524,-0.16808932,0.4024972,0.17307219,-0.46429276,-0.7105887,0.053038236,804.2491,806.6667,799.011,793.36993,1031.5018,-0.19586181640625,0.07989501953125,0.9847412109375,-0.16448974609375,-2.100982666015625,-0.605621337890625,1,1.0,1.0,1.0,1.0,20.00
2024-09-29 18:16:54.626,0.60305107,0.56894493,0.30508244,0.7168433,0.32057896,-0.21909015,-0.42597383,0.3045791,1.3785251,0.025067963,0.052530173,1.403434,0.43278405,-0.091599524,-0.16808932,0.4024972,0.17307219,-0.46429276,-0.7105887,0.053038236,805.05493,809.0842,803.44324,803.0403,841.31866,-0.19586181640625,0.07989501953125,0.9847412109375,-0.16448974609375,-2.100982666015625,-0.605621337890625,1,1.0,1.0,1.0,1.0,20.00
2024-09-29 18:16:54.627,0.60305107,0.56894493,0.30508244,0.7168433,0.32057896,-0.21909015,-0.42597383,0.3045791,1.3785251,0.025067963,0.052530173,1.403434,0.43278405,-0.091599524,-0.16808932,0.4024972,0.17307219,-0.46429276,-0.7105887,0.053038236,804.2491,808.2784,805.4579,804.2491,761.9414,-0.19586181640625,0.07989501953125,0.9847412109375,-0.16448974609375,-2.100982666015625,-0.605621337890625,1,1.0,1.0,1.0,1.0,20.00
2024-09-29 18:16:54.628,0.60305107,0.56894493,0.30508244,0.7168433,0.32057896,-0.21909015,-0.42597383,0.3045791,1.3785251,0.025067963,0.052530173,1.403434,0.43278405,-0.091599524,-0.16808932,0.4024972,0.17307219,-0.46429276,-0.7105887,0.053038236,803.8461,806.26373,800.2198,802.6374,846.55676,-0.19586181640625,0.07989501953125,0.9847412109375,-0.16448974609375,-2.100982666015625,-0.605621337890625,1,1.0,1.0,1.0,1.0,20.00
2024-09-29 18:16:54.628,0.60305107,0.56894493,0.30508244,0.7168433,0.32057896,-0.21909015,-0.42597383,0.3045791,1.3785251,0.025067963,0.052530173,1.403434,0.43278405,-0.091599524,-0.16808932,0.4024972,0.17307219,-0.46429276,-0.7105887,0.053038236,812.3077,808.2784,803.8461,816.337,865.89746,-0.19586181640625,0.07989501953125,0.9847412109375,-0.16448974609375,-2.100982666015625,-0.605621337890625,1,1.0,1.0,1.0,1.0,20.00
2024-09-29 18:16:54.652,0.60305107,0.56894493,0.30508244,0.7168433,0.32057896,-0.21909015,-0.42597383,0.3045791,1.3785251,0.025067963,0.052530173,1.403434,0.43278405,-0.091599524,-0.16808932,0.4024972,0.17307219,-0.46429276,-0.7105887,0.053038236,818.7546,807.47253,803.44324,815.12823,823.9927,-0.19061279296875,0.08001708984375,0.99053955078125,0.34393310546875,-1.9439697265625,-1.06170654296875,1,1.0,1.0,1.0,1.0,20.00
2024-09-29 18:16:54.653,0.60305107,0.56894493,0.30508244,0.7168433,0.32057896,-0.21909015,-0.42597383,0.3045791,1.3785251,0.025067963,0.052530173,1.403434,0.43278405,-0.091599524,-0.16808932,0.4024972,0.17307219,-0.46429276,-0.7105887,0.053038236,815.9341,809.0842,798.20514,813.1135,758.315,-0.19061279296875,0.08001708984375,0.99053955078125,0.34393310546875,-1.9439697265625,-1.06170654296875,1,1.0,1.0,1.0,1.0,20.00
2024-09-29 18:16:54.654,0.60305107,0.56894493,0.30508244,0.7168433,0.32057896,-0.21909015,-0.42597383,0.3045791,1.3785251,0.025067963,0.052530173,1.403434,0.43278405,-0.091599524,-0.16808932,0.4024972,0.17307219,-0.46429276,-0.7105887,0.053038236,819.5604,811.50183,799.41394,815.5311,819.15753,-0.19061279296875,0.08001708984375,0.99053955078125,0.34393310546875,-1.9439697265625,-1.06170654296875,1,1.0,1.0,1.0,1.0,20.00
2024-09-29 18:16:54.654,0.60305107,0.56894493,0.30508244,0.7168433,0.32057896,-0.21909015,-0.42597383,0.3045791,1.3785251,0.025067963,0.052530173,1.403434,0.43278405,-0.091599524,-0.16808932,0.4024972,0.17307219,-0.46429276,-0.7105887,0.053038236,825.6044,809.4872,799.41394,811.50183,859.0476,-0.19061279296875,0.08001708984375,0.99053955078125,0.34393310546875,-1.9439697265625,-1.06170654296875,1,1.0,1.0,1.0,1.0,20.00
2024-09-29 18:16:54.655,0.60305107,0.56894493,0.30508244,0.7168433,0.32057896,-0.21909015,-0.42597383,0.3045791,1.3785251,0.025067963,0.052530173,1.403434,0.43278405,-0.091599524,-0.16808932,0.4024972,0.17307219,-0.46429276,-0.7105887,0.053038236,825.2015,807.8755,796.5934,810.696,673.2967,-0.19061279296875,0.08001708984375,0.99053955078125,0.34393310546875,-1.9439697265625,-1.06170654296875,1,1.0,1.0,1.0,1.0,20.00
2024-09-29 18:16:54.655,0.60305107,0.56894493,0.30508244,0.7168433,0.32057896,-0.21909015,-0.42597383,0.3045791,1.3785251,0.025067963,0.052530173,1.403434,0.43278405,-0.091599524,-0.16808932,0.4024972,0.17307219,-0.46429276,-0.7105887,0.053038236,816.7399,806.26373,793.36993,809.4872,635.82416,-0.19061279296875,0.08001708984375,0.99053955078125,0.34393310546875,-1.9439697265625,-1.06170654296875,1,1.0,1.0,1.0,1.0,20.00
2024-09-29 18:16:54.656,0.60305107,0.56894493,0.30508244,0.7168433,0.32057896,-0.21909015,-0.42597383,0.3045791,1.3785251,0.025067963,0.052530173,1.403434,0.43278405,-0.091599524,-0.16808932,0.4024972,0.17307219,-0.46429276,-0.7105887,0.053038236,809.89014,805.05493,794.57874,806.26373,853.00366,-0.19061279296875,0.08001708984375,0.99053955078125,0.34393310546875,-1.9439697265625,-1.06170654296875,1,1.0,1.0,1.0,1.0,20.00
2024-09-29 18:16:54.656,0.60305107,0.56894493,0.30508244,0.7168433,0.32057896,-0.21909015,-0.42597383,0.3045791,1.3785251,0.025067963,0.052530173,1.403434,0.43278405,-0.091599524,-0.16808932,0.4024972,0.17307219,-0.46429276,-0.7105887,0.053038236,806.6667,807.0696,790.14655,814.7253,1045.6044,-0.19061279296875,0.08001708984375,0.99053955078125,0.34393310546875,-1.9439697265625,-1.06170654296875,1,1.0,1.0,1.0,1.0,20.00
2024-09-29 18:16:54.657,0.60305107,0.56894493,0.30508244,0.7168433,0.32057896,-0.21909015,-0.42597383,0.3045791,1.3785251,0.025067963,0.052530173,1.403434,0.43278405,-0.091599524,-0.16808932,0.4024972,0.17307219,-0.46429276,-0.7105887,0.053038236,803.0403,803.8461,792.1612,807.8755,891.685,-0.19061279296875,0.08001708984375,0.99053955078125,0.34393310546875,-1.9439697265625,-1.06170654296875,1,1.0,1.0,1.0,1.0,20.00
2024-09-29 18:16:54.657,0.60305107,0.56894493,0.30508244,0.7168433,0.32057896,-0.21909015,-0.42597383,0.3045791,1.3785251,0.025067963,0.052530173,1.403434,0.43278405,-0.091599524,-0.16808932,0.4024972,0.17307219,-0.46429276,-0.7105887,0.053038236,803.0403,799.41394,796.99634,797.3993,740.989,-0.19061279296875,0.08001708984375,0.99053955078125,0.34393310546875,-1.9439697265625,-1.06170654296875,1,1.0,1.0,1.0,1.0,20.00
2024-09-29 18:16:54.658,0.60305107,0.56894493,0.30508244,0.7168433,0.32057896,-0.21909015,-0.42597383,0.3045791,1.3785251,0.025067963,0.052530173,1.403434,0.43278405,-0.091599524,-0.16808932,0.4024972,0.17307219,-0.46429276,-0.7105887,0.053038236,799.81683,804.65204,792.96704,802.6374,790.14655,-0.19061279296875,0.08001708984375,0.99053955078125,0.34393310546875,-1.9439697265625,-1.06170654296875,1,1.0,1.0,1.0,1.0,20.00
2024-09-29 18:16:54.659,0.60305107,0.56894493,0.30508244,0.7168433,0.32057896,-0.21909015,-0.42597383,0.3045791,1.3785251,0.025067963,0.052530173,1.403434,0.43278405,-0.091599524,-0.16808932,0.4024972,0.17307219,-0.46429276,-0.7105887,0.053038236,799.41394,802.6374,794.17584,799.81683,877.1795,-0.19061279296875,0.08001708984375,0.99053955078125,0.34393310546875,-1.9439697265625,-1.06170654296875,1,1.0,1.0,1.0,1.0,20.00
2024-09-29 18:16:54.752,0.60305107,0.56894493,0.30508244,0.7168433,0.32057896,-0.21909015,-0.42597383,0.3045791,1.3785251,0.025067963,0.052530173,1.403434,0.43278405,-0.091599524,-0.16808932,0.4024972,0.17307219,-0.46429276,-0.7105887,0.053038236,802.23444,798.60803,794.9817,796.1905,729.304,-0.18988037109375,0.08343505859375,0.98968505859375,1.368255615234375,-1.80938720703125,-0.1495361328125,1,1.0,1.0,1.0,1.0,20.00
2024-09-29 18:16:54.753,0.60305107,0.56894493,0.30508244,0.7168433,0.32057896,-0.21909015,-0.42597383,0.3045791,1.3785251,0.025067963,0.052530173,1.403434,0.43278405,-0.091599524,-0.16808932,0.4024972,0.17307219,-0.46429276,-0.7105887,0.053038236,807.8755,799.41394,790.9524,794.57874,619.304,-0.18988037109375,0.08343505859375,0.98968505859375,1.368255615234375,-1.80938720703125,-0.1495361328125,1,1.0,1.0,1.0,1.0,20.00
2024-09-29 18:16:54.753,0.60305107,0.56894493,0.30508244,0.7168433,0.32057896,-0.21909015,-0.42597383,0.3045791,1.3785251,0.025067963,0.052530173,1.403434,0.43278405,-0.091599524,-0.16808932,0.4024972,0.17307219,-0.46429276,-0.7105887,0.053038236,801.4286,797.8022,791.75824,795.38464,721.6484,-0.18988037109375,0.08343505859375,0.98968505859375,1.368255615234375,-1.80938720703125,-0.1495361328125,1,1.0,1.0,1.0,1.0,20.00
2024-09-29 18:16:54.754,0.5851657,0.5717479,0.20220089,0.666667,0.30487302,-0.19588962,-0.4077084,0.3301753,1.3796409,0.025067963,0.084943384,1.4714764,0.44276315,-0.10451371,-0.19156785,0.402733,0.17222165,-0.456433,-0.6796071,0.059560668,791.3553,799.011,794.17584,795.38464,831.6484,-0.18988037109375,0.08343505859375,0.98968505859375,1.368255615234375,-1.80938720703125,-0.1495361328125,1,1.0,1.0,1.0,1.0,20.00
2024-09-29 18:16:54.760,0.5851657,0.5717479,0.20220089,0.666667,0.30487302,-0.19588962,-0.4077084,0.3301753,1.3796409,0.025067963,0.084943384,1.4714764,0.44276315,-0.10451371,-0.19156785,0.402733,0.17222165,-0.456433,-0.6796071,0.059560668,788.93774,795.78754,791.75824,789.34064,863.0769,-0.18988037109375,0.08343505859375,0.98968505859375,1.368255615234375,-1.80938720703125,-0.1495361328125,1,1.0,1.0,1.0,1.0,20.00
2024-09-29 18:16:54.760,0.5851657,0.5717479,0.20220089,0.666667,0.30487302,-0.19588962,-0.4077084,0.3301753,1.3796409,0.025067963,0.084943384,1.4714764,0.44276315,-0.10451371,-0.19156785,0.402733,0.17222165,-0.456433,-0.6796071,0.059560668,792.5641,795.78754,794.17584,786.52014,819.9634,-0.18988037109375,0.08343505859375,0.98968505859375,1.368255615234375,-1.80938720703125,-0.1495361328125,1,1.0,1.0,1.0,1.0,20.00
2024-09-29 18:16:54.761,0.5851657,0.5717479,0.20220089,0.666667,0.30487302,-0.19588962,-0.4077084,0.3301753,1.3796409,0.025067963,0.084943384,1.4714764,0.44276315,-0.10451371,-0.19156785,0.402733,0.17222165,-0.456433,-0.6796071,0.059560668,802.23444,800.6227,795.38464,797.8022,904.9817,-0.18988037109375,0.08343505859375,0.98968505859375,1.368255615234375,-1.80938720703125,-0.1495361328125,1,1.0,1.0,1.0,1.0,20.00
2024-09-29 18:16:54.761,0.5851657,0.5717479,0.20220089,0.666667,0.30487302,-0.19588962,-0.4077084,0.3301753,1.3796409,0.025067963,0.084943384,1.4714764,0.44276315,-0.10451371,-0.19156785,0.402733,0.17222165,-0.456433,-0.6796071,0.059560668,804.2491,795.78754,793.7729,804.65204,1118.9377,-0.18988037109375,0.08343505859375,0.98968505859375,1.368255615234375,-1.80938720703125,-0.1495361328125,1,1.0,1.0,1.0,1.0,20.00
2024-09-29 18:16:54.762,0.5851657,0.5717479,0.20220089,0.666667,0.30487302,-0.19588962,-0.4077084,0.3301753,1.3796409,0.025067963,0.084943384,1.4714764,0.44276315,-0.10451371,-0.19156785,0.402733,0.17222165,-0.456433,-0.6796071,0.059560668,795.38464,793.36993,793.36993,797.3993,927.9487,-0.18988037109375,0.08343505859375,0.98968505859375,1.368255615234375,-1.80938720703125,-0.1495361328125,1,1.0,1.0,1.0,1.0,20.00
2024-09-29 18:16:54.762,0.5851657,0.5717479,0.20220089,0.666667,0.30487302,-0.19588962,-0.4077084,0.3301753,1.3796409,0.025067963,0.084943384,1.4714764,0.44276315,-0.10451371,-0.19156785,0.402733,0.17222165,-0.456433,-0.6796071,0.059560668,794.57874,795.78754,792.96704,795.78754,762.74725,-0.18988037109375,0.08343505859375,0.98968505859375,1.368255615234375,-1.80938720703125,-0.1495361328125,1,1.0,1.0,1.0,1.0,20.00
2024-09-29 18:16:54.763,0.5851657,0.5717479,0.20220089,0.666667,0.30487302,-0.19588962,-0.4077084,0.3301753,1.3796409,0.025067963,0.084943384,1.4714764,0.44276315,-0.10451371,-0.19156785,0.402733,0.17222165,-0.456433,-0.6796071,0.059560668,801.8315,798.60803,797.8022,807.47253,884.0293,-0.18988037109375,0.08343505859375,0.98968505859375,1.368255615234375,-1.80938720703125,-0.1495361328125,1,1.0,1.0,1.0,1.0,20.00
2024-09-29 18:16:54.764,0.5851657,0.5717479,0.20220089,0.666667,0.30487302,-0.19588962,-0.4077084,0.3301753,1.3796409,0.025067963,0.084943384,1.4714764,0.44276315,-0.10451371,-0.19156785,0.402733,0.17222165,-0.456433,-0.6796071,0.059560668,802.23444,800.6227,798.60803,815.9341,994.83514,-0.18988037109375,0.08343505859375,0.98968505859375,1.368255615234375,-1.80938720703125,-0.1495361328125,1,1.0,1.0,1.0,1.0,20.00
2024-09-29 18:16:54.900,0.5851657,0.5717479,0.20220089,0.666667,0.30487302,-0.19588962,-0.4077084,0.3301753,1.3796409,0.025067963,0.084943384,1.4714764,0.44276315,-0.10451371,-0.19156785,0.402733,0.17222165,-0.456433,-0.6796071,0.059560668,801.02563,802.6374,795.38464,814.3223,940.84247,-0.1881103515625,0.08746337890625,0.9862060546875,0.665435791015625,-1.637420654296875,0.530853271484375,1,1.0,1.0,1.0,1.0,20.00
2024-09-29 18:16:54.900,0.5851657,0.5717479,0.20220089,0.666667,0.30487302,-0.19588962,-0.4077084,0.3301753,1.3796409,0.025067963,0.084943384,1.4714764,0.44276315,-0.10451371,-0.19156785,0.402733,0.17222165,-0.456433,-0.6796071,0.059560668,799.81683,799.41394,794.17584,814.7253,811.9048,-0.1881103515625,0.08746337890625,0.9862060546875,0.665435791015625,-1.637420654296875,0.530853271484375,1,1.0,1.0,1.0,1.0,20.00
2024-09-29 18:16:54.901,0.5851657,0.5717479,0.20220089,0.666667,0.30487302,-0.19588962,-0.4077084,0.3301753,1.3796409,0.025067963,0.084943384,1.4714764,0.44276315,-0.10451371,-0.19156785,0.402733,0.17222165,-0.456433,-0.6796071,0.059560668,811.0989,794.17584,793.36993,813.1135,843.3333,-0.1881103515625,0.08746337890625,0.9862060546875,0.665435791015625,-1.637420654296875,0.530853271484375,1,1.0,1.0,1.0,1.0,20.00
2024-09-29 18:16:54.902,0.5851657,0.5717479,0.20220089,0.666667,0.30487302,-0.19588962,-0.4077084,0.3301753,1.3796409,0.025067963,0.084943384,1.4714764,0.44276315,-0.10451371,-0.19156785,0.402733,0.17222165,-0.456433,-0.6796071,0.059560668,806.6667,800.6227,793.7729,806.6667,869.12085,-0.1881103515625,0.08746337890625,0.9862060546875,0.665435791015625,-1.637420654296875,0.530853271484375,1,1.0,1.0,1.0,1.0,20.00
2024-09-29 18:16:54.902,0.5851657,0.5717479,0.20220089,0.666667,0.30487302,-0.19588962,-0.4077084,0.3301753,1.3796409,0.025067963,0.084943384,1.4714764,0.44276315,-0.10451371,-0.19156785,0.402733,0.17222165,-0.456433,-0.6796071,0.059560668,801.4286,805.05493,794.17584,808.68134,886.04395,-0.1881103515625,0.08746337890625,0.9862060546875,0.665435791015625,-1.637420654296875,0.530853271484375,1,1.0,1.0,1.0,1.0,20.00
2024-09-29 18:16:54.903,0.5851657,0.5717479,0.20220089,0.666667,0.30487302,-0.19588962,-0.4077084,0.3301753,1.3796409,0.025067963,0.084943384,1.4714764,0.44276315,-0.10451371,-0.19156785,0.402733,0.17222165,-0.456433,-0.6796071,0.059560668,807.8755,799.011,792.5641,811.0989,954.94507,-0.1881103515625,0.08746337890625,0.9862060546875,0.665435791015625,-1.637420654296875,0.530853271484375,1,1.0,1.0,1.0,1.0,20.00
2024-09-29 18:16:54.903,0.5851657,0.5717479,0.20220089,0.666667,0.30487302,-0.19588962,-0.4077084,0.3301753,1.3796409,0.025067963,0.084943384,1.4714764,0.44276315,-0.10451371,-0.19156785,0.402733,0.17222165,-0.456433,-0.6796071,0.059560668,805.05493,801.02563,792.1612,809.89014,1050.4396,-0.1881103515625,0.08746337890625,0.9862060546875,0.665435791015625,-1.637420654296875,0.530853271484375,1,1.0,1.0,1.0,1.0,20.00
2024-09-29 18:16:54.904,0.5851657,0.5717479,0.20220089,0.666667,0.30487302,-0.19588962,-0.4077084,0.3301753,1.3796409,0.025067963,0.084943384,1.4714764,0.44276315,-0.10451371,-0.19156785,0.402733,0.17222165,-0.456433,-0.6796071,0.059560668,804.2491,802.6374,793.7729,809.4872,874.7619,-0.1881103515625,0.08746337890625,0.9862060546875,0.665435791015625,-1.637420654296875,0.530853271484375,1,1.0,1.0,1.0,1.0,20.00
2024-09-29 18:16:54.904,0.5851657,0.5717479,0.20220089,0.666667,0.30487302,-0.19588962,-0.4077084,0.3301753,1.3796409,0.025067963,0.084943384,1.4714764,0.44276315,-0.10451371,-0.19156785,0.402733,0.17222165,-0.456433,-0.6796071,0.059560668,809.0842,804.65204,790.9524,811.50183,699.0842,-0.1881103515625,0.08746337890625,0.9862060546875,0.665435791015625,-1.637420654296875,0.530853271484375,1,1.0,1.0,1.0,1.0,20.00
2024-09-29 18:16:54.905,0.5851657,0.5717479,0.20220089,0.666667,0.30487302,-0.19588962,-0.4077084,0.3301753,1.3796409,0.025067963,0.084943384,1.4714764,0.44276315,-0.10451371,-0.19156785,0.402733,0.17222165,-0.456433,-0.6796071,0.059560668,809.89014,807.47253,794.57874,812.71063,760.7326,-0.1881103515625,0.08746337890625,0.9862060546875,0.665435791015625,-1.637420654296875,0.530853271484375,1,1.0,1.0,1.0,1.0,20.00
2024-09-29 18:16:54.905,0.5851657,0.5717479,0.20220089,0.666667,0.30487302,-0.19588962,-0.4077084,0.3301753,1.3796409,0.025067963,0.084943384,1.4714764,0.44276315,-0.10451371,-0.19156785,0.402733,0.17222165,-0.456433,-0.6796071,0.059560668,807.0696,805.8608,801.02563,812.3077,856.63007,-0.1881103515625,0.08746337890625,0.9862060546875,0.665435791015625,-1.637420654296875,0.530853271484375,1,1.0,1.0,1.0,1.0,20.00
2024-09-29 18:16:54.906,0.5851657,0.5717479,0.20220089,0.666667,0.30487302,-0.19588962,-0.4077084,0.3301753,1.3796409,0.025067963,0.084943384,1.4714764,0.44276315,-0.10451371,-0.19156785,0.402733,0.17222165,-0.456433,-0.6796071,0.059560668,813.1135,805.4579,798.20514,813.1135,749.0476,-0.1881103515625,0.08746337890625,0.9862060546875,0.665435791015625,-1.637420654296875,0.530853271484375,1,1.0,1.0,1.0,1.0,20.00
2024-09-29 18:16:54.933,0.5851657,0.5717479,0.20220089,0.666667,0.30487302,-0.19588962,-0.4077084,0.3301753,1.3796409,0.025067963,0.084943384,1.4714764,0.44276315,-0.10451371,-0.19156785,0.402733,0.17222165,-0.456433,-0.6796071,0.059560668,817.5458,809.0842,800.6227,817.9487,738.97437,-0.1881103515625,0.08746337890625,0.9862060546875,0.665435791015625,-1.637420654296875,0.530853271484375,1,1.0,1.0,1.0,1.0,20.00
2024-09-29 18:16:54.934,0.5851657,0.5717479,0.20220089,0.666667,0.30487302,-0.19588962,-0.4077084,0.3301753,1.3796409,0.025067963,0.084943384,1.4714764,0.44276315,-0.10451371,-0.19156785,0.402733,0.17222165,-0.456433,-0.6796071,0.059560668,809.4872,809.0842,800.6227,809.89014,926.337,-0.1881103515625,0.08746337890625,0.9862060546875,0.665435791015625,-1.637420654296875,0.530853271484375,1,1.0,1.0,1.0,1.0,20.00
2024-09-29 18:16:54.934,0.5851657,0.5717479,0.20220089,0.666667,0.30487302,-0.19588962,-0.4077084,0.3301753,1.3796409,0.025067963,0.084943384,1.4714764,0.44276315,-0.10451371,-0.19156785,0.402733,0.17222165,-0.456433,-0.6796071,0.059560668,800.6227,802.23444,799.81683,805.05493,1100.8059,-0.1881103515625,0.08746337890625,0.9862060546875,0.665435791015625,-1.637420654296875,0.530853271484375,1,1.0,1.0,1.0,1.0,20.00
2024-09-29 18:16:54.935,0.5851657,0.5717479,0.20220089,0.666667,0.30487302,-0.19588962,-0.4077084,0.3301753,1.3796409,0.025067963,0.084943384,1.4714764,0.44276315,-0.10451371,-0.19156785,0.402733,0.17222165,-0.456433,-0.6796071,0.059560668,801.02563,802.23444,799.41394,805.4579,884.0293,-0.1881103515625,0.08746337890625,0.9862060546875,0.665435791015625,-1.637420654296875,0.530853271484375,1,1.0,1.0,1.0,1.0,20.00
2024-09-29 18:16:54.935,0.5851657,0.5717479,0.20220089,0.666667,0.30487302,-0.19588962,-0.4077084,0.3301753,1.3796409,0.025067963,0.084943384,1.4714764,0.44276315,-0.10451371,-0.19156785,0.402733,0.17222165,-0.456433,-0.6796071,0.059560668,800.6227,806.26373,797.8022,798.60803,712.7839,-0.1881103515625,0.08746337890625,0.9862060546875,0.665435791015625,-1.637420654296875,0.530853271484375,1,1.0,1.0,1.0,1.0,20.00
2024-09-29 18:16:54.936,0.5686506,0.5632081,0.11774879,0.59670985,0.30596066,-0.16940048,-0.37924078,0.35017323,1.3973271,0.025067963,0.13645966,1.5285606,0.4497218,-0.12173452,-0.20241609,0.4069662,0.16831738,-0.44911528,-0.6593476,0.06640088,801.8315,803.44324,799.81683,796.5934,967.8388,-0.1881103515625,0.08746337890625,0.9862060546875,0.665435791015625,-1.637420654296875,0.530853271484375,1,1.0,1.0,1.0,1.0,20.00
2024-09-29 18:16:54.941,0.5686506,0.5632081,0.11774879,0.59670985,0.30596066,-0.16940048,-0.37924078,0.35017323,1.3973271,0.025067963,0.13645966,1.5285606,0.4497218,-0.12173452,-0.20241609,0.4069662,0.16831738,-0.44911528,-0.6593476,0.06640088,800.2198,801.8315,804.65204,789.34064,1097.1794,-0.1881103515625,0.08746337890625,0.9862060546875,0.665435791015625,-1.637420654296875,0.530853271484375,1,1.0,1.0,1.0,1.0,20.00
2024-09-29 18:16:54.941,0.5686506,0.5632081,0.11774879,0.59670985,0.30596066,-0.16940048,-0.37924078,0.35017323,1.3973271,0.025067963,0.13645966,1.5285606,0.4497218,-0.12173452,-0.20241609,0.4069662,0.16831738,-0.44911528,-0.6593476,0.06640088,796.5934,801.4286,803.8461,783.2967,826.8132,-0.1881103515625,0.08746337890625,0.9862060546875,0.665435791015625,-1.637420654296875,0.530853271484375,1,1.0,1.0,1.0,1.0,20.00
2024-09-29 18:16:54.942,0.5686506,0.5632081,0.11774879,0.59670985,0.30596066,-0.16940048,-0.37924078,0.35017323,1.3973271,0.025067963,0.13645966,1.5285606,0.4497218,-0.12173452,-0.20241609,0.4069662,0.16831738,-0.44911528,-0.6593476,0.06640088,795.38464,801.4286,801.02563,788.93774,700.293,-0.1881103515625,0.08746337890625,0.9862060546875,0.665435791015625,-1.637420654296875,0.530853271484375,1,1.0,1.0,1.0,1.0,20.00
