TimeStamp,Delta_TP9,Delta_AF7,Delta_AF8,Delta_TP10,Theta_TP9,Theta_AF7,Theta_AF8,Theta_TP10,Alpha_TP9,Alpha_AF7,Alpha_AF8,Alpha_TP10,Beta_TP9,Beta_AF7,Beta_AF8,Beta_TP10,Gamma_TP9,Gamma_AF7,Gamma_AF8,Gamma_TP10,RAW_TP9,RAW_AF7,RAW_AF8,RAW_TP10,AUX_RIGHT,Accelerometer_X,Accelerometer_Y,Accelerometer_Z,Gyro_X,Gyro_Y,Gyro_Z,HeadBandOn,HSI_TP9,HSI_AF7,HSI_AF8,HSI_TP10,Battery,Elements
2024-10-11 20:18:26.389,0.21541879,-0.18991227,-0.13835827,0.49560398,0.19120161,-0.26097807,-0.15377562,0.3946738,0.57445323,0.104706004,0.23497657,0.69969904,0.21947831,0.04555598,-0.06334769,0.39110816,-0.13179357,-0.23868008,-0.40864637,-0.19418184,794.57874,798.20514,808.2784,802.23444,638.24176,-0.105224609375,0.0767822265625,1.00311279296875,0.28411865234375,-1.413116455078125,0.9869384765625,1,1.0,1.0,1.0,1.0,10.00
2024-10-11 20:18:26.390,0.21541879,-0.18991227,-0.13835827,0.49560398,0.19120161,-0.26097807,-0.15377562,0.3946738,0.57445323,0.104706004,0.23497657,0.69969904,0.21947831,0.04555598,-0.06334769,0.39110816,-0.13179357,-0.23868008,-0.40864637,-0.19418184,794.17584,793.7729,809.89014,803.8461,841.7216,-0.105224609375,0.0767822265625,1.00311279296875,0.28411865234375,-1.413116455078125,0.9869384765625,1,1.0,1.0,1.0,1.0,10.00
2024-10-11 20:18:26.391,0.21541879,-0.18991227,-0.13835827,0.49560398,0.19120161,-0.26097807,-0.15377562,0.3946738,0.57445323,0.104706004,0.23497657,0.69969904,0.21947831,0.04555598,-0.06334769,0.39110816,-0.13179357,-0.23868008,-0.40864637,-0.19418184,796.1905,786.9231,807.0696,806.6667,1224.9084,-0.105224609375,0.0767822265625,1.00311279296875,0.28411865234375,-1.413116455078125,0.9869384765625,1,1.0,1.0,1.0,1.0,10.00
2024-10-11 20:18:26.392,0.21541879,-0.18991227,-0.13835827,0.49560398,0.19120161,-0.26097807,-0.15377562,0.3946738,0.57445323,0.104706004,0.23497657,0.69969904,0.21947831,0.04555598,-0.06334769,0.39110816,-0.13179357,-0.23868008,-0.40864637,-0.19418184,796.1905,787.72894,805.05493,801.8315,925.9341,-0.105224609375,0.0767822265625,1.00311279296875,0.28411865234375,-1.413116455078125,0.9869384765625,1,1.0,1.0,1.0,1.0,10.00
2024-10-11 20:18:26.392,0.21541879,-0.18991227,-0.13835827,0.49560398,0.19120161,-0.26097807,-0.15377562,0.3946738,0.57445323,0.104706004,0.23497657,0.69969904,0.21947831,0.04555598,-0.06334769,0.39110816,-0.13179357,-0.23868008,-0.40864637,-0.19418184,792.5641,794.17584,803.8461,799.41394,603.5897,-0.105224609375,0.0767822265625,1.00311279296875,0.28411865234375,-1.413116455078125,0.9869384765625,1,1.0,1.0,1.0,1.0,10.00
2024-10-11 20:18:26.393,0.21541879,-0.18991227,-0.13835827,0.49560398,0.19120161,-0.26097807,-0.15377562,0.3946738,0.57445323,0.104706004,0.23497657,0.69969904,0.21947831,0.04555598,-0.06334769,0.39110816,-0.13179357,-0.23868008,-0.40864637,-0.19418184,788.5348,797.3993,804.2491,800.2198,739.7802,-0.105224609375,0.0767822265625,1.00311279296875,0.28411865234375,-1.413116455078125,0.9869384765625,1,1.0,1.0,1.0,1.0,10.00
2024-10-11 20:18:26.393,0.21541879,-0.18991227,-0.13835827,0.49560398,0.19120161,-0.26097807,-0.15377562,0.3946738,0.57445323,0.104706004,0.23497657,0.69969904,0.21947831,0.04555598,-0.06334769,0.39110816,-0.13179357,-0.23868008,-0.40864637,-0.19418184,789.7436,795.78754,800.6227,799.011,859.45056,-0.105224609375,0.0767822265625,1.00311279296875,0.28411865234375,-1.413116455078125,0.9869384765625,1,1.0,1.0,1.0,1.0,10.00
2024-10-11 20:18:26.394,0.21541879,-0.18991227,-0.13835827,0.49560398,0.19120161,-0.26097807,-0.15377562,0.3946738,0.57445323,0.104706004,0.23497657,0.69969904,0.21947831,0.04555598,-0.06334769,0.39110816,-0.13179357,-0.23868008,-0.40864637,-0.19418184,792.96704,795.78754,798.20514,799.011,761.13556,-0.105224609375,0.0767822265625,1.00311279296875,0.28411865234375,-1.413116455078125,0.9869384765625,1,1.0,1.0,1.0,1.0,10.00
2024-10-11 20:18:26.395,0.21541879,-0.18991227,-0.13835827,0.49560398,0.19120161,-0.26097807,-0.15377562,0.3946738,0.57445323,0.104706004,0.23497657,0.69969904,0.21947831,0.04555598,-0.06334769,0.39110816,-0.13179357,-0.23868008,-0.40864637,-0.19418184,792.5641,795.38464,796.99634,799.011,592.3077,-0.105224609375,0.0767822265625,1.00311279296875,0.28411865234375,-1.413116455078125,0.9869384765625,1,1.0,1.0,1.0,1.0,10.00
2024-10-11 20:18:26.395,0.21541879,-0.18991227,-0.13835827,0.49560398,0.19120161,-0.26097807,-0.15377562,0.3946738,0.57445323,0.104706004,0.23497657,0.69969904,0.21947831,0.04555598,-0.06334769,0.39110816,-0.13179357,-0.23868008,-0.40864637,-0.19418184,799.41394,795.78754,797.3993,805.05493,834.4689,-0.105224609375,0.0767822265625,1.00311279296875,0.28411865234375,-1.413116455078125,0.9869384765625,1,1.0,1.0,1.0,1.0,10.00
2024-10-11 20:18:26.396,0.21541879,-0.18991227,-0.13835827,0.49560398,0.19120161,-0.26097807,-0.15377562,0.3946738,0.57445323,0.104706004,0.23497657,0.69969904,0.21947831,0.04555598,-0.06334769,0.39110816,-0.13179357,-0.23868008,-0.40864637,-0.19418184,805.4579,800.2198,804.2491,807.47253,897.326,-0.105224609375,0.0767822265625,1.00311279296875,0.28411865234375,-1.413116455078125,0.9869384765625,1,1.0,1.0,1.0,1.0,10.00
2024-10-11 20:18:26.397,0.21541879,-0.18991227,-0.13835827,0.49560398,0.19120161,-0.26097807,-0.15377562,0.3946738,0.57445323,0.104706004,0.23497657,0.69969904,0.21947831,0.04555598,-0.06334769,0.39110816,-0.13179357,-0.23868008,-0.40864637,-0.19418184,797.8022,797.8022,801.4286,803.44324,689.011,-0.105224609375,0.0767822265625,1.00311279296875,0.28411865234375,-1.413116455078125,0.9869384765625,1,1.0,1.0,1.0,1.0,10.00
2024-10-11 20:18:26.476,0.21541879,-0.18991227,-0.13835827,0.49560398,0.19120161,-0.26097807,-0.15377562,0.3946738,0.57445323,0.104706004,0.23497657,0.69969904,0.21947831,0.04555598,-0.06334769,0.39110816,-0.13179357,-0.23868008,-0.40864637,-0.19418184,797.8022,799.011,795.38464,808.2784,634.61536,-0.10760498046875,0.08135986328125,1.00091552734375,0.43365478515625,-1.3458251953125,1.5252685546875,1,1.0,1.0,1.0,1.0,10.00
2024-10-11 20:18:26.478,0.21541879,-0.18991227,-0.13835827,0.49560398,0.19120161,-0.26097807,-0.15377562,0.3946738,0.57445323,0.104706004,0.23497657,0.69969904,0.21947831,0.04555598,-0.06334769,0.39110816,-0.13179357,-0.23868008,-0.40864637,-0.19418184,799.81683,806.26373,794.9817,815.5311,603.5897,-0.10760498046875,0.08135986328125,1.00091552734375,0.43365478515625,-1.3458251953125,1.5252685546875,1,1.0,1.0,1.0,1.0,10.00
2024-10-11 20:18:26.480,0.21541879,-0.18991227,-0.13835827,0.49560398,0.19120161,-0.26097807,-0.15377562,0.3946738,0.57445323,0.104706004,0.23497657,0.69969904,0.21947831,0.04555598,-0.06334769,0.39110816,-0.13179357,-0.23868008,-0.40864637,-0.19418184,795.38464,809.4872,801.02563,817.9487,693.44324,-0.10760498046875,0.08135986328125,1.00091552734375,0.43365478515625,-1.3458251953125,1.5252685546875,1,1.0,1.0,1.0,1.0,10.00
2024-10-11 20:18:26.481,0.21541879,-0.18991227,-0.13835827,0.49560398,0.19120161,-0.26097807,-0.15377562,0.3946738,0.57445323,0.104706004,0.23497657,0.69969904,0.21947831,0.04555598,-0.06334769,0.39110816,-0.13179357,-0.23868008,-0.40864637,-0.19418184,793.7729,809.4872,805.8608,813.91943,718.022,-0.10760498046875,0.08135986328125,1.00091552734375,0.43365478515625,-1.3458251953125,1.5252685546875,1,1.0,1.0,1.0,1.0,10.00
2024-10-11 20:18:26.481,0.21541879,-0.18991227,-0.13835827,0.49560398,0.19120161,-0.26097807,-0.15377562,0.3946738,0.57445323,0.104706004,0.23497657,0.69969904,0.21947831,0.04555598,-0.06334769,0.39110816,-0.13179357,-0.23868008,-0.40864637,-0.19418184,794.17584,803.0403,803.0403,807.47253,782.49084,-0.10760498046875,0.08135986328125,1.00091552734375,0.43365478515625,-1.3458251953125,1.5252685546875,1,1.0,1.0,1.0,1.0,10.00
2024-10-11 20:18:26.482,0.15341876,-0.31539485,-0.15513322,0.44782525,0.20751901,-0.3188425,-0.096327804,0.43052503,0.57445323,0.056675475,0.23497657,0.7653099,0.22311415,0.04568764,-0.05968553,0.3923968,-0.113546446,-0.24972346,-0.38305387,-0.1926378,791.3553,798.60803,803.44324,806.26373,1005.31134,-0.10760498046875,0.08135986328125,1.00091552734375,0.43365478515625,-1.3458251953125,1.5252685546875,1,1.0,1.0,1.0,1.0,10.00
2024-10-11 20:18:26.488,0.15341876,-0.31539485,-0.15513322,0.44782525,0.20751901,-0.3188425,-0.096327804,0.43052503,0.57445323,0.056675475,0.23497657,0.7653099,0.22311415,0.04568764,-0.05968553,0.3923968,-0.113546446,-0.24972346,-0.38305387,-0.1926378,781.685,803.0403,801.02563,801.4286,912.23444,-0.10760498046875,0.08135986328125,1.00091552734375,0.43365478515625,-1.3458251953125,1.5252685546875,1,1.0,1.0,1.0,1.0,10.00
2024-10-11 20:18:26.489,0.15341876,-0.31539485,-0.15513322,0.44782525,0.20751901,-0.3188425,-0.096327804,0.43052503,0.57445323,0.056675475,0.23497657,0.7653099,0.22311415,0.04568764,-0.05968553,0.3923968,-0.113546446,-0.24972346,-0.38305387,-0.1926378,786.1172,802.23444,795.78754,801.4286,691.8315,-0.10760498046875,0.08135986328125,1.00091552734375,0.43365478515625,-1.3458251953125,1.5252685546875,1,1.0,1.0,1.0,1.0,10.00
2024-10-11 20:18:26.489,0.15341876,-0.31539485,-0.15513322,0.44782525,0.20751901,-0.3188425,-0.096327804,0.43052503,0.57445323,0.056675475,0.23497657,0.7653099,0.22311415,0.04568764,-0.05968553,0.3923968,-0.113546446,-0.24972346,-0.38305387,-0.1926378,789.7436,792.96704,796.1905,801.8315,727.28937,-0.10760498046875,0.08135986328125,1.00091552734375,0.43365478515625,-1.3458251953125,1.5252685546875,1,1.0,1.0,1.0,1.0,10.00
2024-10-11 20:18:26.490,0.15341876,-0.31539485,-0.15513322,0.44782525,0.20751901,-0.3188425,-0.096327804,0.43052503,0.57445323,0.056675475,0.23497657,0.7653099,0.22311415,0.04568764,-0.05968553,0.3923968,-0.113546446,-0.24972346,-0.38305387,-0.1926378,787.72894,787.72894,796.1905,800.2198,834.87177,-0.10760498046875,0.08135986328125,1.00091552734375,0.43365478515625,-1.3458251953125,1.5252685546875,1,1.0,1.0,1.0,1.0,10.00
2024-10-11 20:18:26.490,0.15341876,-0.31539485,-0.15513322,0.44782525,0.20751901,-0.3188425,-0.096327804,0.43052503,0.57445323,0.056675475,0.23497657,0.7653099,0.22311415,0.04568764,-0.05968553,0.3923968,-0.113546446,-0.24972346,-0.38305387,-0.1926378,793.7729,790.9524,801.02563,800.6227,640.2564,-0.10760498046875,0.08135986328125,1.00091552734375,0.43365478515625,-1.3458251953125,1.5252685546875,1,1.0,1.0,1.0,1.0,10.00
2024-10-11 20:18:26.491,0.15341876,-0.31539485,-0.15513322,0.44782525,0.20751901,-0.3188425,-0.096327804,0.43052503,0.57445323,0.056675475,0.23497657,0.7653099,0.22311415,0.04568764,-0.05968553,0.3923968,-0.113546446,-0.24972346,-0.38305387,-0.1926378,793.7729,798.20514,800.6227,799.41394,662.01465,-0.10760498046875,0.08135986328125,1.00091552734375,0.43365478515625,-1.3458251953125,1.5252685546875,1,1.0,1.0,1.0,1.0,10.00
2024-10-11 20:18:26.492,0.15341876,-0.31539485,-0.15513322,0.44782525,0.20751901,-0.3188425,-0.096327804,0.43052503,0.57445323,0.056675475,0.23497657,0.7653099,0.22311415,0.04568764,-0.05968553,0.3923968,-0.113546446,-0.24972346,-0.38305387,-0.1926378,793.36993,801.4286,796.5934,799.011,834.87177,-0.10760498046875,0.08135986328125,1.00091552734375,0.43365478515625,-1.3458251953125,1.5252685546875,1,1.0,1.0,1.0,1.0,10.00
2024-10-11 20:18:26.492,0.15341876,-0.31539485,-0.15513322,0.44782525,0.20751901,-0.3188425,-0.096327804,0.43052503,0.57445323,0.056675475,0.23497657,0.7653099,0.22311415,0.04568764,-0.05968553,0.3923968,-0.113546446,-0.24972346,-0.38305387,-0.1926378,794.57874,796.99634,801.8315,800.6227,748.6447,-0.10760498046875,0.08135986328125,1.00091552734375,0.43365478515625,-1.3458251953125,1.5252685546875,1,1.0,1.0,1.0,1.0,10.00
2024-10-11 20:18:26.493,0.15341876,-0.31539485,-0.15513322,0.44782525,0.20751901,-0.3188425,-0.096327804,0.43052503,0.57445323,0.056675475,0.23497657,0.7653099,0.22311415,0.04568764,-0.05968553,0.3923968,-0.113546446,-0.24972346,-0.38305387,-0.1926378,794.9817,797.3993,803.0403,795.38464,593.5165,-0.10760498046875,0.08135986328125,1.00091552734375,0.43365478515625,-1.3458251953125,1.5252685546875,1,1.0,1.0,1.0,1.0,10.00
2024-10-11 20:18:26.493,0.15341876,-0.31539485,-0.15513322,0.44782525,0.20751901,-0.3188425,-0.096327804,0.43052503,0.57445323,0.056675475,0.23497657,0.7653099,0.22311415,0.04568764,-0.05968553,0.3923968,-0.113546446,-0.24972346,-0.38305387,-0.1926378,798.20514,798.20514,795.38464,799.41394,682.5641,-0.10760498046875,0.08135986328125,1.00091552734375,0.43365478515625,-1.3458251953125,1.5252685546875,1,1.0,1.0,1.0,1.0,10.00
2024-10-11 20:18:26.494,0.15341876,-0.31539485,-0.15513322,0.44782525,0.20751901,-0.3188425,-0.096327804,0.43052503,0.57445323,0.056675475,0.23497657,0.7653099,0.22311415,0.04568764,-0.05968553,0.3923968,-0.113546446,-0.24972346,-0.38305387,-0.1926378,800.6227,790.54944,792.96704,801.8315,793.36993,-0.10760498046875,0.08135986328125,1.00091552734375,0.43365478515625,-1.3458251953125,1.5252685546875,1,1.0,1.0,1.0,1.0,10.00
2024-10-11 20:18:26.495,0.15341876,-0.31539485,-0.15513322,0.44782525,0.20751901,-0.3188425,-0.096327804,0.43052503,0.57445323,0.056675475,0.23497657,0.7653099,0.22311415,0.04568764,-0.05968553,0.3923968,-0.113546446,-0.24972346,-0.38305387,-0.1926378,803.8461,792.5641,795.38464,798.60803,815.9341,-0.10760498046875,0.08135986328125,1.00091552734375,0.43365478515625,-1.3458251953125,1.5252685546875,1,1.0,1.0,1.0,1.0,10.00
2024-10-11 20:18:26.495,0.15341876,-0.31539485,-0.15513322,0.44782525,0.20751901,-0.3188425,-0.096327804,0.43052503,0.57445323,0.056675475,0.23497657,0.7653099,0.22311415,0.04568764,-0.05968553,0.3923968,-0.113546446,-0.24972346,-0.38305387,-0.1926378,804.2491,800.6227,799.81683,803.0403,774.43225,-0.10760498046875,0.08135986328125,1.00091552734375,0.43365478515625,-1.3458251953125,1.5252685546875,1,1.0,1.0,1.0,1.0,10.00
2024-10-11 20:18:26.496,0.15341876,-0.31539485,-0.15513322,0.44782525,0.20751901,-0.3188425,-0.096327804,0.43052503,0.57445323,0.056675475,0.23497657,0.7653099,0.22311415,0.04568764,-0.05968553,0.3923968,-0.113546446,-0.24972346,-0.38305387,-0.1926378,798.20514,793.36993,799.81683,804.2491,815.5311,-0.10760498046875,0.08135986328125,1.00091552734375,0.43365478515625,-1.3458251953125,1.5252685546875,1,1.0,1.0,1.0,1.0,10.00
2024-10-11 20:18:26.496,0.15341876,-0.31539485,-0.15513322,0.44782525,0.20751901,-0.3188425,-0.096327804,0.43052503,0.57445323,0.056675475,0.23497657,0.7653099,0.22311415,0.04568764,-0.05968553,0.3923968,-0.113546446,-0.24972346,-0.38305387,-0.1926378,802.6374,790.54944,800.6227,800.2198,860.2564,-0.10760498046875,0.08135986328125,1.00091552734375,0.43365478515625,-1.3458251953125,1.5252685546875,1,1.0,1.0,1.0,1.0,10.00
2024-10-11 20:18:26.497,0.15341876,-0.31539485,-0.15513322,0.44782525,0.20751901,-0.3188425,-0.096327804,0.43052503,0.57445323,0.056675475,0.23497657,0.7653099,0.22311415,0.04568764,-0.05968553,0.3923968,-0.113546446,-0.24972346,-0.38305387,-0.1926378,805.05493,801.4286,801.8315,795.78754,773.22345,-0.10760498046875,0.08135986328125,1.00091552734375,0.43365478515625,-1.3458251953125,1.5252685546875,1,1.0,1.0,1.0,1.0,10.00
2024-10-11 20:18:26.498,0.15341876,-0.31539485,-0.15513322,0.44782525,0.20751901,-0.3188425,-0.096327804,0.43052503,0.57445323,0.056675475,0.23497657,0.7653099,0.22311415,0.04568764,-0.05968553,0.3923968,-0.113546446,-0.24972346,-0.38305387,-0.1926378,806.26373,806.6667,800.2198,798.20514,606.4103,-0.10760498046875,0.08135986328125,1.00091552734375,0.43365478515625,-1.3458251953125,1.5252685546875,1,1.0,1.0,1.0,1.0,10.00
2024-10-11 20:18:26.498,0.15341876,-0.31539485,-0.15513322,0.44782525,0.20751901,-0.3188425,-0.096327804,0.43052503,0.57445323,0.056675475,0.23497657,0.7653099,0.22311415,0.04568764,-0.05968553,0.3923968,-0.113546446,-0.24972346,-0.38305387,-0.1926378,808.68134,806.26373,800.6227,803.8461,600.7692,-0.10760498046875,0.08135986328125,1.00091552734375,0.43365478515625,-1.3458251953125,1.5252685546875,1,1.0,1.0,1.0,1.0,10.00
2024-10-11 20:18:26.558,0.15341876,-0.31539485,-0.15513322,0.44782525,0.20751901,-0.3188425,-0.096327804,0.43052503,0.57445323,0.056675475,0.23497657,0.7653099,0.22311415,0.04568764,-0.05968553,0.3923968,-0.113546446,-0.24972346,-0.38305387,-0.1926378,806.6667,806.26373,803.0403,811.9048,844.5421,-0.09686279296875,0.08489990234375,0.99420166015625,0.276641845703125,-0.964508056640625,2.52716064453125,1,1.0,1.0,1.0,1.0,10.00
2024-10-11 20:18:26.560,0.15341876,-0.31539485,-0.15513322,0.44782525,0.20751901,-0.3188425,-0.096327804,0.43052503,0.57445323,0.056675475,0.23497657,0.7653099,0.22311415,0.04568764,-0.05968553,0.3923968,-0.113546446,-0.24972346,-0.38305387,-0.1926378,807.47253,809.89014,809.89014,810.696,895.31134,-0.09686279296875,0.08489990234375,0.99420166015625,0.276641845703125,-0.964508056640625,2.52716064453125,1,1.0,1.0,1.0,1.0,10.00
2024-10-11 20:18:26.560,0.15341876,-0.31539485,-0.15513322,0.44782525,0.20751901,-0.3188425,-0.096327804,0.43052503,0.57445323,0.056675475,0.23497657,0.7653099,0.22311415,0.04568764,-0.05968553,0.3923968,-0.113546446,-0.24972346,-0.38305387,-0.1926378,810.696,805.05493,814.7253,813.91943,712.7839,-0.09686279296875,0.08489990234375,0.99420166015625,0.276641845703125,-0.964508056640625,2.52716064453125,1,1.0,1.0,1.0,1.0,10.00
2024-10-11 20:18:26.561,0.15341876,-0.31539485,-0.15513322,0.44782525,0.20751901,-0.3188425,-0.096327804,0.43052503,0.57445323,0.056675475,0.23497657,0.7653099,0.22311415,0.04568764,-0.05968553,0.3923968,-0.113546446,-0.24972346,-0.38305387,-0.1926378,810.696,796.99634,813.91943,821.978,741.79486,-0.09686279296875,0.08489990234375,0.99420166015625,0.276641845703125,-0.964508056640625,2.52716064453125,1,1.0,1.0,1.0,1.0,10.00
2024-10-11 20:18:26.562,0.15341876,-0.31539485,-0.15513322,0.44782525,0.20751901,-0.3188425,-0.096327804,0.43052503,0.57445323,0.056675475,0.23497657,0.7653099,0.22311415,0.04568764,-0.05968553,0.3923968,-0.113546446,-0.24972346,-0.38305387,-0.1926378,805.4579,797.3993,805.8608,822.7839,1180.989,-0.09686279296875,0.08489990234375,0.99420166015625,0.276641845703125,-0.964508056640625,2.52716064453125,1,1.0,1.0,1.0,1.0,10.00
2024-10-11 20:18:26.562,0.15341876,-0.31539485,-0.15513322,0.44782525,0.20751901,-0.3188425,-0.096327804,0.43052503,0.57445323,0.056675475,0.23497657,0.7653099,0.22311415,0.04568764,-0.05968553,0.3923968,-0.113546446,-0.24972346,-0.38305387,-0.1926378,797.3993,795.78754,798.60803,817.5458,1254.7252,-0.09686279296875,0.08489990234375,0.99420166015625,0.276641845703125,-0.964508056640625,2.52716064453125,1,1.0,1.0,1.0,1.0,10.00
2024-10-11 20:18:26.563,0.15341876,-0.31539485,-0.15513322,0.44782525,0.20751901,-0.3188425,-0.096327804,0.43052503,0.57445323,0.056675475,0.23497657,0.7653099,0.22311415,0.04568764,-0.05968553,0.3923968,-0.113546446,-0.24972346,-0.38305387,-0.1926378,809.89014,799.81683,803.8461,821.5751,839.707,-0.09686279296875,0.08489990234375,0.99420166015625,0.276641845703125,-0.964508056640625,2.52716064453125,1,1.0,1.0,1.0,1.0,10.00
2024-10-11 20:18:26.564,0.1446544,-0.36528608,-0.114735395,0.470773,0.24177821,-0.35474932,-0.047311053,0.48829696,0.57445323,0.09179168,0.23557016,0.7997869,0.22458042,0.04563335,-0.059330437,0.39059561,-0.09771664,-0.263151,-0.3504629,-0.19929361,820.7692,799.41394,819.9634,835.2747,898.5348,-0.09686279296875,0.08489990234375,0.99420166015625,0.276641845703125,-0.964508056640625,2.52716064453125,1,1.0,1.0,1.0,1.0,10.00
2024-10-11 20:18:26.571,0.1446544,-0.36528608,-0.114735395,0.470773,0.24177821,-0.35474932,-0.047311053,0.48829696,0.57445323,0.09179168,0.23557016,0.7997869,0.22458042,0.04563335,-0.059330437,0.39059561,-0.09771664,-0.263151,-0.3504629,-0.19929361,786.52014,799.011,822.381,810.696,1149.9634,-0.09686279296875,0.08489990234375,0.99420166015625,0.276641845703125,-0.964508056640625,2.52716064453125,1,1.0,1.0,1.0,1.0,10.00
2024-10-11 20:18:26.571,0.1446544,-0.36528608,-0.114735395,0.470773,0.24177821,-0.35474932,-0.047311053,0.48829696,0.57445323,0.09179168,0.23557016,0.7997869,0.22458042,0.04563335,-0.059330437,0.39059561,-0.09771664,-0.263151,-0.3504629,-0.19929361,774.0293,811.50183,805.8608,783.2967,898.93774,-0.09686279296875,0.08489990234375,0.99420166015625,0.276641845703125,-0.964508056640625,2.52716064453125,1,1.0,1.0,1.0,1.0,10.00
2024-10-11 20:18:26.572,0.1446544,-0.36528608,-0.114735395,0.470773,0.24177821,-0.35474932,-0.047311053,0.48829696,0.57445323,0.09179168,0.23557016,0.7997869,0.22458042,0.04563335,-0.059330437,0.39059561,-0.09771664,-0.263151,-0.3504629,-0.19929361,776.04395,812.3077,799.81683,774.0293,649.92676,-0.09686279296875,0.08489990234375,0.99420166015625,0.276641845703125,-0.964508056640625,2.52716064453125,1,1.0,1.0,1.0,1.0,10.00
2024-10-11 20:18:26.573,0.1446544,-0.36528608,-0.114735395,0.470773,0.24177821,-0.35474932,-0.047311053,0.48829696,0.57445323,0.09179168,0.23557016,0.7997869,0.22458042,0.04563335,-0.059330437,0.39059561,-0.09771664,-0.263151,-0.3504629,-0.19929361,758.71796,804.65204,799.011,766.77655,785.7143,-0.09686279296875,0.08489990234375,0.99420166015625,0.276641845703125,-0.964508056640625,2.52716064453125,1,1.0,1.0,1.0,1.0,10.00
2024-10-11 20:18:26.602,0.1446544,-0.36528608,-0.114735395,0.470773,0.24177821,-0.35474932,-0.047311053,0.48829696,0.57445323,0.09179168,0.23557016,0.7997869,0.22458042,0.04563335,-0.059330437,0.39059561,-0.09771664,-0.263151,-0.3504629,-0.19929361,754.2857,803.8461,799.011,765.9707,1066.5568,-0.10955810546875,0.07318115234375,1.00079345703125,-1.79443359375,-0.8673095703125,4.23187255859375,1,1.0,1.0,1.0,1.0,10.00
2024-10-11 20:18:26.603,0.1446544,-0.36528608,-0.114735395,0.470773,0.24177821,-0.35474932,-0.047311053,0.48829696,0.57445323,0.09179168,0.23557016,0.7997869,0.22458042,0.04563335,-0.059330437,0.39059561,-0.09771664,-0.263151,-0.3504629,-0.19929361,746.63007,805.8608,795.38464,750.65936,921.0989,-0.10955810546875,0.07318115234375,1.00079345703125,-1.79443359375,-0.8673095703125,4.23187255859375,1,1.0,1.0,1.0,1.0,10.00
2024-10-11 20:18:26.604,0.1446544,-0.36528608,-0.114735395,0.470773,0.24177821,-0.35474932,-0.047311053,0.48829696,0.57445323,0.09179168,0.23557016,0.7997869,0.22458042,0.04563335,-0.059330437,0.39059561,-0.09771664,-0.263151,-0.3504629,-0.19929361,740.58606,802.6374,794.9817,743.8095,766.77655,-0.10955810546875,0.07318115234375,1.00079345703125,-1.79443359375,-0.8673095703125,4.23187255859375,1,1.0,1.0,1.0,1.0,10.00
2024-10-11 20:18:26.604,0.1446544,-0.36528608,-0.114735395,0.470773,0.24177821,-0.35474932,-0.047311053,0.48829696,0.57445323,0.09179168,0.23557016,0.7997869,0.22458042,0.04563335,-0.059330437,0.39059561,-0.09771664,-0.263151,-0.3504629,-0.19929361,740.989,804.65204,790.9524,734.1392,783.69965,-0.10955810546875,0.07318115234375,1.00079345703125,-1.79443359375,-0.8673095703125,4.23187255859375,1,1.0,1.0,1.0,1.0,10.00
2024-10-11 20:18:26.605,0.1446544,-0.36528608,-0.114735395,0.470773,0.24177821,-0.35474932,-0.047311053,0.48829696,0.57445323,0.09179168,0.23557016,0.7997869,0.22458042,0.04563335,-0.059330437,0.39059561,-0.09771664,-0.263151,-0.3504629,-0.19929361,737.76556,807.47253,790.54944,730.10986,765.56775,-0.10955810546875,0.07318115234375,1.00079345703125,-1.79443359375,-0.8673095703125,4.23187255859375,1,1.0,1.0,1.0,1.0,10.00
2024-10-11 20:18:26.605,0.1446544,-0.36528608,-0.114735395,0.470773,0.24177821,-0.35474932,-0.047311053,0.48829696,0.57445323,0.09179168,0.23557016,0.7997869,0.22458042,0.04563335,-0.059330437,0.39059561,-0.09771664,-0.263151,-0.3504629,-0.19929361,731.31866,804.2491,794.9817,728.9011,925.12823,-0.10955810546875,0.07318115234375,1.00079345703125,-1.79443359375,-0.8673095703125,4.23187255859375,1,1.0,1.0,1.0,1.0,10.00
2024-10-11 20:18:26.606,0.1446544,-0.36528608,-0.114735395,0.470773,0.24177821,-0.35474932,-0.047311053,0.48829696,0.57445323,0.09179168,0.23557016,0.7997869,0.22458042,0.04563335,-0.059330437,0.39059561,-0.09771664,-0.263151,-0.3504629,-0.19929361,722.0513,807.47253,794.9817,724.0659,1009.7436,-0.10955810546875,0.07318115234375,1.00079345703125,-1.79443359375,-0.8673095703125,4.23187255859375,1,1.0,1.0,1.0,1.0,10.00
2024-10-11 20:18:26.606,0.1446544,-0.36528608,-0.114735395,0.470773,0.24177821,-0.35474932,-0.047311053,0.48829696,0.57445323,0.09179168,0.23557016,0.7997869,0.22458042,0.04563335,-0.059330437,0.39059561,-0.09771664,-0.263151,-0.3504629,-0.19929361,728.9011,806.26373,798.60803,734.94507,1084.2858,-0.10955810546875,0.07318115234375,1.00079345703125,-1.79443359375,-0.8673095703125,4.23187255859375,1,1.0,1.0,1.0,1.0,10.00
2024-10-11 20:18:26.607,0.1446544,-0.36528608,-0.114735395,0.470773,0.24177821,-0.35474932,-0.047311053,0.48829696,0.57445323,0.09179168,0.23557016,0.7997869,0.22458042,0.04563335,-0.059330437,0.39059561,-0.09771664,-0.263151,-0.3504629,-0.19929361,729.304,804.2491,793.36993,732.9304,1052.0513,-0.10955810546875,0.07318115234375,1.00079345703125,-1.79443359375,-0.8673095703125,4.23187255859375,1,1.0,1.0,1.0,1.0,10.00
2024-10-11 20:18:26.608,0.1446544,-0.36528608,-0.114735395,0.470773,0.24177821,-0.35474932,-0.047311053,0.48829696,0.57445323,0.09179168,0.23557016,0.7997869,0.22458042,0.04563335,-0.059330437,0.39059561,-0.09771664,-0.263151,-0.3504629,-0.19929361,717.619,808.2784,792.5641,719.6337,772.01465,-0.10955810546875,0.07318115234375,1.00079345703125,-1.79443359375,-0.8673095703125,4.23187255859375,1,1.0,1.0,1.0,1.0,10.00
2024-10-11 20:18:26.608,0.1446544,-0.36528608,-0.114735395,0.470773,0.24177821,-0.35474932,-0.047311053,0.48829696,0.57445323,0.09179168,0.23557016,0.7997869,0.22458042,0.04563335,-0.059330437,0.39059561,-0.09771664,-0.263151,-0.3504629,-0.19929361,711.978,811.50183,799.011,718.022,876.77655,-0.10955810546875,0.07318115234375,1.00079345703125,-1.79443359375,-0.8673095703125,4.23187255859375,1,1.0,1.0,1.0,1.0,10.00
2024-10-11 20:18:26.609,0.1446544,-0.36528608,-0.114735395,0.470773,0.24177821,-0.35474932,-0.047311053,0.48829696,0.57445323,0.09179168,0.23557016,0.7997869,0.22458042,0.04563335,-0.059330437,0.39059561,-0.09771664,-0.263151,-0.3504629,-0.19929361,709.5604,809.89014,807.47253,719.2308,983.1502,-0.10955810546875,0.07318115234375,1.00079345703125,-1.79443359375,-0.8673095703125,4.23187255859375,1,1.0,1.0,1.0,1.0,10.00
2024-10-11 20:18:26.610,0.1446544,-0.36528608,-0.114735395,0.470773,0.24177821,-0.35474932,-0.047311053,0.48829696,0.57445323,0.09179168,0.23557016,0.7997869,0.22458042,0.04563335,-0.059330437,0.39059561,-0.09771664,-0.263151,-0.3504629,-0.19929361,696.6667,805.8608,807.47253,711.1722,712.7839,-0.1065673828125,0.06439208984375,0.99420166015625,-0.456085205078125,-3.22998046875,-0.0897216796875,1,1.0,1.0,1.0,1.0,10.00
2024-10-11 20:18:26.610,0.1446544,-0.36528608,-0.114735395,0.470773,0.24177821,-0.35474932,-0.047311053,0.48829696,0.57445323,0.09179168,0.23557016,0.7997869,0.22458042,0.04563335,-0.059330437,0.39059561,-0.09771664,-0.263151,-0.3504629,-0.19929361,690.2198,805.05493,799.41394,704.3223,646.7033,-0.1065673828125,0.06439208984375,0.99420166015625,-0.456085205078125,-3.22998046875,-0.0897216796875,1,1.0,1.0,1.0,1.0,10.00
2024-10-11 20:18:26.611,0.1446544,-0.36528608,-0.114735395,0.470773,0.24177821,-0.35474932,-0.047311053,0.48829696,0.57445323,0.09179168,0.23557016,0.7997869,0.22458042,0.04563335,-0.059330437,0.39059561,-0.09771664,-0.263151,-0.3504629,-0.19929361,695.4579,803.8461,800.2198,703.5165,875.9707,-0.1065673828125,0.06439208984375,0.99420166015625,-0.456085205078125,-3.22998046875,-0.0897216796875,1,1.0,1.0,1.0,1.0,10.00
2024-10-11 20:18:26.612,0.1446544,-0.36528608,-0.114735395,0.470773,0.24177821,-0.35474932,-0.047311053,0.48829696,0.57445323,0.09179168,0.23557016,0.7997869,0.22458042,0.04563335,-0.059330437,0.39059561,-0.09771664,-0.263151,-0.3504629,-0.19929361,691.8315,806.6667,800.2198,702.71063,839.304,-0.1065673828125,0.06439208984375,0.99420166015625,-0.456085205078125,-3.22998046875,-0.0897216796875,1,1.0,1.0,1.0,1.0,10.00
2024-10-11 20:18:26.612,0.1446544,-0.36528608,-0.114735395,0.470773,0.24177821,-0.35474932,-0.047311053,0.48829696,0.57445323,0.09179168,0.23557016,0.7997869,0.22458042,0.04563335,-0.059330437,0.39059561,-0.09771664,-0.263151,-0.3504629,-0.19929361,680.9524,810.696,798.60803,697.0696,653.1502,-0.1065673828125,0.06439208984375,0.99420166015625,-0.456085205078125,-3.22998046875,-0.0897216796875,1,1.0,1.0,1.0,1.0,10.00
2024-10-11 20:18:26.613,0.1446544,-0.36528608,-0.114735395,0.470773,0.24177821,-0.35474932,-0.047311053,0.48829696,0.57445323,0.09179168,0.23557016,0.7997869,0.22458042,0.04563335,-0.059330437,0.39059561,-0.09771664,-0.263151,-0.3504629,-0.19929361,680.54944,810.696,800.2198,695.4579,688.20514,-0.1065673828125,0.06439208984375,0.99420166015625,-0.456085205078125,-3.22998046875,-0.0897216796875,1,1.0,1.0,1.0,1.0,10.00
2024-10-11 20:18:26.613,0.1446544,-0.36528608,-0.114735395,0.470773,0.24177821,-0.35474932,-0.047311053,0.48829696,0.57445323,0.09179168,0.23557016,0.7997869,0.22458042,0.04563335,-0.059330437,0.39059561,-0.09771664,-0.263151,-0.3504629,-0.19929361,679.7436,813.91943,803.44324,700.696,960.18317,-0.1065673828125,0.06439208984375,0.99420166015625,-0.456085205078125,-3.22998046875,-0.0897216796875,1,1.0,1.0,1.0,1.0,10.00
2024-10-11 20:18:26.614,0.1446544,-0.36528608,-0.114735395,0.470773,0.24177821,-0.35474932,-0.047311053,0.48829696,0.57445323,0.09179168,0.23557016,0.7997869,0.22458042,0.04563335,-0.059330437,0.39059561,-0.09771664,-0.263151,-0.3504629,-0.19929361,674.5055,815.12823,806.6667,699.89014,1094.359,-0.1065673828125,0.06439208984375,0.99420166015625,-0.456085205078125,-3.22998046875,-0.0897216796875,1,1.0,1.0,1.0,1.0,10.00
2024-10-11 20:18:26.614,0.1446544,-0.36528608,-0.114735395,0.470773,0.24177821,-0.35474932,-0.047311053,0.48829696,0.57445323,0.09179168,0.23557016,0.7997869,0.22458042,0.04563335,-0.059330437,0.39059561,-0.09771664,-0.263151,-0.3504629,-0.19929361,674.5055,816.337,806.26373,688.20514,773.6264,-0.1065673828125,0.06439208984375,0.99420166015625,-0.456085205078125,-3.22998046875,-0.0897216796875,1,1.0,1.0,1.0,1.0,10.00
2024-10-11 20:18:26.615,0.1470557,-0.36211276,-0.0733373,0.4730333,0.25925392,-0.35426033,-0.009759077,0.51158214,0.57445323,0.1295523,0.27611345,0.79569143,0.23586646,0.046455078,-0.061047167,0.39563504,-0.08342241,-0.27782217,-0.31812075,-0.2005389,671.685,800.2198,812.3077,683.36993,588.68134,-0.1065673828125,0.06439208984375,0.99420166015625,-0.456085205078125,-3.22998046875,-0.0897216796875,1,1.0,1.0,1.0,1.0,10.00
2024-10-11 20:18:26.621,0.1470557,-0.36211276,-0.0733373,0.4730333,0.25925392,-0.35426033,-0.009759077,0.51158214,0.57445323,0.1295523,0.27611345,0.79569143,0.23586646,0.046455078,-0.061047167,0.39563504,-0.08342241,-0.27782217,-0.31812075,-0.2005389,686.1905,799.011,815.5311,701.9048,792.1612,-0.1065673828125,0.06439208984375,0.99420166015625,-0.456085205078125,-3.22998046875,-0.0897216796875,1,1.0,1.0,1.0,1.0,10.00
2024-10-11 20:18:26.621,0.1470557,-0.36211276,-0.0733373,0.4730333,0.25925392,-0.35426033,-0.009759077,0.51158214,0.57445323,0.1295523,0.27611345,0.79569143,0.23586646,0.046455078,-0.061047167,0.39563504,-0.08342241,-0.27782217,-0.31812075,-0.2005389,695.05493,815.5311,814.7253,703.1135,826.4103,-0.1065673828125,0.06439208984375,0.99420166015625,-0.456085205078125,-3.22998046875,-0.0897216796875,1,1.0,1.0,1.0,1.0,10.00
2024-10-11 20:18:26.691,0.1470557,-0.36211276,-0.0733373,0.4730333,0.25925392,-0.35426033,-0.009759077,0.51158214,0.57445323,0.1295523,0.27611345,0.79569143,0.23586646,0.046455078,-0.061047167,0.39563504,-0.08342241,-0.27782217,-0.31812075,-0.2005389,691.4286,816.7399,819.15753,693.8461,625.7509,-0.095947265625,0.0604248046875,1.00726318359375,-0.336456298828125,-1.136474609375,-3.72344970703125,1,1.0,1.0,1.0,1.0,10.00
2024-10-11 20:18:26.692,0.1470557,-0.36211276,-0.0733373,0.4730333,0.25925392,-0.35426033,-0.009759077,0.51158214,0.57445323,0.1295523,0.27611345,0.79569143,0.23586646,0.046455078,-0.061047167,0.39563504,-0.08342241,-0.27782217,-0.31812075,-0.2005389,699.89014,816.7399,819.9634,703.91943,614.0659,-0.095947265625,0.0604248046875,1.00726318359375,-0.336456298828125,-1.136474609375,-3.72344970703125,1,1.0,1.0,1.0,1.0,10.00
2024-10-11 20:18:26.693,0.1470557,-0.36211276,-0.0733373,0.4730333,0.25925392,-0.35426033,-0.009759077,0.51158214,0.57445323,0.1295523,0.27611345,0.79569143,0.23586646,0.046455078,-0.061047167,0.39563504,-0.08342241,-0.27782217,-0.31812075,-0.2005389,709.15753,818.3516,819.9634,720.84247,861.4652,-0.095947265625,0.0604248046875,1.00726318359375,-0.336456298828125,-1.136474609375,-3.72344970703125,1,1.0,1.0,1.0,1.0,10.00
2024-10-11 20:18:26.693,0.1470557,-0.36211276,-0.0733373,0.4730333,0.25925392,-0.35426033,-0.009759077,0.51158214,0.57445323,0.1295523,0.27611345,0.79569143,0.23586646,0.046455078,-0.061047167,0.39563504,-0.08342241,-0.27782217,-0.31812075,-0.2005389,700.293,819.15753,826.8132,721.6484,861.06226,-0.095947265625,0.0604248046875,1.00726318359375,-0.336456298828125,-1.136474609375,-3.72344970703125,1,1.0,1.0,1.0,1.0,10.00
2024-10-11 20:18:26.694,0.1470557,-0.36211276,-0.0733373,0.4730333,0.25925392,-0.35426033,-0.009759077,0.51158214,0.57445323,0.1295523,0.27611345,0.79569143,0.23586646,0.046455078,-0.061047167,0.39563504,-0.08342241,-0.27782217,-0.31812075,-0.2005389,705.9341,810.293,821.978,720.4396,605.6044,-0.095947265625,0.0604248046875,1.00726318359375,-0.336456298828125,-1.136474609375,-3.72344970703125,1,1.0,1.0,1.0,1.0,10.00
2024-10-11 20:18:26.695,0.1470557,-0.36211276,-0.0733373,0.4730333,0.25925392,-0.35426033,-0.009759077,0.51158214,0.57445323,0.1295523,0.27611345,0.79569143,0.23586646,0.046455078,-0.061047167,0.39563504,-0.08342241,-0.27782217,-0.31812075,-0.2005389,718.022,804.65204,817.1429,725.6777,705.9341,-0.095947265625,0.0604248046875,1.00726318359375,-0.336456298828125,-1.136474609375,-3.72344970703125,1,1.0,1.0,1.0,1.0,10.00
2024-10-11 20:18:26.695,0.1470557,-0.36211276,-0.0733373,0.4730333,0.25925392,-0.35426033,-0.009759077,0.51158214,0.57445323,0.1295523,0.27611345,0.79569143,0.23586646,0.046455078,-0.061047167,0.39563504,-0.08342241,-0.27782217,-0.31812075,-0.2005389,730.5128,804.2491,825.6044,736.55676,1030.2931,-0.095947265625,0.0604248046875,1.00726318359375,-0.336456298828125,-1.136474609375,-3.72344970703125,1,1.0,1.0,1.0,1.0,10.00
2024-10-11 20:18:26.696,0.1470557,-0.36211276,-0.0733373,0.4730333,0.25925392,-0.35426033,-0.009759077,0.51158214,0.57445323,0.1295523,0.27611345,0.79569143,0.23586646,0.046455078,-0.061047167,0.39563504,-0.08342241,-0.27782217,-0.31812075,-0.2005389,742.1978,800.2198,828.4249,745.42126,992.01465,-0.095947265625,0.0604248046875,1.00726318359375,-0.336456298828125,-1.136474609375,-3.72344970703125,1,1.0,1.0,1.0,1.0,10.00
2024-10-11 20:18:26.696,0.1470557,-0.36211276,-0.0733373,0.4730333,0.25925392,-0.35426033,-0.009759077,0.51158214,0.57445323,0.1295523,0.27611345,0.79569143,0.23586646,0.046455078,-0.061047167,0.39563504,-0.08342241,-0.27782217,-0.31812075,-0.2005389,744.61536,805.4579,823.9927,745.0183,646.30035,-0.095947265625,0.0604248046875,1.00726318359375,-0.336456298828125,-1.136474609375,-3.72344970703125,1,1.0,1.0,1.0,1.0,10.00
2024-10-11 20:18:26.697,0.1470557,-0.36211276,-0.0733373,0.4730333,0.25925392,-0.35426033,-0.009759077,0.51158214,0.57445323,0.1295523,0.27611345,0.79569143,0.23586646,0.046455078,-0.061047167,0.39563504,-0.08342241,-0.27782217,-0.31812075,-0.2005389,747.4359,807.0696,823.1868,747.03296,574.17584,-0.095947265625,0.0604248046875,1.00726318359375,-0.336456298828125,-1.136474609375,-3.72344970703125,1,1.0,1.0,1.0,1.0,10.00
2024-10-11 20:18:26.698,0.1470557,-0.36211276,-0.0733373,0.4730333,0.25925392,-0.35426033,-0.009759077,0.51158214,0.57445323,0.1295523,0.27611345,0.79569143,0.23586646,0.046455078,-0.061047167,0.39563504,-0.08342241,-0.27782217,-0.31812075,-0.2005389,746.2271,800.2198,816.7399,750.65936,906.99634,-0.095947265625,0.0604248046875,1.00726318359375,-0.336456298828125,-1.136474609375,-3.72344970703125,1,1.0,1.0,1.0,1.0,10.00
2024-10-11 20:18:26.698,0.1470557,-0.36211276,-0.0733373,0.4730333,0.25925392,-0.35426033,-0.009759077,0.51158214,0.57445323,0.1295523,0.27611345,0.79569143,0.23586646,0.046455078,-0.061047167,0.39563504,-0.08342241,-0.27782217,-0.31812075,-0.2005389,743.00366,803.0403,805.8608,749.85345,1025.8608,-0.095947265625,0.0604248046875,1.00726318359375,-0.336456298828125,-1.136474609375,-3.72344970703125,1,1.0,1.0,1.0,1.0,10.00
2024-10-11 20:18:26.723,0.1470557,-0.36211276,-0.0733373,0.4730333,0.25925392,-0.35426033,-0.009759077,0.51158214,0.57445323,0.1295523,0.27611345,0.79569143,0.23586646,0.046455078,-0.061047167,0.39563504,-0.08342241,-0.27782217,-0.31812075,-0.2005389,745.0183,804.65204,813.1135,749.85345,726.08057,-0.095947265625,0.0604248046875,1.00726318359375,-0.336456298828125,-1.136474609375,-3.72344970703125,1,1.0,1.0,1.0,1.0,10.00
2024-10-11 20:18:26.724,0.1470557,-0.36211276,-0.0733373,0.4730333,0.25925392,-0.35426033,-0.009759077,0.51158214,0.57445323,0.1295523,0.27611345,0.79569143,0.23586646,0.046455078,-0.061047167,0.39563504,-0.08342241,-0.27782217,-0.31812075,-0.2005389,752.27106,799.41394,807.0696,756.30035,668.86444,-0.095947265625,0.0604248046875,1.00726318359375,-0.336456298828125,-1.136474609375,-3.72344970703125,1,1.0,1.0,1.0,1.0,10.00
2024-10-11 20:18:26.725,0.1470557,-0.36211276,-0.0733373,0.4730333,0.25925392,-0.35426033,-0.009759077,0.51158214,0.57445323,0.1295523,0.27611345,0.79569143,0.23586646,0.046455078,-0.061047167,0.39563504,-0.08342241,-0.27782217,-0.31812075,-0.2005389,762.3443,795.78754,801.4286,773.22345,890.87915,-0.095947265625,0.0604248046875,1.00726318359375,-0.336456298828125,-1.136474609375,-3.72344970703125,1,1.0,1.0,1.0,1.0,10.00
2024-10-11 20:18:26.726,0.1470557,-0.36211276,-0.0733373,0.4730333,0.25925392,-0.35426033,-0.009759077,0.51158214,0.57445323,0.1295523,0.27611345,0.79569143,0.23586646,0.046455078,-0.061047167,0.39563504,-0.08342241,-0.27782217,-0.31812075,-0.2005389,763.95605,798.60803,809.89014,784.10254,936.0073,-0.095947265625,0.0604248046875,1.00726318359375,-0.336456298828125,-1.136474609375,-3.72344970703125,1,1.0,1.0,1.0,1.0,10.00
2024-10-11 20:18:26.726,0.1470557,-0.36211276,-0.0733373,0.4730333,0.25925392,-0.35426033,-0.009759077,0.51158214,0.57445323,0.1295523,0.27611345,0.79569143,0.23586646,0.046455078,-0.061047167,0.39563504,-0.08342241,-0.27782217,-0.31812075,-0.2005389,765.9707,799.011,814.3223,781.28204,803.8461,-0.095947265625,0.0604248046875,1.00726318359375,-0.336456298828125,-1.136474609375,-3.72344970703125,1,1.0,1.0,1.0,1.0,10.00
2024-10-11 20:18:26.727,0.1470557,-0.36211276,-0.0733373,0.4730333,0.25925392,-0.35426033,-0.009759077,0.51158214,0.57445323,0.1295523,0.27611345,0.79569143,0.23586646,0.046455078,-0.061047167,0.39563504,-0.08342241,-0.27782217,-0.31812075,-0.2005389,772.4176,787.326,821.5751,784.90845,935.6044,-0.095947265625,0.0604248046875,1.00726318359375,-0.336456298828125,-1.136474609375,-3.72344970703125,1,1.0,1.0,1.0,1.0,10.00
2024-10-11 20:18:26.728,0.1470557,-0.36211276,-0.0733373,0.4730333,0.25925392,-0.35426033,-0.009759077,0.51158214,0.57445323,0.1295523,0.27611345,0.79569143,0.23586646,0.046455078,-0.061047167,0.39563504,-0.08342241,-0.27782217,-0.31812075,-0.2005389,771.2088,790.54944,813.91943,784.10254,1010.54944,-0.095947265625,0.0604248046875,1.00726318359375,-0.336456298828125,-1.136474609375,-3.72344970703125,1,1.0,1.0,1.0,1.0,10.00
2024-10-11 20:18:26.728,0.1470557,-0.36211276,-0.0733373,0.4730333,0.25925392,-0.35426033,-0.009759077,0.51158214,0.57445323,0.1295523,0.27611345,0.79569143,0.23586646,0.046455078,-0.061047167,0.39563504,-0.08342241,-0.27782217,-0.31812075,-0.2005389,774.0293,795.78754,802.6374,788.93774,827.619,-0.095947265625,0.0604248046875,1.00726318359375,-0.336456298828125,-1.136474609375,-3.72344970703125,1,1.0,1.0,1.0,1.0,10.00
2024-10-11 20:18:26.729,0.1470557,-0.36211276,-0.0733373,0.4730333,0.25925392,-0.35426033,-0.009759077,0.51158214,0.57445323,0.1295523,0.27611345,0.79569143,0.23586646,0.046455078,-0.061047167,0.39563504,-0.08342241,-0.27782217,-0.31812075,-0.2005389,769.19415,788.93774,803.44324,791.3553,747.4359,-0.095947265625,0.0604248046875,1.00726318359375,-0.336456298828125,-1.136474609375,-3.72344970703125,1,1.0,1.0,1.0,1.0,10.00
2024-10-11 20:18:26.729,0.1470557,-0.36211276,-0.0733373,0.4730333,0.25925392,-0.35426033,-0.009759077,0.51158214,0.57445323,0.1295523,0.27611345,0.79569143,0.23586646,0.046455078,-0.061047167,0.39563504,-0.08342241,-0.27782217,-0.31812075,-0.2005389,759.5238,790.54944,811.50183,782.0879,877.5824,-0.095947265625,0.0604248046875,1.00726318359375,-0.336456298828125,-1.136474609375,-3.72344970703125,1,1.0,1.0,1.0,1.0,10.00
2024-10-11 20:18:26.730,0.1470557,-0.36211276,-0.0733373,0.4730333,0.25925392,-0.35426033,-0.009759077,0.51158214,0.57445323,0.1295523,0.27611345,0.79569143,0.23586646,0.046455078,-0.061047167,0.39563504,-0.08342241,-0.27782217,-0.31812075,-0.2005389,764.35895,795.38464,813.1135,785.7143,809.89014,-0.095947265625,0.0604248046875,1.00726318359375,-0.336456298828125,-1.136474609375,-3.72344970703125,1,1.0,1.0,1.0,1.0,10.00
2024-10-11 20:18:26.731,0.1594748,-0.3154534,-0.04691669,0.49539188,0.2743421,-0.33112264,0.029895106,0.5357819,0.5686656,0.16538288,0.30687714,0.79569143,0.24593014,0.050878827,-0.06445269,0.40045163,-0.07168202,-0.29249927,-0.29037452,-0.20292947,765.9707,795.38464,808.68134,788.5348,612.4542,-0.095947265625,0.0604248046875,1.00726318359375,-0.336456298828125,-1.136474609375,-3.72344970703125,1,1.0,1.0,1.0,1.0,10.00
2024-10-11 20:18:26.737,0.1594748,-0.3154534,-0.04691669,0.49539188,0.2743421,-0.33112264,0.029895106,0.5357819,0.5686656,0.16538288,0.30687714,0.79569143,0.24593014,0.050878827,-0.06445269,0.40045163,-0.07168202,-0.29249927,-0.29037452,-0.20292947,766.77655,788.93774,806.26373,784.10254,640.65936,-0.09893798828125,0.06103515625,1.00299072265625,-0.5682373046875,0.11962890625,-3.4393310546875,1,1.0,1.0,1.0,1.0,10.00
2024-10-11 20:18:26.738,0.1594748,-0.3154534,-0.04691669,0.49539188,0.2743421,-0.33112264,0.029895106,0.5357819,0.5686656,0.16538288,0.30687714,0.79569143,0.24593014,0.050878827,-0.06445269,0.40045163,-0.07168202,-0.29249927,-0.29037452,-0.20292947,773.6264,782.8938,805.8608,783.69965,745.82416,-0.09893798828125,0.06103515625,1.00299072265625,-0.5682373046875,0.11962890625,-3.4393310546875,1,1.0,1.0,1.0,1.0,10.00
2024-10-11 20:18:26.738,0.1594748,-0.3154534,-0.04691669,0.49539188,0.2743421,-0.33112264,0.029895106,0.5357819,0.5686656,0.16538288,0.30687714,0.79569143,0.24593014,0.050878827,-0.06445269,0.40045163,-0.07168202,-0.29249927,-0.29037452,-0.20292947,777.6557,780.4762,808.2784,784.90845,706.337,-0.09893798828125,0.06103515625,1.00299072265625,-0.5682373046875,0.11962890625,-3.4393310546875,1,1.0,1.0,1.0,1.0,10.00
2024-10-11 20:18:26.739,0.1594748,-0.3154534,-0.04691669,0.49539188,0.2743421,-0.33112264,0.029895106,0.5357819,0.5686656,0.16538288,0.30687714,0.79569143,0.24593014,0.050878827,-0.06445269,0.40045163,-0.07168202,-0.29249927,-0.29037452,-0.20292947,778.86444,782.49084,805.05493,787.326,622.52747,-0.09893798828125,0.06103515625,1.00299072265625,-0.5682373046875,0.11962890625,-3.4393310546875,1,1.0,1.0,1.0,1.0,10.00
2024-10-11 20:18:26.740,0.1594748,-0.3154534,-0.04691669,0.49539188,0.2743421,-0.33112264,0.029895106,0.5357819,0.5686656,0.16538288,0.30687714,0.79569143,0.24593014,0.050878827,-0.06445269,0.40045163,-0.07168202,-0.29249927,-0.29037452,-0.20292947,783.69965,788.1319,805.4579,792.1612,691.8315,-0.09893798828125,0.06103515625,1.00299072265625,-0.5682373046875,0.11962890625,-3.4393310546875,1,1.0,1.0,1.0,1.0,10.00
2024-10-11 20:18:26.741,0.1594748,-0.3154534,-0.04691669,0.49539188,0.2743421,-0.33112264,0.029895106,0.5357819,0.5686656,0.16538288,0.30687714,0.79569143,0.24593014,0.050878827,-0.06445269,0.40045163,-0.07168202,-0.29249927,-0.29037452,-0.20292947,795.38464,788.93774,802.6374,803.8461,1041.978,-0.09893798828125,0.06103515625,1.00299072265625,-0.5682373046875,0.11962890625,-3.4393310546875,1,1.0,1.0,1.0,1.0,10.00
2024-10-11 20:18:26.741,0.1594748,-0.3154534,-0.04691669,0.49539188,0.2743421,-0.33112264,0.029895106,0.5357819,0.5686656,0.16538288,0.30687714,0.79569143,0.24593014,0.050878827,-0.06445269,0.40045163,-0.07168202,-0.29249927,-0.29037452,-0.20292947,792.5641,786.9231,796.99634,808.2784,1059.3041,-0.09893798828125,0.06103515625,1.00299072265625,-0.5682373046875,0.11962890625,-3.4393310546875,1,1.0,1.0,1.0,1.0,10.00
2024-10-11 20:18:26.742,0.1594748,-0.3154534,-0.04691669,0.49539188,0.2743421,-0.33112264,0.029895106,0.5357819,0.5686656,0.16538288,0.30687714,0.79569143,0.24593014,0.050878827,-0.06445269,0.40045163,-0.07168202,-0.29249927,-0.29037452,-0.20292947,793.36993,790.9524,794.57874,800.6227,708.7546,-0.09893798828125,0.06103515625,1.00299072265625,-0.5682373046875,0.11962890625,-3.4393310546875,1,1.0,1.0,1.0,1.0,10.00
2024-10-11 20:18:26.743,0.1594748,-0.3154534,-0.04691669,0.49539188,0.2743421,-0.33112264,0.029895106,0.5357819,0.5686656,0.16538288,0.30687714,0.79569143,0.24593014,0.050878827,-0.06445269,0.40045163,-0.07168202,-0.29249927,-0.29037452,-0.20292947,796.5934,790.14655,793.36993,802.23444,666.04395,-0.09893798828125,0.06103515625,1.00299072265625,-0.5682373046875,0.11962890625,-3.4393310546875,1,1.0,1.0,1.0,1.0,10.00
2024-10-11 20:18:26.743,0.1594748,-0.3154534,-0.04691669,0.49539188,0.2743421,-0.33112264,0.029895106,0.5357819,0.5686656,0.16538288,0.30687714,0.79569143,0.24593014,0.050878827,-0.06445269,0.40045163,-0.07168202,-0.29249927,-0.29037452,-0.20292947,791.75824,786.9231,800.6227,810.293,735.34796,-0.09893798828125,0.06103515625,1.00299072265625,-0.5682373046875,0.11962890625,-3.4393310546875,1,1.0,1.0,1.0,1.0,10.00
2024-10-11 20:18:26.744,0.1594748,-0.3154534,-0.04691669,0.49539188,0.2743421,-0.33112264,0.029895106,0.5357819,0.5686656,0.16538288,0.30687714,0.79569143,0.24593014,0.050878827,-0.06445269,0.40045163,-0.07168202,-0.29249927,-0.29037452,-0.20292947,789.7436,783.69965,810.293,809.4872,742.1978,-0.09893798828125,0.06103515625,1.00299072265625,-0.5682373046875,0.11962890625,-3.4393310546875,1,1.0,1.0,1.0,1.0,10.00
2024-10-11 20:18:26.745,0.1594748,-0.3154534,-0.04691669,0.49539188,0.2743421,-0.33112264,0.029895106,0.5357819,0.5686656,0.16538288,0.30687714,0.79569143,0.24593014,0.050878827,-0.06445269,0.40045163,-0.07168202,-0.29249927,-0.29037452,-0.20292947,794.17584,784.10254,805.05493,811.0989,619.304,-0.09893798828125,0.06103515625,1.00299072265625,-0.5682373046875,0.11962890625,-3.4393310546875,1,1.0,1.0,1.0,1.0,10.00
2024-10-11 20:18:26.773,0.1594748,-0.3154534,-0.04691669,0.49539188,0.2743421,-0.33112264,0.029895106,0.5357819,0.5686656,0.16538288,0.30687714,0.79569143,0.24593014,0.050878827,-0.06445269,0.40045163,-0.07168202,-0.29249927,-0.29037452,-0.20292947,793.36993,793.7729,799.011,815.5311,607.2161,-0.11712646484375,0.05731201171875,0.99755859375,-0.485992431640625,-0.2392578125,-2.75146484375,1,1.0,1.0,1.0,1.0,10.00
2024-10-11 20:18:26.774,0.1594748,-0.3154534,-0.04691669,0.49539188,0.2743421,-0.33112264,0.029895106,0.5357819,0.5686656,0.16538288,0.30687714,0.79569143,0.24593014,0.050878827,-0.06445269,0.40045163,-0.07168202,-0.29249927,-0.29037452,-0.20292947,789.7436,797.8022,798.60803,816.337,946.08057,-0.11712646484375,0.05731201171875,0.99755859375,-0.485992431640625,-0.2392578125,-2.75146484375,1,1.0,1.0,1.0,1.0,10.00
2024-10-11 20:18:26.775,0.1594748,-0.3154534,-0.04691669,0.49539188,0.2743421,-0.33112264,0.029895106,0.5357819,0.5686656,0.16538288,0.30687714,0.79569143,0.24593014,0.050878827,-0.06445269,0.40045163,-0.07168202,-0.29249927,-0.29037452,-0.20292947,799.011,797.8022,801.02563,811.0989,959.3773,-0.11712646484375,0.05731201171875,0.99755859375,-0.485992431640625,-0.2392578125,-2.75146484375,1,1.0,1.0,1.0,1.0,10.00
2024-10-11 20:18:26.776,0.1594748,-0.3154534,-0.04691669,0.49539188,0.2743421,-0.33112264,0.029895106,0.5357819,0.5686656,0.16538288,0.30687714,0.79569143,0.24593014,0.050878827,-0.06445269,0.40045163,-0.07168202,-0.29249927,-0.29037452,-0.20292947,804.65204,796.99634,799.41394,804.65204,628.5714,-0.11712646484375,0.05731201171875,0.99755859375,-0.485992431640625,-0.2392578125,-2.75146484375,1,1.0,1.0,1.0,1.0,10.00
2024-10-11 20:18:26.776,0.1594748,-0.3154534,-0.04691669,0.49539188,0.2743421,-0.33112264,0.029895106,0.5357819,0.5686656,0.16538288,0.30687714,0.79569143,0.24593014,0.050878827,-0.06445269,0.40045163,-0.07168202,-0.29249927,-0.29037452,-0.20292947,803.44324,794.57874,796.1905,806.26373,768.7912,-0.11712646484375,0.05731201171875,0.99755859375,-0.485992431640625,-0.2392578125,-2.75146484375,1,1.0,1.0,1.0,1.0,10.00
2024-10-11 20:18:26.777,0.1594748,-0.3154534,-0.04691669,0.49539188,0.2743421,-0.33112264,0.029895106,0.5357819,0.5686656,0.16538288,0.30687714,0.79569143,0.24593014,0.050878827,-0.06445269,0.40045163,-0.07168202,-0.29249927,-0.29037452,-0.20292947,805.8608,796.5934,801.02563,812.71063,1092.3444,-0.11712646484375,0.05731201171875,0.99755859375,-0.485992431640625,-0.2392578125,-2.75146484375,1,1.0,1.0,1.0,1.0,10.00
2024-10-11 20:18:26.778,0.1594748,-0.3154534,-0.04691669,0.49539188,0.2743421,-0.33112264,0.029895106,0.5357819,0.5686656,0.16538288,0.30687714,0.79569143,0.24593014,0.050878827,-0.06445269,0.40045163,-0.07168202,-0.29249927,-0.29037452,-0.20292947,807.8755,797.8022,807.8755,816.337,931.5751,-0.11712646484375,0.05731201171875,0.99755859375,-0.485992431640625,-0.2392578125,-2.75146484375,1,1.0,1.0,1.0,1.0,10.00
2024-10-11 20:18:26.779,0.1594748,-0.3154534,-0.04691669,0.49539188,0.2743421,-0.33112264,0.029895106,0.5357819,0.5686656,0.16538288,0.30687714,0.79569143,0.24593014,0.050878827,-0.06445269,0.40045163,-0.07168202,-0.29249927,-0.29037452,-0.20292947,804.65204,801.02563,802.6374,813.5165,691.4286,-0.11712646484375,0.05731201171875,0.99755859375,-0.485992431640625,-0.2392578125,-2.75146484375,1,1.0,1.0,1.0,1.0,10.00
2024-10-11 20:18:26.780,0.1594748,-0.3154534,-0.04691669,0.49539188,0.2743421,-0.33112264,0.029895106,0.5357819,0.5686656,0.16538288,0.30687714,0.79569143,0.24593014,0.050878827,-0.06445269,0.40045163,-0.07168202,-0.29249927,-0.29037452,-0.20292947,806.26373,802.6374,792.96704,816.7399,737.76556,-0.11712646484375,0.05731201171875,0.99755859375,-0.485992431640625,-0.2392578125,-2.75146484375,1,1.0,1.0,1.0,1.0,10.00
2024-10-11 20:18:26.781,0.1594748,-0.3154534,-0.04691669,0.49539188,0.2743421,-0.33112264,0.029895106,0.5357819,0.5686656,0.16538288,0.30687714,0.79569143,0.24593014,0.050878827,-0.06445269,0.40045163,-0.07168202,-0.29249927,-0.29037452,-0.20292947,811.50183,798.20514,797.8022,822.381,840.5128,-0.11712646484375,0.05731201171875,0.99755859375,-0.485992431640625,-0.2392578125,-2.75146484375,1,1.0,1.0,1.0,1.0,10.00
2024-10-11 20:18:26.781,0.1594748,-0.3154534,-0.04691669,0.49539188,0.2743421,-0.33112264,0.029895106,0.5357819,0.5686656,0.16538288,0.30687714,0.79569143,0.24593014,0.050878827,-0.06445269,0.40045163,-0.07168202,-0.29249927,-0.29037452,-0.20292947,807.47253,796.5934,799.41394,823.1868,781.28204,-0.11712646484375,0.05731201171875,0.99755859375,-0.485992431640625,-0.2392578125,-2.75146484375,1,1.0,1.0,1.0,1.0,10.00
2024-10-11 20:18:26.782,0.1594748,-0.3154534,-0.04691669,0.49539188,0.2743421,-0.33112264,0.029895106,0.5357819,0.5686656,0.16538288,0.30687714,0.79569143,0.24593014,0.050878827,-0.06445269,0.40045163,-0.07168202,-0.29249927,-0.29037452,-0.20292947,805.8608,801.8315,795.78754,822.7839,722.4542,-0.11712646484375,0.05731201171875,0.99755859375,-0.485992431640625,-0.2392578125,-2.75146484375,1,1.0,1.0,1.0,1.0,10.00
2024-10-11 20:18:26.809,0.1594748,-0.3154534,-0.04691669,0.49539188,0.2743421,-0.33112264,0.029895106,0.5357819,0.5686656,0.16538288,0.30687714,0.79569143,0.24593014,0.050878827,-0.06445269,0.40045163,-0.07168202,-0.29249927,-0.29037452,-0.20292947,813.91943,804.2491,797.8022,822.381,773.6264,-0.11431884765625,0.06488037109375,0.98577880859375,2.489776611328125,-3.0206298828125,-4.209442138671875,1,1.0,1.0,1.0,1.0,10.00
2024-10-11 20:18:26,,,,,,,,,,,,,,,,,,,,,,,,,,,,,,,,,,,,,,/muse/elements/blink
2024-10-11 20:18:26.810,0.1682754,-0.22868606,-0.024440415,0.5198959,0.28352696,-0.29652724,0.0830844,0.5591473,0.5591602,0.177188,0.30900607,0.79569143,0.25299045,0.06197539,-0.06777478,0.4039039,-0.06771016,-0.30512977,-0.26606536,-0.20138195,819.15753,807.0696,803.0403,823.1868,824.3956,-0.11431884765625,0.06488037109375,0.98577880859375,2.489776611328125,-3.0206298828125,-4.209442138671875,1,1.0,1.0,1.0,1.0,10.00
2024-10-11 20:18:26.815,0.1682754,-0.22868606,-0.024440415,0.5198959,0.28352696,-0.29652724,0.0830844,0.5591473,0.5591602,0.177188,0.30900607,0.79569143,0.25299045,0.06197539,-0.06777478,0.4039039,-0.06771016,-0.30512977,-0.26606536,-0.20138195,823.9927,807.8755,805.8608,815.12823,704.7253,-0.11431884765625,0.06488037109375,0.98577880859375,2.489776611328125,-3.0206298828125,-4.209442138671875,1,1.0,1.0,1.0,1.0,10.00
2024-10-11 20:18:26.816,0.1682754,-0.22868606,-0.024440415,0.5198959,0.28352696,-0.29652724,0.0830844,0.5591473,0.5591602,0.177188,0.30900607,0.79569143,0.25299045,0.06197539,-0.06777478,0.4039039,-0.06771016,-0.30512977,-0.26606536,-0.20138195,826.4103,803.0403,798.20514,809.0842,611.6484,-0.11431884765625,0.06488037109375,0.98577880859375,2.489776611328125,-3.0206298828125,-4.209442138671875,1,1.0,1.0,1.0,1.0,10.00
2024-10-11 20:18:26.817,0.1682754,-0.22868606,-0.024440415,0.5198959,0.28352696,-0.29652724,0.0830844,0.5591473,0.5591602,0.177188,0.30900607,0.79569143,0.25299045,0.06197539,-0.06777478,0.4039039,-0.06771016,-0.30512977,-0.26606536,-0.20138195,827.2161,800.6227,789.34064,813.91943,763.5531,-0.11431884765625,0.06488037109375,0.98577880859375,2.489776611328125,-3.0206298828125,-4.209442138671875,1,1.0,1.0,1.0,1.0,10.00
2024-10-11 20:18:26.817,0.1682754,-0.22868606,-0.024440415,0.5198959,0.28352696,-0.29652724,0.0830844,0.5591473,0.5591602,0.177188,0.30900607,0.79569143,0.25299045,0.06197539,-0.06777478,0.4039039,-0.06771016,-0.30512977,-0.26606536,-0.20138195,820.3663,794.9817,797.8022,817.9487,1229.3407,-0.11431884765625,0.06488037109375,0.98577880859375,2.489776611328125,-3.0206298828125,-4.209442138671875,1,1.0,1.0,1.0,1.0,10.00
2024-10-11 20:18:26.818,0.1682754,-0.22868606,-0.024440415,0.5198959,0.28352696,-0.29652724,0.0830844,0.5591473,0.5591602,0.177188,0.30900607,0.79569143,0.25299045,0.06197539,-0.06777478,0.4039039,-0.06771016,-0.30512977,-0.26606536,-0.20138195,817.9487,791.75824,796.99634,818.7546,1085.8975,-0.11431884765625,0.06488037109375,0.98577880859375,2.489776611328125,-3.0206298828125,-4.209442138671875,1,1.0,1.0,1.0,1.0,10.00
2024-10-11 20:18:26.818,0.1682754,-0.22868606,-0.024440415,0.5198959,0.28352696,-0.29652724,0.0830844,0.5591473,0.5591602,0.177188,0.30900607,0.79569143,0.25299045,0.06197539,-0.06777478,0.4039039,-0.06771016,-0.30512977,-0.26606536,-0.20138195,820.7692,798.60803,802.23444,814.3223,670.07324,-0.11431884765625,0.06488037109375,0.98577880859375,2.489776611328125,-3.0206298828125,-4.209442138671875,1,1.0,1.0,1.0,1.0,10.00
2024-10-11 20:18:26.819,0.1682754,-0.22868606,-0.024440415,0.5198959,0.28352696,-0.29652724,0.0830844,0.5591473,0.5591602,0.177188,0.30900607,0.79569143,0.25299045,0.06197539,-0.06777478,0.4039039,-0.06771016,-0.30512977,-0.26606536,-0.20138195,819.5604,796.5934,807.8755,816.7399,615.2747,-0.11431884765625,0.06488037109375,0.98577880859375,2.489776611328125,-3.0206298828125,-4.209442138671875,1,1.0,1.0,1.0,1.0,10.00
2024-10-11 20:18:26.820,0.1682754,-0.22868606,-0.024440415,0.5198959,0.28352696,-0.29652724,0.0830844,0.5591473,0.5591602,0.177188,0.30900607,0.79569143,0.25299045,0.06197539,-0.06777478,0.4039039,-0.06771016,-0.30512977,-0.26606536,-0.20138195,821.5751,794.17584,799.41394,822.381,620.10986,-0.11431884765625,0.06488037109375,0.98577880859375,2.489776611328125,-3.0206298828125,-4.209442138671875,1,1.0,1.0,1.0,1.0,10.00
2024-10-11 20:18:26.820,0.1682754,-0.22868606,-0.024440415,0.5198959,0.28352696,-0.29652724,0.0830844,0.5591473,0.5591602,0.177188,0.30900607,0.79569143,0.25299045,0.06197539,-0.06777478,0.4039039,-0.06771016,-0.30512977,-0.26606536,-0.20138195,819.9634,801.4286,795.78754,817.5458,616.8865,-0.11431884765625,0.06488037109375,0.98577880859375,2.489776611328125,-3.0206298828125,-4.209442138671875,1,1.0,1.0,1.0,1.0,10.00
2024-10-11 20:18:26.821,0.1682754,-0.22868606,-0.024440415,0.5198959,0.28352696,-0.29652724,0.0830844,0.5591473,0.5591602,0.177188,0.30900607,0.79569143,0.25299045,0.06197539,-0.06777478,0.4039039,-0.06771016,-0.30512977,-0.26606536,-0.20138195,821.1722,800.2198,797.8022,815.5311,579.81683,-0.11431884765625,0.06488037109375,0.98577880859375,2.489776611328125,-3.0206298828125,-4.209442138671875,1,1.0,1.0,1.0,1.0,10.00
2024-10-11 20:18:26.887,0.1682754,-0.22868606,-0.024440415,0.5198959,0.28352696,-0.29652724,0.0830844,0.5591473,0.5591602,0.177188,0.30900607,0.79569143,0.25299045,0.06197539,-0.06777478,0.4039039,-0.06771016,-0.30512977,-0.26606536,-0.20138195,819.15753,799.011,794.9817,815.5311,731.31866,-0.10369873046875,0.08782958984375,1.0,3.9178466796875,-3.36456298828125,-2.714080810546875,1,1.0,1.0,1.0,1.0,10.00
2024-10-11 20:18:26.888,0.1682754,-0.22868606,-0.024440415,0.5198959,0.28352696,-0.29652724,0.0830844,0.5591473,0.5591602,0.177188,0.30900607,0.79569143,0.25299045,0.06197539,-0.06777478,0.4039039,-0.06771016,-0.30512977,-0.26606536,-0.20138195,814.3223,803.8461,793.7729,811.9048,783.2967,-0.10369873046875,0.08782958984375,1.0,3.9178466796875,-3.36456298828125,-2.714080810546875,1,1.0,1.0,1.0,1.0,10.00
2024-10-11 20:18:26.888,0.1682754,-0.22868606,-0.024440415,0.5198959,0.28352696,-0.29652724,0.0830844,0.5591473,0.5591602,0.177188,0.30900607,0.79569143,0.25299045,0.06197539,-0.06777478,0.4039039,-0.06771016,-0.30512977,-0.26606536,-0.20138195,818.7546,801.8315,792.96704,813.5165,650.7326,-0.10369873046875,0.08782958984375,1.0,3.9178466796875,-3.36456298828125,-2.714080810546875,1,1.0,1.0,1.0,1.0,10.00
2024-10-11 20:18:26.889,0.1682754,-0.22868606,-0.024440415,0.5198959,0.28352696,-0.29652724,0.0830844,0.5591473,0.5591602,0.177188,0.30900607,0.79569143,0.25299045,0.06197539,-0.06777478,0.4039039,-0.06771016,-0.30512977,-0.26606536,-0.20138195,817.1429,795.38464,800.6227,817.5458,638.6447,-0.10369873046875,0.08782958984375,1.0,3.9178466796875,-3.36456298828125,-2.714080810546875,1,1.0,1.0,1.0,1.0,10.00
2024-10-11 20:18:26.890,0.1682754,-0.22868606,-0.024440415,0.5198959,0.28352696,-0.29652724,0.0830844,0.5591473,0.5591602,0.177188,0.30900607,0.79569143,0.25299045,0.06197539,-0.06777478,0.4039039,-0.06771016,-0.30512977,-0.26606536,-0.20138195,811.9048,786.1172,800.2198,821.978,983.5531,-0.10369873046875,0.08782958984375,1.0,3.9178466796875,-3.36456298828125,-2.714080810546875,1,1.0,1.0,1.0,1.0,10.00
2024-10-11 20:18:26.890,0.1682754,-0.22868606,-0.024440415,0.5198959,0.28352696,-0.29652724,0.0830844,0.5591473,0.5591602,0.177188,0.30900607,0.79569143,0.25299045,0.06197539,-0.06777478,0.4039039,-0.06771016,-0.30512977,-0.26606536,-0.20138195,811.50183,788.1319,794.17584,822.7839,919.0842,-0.10369873046875,0.08782958984375,1.0,3.9178466796875,-3.36456298828125,-2.714080810546875,1,1.0,1.0,1.0,1.0,10.00
2024-10-11 20:18:26.891,0.1682754,-0.22868606,-0.024440415,0.5198959,0.28352696,-0.29652724,0.0830844,0.5591473,0.5591602,0.177188,0.30900607,0.79569143,0.25299045,0.06197539,-0.06777478,0.4039039,-0.06771016,-0.30512977,-0.26606536,-0.20138195,816.337,793.7729,795.78754,815.12823,740.58606,-0.10369873046875,0.08782958984375,1.0,3.9178466796875,-3.36456298828125,-2.714080810546875,1,1.0,1.0,1.0,1.0,10.00
2024-10-11 20:18:26.891,0.1682754,-0.22868606,-0.024440415,0.5198959,0.28352696,-0.29652724,0.0830844,0.5591473,0.5591602,0.177188,0.30900607,0.79569143,0.25299045,0.06197539,-0.06777478,0.4039039,-0.06771016,-0.30512977,-0.26606536,-0.20138195,817.5458,794.9817,791.75824,815.12823,956.1539,-0.10369873046875,0.08782958984375,1.0,3.9178466796875,-3.36456298828125,-2.714080810546875,1,1.0,1.0,1.0,1.0,10.00
2024-10-11 20:18:26.892,0.1682754,-0.22868606,-0.024440415,0.5198959,0.28352696,-0.29652724,0.0830844,0.5591473,0.5591602,0.177188,0.30900607,0.79569143,0.25299045,0.06197539,-0.06777478,0.4039039,-0.06771016,-0.30512977,-0.26606536,-0.20138195,829.6337,789.7436,796.1905,824.3956,872.74725,-0.10369873046875,0.08782958984375,1.0,3.9178466796875,-3.36456298828125,-2.714080810546875,1,1.0,1.0,1.0,1.0,10.00
2024-10-11 20:18:26.892,0.1682754,-0.22868606,-0.024440415,0.5198959,0.28352696,-0.29652724,0.0830844,0.5591473,0.5591602,0.177188,0.30900607,0.79569143,0.25299045,0.06197539,-0.06777478,0.4039039,-0.06771016,-0.30512977,-0.26606536,-0.20138195,831.6484,786.9231,807.8755,828.8278,620.9158,-0.10369873046875,0.08782958984375,1.0,3.9178466796875,-3.36456298828125,-2.714080810546875,1,1.0,1.0,1.0,1.0,10.00
2024-10-11 20:18:26.893,0.1682754,-0.22868606,-0.024440415,0.5198959,0.28352696,-0.29652724,0.0830844,0.5591473,0.5591602,0.177188,0.30900607,0.79569143,0.25299045,0.06197539,-0.06777478,0.4039039,-0.06771016,-0.30512977,-0.26606536,-0.20138195,815.12823,799.011,801.4286,827.2161,603.5897,-0.10369873046875,0.08782958984375,1.0,3.9178466796875,-3.36456298828125,-2.714080810546875,1,1.0,1.0,1.0,1.0,10.00
2024-10-11 20:18:26.893,0.1682754,-0.22868606,-0.024440415,0.5198959,0.28352696,-0.29652724,0.0830844,0.5591473,0.5591602,0.177188,0.30900607,0.79569143,0.25299045,0.06197539,-0.06777478,0.4039039,-0.06771016,-0.30512977,-0.26606536,-0.20138195,813.1135,796.1905,795.78754,824.7985,858.6447,-0.10369873046875,0.08782958984375,1.0,3.9178466796875,-3.36456298828125,-2.714080810546875,1,1.0,1.0,1.0,1.0,10.00
2024-10-11 20:18:26.920,0.1682754,-0.22868606,-0.024440415,0.5198959,0.28352696,-0.29652724,0.0830844,0.5591473,0.5591602,0.177188,0.30900607,0.79569143,0.25299045,0.06197539,-0.06777478,0.4039039,-0.06771016,-0.30512977,-0.26606536,-0.20138195,815.12823,792.1612,799.81683,824.7985,913.44324,-0.10369873046875,0.08782958984375,1.0,3.9178466796875,-3.36456298828125,-2.714080810546875,1,1.0,1.0,1.0,1.0,10.00
2024-10-11 20:18:26.921,0.1682754,-0.22868606,-0.024440415,0.5198959,0.28352696,-0.29652724,0.0830844,0.5591473,0.5591602,0.177188,0.30900607,0.79569143,0.25299045,0.06197539,-0.06777478,0.4039039,-0.06771016,-0.30512977,-0.26606536,-0.20138195,809.0842,797.8022,799.41394,820.7692,692.23444,-0.10369873046875,0.08782958984375,1.0,3.9178466796875,-3.36456298828125,-2.714080810546875,1,1.0,1.0,1.0,1.0,10.00
2024-10-11 20:18:26.922,0.1682754,-0.22868606,-0.024440415,0.5198959,0.28352696,-0.29652724,0.0830844,0.5591473,0.5591602,0.177188,0.30900607,0.79569143,0.25299045,0.06197539,-0.06777478,0.4039039,-0.06771016,-0.30512977,-0.26606536,-0.20138195,807.47253,798.60803,798.20514,822.7839,624.1392,-0.10369873046875,0.08782958984375,1.0,3.9178466796875,-3.36456298828125,-2.714080810546875,1,1.0,1.0,1.0,1.0,10.00
2024-10-11 20:18:26.922,0.17045632,-0.089612685,0.030663414,0.54049915,0.28497964,-0.2381325,0.15480131,0.57790196,0.5489688,0.17293407,0.3162073,0.78784144,0.25528607,0.07816668,-0.06351144,0.40304253,-0.0730049,-0.31066257,-0.24345969,-0.19465078,811.50183,795.38464,791.75824,823.1868,972.674,-0.10369873046875,0.08782958984375,1.0,3.9178466796875,-3.36456298828125,-2.714080810546875,1,1.0,1.0,1.0,1.0,10.00
2024-10-11 20:18:26.927,0.17045632,-0.089612685,0.030663414,0.54049915,0.28497964,-0.2381325,0.15480131,0.57790196,0.5489688,0.17293407,0.3162073,0.78784144,0.25528607,0.07816668,-0.06351144,0.40304253,-0.0730049,-0.31066257,-0.24345969,-0.19465078,816.337,788.93774,791.75824,819.5604,1021.8315,-0.10369873046875,0.08782958984375,1.0,3.9178466796875,-3.36456298828125,-2.714080810546875,1,1.0,1.0,1.0,1.0,10.00
2024-10-11 20:18:26.928,0.17045632,-0.089612685,0.030663414,0.54049915,0.28497964,-0.2381325,0.15480131,0.57790196,0.5489688,0.17293407,0.3162073,0.78784144,0.25528607,0.07816668,-0.06351144,0.40304253,-0.0730049,-0.31066257,-0.24345969,-0.19465078,815.5311,792.96704,799.011,808.2784,785.7143,-0.10369873046875,0.08782958984375,1.0,3.9178466796875,-3.36456298828125,-2.714080810546875,1,1.0,1.0,1.0,1.0,10.00
2024-10-11 20:18:26.929,0.17045632,-0.089612685,0.030663414,0.54049915,0.28497964,-0.2381325,0.15480131,0.57790196,0.5489688,0.17293407,0.3162073,0.78784144,0.25528607,0.07816668,-0.06351144,0.40304253,-0.0730049,-0.31066257,-0.24345969,-0.19465078,811.50183,796.1905,793.7729,805.05493,786.9231,-0.10369873046875,0.08782958984375,1.0,3.9178466796875,-3.36456298828125,-2.714080810546875,1,1.0,1.0,1.0,1.0,10.00
2024-10-11 20:18:26.929,0.17045632,-0.089612685,0.030663414,0.54049915,0.28497964,-0.2381325,0.15480131,0.57790196,0.5489688,0.17293407,0.3162073,0.78784144,0.25528607,0.07816668,-0.06351144,0.40304253,-0.0730049,-0.31066257,-0.24345969,-0.19465078,816.7399,794.17584,796.5934,822.381,960.989,-0.10369873046875,0.08782958984375,1.0,3.9178466796875,-3.36456298828125,-2.714080810546875,1,1.0,1.0,1.0,1.0,10.00
2024-10-11 20:18:26.930,0.17045632,-0.089612685,0.030663414,0.54049915,0.28497964,-0.2381325,0.15480131,0.57790196,0.5489688,0.17293407,0.3162073,0.78784144,0.25528607,0.07816668,-0.06351144,0.40304253,-0.0730049,-0.31066257,-0.24345969,-0.19465078,820.7692,795.38464,805.8608,821.1722,904.57874,-0.10369873046875,0.08782958984375,1.0,3.9178466796875,-3.36456298828125,-2.714080810546875,1,1.0,1.0,1.0,1.0,10.00
2024-10-11 20:18:26.930,0.17045632,-0.089612685,0.030663414,0.54049915,0.28497964,-0.2381325,0.15480131,0.57790196,0.5489688,0.17293407,0.3162073,0.78784144,0.25528607,0.07816668,-0.06351144,0.40304253,-0.0730049,-0.31066257,-0.24345969,-0.19465078,824.7985,792.1612,805.8608,818.7546,667.6557,-0.10369873046875,0.08782958984375,1.0,3.9178466796875,-3.36456298828125,-2.714080810546875,1,1.0,1.0,1.0,1.0,10.00
2024-10-11 20:18:26.931,0.17045632,-0.089612685,0.030663414,0.54049915,0.28497964,-0.2381325,0.15480131,0.57790196,0.5489688,0.17293407,0.3162073,0.78784144,0.25528607,0.07816668,-0.06351144,0.40304253,-0.0730049,-0.31066257,-0.24345969,-0.19465078,826.8132,790.54944,801.8315,821.5751,746.63007,-0.10369873046875,0.08782958984375,1.0,3.9178466796875,-3.36456298828125,-2.714080810546875,1,1.0,1.0,1.0,1.0,10.00
2024-10-11 20:18:26.931,0.17045632,-0.089612685,0.030663414,0.54049915,0.28497964,-0.2381325,0.15480131,0.57790196,0.5489688,0.17293407,0.3162073,0.78784144,0.25528607,0.07816668,-0.06351144,0.40304253,-0.0730049,-0.31066257,-0.24345969,-0.19465078,829.6337,802.6374,793.7729,821.5751,849.3773,-0.10369873046875,0.08782958984375,1.0,3.9178466796875,-3.36456298828125,-2.714080810546875,1,1.0,1.0,1.0,1.0,10.00
2024-10-11 20:18:26.932,0.17045632,-0.089612685,0.030663414,0.54049915,0.28497964,-0.2381325,0.15480131,0.57790196,0.5489688,0.17293407,0.3162073,0.78784144,0.25528607,0.07816668,-0.06351144,0.40304253,-0.0730049,-0.31066257,-0.24345969,-0.19465078,820.7692,804.65204,792.1612,823.1868,774.83514,-0.107421875,0.10113525390625,1.00958251953125,2.31781005859375,-3.4393310546875,0.246734619140625,1,1.0,1.0,1.0,1.0,10.00
2024-10-11 20:18:26.933,0.17045632,-0.089612685,0.030663414,0.54049915,0.28497964,-0.2381325,0.15480131,0.57790196,0.5489688,0.17293407,0.3162073,0.78784144,0.25528607,0.07816668,-0.06351144,0.40304253,-0.0730049,-0.31066257,-0.24345969,-0.19465078,822.7839,801.02563,797.3993,818.7546,681.3553,-0.107421875,0.10113525390625,1.00958251953125,2.31781005859375,-3.4393310546875,0.246734619140625,1,1.0,1.0,1.0,1.0,10.00
2024-10-11 20:18:26.933,0.17045632,-0.089612685,0.030663414,0.54049915,0.28497964,-0.2381325,0.15480131,0.57790196,0.5489688,0.17293407,0.3162073,0.78784144,0.25528607,0.07816668,-0.06351144,0.40304253,-0.0730049,-0.31066257,-0.24345969,-0.19465078,833.2601,800.6227,795.38464,821.5751,691.02563,-0.107421875,0.10113525390625,1.00958251953125,2.31781005859375,-3.4393310546875,0.246734619140625,1,1.0,1.0,1.0,1.0,10.00
2024-10-11 20:18:26.934,0.17045632,-0.089612685,0.030663414,0.54049915,0.28497964,-0.2381325,0.15480131,0.57790196,0.5489688,0.17293407,0.3162073,0.78784144,0.25528607,0.07816668,-0.06351144,0.40304253,-0.0730049,-0.31066257,-0.24345969,-0.19465078,821.978,796.5934,792.1612,828.022,988.7912,-0.107421875,0.10113525390625,1.00958251953125,2.31781005859375,-3.4393310546875,0.246734619140625,1,1.0,1.0,1.0,1.0,10.00
2024-10-11 20:18:26.934,0.17045632,-0.089612685,0.030663414,0.54049915,0.28497964,-0.2381325,0.15480131,0.57790196,0.5489688,0.17293407,0.3162073,0.78784144,0.25528607,0.07816668,-0.06351144,0.40304253,-0.0730049,-0.31066257,-0.24345969,-0.19465078,812.3077,795.78754,800.2198,825.6044,894.5055,-0.107421875,0.10113525390625,1.00958251953125,2.31781005859375,-3.4393310546875,0.246734619140625,1,1.0,1.0,1.0,1.0,10.00
2024-10-11 20:18:26.935,0.17045632,-0.089612685,0.030663414,0.54049915,0.28497964,-0.2381325,0.15480131,0.57790196,0.5489688,0.17293407,0.3162073,0.78784144,0.25528607,0.07816668,-0.06351144,0.40304253,-0.0730049,-0.31066257,-0.24345969,-0.19465078,809.0842,801.8315,806.6667,820.3663,613.2601,-0.107421875,0.10113525390625,1.00958251953125,2.31781005859375,-3.4393310546875,0.246734619140625,1,1.0,1.0,1.0,1.0,10.00
2024-10-11 20:18:26.936,0.17045632,-0.089612685,0.030663414,0.54049915,0.28497964,-0.2381325,0.15480131,0.57790196,0.5489688,0.17293407,0.3162073,0.78784144,0.25528607,0.07816668,-0.06351144,0.40304253,-0.0730049,-0.31066257,-0.24345969,-0.19465078,803.0403,793.36993,803.0403,815.9341,801.8315,-0.107421875,0.10113525390625,1.00958251953125,2.31781005859375,-3.4393310546875,0.246734619140625,1,1.0,1.0,1.0,1.0,10.00
2024-10-11 20:18:26.936,0.17045632,-0.089612685,0.030663414,0.54049915,0.28497964,-0.2381325,0.15480131,0.57790196,0.5489688,0.17293407,0.3162073,0.78784144,0.25528607,0.07816668,-0.06351144,0.40304253,-0.0730049,-0.31066257,-0.24345969,-0.19465078,800.2198,789.34064,799.81683,818.7546,971.8681,-0.107421875,0.10113525390625,1.00958251953125,2.31781005859375,-3.4393310546875,0.246734619140625,1,1.0,1.0,1.0,1.0,10.00
2024-10-11 20:18:26.937,0.17045632,-0.089612685,0.030663414,0.54049915,0.28497964,-0.2381325,0.15480131,0.57790196,0.5489688,0.17293407,0.3162073,0.78784144,0.25528607,0.07816668,-0.06351144,0.40304253,-0.0730049,-0.31066257,-0.24345969,-0.19465078,808.68134,794.9817,801.02563,821.5751,803.8461,-0.107421875,0.10113525390625,1.00958251953125,2.31781005859375,-3.4393310546875,0.246734619140625,1,1.0,1.0,1.0,1.0,10.00
2024-10-11 20:18:26.937,0.17045632,-0.089612685,0.030663414,0.54049915,0.28497964,-0.2381325,0.15480131,0.57790196,0.5489688,0.17293407,0.3162073,0.78784144,0.25528607,0.07816668,-0.06351144,0.40304253,-0.0730049,-0.31066257,-0.24345969,-0.19465078,810.696,797.8022,805.05493,818.3516,615.6777,-0.107421875,0.10113525390625,1.00958251953125,2.31781005859375,-3.4393310546875,0.246734619140625,1,1.0,1.0,1.0,1.0,10.00
2024-10-11 20:18:26.938,0.17045632,-0.089612685,0.030663414,0.54049915,0.28497964,-0.2381325,0.15480131,0.57790196,0.5489688,0.17293407,0.3162073,0.78784144,0.25528607,0.07816668,-0.06351144,0.40304253,-0.0730049,-0.31066257,-0.24345969,-0.19465078,811.9048,797.8022,800.2198,819.9634,781.685,-0.107421875,0.10113525390625,1.00958251953125,2.31781005859375,-3.4393310546875,0.246734619140625,1,1.0,1.0,1.0,1.0,10.00
2024-10-11 20:18:26.939,0.17045632,-0.089612685,0.030663414,0.54049915,0.28497964,-0.2381325,0.15480131,0.57790196,0.5489688,0.17293407,0.3162073,0.78784144,0.25528607,0.07816668,-0.06351144,0.40304253,-0.0730049,-0.31066257,-0.24345969,-0.19465078,814.3223,794.17584,799.011,828.022,1106.8499,-0.107421875,0.10113525390625,1.00958251953125,2.31781005859375,-3.4393310546875,0.246734619140625,1,1.0,1.0,1.0,1.0,10.00
2024-10-11 20:18:27.004,0.17045632,-0.089612685,0.030663414,0.54049915,0.28497964,-0.2381325,0.15480131,0.57790196,0.5489688,0.17293407,0.3162073,0.78784144,0.25528607,0.07816668,-0.06351144,0.40304253,-0.0730049,-0.31066257,-0.24345969,-0.19465078,814.3223,795.38464,805.4579,828.4249,913.44324,-0.10858154296875,0.0906982421875,0.9892578125,0.336456298828125,-1.9140625,-0.49346923828125,1,1.0,1.0,1.0,1.0,10.00
2024-10-11 20:18:27.005,0.17045632,-0.089612685,0.030663414,0.54049915,0.28497964,-0.2381325,0.15480131,0.57790196,0.5489688,0.17293407,0.3162073,0.78784144,0.25528607,0.07816668,-0.06351144,0.40304253,-0.0730049,-0.31066257,-0.24345969,-0.19465078,809.0842,790.14655,802.23444,819.5604,690.2198,-0.10858154296875,0.0906982421875,0.9892578125,0.336456298828125,-1.9140625,-0.49346923828125,1,1.0,1.0,1.0,1.0,10.00
2024-10-11 20:18:27.006,0.17045632,-0.089612685,0.030663414,0.54049915,0.28497964,-0.2381325,0.15480131,0.57790196,0.5489688,0.17293407,0.3162073,0.78784144,0.25528607,0.07816668,-0.06351144,0.40304253,-0.0730049,-0.31066257,-0.24345969,-0.19465078,810.696,786.1172,799.81683,818.3516,674.5055,-0.10858154296875,0.0906982421875,0.9892578125,0.336456298828125,-1.9140625,-0.49346923828125,1,1.0,1.0,1.0,1.0,10.00
2024-10-11 20:18:27.006,0.17045632,-0.089612685,0.030663414,0.54049915,0.28497964,-0.2381325,0.15480131,0.57790196,0.5489688,0.17293407,0.3162073,0.78784144,0.25528607,0.07816668,-0.06351144,0.40304253,-0.0730049,-0.31066257,-0.24345969,-0.19465078,821.1722,794.9817,798.60803,824.7985,624.5421,-0.10858154296875,0.0906982421875,0.9892578125,0.336456298828125,-1.9140625,-0.49346923828125,1,1.0,1.0,1.0,1.0,10.00
2024-10-11 20:18:27.007,0.17045632,-0.089612685,0.030663414,0.54049915,0.28497964,-0.2381325,0.15480131,0.57790196,0.5489688,0.17293407,0.3162073,0.78784144,0.25528607,0.07816668,-0.06351144,0.40304253,-0.0730049,-0.31066257,-0.24345969,-0.19465078,817.5458,801.8315,798.60803,819.9634,700.696,-0.10858154296875,0.0906982421875,0.9892578125,0.336456298828125,-1.9140625,-0.49346923828125,1,1.0,1.0,1.0,1.0,10.00
2024-10-11 20:18:27.008,0.16475552,0.07580188,0.1301101,0.5609124,0.27738178,-0.1381358,0.23601209,0.59016836,0.53213376,0.17256054,0.33958992,0.7548107,0.25240886,0.09339226,-0.046513896,0.39448273,-0.081422456,-0.30357063,-0.22224234,-0.18572158,816.337,793.36993,799.81683,813.1135,867.1062,-0.10858154296875,0.0906982421875,0.9892578125,0.336456298828125,-1.9140625,-0.49346923828125,1,1.0,1.0,1.0,1.0,10.00
2024-10-11 20:18:27.013,0.16475552,0.07580188,0.1301101,0.5609124,0.27738178,-0.1381358,0.23601209,0.59016836,0.53213376,0.17256054,0.33958992,0.7548107,0.25240886,0.09339226,-0.046513896,0.39448273,-0.081422456,-0.30357063,-0.22224234,-0.18572158,817.9487,785.31134,797.8022,818.7546,1185.8242,-0.10858154296875,0.0906982421875,0.9892578125,0.336456298828125,-1.9140625,-0.49346923828125,1,1.0,1.0,1.0,1.0,10.00
2024-10-11 20:18:27.013,0.16475552,0.07580188,0.1301101,0.5609124,0.27738178,-0.1381358,0.23601209,0.59016836,0.53213376,0.17256054,0.33958992,0.7548107,0.25240886,0.09339226,-0.046513896,0.39448273,-0.081422456,-0.30357063,-0.22224234,-0.18572158,810.293,796.5934,792.96704,819.9634,1066.9597,-0.10858154296875,0.0906982421875,0.9892578125,0.336456298828125,-1.9140625,-0.49346923828125,1,1.0,1.0,1.0,1.0,10.00
2024-10-11 20:18:27.014,0.16475552,0.07580188,0.1301101,0.5609124,0.27738178,-0.1381358,0.23601209,0.59016836,0.53213376,0.17256054,0.33958992,0.7548107,0.25240886,0.09339226,-0.046513896,0.39448273,-0.081422456,-0.30357063,-0.22224234,-0.18572158,810.696,802.6374,796.1905,810.696,673.2967,-0.10858154296875,0.0906982421875,0.9892578125,0.336456298828125,-1.9140625,-0.49346923828125,1,1.0,1.0,1.0,1.0,10.00
2024-10-11 20:18:27.014,0.16475552,0.07580188,0.1301101,0.5609124,0.27738178,-0.1381358,0.23601209,0.59016836,0.53213376,0.17256054,0.33958992,0.7548107,0.25240886,0.09339226,-0.046513896,0.39448273,-0.081422456,-0.30357063,-0.22224234,-0.18572158,815.9341,799.011,801.4286,811.50183,747.03296,-0.10858154296875,0.0906982421875,0.9892578125,0.336456298828125,-1.9140625,-0.49346923828125,1,1.0,1.0,1.0,1.0,10.00
2024-10-11 20:18:27.015,0.16475552,0.07580188,0.1301101,0.5609124,0.27738178,-0.1381358,0.23601209,0.59016836,0.53213376,0.17256054,0.33958992,0.7548107,0.25240886,0.09339226,-0.046513896,0.39448273,-0.081422456,-0.30357063,-0.22224234,-0.18572158,814.3223,796.5934,799.011,813.91943,846.55676,-0.10858154296875,0.0906982421875,0.9892578125,0.336456298828125,-1.9140625,-0.49346923828125,1,1.0,1.0,1.0,1.0,10.00
2024-10-11 20:18:27.016,0.16475552,0.07580188,0.1301101,0.5609124,0.27738178,-0.1381358,0.23601209,0.59016836,0.53213376,0.17256054,0.33958992,0.7548107,0.25240886,0.09339226,-0.046513896,0.39448273,-0.081422456,-0.30357063,-0.22224234,-0.18572158,817.1429,792.1612,795.38464,811.0989,699.4872,-0.10858154296875,0.0906982421875,0.9892578125,0.336456298828125,-1.9140625,-0.49346923828125,1,1.0,1.0,1.0,1.0,10.00
2024-10-11 20:18:27.041,0.16475552,0.07580188,0.1301101,0.5609124,0.27738178,-0.1381358,0.23601209,0.59016836,0.53213376,0.17256054,0.33958992,0.7548107,0.25240886,0.09339226,-0.046513896,0.39448273,-0.081422456,-0.30357063,-0.22224234,-0.18572158,814.7253,788.5348,796.99634,807.0696,518.97437,-0.11175537109375,0.09600830078125,1.00848388671875,1.39068603515625,-1.2261962890625,-0.85235595703125,1,1.0,1.0,1.0,1.0,10.00
2024-10-11 20:18:27.041,0.16475552,0.07580188,0.1301101,0.5609124,0.27738178,-0.1381358,0.23601209,0.59016836,0.53213376,0.17256054,0.33958992,0.7548107,0.25240886,0.09339226,-0.046513896,0.39448273,-0.081422456,-0.30357063,-0.22224234,-0.18572158,805.8608,785.7143,793.7729,809.4872,664.83514,-0.11175537109375,0.09600830078125,1.00848388671875,1.39068603515625,-1.2261962890625,-0.85235595703125,1,1.0,1.0,1.0,1.0,10.00
2024-10-11 20:18:27.042,0.16475552,0.07580188,0.1301101,0.5609124,0.27738178,-0.1381358,0.23601209,0.59016836,0.53213376,0.17256054,0.33958992,0.7548107,0.25240886,0.09339226,-0.046513896,0.39448273,-0.081422456,-0.30357063,-0.22224234,-0.18572158,807.8755,793.7729,792.96704,812.71063,720.4396,-0.11175537109375,0.09600830078125,1.00848388671875,1.39068603515625,-1.2261962890625,-0.85235595703125,1,1.0,1.0,1.0,1.0,10.00
2024-10-11 20:18:27.043,0.16475552,0.07580188,0.1301101,0.5609124,0.27738178,-0.1381358,0.23601209,0.59016836,0.53213376,0.17256054,0.33958992,0.7548107,0.25240886,0.09339226,-0.046513896,0.39448273,-0.081422456,-0.30357063,-0.22224234,-0.18572158,805.05493,798.60803,800.2198,807.0696,623.3333,-0.11175537109375,0.09600830078125,1.00848388671875,1.39068603515625,-1.2261962890625,-0.85235595703125,1,1.0,1.0,1.0,1.0,10.00
2024-10-11 20:18:27.043,0.16475552,0.07580188,0.1301101,0.5609124,0.27738178,-0.1381358,0.23601209,0.59016836,0.53213376,0.17256054,0.33958992,0.7548107,0.25240886,0.09339226,-0.046513896,0.39448273,-0.081422456,-0.30357063,-0.22224234,-0.18572158,796.5934,799.011,797.3993,801.4286,543.5531,-0.11175537109375,0.09600830078125,1.00848388671875,1.39068603515625,-1.2261962890625,-0.85235595703125,1,1.0,1.0,1.0,1.0,10.00
2024-10-11 20:18:27.044,0.16475552,0.07580188,0.1301101,0.5609124,0.27738178,-0.1381358,0.23601209,0.59016836,0.53213376,0.17256054,0.33958992,0.7548107,0.25240886,0.09339226,-0.046513896,0.39448273,-0.081422456,-0.30357063,-0.22224234,-0.18572158,798.60803,799.41394,793.36993,799.41394,784.90845,-0.11175537109375,0.09600830078125,1.00848388671875,1.39068603515625,-1.2261962890625,-0.85235595703125,1,1.0,1.0,1.0,1.0,10.00
2024-10-11 20:18:27.044,0.16475552,0.07580188,0.1301101,0.5609124,0.27738178,-0.1381358,0.23601209,0.59016836,0.53213376,0.17256054,0.33958992,0.7548107,0.25240886,0.09339226,-0.046513896,0.39448273,-0.081422456,-0.30357063,-0.22224234,-0.18572158,802.6374,797.3993,792.5641,802.23444,975.09155,-0.11175537109375,0.09600830078125,1.00848388671875,1.39068603515625,-1.2261962890625,-0.85235595703125,1,1.0,1.0,1.0,1.0,10.00
2024-10-11 20:18:27.045,0.16475552,0.07580188,0.1301101,0.5609124,0.27738178,-0.1381358,0.23601209,0.59016836,0.53213376,0.17256054,0.33958992,0.7548107,0.25240886,0.09339226,-0.046513896,0.39448273,-0.081422456,-0.30357063,-0.22224234,-0.18572158,799.81683,793.36993,792.5641,800.2198,786.9231,-0.11175537109375,0.09600830078125,1.00848388671875,1.39068603515625,-1.2261962890625,-0.85235595703125,1,1.0,1.0,1.0,1.0,10.00
2024-10-11 20:18:27.045,0.16475552,0.07580188,0.1301101,0.5609124,0.27738178,-0.1381358,0.23601209,0.59016836,0.53213376,0.17256054,0.33958992,0.7548107,0.25240886,0.09339226,-0.046513896,0.39448273,-0.081422456,-0.30357063,-0.22224234,-0.18572158,792.1612,792.96704,794.9817,801.4286,610.0366,-0.11175537109375,0.09600830078125,1.00848388671875,1.39068603515625,-1.2261962890625,-0.85235595703125,1,1.0,1.0,1.0,1.0,10.00
2024-10-11 20:18:27.046,0.16475552,0.07580188,0.1301101,0.5609124,0.27738178,-0.1381358,0.23601209,0.59016836,0.53213376,0.17256054,0.33958992,0.7548107,0.25240886,0.09339226,-0.046513896,0.39448273,-0.081422456,-0.30357063,-0.22224234,-0.18572158,788.5348,788.5348,788.1319,808.68134,780.4762,-0.11175537109375,0.09600830078125,1.00848388671875,1.39068603515625,-1.2261962890625,-0.85235595703125,1,1.0,1.0,1.0,1.0,10.00
2024-10-11 20:18:27.047,0.16475552,0.07580188,0.1301101,0.5609124,0.27738178,-0.1381358,0.23601209,0.59016836,0.53213376,0.17256054,0.33958992,0.7548107,0.25240886,0.09339226,-0.046513896,0.39448273,-0.081422456,-0.30357063,-0.22224234,-0.18572158,786.52014,780.4762,788.1319,806.6667,923.91943,-0.11175537109375,0.09600830078125,1.00848388671875,1.39068603515625,-1.2261962890625,-0.85235595703125,1,1.0,1.0,1.0,1.0,10.00
2024-10-11 20:18:27.047,0.16475552,0.07580188,0.1301101,0.5609124,0.27738178,-0.1381358,0.23601209,0.59016836,0.53213376,0.17256054,0.33958992,0.7548107,0.25240886,0.09339226,-0.046513896,0.39448273,-0.081422456,-0.30357063,-0.22224234,-0.18572158,786.1172,788.1319,795.78754,801.8315,791.75824,-0.11175537109375,0.09600830078125,1.00848388671875,1.39068603515625,-1.2261962890625,-0.85235595703125,1,1.0,1.0,1.0,1.0,10.00
2024-10-11 20:18:27.139,0.16475552,0.07580188,0.1301101,0.5609124,0.27738178,-0.1381358,0.23601209,0.59016836,0.53213376,0.17256054,0.33958992,0.7548107,0.25240886,0.09339226,-0.046513896,0.39448273,-0.081422456,-0.30357063,-0.22224234,-0.18572158,788.1319,796.5934,801.4286,796.5934,629.3773,-0.113037109375,0.1033935546875,1.003662109375,0.37384033203125,-0.635528564453125,1.31591796875,1,1.0,1.0,1.0,1.0,10.00
2024-10-11 20:18:27.140,0.16475552,0.07580188,0.1301101,0.5609124,0.27738178,-0.1381358,0.23601209,0.59016836,0.53213376,0.17256054,0.33958992,0.7548107,0.25240886,0.09339226,-0.046513896,0.39448273,-0.081422456,-0.30357063,-0.22224234,-0.18572158,796.99634,796.5934,797.8022,800.2198,710.3663,-0.113037109375,0.1033935546875,1.003662109375,0.37384033203125,-0.635528564453125,1.31591796875,1,1.0,1.0,1.0,1.0,10.00
2024-10-11 20:18:27.140,0.16475552,0.07580188,0.1301101,0.5609124,0.27738178,-0.1381358,0.23601209,0.59016836,0.53213376,0.17256054,0.33958992,0.7548107,0.25240886,0.09339226,-0.046513896,0.39448273,-0.081422456,-0.30357063,-0.22224234,-0.18572158,804.65204,802.6374,790.14655,805.05493,900.54944,-0.113037109375,0.1033935546875,1.003662109375,0.37384033203125,-0.635528564453125,1.31591796875,1,1.0,1.0,1.0,1.0,10.00
2024-10-11 20:18:27.141,0.16475552,0.07580188,0.1301101,0.5609124,0.27738178,-0.1381358,0.23601209,0.59016836,0.53213376,0.17256054,0.33958992,0.7548107,0.25240886,0.09339226,-0.046513896,0.39448273,-0.081422456,-0.30357063,-0.22224234,-0.18572158,804.2491,804.2491,794.57874,804.65204,757.9121,-0.113037109375,0.1033935546875,1.003662109375,0.37384033203125,-0.635528564453125,1.31591796875,1,1.0,1.0,1.0,1.0,10.00
2024-10-11 20:18:27.142,0.16475552,0.07580188,0.1301101,0.5609124,0.27738178,-0.1381358,0.23601209,0.59016836,0.53213376,0.17256054,0.33958992,0.7548107,0.25240886,0.09339226,-0.046513896,0.39448273,-0.081422456,-0.30357063,-0.22224234,-0.18572158,798.60803,799.41394,804.2491,798.60803,616.08057,-0.113037109375,0.1033935546875,1.003662109375,0.37384033203125,-0.635528564453125,1.31591796875,1,1.0,1.0,1.0,1.0,10.00
2024-10-11 20:18:27.142,0.16475552,0.07580188,0.1301101,0.5609124,0.27738178,-0.1381358,0.23601209,0.59016836,0.53213376,0.17256054,0.33958992,0.7548107,0.25240886,0.09339226,-0.046513896,0.39448273,-0.081422456,-0.30357063,-0.22224234,-0.18572158,799.81683,798.60803,799.41394,805.4579,958.1685,-0.113037109375,0.1033935546875,1.003662109375,0.37384033203125,-0.635528564453125,1.31591796875,1,1.0,1.0,1.0,1.0,10.00
2024-10-11 20:18:27.143,0.16475552,0.07580188,0.1301101,0.5609124,0.27738178,-0.1381358,0.23601209,0.59016836,0.53213376,0.17256054,0.33958992,0.7548107,0.25240886,0.09339226,-0.046513896,0.39448273,-0.081422456,-0.30357063,-0.22224234,-0.18572158,808.68134,796.99634,796.99634,813.1135,1256.337,-0.113037109375,0.1033935546875,1.003662109375,0.37384033203125,-0.635528564453125,1.31591796875,1,1.0,1.0,1.0,1.0,10.00
2024-10-11 20:18:27.143,0.16321726,0.2179802,0.25000826,0.58797896,0.26335278,-0.01469375,0.30621752,0.60015,0.5075323,0.1847861,0.35762966,0.68988127,0.24677096,0.103179164,-0.021256095,0.37619337,-0.08325024,-0.28606522,-0.20130903,-0.18051928,807.47253,792.5641,799.41394,800.2198,856.63007,-0.113037109375,0.1033935546875,1.003662109375,0.37384033203125,-0.635528564453125,1.31591796875,1,1.0,1.0,1.0,1.0,10.00
2024-10-11 20:18:27.149,0.16321726,0.2179802,0.25000826,0.58797896,0.26335278,-0.01469375,0.30621752,0.60015,0.5075323,0.1847861,0.35762966,0.68988127,0.24677096,0.103179164,-0.021256095,0.37619337,-0.08325024,-0.28606522,-0.20130903,-0.18051928,809.89014,800.2198,796.1905,798.20514,662.8205,-0.113037109375,0.1033935546875,1.003662109375,0.37384033203125,-0.635528564453125,1.31591796875,1,1.0,1.0,1.0,1.0,10.00
2024-10-11 20:18:27.149,0.16321726,0.2179802,0.25000826,0.58797896,0.26335278,-0.01469375,0.30621752,0.60015,0.5075323,0.1847861,0.35762966,0.68988127,0.24677096,0.103179164,-0.021256095,0.37619337,-0.08325024,-0.28606522,-0.20130903,-0.18051928,809.4872,804.2491,795.78754,803.44324,740.18317,-0.113037109375,0.1033935546875,1.003662109375,0.37384033203125,-0.635528564453125,1.31591796875,1,1.0,1.0,1.0,1.0,10.00
2024-10-11 20:18:27.150,0.16321726,0.2179802,0.25000826,0.58797896,0.26335278,-0.01469375,0.30621752,0.60015,0.5075323,0.1847861,0.35762966,0.68988127,0.24677096,0.103179164,-0.021256095,0.37619337,-0.08325024,-0.28606522,-0.20130903,-0.18051928,805.8608,801.8315,798.60803,808.2784,745.42126,-0.113037109375,0.1033935546875,1.003662109375,0.37384033203125,-0.635528564453125,1.31591796875,1,1.0,1.0,1.0,1.0,10.00
2024-10-11 20:18:27.150,0.16321726,0.2179802,0.25000826,0.58797896,0.26335278,-0.01469375,0.30621752,0.60015,0.5075323,0.1847861,0.35762966,0.68988127,0.24677096,0.103179164,-0.021256095,0.37619337,-0.08325024,-0.28606522,-0.20130903,-0.18051928,803.44324,796.1905,794.57874,805.8608,659.19415,-0.113037109375,0.1033935546875,1.003662109375,0.37384033203125,-0.635528564453125,1.31591796875,1,1.0,1.0,1.0,1.0,10.00
2024-10-11 20:18:27.151,0.16321726,0.2179802,0.25000826,0.58797896,0.26335278,-0.01469375,0.30621752,0.60015,0.5075323,0.1847861,0.35762966,0.68988127,0.24677096,0.103179164,-0.021256095,0.37619337,-0.08325024,-0.28606522,-0.20130903,-0.18051928,803.0403,795.38464,792.5641,803.44324,713.9927,-0.11968994140625,0.08489990234375,0.989501953125,-3.506622314453125,-3.476715087890625,2.2430419921875,1,1.0,1.0,1.0,1.0,10.00
2024-10-11 20:18:27.152,0.16321726,0.2179802,0.25000826,0.58797896,0.26335278,-0.01469375,0.30621752,0.60015,0.5075323,0.1847861,0.35762966,0.68988127,0.24677096,0.103179164,-0.021256095,0.37619337,-0.08325024,-0.28606522,-0.20130903,-0.18051928,805.8608,799.81683,800.2198,801.8315,828.8278,-0.11968994140625,0.08489990234375,0.989501953125,-3.506622314453125,-3.476715087890625,2.2430419921875,1,1.0,1.0,1.0,1.0,10.00
2024-10-11 20:18:27.152,0.16321726,0.2179802,0.25000826,0.58797896,0.26335278,-0.01469375,0.30621752,0.60015,0.5075323,0.1847861,0.35762966,0.68988127,0.24677096,0.103179164,-0.021256095,0.37619337,-0.08325024,-0.28606522,-0.20130903,-0.18051928,810.696,802.6374,801.4286,801.4286,771.2088,-0.11968994140625,0.08489990234375,0.989501953125,-3.506622314453125,-3.476715087890625,2.2430419921875,1,1.0,1.0,1.0,1.0,10.00
2024-10-11 20:18:27.153,0.16321726,0.2179802,0.25000826,0.58797896,0.26335278,-0.01469375,0.30621752,0.60015,0.5075323,0.1847861,0.35762966,0.68988127,0.24677096,0.103179164,-0.021256095,0.37619337,-0.08325024,-0.28606522,-0.20130903,-0.18051928,811.50183,802.23444,802.23444,803.8461,657.5824,-0.11968994140625,0.08489990234375,0.989501953125,-3.506622314453125,-3.476715087890625,2.2430419921875,1,1.0,1.0,1.0,1.0,10.00
2024-10-11 20:18:27.154,0.16321726,0.2179802,0.25000826,0.58797896,0.26335278,-0.01469375,0.30621752,0.60015,0.5075323,0.1847861,0.35762966,0.68988127,0.24677096,0.103179164,-0.021256095,0.37619337,-0.08325024,-0.28606522,-0.20130903,-0.18051928,805.8608,798.20514,804.65204,806.26373,750.2564,-0.11968994140625,0.08489990234375,0.989501953125,-3.506622314453125,-3.476715087890625,2.2430419921875,1,1.0,1.0,1.0,1.0,10.00
2024-10-11 20:18:27.154,0.16321726,0.2179802,0.25000826,0.58797896,0.26335278,-0.01469375,0.30621752,0.60015,0.5075323,0.1847861,0.35762966,0.68988127,0.24677096,0.103179164,-0.021256095,0.37619337,-0.08325024,-0.28606522,-0.20130903,-0.18051928,803.8461,800.6227,806.6667,807.8755,884.0293,-0.11968994140625,0.08489990234375,0.989501953125,-3.506622314453125,-3.476715087890625,2.2430419921875,1,1.0,1.0,1.0,1.0,10.00
2024-10-11 20:18:27.155,0.16321726,0.2179802,0.25000826,0.58797896,0.26335278,-0.01469375,0.30621752,0.60015,0.5075323,0.1847861,0.35762966,0.68988127,0.24677096,0.103179164,-0.021256095,0.37619337,-0.08325024,-0.28606522,-0.20130903,-0.18051928,801.02563,799.011,802.6374,806.6667,760.7326,-0.11968994140625,0.08489990234375,0.989501953125,-3.506622314453125,-3.476715087890625,2.2430419921875,1,1.0,1.0,1.0,1.0,10.00
2024-10-11 20:18:27.155,0.16321726,0.2179802,0.25000826,0.58797896,0.26335278,-0.01469375,0.30621752,0.60015,0.5075323,0.1847861,0.35762966,0.68988127,0.24677096,0.103179164,-0.021256095,0.37619337,-0.08325024,-0.28606522,-0.20130903,-0.18051928,805.8608,793.7729,796.99634,813.1135,745.82416,-0.11968994140625,0.08489990234375,0.989501953125,-3.506622314453125,-3.476715087890625,2.2430419921875,1,1.0,1.0,1.0,1.0,10.00
2024-10-11 20:18:27.156,0.16321726,0.2179802,0.25000826,0.58797896,0.26335278,-0.01469375,0.30621752,0.60015,0.5075323,0.1847861,0.35762966,0.68988127,0.24677096,0.103179164,-0.021256095,0.37619337,-0.08325024,-0.28606522,-0.20130903,-0.18051928,810.696,793.7729,795.78754,818.3516,898.1319,-0.11968994140625,0.08489990234375,0.989501953125,-3.506622314453125,-3.476715087890625,2.2430419921875,1,1.0,1.0,1.0,1.0,10.00
2024-10-11 20:18:27.157,0.16321726,0.2179802,0.25000826,0.58797896,0.26335278,-0.01469375,0.30621752,0.60015,0.5075323,0.1847861,0.35762966,0.68988127,0.24677096,0.103179164,-0.021256095,0.37619337,-0.08325024,-0.28606522,-0.20130903,-0.18051928,801.8315,801.4286,791.3553,815.12823,921.50183,-0.11968994140625,0.08489990234375,0.989501953125,-3.506622314453125,-3.476715087890625,2.2430419921875,1,1.0,1.0,1.0,1.0,10.00
2024-10-11 20:18:27.157,0.16321726,0.2179802,0.25000826,0.58797896,0.26335278,-0.01469375,0.30621752,0.60015,0.5075323,0.1847861,0.35762966,0.68988127,0.24677096,0.103179164,-0.021256095,0.37619337,-0.08325024,-0.28606522,-0.20130903,-0.18051928,796.5934,798.20514,784.90845,818.3516,670.87915,-0.11968994140625,0.08489990234375,0.989501953125,-3.506622314453125,-3.476715087890625,2.2430419921875,1,1.0,1.0,1.0,1.0,10.00
2024-10-11 20:18:27.158,0.16321726,0.2179802,0.25000826,0.58797896,0.26335278,-0.01469375,0.30621752,0.60015,0.5075323,0.1847861,0.35762966,0.68988127,0.24677096,0.103179164,-0.021256095,0.37619337,-0.08325024,-0.28606522,-0.20130903,-0.18051928,797.8022,795.78754,793.36993,814.3223,610.4396,-0.11968994140625,0.08489990234375,0.989501953125,-3.506622314453125,-3.476715087890625,2.2430419921875,1,1.0,1.0,1.0,1.0,10.00
2024-10-11 20:18:27.186,0.16321726,0.2179802,0.25000826,0.58797896,0.26335278,-0.01469375,0.30621752,0.60015,0.5075323,0.1847861,0.35762966,0.68988127,0.24677096,0.103179164,-0.021256095,0.37619337,-0.08325024,-0.28606522,-0.20130903,-0.18051928,799.41394,801.02563,803.8461,815.9341,847.3626,-0.11968994140625,0.08489990234375,0.989501953125,-3.506622314453125,-3.476715087890625,2.2430419921875,1,1.0,1.0,1.0,1.0,10.00
2024-10-11 20:18:27.187,0.16321726,0.2179802,0.25000826,0.58797896,0.26335278,-0.01469375,0.30621752,0.60015,0.5075323,0.1847861,0.35762966,0.68988127,0.24677096,0.103179164,-0.021256095,0.37619337,-0.08325024,-0.28606522,-0.20130903,-0.18051928,798.20514,798.60803,799.011,817.1429,913.0403,-0.11968994140625,0.08489990234375,0.989501953125,-3.506622314453125,-3.476715087890625,2.2430419921875,1,1.0,1.0,1.0,1.0,10.00
2024-10-11 20:18:27.188,0.16321726,0.2179802,0.25000826,0.58797896,0.26335278,-0.01469375,0.30621752,0.60015,0.5075323,0.1847861,0.35762966,0.68988127,0.24677096,0.103179164,-0.021256095,0.37619337,-0.08325024,-0.28606522,-0.20130903,-0.18051928,797.8022,800.6227,792.96704,804.65204,618.0952,-0.11968994140625,0.08489990234375,0.989501953125,-3.506622314453125,-3.476715087890625,2.2430419921875,1,1.0,1.0,1.0,1.0,10.00
2024-10-11 20:18:27.188,0.16321726,0.2179802,0.25000826,0.58797896,0.26335278,-0.01469375,0.30621752,0.60015,0.5075323,0.1847861,0.35762966,0.68988127,0.24677096,0.103179164,-0.021256095,0.37619337,-0.08325024,-0.28606522,-0.20130903,-0.18051928,802.23444,800.2198,797.3993,806.6667,586.6667,-0.11968994140625,0.08489990234375,0.989501953125,-3.506622314453125,-3.476715087890625,2.2430419921875,1,1.0,1.0,1.0,1.0,10.00
2024-10-11 20:18:27.189,0.16321726,0.2179802,0.25000826,0.58797896,0.26335278,-0.01469375,0.30621752,0.60015,0.5075323,0.1847861,0.35762966,0.68988127,0.24677096,0.103179164,-0.021256095,0.37619337,-0.08325024,-0.28606522,-0.20130903,-0.18051928,801.8315,796.5934,803.8461,808.2784,755.89746,-0.11968994140625,0.08489990234375,0.989501953125,-3.506622314453125,-3.476715087890625,2.2430419921875,1,1.0,1.0,1.0,1.0,10.00
2024-10-11 20:18:27.189,0.16321726,0.2179802,0.25000826,0.58797896,0.26335278,-0.01469375,0.30621752,0.60015,0.5075323,0.1847861,0.35762966,0.68988127,0.24677096,0.103179164,-0.021256095,0.37619337,-0.08325024,-0.28606522,-0.20130903,-0.18051928,805.05493,802.6374,801.4286,802.6374,861.06226,-0.11968994140625,0.08489990234375,0.989501953125,-3.506622314453125,-3.476715087890625,2.2430419921875,1,1.0,1.0,1.0,1.0,10.00
2024-10-11 20:18:27.190,0.16321726,0.2179802,0.25000826,0.58797896,0.26335278,-0.01469375,0.30621752,0.60015,0.5075323,0.1847861,0.35762966,0.68988127,0.24677096,0.103179164,-0.021256095,0.37619337,-0.08325024,-0.28606522,-0.20130903,-0.18051928,806.26373,797.8022,799.81683,801.4286,763.1502,-0.11968994140625,0.08489990234375,0.989501953125,-3.506622314453125,-3.476715087890625,2.2430419921875,1,1.0,1.0,1.0,1.0,10.00
2024-10-11 20:18:27.191,0.16321726,0.2179802,0.25000826,0.58797896,0.26335278,-0.01469375,0.30621752,0.60015,0.5075323,0.1847861,0.35762966,0.68988127,0.24677096,0.103179164,-0.021256095,0.37619337,-0.08325024,-0.28606522,-0.20130903,-0.18051928,809.89014,787.326,797.8022,805.05493,745.82416,-0.11968994140625,0.08489990234375,0.989501953125,-3.506622314453125,-3.476715087890625,2.2430419921875,1,1.0,1.0,1.0,1.0,10.00
2024-10-11 20:18:27.191,0.16321726,0.2179802,0.25000826,0.58797896,0.26335278,-0.01469375,0.30621752,0.60015,0.5075323,0.1847861,0.35762966,0.68988127,0.24677096,0.103179164,-0.021256095,0.37619337,-0.08325024,-0.28606522,-0.20130903,-0.18051928,806.26373,788.93774,793.36993,805.4579,880.80585,-0.11968994140625,0.08489990234375,0.989501953125,-3.506622314453125,-3.476715087890625,2.2430419921875,1,1.0,1.0,1.0,1.0,10.00
2024-10-11 20:18:27.192,0.17317638,0.3087905,0.35339862,0.6190796,0.25119597,0.09449766,0.3502991,0.6139492,0.43250942,0.18493015,0.35762966,0.6533489,0.24183257,0.108035505,0.0026753282,0.34961358,-0.07335664,-0.2677499,-0.17931,-0.1851552,796.99634,795.78754,792.96704,801.4286,803.8461,-0.11968994140625,0.08489990234375,0.989501953125,-3.506622314453125,-3.476715087890625,2.2430419921875,1,1.0,1.0,1.0,1.0,10.00
2024-10-11 20:18:27.197,0.17317638,0.3087905,0.35339862,0.6190796,0.25119597,0.09449766,0.3502991,0.6139492,0.43250942,0.18493015,0.35762966,0.6533489,0.24183257,0.108035505,0.0026753282,0.34961358,-0.07335664,-0.2677499,-0.17931,-0.1851552,799.41394,793.7729,801.02563,801.8315,651.13556,-0.11968994140625,0.08489990234375,0.989501953125,-3.506622314453125,-3.476715087890625,2.2430419921875,1,1.0,1.0,1.0,1.0,10.00
2024-10-11 20:18:27.198,0.17317638,0.3087905,0.35339862,0.6190796,0.25119597,0.09449766,0.3502991,0.6139492,0.43250942,0.18493015,0.35762966,0.6533489,0.24183257,0.108035505,0.0026753282,0.34961358,-0.07335664,-0.2677499,-0.17931,-0.1851552,804.65204,793.7729,802.6374,805.05493,613.2601,-0.11968994140625,0.08489990234375,0.989501953125,-3.506622314453125,-3.476715087890625,2.2430419921875,1,1.0,1.0,1.0,1.0,10.00
2024-10-11 20:18:27.293,0.17317638,0.3087905,0.35339862,0.6190796,0.25119597,0.09449766,0.3502991,0.6139492,0.43250942,0.18493015,0.35762966,0.6533489,0.24183257,0.108035505,0.0026753282,0.34961358,-0.07335664,-0.2677499,-0.17931,-0.1851552,807.0696,792.5641,799.011,811.9048,941.2454,-0.1112060546875,0.06866455078125,0.99884033203125,-3.058013916015625,-3.222503662109375,2.51220703125,1,1.0,1.0,1.0,1.0,10.00
2024-10-11 20:18:27.294,0.17317638,0.3087905,0.35339862,0.6190796,0.25119597,0.09449766,0.3502991,0.6139492,0.43250942,0.18493015,0.35762966,0.6533489,0.24183257,0.108035505,0.0026753282,0.34961358,-0.07335664,-0.2677499,-0.17931,-0.1851552,807.0696,789.34064,803.44324,814.7253,1101.2087,-0.1112060546875,0.06866455078125,0.99884033203125,-3.058013916015625,-3.222503662109375,2.51220703125,1,1.0,1.0,1.0,1.0,10.00
2024-10-11 20:18:27.294,0.17317638,0.3087905,0.35339862,0.6190796,0.25119597,0.09449766,0.3502991,0.6139492,0.43250942,0.18493015,0.35762966,0.6533489,0.24183257,0.108035505,0.0026753282,0.34961358,-0.07335664,-0.2677499,-0.17931,-0.1851552,805.4579,795.38464,802.6374,810.696,662.8205,-0.1112060546875,0.06866455078125,0.99884033203125,-3.058013916015625,-3.222503662109375,2.51220703125,1,1.0,1.0,1.0,1.0,10.00
2024-10-11 20:18:27.295,0.17317638,0.3087905,0.35339862,0.6190796,0.25119597,0.09449766,0.3502991,0.6139492,0.43250942,0.18493015,0.35762966,0.6533489,0.24183257,0.108035505,0.0026753282,0.34961358,-0.07335664,-0.2677499,-0.17931,-0.1851552,805.05493,793.7729,800.6227,808.2784,666.04395,-0.1112060546875,0.06866455078125,0.99884033203125,-3.058013916015625,-3.222503662109375,2.51220703125,1,1.0,1.0,1.0,1.0,10.00
2024-10-11 20:18:27.296,0.17317638,0.3087905,0.35339862,0.6190796,0.25119597,0.09449766,0.3502991,0.6139492,0.43250942,0.18493015,0.35762966,0.6533489,0.24183257,0.108035505,0.0026753282,0.34961358,-0.07335664,-0.2677499,-0.17931,-0.1851552,810.293,800.2198,798.60803,810.293,726.4835,-0.1112060546875,0.06866455078125,0.99884033203125,-3.058013916015625,-3.222503662109375,2.51220703125,1,1.0,1.0,1.0,1.0,10.00
2024-10-11 20:18:27.296,0.17317638,0.3087905,0.35339862,0.6190796,0.25119597,0.09449766,0.3502991,0.6139492,0.43250942,0.18493015,0.35762966,0.6533489,0.24183257,0.108035505,0.0026753282,0.34961358,-0.07335664,-0.2677499,-0.17931,-0.1851552,816.7399,803.8461,804.2491,811.0989,805.4579,-0.1112060546875,0.06866455078125,0.99884033203125,-3.058013916015625,-3.222503662109375,2.51220703125,1,1.0,1.0,1.0,1.0,10.00
2024-10-11 20:18:27.297,0.17317638,0.3087905,0.35339862,0.6190796,0.25119597,0.09449766,0.3502991,0.6139492,0.43250942,0.18493015,0.35762966,0.6533489,0.24183257,0.108035505,0.0026753282,0.34961358,-0.07335664,-0.2677499,-0.17931,-0.1851552,813.1135,790.9524,806.6667,805.4579,724.0659,-0.1112060546875,0.06866455078125,0.99884033203125,-3.058013916015625,-3.222503662109375,2.51220703125,1,1.0,1.0,1.0,1.0,10.00
2024-10-11 20:18:27.297,0.17317638,0.3087905,0.35339862,0.6190796,0.25119597,0.09449766,0.3502991,0.6139492,0.43250942,0.18493015,0.35762966,0.6533489,0.24183257,0.108035505,0.0026753282,0.34961358,-0.07335664,-0.2677499,-0.17931,-0.1851552,805.05493,784.10254,800.6227,802.6374,651.9414,-0.1112060546875,0.06866455078125,0.99884033203125,-3.058013916015625,-3.222503662109375,2.51220703125,1,1.0,1.0,1.0,1.0,10.00
2024-10-11 20:18:27.298,0.17317638,0.3087905,0.35339862,0.6190796,0.25119597,0.09449766,0.3502991,0.6139492,0.43250942,0.18493015,0.35762966,0.6533489,0.24183257,0.108035505,0.0026753282,0.34961358,-0.07335664,-0.2677499,-0.17931,-0.1851552,805.05493,790.9524,797.3993,809.0842,840.9158,-0.1112060546875,0.06866455078125,0.99884033203125,-3.058013916015625,-3.222503662109375,2.51220703125,1,1.0,1.0,1.0,1.0,10.00
2024-10-11 20:18:27.298,0.17317638,0.3087905,0.35339862,0.6190796,0.25119597,0.09449766,0.3502991,0.6139492,0.43250942,0.18493015,0.35762966,0.6533489,0.24183257,0.108035505,0.0026753282,0.34961358,-0.07335664,-0.2677499,-0.17931,-0.1851552,808.68134,800.2198,800.6227,803.44324,726.8865,-0.1112060546875,0.06866455078125,0.99884033203125,-3.058013916015625,-3.222503662109375,2.51220703125,1,1.0,1.0,1.0,1.0,10.00
2024-10-11 20:18:27.299,0.17317638,0.3087905,0.35339862,0.6190796,0.25119597,0.09449766,0.3502991,0.6139492,0.43250942,0.18493015,0.35762966,0.6533489,0.24183257,0.108035505,0.0026753282,0.34961358,-0.07335664,-0.2677499,-0.17931,-0.1851552,811.50183,801.8315,800.6227,798.20514,574.17584,-0.1112060546875,0.06866455078125,0.99884033203125,-3.058013916015625,-3.222503662109375,2.51220703125,1,1.0,1.0,1.0,1.0,10.00
2024-10-11 20:18:27.300,0.17317638,0.3087905,0.35339862,0.6190796,0.25119597,0.09449766,0.3502991,0.6139492,0.43250942,0.18493015,0.35762966,0.6533489,0.24183257,0.108035505,0.0026753282,0.34961358,-0.07335664,-0.2677499,-0.17931,-0.1851552,805.4579,799.81683,795.38464,802.6374,673.2967,-0.1112060546875,0.06866455078125,0.99884033203125,-3.058013916015625,-3.222503662109375,2.51220703125,1,1.0,1.0,1.0,1.0,10.00
2024-10-11 20:18:27.327,0.17317638,0.3087905,0.35339862,0.6190796,0.25119597,0.09449766,0.3502991,0.6139492,0.43250942,0.18493015,0.35762966,0.6533489,0.24183257,0.108035505,0.0026753282,0.34961358,-0.07335664,-0.2677499,-0.17931,-0.1851552,799.41394,792.96704,787.326,806.6667,880.40295,-0.10546875,0.06268310546875,0.995361328125,-1.42059326171875,-3.09539794921875,2.7813720703125,1,1.0,1.0,1.0,1.0,10.00
2024-10-11 20:18:27.328,0.17317638,0.3087905,0.35339862,0.6190796,0.25119597,0.09449766,0.3502991,0.6139492,0.43250942,0.18493015,0.35762966,0.6533489,0.24183257,0.108035505,0.0026753282,0.34961358,-0.07335664,-0.2677499,-0.17931,-0.1851552,797.3993,794.17584,788.1319,803.8461,656.3736,-0.10546875,0.06268310546875,0.995361328125,-1.42059326171875,-3.09539794921875,2.7813720703125,1,1.0,1.0,1.0,1.0,10.00
2024-10-11 20:18:27.329,0.17317638,0.3087905,0.35339862,0.6190796,0.25119597,0.09449766,0.3502991,0.6139492,0.43250942,0.18493015,0.35762966,0.6533489,0.24183257,0.108035505,0.0026753282,0.34961358,-0.07335664,-0.2677499,-0.17931,-0.1851552,799.41394,791.3553,796.99634,803.0403,520.18317,-0.10546875,0.06268310546875,0.995361328125,-1.42059326171875,-3.09539794921875,2.7813720703125,1,1.0,1.0,1.0,1.0,10.00
2024-10-11 20:18:27.329,0.17317638,0.3087905,0.35339862,0.6190796,0.25119597,0.09449766,0.3502991,0.6139492,0.43250942,0.18493015,0.35762966,0.6533489,0.24183257,0.108035505,0.0026753282,0.34961358,-0.07335664,-0.2677499,-0.17931,-0.1851552,796.99634,789.7436,803.0403,799.41394,581.8315,-0.10546875,0.06268310546875,0.995361328125,-1.42059326171875,-3.09539794921875,2.7813720703125,1,1.0,1.0,1.0,1.0,10.00
2024-10-11 20:18:27.330,0.17317638,0.3087905,0.35339862,0.6190796,0.25119597,0.09449766,0.3502991,0.6139492,0.43250942,0.18493015,0.35762966,0.6533489,0.24183257,0.108035505,0.0026753282,0.34961358,-0.07335664,-0.2677499,-0.17931,-0.1851552,793.36993,794.17584,807.0696,802.6374,607.2161,-0.10546875,0.06268310546875,0.995361328125,-1.42059326171875,-3.09539794921875,2.7813720703125,1,1.0,1.0,1.0,1.0,10.00
2024-10-11 20:18:27.331,0.17317638,0.3087905,0.35339862,0.6190796,0.25119597,0.09449766,0.3502991,0.6139492,0.43250942,0.18493015,0.35762966,0.6533489,0.24183257,0.108035505,0.0026753282,0.34961358,-0.07335664,-0.2677499,-0.17931,-0.1851552,799.011,787.72894,806.6667,816.7399,667.6557,-0.10546875,0.06268310546875,0.995361328125,-1.42059326171875,-3.09539794921875,2.7813720703125,1,1.0,1.0,1.0,1.0,10.00
2024-10-11 20:18:27.331,0.17317638,0.3087905,0.35339862,0.6190796,0.25119597,0.09449766,0.3502991,0.6139492,0.43250942,0.18493015,0.35762966,0.6533489,0.24183257,0.108035505,0.0026753282,0.34961358,-0.07335664,-0.2677499,-0.17931,-0.1851552,802.6374,795.38464,803.0403,815.12823,856.2271,-0.10546875,0.06268310546875,0.995361328125,-1.42059326171875,-3.09539794921875,2.7813720703125,1,1.0,1.0,1.0,1.0,10.00
2024-10-11 20:18:27.332,0.17317638,0.3087905,0.35339862,0.6190796,0.25119597,0.09449766,0.3502991,0.6139492,0.43250942,0.18493015,0.35762966,0.6533489,0.24183257,0.108035505,0.0026753282,0.34961358,-0.07335664,-0.2677499,-0.17931,-0.1851552,803.44324,805.8608,792.1612,802.6374,861.4652,-0.10546875,0.06268310546875,0.995361328125,-1.42059326171875,-3.09539794921875,2.7813720703125,1,1.0,1.0,1.0,1.0,10.00
2024-10-11 20:18:27.332,0.17317638,0.3087905,0.35339862,0.6190796,0.25119597,0.09449766,0.3502991,0.6139492,0.43250942,0.18493015,0.35762966,0.6533489,0.24183257,0.108035505,0.0026753282,0.34961358,-0.07335664,-0.2677499,-0.17931,-0.1851552,806.26373,803.0403,790.54944,792.96704,666.4469,-0.10546875,0.06268310546875,0.995361328125,-1.42059326171875,-3.09539794921875,2.7813720703125,1,1.0,1.0,1.0,1.0,10.00
2024-10-11 20:18:27.333,0.17317638,0.3087905,0.35339862,0.6190796,0.25119597,0.09449766,0.3502991,0.6139492,0.43250942,0.18493015,0.35762966,0.6533489,0.24183257,0.108035505,0.0026753282,0.34961358,-0.07335664,-0.2677499,-0.17931,-0.1851552,797.3993,806.26373,793.7729,785.31134,572.5641,-0.10546875,0.06268310546875,0.995361328125,-1.42059326171875,-3.09539794921875,2.7813720703125,1,1.0,1.0,1.0,1.0,10.00
2024-10-11 20:18:27.333,0.17317638,0.3087905,0.35339862,0.6190796,0.25119597,0.09449766,0.3502991,0.6139492,0.43250942,0.18493015,0.35762966,0.6533489,0.24183257,0.108035505,0.0026753282,0.34961358,-0.07335664,-0.2677499,-0.17931,-0.1851552,788.93774,809.0842,786.52014,784.10254,708.7546,-0.10546875,0.06268310546875,0.995361328125,-1.42059326171875,-3.09539794921875,2.7813720703125,1,1.0,1.0,1.0,1.0,10.00
2024-10-11 20:18:27.334,0.19397351,0.35323584,0.4187077,0.6403382,0.25317734,0.166346,0.36780518,0.63256437,0.32552633,0.17770861,0.35762966,0.6508479,0.23800552,0.11269419,0.020016659,0.31908008,-0.055481717,-0.25633916,-0.15808259,-0.20237489,787.326,806.26373,785.31134,788.5348,921.9048,-0.10546875,0.06268310546875,0.995361328125,-1.42059326171875,-3.09539794921875,2.7813720703125,1,1.0,1.0,1.0,1.0,10.00
2024-10-11 20:18:27.340,0.19397351,0.35323584,0.4187077,0.6403382,0.25317734,0.166346,0.36780518,0.63256437,0.32552633,0.17770861,0.35762966,0.6508479,0.23800552,0.11269419,0.020016659,0.31908008,-0.055481717,-0.25633916,-0.15808259,-0.20237489,792.1612,801.02563,805.8608,792.5641,726.8865,-0.09722900390625,0.06396484375,0.9964599609375,0.5084228515625,-2.4224853515625,2.1533203125,1,1.0,1.0,1.0,1.0,10.00
2024-10-11 20:18:27.340,0.19397351,0.35323584,0.4187077,0.6403382,0.25317734,0.166346,0.36780518,0.63256437,0.32552633,0.17770861,0.35762966,0.6508479,0.23800552,0.11269419,0.020016659,0.31908008,-0.055481717,-0.25633916,-0.15808259,-0.20237489,798.20514,798.60803,805.05493,796.99634,586.26373,-0.09722900390625,0.06396484375,0.9964599609375,0.5084228515625,-2.4224853515625,2.1533203125,1,1.0,1.0,1.0,1.0,10.00
2024-10-11 20:18:27.341,0.19397351,0.35323584,0.4187077,0.6403382,0.25317734,0.166346,0.36780518,0.63256437,0.32552633,0.17770861,0.35762966,0.6508479,0.23800552,0.11269419,0.020016659,0.31908008,-0.055481717,-0.25633916,-0.15808259,-0.20237489,793.7729,794.9817,792.96704,792.96704,741.79486,-0.09722900390625,0.06396484375,0.9964599609375,0.5084228515625,-2.4224853515625,2.1533203125,1,1.0,1.0,1.0,1.0,10.00
2024-10-11 20:18:27.342,0.19397351,0.35323584,0.4187077,0.6403382,0.25317734,0.166346,0.36780518,0.63256437,0.32552633,0.17770861,0.35762966,0.6508479,0.23800552,0.11269419,0.020016659,0.31908008,-0.055481717,-0.25633916,-0.15808259,-0.20237489,794.57874,794.57874,792.5641,786.9231,714.7985,-0.09722900390625,0.06396484375,0.9964599609375,0.5084228515625,-2.4224853515625,2.1533203125,1,1.0,1.0,1.0,1.0,10.00
2024-10-11 20:18:27.342,0.19397351,0.35323584,0.4187077,0.6403382,0.25317734,0.166346,0.36780518,0.63256437,0.32552633,0.17770861,0.35762966,0.6508479,0.23800552,0.11269419,0.020016659,0.31908008,-0.055481717,-0.25633916,-0.15808259,-0.20237489,803.0403,796.5934,793.7729,792.5641,585.8608,-0.09722900390625,0.06396484375,0.9964599609375,0.5084228515625,-2.4224853515625,2.1533203125,1,1.0,1.0,1.0,1.0,10.00
2024-10-11 20:18:27.343,0.19397351,0.35323584,0.4187077,0.6403382,0.25317734,0.166346,0.36780518,0.63256437,0.32552633,0.17770861,0.35762966,0.6508479,0.23800552,0.11269419,0.020016659,0.31908008,-0.055481717,-0.25633916,-0.15808259,-0.20237489,809.89014,797.8022,792.1612,795.38464,685.38464,-0.09722900390625,0.06396484375,0.9964599609375,0.5084228515625,-2.4224853515625,2.1533203125,1,1.0,1.0,1.0,1.0,10.00
2024-10-11 20:18:27.343,0.19397351,0.35323584,0.4187077,0.6403382,0.25317734,0.166346,0.36780518,0.63256437,0.32552633,0.17770861,0.35762966,0.6508479,0.23800552,0.11269419,0.020016659,0.31908008,-0.055481717,-0.25633916,-0.15808259,-0.20237489,812.3077,805.4579,797.3993,801.4286,971.4652,-0.09722900390625,0.06396484375,0.9964599609375,0.5084228515625,-2.4224853515625,2.1533203125,1,1.0,1.0,1.0,1.0,10.00
2024-10-11 20:18:27.344,0.19397351,0.35323584,0.4187077,0.6403382,0.25317734,0.166346,0.36780518,0.63256437,0.32552633,0.17770861,0.35762966,0.6508479,0.23800552,0.11269419,0.020016659,0.31908008,-0.055481717,-0.25633916,-0.15808259,-0.20237489,805.4579,810.293,796.1905,802.6374,964.61536,-0.09722900390625,0.06396484375,0.9964599609375,0.5084228515625,-2.4224853515625,2.1533203125,1,1.0,1.0,1.0,1.0,10.00
2024-10-11 20:18:27.344,0.19397351,0.35323584,0.4187077,0.6403382,0.25317734,0.166346,0.36780518,0.63256437,0.32552633,0.17770861,0.35762966,0.6508479,0.23800552,0.11269419,0.020016659,0.31908008,-0.055481717,-0.25633916,-0.15808259,-0.20237489,801.02563,811.0989,792.1612,796.99634,693.44324,-0.09722900390625,0.06396484375,0.9964599609375,0.5084228515625,-2.4224853515625,2.1533203125,1,1.0,1.0,1.0,1.0,10.00
2024-10-11 20:18:27.345,0.19397351,0.35323584,0.4187077,0.6403382,0.25317734,0.166346,0.36780518,0.63256437,0.32552633,0.17770861,0.35762966,0.6508479,0.23800552,0.11269419,0.020016659,0.31908008,-0.055481717,-0.25633916,-0.15808259,-0.20237489,805.4579,807.47253,801.4286,800.2198,661.2088,-0.09722900390625,0.06396484375,0.9964599609375,0.5084228515625,-2.4224853515625,2.1533203125,1,1.0,1.0,1.0,1.0,10.00
2024-10-11 20:18:27.345,0.19397351,0.35323584,0.4187077,0.6403382,0.25317734,0.166346,0.36780518,0.63256437,0.32552633,0.17770861,0.35762966,0.6508479,0.23800552,0.11269419,0.020016659,0.31908008,-0.055481717,-0.25633916,-0.15808259,-0.20237489,804.2491,802.23444,804.65204,807.8755,941.2454,-0.09722900390625,0.06396484375,0.9964599609375,0.5084228515625,-2.4224853515625,2.1533203125,1,1.0,1.0,1.0,1.0,10.00
2024-10-11 20:18:27.346,0.19397351,0.35323584,0.4187077,0.6403382,0.25317734,0.166346,0.36780518,0.63256437,0.32552633,0.17770861,0.35762966,0.6508479,0.23800552,0.11269419,0.020016659,0.31908008,-0.055481717,-0.25633916,-0.15808259,-0.20237489,803.44324,799.81683,802.6374,817.9487,1143.9194,-0.09722900390625,0.06396484375,0.9964599609375,0.5084228515625,-2.4224853515625,2.1533203125,1,1.0,1.0,1.0,1.0,10.00
2024-10-11 20:18:27.374,0.19397351,0.35323584,0.4187077,0.6403382,0.25317734,0.166346,0.36780518,0.63256437,0.32552633,0.17770861,0.35762966,0.6508479,0.23800552,0.11269419,0.020016659,0.31908008,-0.055481717,-0.25633916,-0.15808259,-0.20237489,806.26373,799.41394,797.3993,814.7253,756.7033,-0.09027099609375,0.07904052734375,0.987548828125,2.534637451171875,-2.7813720703125,0.515899658203125,1,1.0,1.0,1.0,1.0,10.00
2024-10-11 20:18:27.375,0.19397351,0.35323584,0.4187077,0.6403382,0.25317734,0.166346,0.36780518,0.63256437,0.32552633,0.17770861,0.35762966,0.6508479,0.23800552,0.11269419,0.020016659,0.31908008,-0.055481717,-0.25633916,-0.15808259,-0.20237489,807.47253,796.1905,796.99634,812.71063,586.26373,-0.09027099609375,0.07904052734375,0.987548828125,2.534637451171875,-2.7813720703125,0.515899658203125,1,1.0,1.0,1.0,1.0,10.00
2024-10-11 20:18:27.375,0.19397351,0.35323584,0.4187077,0.6403382,0.25317734,0.166346,0.36780518,0.63256437,0.32552633,0.17770861,0.35762966,0.6508479,0.23800552,0.11269419,0.020016659,0.31908008,-0.055481717,-0.25633916,-0.15808259,-0.20237489,807.8755,796.99634,802.23444,823.9927,917.0696,-0.09027099609375,0.07904052734375,0.987548828125,2.534637451171875,-2.7813720703125,0.515899658203125,1,1.0,1.0,1.0,1.0,10.00
2024-10-11 20:18:27.376,0.19397351,0.35323584,0.4187077,0.6403382,0.25317734,0.166346,0.36780518,0.63256437,0.32552633,0.17770861,0.35762966,0.6508479,0.23800552,0.11269419,0.020016659,0.31908008,-0.055481717,-0.25633916,-0.15808259,-0.20237489,804.2491,802.23444,796.1905,819.9634,999.2674,-0.09027099609375,0.07904052734375,0.987548828125,2.534637451171875,-2.7813720703125,0.515899658203125,1,1.0,1.0,1.0,1.0,10.00
2024-10-11 20:18:27.376,0.19397351,0.35323584,0.4187077,0.6403382,0.25317734,0.166346,0.36780518,0.63256437,0.32552633,0.17770861,0.35762966,0.6508479,0.23800552,0.11269419,0.020016659,0.31908008,-0.055481717,-0.25633916,-0.15808259,-0.20237489,799.81683,803.0403,792.1612,805.05493,726.4835,-0.09027099609375,0.07904052734375,0.987548828125,2.534637451171875,-2.7813720703125,0.515899658203125,1,1.0,1.0,1.0,1.0,10.00
2024-10-11 20:18:27.377,0.19397351,0.35323584,0.4187077,0.6403382,0.25317734,0.166346,0.36780518,0.63256437,0.32552633,0.17770861,0.35762966,0.6508479,0.23800552,0.11269419,0.020016659,0.31908008,-0.055481717,-0.25633916,-0.15808259,-0.20237489,803.44324,799.81683,801.02563,806.26373,585.05493,-0.09027099609375,0.07904052734375,0.987548828125,2.534637451171875,-2.7813720703125,0.515899658203125,1,1.0,1.0,1.0,1.0,10.00
2024-10-11 20:18:27.377,0.19397351,0.35323584,0.4187077,0.6403382,0.25317734,0.166346,0.36780518,0.63256437,0.32552633,0.17770861,0.35762966,0.6508479,0.23800552,0.11269419,0.020016659,0.31908008,-0.055481717,-0.25633916,-0.15808259,-0.20237489,803.8461,799.81683,802.23444,809.4872,870.7326,-0.09027099609375,0.07904052734375,0.987548828125,2.534637451171875,-2.7813720703125,0.515899658203125,1,1.0,1.0,1.0,1.0,10.00
2024-10-11 20:18:27.378,0.19397351,0.35323584,0.4187077,0.6403382,0.25317734,0.166346,0.36780518,0.63256437,0.32552633,0.17770861,0.35762966,0.6508479,0.23800552,0.11269419,0.020016659,0.31908008,-0.055481717,-0.25633916,-0.15808259,-0.20237489,798.20514,798.60803,796.99634,809.89014,1299.8535,-0.09027099609375,0.07904052734375,0.987548828125,2.534637451171875,-2.7813720703125,0.515899658203125,1,1.0,1.0,1.0,1.0,10.00
2024-10-11 20:18:27.379,0.19397351,0.35323584,0.4187077,0.6403382,0.25317734,0.166346,0.36780518,0.63256437,0.32552633,0.17770861,0.35762966,0.6508479,0.23800552,0.11269419,0.020016659,0.31908008,-0.055481717,-0.25633916,-0.15808259,-0.20237489,791.75824,795.38464,795.38464,797.8022,970.2564,-0.09027099609375,0.07904052734375,0.987548828125,2.534637451171875,-2.7813720703125,0.515899658203125,1,1.0,1.0,1.0,1.0,10.00
2024-10-11 20:18:27.379,0.19397351,0.35323584,0.4187077,0.6403382,0.25317734,0.166346,0.36780518,0.63256437,0.32552633,0.17770861,0.35762966,0.6508479,0.23800552,0.11269419,0.020016659,0.31908008,-0.055481717,-0.25633916,-0.15808259,-0.20237489,793.7729,794.57874,795.38464,792.96704,512.52747,-0.09027099609375,0.07904052734375,0.987548828125,2.534637451171875,-2.7813720703125,0.515899658203125,1,1.0,1.0,1.0,1.0,10.00
2024-10-11 20:18:27.380,0.19397351,0.35323584,0.4187077,0.6403382,0.25317734,0.166346,0.36780518,0.63256437,0.32552633,0.17770861,0.35762966,0.6508479,0.23800552,0.11269419,0.020016659,0.31908008,-0.055481717,-0.25633916,-0.15808259,-0.20237489,801.8315,798.20514,794.57874,799.011,599.5604,-0.09027099609375,0.07904052734375,0.987548828125,2.534637451171875,-2.7813720703125,0.515899658203125,1,1.0,1.0,1.0,1.0,10.00
2024-10-11 20:18:27.380,0.19397351,0.35323584,0.4187077,0.6403382,0.25317734,0.166346,0.36780518,0.63256437,0.32552633,0.17770861,0.35762966,0.6508479,0.23800552,0.11269419,0.020016659,0.31908008,-0.055481717,-0.25633916,-0.15808259,-0.20237489,802.6374,794.17584,792.1612,795.78754,697.8755,-0.09027099609375,0.07904052734375,0.987548828125,2.534637451171875,-2.7813720703125,0.515899658203125,1,1.0,1.0,1.0,1.0,10.00
2024-10-11 20:18:27.442,0.19397351,0.35323584,0.4187077,0.6403382,0.25317734,0.166346,0.36780518,0.63256437,0.32552633,0.17770861,0.35762966,0.6508479,0.23800552,0.11269419,0.020016659,0.31908008,-0.055481717,-0.25633916,-0.15808259,-0.20237489,799.81683,795.38464,789.34064,796.5934,682.1612,-0.09027099609375,0.07904052734375,0.987548828125,2.534637451171875,-2.7813720703125,0.515899658203125,1,1.0,1.0,1.0,1.0,10.00
2024-10-11 20:18:27.443,0.22737797,0.36930835,0.4494996,0.64533174,0.2751008,0.20032316,0.36893043,0.65289134,0.21701203,0.16237932,0.3544365,0.6508479,0.23078345,0.12019815,0.0322627,0.2896447,-0.038066946,-0.25162372,-0.14079951,-0.22886854,798.20514,801.4286,796.5934,797.3993,724.0659,-0.09027099609375,0.07904052734375,0.987548828125,2.534637451171875,-2.7813720703125,0.515899658203125,1,1.0,1.0,1.0,1.0,10.00
2024-10-11 20:18:27.448,0.22737797,0.36930835,0.4494996,0.64533174,0.2751008,0.20032316,0.36893043,0.65289134,0.21701203,0.16237932,0.3544365,0.6508479,0.23078345,0.12019815,0.0322627,0.2896447,-0.038066946,-0.25162372,-0.14079951,-0.22886854,800.2198,805.8608,799.81683,798.60803,714.7985,-0.09027099609375,0.07904052734375,0.987548828125,2.534637451171875,-2.7813720703125,0.515899658203125,1,1.0,1.0,1.0,1.0,10.00
2024-10-11 20:18:27.448,0.22737797,0.36930835,0.4494996,0.64533174,0.2751008,0.20032316,0.36893043,0.65289134,0.21701203,0.16237932,0.3544365,0.6508479,0.23078345,0.12019815,0.0322627,0.2896447,-0.038066946,-0.25162372,-0.14079951,-0.22886854,805.8608,798.20514,802.6374,798.20514,730.10986,-0.09027099609375,0.07904052734375,0.987548828125,2.534637451171875,-2.7813720703125,0.515899658203125,1,1.0,1.0,1.0,1.0,10.00
2024-10-11 20:18:27.449,0.22737797,0.36930835,0.4494996,0.64533174,0.2751008,0.20032316,0.36893043,0.65289134,0.21701203,0.16237932,0.3544365,0.6508479,0.23078345,0.12019815,0.0322627,0.2896447,-0.038066946,-0.25162372,-0.14079951,-0.22886854,804.2491,794.57874,805.05493,793.36993,857.4359,-0.09027099609375,0.07904052734375,0.987548828125,2.534637451171875,-2.7813720703125,0.515899658203125,1,1.0,1.0,1.0,1.0,10.00
2024-10-11 20:18:27.450,0.22737797,0.36930835,0.4494996,0.64533174,0.2751008,0.20032316,0.36893043,0.65289134,0.21701203,0.16237932,0.3544365,0.6508479,0.23078345,0.12019815,0.0322627,0.2896447,-0.038066946,-0.25162372,-0.14079951,-0.22886854,802.23444,799.011,798.20514,800.2198,913.44324,-0.09027099609375,0.07904052734375,0.987548828125,2.534637451171875,-2.7813720703125,0.515899658203125,1,1.0,1.0,1.0,1.0,10.00
2024-10-11 20:18:27.450,0.22737797,0.36930835,0.4494996,0.64533174,0.2751008,0.20032316,0.36893043,0.65289134,0.21701203,0.16237932,0.3544365,0.6508479,0.23078345,0.12019815,0.0322627,0.2896447,-0.038066946,-0.25162372,-0.14079951,-0.22886854,806.26373,797.8022,794.17584,806.6667,909.011,-0.09027099609375,0.07904052734375,0.987548828125,2.534637451171875,-2.7813720703125,0.515899658203125,1,1.0,1.0,1.0,1.0,10.00
2024-10-11 20:18:27.451,0.22737797,0.36930835,0.4494996,0.64533174,0.2751008,0.20032316,0.36893043,0.65289134,0.21701203,0.16237932,0.3544365,0.6508479,0.23078345,0.12019815,0.0322627,0.2896447,-0.038066946,-0.25162372,-0.14079951,-0.22886854,805.4579,797.8022,800.6227,803.44324,732.52747,-0.09027099609375,0.07904052734375,0.987548828125,2.534637451171875,-2.7813720703125,0.515899658203125,1,1.0,1.0,1.0,1.0,10.00
2024-10-11 20:18:27.451,0.22737797,0.36930835,0.4494996,0.64533174,0.2751008,0.20032316,0.36893043,0.65289134,0.21701203,0.16237932,0.3544365,0.6508479,0.23078345,0.12019815,0.0322627,0.2896447,-0.038066946,-0.25162372,-0.14079951,-0.22886854,801.8315,792.96704,802.23444,805.05493,595.9341,-0.09027099609375,0.07904052734375,0.987548828125,2.534637451171875,-2.7813720703125,0.515899658203125,1,1.0,1.0,1.0,1.0,10.00
