TimeStamp,Delta_TP9,Delta_AF7,Delta_AF8,Delta_TP10,Theta_TP9,Theta_AF7,Theta_AF8,Theta_TP10,Alpha_TP9,Alpha_AF7,Alpha_AF8,Alpha_TP10,Beta_TP9,Beta_AF7,Beta_AF8,Beta_TP10,Gamma_TP9,Gamma_AF7,Gamma_AF8,Gamma_TP10,RAW_TP9,RAW_AF7,RAW_AF8,RAW_TP10,AUX_RIGHT,Accelerometer_X,Accelerometer_Y,Accelerometer_Z,Gyro_X,Gyro_Y,Gyro_Z,HeadBandOn,HSI_TP9,HSI_AF7,HSI_AF8,HSI_TP10,Battery,Elements
2024-10-11 20:26:45.794,0.26375926,0.83366215,0.6372662,0.7169828,0.41128632,0.74125046,0.42329562,0.6641803,0.5362674,0.7179858,0.62504405,0.6971958,0.3955753,-0.009712996,-0.1824202,0.39091986,-0.023163747,-0.5557502,-0.6181323,-0.055207055,807.47253,798.20514,799.81683,803.44324,741.39197,-0.1650390625,0.08721923828125,0.97930908203125,4.56085205078125,0.560760498046875,-5.03936767578125,1,1.0,1.0,1.0,1.0,10.00
2024-10-11 20:26:45.795,0.26375926,0.83366215,0.6372662,0.7169828,0.41128632,0.74125046,0.42329562,0.6641803,0.5362674,0.7179858,0.62504405,0.6971958,0.3955753,-0.009712996,-0.1824202,0.39091986,-0.023163747,-0.5557502,-0.6181323,-0.055207055,810.696,800.2198,803.8461,803.8461,761.9414,-0.1650390625,0.08721923828125,0.97930908203125,4.56085205078125,0.560760498046875,-5.03936767578125,1,1.0,1.0,1.0,1.0,10.00
2024-10-11 20:26:45.796,0.26375926,0.83366215,0.6372662,0.7169828,0.41128632,0.74125046,0.42329562,0.6641803,0.5362674,0.7179858,0.62504405,0.6971958,0.3955753,-0.009712996,-0.1824202,0.39091986,-0.023163747,-0.5557502,-0.6181323,-0.055207055,802.23444,803.8461,801.8315,806.26373,657.1795,-0.1650390625,0.08721923828125,0.97930908203125,4.56085205078125,0.560760498046875,-5.03936767578125,1,1.0,1.0,1.0,1.0,10.00
2024-10-11 20:26:45.797,0.26375926,0.83366215,0.6372662,0.7169828,0.41128632,0.74125046,0.42329562,0.6641803,0.5362674,0.7179858,0.62504405,0.6971958,0.3955753,-0.009712996,-0.1824202,0.39091986,-0.023163747,-0.5557502,-0.6181323,-0.055207055,801.8315,801.02563,804.2491,808.68134,599.15753,-0.1650390625,0.08721923828125,0.97930908203125,4.56085205078125,0.560760498046875,-5.03936767578125,1,1.0,1.0,1.0,1.0,10.00
2024-10-11 20:26:45.798,0.26375926,0.83366215,0.6372662,0.7169828,0.41128632,0.74125046,0.42329562,0.6641803,0.5362674,0.7179858,0.62504405,0.6971958,0.3955753,-0.009712996,-0.1824202,0.39091986,-0.023163747,-0.5557502,-0.6181323,-0.055207055,805.05493,800.2198,807.0696,807.47253,784.90845,-0.1650390625,0.08721923828125,0.97930908203125,4.56085205078125,0.560760498046875,-5.03936767578125,1,1.0,1.0,1.0,1.0,10.00
2024-10-11 20:26:45.799,0.26375926,0.83366215,0.6372662,0.7169828,0.41128632,0.74125046,0.42329562,0.6641803,0.5362674,0.7179858,0.62504405,0.6971958,0.3955753,-0.009712996,-0.1824202,0.39091986,-0.023163747,-0.5557502,-0.6181323,-0.055207055,798.20514,801.02563,805.8608,800.6227,859.45056,-0.1650390625,0.08721923828125,0.97930908203125,4.56085205078125,0.560760498046875,-5.03936767578125,1,1.0,1.0,1.0,1.0,10.00
2024-10-11 20:26:45.800,0.26375926,0.83366215,0.6372662,0.7169828,0.41128632,0.74125046,0.42329562,0.6641803,0.5362674,0.7179858,0.62504405,0.6971958,0.3955753,-0.009712996,-0.1824202,0.39091986,-0.023163747,-0.5557502,-0.6181323,-0.055207055,796.1905,800.6227,807.8755,798.20514,803.0403,-0.1650390625,0.08721923828125,0.97930908203125,4.56085205078125,0.560760498046875,-5.03936767578125,1,1.0,1.0,1.0,1.0,10.00
2024-10-11 20:26:45.801,0.26375926,0.83366215,0.6372662,0.7169828,0.41128632,0.74125046,0.42329562,0.6641803,0.5362674,0.7179858,0.62504405,0.6971958,0.3955753,-0.009712996,-0.1824202,0.39091986,-0.023163747,-0.5557502,-0.6181323,-0.055207055,799.41394,797.8022,805.8608,797.8022,751.4652,-0.1650390625,0.08721923828125,0.97930908203125,4.56085205078125,0.560760498046875,-5.03936767578125,1,1.0,1.0,1.0,1.0,10.00
2024-10-11 20:26:45.802,0.26375926,0.83366215,0.6372662,0.7169828,0.41128632,0.74125046,0.42329562,0.6641803,0.5362674,0.7179858,0.62504405,0.6971958,0.3955753,-0.009712996,-0.1824202,0.39091986,-0.023163747,-0.5557502,-0.6181323,-0.055207055,796.99634,798.20514,801.02563,796.99634,842.52747,-0.1650390625,0.08721923828125,0.97930908203125,4.56085205078125,0.560760498046875,-5.03936767578125,1,1.0,1.0,1.0,1.0,10.00
2024-10-11 20:26:45.803,0.26375926,0.83366215,0.6372662,0.7169828,0.41128632,0.74125046,0.42329562,0.6641803,0.5362674,0.7179858,0.62504405,0.6971958,0.3955753,-0.009712996,-0.1824202,0.39091986,-0.023163747,-0.5557502,-0.6181323,-0.055207055,804.2491,806.26373,805.4579,801.02563,766.3736,-0.1650390625,0.08721923828125,0.97930908203125,4.56085205078125,0.560760498046875,-5.03936767578125,1,1.0,1.0,1.0,1.0,10.00
2024-10-11 20:26:45.804,0.26375926,0.83366215,0.6372662,0.7169828,0.41128632,0.74125046,0.42329562,0.6641803,0.5362674,0.7179858,0.62504405,0.6971958,0.3955753,-0.009712996,-0.1824202,0.39091986,-0.023163747,-0.5557502,-0.6181323,-0.055207055,796.1905,803.44324,807.47253,792.96704,676.52014,-0.1650390625,0.08721923828125,0.97930908203125,4.56085205078125,0.560760498046875,-5.03936767578125,1,1.0,1.0,1.0,1.0,10.00
2024-10-11 20:26:45.805,0.26375926,0.83366215,0.6372662,0.7169828,0.41128632,0.74125046,0.42329562,0.6641803,0.5362674,0.7179858,0.62504405,0.6971958,0.3955753,-0.009712996,-0.1824202,0.39091986,-0.023163747,-0.5557502,-0.6181323,-0.055207055,787.326,802.23444,801.02563,782.8938,862.27106,-0.1650390625,0.08721923828125,0.97930908203125,4.56085205078125,0.560760498046875,-5.03936767578125,1,1.0,1.0,1.0,1.0,10.00
2024-10-11 20:26:45.869,0.26375926,0.83366215,0.6372662,0.7169828,0.41128632,0.74125046,0.42329562,0.6641803,0.5362674,0.7179858,0.62504405,0.6971958,0.3955753,-0.009712996,-0.1824202,0.39091986,-0.023163747,-0.5557502,-0.6181323,-0.055207055,790.54944,805.8608,798.20514,778.46155,880.80585,-0.18377685546875,0.0965576171875,1.0003662109375,3.013153076171875,1.502838134765625,3.207550048828125,1,1.0,1.0,1.0,1.0,10.00
2024-10-11 20:26:45.870,0.26375926,0.83366215,0.6372662,0.7169828,0.41128632,0.74125046,0.42329562,0.6641803,0.5362674,0.7179858,0.62504405,0.6971958,0.3955753,-0.009712996,-0.1824202,0.39091986,-0.023163747,-0.5557502,-0.6181323,-0.055207055,786.1172,803.0403,797.8022,773.6264,711.5751,-0.18377685546875,0.0965576171875,1.0003662109375,3.013153076171875,1.502838134765625,3.207550048828125,1,1.0,1.0,1.0,1.0,10.00
2024-10-11 20:26:45.871,0.26375926,0.83366215,0.6372662,0.7169828,0.41128632,0.74125046,0.42329562,0.6641803,0.5362674,0.7179858,0.62504405,0.6971958,0.3955753,-0.009712996,-0.1824202,0.39091986,-0.023163747,-0.5557502,-0.6181323,-0.055207055,783.2967,800.2198,796.99634,780.87915,644.68866,-0.18377685546875,0.0965576171875,1.0003662109375,3.013153076171875,1.502838134765625,3.207550048828125,1,1.0,1.0,1.0,1.0,10.00
2024-10-11 20:26:45.872,0.26375926,0.83366215,0.6372662,0.7169828,0.41128632,0.74125046,0.42329562,0.6641803,0.5362674,0.7179858,0.62504405,0.6971958,0.3955753,-0.009712996,-0.1824202,0.39091986,-0.023163747,-0.5557502,-0.6181323,-0.055207055,790.9524,796.5934,796.99634,787.72894,722.0513,-0.18377685546875,0.0965576171875,1.0003662109375,3.013153076171875,1.502838134765625,3.207550048828125,1,1.0,1.0,1.0,1.0,10.00
2024-10-11 20:26:45.873,0.26375926,0.83366215,0.6372662,0.7169828,0.41128632,0.74125046,0.42329562,0.6641803,0.5362674,0.7179858,0.62504405,0.6971958,0.3955753,-0.009712996,-0.1824202,0.39091986,-0.023163747,-0.5557502,-0.6181323,-0.055207055,794.9817,796.1905,796.99634,790.9524,762.3443,-0.18377685546875,0.0965576171875,1.0003662109375,3.013153076171875,1.502838134765625,3.207550048828125,1,1.0,1.0,1.0,1.0,10.00
2024-10-11 20:26:45.874,0.26375926,0.8612694,0.652409,0.7169828,0.41128632,0.77117944,0.4550455,0.6641803,0.5362674,0.71783185,0.62504405,0.6971958,0.3955753,0.0023950033,-0.16404395,0.39091986,-0.023163747,-0.54927075,-0.64312655,-0.055207055,793.36993,796.1905,801.4286,794.17584,680.9524,-0.18377685546875,0.0965576171875,1.0003662109375,3.013153076171875,1.502838134765625,3.207550048828125,1,1.0,1.0,1.0,1.0,10.00
2024-10-11 20:26:45.879,0.26375926,0.8612694,0.652409,0.7169828,0.41128632,0.77117944,0.4550455,0.6641803,0.5362674,0.71783185,0.62504405,0.6971958,0.3955753,0.0023950033,-0.16404395,0.39091986,-0.023163747,-0.54927075,-0.64312655,-0.055207055,796.1905,799.41394,805.4579,798.60803,744.61536,-0.18377685546875,0.0965576171875,1.0003662109375,3.013153076171875,1.502838134765625,3.207550048828125,1,1.0,1.0,1.0,1.0,10.00
2024-10-11 20:26:45.880,0.26375926,0.8612694,0.652409,0.7169828,0.41128632,0.77117944,0.4550455,0.6641803,0.5362674,0.71783185,0.62504405,0.6971958,0.3955753,0.0023950033,-0.16404395,0.39091986,-0.023163747,-0.54927075,-0.64312655,-0.055207055,793.7729,801.02563,803.44324,806.26373,875.56775,-0.18377685546875,0.0965576171875,1.0003662109375,3.013153076171875,1.502838134765625,3.207550048828125,1,1.0,1.0,1.0,1.0,10.00
2024-10-11 20:26:45.881,0.26375926,0.8612694,0.652409,0.7169828,0.41128632,0.77117944,0.4550455,0.6641803,0.5362674,0.71783185,0.62504405,0.6971958,0.3955753,0.0023950033,-0.16404395,0.39091986,-0.023163747,-0.54927075,-0.64312655,-0.055207055,796.5934,798.60803,802.23444,805.05493,837.6923,-0.18377685546875,0.0965576171875,1.0003662109375,3.013153076171875,1.502838134765625,3.207550048828125,1,1.0,1.0,1.0,1.0,10.00
2024-10-11 20:26:45.882,0.26375926,0.8612694,0.652409,0.7169828,0.41128632,0.77117944,0.4550455,0.6641803,0.5362674,0.71783185,0.62504405,0.6971958,0.3955753,0.0023950033,-0.16404395,0.39091986,-0.023163747,-0.54927075,-0.64312655,-0.055207055,796.5934,801.4286,805.4579,800.6227,592.3077,-0.18377685546875,0.0965576171875,1.0003662109375,3.013153076171875,1.502838134765625,3.207550048828125,1,1.0,1.0,1.0,1.0,10.00
2024-10-11 20:26:45.883,0.26375926,0.8612694,0.652409,0.7169828,0.41128632,0.77117944,0.4550455,0.6641803,0.5362674,0.71783185,0.62504405,0.6971958,0.3955753,0.0023950033,-0.16404395,0.39091986,-0.023163747,-0.54927075,-0.64312655,-0.055207055,799.011,806.26373,808.68134,804.2491,623.73627,-0.18377685546875,0.0965576171875,1.0003662109375,3.013153076171875,1.502838134765625,3.207550048828125,1,1.0,1.0,1.0,1.0,10.00
2024-10-11 20:26:45.884,0.26375926,0.8612694,0.652409,0.7169828,0.41128632,0.77117944,0.4550455,0.6641803,0.5362674,0.71783185,0.62504405,0.6971958,0.3955753,0.0023950033,-0.16404395,0.39091986,-0.023163747,-0.54927075,-0.64312655,-0.055207055,798.60803,804.2491,807.8755,807.0696,929.15753,-0.18377685546875,0.0965576171875,1.0003662109375,3.013153076171875,1.502838134765625,3.207550048828125,1,1.0,1.0,1.0,1.0,10.00
2024-10-11 20:26:45.885,0.26375926,0.8612694,0.652409,0.7169828,0.41128632,0.77117944,0.4550455,0.6641803,0.5362674,0.71783185,0.62504405,0.6971958,0.3955753,0.0023950033,-0.16404395,0.39091986,-0.023163747,-0.54927075,-0.64312655,-0.055207055,789.7436,801.02563,805.8608,809.4872,813.1135,-0.20208740234375,0.1007080078125,0.9803466796875,0.336456298828125,1.981353759765625,4.687957763671875,1,1.0,1.0,1.0,1.0,10.00
2024-10-11 20:26:45.886,0.26375926,0.8612694,0.652409,0.7169828,0.41128632,0.77117944,0.4550455,0.6641803,0.5362674,0.71783185,0.62504405,0.6971958,0.3955753,0.0023950033,-0.16404395,0.39091986,-0.023163747,-0.54927075,-0.64312655,-0.055207055,793.36993,801.02563,799.41394,805.8608,706.7399,-0.20208740234375,0.1007080078125,0.9803466796875,0.336456298828125,1.981353759765625,4.687957763671875,1,1.0,1.0,1.0,1.0,10.00
2024-10-11 20:26:45.887,0.26375926,0.8612694,0.652409,0.7169828,0.41128632,0.77117944,0.4550455,0.6641803,0.5362674,0.71783185,0.62504405,0.6971958,0.3955753,0.0023950033,-0.16404395,0.39091986,-0.023163747,-0.54927075,-0.64312655,-0.055207055,795.78754,799.011,803.8461,807.47253,810.696,-0.20208740234375,0.1007080078125,0.9803466796875,0.336456298828125,1.981353759765625,4.687957763671875,1,1.0,1.0,1.0,1.0,10.00
2024-10-11 20:26:45.888,0.26375926,0.8612694,0.652409,0.7169828,0.41128632,0.77117944,0.4550455,0.6641803,0.5362674,0.71783185,0.62504405,0.6971958,0.3955753,0.0023950033,-0.16404395,0.39091986,-0.023163747,-0.54927075,-0.64312655,-0.055207055,793.36993,797.8022,814.7253,813.1135,904.17584,-0.20208740234375,0.1007080078125,0.9803466796875,0.336456298828125,1.981353759765625,4.687957763671875,1,1.0,1.0,1.0,1.0,10.00
2024-10-11 20:26:45.889,0.26375926,0.8612694,0.652409,0.7169828,0.41128632,0.77117944,0.4550455,0.6641803,0.5362674,0.71783185,0.62504405,0.6971958,0.3955753,0.0023950033,-0.16404395,0.39091986,-0.023163747,-0.54927075,-0.64312655,-0.055207055,790.54944,796.99634,810.696,803.44324,763.5531,-0.20208740234375,0.1007080078125,0.9803466796875,0.336456298828125,1.981353759765625,4.687957763671875,1,1.0,1.0,1.0,1.0,10.00
2024-10-11 20:26:45.890,0.26375926,0.8612694,0.652409,0.7169828,0.41128632,0.77117944,0.4550455,0.6641803,0.5362674,0.71783185,0.62504405,0.6971958,0.3955753,0.0023950033,-0.16404395,0.39091986,-0.023163747,-0.54927075,-0.64312655,-0.055207055,790.54944,792.96704,802.23444,800.2198,682.96704,-0.20208740234375,0.1007080078125,0.9803466796875,0.336456298828125,1.981353759765625,4.687957763671875,1,1.0,1.0,1.0,1.0,10.00
2024-10-11 20:26:45.891,0.26375926,0.8612694,0.652409,0.7169828,0.41128632,0.77117944,0.4550455,0.6641803,0.5362674,0.71783185,0.62504405,0.6971958,0.3955753,0.0023950033,-0.16404395,0.39091986,-0.023163747,-0.54927075,-0.64312655,-0.055207055,789.34064,792.1612,801.4286,801.8315,834.4689,-0.20208740234375,0.1007080078125,0.9803466796875,0.336456298828125,1.981353759765625,4.687957763671875,1,1.0,1.0,1.0,1.0,10.00
2024-10-11 20:26:45.892,0.26375926,0.8612694,0.652409,0.7169828,0.41128632,0.77117944,0.4550455,0.6641803,0.5362674,0.71783185,0.62504405,0.6971958,0.3955753,0.0023950033,-0.16404395,0.39091986,-0.023163747,-0.54927075,-0.64312655,-0.055207055,780.07324,791.75824,804.65204,803.8461,1017.3993,-0.20208740234375,0.1007080078125,0.9803466796875,0.336456298828125,1.981353759765625,4.687957763671875,1,1.0,1.0,1.0,1.0,10.00
2024-10-11 20:26:45.893,0.26375926,0.8612694,0.652409,0.7169828,0.41128632,0.77117944,0.4550455,0.6641803,0.5362674,0.71783185,0.62504405,0.6971958,0.3955753,0.0023950033,-0.16404395,0.39091986,-0.023163747,-0.54927075,-0.64312655,-0.055207055,782.8938,792.5641,805.8608,807.0696,811.9048,-0.20208740234375,0.1007080078125,0.9803466796875,0.336456298828125,1.981353759765625,4.687957763671875,1,1.0,1.0,1.0,1.0,10.00
2024-10-11 20:26:45.894,0.26375926,0.8612694,0.652409,0.7169828,0.41128632,0.77117944,0.4550455,0.6641803,0.5362674,0.71783185,0.62504405,0.6971958,0.3955753,0.0023950033,-0.16404395,0.39091986,-0.023163747,-0.54927075,-0.64312655,-0.055207055,783.69965,794.9817,803.44324,801.02563,661.2088,-0.20208740234375,0.1007080078125,0.9803466796875,0.336456298828125,1.981353759765625,4.687957763671875,1,1.0,1.0,1.0,1.0,10.00
2024-10-11 20:26:45.895,0.26375926,0.8612694,0.652409,0.7169828,0.41128632,0.77117944,0.4550455,0.6641803,0.5362674,0.71783185,0.62504405,0.6971958,0.3955753,0.0023950033,-0.16404395,0.39091986,-0.023163747,-0.54927075,-0.64312655,-0.055207055,782.8938,795.38464,805.05493,798.60803,729.304,-0.20208740234375,0.1007080078125,0.9803466796875,0.336456298828125,1.981353759765625,4.687957763671875,1,1.0,1.0,1.0,1.0,10.00
2024-10-11 20:26:45.897,0.26375926,0.8612694,0.652409,0.7169828,0.41128632,0.77117944,0.4550455,0.6641803,0.5362674,0.71783185,0.62504405,0.6971958,0.3955753,0.0023950033,-0.16404395,0.39091986,-0.023163747,-0.54927075,-0.64312655,-0.055207055,791.3553,793.7729,806.26373,803.0403,803.8461,-0.20208740234375,0.1007080078125,0.9803466796875,0.336456298828125,1.981353759765625,4.687957763671875,1,1.0,1.0,1.0,1.0,10.00
2024-10-11 20:26:45.898,0.26375926,0.8612694,0.652409,0.7169828,0.41128632,0.77117944,0.4550455,0.6641803,0.5362674,0.71783185,0.62504405,0.6971958,0.3955753,0.0023950033,-0.16404395,0.39091986,-0.023163747,-0.54927075,-0.64312655,-0.055207055,794.9817,799.011,805.05493,801.8315,781.28204,-0.20208740234375,0.1007080078125,0.9803466796875,0.336456298828125,1.981353759765625,4.687957763671875,1,1.0,1.0,1.0,1.0,10.00
2024-10-11 20:26:45.899,0.26375926,0.8612694,0.652409,0.7169828,0.41128632,0.77117944,0.4550455,0.6641803,0.5362674,0.71783185,0.62504405,0.6971958,0.3955753,0.0023950033,-0.16404395,0.39091986,-0.023163747,-0.54927075,-0.64312655,-0.055207055,798.60803,797.8022,805.4579,794.17584,676.1172,-0.20208740234375,0.1007080078125,0.9803466796875,0.336456298828125,1.981353759765625,4.687957763671875,1,1.0,1.0,1.0,1.0,10.00
2024-10-11 20:26:45.900,0.26375926,0.8612694,0.652409,0.7169828,0.41128632,0.77117944,0.4550455,0.6641803,0.5362674,0.71783185,0.62504405,0.6971958,0.3955753,0.0023950033,-0.16404395,0.39091986,-0.023163747,-0.54927075,-0.64312655,-0.055207055,800.2198,795.38464,805.05493,792.1612,703.5165,-0.20208740234375,0.1007080078125,0.9803466796875,0.336456298828125,1.981353759765625,4.687957763671875,1,1.0,1.0,1.0,1.0,10.00
2024-10-11 20:26:45.902,0.26375926,0.8612694,0.652409,0.7169828,0.41128632,0.77117944,0.4550455,0.6641803,0.5362674,0.71783185,0.62504405,0.6971958,0.3955753,0.0023950033,-0.16404395,0.39091986,-0.023163747,-0.54927075,-0.64312655,-0.055207055,805.4579,800.6227,802.23444,803.8461,824.3956,-0.20208740234375,0.1007080078125,0.9803466796875,0.336456298828125,1.981353759765625,4.687957763671875,1,1.0,1.0,1.0,1.0,10.00
2024-10-11 20:26:45.903,0.26375926,0.8612694,0.652409,0.7169828,0.41128632,0.77117944,0.4550455,0.6641803,0.5362674,0.71783185,0.62504405,0.6971958,0.3955753,0.0023950033,-0.16404395,0.39091986,-0.023163747,-0.54927075,-0.64312655,-0.055207055,810.293,799.41394,801.8315,803.0403,920.293,-0.20208740234375,0.1007080078125,0.9803466796875,0.336456298828125,1.981353759765625,4.687957763671875,1,1.0,1.0,1.0,1.0,10.00
2024-10-11 20:26:45.904,0.26375926,0.8612694,0.652409,0.7169828,0.41128632,0.77117944,0.4550455,0.6641803,0.5362674,0.71783185,0.62504405,0.6971958,0.3955753,0.0023950033,-0.16404395,0.39091986,-0.023163747,-0.54927075,-0.64312655,-0.055207055,811.0989,798.20514,799.011,795.38464,959.7802,-0.20208740234375,0.1007080078125,0.9803466796875,0.336456298828125,1.981353759765625,4.687957763671875,1,1.0,1.0,1.0,1.0,10.00
2024-10-11 20:26:45.905,0.26375926,0.8612694,0.652409,0.7169828,0.41128632,0.77117944,0.4550455,0.6641803,0.5362674,0.71783185,0.62504405,0.6971958,0.3955753,0.0023950033,-0.16404395,0.39091986,-0.023163747,-0.54927075,-0.64312655,-0.055207055,813.5165,797.8022,795.38464,800.2198,1033.1135,-0.20208740234375,0.1007080078125,0.9803466796875,0.336456298828125,1.981353759765625,4.687957763671875,1,1.0,1.0,1.0,1.0,10.00
2024-10-11 20:26:45.905,0.16188894,0.893202,0.67928827,0.7169828,0.3416025,0.80421734,0.49277622,0.6641803,0.50856715,0.7173003,0.62504405,0.6971958,0.4133055,0.0134108905,-0.14474668,0.39091986,-0.079288535,-0.5413688,-0.66817003,-0.055207055,807.8755,797.8022,796.1905,803.44324,986.77655,-0.20208740234375,0.1007080078125,0.9803466796875,0.336456298828125,1.981353759765625,4.687957763671875,1,1.0,1.0,1.0,1.0,10.00
2024-10-11 20:26:45.911,0.16188894,0.893202,0.67928827,0.7169828,0.3416025,0.80421734,0.49277622,0.6641803,0.50856715,0.7173003,0.62504405,0.6971958,0.4133055,0.0134108905,-0.14474668,0.39091986,-0.079288535,-0.5413688,-0.66817003,-0.055207055,795.38464,801.8315,798.20514,801.02563,786.9231,-0.20208740234375,0.1007080078125,0.9803466796875,0.336456298828125,1.981353759765625,4.687957763671875,1,1.0,1.0,1.0,1.0,10.00
2024-10-11 20:26:45.912,0.16188894,0.893202,0.67928827,0.7169828,0.3416025,0.80421734,0.49277622,0.6641803,0.50856715,0.7173003,0.62504405,0.6971958,0.4133055,0.0134108905,-0.14474668,0.39091986,-0.079288535,-0.5413688,-0.66817003,-0.055207055,788.93774,799.011,801.02563,803.0403,728.0952,-0.20208740234375,0.1007080078125,0.9803466796875,0.336456298828125,1.981353759765625,4.687957763671875,1,1.0,1.0,1.0,1.0,10.00
2024-10-11 20:26:45.913,0.16188894,0.893202,0.67928827,0.7169828,0.3416025,0.80421734,0.49277622,0.6641803,0.50856715,0.7173003,0.62504405,0.6971958,0.4133055,0.0134108905,-0.14474668,0.39091986,-0.079288535,-0.5413688,-0.66817003,-0.055207055,789.7436,791.75824,799.81683,801.8315,874.7619,-0.20208740234375,0.1007080078125,0.9803466796875,0.336456298828125,1.981353759765625,4.687957763671875,1,1.0,1.0,1.0,1.0,10.00
2024-10-11 20:26:45.914,0.16188894,0.893202,0.67928827,0.7169828,0.3416025,0.80421734,0.49277622,0.6641803,0.50856715,0.7173003,0.62504405,0.6971958,0.4133055,0.0134108905,-0.14474668,0.39091986,-0.079288535,-0.5413688,-0.66817003,-0.055207055,796.5934,792.1612,796.5934,803.44324,864.68866,-0.20208740234375,0.1007080078125,0.9803466796875,0.336456298828125,1.981353759765625,4.687957763671875,1,1.0,1.0,1.0,1.0,10.00
2024-10-11 20:26:45.915,0.16188894,0.893202,0.67928827,0.7169828,0.3416025,0.80421734,0.49277622,0.6641803,0.50856715,0.7173003,0.62504405,0.6971958,0.4133055,0.0134108905,-0.14474668,0.39091986,-0.079288535,-0.5413688,-0.66817003,-0.055207055,804.65204,794.9817,799.011,808.68134,668.86444,-0.21722412109375,0.1046142578125,0.9903564453125,0.67291259765625,3.54400634765625,3.282318115234375,1,1.0,1.0,1.0,1.0,10.00
2024-10-11 20:26:45.916,0.16188894,0.893202,0.67928827,0.7169828,0.3416025,0.80421734,0.49277622,0.6641803,0.50856715,0.7173003,0.62504405,0.6971958,0.4133055,0.0134108905,-0.14474668,0.39091986,-0.079288535,-0.5413688,-0.66817003,-0.055207055,803.0403,790.14655,794.9817,811.50183,771.6117,-0.21722412109375,0.1046142578125,0.9903564453125,0.67291259765625,3.54400634765625,3.282318115234375,1,1.0,1.0,1.0,1.0,10.00
2024-10-11 20:26:45.917,0.16188894,0.893202,0.67928827,0.7169828,0.3416025,0.80421734,0.49277622,0.6641803,0.50856715,0.7173003,0.62504405,0.6971958,0.4133055,0.0134108905,-0.14474668,0.39091986,-0.079288535,-0.5413688,-0.66817003,-0.055207055,804.65204,791.75824,796.99634,817.5458,1051.2454,-0.21722412109375,0.1046142578125,0.9903564453125,0.67291259765625,3.54400634765625,3.282318115234375,1,1.0,1.0,1.0,1.0,10.00
2024-10-11 20:26:45.918,0.16188894,0.893202,0.67928827,0.7169828,0.3416025,0.80421734,0.49277622,0.6641803,0.50856715,0.7173003,0.62504405,0.6971958,0.4133055,0.0134108905,-0.14474668,0.39091986,-0.079288535,-0.5413688,-0.66817003,-0.055207055,796.99634,794.9817,801.02563,812.3077,860.65936,-0.21722412109375,0.1046142578125,0.9903564453125,0.67291259765625,3.54400634765625,3.282318115234375,1,1.0,1.0,1.0,1.0,10.00
2024-10-11 20:26:45.919,0.16188894,0.893202,0.67928827,0.7169828,0.3416025,0.80421734,0.49277622,0.6641803,0.50856715,0.7173003,0.62504405,0.6971958,0.4133055,0.0134108905,-0.14474668,0.39091986,-0.079288535,-0.5413688,-0.66817003,-0.055207055,798.60803,796.99634,798.20514,805.8608,682.96704,-0.21722412109375,0.1046142578125,0.9903564453125,0.67291259765625,3.54400634765625,3.282318115234375,1,1.0,1.0,1.0,1.0,10.00
2024-10-11 20:26:45.919,0.16188894,0.893202,0.67928827,0.7169828,0.3416025,0.80421734,0.49277622,0.6641803,0.50856715,0.7173003,0.62504405,0.6971958,0.4133055,0.0134108905,-0.14474668,0.39091986,-0.079288535,-0.5413688,-0.66817003,-0.055207055,810.696,792.96704,796.5934,808.68134,861.06226,-0.21722412109375,0.1046142578125,0.9903564453125,0.67291259765625,3.54400634765625,3.282318115234375,1,1.0,1.0,1.0,1.0,10.00
2024-10-11 20:26:45.920,0.16188894,0.893202,0.67928827,0.7169828,0.3416025,0.80421734,0.49277622,0.6641803,0.50856715,0.7173003,0.62504405,0.6971958,0.4133055,0.0134108905,-0.14474668,0.39091986,-0.079288535,-0.5413688,-0.66817003,-0.055207055,811.50183,793.7729,799.011,810.696,1108.0586,-0.21722412109375,0.1046142578125,0.9903564453125,0.67291259765625,3.54400634765625,3.282318115234375,1,1.0,1.0,1.0,1.0,10.00
2024-10-11 20:26:45.921,0.16188894,0.893202,0.67928827,0.7169828,0.3416025,0.80421734,0.49277622,0.6641803,0.50856715,0.7173003,0.62504405,0.6971958,0.4133055,0.0134108905,-0.14474668,0.39091986,-0.079288535,-0.5413688,-0.66817003,-0.055207055,797.8022,799.011,798.20514,805.4579,873.5531,-0.21722412109375,0.1046142578125,0.9903564453125,0.67291259765625,3.54400634765625,3.282318115234375,1,1.0,1.0,1.0,1.0,10.00
2024-10-11 20:26:45.922,0.16188894,0.893202,0.67928827,0.7169828,0.3416025,0.80421734,0.49277622,0.6641803,0.50856715,0.7173003,0.62504405,0.6971958,0.4133055,0.0134108905,-0.14474668,0.39091986,-0.079288535,-0.5413688,-0.66817003,-0.055207055,790.9524,796.5934,794.17584,805.05493,635.42126,-0.21722412109375,0.1046142578125,0.9903564453125,0.67291259765625,3.54400634765625,3.282318115234375,1,1.0,1.0,1.0,1.0,10.00
2024-10-11 20:26:45.923,0.16188894,0.893202,0.67928827,0.7169828,0.3416025,0.80421734,0.49277622,0.6641803,0.50856715,0.7173003,0.62504405,0.6971958,0.4133055,0.0134108905,-0.14474668,0.39091986,-0.079288535,-0.5413688,-0.66817003,-0.055207055,790.9524,795.78754,795.38464,811.9048,744.61536,-0.21722412109375,0.1046142578125,0.9903564453125,0.67291259765625,3.54400634765625,3.282318115234375,1,1.0,1.0,1.0,1.0,10.00
2024-10-11 20:26:45.924,0.16188894,0.893202,0.67928827,0.7169828,0.3416025,0.80421734,0.49277622,0.6641803,0.50856715,0.7173003,0.62504405,0.6971958,0.4133055,0.0134108905,-0.14474668,0.39091986,-0.079288535,-0.5413688,-0.66817003,-0.055207055,790.54944,792.5641,794.17584,809.0842,819.9634,-0.21722412109375,0.1046142578125,0.9903564453125,0.67291259765625,3.54400634765625,3.282318115234375,1,1.0,1.0,1.0,1.0,10.00
2024-10-11 20:26:45.924,0.16188894,0.893202,0.67928827,0.7169828,0.3416025,0.80421734,0.49277622,0.6641803,0.50856715,0.7173003,0.62504405,0.6971958,0.4133055,0.0134108905,-0.14474668,0.39091986,-0.079288535,-0.5413688,-0.66817003,-0.055207055,795.38464,793.36993,791.3553,800.2198,702.3077,-0.21722412109375,0.1046142578125,0.9903564453125,0.67291259765625,3.54400634765625,3.282318115234375,1,1.0,1.0,1.0,1.0,10.00
2024-10-11 20:26:45.962,0.16188894,0.893202,0.67928827,0.7169828,0.3416025,0.80421734,0.49277622,0.6641803,0.50856715,0.7173003,0.62504405,0.6971958,0.4133055,0.0134108905,-0.14474668,0.39091986,-0.079288535,-0.5413688,-0.66817003,-0.055207055,794.9817,794.17584,788.5348,799.81683,652.3443,-0.21527099609375,0.10595703125,0.99102783203125,-1.614990234375,3.887939453125,0.785064697265625,1,1.0,1.0,1.0,1.0,10.00
2024-10-11 20:26:45.963,0.16188894,0.893202,0.67928827,0.7169828,0.3416025,0.80421734,0.49277622,0.6641803,0.50856715,0.7173003,0.62504405,0.6971958,0.4133055,0.0134108905,-0.14474668,0.39091986,-0.079288535,-0.5413688,-0.66817003,-0.055207055,791.75824,794.9817,794.17584,800.2198,709.9634,-0.21527099609375,0.10595703125,0.99102783203125,-1.614990234375,3.887939453125,0.785064697265625,1,1.0,1.0,1.0,1.0,10.00
2024-10-11 20:26:45.964,0.16188894,0.893202,0.67928827,0.7169828,0.3416025,0.80421734,0.49277622,0.6641803,0.50856715,0.7173003,0.62504405,0.6971958,0.4133055,0.0134108905,-0.14474668,0.39091986,-0.079288535,-0.5413688,-0.66817003,-0.055207055,791.3553,793.36993,802.23444,798.20514,835.2747,-0.21527099609375,0.10595703125,0.99102783203125,-1.614990234375,3.887939453125,0.785064697265625,1,1.0,1.0,1.0,1.0,10.00
2024-10-11 20:26:45.965,0.16188894,0.893202,0.67928827,0.7169828,0.3416025,0.80421734,0.49277622,0.6641803,0.50856715,0.7173003,0.62504405,0.6971958,0.4133055,0.0134108905,-0.14474668,0.39091986,-0.079288535,-0.5413688,-0.66817003,-0.055207055,791.75824,790.14655,799.011,796.1905,672.8938,-0.21527099609375,0.10595703125,0.99102783203125,-1.614990234375,3.887939453125,0.785064697265625,1,1.0,1.0,1.0,1.0,10.00
2024-10-11 20:26:45.966,0.16188894,0.893202,0.67928827,0.7169828,0.3416025,0.80421734,0.49277622,0.6641803,0.50856715,0.7173003,0.62504405,0.6971958,0.4133055,0.0134108905,-0.14474668,0.39091986,-0.079288535,-0.5413688,-0.66817003,-0.055207055,797.8022,792.96704,794.9817,791.3553,611.2454,-0.21527099609375,0.10595703125,0.99102783203125,-1.614990234375,3.887939453125,0.785064697265625,1,1.0,1.0,1.0,1.0,10.00
2024-10-11 20:26:45.967,0.16188894,0.893202,0.67928827,0.7169828,0.3416025,0.80421734,0.49277622,0.6641803,0.50856715,0.7173003,0.62504405,0.6971958,0.4133055,0.0134108905,-0.14474668,0.39091986,-0.079288535,-0.5413688,-0.66817003,-0.055207055,792.96704,790.9524,795.38464,796.1905,814.3223,-0.21527099609375,0.10595703125,0.99102783203125,-1.614990234375,3.887939453125,0.785064697265625,1,1.0,1.0,1.0,1.0,10.00
2024-10-11 20:26:45.968,0.16188894,0.893202,0.67928827,0.7169828,0.3416025,0.80421734,0.49277622,0.6641803,0.50856715,0.7173003,0.62504405,0.6971958,0.4133055,0.0134108905,-0.14474668,0.39091986,-0.079288535,-0.5413688,-0.66817003,-0.055207055,788.5348,791.75824,792.96704,800.6227,961.79486,-0.21527099609375,0.10595703125,0.99102783203125,-1.614990234375,3.887939453125,0.785064697265625,1,1.0,1.0,1.0,1.0,10.00
2024-10-11 20:26:45.969,0.16188894,0.893202,0.67928827,0.7169828,0.3416025,0.80421734,0.49277622,0.6641803,0.50856715,0.7173003,0.62504405,0.6971958,0.4133055,0.0134108905,-0.14474668,0.39091986,-0.079288535,-0.5413688,-0.66817003,-0.055207055,796.99634,792.1612,793.36993,789.34064,795.78754,-0.21527099609375,0.10595703125,0.99102783203125,-1.614990234375,3.887939453125,0.785064697265625,1,1.0,1.0,1.0,1.0,10.00
2024-10-11 20:26:45.970,0.16188894,0.893202,0.67928827,0.7169828,0.3416025,0.80421734,0.49277622,0.6641803,0.50856715,0.7173003,0.62504405,0.6971958,0.4133055,0.0134108905,-0.14474668,0.39091986,-0.079288535,-0.5413688,-0.66817003,-0.055207055,807.47253,791.75824,795.78754,792.5641,556.04395,-0.21527099609375,0.10595703125,0.99102783203125,-1.614990234375,3.887939453125,0.785064697265625,1,1.0,1.0,1.0,1.0,10.00
2024-10-11 20:26:45.971,0.12048019,0.9284976,0.7187362,0.7169828,0.28176653,0.8404842,0.53242576,0.6641803,0.50856715,0.71607107,0.62504405,0.6971958,0.43562254,0.02517843,-0.1227372,0.39091986,-0.13491453,-0.534114,-0.6908005,-0.055207055,803.8461,792.1612,793.36993,798.60803,793.7729,-0.21527099609375,0.10595703125,0.99102783203125,-1.614990234375,3.887939453125,0.785064697265625,1,1.0,1.0,1.0,1.0,10.00
2024-10-11 20:26:45.975,0.12048019,0.9284976,0.7187362,0.7169828,0.28176653,0.8404842,0.53242576,0.6641803,0.50856715,0.71607107,0.62504405,0.6971958,0.43562254,0.02517843,-0.1227372,0.39091986,-0.13491453,-0.534114,-0.6908005,-0.055207055,803.44324,790.54944,793.36993,797.8022,890.07324,-0.21527099609375,0.10595703125,0.99102783203125,-1.614990234375,3.887939453125,0.785064697265625,1,1.0,1.0,1.0,1.0,10.00
2024-10-11 20:26:45.976,0.12048019,0.9284976,0.7187362,0.7169828,0.28176653,0.8404842,0.53242576,0.6641803,0.50856715,0.71607107,0.62504405,0.6971958,0.43562254,0.02517843,-0.1227372,0.39091986,-0.13491453,-0.534114,-0.6908005,-0.055207055,809.4872,797.8022,799.81683,802.23444,597.5458,-0.21527099609375,0.10595703125,0.99102783203125,-1.614990234375,3.887939453125,0.785064697265625,1,1.0,1.0,1.0,1.0,10.00
2024-10-11 20:26:45.977,0.12048019,0.9284976,0.7187362,0.7169828,0.28176653,0.8404842,0.53242576,0.6641803,0.50856715,0.71607107,0.62504405,0.6971958,0.43562254,0.02517843,-0.1227372,0.39091986,-0.13491453,-0.534114,-0.6908005,-0.055207055,804.2491,800.2198,799.81683,803.44324,612.8571,-0.20208740234375,0.0938720703125,0.98822021484375,-3.768310546875,0.575714111328125,1.51031494140625,1,1.0,1.0,1.0,1.0,10.00
2024-10-11 20:26:45.978,0.12048019,0.9284976,0.7187362,0.7169828,0.28176653,0.8404842,0.53242576,0.6641803,0.50856715,0.71607107,0.62504405,0.6971958,0.43562254,0.02517843,-0.1227372,0.39091986,-0.13491453,-0.534114,-0.6908005,-0.055207055,807.0696,797.8022,799.81683,807.8755,867.1062,-0.20208740234375,0.0938720703125,0.98822021484375,-3.768310546875,0.575714111328125,1.51031494140625,1,1.0,1.0,1.0,1.0,10.00
2024-10-11 20:26:45.978,0.12048019,0.9284976,0.7187362,0.7169828,0.28176653,0.8404842,0.53242576,0.6641803,0.50856715,0.71607107,0.62504405,0.6971958,0.43562254,0.02517843,-0.1227372,0.39091986,-0.13491453,-0.534114,-0.6908005,-0.055207055,805.05493,801.02563,801.4286,811.50183,817.9487,-0.20208740234375,0.0938720703125,0.98822021484375,-3.768310546875,0.575714111328125,1.51031494140625,1,1.0,1.0,1.0,1.0,10.00
2024-10-11 20:26:45.979,0.12048019,0.9284976,0.7187362,0.7169828,0.28176653,0.8404842,0.53242576,0.6641803,0.50856715,0.71607107,0.62504405,0.6971958,0.43562254,0.02517843,-0.1227372,0.39091986,-0.13491453,-0.534114,-0.6908005,-0.055207055,803.0403,799.41394,804.2491,809.0842,591.50183,-0.20208740234375,0.0938720703125,0.98822021484375,-3.768310546875,0.575714111328125,1.51031494140625,1,1.0,1.0,1.0,1.0,10.00
2024-10-11 20:26:45.980,0.12048019,0.9284976,0.7187362,0.7169828,0.28176653,0.8404842,0.53242576,0.6641803,0.50856715,0.71607107,0.62504405,0.6971958,0.43562254,0.02517843,-0.1227372,0.39091986,-0.13491453,-0.534114,-0.6908005,-0.055207055,807.8755,795.78754,804.65204,808.68134,591.0989,-0.20208740234375,0.0938720703125,0.98822021484375,-3.768310546875,0.575714111328125,1.51031494140625,1,1.0,1.0,1.0,1.0,10.00
2024-10-11 20:26:45.981,0.12048019,0.9284976,0.7187362,0.7169828,0.28176653,0.8404842,0.53242576,0.6641803,0.50856715,0.71607107,0.62504405,0.6971958,0.43562254,0.02517843,-0.1227372,0.39091986,-0.13491453,-0.534114,-0.6908005,-0.055207055,815.9341,796.1905,799.011,808.68134,968.24176,-0.20208740234375,0.0938720703125,0.98822021484375,-3.768310546875,0.575714111328125,1.51031494140625,1,1.0,1.0,1.0,1.0,10.00
2024-10-11 20:26:45.981,0.12048019,0.9284976,0.7187362,0.7169828,0.28176653,0.8404842,0.53242576,0.6641803,0.50856715,0.71607107,0.62504405,0.6971958,0.43562254,0.02517843,-0.1227372,0.39091986,-0.13491453,-0.534114,-0.6908005,-0.055207055,819.15753,801.02563,802.6374,804.65204,939.2308,-0.20208740234375,0.0938720703125,0.98822021484375,-3.768310546875,0.575714111328125,1.51031494140625,1,1.0,1.0,1.0,1.0,10.00
2024-10-11 20:26:45.982,0.12048019,0.9284976,0.7187362,0.7169828,0.28176653,0.8404842,0.53242576,0.6641803,0.50856715,0.71607107,0.62504405,0.6971958,0.43562254,0.02517843,-0.1227372,0.39091986,-0.13491453,-0.534114,-0.6908005,-0.055207055,807.0696,799.81683,805.05493,799.81683,662.01465,-0.20208740234375,0.0938720703125,0.98822021484375,-3.768310546875,0.575714111328125,1.51031494140625,1,1.0,1.0,1.0,1.0,10.00
2024-10-11 20:26:45.984,0.12048019,0.9284976,0.7187362,0.7169828,0.28176653,0.8404842,0.53242576,0.6641803,0.50856715,0.71607107,0.62504405,0.6971958,0.43562254,0.02517843,-0.1227372,0.39091986,-0.13491453,-0.534114,-0.6908005,-0.055207055,798.20514,792.5641,794.9817,794.57874,656.3736,-0.20208740234375,0.0938720703125,0.98822021484375,-3.768310546875,0.575714111328125,1.51031494140625,1,1.0,1.0,1.0,1.0,10.00
2024-10-11 20:26:45.985,0.12048019,0.9284976,0.7187362,0.7169828,0.28176653,0.8404842,0.53242576,0.6641803,0.50856715,0.71607107,0.62504405,0.6971958,0.43562254,0.02517843,-0.1227372,0.39091986,-0.13491453,-0.534114,-0.6908005,-0.055207055,799.81683,791.3553,794.17584,798.60803,669.2674,-0.20208740234375,0.0938720703125,0.98822021484375,-3.768310546875,0.575714111328125,1.51031494140625,1,1.0,1.0,1.0,1.0,10.00
2024-10-11 20:26:45.986,0.12048019,0.9284976,0.7187362,0.7169828,0.28176653,0.8404842,0.53242576,0.6641803,0.50856715,0.71607107,0.62504405,0.6971958,0.43562254,0.02517843,-0.1227372,0.39091986,-0.13491453,-0.534114,-0.6908005,-0.055207055,796.99634,792.1612,798.60803,807.8755,607.619,-0.20208740234375,0.0938720703125,0.98822021484375,-3.768310546875,0.575714111328125,1.51031494140625,1,1.0,1.0,1.0,1.0,10.00
2024-10-11 20:26:45.986,0.12048019,0.9284976,0.7187362,0.7169828,0.28176653,0.8404842,0.53242576,0.6641803,0.50856715,0.71607107,0.62504405,0.6971958,0.43562254,0.02517843,-0.1227372,0.39091986,-0.13491453,-0.534114,-0.6908005,-0.055207055,795.78754,790.54944,798.20514,804.65204,546.77655,-0.20208740234375,0.0938720703125,0.98822021484375,-3.768310546875,0.575714111328125,1.51031494140625,1,1.0,1.0,1.0,1.0,10.00
2024-10-11 20:26:45.988,0.12048019,0.9284976,0.7187362,0.7169828,0.28176653,0.8404842,0.53242576,0.6641803,0.50856715,0.71607107,0.62504405,0.6971958,0.43562254,0.02517843,-0.1227372,0.39091986,-0.13491453,-0.534114,-0.6908005,-0.055207055,802.23444,794.17584,798.60803,801.4286,758.71796,-0.207275390625,0.073486328125,0.977783203125,-3.656158447265625,-0.635528564453125,2.923431396484375,1,1.0,1.0,1.0,1.0,10.00
2024-10-11 20:26:45.988,0.12048019,0.9284976,0.7187362,0.7169828,0.28176653,0.8404842,0.53242576,0.6641803,0.50856715,0.71607107,0.62504405,0.6971958,0.43562254,0.02517843,-0.1227372,0.39091986,-0.13491453,-0.534114,-0.6908005,-0.055207055,799.41394,796.5934,797.3993,805.8608,921.50183,-0.207275390625,0.073486328125,0.977783203125,-3.656158447265625,-0.635528564453125,2.923431396484375,1,1.0,1.0,1.0,1.0,10.00
2024-10-11 20:26:45.989,0.12048019,0.9284976,0.7187362,0.7169828,0.28176653,0.8404842,0.53242576,0.6641803,0.50856715,0.71607107,0.62504405,0.6971958,0.43562254,0.02517843,-0.1227372,0.39091986,-0.13491453,-0.534114,-0.6908005,-0.055207055,805.05493,799.011,799.011,807.0696,757.1062,-0.207275390625,0.073486328125,0.977783203125,-3.656158447265625,-0.635528564453125,2.923431396484375,1,1.0,1.0,1.0,1.0,10.00
2024-10-11 20:26:45.990,0.12048019,0.9284976,0.7187362,0.7169828,0.28176653,0.8404842,0.53242576,0.6641803,0.50856715,0.71607107,0.62504405,0.6971958,0.43562254,0.02517843,-0.1227372,0.39091986,-0.13491453,-0.534114,-0.6908005,-0.055207055,811.50183,799.41394,798.60803,804.2491,748.6447,-0.207275390625,0.073486328125,0.977783203125,-3.656158447265625,-0.635528564453125,2.923431396484375,1,1.0,1.0,1.0,1.0,10.00
2024-10-11 20:26:45.991,0.12048019,0.9284976,0.7187362,0.7169828,0.28176653,0.8404842,0.53242576,0.6641803,0.50856715,0.71607107,0.62504405,0.6971958,0.43562254,0.02517843,-0.1227372,0.39091986,-0.13491453,-0.534114,-0.6908005,-0.055207055,803.8461,796.1905,797.3993,805.05493,891.685,-0.207275390625,0.073486328125,0.977783203125,-3.656158447265625,-0.635528564453125,2.923431396484375,1,1.0,1.0,1.0,1.0,10.00
2024-10-11 20:26:45.992,0.12048019,0.9284976,0.7187362,0.7169828,0.28176653,0.8404842,0.53242576,0.6641803,0.50856715,0.71607107,0.62504405,0.6971958,0.43562254,0.02517843,-0.1227372,0.39091986,-0.13491453,-0.534114,-0.6908005,-0.055207055,801.4286,794.57874,796.99634,804.65204,972.27106,-0.207275390625,0.073486328125,0.977783203125,-3.656158447265625,-0.635528564453125,2.923431396484375,1,1.0,1.0,1.0,1.0,10.00
2024-10-11 20:26:45.993,0.12048019,0.9284976,0.7187362,0.7169828,0.28176653,0.8404842,0.53242576,0.6641803,0.50856715,0.71607107,0.62504405,0.6971958,0.43562254,0.02517843,-0.1227372,0.39091986,-0.13491453,-0.534114,-0.6908005,-0.055207055,805.05493,794.17584,796.5934,803.8461,895.7143,-0.207275390625,0.073486328125,0.977783203125,-3.656158447265625,-0.635528564453125,2.923431396484375,1,1.0,1.0,1.0,1.0,10.00
2024-10-11 20:26:45.994,0.12048019,0.9284976,0.7187362,0.7169828,0.28176653,0.8404842,0.53242576,0.6641803,0.50856715,0.71607107,0.62504405,0.6971958,0.43562254,0.02517843,-0.1227372,0.39091986,-0.13491453,-0.534114,-0.6908005,-0.055207055,812.3077,798.60803,799.011,807.0696,753.8828,-0.207275390625,0.073486328125,0.977783203125,-3.656158447265625,-0.635528564453125,2.923431396484375,1,1.0,1.0,1.0,1.0,10.00
2024-10-11 20:26:45.995,0.12048019,0.9284976,0.7187362,0.7169828,0.28176653,0.8404842,0.53242576,0.6641803,0.50856715,0.71607107,0.62504405,0.6971958,0.43562254,0.02517843,-0.1227372,0.39091986,-0.13491453,-0.534114,-0.6908005,-0.055207055,806.6667,800.2198,798.60803,808.2784,839.707,-0.207275390625,0.073486328125,0.977783203125,-3.656158447265625,-0.635528564453125,2.923431396484375,1,1.0,1.0,1.0,1.0,10.00
2024-10-11 20:26:45.996,0.12048019,0.9284976,0.7187362,0.7169828,0.28176653,0.8404842,0.53242576,0.6641803,0.50856715,0.71607107,0.62504405,0.6971958,0.43562254,0.02517843,-0.1227372,0.39091986,-0.13491453,-0.534114,-0.6908005,-0.055207055,801.8315,796.5934,796.1905,807.47253,810.293,-0.207275390625,0.073486328125,0.977783203125,-3.656158447265625,-0.635528564453125,2.923431396484375,1,1.0,1.0,1.0,1.0,10.00
2024-10-11 20:26:45.997,0.12048019,0.9284976,0.7187362,0.7169828,0.28176653,0.8404842,0.53242576,0.6641803,0.50856715,0.71607107,0.62504405,0.6971958,0.43562254,0.02517843,-0.1227372,0.39091986,-0.13491453,-0.534114,-0.6908005,-0.055207055,803.0403,796.1905,795.38464,801.8315,594.3223,-0.207275390625,0.073486328125,0.977783203125,-3.656158447265625,-0.635528564453125,2.923431396484375,1,1.0,1.0,1.0,1.0,10.00
2024-10-11 20:26:45.998,0.12048019,0.96709955,0.7668627,0.7169828,0.28176653,0.8804651,0.5760365,0.6641803,0.50856715,0.71486944,0.62504405,0.6971958,0.43562254,0.039679993,-0.09732804,0.39091986,-0.13491453,-0.52854127,-0.7088205,-0.055207055,800.2198,799.41394,798.20514,804.2491,673.69965,-0.207275390625,0.073486328125,0.977783203125,-3.656158447265625,-0.635528564453125,2.923431396484375,1,1.0,1.0,1.0,1.0,10.00
2024-10-11 20:26:46.003,0.12048019,0.96709955,0.7668627,0.7169828,0.28176653,0.8804651,0.5760365,0.6641803,0.50856715,0.71486944,0.62504405,0.6971958,0.43562254,0.039679993,-0.09732804,0.39091986,-0.13491453,-0.52854127,-0.7088205,-0.055207055,795.38464,799.011,801.8315,811.50183,923.1135,-0.207275390625,0.073486328125,0.977783203125,-3.656158447265625,-0.635528564453125,2.923431396484375,1,1.0,1.0,1.0,1.0,10.00
2024-10-11 20:26:46.004,0.12048019,0.96709955,0.7668627,0.7169828,0.28176653,0.8804651,0.5760365,0.6641803,0.50856715,0.71486944,0.62504405,0.6971958,0.43562254,0.039679993,-0.09732804,0.39091986,-0.13491453,-0.52854127,-0.7088205,-0.055207055,792.1612,796.99634,796.99634,805.05493,873.1502,-0.207275390625,0.073486328125,0.977783203125,-3.656158447265625,-0.635528564453125,2.923431396484375,1,1.0,1.0,1.0,1.0,10.00
2024-10-11 20:26:46.004,0.12048019,0.96709955,0.7668627,0.7169828,0.28176653,0.8804651,0.5760365,0.6641803,0.50856715,0.71486944,0.62504405,0.6971958,0.43562254,0.039679993,-0.09732804,0.39091986,-0.13491453,-0.52854127,-0.7088205,-0.055207055,802.6374,797.8022,800.2198,803.8461,680.14655,-0.207275390625,0.073486328125,0.977783203125,-3.656158447265625,-0.635528564453125,2.923431396484375,1,1.0,1.0,1.0,1.0,10.00
2024-10-11 20:26:46.005,0.12048019,0.96709955,0.7668627,0.7169828,0.28176653,0.8804651,0.5760365,0.6641803,0.50856715,0.71486944,0.62504405,0.6971958,0.43562254,0.039679993,-0.09732804,0.39091986,-0.13491453,-0.52854127,-0.7088205,-0.055207055,801.8315,796.5934,799.81683,805.05493,813.91943,-0.207275390625,0.073486328125,0.977783203125,-3.656158447265625,-0.635528564453125,2.923431396484375,1,1.0,1.0,1.0,1.0,10.00
2024-10-11 20:26:46.006,0.12048019,0.96709955,0.7668627,0.7169828,0.28176653,0.8804651,0.5760365,0.6641803,0.50856715,0.71486944,0.62504405,0.6971958,0.43562254,0.039679993,-0.09732804,0.39091986,-0.13491453,-0.52854127,-0.7088205,-0.055207055,797.8022,797.3993,794.17584,798.60803,940.84247,-0.207275390625,0.073486328125,0.977783203125,-3.656158447265625,-0.635528564453125,2.923431396484375,1,1.0,1.0,1.0,1.0,10.00
2024-10-11 20:26:46.006,0.12048019,0.96709955,0.7668627,0.7169828,0.28176653,0.8804651,0.5760365,0.6641803,0.50856715,0.71486944,0.62504405,0.6971958,0.43562254,0.039679993,-0.09732804,0.39091986,-0.13491453,-0.52854127,-0.7088205,-0.055207055,808.2784,799.011,798.60803,795.38464,832.0513,-0.207275390625,0.073486328125,0.977783203125,-3.656158447265625,-0.635528564453125,2.923431396484375,1,1.0,1.0,1.0,1.0,10.00
2024-10-11 20:26:46.007,0.12048019,0.96709955,0.7668627,0.7169828,0.28176653,0.8804651,0.5760365,0.6641803,0.50856715,0.71486944,0.62504405,0.6971958,0.43562254,0.039679993,-0.09732804,0.39091986,-0.13491453,-0.52854127,-0.7088205,-0.055207055,811.0989,798.20514,799.81683,797.3993,705.12823,-0.207275390625,0.073486328125,0.977783203125,-3.656158447265625,-0.635528564453125,2.923431396484375,1,1.0,1.0,1.0,1.0,10.00
2024-10-11 20:26:46.007,0.12048019,0.96709955,0.7668627,0.7169828,0.28176653,0.8804651,0.5760365,0.6641803,0.50856715,0.71486944,0.62504405,0.6971958,0.43562254,0.039679993,-0.09732804,0.39091986,-0.13491453,-0.52854127,-0.7088205,-0.055207055,812.71063,804.2491,792.96704,811.0989,775.64105,-0.207275390625,0.073486328125,0.977783203125,-3.656158447265625,-0.635528564453125,2.923431396484375,1,1.0,1.0,1.0,1.0,10.00
2024-10-11 20:26:46.008,0.12048019,0.96709955,0.7668627,0.7169828,0.28176653,0.8804651,0.5760365,0.6641803,0.50856715,0.71486944,0.62504405,0.6971958,0.43562254,0.039679993,-0.09732804,0.39091986,-0.13491453,-0.52854127,-0.7088205,-0.055207055,802.23444,802.6374,797.3993,818.3516,975.4945,-0.207275390625,0.073486328125,0.977783203125,-3.656158447265625,-0.635528564453125,2.923431396484375,1,1.0,1.0,1.0,1.0,10.00
2024-10-11 20:26:46.009,0.12048019,0.96709955,0.7668627,0.7169828,0.28176653,0.8804651,0.5760365,0.6641803,0.50856715,0.71486944,0.62504405,0.6971958,0.43562254,0.039679993,-0.09732804,0.39091986,-0.13491453,-0.52854127,-0.7088205,-0.055207055,794.57874,797.8022,803.8461,812.71063,863.8828,-0.207275390625,0.073486328125,0.977783203125,-3.656158447265625,-0.635528564453125,2.923431396484375,1,1.0,1.0,1.0,1.0,10.00
2024-10-11 20:26:46.010,0.12048019,0.96709955,0.7668627,0.7169828,0.28176653,0.8804651,0.5760365,0.6641803,0.50856715,0.71486944,0.62504405,0.6971958,0.43562254,0.039679993,-0.09732804,0.39091986,-0.13491453,-0.52854127,-0.7088205,-0.055207055,796.5934,797.3993,801.02563,808.68134,705.9341,-0.207275390625,0.073486328125,0.977783203125,-3.656158447265625,-0.635528564453125,2.923431396484375,1,1.0,1.0,1.0,1.0,10.00
2024-10-11 20:26:46.010,0.12048019,0.96709955,0.7668627,0.7169828,0.28176653,0.8804651,0.5760365,0.6641803,0.50856715,0.71486944,0.62504405,0.6971958,0.43562254,0.039679993,-0.09732804,0.39091986,-0.13491453,-0.52854127,-0.7088205,-0.055207055,802.6374,799.011,800.6227,816.337,753.8828,-0.207275390625,0.073486328125,0.977783203125,-3.656158447265625,-0.635528564453125,2.923431396484375,1,1.0,1.0,1.0,1.0,10.00
2024-10-11 20:26:46.011,0.12048019,0.96709955,0.7668627,0.7169828,0.28176653,0.8804651,0.5760365,0.6641803,0.50856715,0.71486944,0.62504405,0.6971958,0.43562254,0.039679993,-0.09732804,0.39091986,-0.13491453,-0.52854127,-0.7088205,-0.055207055,807.0696,797.3993,802.6374,828.022,1149.1575,-0.20843505859375,0.0982666015625,0.96881103515625,2.1533203125,2.295379638671875,3.289794921875,1,1.0,1.0,1.0,1.0,10.00
2024-10-11 20:26:46.012,0.12048019,0.96709955,0.7668627,0.7169828,0.28176653,0.8804651,0.5760365,0.6641803,0.50856715,0.71486944,0.62504405,0.6971958,0.43562254,0.039679993,-0.09732804,0.39091986,-0.13491453,-0.52854127,-0.7088205,-0.055207055,800.2198,800.6227,803.44324,822.381,1381.6483,-0.20843505859375,0.0982666015625,0.96881103515625,2.1533203125,2.295379638671875,3.289794921875,1,1.0,1.0,1.0,1.0,10.00
2024-10-11 20:26:46.012,0.12048019,0.96709955,0.7668627,0.7169828,0.28176653,0.8804651,0.5760365,0.6641803,0.50856715,0.71486944,0.62504405,0.6971958,0.43562254,0.039679993,-0.09732804,0.39091986,-0.13491453,-0.52854127,-0.7088205,-0.055207055,808.2784,803.44324,800.2198,817.5458,1213.2234,-0.20843505859375,0.0982666015625,0.96881103515625,2.1533203125,2.295379638671875,3.289794921875,1,1.0,1.0,1.0,1.0,10.00
2024-10-11 20:26:46.013,0.12048019,0.96709955,0.7668627,0.7169828,0.28176653,0.8804651,0.5760365,0.6641803,0.50856715,0.71486944,0.62504405,0.6971958,0.43562254,0.039679993,-0.09732804,0.39091986,-0.13491453,-0.52854127,-0.7088205,-0.055207055,815.9341,806.26373,797.3993,819.15753,841.31866,-0.20843505859375,0.0982666015625,0.96881103515625,2.1533203125,2.295379638671875,3.289794921875,1,1.0,1.0,1.0,1.0,10.00
2024-10-11 20:26:46.014,0.12048019,0.96709955,0.7668627,0.7169828,0.28176653,0.8804651,0.5760365,0.6641803,0.50856715,0.71486944,0.62504405,0.6971958,0.43562254,0.039679993,-0.09732804,0.39091986,-0.13491453,-0.52854127,-0.7088205,-0.055207055,802.23444,802.6374,796.99634,810.696,715.6044,-0.20843505859375,0.0982666015625,0.96881103515625,2.1533203125,2.295379638671875,3.289794921875,1,1.0,1.0,1.0,1.0,10.00
2024-10-11 20:26:46.014,0.12048019,0.96709955,0.7668627,0.7169828,0.28176653,0.8804651,0.5760365,0.6641803,0.50856715,0.71486944,0.62504405,0.6971958,0.43562254,0.039679993,-0.09732804,0.39091986,-0.13491453,-0.52854127,-0.7088205,-0.055207055,803.0403,802.23444,800.2198,811.9048,737.3626,-0.20843505859375,0.0982666015625,0.96881103515625,2.1533203125,2.295379638671875,3.289794921875,1,1.0,1.0,1.0,1.0,10.00
2024-10-11 20:26:46.015,0.12048019,0.96709955,0.7668627,0.7169828,0.28176653,0.8804651,0.5760365,0.6641803,0.50856715,0.71486944,0.62504405,0.6971958,0.43562254,0.039679993,-0.09732804,0.39091986,-0.13491453,-0.52854127,-0.7088205,-0.055207055,807.0696,805.4579,803.8461,816.7399,751.4652,-0.20843505859375,0.0982666015625,0.96881103515625,2.1533203125,2.295379638671875,3.289794921875,1,1.0,1.0,1.0,1.0,10.00
2024-10-11 20:26:46.015,0.12048019,0.96709955,0.7668627,0.7169828,0.28176653,0.8804651,0.5760365,0.6641803,0.50856715,0.71486944,0.62504405,0.6971958,0.43562254,0.039679993,-0.09732804,0.39091986,-0.13491453,-0.52854127,-0.7088205,-0.055207055,803.44324,803.44324,798.20514,810.293,859.0476,-0.20843505859375,0.0982666015625,0.96881103515625,2.1533203125,2.295379638671875,3.289794921875,1,1.0,1.0,1.0,1.0,10.00
2024-10-11 20:26:46.016,0.12048019,0.96709955,0.7668627,0.7169828,0.28176653,0.8804651,0.5760365,0.6641803,0.50856715,0.71486944,0.62504405,0.6971958,0.43562254,0.039679993,-0.09732804,0.39091986,-0.13491453,-0.52854127,-0.7088205,-0.055207055,803.44324,805.05493,799.011,809.0842,780.4762,-0.20843505859375,0.0982666015625,0.96881103515625,2.1533203125,2.295379638671875,3.289794921875,1,1.0,1.0,1.0,1.0,10.00
2024-10-11 20:26:46.016,0.12048019,0.96709955,0.7668627,0.7169828,0.28176653,0.8804651,0.5760365,0.6641803,0.50856715,0.71486944,0.62504405,0.6971958,0.43562254,0.039679993,-0.09732804,0.39091986,-0.13491453,-0.52854127,-0.7088205,-0.055207055,801.4286,807.8755,807.47253,818.7546,649.92676,-0.20843505859375,0.0982666015625,0.96881103515625,2.1533203125,2.295379638671875,3.289794921875,1,1.0,1.0,1.0,1.0,10.00
2024-10-11 20:26:46.017,0.12048019,0.96709955,0.7668627,0.7169828,0.28176653,0.8804651,0.5760365,0.6641803,0.50856715,0.71486944,0.62504405,0.6971958,0.43562254,0.039679993,-0.09732804,0.39091986,-0.13491453,-0.52854127,-0.7088205,-0.055207055,795.38464,802.6374,803.8461,813.91943,742.1978,-0.20843505859375,0.0982666015625,0.96881103515625,2.1533203125,2.295379638671875,3.289794921875,1,1.0,1.0,1.0,1.0,10.00
2024-10-11 20:26:46.017,0.12048019,0.96709955,0.7668627,0.7169828,0.28176653,0.8804651,0.5760365,0.6641803,0.50856715,0.71486944,0.62504405,0.6971958,0.43562254,0.039679993,-0.09732804,0.39091986,-0.13491453,-0.52854127,-0.7088205,-0.055207055,795.78754,799.011,802.23444,801.02563,877.1795,-0.20843505859375,0.0982666015625,0.96881103515625,2.1533203125,2.295379638671875,3.289794921875,1,1.0,1.0,1.0,1.0,10.00
2024-10-11 20:26:46.018,0.12048019,0.96709955,0.7668627,0.7169828,0.28176653,0.8804651,0.5760365,0.6641803,0.50856715,0.71486944,0.62504405,0.6971958,0.43562254,0.039679993,-0.09732804,0.39091986,-0.13491453,-0.52854127,-0.7088205,-0.055207055,805.8608,801.4286,806.6667,796.99634,755.09155,-0.22357177734375,0.092529296875,0.98870849609375,-3.132781982421875,4.94964599609375,1.652374267578125,1,1.0,1.0,1.0,1.0,10.00
2024-10-11 20:26:46.019,0.12048019,1.0103289,0.8250184,0.7169828,0.28176653,0.92468137,0.62840146,0.6641803,0.50856715,0.71455675,0.62504405,0.6971958,0.43562254,0.058346964,-0.07178655,0.39091986,-0.13491453,-0.52124095,-0.7210879,-0.055207055,808.2784,802.6374,805.05493,793.36993,625.7509,-0.22357177734375,0.092529296875,0.98870849609375,-3.132781982421875,4.94964599609375,1.652374267578125,1,1.0,1.0,1.0,1.0,10.00
2024-10-11 20:26:46.022,0.12048019,1.0103289,0.8250184,0.7169828,0.28176653,0.92468137,0.62840146,0.6641803,0.50856715,0.71455675,0.62504405,0.6971958,0.43562254,0.058346964,-0.07178655,0.39091986,-0.13491453,-0.52124095,-0.7210879,-0.055207055,801.8315,800.2198,807.0696,789.34064,664.43225,-0.22357177734375,0.092529296875,0.98870849609375,-3.132781982421875,4.94964599609375,1.652374267578125,1,1.0,1.0,1.0,1.0,10.00
2024-10-11 20:26:46.023,0.12048019,1.0103289,0.8250184,0.7169828,0.28176653,0.92468137,0.62840146,0.6641803,0.50856715,0.71455675,0.62504405,0.6971958,0.43562254,0.058346964,-0.07178655,0.39091986,-0.13491453,-0.52124095,-0.7210879,-0.055207055,803.0403,794.9817,806.26373,801.02563,968.24176,-0.22357177734375,0.092529296875,0.98870849609375,-3.132781982421875,4.94964599609375,1.652374267578125,1,1.0,1.0,1.0,1.0,10.00
2024-10-11 20:26:46.023,0.12048019,1.0103289,0.8250184,0.7169828,0.28176653,0.92468137,0.62840146,0.6641803,0.50856715,0.71455675,0.62504405,0.6971958,0.43562254,0.058346964,-0.07178655,0.39091986,-0.13491453,-0.52124095,-0.7210879,-0.055207055,809.4872,794.9817,805.05493,812.3077,1245.0549,-0.22357177734375,0.092529296875,0.98870849609375,-3.132781982421875,4.94964599609375,1.652374267578125,1,1.0,1.0,1.0,1.0,10.00
2024-10-11 20:26:46.024,0.12048019,1.0103289,0.8250184,0.7169828,0.28176653,0.92468137,0.62840146,0.6641803,0.50856715,0.71455675,0.62504405,0.6971958,0.43562254,0.058346964,-0.07178655,0.39091986,-0.13491453,-0.52124095,-0.7210879,-0.055207055,796.99634,794.17584,799.011,812.71063,1375.2014,-0.22357177734375,0.092529296875,0.98870849609375,-3.132781982421875,4.94964599609375,1.652374267578125,1,1.0,1.0,1.0,1.0,10.00
2024-10-11 20:26:46.024,0.12048019,1.0103289,0.8250184,0.7169828,0.28176653,0.92468137,0.62840146,0.6641803,0.50856715,0.71455675,0.62504405,0.6971958,0.43562254,0.058346964,-0.07178655,0.39091986,-0.13491453,-0.52124095,-0.7210879,-0.055207055,786.52014,789.7436,799.011,807.0696,1188.2417,-0.22357177734375,0.092529296875,0.98870849609375,-3.132781982421875,4.94964599609375,1.652374267578125,1,1.0,1.0,1.0,1.0,10.00
2024-10-11 20:26:46.025,0.12048019,1.0103289,0.8250184,0.7169828,0.28176653,0.92468137,0.62840146,0.6641803,0.50856715,0.71455675,0.62504405,0.6971958,0.43562254,0.058346964,-0.07178655,0.39091986,-0.13491453,-0.52124095,-0.7210879,-0.055207055,791.3553,793.7729,803.8461,799.81683,961.79486,-0.22357177734375,0.092529296875,0.98870849609375,-3.132781982421875,4.94964599609375,1.652374267578125,1,1.0,1.0,1.0,1.0,10.00
2024-10-11 20:26:46.026,0.12048019,1.0103289,0.8250184,0.7169828,0.28176653,0.92468137,0.62840146,0.6641803,0.50856715,0.71455675,0.62504405,0.6971958,0.43562254,0.058346964,-0.07178655,0.39091986,-0.13491453,-0.52124095,-0.7210879,-0.055207055,791.3553,796.99634,803.44324,796.1905,780.07324,-0.22357177734375,0.092529296875,0.98870849609375,-3.132781982421875,4.94964599609375,1.652374267578125,1,1.0,1.0,1.0,1.0,10.00
2024-10-11 20:26:46.026,0.12048019,1.0103289,0.8250184,0.7169828,0.28176653,0.92468137,0.62840146,0.6641803,0.50856715,0.71455675,0.62504405,0.6971958,0.43562254,0.058346964,-0.07178655,0.39091986,-0.13491453,-0.52124095,-0.7210879,-0.055207055,794.57874,793.7729,798.60803,791.3553,668.46155,-0.22357177734375,0.092529296875,0.98870849609375,-3.132781982421875,4.94964599609375,1.652374267578125,1,1.0,1.0,1.0,1.0,10.00
2024-10-11 20:26:46.027,0.12048019,1.0103289,0.8250184,0.7169828,0.28176653,0.92468137,0.62840146,0.6641803,0.50856715,0.71455675,0.62504405,0.6971958,0.43562254,0.058346964,-0.07178655,0.39091986,-0.13491453,-0.52124095,-0.7210879,-0.055207055,797.3993,791.3553,790.9524,794.17584,602.381,-0.22357177734375,0.092529296875,0.98870849609375,-3.132781982421875,4.94964599609375,1.652374267578125,1,1.0,1.0,1.0,1.0,10.00
2024-10-11 20:26:46.028,0.12048019,1.0103289,0.8250184,0.7169828,0.28176653,0.92468137,0.62840146,0.6641803,0.50856715,0.71455675,0.62504405,0.6971958,0.43562254,0.058346964,-0.07178655,0.39091986,-0.13491453,-0.52124095,-0.7210879,-0.055207055,797.8022,787.72894,792.5641,801.8315,860.2564,-0.22357177734375,0.092529296875,0.98870849609375,-3.132781982421875,4.94964599609375,1.652374267578125,1,1.0,1.0,1.0,1.0,10.00
2024-10-11 20:26:46.064,0.12048019,1.0103289,0.8250184,0.7169828,0.28176653,0.92468137,0.62840146,0.6641803,0.50856715,0.71455675,0.62504405,0.6971958,0.43562254,0.058346964,-0.07178655,0.39091986,-0.13491453,-0.52124095,-0.7210879,-0.055207055,797.8022,785.31134,792.5641,811.9048,1161.6483,-0.2503662109375,0.07208251953125,0.97930908203125,-4.1571044921875,4.97955322265625,-1.323394775390625,1,1.0,1.0,1.0,1.0,10.00
2024-10-11 20:26:46.065,0.12048019,1.0103289,0.8250184,0.7169828,0.28176653,0.92468137,0.62840146,0.6641803,0.50856715,0.71455675,0.62504405,0.6971958,0.43562254,0.058346964,-0.07178655,0.39091986,-0.13491453,-0.52124095,-0.7210879,-0.055207055,802.23444,789.7436,795.38464,811.0989,1104.8352,-0.2503662109375,0.07208251953125,0.97930908203125,-4.1571044921875,4.97955322265625,-1.323394775390625,1,1.0,1.0,1.0,1.0,10.00
2024-10-11 20:26:46.066,0.12048019,1.0103289,0.8250184,0.7169828,0.28176653,0.92468137,0.62840146,0.6641803,0.50856715,0.71455675,0.62504405,0.6971958,0.43562254,0.058346964,-0.07178655,0.39091986,-0.13491453,-0.52124095,-0.7210879,-0.055207055,804.2491,795.38464,796.1905,802.6374,804.2491,-0.2503662109375,0.07208251953125,0.97930908203125,-4.1571044921875,4.97955322265625,-1.323394775390625,1,1.0,1.0,1.0,1.0,10.00
2024-10-11 20:26:46.067,0.12048019,1.0103289,0.8250184,0.7169828,0.28176653,0.92468137,0.62840146,0.6641803,0.50856715,0.71455675,0.62504405,0.6971958,0.43562254,0.058346964,-0.07178655,0.39091986,-0.13491453,-0.52124095,-0.7210879,-0.055207055,803.44324,799.81683,796.99634,804.65204,694.65204,-0.2503662109375,0.07208251953125,0.97930908203125,-4.1571044921875,4.97955322265625,-1.323394775390625,1,1.0,1.0,1.0,1.0,10.00
2024-10-11 20:26:46.068,0.12048019,1.0103289,0.8250184,0.7169828,0.28176653,0.92468137,0.62840146,0.6641803,0.50856715,0.71455675,0.62504405,0.6971958,0.43562254,0.058346964,-0.07178655,0.39091986,-0.13491453,-0.52124095,-0.7210879,-0.055207055,801.4286,800.2198,801.8315,804.65204,584.2491,-0.2503662109375,0.07208251953125,0.97930908203125,-4.1571044921875,4.97955322265625,-1.323394775390625,1,1.0,1.0,1.0,1.0,10.00
2024-10-11 20:26:46.069,0.12048019,1.0103289,0.8250184,0.7169828,0.28176653,0.92468137,0.62840146,0.6641803,0.50856715,0.71455675,0.62504405,0.6971958,0.43562254,0.058346964,-0.07178655,0.39091986,-0.13491453,-0.52124095,-0.7210879,-0.055207055,795.78754,802.23444,806.26373,803.8461,567.72894,-0.2503662109375,0.07208251953125,0.97930908203125,-4.1571044921875,4.97955322265625,-1.323394775390625,1,1.0,1.0,1.0,1.0,10.00
2024-10-11 20:26:46.069,0.12048019,1.0103289,0.8250184,0.7169828,0.28176653,0.92468137,0.62840146,0.6641803,0.50856715,0.71455675,0.62504405,0.6971958,0.43562254,0.058346964,-0.07178655,0.39091986,-0.13491453,-0.52124095,-0.7210879,-0.055207055,794.57874,802.23444,807.47253,805.05493,819.15753,-0.2503662109375,0.07208251953125,0.97930908203125,-4.1571044921875,4.97955322265625,-1.323394775390625,1,1.0,1.0,1.0,1.0,10.00
2024-10-11 20:26:46.070,0.12048019,1.0103289,0.8250184,0.7169828,0.28176653,0.92468137,0.62840146,0.6641803,0.50856715,0.71455675,0.62504405,0.6971958,0.43562254,0.058346964,-0.07178655,0.39091986,-0.13491453,-0.52124095,-0.7210879,-0.055207055,796.5934,796.5934,805.4579,807.0696,1152.7839,-0.2503662109375,0.07208251953125,0.97930908203125,-4.1571044921875,4.97955322265625,-1.323394775390625,1,1.0,1.0,1.0,1.0,10.00
2024-10-11 20:26:46.070,0.12048019,1.0103289,0.8250184,0.7169828,0.28176653,0.92468137,0.62840146,0.6641803,0.50856715,0.71455675,0.62504405,0.6971958,0.43562254,0.058346964,-0.07178655,0.39091986,-0.13491453,-0.52124095,-0.7210879,-0.055207055,799.011,798.20514,803.0403,800.2198,856.2271,-0.2503662109375,0.07208251953125,0.97930908203125,-4.1571044921875,4.97955322265625,-1.323394775390625,1,1.0,1.0,1.0,1.0,10.00
2024-10-11 20:26:46.071,0.12048019,1.0103289,0.8250184,0.7169828,0.28176653,0.92468137,0.62840146,0.6641803,0.50856715,0.71455675,0.62504405,0.6971958,0.43562254,0.058346964,-0.07178655,0.39091986,-0.13491453,-0.52124095,-0.7210879,-0.055207055,797.8022,800.6227,802.6374,796.1905,559.67035,-0.2503662109375,0.07208251953125,0.97930908203125,-4.1571044921875,4.97955322265625,-1.323394775390625,1,1.0,1.0,1.0,1.0,10.00
2024-10-11 20:26:46.071,0.12048019,1.0103289,0.8250184,0.7169828,0.28176653,0.92468137,0.62840146,0.6641803,0.50856715,0.71455675,0.62504405,0.6971958,0.43562254,0.058346964,-0.07178655,0.39091986,-0.13491453,-0.52124095,-0.7210879,-0.055207055,805.05493,799.011,800.6227,796.99634,628.5714,-0.2503662109375,0.07208251953125,0.97930908203125,-4.1571044921875,4.97955322265625,-1.323394775390625,1,1.0,1.0,1.0,1.0,10.00
2024-10-11 20:26:46.072,0.12048019,1.0103289,0.8250184,0.7169828,0.28176653,0.92468137,0.62840146,0.6641803,0.50856715,0.71455675,0.62504405,0.6971958,0.43562254,0.058346964,-0.07178655,0.39091986,-0.13491453,-0.52124095,-0.7210879,-0.055207055,814.3223,801.02563,800.6227,795.38464,614.4689,-0.2503662109375,0.07208251953125,0.97930908203125,-4.1571044921875,4.97955322265625,-1.323394775390625,1,1.0,1.0,1.0,1.0,10.00
2024-10-11 20:26:46.111,0.12048019,1.0103289,0.8250184,0.7169828,0.28176653,0.92468137,0.62840146,0.6641803,0.50856715,0.71455675,0.62504405,0.6971958,0.43562254,0.058346964,-0.07178655,0.39091986,-0.13491453,-0.52124095,-0.7210879,-0.055207055,811.9048,799.011,804.65204,796.99634,647.1062,-0.26300048828125,0.06500244140625,0.96710205078125,-3.36456298828125,2.564544677734375,-4.6954345703125,1,1.0,1.0,1.0,1.0,10.00
2024-10-11 20:26:46.112,0.12048019,1.0103289,0.8250184,0.7169828,0.28176653,0.92468137,0.62840146,0.6641803,0.50856715,0.71455675,0.62504405,0.6971958,0.43562254,0.058346964,-0.07178655,0.39091986,-0.13491453,-0.52124095,-0.7210879,-0.055207055,810.696,794.9817,805.8608,800.2198,617.28937,-0.26300048828125,0.06500244140625,0.96710205078125,-3.36456298828125,2.564544677734375,-4.6954345703125,1,1.0,1.0,1.0,1.0,10.00
2024-10-11 20:26:46.113,0.12048019,1.0103289,0.8250184,0.7169828,0.28176653,0.92468137,0.62840146,0.6641803,0.50856715,0.71455675,0.62504405,0.6971958,0.43562254,0.058346964,-0.07178655,0.39091986,-0.13491453,-0.52124095,-0.7210879,-0.055207055,808.68134,798.60803,803.8461,799.41394,805.05493,-0.26300048828125,0.06500244140625,0.96710205078125,-3.36456298828125,2.564544677734375,-4.6954345703125,1,1.0,1.0,1.0,1.0,10.00
2024-10-11 20:26:46.113,0.12048019,1.0589199,0.89761996,0.7169828,0.28176653,0.97337186,0.69283074,0.6641803,0.50856715,0.71455675,0.62504405,0.6971958,0.43562254,0.080673054,-0.049856205,0.39091986,-0.13491453,-0.50674933,-0.72012466,-0.055207055,809.89014,805.8608,805.8608,800.2198,780.87915,-0.26300048828125,0.06500244140625,0.96710205078125,-3.36456298828125,2.564544677734375,-4.6954345703125,1,1.0,1.0,1.0,1.0,10.00
2024-10-11 20:26:46.117,0.12048019,1.0589199,0.89761996,0.7169828,0.28176653,0.97337186,0.69283074,0.6641803,0.50856715,0.71455675,0.62504405,0.6971958,0.43562254,0.080673054,-0.049856205,0.39091986,-0.13491453,-0.50674933,-0.72012466,-0.055207055,804.65204,800.6227,807.0696,798.20514,507.28937,-0.26300048828125,0.06500244140625,0.96710205078125,-3.36456298828125,2.564544677734375,-4.6954345703125,1,1.0,1.0,1.0,1.0,10.00
2024-10-11 20:26:46.118,0.12048019,1.0589199,0.89761996,0.7169828,0.28176653,0.97337186,0.69283074,0.6641803,0.50856715,0.71455675,0.62504405,0.6971958,0.43562254,0.080673054,-0.049856205,0.39091986,-0.13491453,-0.50674933,-0.72012466,-0.055207055,795.38464,791.75824,807.0696,796.5934,630.18317,-0.26300048828125,0.06500244140625,0.96710205078125,-3.36456298828125,2.564544677734375,-4.6954345703125,1,1.0,1.0,1.0,1.0,10.00
2024-10-11 20:26:46.118,0.12048019,1.0589199,0.89761996,0.7169828,0.28176653,0.97337186,0.69283074,0.6641803,0.50856715,0.71455675,0.62504405,0.6971958,0.43562254,0.080673054,-0.049856205,0.39091986,-0.13491453,-0.50674933,-0.72012466,-0.055207055,810.293,794.9817,808.2784,821.1722,944.87177,-0.26300048828125,0.06500244140625,0.96710205078125,-3.36456298828125,2.564544677734375,-4.6954345703125,1,1.0,1.0,1.0,1.0,10.00
2024-10-11 20:26:46.119,0.12048019,1.0589199,0.89761996,0.7169828,0.28176653,0.97337186,0.69283074,0.6641803,0.50856715,0.71455675,0.62504405,0.6971958,0.43562254,0.080673054,-0.049856205,0.39091986,-0.13491453,-0.50674933,-0.72012466,-0.055207055,817.5458,807.8755,805.8608,813.5165,815.9341,-0.26300048828125,0.06500244140625,0.96710205078125,-3.36456298828125,2.564544677734375,-4.6954345703125,1,1.0,1.0,1.0,1.0,10.00
2024-10-11 20:26:46.119,0.12048019,1.0589199,0.89761996,0.7169828,0.28176653,0.97337186,0.69283074,0.6641803,0.50856715,0.71455675,0.62504405,0.6971958,0.43562254,0.080673054,-0.049856205,0.39091986,-0.13491453,-0.50674933,-0.72012466,-0.055207055,796.1905,808.2784,799.011,782.49084,594.3223,-0.26300048828125,0.06500244140625,0.96710205078125,-3.36456298828125,2.564544677734375,-4.6954345703125,1,1.0,1.0,1.0,1.0,10.00
2024-10-11 20:26:46.120,0.12048019,1.0589199,0.89761996,0.7169828,0.28176653,0.97337186,0.69283074,0.6641803,0.50856715,0.71455675,0.62504405,0.6971958,0.43562254,0.080673054,-0.049856205,0.39091986,-0.13491453,-0.50674933,-0.72012466,-0.055207055,788.1319,805.05493,793.7729,779.67035,593.1135,-0.26300048828125,0.06500244140625,0.96710205078125,-3.36456298828125,2.564544677734375,-4.6954345703125,1,1.0,1.0,1.0,1.0,10.00
2024-10-11 20:26:46.120,0.12048019,1.0589199,0.89761996,0.7169828,0.28176653,0.97337186,0.69283074,0.6641803,0.50856715,0.71455675,0.62504405,0.6971958,0.43562254,0.080673054,-0.049856205,0.39091986,-0.13491453,-0.50674933,-0.72012466,-0.055207055,790.14655,802.23444,787.326,787.326,968.6447,-0.26300048828125,0.06500244140625,0.96710205078125,-3.36456298828125,2.564544677734375,-4.6954345703125,1,1.0,1.0,1.0,1.0,10.00
2024-10-11 20:26:46.121,0.12048019,1.0589199,0.89761996,0.7169828,0.28176653,0.97337186,0.69283074,0.6641803,0.50856715,0.71455675,0.62504405,0.6971958,0.43562254,0.080673054,-0.049856205,0.39091986,-0.13491453,-0.50674933,-0.72012466,-0.055207055,784.5055,807.0696,784.90845,781.685,918.68134,-0.26300048828125,0.06500244140625,0.96710205078125,-3.36456298828125,2.564544677734375,-4.6954345703125,1,1.0,1.0,1.0,1.0,10.00
2024-10-11 20:26:46.145,0.12048019,1.0589199,0.89761996,0.7169828,0.28176653,0.97337186,0.69283074,0.6641803,0.50856715,0.71455675,0.62504405,0.6971958,0.43562254,0.080673054,-0.049856205,0.39091986,-0.13491453,-0.50674933,-0.72012466,-0.055207055,786.9231,813.5165,785.31134,772.8205,660.0,-0.26300048828125,0.06500244140625,0.96710205078125,-3.36456298828125,2.564544677734375,-4.6954345703125,1,1.0,1.0,1.0,1.0,10.00
2024-10-11 20:26:46.145,0.12048019,1.0589199,0.89761996,0.7169828,0.28176653,0.97337186,0.69283074,0.6641803,0.50856715,0.71455675,0.62504405,0.6971958,0.43562254,0.080673054,-0.049856205,0.39091986,-0.13491453,-0.50674933,-0.72012466,-0.055207055,796.5934,808.68134,781.28204,773.22345,639.45056,-0.26300048828125,0.06500244140625,0.96710205078125,-3.36456298828125,2.564544677734375,-4.6954345703125,1,1.0,1.0,1.0,1.0,10.00
2024-10-11 20:26:46.146,0.12048019,1.0589199,0.89761996,0.7169828,0.28176653,0.97337186,0.69283074,0.6641803,0.50856715,0.71455675,0.62504405,0.6971958,0.43562254,0.080673054,-0.049856205,0.39091986,-0.13491453,-0.50674933,-0.72012466,-0.055207055,783.2967,805.4579,776.4469,761.9414,658.3883,-0.26300048828125,0.06500244140625,0.96710205078125,-3.36456298828125,2.564544677734375,-4.6954345703125,1,1.0,1.0,1.0,1.0,10.00
2024-10-11 20:26:46.147,0.12048019,1.0589199,0.89761996,0.7169828,0.28176653,0.97337186,0.69283074,0.6641803,0.50856715,0.71455675,0.62504405,0.6971958,0.43562254,0.080673054,-0.049856205,0.39091986,-0.13491453,-0.50674933,-0.72012466,-0.055207055,770.80585,805.05493,774.43225,760.7326,684.9817,-0.26300048828125,0.06500244140625,0.96710205078125,-3.36456298828125,2.564544677734375,-4.6954345703125,1,1.0,1.0,1.0,1.0,10.00
2024-10-11 20:26:46.147,0.12048019,1.0589199,0.89761996,0.7169828,0.28176653,0.97337186,0.69283074,0.6641803,0.50856715,0.71455675,0.62504405,0.6971958,0.43562254,0.080673054,-0.049856205,0.39091986,-0.13491453,-0.50674933,-0.72012466,-0.055207055,777.6557,806.6667,773.6264,770.40295,677.326,-0.26300048828125,0.06500244140625,0.96710205078125,-3.36456298828125,2.564544677734375,-4.6954345703125,1,1.0,1.0,1.0,1.0,10.00
2024-10-11 20:26:46.148,0.12048019,1.0589199,0.89761996,0.7169828,0.28176653,0.97337186,0.69283074,0.6641803,0.50856715,0.71455675,0.62504405,0.6971958,0.43562254,0.080673054,-0.049856205,0.39091986,-0.13491453,-0.50674933,-0.72012466,-0.055207055,776.04395,806.26373,767.98535,763.5531,833.2601,-0.26300048828125,0.06500244140625,0.96710205078125,-3.36456298828125,2.564544677734375,-4.6954345703125,1,1.0,1.0,1.0,1.0,10.00
2024-10-11 20:26:46.148,0.12048019,1.0589199,0.89761996,0.7169828,0.28176653,0.97337186,0.69283074,0.6641803,0.50856715,0.71455675,0.62504405,0.6971958,0.43562254,0.080673054,-0.049856205,0.39091986,-0.13491453,-0.50674933,-0.72012466,-0.055207055,774.0293,803.8461,765.56775,763.95605,886.4469,-0.26300048828125,0.06500244140625,0.96710205078125,-3.36456298828125,2.564544677734375,-4.6954345703125,1,1.0,1.0,1.0,1.0,10.00
2024-10-11 20:26:46.149,0.12048019,1.0589199,0.89761996,0.7169828,0.28176653,0.97337186,0.69283074,0.6641803,0.50856715,0.71455675,0.62504405,0.6971958,0.43562254,0.080673054,-0.049856205,0.39091986,-0.13491453,-0.50674933,-0.72012466,-0.055207055,778.86444,805.8608,761.53845,768.7912,724.0659,-0.26300048828125,0.06500244140625,0.96710205078125,-3.36456298828125,2.564544677734375,-4.6954345703125,1,1.0,1.0,1.0,1.0,10.00
2024-10-11 20:26:46.149,0.12048019,1.0589199,0.89761996,0.7169828,0.28176653,0.97337186,0.69283074,0.6641803,0.50856715,0.71455675,0.62504405,0.6971958,0.43562254,0.080673054,-0.049856205,0.39091986,-0.13491453,-0.50674933,-0.72012466,-0.055207055,786.1172,807.8755,759.5238,767.98535,760.32965,-0.26300048828125,0.06500244140625,0.96710205078125,-3.36456298828125,2.564544677734375,-4.6954345703125,1,1.0,1.0,1.0,1.0,10.00
2024-10-11 20:26:46.150,0.12048019,1.0589199,0.89761996,0.7169828,0.28176653,0.97337186,0.69283074,0.6641803,0.50856715,0.71455675,0.62504405,0.6971958,0.43562254,0.080673054,-0.049856205,0.39091986,-0.13491453,-0.50674933,-0.72012466,-0.055207055,793.7729,805.05493,755.89746,767.98535,875.9707,-0.26300048828125,0.06500244140625,0.96710205078125,-3.36456298828125,2.564544677734375,-4.6954345703125,1,1.0,1.0,1.0,1.0,10.00
2024-10-11 20:26:46.151,0.12048019,1.0589199,0.89761996,0.7169828,0.28176653,0.97337186,0.69283074,0.6641803,0.50856715,0.71455675,0.62504405,0.6971958,0.43562254,0.080673054,-0.049856205,0.39091986,-0.13491453,-0.50674933,-0.72012466,-0.055207055,785.7143,803.0403,748.6447,762.3443,742.6007,-0.26300048828125,0.06500244140625,0.96710205078125,-3.36456298828125,2.564544677734375,-4.6954345703125,1,1.0,1.0,1.0,1.0,10.00
2024-10-11 20:26:46.151,0.12048019,1.0589199,0.89761996,0.7169828,0.28176653,0.97337186,0.69283074,0.6641803,0.50856715,0.71455675,0.62504405,0.6971958,0.43562254,0.080673054,-0.049856205,0.39091986,-0.13491453,-0.50674933,-0.72012466,-0.055207055,791.3553,809.89014,752.27106,776.04395,665.2381,-0.26300048828125,0.06500244140625,0.96710205078125,-3.36456298828125,2.564544677734375,-4.6954345703125,1,1.0,1.0,1.0,1.0,10.00
2024-10-11 20:26:46.152,0.12048019,1.0589199,0.89761996,0.7169828,0.28176653,0.97337186,0.69283074,0.6641803,0.50856715,0.71455675,0.62504405,0.6971958,0.43562254,0.080673054,-0.049856205,0.39091986,-0.13491453,-0.50674933,-0.72012466,-0.055207055,799.81683,811.50183,758.315,787.326,744.21246,-0.264892578125,0.0626220703125,0.9765625,-0.889739990234375,0.157012939453125,-8.433837890625,1,1.0,1.0,1.0,1.0,10.00
2024-10-11 20:26:46.153,0.12048019,1.0589199,0.89761996,0.7169828,0.28176653,0.97337186,0.69283074,0.6641803,0.50856715,0.71455675,0.62504405,0.6971958,0.43562254,0.080673054,-0.049856205,0.39091986,-0.13491453,-0.50674933,-0.72012466,-0.055207055,800.6227,806.26373,763.5531,785.7143,837.6923,-0.264892578125,0.0626220703125,0.9765625,-0.889739990234375,0.157012939453125,-8.433837890625,1,1.0,1.0,1.0,1.0,10.00
2024-10-11 20:26:46.153,0.12048019,1.0589199,0.89761996,0.7169828,0.28176653,0.97337186,0.69283074,0.6641803,0.50856715,0.71455675,0.62504405,0.6971958,0.43562254,0.080673054,-0.049856205,0.39091986,-0.13491453,-0.50674933,-0.72012466,-0.055207055,796.99634,808.2784,768.3883,782.8938,849.3773,-0.264892578125,0.0626220703125,0.9765625,-0.889739990234375,0.157012939453125,-8.433837890625,1,1.0,1.0,1.0,1.0,10.00
2024-10-11 20:26:46.154,0.12048019,1.0589199,0.89761996,0.7169828,0.28176653,0.97337186,0.69283074,0.6641803,0.50856715,0.71455675,0.62504405,0.6971958,0.43562254,0.080673054,-0.049856205,0.39091986,-0.13491453,-0.50674933,-0.72012466,-0.055207055,792.1612,807.47253,768.7912,783.2967,701.9048,-0.264892578125,0.0626220703125,0.9765625,-0.889739990234375,0.157012939453125,-8.433837890625,1,1.0,1.0,1.0,1.0,10.00
2024-10-11 20:26:46.154,0.12048019,1.0589199,0.89761996,0.7169828,0.28176653,0.97337186,0.69283074,0.6641803,0.50856715,0.71455675,0.62504405,0.6971958,0.43562254,0.080673054,-0.049856205,0.39091986,-0.13491453,-0.50674933,-0.72012466,-0.055207055,790.9524,803.0403,768.3883,788.93774,709.15753,-0.264892578125,0.0626220703125,0.9765625,-0.889739990234375,0.157012939453125,-8.433837890625,1,1.0,1.0,1.0,1.0,10.00
2024-10-11 20:26:46.155,0.12048019,1.0612932,0.92423385,0.7169828,0.28176653,0.970942,0.68789244,0.6641803,0.50856715,0.71455675,0.62504405,0.6971958,0.43562254,0.090451084,-0.041955397,0.39091986,-0.13491453,-0.49588233,-0.6930434,-0.055207055,788.93774,805.4579,769.19415,800.2198,996.8498,-0.264892578125,0.0626220703125,0.9765625,-0.889739990234375,0.157012939453125,-8.433837890625,1,1.0,1.0,1.0,1.0,10.00
2024-10-11 20:26:46.159,0.12048019,1.0612932,0.92423385,0.7169828,0.28176653,0.970942,0.68789244,0.6641803,0.50856715,0.71455675,0.62504405,0.6971958,0.43562254,0.090451084,-0.041955397,0.39091986,-0.13491453,-0.49588233,-0.6930434,-0.055207055,790.9524,805.05493,772.4176,791.75824,843.73627,-0.264892578125,0.0626220703125,0.9765625,-0.889739990234375,0.157012939453125,-8.433837890625,1,1.0,1.0,1.0,1.0,10.00
2024-10-11 20:26:46.159,0.12048019,1.0612932,0.92423385,0.7169828,0.28176653,0.970942,0.68789244,0.6641803,0.50856715,0.71455675,0.62504405,0.6971958,0.43562254,0.090451084,-0.041955397,0.39091986,-0.13491453,-0.49588233,-0.6930434,-0.055207055,799.41394,804.2491,773.22345,785.31134,669.2674,-0.264892578125,0.0626220703125,0.9765625,-0.889739990234375,0.157012939453125,-8.433837890625,1,1.0,1.0,1.0,1.0,10.00
2024-10-11 20:26:46.160,0.12048019,1.0612932,0.92423385,0.7169828,0.28176653,0.970942,0.68789244,0.6641803,0.50856715,0.71455675,0.62504405,0.6971958,0.43562254,0.090451084,-0.041955397,0.39091986,-0.13491453,-0.49588233,-0.6930434,-0.055207055,803.8461,808.2784,775.2381,792.96704,783.2967,-0.264892578125,0.0626220703125,0.9765625,-0.889739990234375,0.157012939453125,-8.433837890625,1,1.0,1.0,1.0,1.0,10.00
2024-10-11 20:26:46.160,0.12048019,1.0612932,0.92423385,0.7169828,0.28176653,0.970942,0.68789244,0.6641803,0.50856715,0.71455675,0.62504405,0.6971958,0.43562254,0.090451084,-0.041955397,0.39091986,-0.13491453,-0.49588233,-0.6930434,-0.055207055,798.20514,805.8608,776.4469,791.75824,842.52747,-0.264892578125,0.0626220703125,0.9765625,-0.889739990234375,0.157012939453125,-8.433837890625,1,1.0,1.0,1.0,1.0,10.00
2024-10-11 20:26:46.162,0.12048019,1.0612932,0.92423385,0.7169828,0.28176653,0.970942,0.68789244,0.6641803,0.50856715,0.71455675,0.62504405,0.6971958,0.43562254,0.090451084,-0.041955397,0.39091986,-0.13491453,-0.49588233,-0.6930434,-0.055207055,783.69965,800.6227,777.6557,790.14655,741.39197,-0.264892578125,0.0626220703125,0.9765625,-0.889739990234375,0.157012939453125,-8.433837890625,1,1.0,1.0,1.0,1.0,10.00
2024-10-11 20:26:46.163,0.12048019,1.0612932,0.92423385,0.7169828,0.28176653,0.970942,0.68789244,0.6641803,0.50856715,0.71455675,0.62504405,0.6971958,0.43562254,0.090451084,-0.041955397,0.39091986,-0.13491453,-0.49588233,-0.6930434,-0.055207055,782.8938,800.6227,780.07324,788.93774,628.5714,-0.264892578125,0.0626220703125,0.9765625,-0.889739990234375,0.157012939453125,-8.433837890625,1,1.0,1.0,1.0,1.0,10.00
2024-10-11 20:26:46.186,0.12048019,1.0612932,0.92423385,0.7169828,0.28176653,0.970942,0.68789244,0.6641803,0.50856715,0.71455675,0.62504405,0.6971958,0.43562254,0.090451084,-0.041955397,0.39091986,-0.13491453,-0.49588233,-0.6930434,-0.055207055,791.3553,804.2491,779.67035,794.9817,660.0,-0.24530029296875,0.0609130859375,0.97906494140625,-0.83740234375,-4.119720458984375,-10.041351318359375,1,1.0,1.0,1.0,1.0,10.00
2024-10-11 20:26:46.187,0.12048019,1.0612932,0.92423385,0.7169828,0.28176653,0.970942,0.68789244,0.6641803,0.50856715,0.71455675,0.62504405,0.6971958,0.43562254,0.090451084,-0.041955397,0.39091986,-0.13491453,-0.49588233,-0.6930434,-0.055207055,790.14655,804.2491,782.49084,797.3993,758.71796,-0.24530029296875,0.0609130859375,0.97906494140625,-0.83740234375,-4.119720458984375,-10.041351318359375,1,1.0,1.0,1.0,1.0,10.00
2024-10-11 20:26:46.188,0.12048019,1.0612932,0.92423385,0.7169828,0.28176653,0.970942,0.68789244,0.6641803,0.50856715,0.71455675,0.62504405,0.6971958,0.43562254,0.090451084,-0.041955397,0.39091986,-0.13491453,-0.49588233,-0.6930434,-0.055207055,795.78754,803.44324,785.31134,784.90845,696.26373,-0.24530029296875,0.0609130859375,0.97906494140625,-0.83740234375,-4.119720458984375,-10.041351318359375,1,1.0,1.0,1.0,1.0,10.00
2024-10-11 20:26:46.189,0.12048019,1.0612932,0.92423385,0.7169828,0.28176653,0.970942,0.68789244,0.6641803,0.50856715,0.71455675,0.62504405,0.6971958,0.43562254,0.090451084,-0.041955397,0.39091986,-0.13491453,-0.49588233,-0.6930434,-0.055207055,807.47253,800.2198,785.7143,787.326,597.9487,-0.24530029296875,0.0609130859375,0.97906494140625,-0.83740234375,-4.119720458984375,-10.041351318359375,1,1.0,1.0,1.0,1.0,10.00
2024-10-11 20:26:46.189,0.12048019,1.0612932,0.92423385,0.7169828,0.28176653,0.970942,0.68789244,0.6641803,0.50856715,0.71455675,0.62504405,0.6971958,0.43562254,0.090451084,-0.041955397,0.39091986,-0.13491453,-0.49588233,-0.6930434,-0.055207055,815.12823,799.81683,786.9231,799.81683,613.663,-0.24530029296875,0.0609130859375,0.97906494140625,-0.83740234375,-4.119720458984375,-10.041351318359375,1,1.0,1.0,1.0,1.0,10.00
2024-10-11 20:26:46.190,0.12048019,1.0612932,0.92423385,0.7169828,0.28176653,0.970942,0.68789244,0.6641803,0.50856715,0.71455675,0.62504405,0.6971958,0.43562254,0.090451084,-0.041955397,0.39091986,-0.13491453,-0.49588233,-0.6930434,-0.055207055,826.0073,805.8608,782.0879,798.60803,818.3516,-0.24530029296875,0.0609130859375,0.97906494140625,-0.83740234375,-4.119720458984375,-10.041351318359375,1,1.0,1.0,1.0,1.0,10.00
2024-10-11 20:26:46.191,0.12048019,1.0612932,0.92423385,0.7169828,0.28176653,0.970942,0.68789244,0.6641803,0.50856715,0.71455675,0.62504405,0.6971958,0.43562254,0.090451084,-0.041955397,0.39091986,-0.13491453,-0.49588233,-0.6930434,-0.055207055,830.84247,805.8608,787.326,797.3993,796.1905,-0.24530029296875,0.0609130859375,0.97906494140625,-0.83740234375,-4.119720458984375,-10.041351318359375,1,1.0,1.0,1.0,1.0,10.00
2024-10-11 20:26:46.191,0.12048019,1.0612932,0.92423385,0.7169828,0.28176653,0.970942,0.68789244,0.6641803,0.50856715,0.71455675,0.62504405,0.6971958,0.43562254,0.090451084,-0.041955397,0.39091986,-0.13491453,-0.49588233,-0.6930434,-0.055207055,827.2161,796.99634,792.1612,796.99634,639.0476,-0.24530029296875,0.0609130859375,0.97906494140625,-0.83740234375,-4.119720458984375,-10.041351318359375,1,1.0,1.0,1.0,1.0,10.00
2024-10-11 20:26:46.192,0.12048019,1.0612932,0.92423385,0.7169828,0.28176653,0.970942,0.68789244,0.6641803,0.50856715,0.71455675,0.62504405,0.6971958,0.43562254,0.090451084,-0.041955397,0.39091986,-0.13491453,-0.49588233,-0.6930434,-0.055207055,821.5751,796.99634,791.75824,802.6374,866.30035,-0.24530029296875,0.0609130859375,0.97906494140625,-0.83740234375,-4.119720458984375,-10.041351318359375,1,1.0,1.0,1.0,1.0,10.00
2024-10-11 20:26:46.193,0.12048019,1.0612932,0.92423385,0.7169828,0.28176653,0.970942,0.68789244,0.6641803,0.50856715,0.71455675,0.62504405,0.6971958,0.43562254,0.090451084,-0.041955397,0.39091986,-0.13491453,-0.49588233,-0.6930434,-0.055207055,803.0403,800.2198,796.1905,808.2784,838.9011,-0.24530029296875,0.0609130859375,0.97906494140625,-0.83740234375,-4.119720458984375,-10.041351318359375,1,1.0,1.0,1.0,1.0,10.00
2024-10-11 20:26:46.194,0.12048019,1.0612932,0.92423385,0.7169828,0.28176653,0.970942,0.68789244,0.6641803,0.50856715,0.71455675,0.62504405,0.6971958,0.43562254,0.090451084,-0.041955397,0.39091986,-0.13491453,-0.49588233,-0.6930434,-0.055207055,786.52014,798.60803,796.99634,807.0696,597.1429,-0.24530029296875,0.0609130859375,0.97906494140625,-0.83740234375,-4.119720458984375,-10.041351318359375,1,1.0,1.0,1.0,1.0,10.00
2024-10-11 20:26:46.195,0.12048019,1.0612932,0.92423385,0.7169828,0.28176653,0.970942,0.68789244,0.6641803,0.50856715,0.71455675,0.62504405,0.6971958,0.43562254,0.090451084,-0.041955397,0.39091986,-0.13491453,-0.49588233,-0.6930434,-0.055207055,768.7912,797.3993,794.17584,809.0842,564.10254,-0.24530029296875,0.0609130859375,0.97906494140625,-0.83740234375,-4.119720458984375,-10.041351318359375,1,1.0,1.0,1.0,1.0,10.00
2024-10-11 20:26:46.196,0.12048019,1.0612932,0.92423385,0.7169828,0.28176653,0.970942,0.68789244,0.6641803,0.50856715,0.71455675,0.62504405,0.6971958,0.43562254,0.090451084,-0.041955397,0.39091986,-0.13491453,-0.49588233,-0.6930434,-0.055207055,755.09155,796.99634,789.7436,808.68134,821.1722,-0.22216796875,0.06390380859375,0.9893798828125,-0.097198486328125,-7.559051513671875,-12.21710205078125,1,1.0,1.0,1.0,1.0,10.00
2024-10-11 20:26:46.197,0.12048019,1.0612932,0.92423385,0.7169828,0.28176653,0.970942,0.68789244,0.6641803,0.50856715,0.71455675,0.62504405,0.6971958,0.43562254,0.090451084,-0.041955397,0.39091986,-0.13491453,-0.49588233,-0.6930434,-0.055207055,754.68866,794.9817,792.96704,811.50183,1228.1318,-0.22216796875,0.06390380859375,0.9893798828125,-0.097198486328125,-7.559051513671875,-12.21710205078125,1,1.0,1.0,1.0,1.0,10.00
2024-10-11 20:26:46.198,0.12048019,1.0612932,0.92423385,0.7169828,0.28176653,0.970942,0.68789244,0.6641803,0.50856715,0.71455675,0.62504405,0.6971958,0.43562254,0.090451084,-0.041955397,0.39091986,-0.13491453,-0.49588233,-0.6930434,-0.055207055,759.92676,797.8022,801.02563,815.5311,1322.4176,-0.22216796875,0.06390380859375,0.9893798828125,-0.097198486328125,-7.559051513671875,-12.21710205078125,1,1.0,1.0,1.0,1.0,10.00
2024-10-11 20:26:46.201,0.12048019,1.0612932,0.92423385,0.7169828,0.28176653,0.970942,0.68789244,0.6641803,0.50856715,0.71455675,0.62504405,0.6971958,0.43562254,0.090451084,-0.041955397,0.39091986,-0.13491453,-0.49588233,-0.6930434,-0.055207055,766.77655,799.81683,803.0403,808.68134,974.68866,-0.22216796875,0.06390380859375,0.9893798828125,-0.097198486328125,-7.559051513671875,-12.21710205078125,1,1.0,1.0,1.0,1.0,10.00
2024-10-11 20:26:46.202,0.12048019,1.0612932,0.92423385,0.7169828,0.28176653,0.970942,0.68789244,0.6641803,0.50856715,0.71455675,0.62504405,0.6971958,0.43562254,0.090451084,-0.041955397,0.39091986,-0.13491453,-0.49588233,-0.6930434,-0.055207055,768.3883,797.3993,796.5934,799.81683,759.5238,-0.22216796875,0.06390380859375,0.9893798828125,-0.097198486328125,-7.559051513671875,-12.21710205078125,1,1.0,1.0,1.0,1.0,10.00
2024-10-11 20:26:46.203,0.12048019,1.0612932,0.92423385,0.7169828,0.28176653,0.970942,0.68789244,0.6641803,0.50856715,0.71455675,0.62504405,0.6971958,0.43562254,0.090451084,-0.041955397,0.39091986,-0.13491453,-0.49588233,-0.6930434,-0.055207055,775.64105,796.99634,793.7729,800.2198,844.94507,-0.22216796875,0.06390380859375,0.9893798828125,-0.097198486328125,-7.559051513671875,-12.21710205078125,1,1.0,1.0,1.0,1.0,10.00
2024-10-11 20:26:46.203,0.12048019,1.0612932,0.92423385,0.7169828,0.28176653,0.970942,0.68789244,0.6641803,0.50856715,0.71455675,0.62504405,0.6971958,0.43562254,0.090451084,-0.041955397,0.39091986,-0.13491453,-0.49588233,-0.6930434,-0.055207055,785.7143,797.8022,796.1905,799.011,863.8828,-0.22216796875,0.06390380859375,0.9893798828125,-0.097198486328125,-7.559051513671875,-12.21710205078125,1,1.0,1.0,1.0,1.0,10.00
2024-10-11 20:26:46.204,0.12048019,1.0642165,0.9442747,0.7169828,0.28176653,0.9667028,0.680869,0.6641803,0.50856715,0.71568334,0.62504405,0.6971958,0.43562254,0.08947774,-0.04175129,0.39091986,-0.13491453,-0.46792436,-0.66960526,-0.055207055,795.38464,798.20514,797.8022,796.1905,840.9158,-0.22216796875,0.06390380859375,0.9893798828125,-0.097198486328125,-7.559051513671875,-12.21710205078125,1,1.0,1.0,1.0,1.0,10.00
2024-10-11 20:26:46.209,0.12048019,1.0642165,0.9442747,0.7169828,0.28176653,0.9667028,0.680869,0.6641803,0.50856715,0.71568334,0.62504405,0.6971958,0.43562254,0.08947774,-0.04175129,0.39091986,-0.13491453,-0.46792436,-0.66960526,-0.055207055,816.7399,797.3993,797.8022,792.5641,878.3883,-0.22216796875,0.06390380859375,0.9893798828125,-0.097198486328125,-7.559051513671875,-12.21710205078125,1,1.0,1.0,1.0,1.0,10.00
2024-10-11 20:26:46.209,0.12048019,1.0642165,0.9442747,0.7169828,0.28176653,0.9667028,0.680869,0.6641803,0.50856715,0.71568334,0.62504405,0.6971958,0.43562254,0.08947774,-0.04175129,0.39091986,-0.13491453,-0.46792436,-0.66960526,-0.055207055,841.31866,795.38464,794.57874,787.326,792.1612,-0.22216796875,0.06390380859375,0.9893798828125,-0.097198486328125,-7.559051513671875,-12.21710205078125,1,1.0,1.0,1.0,1.0,10.00
2024-10-11 20:26:46.210,0.12048019,1.0642165,0.9442747,0.7169828,0.28176653,0.9667028,0.680869,0.6641803,0.50856715,0.71568334,0.62504405,0.6971958,0.43562254,0.08947774,-0.04175129,0.39091986,-0.13491453,-0.46792436,-0.66960526,-0.055207055,859.0476,798.20514,796.5934,791.75824,685.38464,-0.22216796875,0.06390380859375,0.9893798828125,-0.097198486328125,-7.559051513671875,-12.21710205078125,1,1.0,1.0,1.0,1.0,10.00
2024-10-11 20:26:46.210,0.12048019,1.0642165,0.9442747,0.7169828,0.28176653,0.9667028,0.680869,0.6641803,0.50856715,0.71568334,0.62504405,0.6971958,0.43562254,0.08947774,-0.04175129,0.39091986,-0.13491453,-0.46792436,-0.66960526,-0.055207055,821.5751,800.2198,800.2198,799.41394,688.60803,-0.22216796875,0.06390380859375,0.9893798828125,-0.097198486328125,-7.559051513671875,-12.21710205078125,1,1.0,1.0,1.0,1.0,10.00
2024-10-11 20:26:46.233,0.12048019,1.0642165,0.9442747,0.7169828,0.28176653,0.9667028,0.680869,0.6641803,0.50856715,0.71568334,0.62504405,0.6971958,0.43562254,0.08947774,-0.04175129,0.39091986,-0.13491453,-0.46792436,-0.66960526,-0.055207055,761.13556,797.3993,804.2491,808.68134,786.1172,-0.19903564453125,0.0618896484375,0.98846435546875,-2.175750732421875,-8.44879150390625,-15.53680419921875,1,1.0,1.0,1.0,1.0,10.00
2024-10-11 20:26:46.234,0.12048019,1.0642165,0.9442747,0.7169828,0.28176653,0.9667028,0.680869,0.6641803,0.50856715,0.71568334,0.62504405,0.6971958,0.43562254,0.08947774,-0.04175129,0.39091986,-0.13491453,-0.46792436,-0.66960526,-0.055207055,752.27106,793.36993,804.2491,806.26373,662.8205,-0.19903564453125,0.0618896484375,0.98846435546875,-2.175750732421875,-8.44879150390625,-15.53680419921875,1,1.0,1.0,1.0,1.0,10.00
2024-10-11 20:26:46.234,0.12048019,1.0642165,0.9442747,0.7169828,0.28176653,0.9667028,0.680869,0.6641803,0.50856715,0.71568334,0.62504405,0.6971958,0.43562254,0.08947774,-0.04175129,0.39091986,-0.13491453,-0.46792436,-0.66960526,-0.055207055,759.5238,790.14655,804.2491,798.60803,534.68866,-0.19903564453125,0.0618896484375,0.98846435546875,-2.175750732421875,-8.44879150390625,-15.53680419921875,1,1.0,1.0,1.0,1.0,10.00
2024-10-11 20:26:46.235,0.12048019,1.0642165,0.9442747,0.7169828,0.28176653,0.9667028,0.680869,0.6641803,0.50856715,0.71568334,0.62504405,0.6971958,0.43562254,0.08947774,-0.04175129,0.39091986,-0.13491453,-0.46792436,-0.66960526,-0.055207055,769.59705,792.5641,804.2491,806.6667,677.72894,-0.19903564453125,0.0618896484375,0.98846435546875,-2.175750732421875,-8.44879150390625,-15.53680419921875,1,1.0,1.0,1.0,1.0,10.00
2024-10-11 20:26:46.235,0.12048019,1.0642165,0.9442747,0.7169828,0.28176653,0.9667028,0.680869,0.6641803,0.50856715,0.71568334,0.62504405,0.6971958,0.43562254,0.08947774,-0.04175129,0.39091986,-0.13491453,-0.46792436,-0.66960526,-0.055207055,779.2674,794.17584,799.81683,810.293,821.1722,-0.19903564453125,0.0618896484375,0.98846435546875,-2.175750732421875,-8.44879150390625,-15.53680419921875,1,1.0,1.0,1.0,1.0,10.00
2024-10-11 20:26:46.236,0.12048019,1.0642165,0.9442747,0.7169828,0.28176653,0.9667028,0.680869,0.6641803,0.50856715,0.71568334,0.62504405,0.6971958,0.43562254,0.08947774,-0.04175129,0.39091986,-0.13491453,-0.46792436,-0.66960526,-0.055207055,786.52014,794.9817,801.4286,808.68134,714.3956,-0.19903564453125,0.0618896484375,0.98846435546875,-2.175750732421875,-8.44879150390625,-15.53680419921875,1,1.0,1.0,1.0,1.0,10.00
2024-10-11 20:26:46.236,0.12048019,1.0642165,0.9442747,0.7169828,0.28176653,0.9667028,0.680869,0.6641803,0.50856715,0.71568334,0.62504405,0.6971958,0.43562254,0.08947774,-0.04175129,0.39091986,-0.13491453,-0.46792436,-0.66960526,-0.055207055,790.14655,796.5934,804.2491,807.47253,734.1392,-0.19903564453125,0.0618896484375,0.98846435546875,-2.175750732421875,-8.44879150390625,-15.53680419921875,1,1.0,1.0,1.0,1.0,10.00
2024-10-11 20:26:46.237,0.12048019,1.0642165,0.9442747,0.7169828,0.28176653,0.9667028,0.680869,0.6641803,0.50856715,0.71568334,0.62504405,0.6971958,0.43562254,0.08947774,-0.04175129,0.39091986,-0.13491453,-0.46792436,-0.66960526,-0.055207055,786.52014,796.5934,801.4286,806.26373,866.7033,-0.19903564453125,0.0618896484375,0.98846435546875,-2.175750732421875,-8.44879150390625,-15.53680419921875,1,1.0,1.0,1.0,1.0,10.00
2024-10-11 20:26:46.237,0.12048019,1.0642165,0.9442747,0.7169828,0.28176653,0.9667028,0.680869,0.6641803,0.50856715,0.71568334,0.62504405,0.6971958,0.43562254,0.08947774,-0.04175129,0.39091986,-0.13491453,-0.46792436,-0.66960526,-0.055207055,778.86444,797.3993,801.02563,815.5311,1181.7949,-0.19903564453125,0.0618896484375,0.98846435546875,-2.175750732421875,-8.44879150390625,-15.53680419921875,1,1.0,1.0,1.0,1.0,10.00
2024-10-11 20:26:46.238,0.12048019,1.0642165,0.9442747,0.7169828,0.28176653,0.9667028,0.680869,0.6641803,0.50856715,0.71568334,0.62504405,0.6971958,0.43562254,0.08947774,-0.04175129,0.39091986,-0.13491453,-0.46792436,-0.66960526,-0.055207055,778.86444,797.8022,802.6374,814.3223,1123.37,-0.19903564453125,0.0618896484375,0.98846435546875,-2.175750732421875,-8.44879150390625,-15.53680419921875,1,1.0,1.0,1.0,1.0,10.00
2024-10-11 20:26:46.239,0.12048019,1.0642165,0.9442747,0.7169828,0.28176653,0.9667028,0.680869,0.6641803,0.50856715,0.71568334,0.62504405,0.6971958,0.43562254,0.08947774,-0.04175129,0.39091986,-0.13491453,-0.46792436,-0.66960526,-0.055207055,774.83514,799.011,800.6227,805.4579,770.0,-0.19903564453125,0.0618896484375,0.98846435546875,-2.175750732421875,-8.44879150390625,-15.53680419921875,1,1.0,1.0,1.0,1.0,10.00
2024-10-11 20:26:46.239,0.12048019,1.0642165,0.9442747,0.7169828,0.28176653,0.9667028,0.680869,0.6641803,0.50856715,0.71568334,0.62504405,0.6971958,0.43562254,0.08947774,-0.04175129,0.39091986,-0.13491453,-0.46792436,-0.66960526,-0.055207055,775.64105,802.6374,801.02563,806.6667,763.5531,-0.19903564453125,0.0618896484375,0.98846435546875,-2.175750732421875,-8.44879150390625,-15.53680419921875,1,1.0,1.0,1.0,1.0,10.00
2024-10-11 20:26:46.333,0.12048019,1.0642165,0.9442747,0.7169828,0.28176653,0.9667028,0.680869,0.6641803,0.50856715,0.71568334,0.62504405,0.6971958,0.43562254,0.08947774,-0.04175129,0.39091986,-0.13491453,-0.46792436,-0.66960526,-0.055207055,789.34064,798.20514,800.6227,804.65204,702.3077,-0.17706298828125,0.04681396484375,0.99072265625,-1.936492919921875,-6.811370849609375,-13.690032958984375,1,1.0,1.0,1.0,1.0,10.00
2024-10-11 20:26:46.334,0.12048019,1.0642165,0.9442747,0.7169828,0.28176653,0.9667028,0.680869,0.6641803,0.50856715,0.71568334,0.62504405,0.6971958,0.43562254,0.08947774,-0.04175129,0.39091986,-0.13491453,-0.46792436,-0.66960526,-0.055207055,789.7436,794.9817,798.60803,807.47253,609.2308,-0.17706298828125,0.04681396484375,0.99072265625,-1.936492919921875,-6.811370849609375,-13.690032958984375,1,1.0,1.0,1.0,1.0,10.00
2024-10-11 20:26:46.335,0.12048019,1.0642165,0.9442747,0.7169828,0.28176653,0.9667028,0.680869,0.6641803,0.50856715,0.71568334,0.62504405,0.6971958,0.43562254,0.08947774,-0.04175129,0.39091986,-0.13491453,-0.46792436,-0.66960526,-0.055207055,790.54944,796.1905,805.05493,810.293,714.7985,-0.17706298828125,0.04681396484375,0.99072265625,-1.936492919921875,-6.811370849609375,-13.690032958984375,1,1.0,1.0,1.0,1.0,10.00
2024-10-11 20:26:46.335,0.12048019,1.0642165,0.9442747,0.7169828,0.28176653,0.9667028,0.680869,0.6641803,0.50856715,0.71568334,0.62504405,0.6971958,0.43562254,0.08947774,-0.04175129,0.39091986,-0.13491453,-0.46792436,-0.66960526,-0.055207055,796.5934,798.60803,803.44324,809.0842,880.0,-0.17706298828125,0.04681396484375,0.99072265625,-1.936492919921875,-6.811370849609375,-13.690032958984375,1,1.0,1.0,1.0,1.0,10.00
2024-10-11 20:26:46.336,0.12048019,1.0642165,0.9442747,0.7169828,0.28176653,0.9667028,0.680869,0.6641803,0.50856715,0.71568334,0.62504405,0.6971958,0.43562254,0.08947774,-0.04175129,0.39091986,-0.13491453,-0.46792436,-0.66960526,-0.055207055,795.38464,802.6374,800.2198,808.2784,745.0183,-0.17706298828125,0.04681396484375,0.99072265625,-1.936492919921875,-6.811370849609375,-13.690032958984375,1,1.0,1.0,1.0,1.0,10.00
2024-10-11 20:26:46.337,0.12048019,1.0642165,0.9442747,0.7169828,0.28176653,0.9667028,0.680869,0.6641803,0.50856715,0.71568334,0.62504405,0.6971958,0.43562254,0.08947774,-0.04175129,0.39091986,-0.13491453,-0.46792436,-0.66960526,-0.055207055,794.17584,803.8461,807.0696,802.23444,629.7802,-0.17706298828125,0.04681396484375,0.99072265625,-1.936492919921875,-6.811370849609375,-13.690032958984375,1,1.0,1.0,1.0,1.0,10.00
2024-10-11 20:26:46.337,0.12048019,1.0642165,0.9442747,0.7169828,0.28176653,0.9667028,0.680869,0.6641803,0.50856715,0.71568334,0.62504405,0.6971958,0.43562254,0.08947774,-0.04175129,0.39091986,-0.13491453,-0.46792436,-0.66960526,-0.055207055,795.78754,801.4286,804.65204,803.8461,743.00366,-0.17706298828125,0.04681396484375,0.99072265625,-1.936492919921875,-6.811370849609375,-13.690032958984375,1,1.0,1.0,1.0,1.0,10.00
2024-10-11 20:26:46.338,0.12048019,1.0642165,0.9442747,0.7169828,0.28176653,0.9667028,0.680869,0.6641803,0.50856715,0.71568334,0.62504405,0.6971958,0.43562254,0.08947774,-0.04175129,0.39091986,-0.13491453,-0.46792436,-0.66960526,-0.055207055,796.1905,800.2198,799.011,810.293,868.315,-0.17706298828125,0.04681396484375,0.99072265625,-1.936492919921875,-6.811370849609375,-13.690032958984375,1,1.0,1.0,1.0,1.0,10.00
2024-10-11 20:26:46.338,0.12048019,1.0642165,0.9442747,0.7169828,0.28176653,0.9667028,0.680869,0.6641803,0.50856715,0.71568334,0.62504405,0.6971958,0.43562254,0.08947774,-0.04175129,0.39091986,-0.13491453,-0.46792436,-0.66960526,-0.055207055,797.3993,802.6374,801.4286,805.05493,779.67035,-0.17706298828125,0.04681396484375,0.99072265625,-1.936492919921875,-6.811370849609375,-13.690032958984375,1,1.0,1.0,1.0,1.0,10.00
2024-10-11 20:26:46.339,0.12048019,1.0655639,0.9727081,0.7169828,0.28176653,0.96275896,0.6838022,0.6641803,0.50856715,0.7198093,0.62504405,0.6971958,0.43562254,0.074772604,-0.03538723,0.39091986,-0.13491453,-0.42927784,-0.6487952,-0.055207055,813.1135,804.2491,807.47253,803.0403,587.0696,-0.17706298828125,0.04681396484375,0.99072265625,-1.936492919921875,-6.811370849609375,-13.690032958984375,1,1.0,1.0,1.0,1.0,10.00
2024-10-11 20:26:46.343,0.12048019,1.0655639,0.9727081,0.7169828,0.28176653,0.96275896,0.6838022,0.6641803,0.50856715,0.7198093,0.62504405,0.6971958,0.43562254,0.074772604,-0.03538723,0.39091986,-0.13491453,-0.42927784,-0.6487952,-0.055207055,816.337,804.65204,806.26373,803.44324,597.1429,-0.17706298828125,0.04681396484375,0.99072265625,-1.936492919921875,-6.811370849609375,-13.690032958984375,1,1.0,1.0,1.0,1.0,10.00
2024-10-11 20:26:46.344,0.12048019,1.0655639,0.9727081,0.7169828,0.28176653,0.96275896,0.6838022,0.6641803,0.50856715,0.7198093,0.62504405,0.6971958,0.43562254,0.074772604,-0.03538723,0.39091986,-0.13491453,-0.42927784,-0.6487952,-0.055207055,794.57874,802.23444,802.23444,815.9341,1029.8901,-0.17706298828125,0.04681396484375,0.99072265625,-1.936492919921875,-6.811370849609375,-13.690032958984375,1,1.0,1.0,1.0,1.0,10.00
2024-10-11 20:26:46.345,0.12048019,1.0655639,0.9727081,0.7169828,0.28176653,0.96275896,0.6838022,0.6641803,0.50856715,0.7198093,0.62504405,0.6971958,0.43562254,0.074772604,-0.03538723,0.39091986,-0.13491453,-0.42927784,-0.6487952,-0.055207055,779.67035,803.0403,810.293,823.5897,973.8828,-0.17706298828125,0.04681396484375,0.99072265625,-1.936492919921875,-6.811370849609375,-13.690032958984375,1,1.0,1.0,1.0,1.0,10.00
2024-10-11 20:26:46.345,0.12048019,1.0655639,0.9727081,0.7169828,0.28176653,0.96275896,0.6838022,0.6641803,0.50856715,0.7198093,0.62504405,0.6971958,0.43562254,0.074772604,-0.03538723,0.39091986,-0.13491453,-0.42927784,-0.6487952,-0.055207055,777.25275,805.05493,816.337,815.9341,688.60803,-0.17706298828125,0.04681396484375,0.99072265625,-1.936492919921875,-6.811370849609375,-13.690032958984375,1,1.0,1.0,1.0,1.0,10.00
2024-10-11 20:26:46.346,0.12048019,1.0655639,0.9727081,0.7169828,0.28176653,0.96275896,0.6838022,0.6641803,0.50856715,0.7198093,0.62504405,0.6971958,0.43562254,0.074772604,-0.03538723,0.39091986,-0.13491453,-0.42927784,-0.6487952,-0.055207055,781.28204,801.8315,809.89014,812.71063,664.43225,-0.17706298828125,0.04681396484375,0.99072265625,-1.936492919921875,-6.811370849609375,-13.690032958984375,1,1.0,1.0,1.0,1.0,10.00
2024-10-11 20:26:46.346,0.12048019,1.0655639,0.9727081,0.7169828,0.28176653,0.96275896,0.6838022,0.6641803,0.50856715,0.7198093,0.62504405,0.6971958,0.43562254,0.074772604,-0.03538723,0.39091986,-0.13491453,-0.42927784,-0.6487952,-0.055207055,781.685,799.41394,801.8315,808.2784,677.72894,-0.17706298828125,0.04681396484375,0.99072265625,-1.936492919921875,-6.811370849609375,-13.690032958984375,1,1.0,1.0,1.0,1.0,10.00
2024-10-11 20:26:46.347,0.12048019,1.0655639,0.9727081,0.7169828,0.28176653,0.96275896,0.6838022,0.6641803,0.50856715,0.7198093,0.62504405,0.6971958,0.43562254,0.074772604,-0.03538723,0.39091986,-0.13491453,-0.42927784,-0.6487952,-0.055207055,793.36993,797.3993,804.65204,817.5458,798.60803,-0.17706298828125,0.04681396484375,0.99072265625,-1.936492919921875,-6.811370849609375,-13.690032958984375,1,1.0,1.0,1.0,1.0,10.00
2024-10-11 20:26:46.348,0.12048019,1.0655639,0.9727081,0.7169828,0.28176653,0.96275896,0.6838022,0.6641803,0.50856715,0.7198093,0.62504405,0.6971958,0.43562254,0.074772604,-0.03538723,0.39091986,-0.13491453,-0.42927784,-0.6487952,-0.055207055,804.2491,799.81683,806.26373,822.7839,865.89746,-0.17706298828125,0.04681396484375,0.99072265625,-1.936492919921875,-6.811370849609375,-13.690032958984375,1,1.0,1.0,1.0,1.0,10.00
2024-10-11 20:26:46.348,0.12048019,1.0655639,0.9727081,0.7169828,0.28176653,0.96275896,0.6838022,0.6641803,0.50856715,0.7198093,0.62504405,0.6971958,0.43562254,0.074772604,-0.03538723,0.39091986,-0.13491453,-0.42927784,-0.6487952,-0.055207055,779.2674,801.4286,799.41394,796.99634,918.68134,-0.17706298828125,0.04681396484375,0.99072265625,-1.936492919921875,-6.811370849609375,-13.690032958984375,1,1.0,1.0,1.0,1.0,10.00
2024-10-11 20:26:46.349,0.12048019,1.0655639,0.9727081,0.7169828,0.28176653,0.96275896,0.6838022,0.6641803,0.50856715,0.7198093,0.62504405,0.6971958,0.43562254,0.074772604,-0.03538723,0.39091986,-0.13491453,-0.42927784,-0.6487952,-0.055207055,779.67035,801.02563,798.20514,786.9231,790.54944,-0.17706298828125,0.04681396484375,0.99072265625,-1.936492919921875,-6.811370849609375,-13.690032958984375,1,1.0,1.0,1.0,1.0,10.00
2024-10-11 20:26:46.350,0.12048019,1.0655639,0.9727081,0.7169828,0.28176653,0.96275896,0.6838022,0.6641803,0.50856715,0.7198093,0.62504405,0.6971958,0.43562254,0.074772604,-0.03538723,0.39091986,-0.13491453,-0.42927784,-0.6487952,-0.055207055,779.2674,803.0403,797.3993,785.7143,676.1172,-0.17706298828125,0.04681396484375,0.99072265625,-1.936492919921875,-6.811370849609375,-13.690032958984375,1,1.0,1.0,1.0,1.0,10.00
2024-10-11 20:26:46.350,0.12048019,1.0655639,0.9727081,0.7169828,0.28176653,0.96275896,0.6838022,0.6641803,0.50856715,0.7198093,0.62504405,0.6971958,0.43562254,0.074772604,-0.03538723,0.39091986,-0.13491453,-0.42927784,-0.6487952,-0.055207055,766.77655,800.6227,792.96704,778.46155,762.3443,-0.17706298828125,0.04681396484375,0.99072265625,-1.936492919921875,-6.811370849609375,-13.690032958984375,1,1.0,1.0,1.0,1.0,10.00
2024-10-11 20:26:46.351,0.12048019,1.0655639,0.9727081,0.7169828,0.28176653,0.96275896,0.6838022,0.6641803,0.50856715,0.7198093,0.62504405,0.6971958,0.43562254,0.074772604,-0.03538723,0.39091986,-0.13491453,-0.42927784,-0.6487952,-0.055207055,778.46155,799.41394,796.1905,787.72894,853.8095,-0.17706298828125,0.04681396484375,0.99072265625,-1.936492919921875,-6.811370849609375,-13.690032958984375,1,1.0,1.0,1.0,1.0,10.00
2024-10-11 20:26:46.351,0.12048019,1.0655639,0.9727081,0.7169828,0.28176653,0.96275896,0.6838022,0.6641803,0.50856715,0.7198093,0.62504405,0.6971958,0.43562254,0.074772604,-0.03538723,0.39091986,-0.13491453,-0.42927784,-0.6487952,-0.055207055,783.69965,799.41394,794.57874,789.34064,800.6227,-0.17706298828125,0.04681396484375,0.99072265625,-1.936492919921875,-6.811370849609375,-13.690032958984375,1,1.0,1.0,1.0,1.0,10.00
2024-10-11 20:26:46.402,0.12048019,1.0655639,0.9727081,0.7169828,0.28176653,0.96275896,0.6838022,0.6641803,0.50856715,0.7198093,0.62504405,0.6971958,0.43562254,0.074772604,-0.03538723,0.39091986,-0.13491453,-0.42927784,-0.6487952,-0.055207055,778.46155,801.8315,792.1612,778.86444,697.8755,-0.1719970703125,0.0382080078125,0.9771728515625,-0.70281982421875,-6.38519287109375,-7.8955078125,1,1.0,1.0,1.0,1.0,10.00
2024-10-11 20:26:46.402,0.12048019,1.0655639,0.9727081,0.7169828,0.28176653,0.96275896,0.6838022,0.6641803,0.50856715,0.7198093,0.62504405,0.6971958,0.43562254,0.074772604,-0.03538723,0.39091986,-0.13491453,-0.42927784,-0.6487952,-0.055207055,778.46155,796.5934,793.7729,775.64105,626.55676,-0.1719970703125,0.0382080078125,0.9771728515625,-0.70281982421875,-6.38519287109375,-7.8955078125,1,1.0,1.0,1.0,1.0,10.00
2024-10-11 20:26:46.403,0.12048019,1.0655639,0.9727081,0.7169828,0.28176653,0.96275896,0.6838022,0.6641803,0.50856715,0.7198093,0.62504405,0.6971958,0.43562254,0.074772604,-0.03538723,0.39091986,-0.13491453,-0.42927784,-0.6487952,-0.055207055,784.10254,788.1319,792.1612,785.7143,888.46155,-0.1719970703125,0.0382080078125,0.9771728515625,-0.70281982421875,-6.38519287109375,-7.8955078125,1,1.0,1.0,1.0,1.0,10.00
2024-10-11 20:26:46.404,0.12048019,1.0655639,0.9727081,0.7169828,0.28176653,0.96275896,0.6838022,0.6641803,0.50856715,0.7198093,0.62504405,0.6971958,0.43562254,0.074772604,-0.03538723,0.39091986,-0.13491453,-0.42927784,-0.6487952,-0.055207055,784.10254,792.96704,793.36993,788.5348,1041.978,-0.1719970703125,0.0382080078125,0.9771728515625,-0.70281982421875,-6.38519287109375,-7.8955078125,1,1.0,1.0,1.0,1.0,10.00
2024-10-11 20:26:46.404,0.12048019,1.0655639,0.9727081,0.7169828,0.28176653,0.96275896,0.6838022,0.6641803,0.50856715,0.7198093,0.62504405,0.6971958,0.43562254,0.074772604,-0.03538723,0.39091986,-0.13491453,-0.42927784,-0.6487952,-0.055207055,784.90845,793.36993,793.36993,778.46155,788.5348,-0.1719970703125,0.0382080078125,0.9771728515625,-0.70281982421875,-6.38519287109375,-7.8955078125,1,1.0,1.0,1.0,1.0,10.00
2024-10-11 20:26:46.405,0.12048019,1.0655639,0.9727081,0.7169828,0.28176653,0.96275896,0.6838022,0.6641803,0.50856715,0.7198093,0.62504405,0.6971958,0.43562254,0.074772604,-0.03538723,0.39091986,-0.13491453,-0.42927784,-0.6487952,-0.055207055,790.54944,791.75824,792.96704,784.90845,884.0293,-0.1719970703125,0.0382080078125,0.9771728515625,-0.70281982421875,-6.38519287109375,-7.8955078125,1,1.0,1.0,1.0,1.0,10.00
2024-10-11 20:26:46.405,0.12048019,1.0655639,0.9727081,0.7169828,0.28176653,0.96275896,0.6838022,0.6641803,0.50856715,0.7198093,0.62504405,0.6971958,0.43562254,0.074772604,-0.03538723,0.39091986,-0.13491453,-0.42927784,-0.6487952,-0.055207055,794.9817,790.14655,795.78754,795.38464,1193.0769,-0.1719970703125,0.0382080078125,0.9771728515625,-0.70281982421875,-6.38519287109375,-7.8955078125,1,1.0,1.0,1.0,1.0,10.00
2024-10-11 20:26:46.406,0.12048019,1.0655639,0.9727081,0.7169828,0.28176653,0.96275896,0.6838022,0.6641803,0.50856715,0.7198093,0.62504405,0.6971958,0.43562254,0.074772604,-0.03538723,0.39091986,-0.13491453,-0.42927784,-0.6487952,-0.055207055,795.78754,792.1612,795.78754,795.78754,951.7216,-0.1719970703125,0.0382080078125,0.9771728515625,-0.70281982421875,-6.38519287109375,-7.8955078125,1,1.0,1.0,1.0,1.0,10.00
2024-10-11 20:26:46.407,0.12048019,1.0655639,0.9727081,0.7169828,0.28176653,0.96275896,0.6838022,0.6641803,0.50856715,0.7198093,0.62504405,0.6971958,0.43562254,0.074772604,-0.03538723,0.39091986,-0.13491453,-0.42927784,-0.6487952,-0.055207055,792.5641,795.38464,796.1905,796.99634,604.3956,-0.1719970703125,0.0382080078125,0.9771728515625,-0.70281982421875,-6.38519287109375,-7.8955078125,1,1.0,1.0,1.0,1.0,10.00
2024-10-11 20:26:46.407,0.12048019,1.0655639,0.9727081,0.7169828,0.28176653,0.96275896,0.6838022,0.6641803,0.50856715,0.7198093,0.62504405,0.6971958,0.43562254,0.074772604,-0.03538723,0.39091986,-0.13491453,-0.42927784,-0.6487952,-0.055207055,796.5934,795.78754,795.38464,794.57874,699.89014,-0.1719970703125,0.0382080078125,0.9771728515625,-0.70281982421875,-6.38519287109375,-7.8955078125,1,1.0,1.0,1.0,1.0,10.00
2024-10-11 20:26:46.408,0.12048019,1.0655639,0.9727081,0.7169828,0.28176653,0.96275896,0.6838022,0.6641803,0.50856715,0.7198093,0.62504405,0.6971958,0.43562254,0.074772604,-0.03538723,0.39091986,-0.13491453,-0.42927784,-0.6487952,-0.055207055,797.3993,795.38464,797.3993,798.20514,1006.9231,-0.1719970703125,0.0382080078125,0.9771728515625,-0.70281982421875,-6.38519287109375,-7.8955078125,1,1.0,1.0,1.0,1.0,10.00
2024-10-11 20:26:46.408,0.12048019,1.0622622,1.0313259,0.7169828,0.28176653,0.9600424,0.7095839,0.6641803,0.50856715,0.7208918,0.62881136,0.6971958,0.43562254,0.04567708,-0.029402833,0.39091986,-0.13491453,-0.3960414,-0.63259655,-0.055207055,786.9231,796.99634,798.20514,799.81683,774.0293,-0.1719970703125,0.0382080078125,0.9771728515625,-0.70281982421875,-6.38519287109375,-7.8955078125,1,1.0,1.0,1.0,1.0,10.00
2024-10-11 20:26:46.468,0.12048019,1.0622622,1.0313259,0.7169828,0.28176653,0.9600424,0.7095839,0.6641803,0.50856715,0.7208918,0.62881136,0.6971958,0.43562254,0.04567708,-0.029402833,0.39091986,-0.13491453,-0.3960414,-0.63259655,-0.055207055,781.685,799.41394,798.60803,803.8461,564.10254,-0.18560791015625,0.037353515625,0.9794921875,1.614990234375,-2.43743896484375,0.6280517578125,1,1.0,1.0,1.0,1.0,10.00
2024-10-11 20:26:46.469,0.12048019,1.0622622,1.0313259,0.7169828,0.28176653,0.9600424,0.7095839,0.6641803,0.50856715,0.7208918,0.62881136,0.6971958,0.43562254,0.04567708,-0.029402833,0.39091986,-0.13491453,-0.3960414,-0.63259655,-0.055207055,791.75824,795.38464,798.60803,808.68134,721.2454,-0.18560791015625,0.037353515625,0.9794921875,1.614990234375,-2.43743896484375,0.6280517578125,1,1.0,1.0,1.0,1.0,10.00
2024-10-11 20:26:46.470,0.12048019,1.0622622,1.0313259,0.7169828,0.28176653,0.9600424,0.7095839,0.6641803,0.50856715,0.7208918,0.62881136,0.6971958,0.43562254,0.04567708,-0.029402833,0.39091986,-0.13491453,-0.3960414,-0.63259655,-0.055207055,798.60803,792.96704,800.6227,807.8755,831.6484,-0.18560791015625,0.037353515625,0.9794921875,1.614990234375,-2.43743896484375,0.6280517578125,1,1.0,1.0,1.0,1.0,10.00
2024-10-11 20:26:46.470,0.12048019,1.0622622,1.0313259,0.7169828,0.28176653,0.9600424,0.7095839,0.6641803,0.50856715,0.7208918,0.62881136,0.6971958,0.43562254,0.04567708,-0.029402833,0.39091986,-0.13491453,-0.3960414,-0.63259655,-0.055207055,792.1612,795.38464,801.4286,811.0989,782.49084,-0.18560791015625,0.037353515625,0.9794921875,1.614990234375,-2.43743896484375,0.6280517578125,1,1.0,1.0,1.0,1.0,10.00
2024-10-11 20:26:46.471,0.12048019,1.0622622,1.0313259,0.7169828,0.28176653,0.9600424,0.7095839,0.6641803,0.50856715,0.7208918,0.62881136,0.6971958,0.43562254,0.04567708,-0.029402833,0.39091986,-0.13491453,-0.3960414,-0.63259655,-0.055207055,790.14655,796.1905,799.81683,811.9048,711.5751,-0.18560791015625,0.037353515625,0.9794921875,1.614990234375,-2.43743896484375,0.6280517578125,1,1.0,1.0,1.0,1.0,10.00
2024-10-11 20:26:46.472,0.12048019,1.0622622,1.0313259,0.7169828,0.28176653,0.9600424,0.7095839,0.6641803,0.50856715,0.7208918,0.62881136,0.6971958,0.43562254,0.04567708,-0.029402833,0.39091986,-0.13491453,-0.3960414,-0.63259655,-0.055207055,794.9817,793.36993,805.4579,809.0842,952.9304,-0.18560791015625,0.037353515625,0.9794921875,1.614990234375,-2.43743896484375,0.6280517578125,1,1.0,1.0,1.0,1.0,10.00
2024-10-11 20:26:46.472,0.12048019,1.0622622,1.0313259,0.7169828,0.28176653,0.9600424,0.7095839,0.6641803,0.50856715,0.7208918,0.62881136,0.6971958,0.43562254,0.04567708,-0.029402833,0.39091986,-0.13491453,-0.3960414,-0.63259655,-0.055207055,801.8315,796.1905,802.23444,811.0989,989.59705,-0.18560791015625,0.037353515625,0.9794921875,1.614990234375,-2.43743896484375,0.6280517578125,1,1.0,1.0,1.0,1.0,10.00
2024-10-11 20:26:46.473,0.12048019,1.0622622,1.0313259,0.7169828,0.28176653,0.9600424,0.7095839,0.6641803,0.50856715,0.7208918,0.62881136,0.6971958,0.43562254,0.04567708,-0.029402833,0.39091986,-0.13491453,-0.3960414,-0.63259655,-0.055207055,802.23444,796.5934,795.38464,802.23444,726.08057,-0.18560791015625,0.037353515625,0.9794921875,1.614990234375,-2.43743896484375,0.6280517578125,1,1.0,1.0,1.0,1.0,10.00
2024-10-11 20:26:46.473,0.12048019,1.0622622,1.0313259,0.7169828,0.28176653,0.9600424,0.7095839,0.6641803,0.50856715,0.7208918,0.62881136,0.6971958,0.43562254,0.04567708,-0.029402833,0.39091986,-0.13491453,-0.3960414,-0.63259655,-0.055207055,804.2491,792.5641,798.20514,792.96704,609.6337,-0.18560791015625,0.037353515625,0.9794921875,1.614990234375,-2.43743896484375,0.6280517578125,1,1.0,1.0,1.0,1.0,10.00
2024-10-11 20:26:46.474,0.12048019,1.0622622,1.0313259,0.7169828,0.28176653,0.9600424,0.7095839,0.6641803,0.50856715,0.7208918,0.62881136,0.6971958,0.43562254,0.04567708,-0.029402833,0.39091986,-0.13491453,-0.3960414,-0.63259655,-0.055207055,809.0842,795.38464,795.78754,804.2491,819.9634,-0.18560791015625,0.037353515625,0.9794921875,1.614990234375,-2.43743896484375,0.6280517578125,1,1.0,1.0,1.0,1.0,10.00
2024-10-11 20:26:46.474,0.12048019,1.0622622,1.0313259,0.7169828,0.28176653,0.9600424,0.7095839,0.6641803,0.50856715,0.7208918,0.62881136,0.6971958,0.43562254,0.04567708,-0.029402833,0.39091986,-0.13491453,-0.3960414,-0.63259655,-0.055207055,804.65204,798.60803,796.5934,812.71063,873.1502,-0.18560791015625,0.037353515625,0.9794921875,1.614990234375,-2.43743896484375,0.6280517578125,1,1.0,1.0,1.0,1.0,10.00
2024-10-11 20:26:46.475,0.12048019,1.0622622,1.0313259,0.7169828,0.28176653,0.9600424,0.7095839,0.6641803,0.50856715,0.7208918,0.62881136,0.6971958,0.43562254,0.04567708,-0.029402833,0.39091986,-0.13491453,-0.3960414,-0.63259655,-0.055207055,790.9524,797.8022,800.6227,804.2491,679.34064,-0.18560791015625,0.037353515625,0.9794921875,1.614990234375,-2.43743896484375,0.6280517578125,1,1.0,1.0,1.0,1.0,10.00
2024-10-11 20:26:46.504,0.12048019,1.0622622,1.0313259,0.7169828,0.28176653,0.9600424,0.7095839,0.6641803,0.50856715,0.7208918,0.62881136,0.6971958,0.43562254,0.04567708,-0.029402833,0.39091986,-0.13491453,-0.3960414,-0.63259655,-0.055207055,786.52014,794.57874,802.6374,800.6227,688.60803,-0.21124267578125,0.05224609375,0.98077392578125,1.054229736328125,0.35888671875,6.34033203125,1,1.0,1.0,1.0,1.0,10.00
2024-10-11 20:26:46.505,0.12048019,1.0622622,1.0313259,0.7169828,0.28176653,0.9600424,0.7095839,0.6641803,0.50856715,0.7208918,0.62881136,0.6971958,0.43562254,0.04567708,-0.029402833,0.39091986,-0.13491453,-0.3960414,-0.63259655,-0.055207055,791.3553,793.7729,802.23444,807.0696,922.71063,-0.21124267578125,0.05224609375,0.98077392578125,1.054229736328125,0.35888671875,6.34033203125,1,1.0,1.0,1.0,1.0,10.00
2024-10-11 20:26:46.505,0.12048019,1.0622622,1.0313259,0.7169828,0.28176653,0.9600424,0.7095839,0.6641803,0.50856715,0.7208918,0.62881136,0.6971958,0.43562254,0.04567708,-0.029402833,0.39091986,-0.13491453,-0.3960414,-0.63259655,-0.055207055,790.14655,797.3993,799.81683,807.47253,898.5348,-0.21124267578125,0.05224609375,0.98077392578125,1.054229736328125,0.35888671875,6.34033203125,1,1.0,1.0,1.0,1.0,10.00
2024-10-11 20:26:46.506,0.12048019,1.0622622,1.0313259,0.7169828,0.28176653,0.9600424,0.7095839,0.6641803,0.50856715,0.7208918,0.62881136,0.6971958,0.43562254,0.04567708,-0.029402833,0.39091986,-0.13491453,-0.3960414,-0.63259655,-0.055207055,794.17584,799.81683,801.02563,802.6374,732.52747,-0.21124267578125,0.05224609375,0.98077392578125,1.054229736328125,0.35888671875,6.34033203125,1,1.0,1.0,1.0,1.0,10.00
2024-10-11 20:26:46.507,0.12048019,1.0622622,1.0313259,0.7169828,0.28176653,0.9600424,0.7095839,0.6641803,0.50856715,0.7208918,0.62881136,0.6971958,0.43562254,0.04567708,-0.029402833,0.39091986,-0.13491453,-0.3960414,-0.63259655,-0.055207055,791.75824,792.1612,796.5934,802.6374,708.3516,-0.21124267578125,0.05224609375,0.98077392578125,1.054229736328125,0.35888671875,6.34033203125,1,1.0,1.0,1.0,1.0,10.00
2024-10-11 20:26:46.508,0.12048019,1.0622622,1.0313259,0.7169828,0.28176653,0.9600424,0.7095839,0.6641803,0.50856715,0.7208918,0.62881136,0.6971958,0.43562254,0.04567708,-0.029402833,0.39091986,-0.13491453,-0.3960414,-0.63259655,-0.055207055,778.46155,787.72894,793.7729,799.81683,869.5238,-0.21124267578125,0.05224609375,0.98077392578125,1.054229736328125,0.35888671875,6.34033203125,1,1.0,1.0,1.0,1.0,10.00
2024-10-11 20:26:46.508,0.12048019,1.0622622,1.0313259,0.7169828,0.28176653,0.9600424,0.7095839,0.6641803,0.50856715,0.7208918,0.62881136,0.6971958,0.43562254,0.04567708,-0.029402833,0.39091986,-0.13491453,-0.3960414,-0.63259655,-0.055207055,770.40295,790.9524,796.1905,796.99634,866.7033,-0.21124267578125,0.05224609375,0.98077392578125,1.054229736328125,0.35888671875,6.34033203125,1,1.0,1.0,1.0,1.0,10.00
2024-10-11 20:26:46.509,0.12048019,1.0622622,1.0313259,0.7169828,0.28176653,0.9600424,0.7095839,0.6641803,0.50856715,0.7208918,0.62881136,0.6971958,0.43562254,0.04567708,-0.029402833,0.39091986,-0.13491453,-0.3960414,-0.63259655,-0.055207055,777.6557,793.36993,796.99634,792.1612,647.1062,-0.21124267578125,0.05224609375,0.98077392578125,1.054229736328125,0.35888671875,6.34033203125,1,1.0,1.0,1.0,1.0,10.00
2024-10-11 20:26:46.510,0.12048019,1.0622622,1.0313259,0.7169828,0.28176653,0.9600424,0.7095839,0.6641803,0.50856715,0.7208918,0.62881136,0.6971958,0.43562254,0.04567708,-0.029402833,0.39091986,-0.13491453,-0.3960414,-0.63259655,-0.055207055,782.49084,791.75824,796.5934,794.57874,745.42126,-0.21124267578125,0.05224609375,0.98077392578125,1.054229736328125,0.35888671875,6.34033203125,1,1.0,1.0,1.0,1.0,10.00
2024-10-11 20:26:46.510,0.12048019,1.0622622,1.0313259,0.7169828,0.28176653,0.9600424,0.7095839,0.6641803,0.50856715,0.7208918,0.62881136,0.6971958,0.43562254,0.04567708,-0.029402833,0.39091986,-0.13491453,-0.3960414,-0.63259655,-0.055207055,784.5055,790.54944,798.60803,805.8608,1054.0659,-0.21124267578125,0.05224609375,0.98077392578125,1.054229736328125,0.35888671875,6.34033203125,1,1.0,1.0,1.0,1.0,10.00
2024-10-11 20:26:46.511,0.12048019,1.0622622,1.0313259,0.7169828,0.28176653,0.9600424,0.7095839,0.6641803,0.50856715,0.7208918,0.62881136,0.6971958,0.43562254,0.04567708,-0.029402833,0.39091986,-0.13491453,-0.3960414,-0.63259655,-0.055207055,791.75824,798.60803,802.23444,803.8461,951.31866,-0.21124267578125,0.05224609375,0.98077392578125,1.054229736328125,0.35888671875,6.34033203125,1,1.0,1.0,1.0,1.0,10.00
2024-10-11 20:26:46.512,0.12048019,1.0622622,1.0313259,0.7169828,0.28176653,0.9600424,0.7095839,0.6641803,0.50856715,0.7208918,0.62881136,0.6971958,0.43562254,0.04567708,-0.029402833,0.39091986,-0.13491453,-0.3960414,-0.63259655,-0.055207055,791.3553,801.8315,803.0403,799.011,730.10986,-0.21124267578125,0.05224609375,0.98077392578125,1.054229736328125,0.35888671875,6.34033203125,1,1.0,1.0,1.0,1.0,10.00
2024-10-11 20:26:46.538,0.12048019,1.0622622,1.0313259,0.7169828,0.28176653,0.9600424,0.7095839,0.6641803,0.50856715,0.7208918,0.62881136,0.6971958,0.43562254,0.04567708,-0.029402833,0.39091986,-0.13491453,-0.3960414,-0.63259655,-0.055207055,786.9231,796.99634,799.011,794.9817,810.696,-0.23468017578125,0.053955078125,0.98040771484375,0.216827392578125,0.650482177734375,5.084228515625,1,1.0,1.0,1.0,1.0,10.00
2024-10-11 20:26:46.538,0.520903,1.0578535,1.0790509,1.144445,0.5711316,0.9501117,0.7474163,0.6584744,0.72181714,0.72059846,0.53653574,0.8779599,0.98817486,0.004203528,-0.028702838,0.49108016,0.43022043,-0.38198876,-0.63482773,0.23076825,785.7143,796.1905,797.3993,787.326,950.5128,-0.23468017578125,0.053955078125,0.98040771484375,0.216827392578125,0.650482177734375,5.084228515625,1,1.0,1.0,1.0,1.0,10.00
2024-10-11 20:26:46.544,0.520903,1.0578535,1.0790509,1.144445,0.5711316,0.9501117,0.7474163,0.6584744,0.72181714,0.72059846,0.53653574,0.8779599,0.98817486,0.004203528,-0.028702838,0.49108016,0.43022043,-0.38198876,-0.63482773,0.23076825,791.75824,797.8022,800.2198,788.93774,851.39197,-0.23468017578125,0.053955078125,0.98040771484375,0.216827392578125,0.650482177734375,5.084228515625,1,1.0,1.0,1.0,1.0,10.00
2024-10-11 20:26:46.544,0.520903,1.0578535,1.0790509,1.144445,0.5711316,0.9501117,0.7474163,0.6584744,0.72181714,0.72059846,0.53653574,0.8779599,0.98817486,0.004203528,-0.028702838,0.49108016,0.43022043,-0.38198876,-0.63482773,0.23076825,790.54944,801.4286,799.81683,792.96704,707.1429,-0.23468017578125,0.053955078125,0.98040771484375,0.216827392578125,0.650482177734375,5.084228515625,1,1.0,1.0,1.0,1.0,10.00
2024-10-11 20:26:46.545,0.520903,1.0578535,1.0790509,1.144445,0.5711316,0.9501117,0.7474163,0.6584744,0.72181714,0.72059846,0.53653574,0.8779599,0.98817486,0.004203528,-0.028702838,0.49108016,0.43022043,-0.38198876,-0.63482773,0.23076825,788.1319,802.23444,796.5934,795.38464,772.01465,-0.23468017578125,0.053955078125,0.98040771484375,0.216827392578125,0.650482177734375,5.084228515625,1,1.0,1.0,1.0,1.0,10.00
2024-10-11 20:26:46.545,0.520903,1.0578535,1.0790509,1.144445,0.5711316,0.9501117,0.7474163,0.6584744,0.72181714,0.72059846,0.53653574,0.8779599,0.98817486,0.004203528,-0.028702838,0.49108016,0.43022043,-0.38198876,-0.63482773,0.23076825,792.96704,799.81683,798.20514,794.57874,931.5751,-0.23468017578125,0.053955078125,0.98040771484375,0.216827392578125,0.650482177734375,5.084228515625,1,1.0,1.0,1.0,1.0,10.00
2024-10-11 20:26:46.546,0.520903,1.0578535,1.0790509,1.144445,0.5711316,0.9501117,0.7474163,0.6584744,0.72181714,0.72059846,0.53653574,0.8779599,0.98817486,0.004203528,-0.028702838,0.49108016,0.43022043,-0.38198876,-0.63482773,0.23076825,796.99634,799.81683,798.60803,794.17584,823.1868,-0.23468017578125,0.053955078125,0.98040771484375,0.216827392578125,0.650482177734375,5.084228515625,1,1.0,1.0,1.0,1.0,10.00
2024-10-11 20:26:46.547,0.520903,1.0578535,1.0790509,1.144445,0.5711316,0.9501117,0.7474163,0.6584744,0.72181714,0.72059846,0.53653574,0.8779599,0.98817486,0.004203528,-0.028702838,0.49108016,0.43022043,-0.38198876,-0.63482773,0.23076825,798.60803,798.20514,794.9817,799.011,771.2088,-0.23468017578125,0.053955078125,0.98040771484375,0.216827392578125,0.650482177734375,5.084228515625,1,1.0,1.0,1.0,1.0,10.00
2024-10-11 20:26:46.547,0.520903,1.0578535,1.0790509,1.144445,0.5711316,0.9501117,0.7474163,0.6584744,0.72181714,0.72059846,0.53653574,0.8779599,0.98817486,0.004203528,-0.028702838,0.49108016,0.43022043,-0.38198876,-0.63482773,0.23076825,799.81683,795.38464,801.4286,801.8315,902.5641,-0.23468017578125,0.053955078125,0.98040771484375,0.216827392578125,0.650482177734375,5.084228515625,1,1.0,1.0,1.0,1.0,10.00
2024-10-11 20:26:46.548,0.520903,1.0578535,1.0790509,1.144445,0.5711316,0.9501117,0.7474163,0.6584744,0.72181714,0.72059846,0.53653574,0.8779599,0.98817486,0.004203528,-0.028702838,0.49108016,0.43022043,-0.38198876,-0.63482773,0.23076825,798.60803,796.99634,801.02563,793.7729,1016.1905,-0.23468017578125,0.053955078125,0.98040771484375,0.216827392578125,0.650482177734375,5.084228515625,1,1.0,1.0,1.0,1.0,10.00
2024-10-11 20:26:46.548,0.520903,1.0578535,1.0790509,1.144445,0.5711316,0.9501117,0.7474163,0.6584744,0.72181714,0.72059846,0.53653574,0.8779599,0.98817486,0.004203528,-0.028702838,0.49108016,0.43022043,-0.38198876,-0.63482773,0.23076825,801.02563,797.3993,795.38464,788.5348,683.7729,-0.23468017578125,0.053955078125,0.98040771484375,0.216827392578125,0.650482177734375,5.084228515625,1,1.0,1.0,1.0,1.0,10.00
