TimeStamp,Delta_TP9,Delta_AF7,Delta_AF8,Delta_TP10,Theta_TP9,Theta_AF7,Theta_AF8,Theta_TP10,Alpha_TP9,Alpha_AF7,Alpha_AF8,Alpha_TP10,Beta_TP9,Beta_AF7,Beta_AF8,Beta_TP10,Gamma_TP9,Gamma_AF7,Gamma_AF8,Gamma_TP10,RAW_TP9,RAW_AF7,RAW_AF8,RAW_TP10,AUX_RIGHT,Accelerometer_X,Accelerometer_Y,Accelerometer_Z,Gyro_X,Gyro_Y,Gyro_Z,HeadBandOn,HSI_TP9,HSI_AF7,HSI_AF8,HSI_TP10,Battery,Elements
2024-10-11 20:28:31.102,0.3177837,0.023353428,0.75911105,0.6038736,0.26532915,-0.09733459,0.45954418,0.39616627,0.46976784,-0.029198594,0.4544886,0.7443908,0.43329644,-0.03567028,0.3376146,0.5985382,0.09098378,-0.2184054,-0.270461,-0.15655938,790.54944,794.9817,804.2491,805.05493,876.77655,-0.142822265625,-0.00482177734375,1.00146484375,-3.00567626953125,-3.81317138671875,-5.585174560546875,1,1.0,1.0,1.0,1.0,10.00
2024-10-11 20:28:31.103,0.3177837,0.023353428,0.75911105,0.6038736,0.26532915,-0.09733459,0.45954418,0.39616627,0.46976784,-0.029198594,0.4544886,0.7443908,0.43329644,-0.03567028,0.3376146,0.5985382,0.09098378,-0.2184054,-0.270461,-0.15655938,790.9524,794.57874,804.65204,800.6227,869.92676,-0.142822265625,-0.00482177734375,1.00146484375,-3.00567626953125,-3.81317138671875,-5.585174560546875,1,1.0,1.0,1.0,1.0,10.00
2024-10-11 20:28:31.104,0.3177837,0.023353428,0.75911105,0.6038736,0.26532915,-0.09733459,0.45954418,0.39616627,0.46976784,-0.029198594,0.4544886,0.7443908,0.43329644,-0.03567028,0.3376146,0.5985382,0.09098378,-0.2184054,-0.270461,-0.15655938,792.1612,797.3993,801.8315,794.9817,696.6667,-0.142822265625,-0.00482177734375,1.00146484375,-3.00567626953125,-3.81317138671875,-5.585174560546875,1,1.0,1.0,1.0,1.0,10.00
2024-10-11 20:28:31.105,0.3177837,0.023353428,0.75911105,0.6038736,0.26532915,-0.09733459,0.45954418,0.39616627,0.46976784,-0.029198594,0.4544886,0.7443908,0.43329644,-0.03567028,0.3376146,0.5985382,0.09098378,-0.2184054,-0.270461,-0.15655938,791.3553,794.57874,796.99634,796.5934,789.34064,-0.142822265625,-0.00482177734375,1.00146484375,-3.00567626953125,-3.81317138671875,-5.585174560546875,1,1.0,1.0,1.0,1.0,10.00
2024-10-11 20:28:31.106,0.3177837,0.023353428,0.75911105,0.6038736,0.26532915,-0.09733459,0.45954418,0.39616627,0.46976784,-0.029198594,0.4544886,0.7443908,0.43329644,-0.03567028,0.3376146,0.5985382,0.09098378,-0.2184054,-0.270461,-0.15655938,792.5641,793.7729,804.65204,803.44324,963.00366,-0.142822265625,-0.00482177734375,1.00146484375,-3.00567626953125,-3.81317138671875,-5.585174560546875,1,1.0,1.0,1.0,1.0,10.00
2024-10-11 20:28:31.107,0.3177837,0.023353428,0.75911105,0.6038736,0.26532915,-0.09733459,0.45954418,0.39616627,0.46976784,-0.029198594,0.4544886,0.7443908,0.43329644,-0.03567028,0.3376146,0.5985382,0.09098378,-0.2184054,-0.270461,-0.15655938,792.96704,797.8022,805.8608,803.0403,872.74725,-0.142822265625,-0.00482177734375,1.00146484375,-3.00567626953125,-3.81317138671875,-5.585174560546875,1,1.0,1.0,1.0,1.0,10.00
2024-10-11 20:28:31.108,0.3177837,0.023353428,0.75911105,0.6038736,0.26532915,-0.09733459,0.45954418,0.39616627,0.46976784,-0.029198594,0.4544886,0.7443908,0.43329644,-0.03567028,0.3376146,0.5985382,0.09098378,-0.2184054,-0.270461,-0.15655938,794.9817,798.60803,805.05493,796.5934,795.38464,-0.142822265625,-0.00482177734375,1.00146484375,-3.00567626953125,-3.81317138671875,-5.585174560546875,1,1.0,1.0,1.0,1.0,10.00
2024-10-11 20:28:31.109,0.32187358,-0.018454678,0.74612623,0.6046648,0.25987187,-0.097188614,0.4635539,0.40807566,0.45888242,-0.024981074,0.4544886,0.74550384,0.44299865,-0.047200967,0.3481537,0.6038879,0.09839877,-0.2237893,-0.26548493,-0.15627187,802.6374,801.4286,804.2491,799.81683,854.21246,-0.142822265625,-0.00482177734375,1.00146484375,-3.00567626953125,-3.81317138671875,-5.585174560546875,1,1.0,1.0,1.0,1.0,10.00
2024-10-11 20:28:31.114,0.32187358,-0.018454678,0.74612623,0.6046648,0.25987187,-0.097188614,0.4635539,0.40807566,0.45888242,-0.024981074,0.4544886,0.74550384,0.44299865,-0.047200967,0.3481537,0.6038879,0.09839877,-0.2237893,-0.26548493,-0.15627187,805.8608,804.2491,805.8608,802.6374,894.90845,-0.142822265625,-0.00482177734375,1.00146484375,-3.00567626953125,-3.81317138671875,-5.585174560546875,1,1.0,1.0,1.0,1.0,10.00
2024-10-11 20:28:31.115,0.32187358,-0.018454678,0.74612623,0.6046648,0.25987187,-0.097188614,0.4635539,0.40807566,0.45888242,-0.024981074,0.4544886,0.74550384,0.44299865,-0.047200967,0.3481537,0.6038879,0.09839877,-0.2237893,-0.26548493,-0.15627187,811.0989,801.8315,808.68134,802.23444,862.674,-0.142822265625,-0.00482177734375,1.00146484375,-3.00567626953125,-3.81317138671875,-5.585174560546875,1,1.0,1.0,1.0,1.0,10.00
2024-10-11 20:28:31.116,0.32187358,-0.018454678,0.74612623,0.6046648,0.25987187,-0.097188614,0.4635539,0.40807566,0.45888242,-0.024981074,0.4544886,0.74550384,0.44299865,-0.047200967,0.3481537,0.6038879,0.09839877,-0.2237893,-0.26548493,-0.15627187,813.5165,797.3993,804.2491,796.1905,712.7839,-0.142822265625,-0.00482177734375,1.00146484375,-3.00567626953125,-3.81317138671875,-5.585174560546875,1,1.0,1.0,1.0,1.0,10.00
2024-10-11 20:28:31.117,0.32187358,-0.018454678,0.74612623,0.6046648,0.25987187,-0.097188614,0.4635539,0.40807566,0.45888242,-0.024981074,0.4544886,0.74550384,0.44299865,-0.047200967,0.3481537,0.6038879,0.09839877,-0.2237893,-0.26548493,-0.15627187,809.4872,797.8022,800.2198,795.78754,765.16486,-0.142822265625,-0.00482177734375,1.00146484375,-3.00567626953125,-3.81317138671875,-5.585174560546875,1,1.0,1.0,1.0,1.0,10.00
2024-10-11 20:28:31.160,0.32187358,-0.018454678,0.74612623,0.6046648,0.25987187,-0.097188614,0.4635539,0.40807566,0.45888242,-0.024981074,0.4544886,0.74550384,0.44299865,-0.047200967,0.3481537,0.6038879,0.09839877,-0.2237893,-0.26548493,-0.15627187,801.4286,793.7729,802.23444,805.4579,1098.7913,-0.143798828125,-0.00177001953125,0.99554443359375,-2.968292236328125,-2.691650390625,-2.803802490234375,1,1.0,1.0,1.0,1.0,10.00
2024-10-11 20:28:31.161,0.32187358,-0.018454678,0.74612623,0.6046648,0.25987187,-0.097188614,0.4635539,0.40807566,0.45888242,-0.024981074,0.4544886,0.74550384,0.44299865,-0.047200967,0.3481537,0.6038879,0.09839877,-0.2237893,-0.26548493,-0.15627187,796.5934,795.38464,799.011,801.4286,904.9817,-0.143798828125,-0.00177001953125,0.99554443359375,-2.968292236328125,-2.691650390625,-2.803802490234375,1,1.0,1.0,1.0,1.0,10.00
2024-10-11 20:28:31.162,0.32187358,-0.018454678,0.74612623,0.6046648,0.25987187,-0.097188614,0.4635539,0.40807566,0.45888242,-0.024981074,0.4544886,0.74550384,0.44299865,-0.047200967,0.3481537,0.6038879,0.09839877,-0.2237893,-0.26548493,-0.15627187,798.60803,800.6227,795.78754,801.02563,668.46155,-0.143798828125,-0.00177001953125,0.99554443359375,-2.968292236328125,-2.691650390625,-2.803802490234375,1,1.0,1.0,1.0,1.0,10.00
2024-10-11 20:28:31.163,0.32187358,-0.018454678,0.74612623,0.6046648,0.25987187,-0.097188614,0.4635539,0.40807566,0.45888242,-0.024981074,0.4544886,0.74550384,0.44299865,-0.047200967,0.3481537,0.6038879,0.09839877,-0.2237893,-0.26548493,-0.15627187,802.23444,796.99634,804.2491,805.4579,863.0769,-0.143798828125,-0.00177001953125,0.99554443359375,-2.968292236328125,-2.691650390625,-2.803802490234375,1,1.0,1.0,1.0,1.0,10.00
2024-10-11 20:28:31.164,0.32187358,-0.018454678,0.74612623,0.6046648,0.25987187,-0.097188614,0.4635539,0.40807566,0.45888242,-0.024981074,0.4544886,0.74550384,0.44299865,-0.047200967,0.3481537,0.6038879,0.09839877,-0.2237893,-0.26548493,-0.15627187,801.8315,794.9817,802.6374,805.4579,1087.5092,-0.143798828125,-0.00177001953125,0.99554443359375,-2.968292236328125,-2.691650390625,-2.803802490234375,1,1.0,1.0,1.0,1.0,10.00
2024-10-11 20:28:31.165,0.32187358,-0.018454678,0.74612623,0.6046648,0.25987187,-0.097188614,0.4635539,0.40807566,0.45888242,-0.024981074,0.4544886,0.74550384,0.44299865,-0.047200967,0.3481537,0.6038879,0.09839877,-0.2237893,-0.26548493,-0.15627187,800.6227,794.17584,800.2198,799.41394,879.59705,-0.143798828125,-0.00177001953125,0.99554443359375,-2.968292236328125,-2.691650390625,-2.803802490234375,1,1.0,1.0,1.0,1.0,10.00
2024-10-11 20:28:31.166,0.32187358,-0.018454678,0.74612623,0.6046648,0.25987187,-0.097188614,0.4635539,0.40807566,0.45888242,-0.024981074,0.4544886,0.74550384,0.44299865,-0.047200967,0.3481537,0.6038879,0.09839877,-0.2237893,-0.26548493,-0.15627187,810.696,794.9817,804.65204,799.011,794.17584,-0.143798828125,-0.00177001953125,0.99554443359375,-2.968292236328125,-2.691650390625,-2.803802490234375,1,1.0,1.0,1.0,1.0,10.00
2024-10-11 20:28:31.167,0.32187358,-0.018454678,0.74612623,0.6046648,0.25987187,-0.097188614,0.4635539,0.40807566,0.45888242,-0.024981074,0.4544886,0.74550384,0.44299865,-0.047200967,0.3481537,0.6038879,0.09839877,-0.2237893,-0.26548493,-0.15627187,808.2784,796.1905,806.6667,802.23444,977.50916,-0.143798828125,-0.00177001953125,0.99554443359375,-2.968292236328125,-2.691650390625,-2.803802490234375,1,1.0,1.0,1.0,1.0,10.00
2024-10-11 20:28:31.168,0.32187358,-0.018454678,0.74612623,0.6046648,0.25987187,-0.097188614,0.4635539,0.40807566,0.45888242,-0.024981074,0.4544886,0.74550384,0.44299865,-0.047200967,0.3481537,0.6038879,0.09839877,-0.2237893,-0.26548493,-0.15627187,796.99634,797.8022,805.4579,807.0696,800.6227,-0.143798828125,-0.00177001953125,0.99554443359375,-2.968292236328125,-2.691650390625,-2.803802490234375,1,1.0,1.0,1.0,1.0,10.00
2024-10-11 20:28:31.169,0.32187358,-0.018454678,0.74612623,0.6046648,0.25987187,-0.097188614,0.4635539,0.40807566,0.45888242,-0.024981074,0.4544886,0.74550384,0.44299865,-0.047200967,0.3481537,0.6038879,0.09839877,-0.2237893,-0.26548493,-0.15627187,799.011,800.6227,806.26373,809.0842,615.6777,-0.143798828125,-0.00177001953125,0.99554443359375,-2.968292236328125,-2.691650390625,-2.803802490234375,1,1.0,1.0,1.0,1.0,10.00
2024-10-11 20:28:31.170,0.32187358,-0.018454678,0.74612623,0.6046648,0.25987187,-0.097188614,0.4635539,0.40807566,0.45888242,-0.024981074,0.4544886,0.74550384,0.44299865,-0.047200967,0.3481537,0.6038879,0.09839877,-0.2237893,-0.26548493,-0.15627187,805.4579,796.5934,809.89014,808.2784,787.326,-0.143798828125,-0.00177001953125,0.99554443359375,-2.968292236328125,-2.691650390625,-2.803802490234375,1,1.0,1.0,1.0,1.0,10.00
2024-10-11 20:28:31.170,0.32187358,-0.018454678,0.74612623,0.6046648,0.25987187,-0.097188614,0.4635539,0.40807566,0.45888242,-0.024981074,0.4544886,0.74550384,0.44299865,-0.047200967,0.3481537,0.6038879,0.09839877,-0.2237893,-0.26548493,-0.15627187,805.05493,794.9817,805.8608,807.47253,1008.5348,-0.143798828125,-0.00177001953125,0.99554443359375,-2.968292236328125,-2.691650390625,-2.803802490234375,1,1.0,1.0,1.0,1.0,10.00
2024-10-11 20:28:31.172,0.32187358,-0.018454678,0.74612623,0.6046648,0.25987187,-0.097188614,0.4635539,0.40807566,0.45888242,-0.024981074,0.4544886,0.74550384,0.44299865,-0.047200967,0.3481537,0.6038879,0.09839877,-0.2237893,-0.26548493,-0.15627187,800.6227,798.20514,798.60803,804.2491,888.0586,-0.14093017578125,-0.01416015625,0.99566650390625,-3.4393310546875,-2.803802490234375,-1.1065673828125,1,1.0,1.0,1.0,1.0,10.00
2024-10-11 20:28:31.173,0.32187358,-0.018454678,0.74612623,0.6046648,0.25987187,-0.097188614,0.4635539,0.40807566,0.45888242,-0.024981074,0.4544886,0.74550384,0.44299865,-0.047200967,0.3481537,0.6038879,0.09839877,-0.2237893,-0.26548493,-0.15627187,802.23444,800.6227,796.99634,803.0403,738.1685,-0.14093017578125,-0.01416015625,0.99566650390625,-3.4393310546875,-2.803802490234375,-1.1065673828125,1,1.0,1.0,1.0,1.0,10.00
2024-10-11 20:28:31.174,0.32187358,-0.018454678,0.74612623,0.6046648,0.25987187,-0.097188614,0.4635539,0.40807566,0.45888242,-0.024981074,0.4544886,0.74550384,0.44299865,-0.047200967,0.3481537,0.6038879,0.09839877,-0.2237893,-0.26548493,-0.15627187,799.41394,798.20514,807.0696,804.2491,819.9634,-0.14093017578125,-0.01416015625,0.99566650390625,-3.4393310546875,-2.803802490234375,-1.1065673828125,1,1.0,1.0,1.0,1.0,10.00
2024-10-11 20:28:31.175,0.32187358,-0.018454678,0.74612623,0.6046648,0.25987187,-0.097188614,0.4635539,0.40807566,0.45888242,-0.024981074,0.4544886,0.74550384,0.44299865,-0.047200967,0.3481537,0.6038879,0.09839877,-0.2237893,-0.26548493,-0.15627187,796.99634,800.2198,811.50183,800.6227,787.326,-0.14093017578125,-0.01416015625,0.99566650390625,-3.4393310546875,-2.803802490234375,-1.1065673828125,1,1.0,1.0,1.0,1.0,10.00
2024-10-11 20:28:31.176,0.32187358,-0.018454678,0.74612623,0.6046648,0.25987187,-0.097188614,0.4635539,0.40807566,0.45888242,-0.024981074,0.4544886,0.74550384,0.44299865,-0.047200967,0.3481537,0.6038879,0.09839877,-0.2237893,-0.26548493,-0.15627187,796.99634,800.2198,806.26373,799.011,666.4469,-0.14093017578125,-0.01416015625,0.99566650390625,-3.4393310546875,-2.803802490234375,-1.1065673828125,1,1.0,1.0,1.0,1.0,10.00
2024-10-11 20:28:31.176,0.32187358,-0.018454678,0.74612623,0.6046648,0.25987187,-0.097188614,0.4635539,0.40807566,0.45888242,-0.024981074,0.4544886,0.74550384,0.44299865,-0.047200967,0.3481537,0.6038879,0.09839877,-0.2237893,-0.26548493,-0.15627187,789.7436,796.1905,801.4286,795.78754,683.7729,-0.14093017578125,-0.01416015625,0.99566650390625,-3.4393310546875,-2.803802490234375,-1.1065673828125,1,1.0,1.0,1.0,1.0,10.00
2024-10-11 20:28:31.178,0.32187358,-0.018454678,0.74612623,0.6046648,0.25987187,-0.097188614,0.4635539,0.40807566,0.45888242,-0.024981074,0.4544886,0.74550384,0.44299865,-0.047200967,0.3481537,0.6038879,0.09839877,-0.2237893,-0.26548493,-0.15627187,790.54944,796.5934,802.23444,798.20514,885.64105,-0.14093017578125,-0.01416015625,0.99566650390625,-3.4393310546875,-2.803802490234375,-1.1065673828125,1,1.0,1.0,1.0,1.0,10.00
2024-10-11 20:28:31.179,0.32187358,-0.018454678,0.74612623,0.6046648,0.25987187,-0.097188614,0.4635539,0.40807566,0.45888242,-0.024981074,0.4544886,0.74550384,0.44299865,-0.047200967,0.3481537,0.6038879,0.09839877,-0.2237893,-0.26548493,-0.15627187,792.96704,796.99634,802.23444,799.011,974.2857,-0.14093017578125,-0.01416015625,0.99566650390625,-3.4393310546875,-2.803802490234375,-1.1065673828125,1,1.0,1.0,1.0,1.0,10.00
2024-10-11 20:28:31.180,0.32187358,-0.018454678,0.74612623,0.6046648,0.25987187,-0.097188614,0.4635539,0.40807566,0.45888242,-0.024981074,0.4544886,0.74550384,0.44299865,-0.047200967,0.3481537,0.6038879,0.09839877,-0.2237893,-0.26548493,-0.15627187,790.54944,798.60803,803.8461,794.57874,701.9048,-0.14093017578125,-0.01416015625,0.99566650390625,-3.4393310546875,-2.803802490234375,-1.1065673828125,1,1.0,1.0,1.0,1.0,10.00
2024-10-11 20:28:31.181,0.32227117,-0.049061704,0.72547513,0.60221374,0.26354185,-0.0999324,0.467288,0.4178872,0.46585903,-0.03909445,0.4544886,0.74550384,0.45246834,-0.05867947,0.35844746,0.60030943,0.10718798,-0.23657672,-0.26300842,-0.1520939,784.10254,794.9817,798.60803,791.3553,632.1978,-0.14093017578125,-0.01416015625,0.99566650390625,-3.4393310546875,-2.803802490234375,-1.1065673828125,1,1.0,1.0,1.0,1.0,10.00
2024-10-11 20:28:31.186,0.32227117,-0.049061704,0.72547513,0.60221374,0.26354185,-0.0999324,0.467288,0.4178872,0.46585903,-0.03909445,0.4544886,0.74550384,0.45246834,-0.05867947,0.35844746,0.60030943,0.10718798,-0.23657672,-0.26300842,-0.1520939,791.75824,793.7729,794.57874,794.57874,799.81683,-0.14093017578125,-0.01416015625,0.99566650390625,-3.4393310546875,-2.803802490234375,-1.1065673828125,1,1.0,1.0,1.0,1.0,10.00
2024-10-11 20:28:31.187,0.32227117,-0.049061704,0.72547513,0.60221374,0.26354185,-0.0999324,0.467288,0.4178872,0.46585903,-0.03909445,0.4544886,0.74550384,0.45246834,-0.05867947,0.35844746,0.60030943,0.10718798,-0.23657672,-0.26300842,-0.1520939,793.36993,797.8022,803.0403,796.99634,870.7326,-0.14093017578125,-0.01416015625,0.99566650390625,-3.4393310546875,-2.803802490234375,-1.1065673828125,1,1.0,1.0,1.0,1.0,10.00
2024-10-11 20:28:31.240,0.32227117,-0.049061704,0.72547513,0.60221374,0.26354185,-0.0999324,0.467288,0.4178872,0.46585903,-0.03909445,0.4544886,0.74550384,0.45246834,-0.05867947,0.35844746,0.60030943,0.10718798,-0.23657672,-0.26300842,-0.1520939,786.9231,797.8022,808.68134,793.36993,703.1135,-0.14501953125,-0.0113525390625,0.99798583984375,-2.534637451171875,0.0897216796875,1.36077880859375,1,1.0,1.0,1.0,1.0,10.00
2024-10-11 20:28:31.243,0.32227117,-0.049061704,0.72547513,0.60221374,0.26354185,-0.0999324,0.467288,0.4178872,0.46585903,-0.03909445,0.4544886,0.74550384,0.45246834,-0.05867947,0.35844746,0.60030943,0.10718798,-0.23657672,-0.26300842,-0.1520939,785.31134,794.17584,805.05493,791.3553,730.9158,-0.14501953125,-0.0113525390625,0.99798583984375,-2.534637451171875,0.0897216796875,1.36077880859375,1,1.0,1.0,1.0,1.0,10.00
2024-10-11 20:28:31.244,0.32227117,-0.049061704,0.72547513,0.60221374,0.26354185,-0.0999324,0.467288,0.4178872,0.46585903,-0.03909445,0.4544886,0.74550384,0.45246834,-0.05867947,0.35844746,0.60030943,0.10718798,-0.23657672,-0.26300842,-0.1520939,785.31134,792.96704,800.2198,796.1905,863.0769,-0.14501953125,-0.0113525390625,0.99798583984375,-2.534637451171875,0.0897216796875,1.36077880859375,1,1.0,1.0,1.0,1.0,10.00
2024-10-11 20:28:31.245,0.32227117,-0.049061704,0.72547513,0.60221374,0.26354185,-0.0999324,0.467288,0.4178872,0.46585903,-0.03909445,0.4544886,0.74550384,0.45246834,-0.05867947,0.35844746,0.60030943,0.10718798,-0.23657672,-0.26300842,-0.1520939,788.5348,794.17584,803.0403,796.1905,836.08057,-0.14501953125,-0.0113525390625,0.99798583984375,-2.534637451171875,0.0897216796875,1.36077880859375,1,1.0,1.0,1.0,1.0,10.00
2024-10-11 20:28:31.246,0.32227117,-0.049061704,0.72547513,0.60221374,0.26354185,-0.0999324,0.467288,0.4178872,0.46585903,-0.03909445,0.4544886,0.74550384,0.45246834,-0.05867947,0.35844746,0.60030943,0.10718798,-0.23657672,-0.26300842,-0.1520939,790.9524,790.14655,801.4286,796.5934,736.9597,-0.14501953125,-0.0113525390625,0.99798583984375,-2.534637451171875,0.0897216796875,1.36077880859375,1,1.0,1.0,1.0,1.0,10.00
2024-10-11 20:28:31.247,0.32227117,-0.049061704,0.72547513,0.60221374,0.26354185,-0.0999324,0.467288,0.4178872,0.46585903,-0.03909445,0.4544886,0.74550384,0.45246834,-0.05867947,0.35844746,0.60030943,0.10718798,-0.23657672,-0.26300842,-0.1520939,792.96704,788.1319,798.60803,799.81683,753.0769,-0.14501953125,-0.0113525390625,0.99798583984375,-2.534637451171875,0.0897216796875,1.36077880859375,1,1.0,1.0,1.0,1.0,10.00
2024-10-11 20:28:31.248,0.32227117,-0.049061704,0.72547513,0.60221374,0.26354185,-0.0999324,0.467288,0.4178872,0.46585903,-0.03909445,0.4544886,0.74550384,0.45246834,-0.05867947,0.35844746,0.60030943,0.10718798,-0.23657672,-0.26300842,-0.1520939,794.9817,788.93774,799.41394,805.4579,1072.6007,-0.14501953125,-0.0113525390625,0.99798583984375,-2.534637451171875,0.0897216796875,1.36077880859375,1,1.0,1.0,1.0,1.0,10.00
2024-10-11 20:28:31.249,0.32227117,-0.049061704,0.72547513,0.60221374,0.26354185,-0.0999324,0.467288,0.4178872,0.46585903,-0.03909445,0.4544886,0.74550384,0.45246834,-0.05867947,0.35844746,0.60030943,0.10718798,-0.23657672,-0.26300842,-0.1520939,792.1612,790.54944,801.4286,804.65204,1090.3297,-0.14501953125,-0.0113525390625,0.99798583984375,-2.534637451171875,0.0897216796875,1.36077880859375,1,1.0,1.0,1.0,1.0,10.00
2024-10-11 20:28:31.250,0.32227117,-0.049061704,0.72547513,0.60221374,0.26354185,-0.0999324,0.467288,0.4178872,0.46585903,-0.03909445,0.4544886,0.74550384,0.45246834,-0.05867947,0.35844746,0.60030943,0.10718798,-0.23657672,-0.26300842,-0.1520939,792.5641,794.57874,801.4286,801.8315,693.8461,-0.14501953125,-0.0113525390625,0.99798583984375,-2.534637451171875,0.0897216796875,1.36077880859375,1,1.0,1.0,1.0,1.0,10.00
2024-10-11 20:28:31.252,0.32227117,-0.049061704,0.72547513,0.60221374,0.26354185,-0.0999324,0.467288,0.4178872,0.46585903,-0.03909445,0.4544886,0.74550384,0.45246834,-0.05867947,0.35844746,0.60030943,0.10718798,-0.23657672,-0.26300842,-0.1520939,798.20514,795.78754,803.8461,808.68134,561.28204,-0.14501953125,-0.0113525390625,0.99798583984375,-2.534637451171875,0.0897216796875,1.36077880859375,1,1.0,1.0,1.0,1.0,10.00
2024-10-11 20:28:31.253,0.32227117,-0.049061704,0.72547513,0.60221374,0.26354185,-0.0999324,0.467288,0.4178872,0.46585903,-0.03909445,0.4544886,0.74550384,0.45246834,-0.05867947,0.35844746,0.60030943,0.10718798,-0.23657672,-0.26300842,-0.1520939,798.60803,797.3993,803.8461,815.12823,968.24176,-0.14501953125,-0.0113525390625,0.99798583984375,-2.534637451171875,0.0897216796875,1.36077880859375,1,1.0,1.0,1.0,1.0,10.00
2024-10-11 20:28:31.254,0.32227117,-0.049061704,0.72547513,0.60221374,0.26354185,-0.0999324,0.467288,0.4178872,0.46585903,-0.03909445,0.4544886,0.74550384,0.45246834,-0.05867947,0.35844746,0.60030943,0.10718798,-0.23657672,-0.26300842,-0.1520939,799.41394,797.8022,801.02563,817.5458,1251.5018,-0.14501953125,-0.0113525390625,0.99798583984375,-2.534637451171875,0.0897216796875,1.36077880859375,1,1.0,1.0,1.0,1.0,10.00
2024-10-11 20:28:31.255,0.32227117,-0.049061704,0.72547513,0.60221374,0.26354185,-0.0999324,0.467288,0.4178872,0.46585903,-0.03909445,0.4544886,0.74550384,0.45246834,-0.05867947,0.35844746,0.60030943,0.10718798,-0.23657672,-0.26300842,-0.1520939,801.02563,801.8315,805.8608,810.293,782.8938,-0.14501953125,-0.0113525390625,0.99798583984375,-2.534637451171875,0.0897216796875,1.36077880859375,1,1.0,1.0,1.0,1.0,10.00
2024-10-11 20:28:31.256,0.32227117,-0.049061704,0.72547513,0.60221374,0.26354185,-0.0999324,0.467288,0.4178872,0.46585903,-0.03909445,0.4544886,0.74550384,0.45246834,-0.05867947,0.35844746,0.60030943,0.10718798,-0.23657672,-0.26300842,-0.1520939,802.23444,801.4286,807.8755,805.8608,512.1245,-0.14501953125,-0.0113525390625,0.99798583984375,-2.534637451171875,0.0897216796875,1.36077880859375,1,1.0,1.0,1.0,1.0,10.00
2024-10-11 20:28:31.257,0.32227117,-0.049061704,0.72547513,0.60221374,0.26354185,-0.0999324,0.467288,0.4178872,0.46585903,-0.03909445,0.4544886,0.74550384,0.45246834,-0.05867947,0.35844746,0.60030943,0.10718798,-0.23657672,-0.26300842,-0.1520939,800.6227,800.2198,804.2491,802.23444,608.4249,-0.14501953125,-0.0113525390625,0.99798583984375,-2.534637451171875,0.0897216796875,1.36077880859375,1,1.0,1.0,1.0,1.0,10.00
2024-10-11 20:28:31.259,0.32227117,-0.049061704,0.72547513,0.60221374,0.26354185,-0.0999324,0.467288,0.4178872,0.46585903,-0.03909445,0.4544886,0.74550384,0.45246834,-0.05867947,0.35844746,0.60030943,0.10718798,-0.23657672,-0.26300842,-0.1520939,805.05493,804.65204,801.02563,801.4286,667.6557,-0.14501953125,-0.0113525390625,0.99798583984375,-2.534637451171875,0.0897216796875,1.36077880859375,1,1.0,1.0,1.0,1.0,10.00
2024-10-11 20:28:31.260,0.32227117,-0.049061704,0.72547513,0.60221374,0.26354185,-0.0999324,0.467288,0.4178872,0.46585903,-0.03909445,0.4544886,0.74550384,0.45246834,-0.05867947,0.35844746,0.60030943,0.10718798,-0.23657672,-0.26300842,-0.1520939,805.4579,803.44324,799.81683,796.99634,736.55676,-0.14501953125,-0.0113525390625,0.99798583984375,-2.534637451171875,0.0897216796875,1.36077880859375,1,1.0,1.0,1.0,1.0,10.00
2024-10-11 20:28:31.261,0.32227117,-0.049061704,0.72547513,0.60221374,0.26354185,-0.0999324,0.467288,0.4178872,0.46585903,-0.03909445,0.4544886,0.74550384,0.45246834,-0.05867947,0.35844746,0.60030943,0.10718798,-0.23657672,-0.26300842,-0.1520939,804.65204,800.6227,796.99634,797.3993,721.2454,-0.14501953125,-0.0113525390625,0.99798583984375,-2.534637451171875,0.0897216796875,1.36077880859375,1,1.0,1.0,1.0,1.0,10.00
2024-10-11 20:28:31.262,0.32227117,-0.049061704,0.72547513,0.60221374,0.26354185,-0.0999324,0.467288,0.4178872,0.46585903,-0.03909445,0.4544886,0.74550384,0.45246834,-0.05867947,0.35844746,0.60030943,0.10718798,-0.23657672,-0.26300842,-0.1520939,815.5311,803.44324,796.5934,809.89014,1002.8938,-0.14501953125,-0.0113525390625,0.99798583984375,-2.534637451171875,0.0897216796875,1.36077880859375,1,1.0,1.0,1.0,1.0,10.00
2024-10-11 20:28:31.263,0.32227117,-0.049061704,0.72547513,0.60221374,0.26354185,-0.0999324,0.467288,0.4178872,0.46585903,-0.03909445,0.4544886,0.74550384,0.45246834,-0.05867947,0.35844746,0.60030943,0.10718798,-0.23657672,-0.26300842,-0.1520939,816.7399,805.8608,800.6227,810.293,883.6264,-0.14501953125,-0.0113525390625,0.99798583984375,-2.534637451171875,0.0897216796875,1.36077880859375,1,1.0,1.0,1.0,1.0,10.00
2024-10-11 20:28:31.264,0.32227117,-0.049061704,0.72547513,0.60221374,0.26354185,-0.0999324,0.467288,0.4178872,0.46585903,-0.03909445,0.4544886,0.74550384,0.45246834,-0.05867947,0.35844746,0.60030943,0.10718798,-0.23657672,-0.26300842,-0.1520939,812.3077,807.47253,801.8315,801.4286,573.36993,-0.14501953125,-0.0113525390625,0.99798583984375,-2.534637451171875,0.0897216796875,1.36077880859375,1,1.0,1.0,1.0,1.0,10.00
2024-10-11 20:28:31.265,0.32227117,-0.049061704,0.72547513,0.60221374,0.26354185,-0.0999324,0.467288,0.4178872,0.46585903,-0.03909445,0.4544886,0.74550384,0.45246834,-0.05867947,0.35844746,0.60030943,0.10718798,-0.23657672,-0.26300842,-0.1520939,817.1429,809.89014,803.0403,807.0696,608.4249,-0.14501953125,-0.0113525390625,0.99798583984375,-2.534637451171875,0.0897216796875,1.36077880859375,1,1.0,1.0,1.0,1.0,10.00
2024-10-11 20:28:31.266,0.32227117,-0.049061704,0.72547513,0.60221374,0.26354185,-0.0999324,0.467288,0.4178872,0.46585903,-0.03909445,0.4544886,0.74550384,0.45246834,-0.05867947,0.35844746,0.60030943,0.10718798,-0.23657672,-0.26300842,-0.1520939,809.89014,809.89014,807.8755,811.9048,664.0293,-0.14501953125,-0.0113525390625,0.99798583984375,-2.534637451171875,0.0897216796875,1.36077880859375,1,1.0,1.0,1.0,1.0,10.00
2024-10-11 20:28:31.267,0.32216924,-0.06481931,0.7018923,0.5982718,0.26938567,-0.106323026,0.47076678,0.42916262,0.48343268,-0.04609268,0.4544886,0.74550384,0.45849678,-0.07069776,0.36845547,0.5914959,0.11471691,-0.25983295,-0.2639389,-0.14189263,803.44324,811.50183,809.89014,805.05493,533.8828,-0.14501953125,-0.0113525390625,0.99798583984375,-2.534637451171875,0.0897216796875,1.36077880859375,1,1.0,1.0,1.0,1.0,10.00
2024-10-11 20:28:31.318,0.32216924,-0.06481931,0.7018923,0.5982718,0.26938567,-0.106323026,0.47076678,0.42916262,0.48343268,-0.04609268,0.4544886,0.74550384,0.45849678,-0.07069776,0.36845547,0.5914959,0.11471691,-0.25983295,-0.2639389,-0.14189263,813.5165,814.3223,805.8608,804.2491,517.76556,-0.157958984375,-0.01251220703125,0.99700927734375,-1.996307373046875,-0.59814453125,2.803802490234375,1,1.0,1.0,1.0,1.0,10.00
2024-10-11 20:28:31.318,0.32216924,-0.06481931,0.7018923,0.5982718,0.26938567,-0.106323026,0.47076678,0.42916262,0.48343268,-0.04609268,0.4544886,0.74550384,0.45849678,-0.07069776,0.36845547,0.5914959,0.11471691,-0.25983295,-0.2639389,-0.14189263,814.3223,806.6667,802.23444,804.2491,650.7326,-0.157958984375,-0.01251220703125,0.99700927734375,-1.996307373046875,-0.59814453125,2.803802490234375,1,1.0,1.0,1.0,1.0,10.00
2024-10-11 20:28:31.319,0.32216924,-0.06481931,0.7018923,0.5982718,0.26938567,-0.106323026,0.47076678,0.42916262,0.48343268,-0.04609268,0.4544886,0.74550384,0.45849678,-0.07069776,0.36845547,0.5914959,0.11471691,-0.25983295,-0.2639389,-0.14189263,809.0842,801.8315,799.41394,800.6227,697.47253,-0.157958984375,-0.01251220703125,0.99700927734375,-1.996307373046875,-0.59814453125,2.803802490234375,1,1.0,1.0,1.0,1.0,10.00
2024-10-11 20:28:31.320,0.32216924,-0.06481931,0.7018923,0.5982718,0.26938567,-0.106323026,0.47076678,0.42916262,0.48343268,-0.04609268,0.4544886,0.74550384,0.45849678,-0.07069776,0.36845547,0.5914959,0.11471691,-0.25983295,-0.2639389,-0.14189263,803.0403,804.2491,793.36993,795.78754,621.7216,-0.157958984375,-0.01251220703125,0.99700927734375,-1.996307373046875,-0.59814453125,2.803802490234375,1,1.0,1.0,1.0,1.0,10.00
2024-10-11 20:28:31.322,0.32216924,-0.06481931,0.7018923,0.5982718,0.26938567,-0.106323026,0.47076678,0.42916262,0.48343268,-0.04609268,0.4544886,0.74550384,0.45849678,-0.07069776,0.36845547,0.5914959,0.11471691,-0.25983295,-0.2639389,-0.14189263,801.4286,803.0403,788.93774,794.57874,678.5348,-0.157958984375,-0.01251220703125,0.99700927734375,-1.996307373046875,-0.59814453125,2.803802490234375,1,1.0,1.0,1.0,1.0,10.00
2024-10-11 20:28:31.323,0.32216924,-0.06481931,0.7018923,0.5982718,0.26938567,-0.106323026,0.47076678,0.42916262,0.48343268,-0.04609268,0.4544886,0.74550384,0.45849678,-0.07069776,0.36845547,0.5914959,0.11471691,-0.25983295,-0.2639389,-0.14189263,800.6227,805.05493,793.7729,797.3993,765.56775,-0.157958984375,-0.01251220703125,0.99700927734375,-1.996307373046875,-0.59814453125,2.803802490234375,1,1.0,1.0,1.0,1.0,10.00
2024-10-11 20:28:31.324,0.32216924,-0.06481931,0.7018923,0.5982718,0.26938567,-0.106323026,0.47076678,0.42916262,0.48343268,-0.04609268,0.4544886,0.74550384,0.45849678,-0.07069776,0.36845547,0.5914959,0.11471691,-0.25983295,-0.2639389,-0.14189263,799.011,806.6667,803.44324,793.7729,693.0403,-0.157958984375,-0.01251220703125,0.99700927734375,-1.996307373046875,-0.59814453125,2.803802490234375,1,1.0,1.0,1.0,1.0,10.00
2024-10-11 20:28:31.324,0.32216924,-0.06481931,0.7018923,0.5982718,0.26938567,-0.106323026,0.47076678,0.42916262,0.48343268,-0.04609268,0.4544886,0.74550384,0.45849678,-0.07069776,0.36845547,0.5914959,0.11471691,-0.25983295,-0.2639389,-0.14189263,803.0403,805.4579,799.011,797.8022,689.81683,-0.157958984375,-0.01251220703125,0.99700927734375,-1.996307373046875,-0.59814453125,2.803802490234375,1,1.0,1.0,1.0,1.0,10.00
2024-10-11 20:28:31.325,0.32216924,-0.06481931,0.7018923,0.5982718,0.26938567,-0.106323026,0.47076678,0.42916262,0.48343268,-0.04609268,0.4544886,0.74550384,0.45849678,-0.07069776,0.36845547,0.5914959,0.11471691,-0.25983295,-0.2639389,-0.14189263,800.2198,801.8315,792.5641,798.20514,677.72894,-0.157958984375,-0.01251220703125,0.99700927734375,-1.996307373046875,-0.59814453125,2.803802490234375,1,1.0,1.0,1.0,1.0,10.00
2024-10-11 20:28:31.326,0.32216924,-0.06481931,0.7018923,0.5982718,0.26938567,-0.106323026,0.47076678,0.42916262,0.48343268,-0.04609268,0.4544886,0.74550384,0.45849678,-0.07069776,0.36845547,0.5914959,0.11471691,-0.25983295,-0.2639389,-0.14189263,795.78754,799.41394,802.6374,797.3993,814.3223,-0.157958984375,-0.01251220703125,0.99700927734375,-1.996307373046875,-0.59814453125,2.803802490234375,1,1.0,1.0,1.0,1.0,10.00
2024-10-11 20:28:31.326,0.32216924,-0.06481931,0.7018923,0.5982718,0.26938567,-0.106323026,0.47076678,0.42916262,0.48343268,-0.04609268,0.4544886,0.74550384,0.45849678,-0.07069776,0.36845547,0.5914959,0.11471691,-0.25983295,-0.2639389,-0.14189263,792.1612,803.0403,803.0403,794.9817,785.7143,-0.157958984375,-0.01251220703125,0.99700927734375,-1.996307373046875,-0.59814453125,2.803802490234375,1,1.0,1.0,1.0,1.0,10.00
2024-10-11 20:28:31.327,0.32216924,-0.06481931,0.7018923,0.5982718,0.26938567,-0.106323026,0.47076678,0.42916262,0.48343268,-0.04609268,0.4544886,0.74550384,0.45849678,-0.07069776,0.36845547,0.5914959,0.11471691,-0.25983295,-0.2639389,-0.14189263,795.78754,795.78754,795.38464,794.57874,616.4835,-0.157958984375,-0.01251220703125,0.99700927734375,-1.996307373046875,-0.59814453125,2.803802490234375,1,1.0,1.0,1.0,1.0,10.00
2024-10-11 20:28:31.328,0.32216924,-0.06481931,0.7018923,0.5982718,0.26938567,-0.106323026,0.47076678,0.42916262,0.48343268,-0.04609268,0.4544886,0.74550384,0.45849678,-0.07069776,0.36845547,0.5914959,0.11471691,-0.25983295,-0.2639389,-0.14189263,796.99634,789.34064,794.9817,794.57874,694.65204,-0.16552734375,-0.01849365234375,0.9959716796875,-1.854248046875,-0.097198486328125,3.289794921875,1,1.0,1.0,1.0,1.0,10.00
2024-10-11 20:28:31.328,0.32216924,-0.06481931,0.7018923,0.5982718,0.26938567,-0.106323026,0.47076678,0.42916262,0.48343268,-0.04609268,0.4544886,0.74550384,0.45849678,-0.07069776,0.36845547,0.5914959,0.11471691,-0.25983295,-0.2639389,-0.14189263,792.5641,789.34064,794.9817,794.57874,1044.7986,-0.16552734375,-0.01849365234375,0.9959716796875,-1.854248046875,-0.097198486328125,3.289794921875,1,1.0,1.0,1.0,1.0,10.00
2024-10-11 20:28:31.329,0.32216924,-0.06481931,0.7018923,0.5982718,0.26938567,-0.106323026,0.47076678,0.42916262,0.48343268,-0.04609268,0.4544886,0.74550384,0.45849678,-0.07069776,0.36845547,0.5914959,0.11471691,-0.25983295,-0.2639389,-0.14189263,796.5934,794.9817,795.78754,791.75824,931.978,-0.16552734375,-0.01849365234375,0.9959716796875,-1.854248046875,-0.097198486328125,3.289794921875,1,1.0,1.0,1.0,1.0,10.00
2024-10-11 20:28:31.330,0.32216924,-0.06481931,0.7018923,0.5982718,0.26938567,-0.106323026,0.47076678,0.42916262,0.48343268,-0.04609268,0.4544886,0.74550384,0.45849678,-0.07069776,0.36845547,0.5914959,0.11471691,-0.25983295,-0.2639389,-0.14189263,798.20514,803.0403,800.2198,794.9817,641.8681,-0.16552734375,-0.01849365234375,0.9959716796875,-1.854248046875,-0.097198486328125,3.289794921875,1,1.0,1.0,1.0,1.0,10.00
2024-10-11 20:28:31.330,0.32216924,-0.06481931,0.7018923,0.5982718,0.26938567,-0.106323026,0.47076678,0.42916262,0.48343268,-0.04609268,0.4544886,0.74550384,0.45849678,-0.07069776,0.36845547,0.5914959,0.11471691,-0.25983295,-0.2639389,-0.14189263,803.44324,799.81683,803.0403,797.3993,746.2271,-0.16552734375,-0.01849365234375,0.9959716796875,-1.854248046875,-0.097198486328125,3.289794921875,1,1.0,1.0,1.0,1.0,10.00
2024-10-11 20:28:31.331,0.32216924,-0.06481931,0.7018923,0.5982718,0.26938567,-0.106323026,0.47076678,0.42916262,0.48343268,-0.04609268,0.4544886,0.74550384,0.45849678,-0.07069776,0.36845547,0.5914959,0.11471691,-0.25983295,-0.2639389,-0.14189263,802.23444,793.7729,796.5934,793.36993,890.07324,-0.16552734375,-0.01849365234375,0.9959716796875,-1.854248046875,-0.097198486328125,3.289794921875,1,1.0,1.0,1.0,1.0,10.00
2024-10-11 20:28:31.332,0.32216924,-0.06481931,0.7018923,0.5982718,0.26938567,-0.106323026,0.47076678,0.42916262,0.48343268,-0.04609268,0.4544886,0.74550384,0.45849678,-0.07069776,0.36845547,0.5914959,0.11471691,-0.25983295,-0.2639389,-0.14189263,805.05493,799.81683,800.6227,800.6227,993.22345,-0.16552734375,-0.01849365234375,0.9959716796875,-1.854248046875,-0.097198486328125,3.289794921875,1,1.0,1.0,1.0,1.0,10.00
2024-10-11 20:28:31.332,0.32216924,-0.06481931,0.7018923,0.5982718,0.26938567,-0.106323026,0.47076678,0.42916262,0.48343268,-0.04609268,0.4544886,0.74550384,0.45849678,-0.07069776,0.36845547,0.5914959,0.11471691,-0.25983295,-0.2639389,-0.14189263,807.47253,800.6227,809.4872,801.4286,888.46155,-0.16552734375,-0.01849365234375,0.9959716796875,-1.854248046875,-0.097198486328125,3.289794921875,1,1.0,1.0,1.0,1.0,10.00
2024-10-11 20:28:31.333,0.32216924,-0.06481931,0.7018923,0.5982718,0.26938567,-0.106323026,0.47076678,0.42916262,0.48343268,-0.04609268,0.4544886,0.74550384,0.45849678,-0.07069776,0.36845547,0.5914959,0.11471691,-0.25983295,-0.2639389,-0.14189263,807.0696,792.1612,806.6667,802.23444,880.40295,-0.16552734375,-0.01849365234375,0.9959716796875,-1.854248046875,-0.097198486328125,3.289794921875,1,1.0,1.0,1.0,1.0,10.00
2024-10-11 20:28:31.334,0.32216924,-0.06481931,0.7018923,0.5982718,0.26938567,-0.106323026,0.47076678,0.42916262,0.48343268,-0.04609268,0.4544886,0.74550384,0.45849678,-0.07069776,0.36845547,0.5914959,0.11471691,-0.25983295,-0.2639389,-0.14189263,806.26373,794.57874,807.8755,803.8461,902.1612,-0.16552734375,-0.01849365234375,0.9959716796875,-1.854248046875,-0.097198486328125,3.289794921875,1,1.0,1.0,1.0,1.0,10.00
2024-10-11 20:28:31.335,0.32216924,-0.06481931,0.7018923,0.5982718,0.26938567,-0.106323026,0.47076678,0.42916262,0.48343268,-0.04609268,0.4544886,0.74550384,0.45849678,-0.07069776,0.36845547,0.5914959,0.11471691,-0.25983295,-0.2639389,-0.14189263,797.3993,795.38464,805.05493,800.6227,697.0696,-0.16552734375,-0.01849365234375,0.9959716796875,-1.854248046875,-0.097198486328125,3.289794921875,1,1.0,1.0,1.0,1.0,10.00
2024-10-11 20:28:31.336,0.32216924,-0.06481931,0.7018923,0.5982718,0.26938567,-0.106323026,0.47076678,0.42916262,0.48343268,-0.04609268,0.4544886,0.74550384,0.45849678,-0.07069776,0.36845547,0.5914959,0.11471691,-0.25983295,-0.2639389,-0.14189263,797.3993,793.7729,800.6227,799.81683,564.5055,-0.16552734375,-0.01849365234375,0.9959716796875,-1.854248046875,-0.097198486328125,3.289794921875,1,1.0,1.0,1.0,1.0,10.00
2024-10-11 20:28:31.359,0.32216924,-0.06481931,0.7018923,0.5982718,0.26938567,-0.106323026,0.47076678,0.42916262,0.48343268,-0.04609268,0.4544886,0.74550384,0.45849678,-0.07069776,0.36845547,0.5914959,0.11471691,-0.25983295,-0.2639389,-0.14189263,796.5934,796.5934,803.44324,808.68134,797.8022,-0.16522216796875,-0.0177001953125,0.9908447265625,-1.308441162109375,-0.7177734375,1.233673095703125,1,1.0,1.0,1.0,1.0,10.00
2024-10-11 20:28:31.360,0.31558207,-0.071575895,0.68224144,0.59104425,0.28062397,-0.11408637,0.47339866,0.4404746,0.49360585,-0.07361405,0.4544886,0.74550384,0.46104294,-0.08306826,0.3765973,0.5793181,0.11896548,-0.294915,-0.2717225,-0.12901433,793.7729,796.99634,801.8315,817.1429,1245.0549,-0.16522216796875,-0.0177001953125,0.9908447265625,-1.308441162109375,-0.7177734375,1.233673095703125,1,1.0,1.0,1.0,1.0,10.00
2024-10-11 20:28:31.365,0.31558207,-0.071575895,0.68224144,0.59104425,0.28062397,-0.11408637,0.47339866,0.4404746,0.49360585,-0.07361405,0.4544886,0.74550384,0.46104294,-0.08306826,0.3765973,0.5793181,0.11896548,-0.294915,-0.2717225,-0.12901433,796.5934,802.23444,801.4286,815.12823,983.1502,-0.16522216796875,-0.0177001953125,0.9908447265625,-1.308441162109375,-0.7177734375,1.233673095703125,1,1.0,1.0,1.0,1.0,10.00
2024-10-11 20:28:31.365,0.31558207,-0.071575895,0.68224144,0.59104425,0.28062397,-0.11408637,0.47339866,0.4404746,0.49360585,-0.07361405,0.4544886,0.74550384,0.46104294,-0.08306826,0.3765973,0.5793181,0.11896548,-0.294915,-0.2717225,-0.12901433,794.57874,801.02563,802.23444,803.44324,693.8461,-0.16522216796875,-0.0177001953125,0.9908447265625,-1.308441162109375,-0.7177734375,1.233673095703125,1,1.0,1.0,1.0,1.0,10.00
2024-10-11 20:28:31.366,0.31558207,-0.071575895,0.68224144,0.59104425,0.28062397,-0.11408637,0.47339866,0.4404746,0.49360585,-0.07361405,0.4544886,0.74550384,0.46104294,-0.08306826,0.3765973,0.5793181,0.11896548,-0.294915,-0.2717225,-0.12901433,794.9817,795.38464,795.78754,802.6374,832.8571,-0.16522216796875,-0.0177001953125,0.9908447265625,-1.308441162109375,-0.7177734375,1.233673095703125,1,1.0,1.0,1.0,1.0,10.00
2024-10-11 20:28:31.367,0.31558207,-0.071575895,0.68224144,0.59104425,0.28062397,-0.11408637,0.47339866,0.4404746,0.49360585,-0.07361405,0.4544886,0.74550384,0.46104294,-0.08306826,0.3765973,0.5793181,0.11896548,-0.294915,-0.2717225,-0.12901433,795.38464,797.8022,788.5348,801.8315,948.49817,-0.16522216796875,-0.0177001953125,0.9908447265625,-1.308441162109375,-0.7177734375,1.233673095703125,1,1.0,1.0,1.0,1.0,10.00
2024-10-11 20:28:31.367,0.31558207,-0.071575895,0.68224144,0.59104425,0.28062397,-0.11408637,0.47339866,0.4404746,0.49360585,-0.07361405,0.4544886,0.74550384,0.46104294,-0.08306826,0.3765973,0.5793181,0.11896548,-0.294915,-0.2717225,-0.12901433,790.9524,800.2198,793.7729,799.011,934.3956,-0.16522216796875,-0.0177001953125,0.9908447265625,-1.308441162109375,-0.7177734375,1.233673095703125,1,1.0,1.0,1.0,1.0,10.00
2024-10-11 20:28:31.368,0.31558207,-0.071575895,0.68224144,0.59104425,0.28062397,-0.11408637,0.47339866,0.4404746,0.49360585,-0.07361405,0.4544886,0.74550384,0.46104294,-0.08306826,0.3765973,0.5793181,0.11896548,-0.294915,-0.2717225,-0.12901433,790.9524,801.8315,795.38464,800.2198,781.685,-0.16522216796875,-0.0177001953125,0.9908447265625,-1.308441162109375,-0.7177734375,1.233673095703125,1,1.0,1.0,1.0,1.0,10.00
2024-10-11 20:28:31.369,0.31558207,-0.071575895,0.68224144,0.59104425,0.28062397,-0.11408637,0.47339866,0.4404746,0.49360585,-0.07361405,0.4544886,0.74550384,0.46104294,-0.08306826,0.3765973,0.5793181,0.11896548,-0.294915,-0.2717225,-0.12901433,796.5934,805.8608,795.38464,806.26373,869.12085,-0.16522216796875,-0.0177001953125,0.9908447265625,-1.308441162109375,-0.7177734375,1.233673095703125,1,1.0,1.0,1.0,1.0,10.00
2024-10-11 20:28:31.369,0.31558207,-0.071575895,0.68224144,0.59104425,0.28062397,-0.11408637,0.47339866,0.4404746,0.49360585,-0.07361405,0.4544886,0.74550384,0.46104294,-0.08306826,0.3765973,0.5793181,0.11896548,-0.294915,-0.2717225,-0.12901433,799.81683,799.81683,801.02563,811.50183,987.5824,-0.16522216796875,-0.0177001953125,0.9908447265625,-1.308441162109375,-0.7177734375,1.233673095703125,1,1.0,1.0,1.0,1.0,10.00
2024-10-11 20:28:31.370,0.31558207,-0.071575895,0.68224144,0.59104425,0.28062397,-0.11408637,0.47339866,0.4404746,0.49360585,-0.07361405,0.4544886,0.74550384,0.46104294,-0.08306826,0.3765973,0.5793181,0.11896548,-0.294915,-0.2717225,-0.12901433,796.99634,799.81683,805.05493,799.81683,744.61536,-0.16522216796875,-0.0177001953125,0.9908447265625,-1.308441162109375,-0.7177734375,1.233673095703125,1,1.0,1.0,1.0,1.0,10.00
2024-10-11 20:28:31.371,0.31558207,-0.071575895,0.68224144,0.59104425,0.28062397,-0.11408637,0.47339866,0.4404746,0.49360585,-0.07361405,0.4544886,0.74550384,0.46104294,-0.08306826,0.3765973,0.5793181,0.11896548,-0.294915,-0.2717225,-0.12901433,793.36993,805.05493,805.8608,796.1905,799.011,-0.16522216796875,-0.0177001953125,0.9908447265625,-1.308441162109375,-0.7177734375,1.233673095703125,1,1.0,1.0,1.0,1.0,10.00
2024-10-11 20:28:31.406,0.31558207,-0.071575895,0.68224144,0.59104425,0.28062397,-0.11408637,0.47339866,0.4404746,0.49360585,-0.07361405,0.4544886,0.74550384,0.46104294,-0.08306826,0.3765973,0.5793181,0.11896548,-0.294915,-0.2717225,-0.12901433,794.57874,801.02563,798.60803,802.6374,1047.619,-0.1558837890625,-0.012939453125,0.99468994140625,0.1495361328125,-1.136474609375,0.291595458984375,1,1.0,1.0,1.0,1.0,10.00
2024-10-11 20:28:31.407,0.31558207,-0.071575895,0.68224144,0.59104425,0.28062397,-0.11408637,0.47339866,0.4404746,0.49360585,-0.07361405,0.4544886,0.74550384,0.46104294,-0.08306826,0.3765973,0.5793181,0.11896548,-0.294915,-0.2717225,-0.12901433,801.02563,799.81683,796.1905,800.2198,815.12823,-0.1558837890625,-0.012939453125,0.99468994140625,0.1495361328125,-1.136474609375,0.291595458984375,1,1.0,1.0,1.0,1.0,10.00
2024-10-11 20:28:31.408,0.31558207,-0.071575895,0.68224144,0.59104425,0.28062397,-0.11408637,0.47339866,0.4404746,0.49360585,-0.07361405,0.4544886,0.74550384,0.46104294,-0.08306826,0.3765973,0.5793181,0.11896548,-0.294915,-0.2717225,-0.12901433,793.7729,797.3993,807.0696,799.41394,623.3333,-0.1558837890625,-0.012939453125,0.99468994140625,0.1495361328125,-1.136474609375,0.291595458984375,1,1.0,1.0,1.0,1.0,10.00
2024-10-11 20:28:31.410,0.31558207,-0.071575895,0.68224144,0.59104425,0.28062397,-0.11408637,0.47339866,0.4404746,0.49360585,-0.07361405,0.4544886,0.74550384,0.46104294,-0.08306826,0.3765973,0.5793181,0.11896548,-0.294915,-0.2717225,-0.12901433,785.31134,798.20514,807.0696,798.60803,694.65204,-0.1558837890625,-0.012939453125,0.99468994140625,0.1495361328125,-1.136474609375,0.291595458984375,1,1.0,1.0,1.0,1.0,10.00
2024-10-11 20:28:31.410,0.31558207,-0.071575895,0.68224144,0.59104425,0.28062397,-0.11408637,0.47339866,0.4404746,0.49360585,-0.07361405,0.4544886,0.74550384,0.46104294,-0.08306826,0.3765973,0.5793181,0.11896548,-0.294915,-0.2717225,-0.12901433,792.5641,798.60803,797.3993,793.7729,720.4396,-0.1558837890625,-0.012939453125,0.99468994140625,0.1495361328125,-1.136474609375,0.291595458984375,1,1.0,1.0,1.0,1.0,10.00
2024-10-11 20:28:31.411,0.31558207,-0.071575895,0.68224144,0.59104425,0.28062397,-0.11408637,0.47339866,0.4404746,0.49360585,-0.07361405,0.4544886,0.74550384,0.46104294,-0.08306826,0.3765973,0.5793181,0.11896548,-0.294915,-0.2717225,-0.12901433,793.36993,794.57874,795.38464,789.7436,743.8095,-0.1558837890625,-0.012939453125,0.99468994140625,0.1495361328125,-1.136474609375,0.291595458984375,1,1.0,1.0,1.0,1.0,10.00
2024-10-11 20:28:31.411,0.31558207,-0.071575895,0.68224144,0.59104425,0.28062397,-0.11408637,0.47339866,0.4404746,0.49360585,-0.07361405,0.4544886,0.74550384,0.46104294,-0.08306826,0.3765973,0.5793181,0.11896548,-0.294915,-0.2717225,-0.12901433,799.81683,799.41394,802.6374,794.57874,800.6227,-0.1558837890625,-0.012939453125,0.99468994140625,0.1495361328125,-1.136474609375,0.291595458984375,1,1.0,1.0,1.0,1.0,10.00
2024-10-11 20:28:31.412,0.31558207,-0.071575895,0.68224144,0.59104425,0.28062397,-0.11408637,0.47339866,0.4404746,0.49360585,-0.07361405,0.4544886,0.74550384,0.46104294,-0.08306826,0.3765973,0.5793181,0.11896548,-0.294915,-0.2717225,-0.12901433,801.4286,802.23444,805.4579,799.011,824.3956,-0.1558837890625,-0.012939453125,0.99468994140625,0.1495361328125,-1.136474609375,0.291595458984375,1,1.0,1.0,1.0,1.0,10.00
2024-10-11 20:28:31.412,0.31558207,-0.071575895,0.68224144,0.59104425,0.28062397,-0.11408637,0.47339866,0.4404746,0.49360585,-0.07361405,0.4544886,0.74550384,0.46104294,-0.08306826,0.3765973,0.5793181,0.11896548,-0.294915,-0.2717225,-0.12901433,795.38464,800.2198,799.011,796.99634,856.2271,-0.1558837890625,-0.012939453125,0.99468994140625,0.1495361328125,-1.136474609375,0.291595458984375,1,1.0,1.0,1.0,1.0,10.00
2024-10-11 20:28:31.413,0.31558207,-0.071575895,0.68224144,0.59104425,0.28062397,-0.11408637,0.47339866,0.4404746,0.49360585,-0.07361405,0.4544886,0.74550384,0.46104294,-0.08306826,0.3765973,0.5793181,0.11896548,-0.294915,-0.2717225,-0.12901433,799.41394,797.8022,795.38464,793.36993,715.2015,-0.1558837890625,-0.012939453125,0.99468994140625,0.1495361328125,-1.136474609375,0.291595458984375,1,1.0,1.0,1.0,1.0,10.00
2024-10-11 20:28:31.413,0.31558207,-0.071575895,0.68224144,0.59104425,0.28062397,-0.11408637,0.47339866,0.4404746,0.49360585,-0.07361405,0.4544886,0.74550384,0.46104294,-0.08306826,0.3765973,0.5793181,0.11896548,-0.294915,-0.2717225,-0.12901433,798.20514,796.1905,800.2198,792.96704,626.9597,-0.1558837890625,-0.012939453125,0.99468994140625,0.1495361328125,-1.136474609375,0.291595458984375,1,1.0,1.0,1.0,1.0,10.00
2024-10-11 20:28:31.414,0.31558207,-0.071575895,0.68224144,0.59104425,0.28062397,-0.11408637,0.47339866,0.4404746,0.49360585,-0.07361405,0.4544886,0.74550384,0.46104294,-0.08306826,0.3765973,0.5793181,0.11896548,-0.294915,-0.2717225,-0.12901433,795.78754,798.20514,798.20514,796.5934,780.87915,-0.1558837890625,-0.012939453125,0.99468994140625,0.1495361328125,-1.136474609375,0.291595458984375,1,1.0,1.0,1.0,1.0,10.00
2024-10-11 20:28:31.487,0.31558207,-0.071575895,0.68224144,0.59104425,0.28062397,-0.11408637,0.47339866,0.4404746,0.49360585,-0.07361405,0.4544886,0.74550384,0.46104294,-0.08306826,0.3765973,0.5793181,0.11896548,-0.294915,-0.2717225,-0.12901433,789.7436,798.20514,788.1319,794.9817,904.57874,-0.1558837890625,-0.012939453125,0.99468994140625,0.1495361328125,-1.136474609375,0.291595458984375,1,1.0,1.0,1.0,1.0,10.00
2024-10-11 20:28:31.488,0.31558207,-0.071575895,0.68224144,0.59104425,0.28062397,-0.11408637,0.47339866,0.4404746,0.49360585,-0.07361405,0.4544886,0.74550384,0.46104294,-0.08306826,0.3765973,0.5793181,0.11896548,-0.294915,-0.2717225,-0.12901433,785.31134,798.60803,790.54944,787.72894,622.1245,-0.1558837890625,-0.012939453125,0.99468994140625,0.1495361328125,-1.136474609375,0.291595458984375,1,1.0,1.0,1.0,1.0,10.00
2024-10-11 20:28:31.488,0.31558207,-0.071575895,0.68224144,0.59104425,0.28062397,-0.11408637,0.47339866,0.4404746,0.49360585,-0.07361405,0.4544886,0.74550384,0.46104294,-0.08306826,0.3765973,0.5793181,0.11896548,-0.294915,-0.2717225,-0.12901433,786.52014,800.6227,799.011,793.36993,595.12823,-0.1558837890625,-0.012939453125,0.99468994140625,0.1495361328125,-1.136474609375,0.291595458984375,1,1.0,1.0,1.0,1.0,10.00
2024-10-11 20:28:31.489,0.30167508,-0.07567414,0.67310166,0.583876,0.31085563,-0.112057135,0.4749979,0.4508603,0.50734466,-0.1031953,0.4544886,0.73781645,0.45995492,-0.09651717,0.37891403,0.5637147,0.1212239,-0.33891407,-0.28950587,-0.119074315,789.7436,800.6227,804.2491,801.02563,865.89746,-0.1558837890625,-0.012939453125,0.99468994140625,0.1495361328125,-1.136474609375,0.291595458984375,1,1.0,1.0,1.0,1.0,10.00
2024-10-11 20:28:31.493,0.30167508,-0.07567414,0.67310166,0.583876,0.31085563,-0.112057135,0.4749979,0.4508603,0.50734466,-0.1031953,0.4544886,0.73781645,0.45995492,-0.09651717,0.37891403,0.5637147,0.1212239,-0.33891407,-0.28950587,-0.119074315,796.5934,798.60803,801.4286,797.8022,882.8205,-0.1558837890625,-0.012939453125,0.99468994140625,0.1495361328125,-1.136474609375,0.291595458984375,1,1.0,1.0,1.0,1.0,10.00
2024-10-11 20:28:31.494,0.30167508,-0.07567414,0.67310166,0.583876,0.31085563,-0.112057135,0.4749979,0.4508603,0.50734466,-0.1031953,0.4544886,0.73781645,0.45995492,-0.09651717,0.37891403,0.5637147,0.1212239,-0.33891407,-0.28950587,-0.119074315,798.60803,795.38464,796.99634,797.8022,863.8828,-0.1558837890625,-0.012939453125,0.99468994140625,0.1495361328125,-1.136474609375,0.291595458984375,1,1.0,1.0,1.0,1.0,10.00
2024-10-11 20:28:31.494,0.30167508,-0.07567414,0.67310166,0.583876,0.31085563,-0.112057135,0.4749979,0.4508603,0.50734466,-0.1031953,0.4544886,0.73781645,0.45995492,-0.09651717,0.37891403,0.5637147,0.1212239,-0.33891407,-0.28950587,-0.119074315,790.9524,792.5641,799.011,806.26373,868.315,-0.1558837890625,-0.012939453125,0.99468994140625,0.1495361328125,-1.136474609375,0.291595458984375,1,1.0,1.0,1.0,1.0,10.00
2024-10-11 20:28:31.495,0.30167508,-0.07567414,0.67310166,0.583876,0.31085563,-0.112057135,0.4749979,0.4508603,0.50734466,-0.1031953,0.4544886,0.73781645,0.45995492,-0.09651717,0.37891403,0.5637147,0.1212239,-0.33891407,-0.28950587,-0.119074315,796.99634,794.9817,800.2198,812.3077,987.1795,-0.1558837890625,-0.012939453125,0.99468994140625,0.1495361328125,-1.136474609375,0.291595458984375,1,1.0,1.0,1.0,1.0,10.00
2024-10-11 20:28:31.495,0.30167508,-0.07567414,0.67310166,0.583876,0.31085563,-0.112057135,0.4749979,0.4508603,0.50734466,-0.1031953,0.4544886,0.73781645,0.45995492,-0.09651717,0.37891403,0.5637147,0.1212239,-0.33891407,-0.28950587,-0.119074315,799.011,797.3993,796.5934,814.3223,1084.6886,-0.1558837890625,-0.012939453125,0.99468994140625,0.1495361328125,-1.136474609375,0.291595458984375,1,1.0,1.0,1.0,1.0,10.00
2024-10-11 20:28:31.496,0.30167508,-0.07567414,0.67310166,0.583876,0.31085563,-0.112057135,0.4749979,0.4508603,0.50734466,-0.1031953,0.4544886,0.73781645,0.45995492,-0.09651717,0.37891403,0.5637147,0.1212239,-0.33891407,-0.28950587,-0.119074315,787.326,793.36993,789.34064,805.8608,763.95605,-0.1558837890625,-0.012939453125,0.99468994140625,0.1495361328125,-1.136474609375,0.291595458984375,1,1.0,1.0,1.0,1.0,10.00
2024-10-11 20:28:31.496,0.30167508,-0.07567414,0.67310166,0.583876,0.31085563,-0.112057135,0.4749979,0.4508603,0.50734466,-0.1031953,0.4544886,0.73781645,0.45995492,-0.09651717,0.37891403,0.5637147,0.1212239,-0.33891407,-0.28950587,-0.119074315,784.90845,792.5641,792.5641,799.81683,667.6557,-0.1558837890625,-0.012939453125,0.99468994140625,0.1495361328125,-1.136474609375,0.291595458984375,1,1.0,1.0,1.0,1.0,10.00
2024-10-11 20:28:31.497,0.30167508,-0.07567414,0.67310166,0.583876,0.31085563,-0.112057135,0.4749979,0.4508603,0.50734466,-0.1031953,0.4544886,0.73781645,0.45995492,-0.09651717,0.37891403,0.5637147,0.1212239,-0.33891407,-0.28950587,-0.119074315,787.326,794.17584,801.4286,802.6374,726.08057,-0.1558837890625,-0.012939453125,0.99468994140625,0.1495361328125,-1.136474609375,0.291595458984375,1,1.0,1.0,1.0,1.0,10.00
2024-10-11 20:28:31.497,0.30167508,-0.07567414,0.67310166,0.583876,0.31085563,-0.112057135,0.4749979,0.4508603,0.50734466,-0.1031953,0.4544886,0.73781645,0.45995492,-0.09651717,0.37891403,0.5637147,0.1212239,-0.33891407,-0.28950587,-0.119074315,784.5055,795.38464,805.05493,807.8755,676.1172,-0.15087890625,-0.0118408203125,0.999755859375,0.485992431640625,-2.190704345703125,0.58319091796875,1,1.0,1.0,1.0,1.0,10.00
2024-10-11 20:28:31.498,0.30167508,-0.07567414,0.67310166,0.583876,0.31085563,-0.112057135,0.4749979,0.4508603,0.50734466,-0.1031953,0.4544886,0.73781645,0.45995492,-0.09651717,0.37891403,0.5637147,0.1212239,-0.33891407,-0.28950587,-0.119074315,787.326,796.5934,801.4286,807.0696,666.4469,-0.15087890625,-0.0118408203125,0.999755859375,0.485992431640625,-2.190704345703125,0.58319091796875,1,1.0,1.0,1.0,1.0,10.00
2024-10-11 20:28:31.498,0.30167508,-0.07567414,0.67310166,0.583876,0.31085563,-0.112057135,0.4749979,0.4508603,0.50734466,-0.1031953,0.4544886,0.73781645,0.45995492,-0.09651717,0.37891403,0.5637147,0.1212239,-0.33891407,-0.28950587,-0.119074315,794.57874,792.96704,795.38464,805.4579,647.50916,-0.15087890625,-0.0118408203125,0.999755859375,0.485992431640625,-2.190704345703125,0.58319091796875,1,1.0,1.0,1.0,1.0,10.00
2024-10-11 20:28:31.499,0.30167508,-0.07567414,0.67310166,0.583876,0.31085563,-0.112057135,0.4749979,0.4508603,0.50734466,-0.1031953,0.4544886,0.73781645,0.45995492,-0.09651717,0.37891403,0.5637147,0.1212239,-0.33891407,-0.28950587,-0.119074315,796.1905,794.9817,799.41394,807.8755,734.1392,-0.15087890625,-0.0118408203125,0.999755859375,0.485992431640625,-2.190704345703125,0.58319091796875,1,1.0,1.0,1.0,1.0,10.00
2024-10-11 20:28:31.499,0.30167508,-0.07567414,0.67310166,0.583876,0.31085563,-0.112057135,0.4749979,0.4508603,0.50734466,-0.1031953,0.4544886,0.73781645,0.45995492,-0.09651717,0.37891403,0.5637147,0.1212239,-0.33891407,-0.28950587,-0.119074315,799.41394,790.9524,799.81683,808.68134,756.7033,-0.15087890625,-0.0118408203125,0.999755859375,0.485992431640625,-2.190704345703125,0.58319091796875,1,1.0,1.0,1.0,1.0,10.00
2024-10-11 20:28:31.500,0.30167508,-0.07567414,0.67310166,0.583876,0.31085563,-0.112057135,0.4749979,0.4508603,0.50734466,-0.1031953,0.4544886,0.73781645,0.45995492,-0.09651717,0.37891403,0.5637147,0.1212239,-0.33891407,-0.28950587,-0.119074315,803.0403,792.96704,803.8461,810.293,774.0293,-0.15087890625,-0.0118408203125,0.999755859375,0.485992431640625,-2.190704345703125,0.58319091796875,1,1.0,1.0,1.0,1.0,10.00
2024-10-11 20:28:31.500,0.30167508,-0.07567414,0.67310166,0.583876,0.31085563,-0.112057135,0.4749979,0.4508603,0.50734466,-0.1031953,0.4544886,0.73781645,0.45995492,-0.09651717,0.37891403,0.5637147,0.1212239,-0.33891407,-0.28950587,-0.119074315,803.44324,799.81683,803.0403,807.8755,884.43225,-0.15087890625,-0.0118408203125,0.999755859375,0.485992431640625,-2.190704345703125,0.58319091796875,1,1.0,1.0,1.0,1.0,10.00
2024-10-11 20:28:31.501,0.30167508,-0.07567414,0.67310166,0.583876,0.31085563,-0.112057135,0.4749979,0.4508603,0.50734466,-0.1031953,0.4544886,0.73781645,0.45995492,-0.09651717,0.37891403,0.5637147,0.1212239,-0.33891407,-0.28950587,-0.119074315,804.2491,796.99634,796.99634,806.6667,1025.8608,-0.15087890625,-0.0118408203125,0.999755859375,0.485992431640625,-2.190704345703125,0.58319091796875,1,1.0,1.0,1.0,1.0,10.00
2024-10-11 20:28:31.502,0.30167508,-0.07567414,0.67310166,0.583876,0.31085563,-0.112057135,0.4749979,0.4508603,0.50734466,-0.1031953,0.4544886,0.73781645,0.45995492,-0.09651717,0.37891403,0.5637147,0.1212239,-0.33891407,-0.28950587,-0.119074315,807.8755,799.41394,791.75824,803.44324,813.5165,-0.15087890625,-0.0118408203125,0.999755859375,0.485992431640625,-2.190704345703125,0.58319091796875,1,1.0,1.0,1.0,1.0,10.00
2024-10-11 20:28:31.502,0.30167508,-0.07567414,0.67310166,0.583876,0.31085563,-0.112057135,0.4749979,0.4508603,0.50734466,-0.1031953,0.4544886,0.73781645,0.45995492,-0.09651717,0.37891403,0.5637147,0.1212239,-0.33891407,-0.28950587,-0.119074315,812.71063,799.81683,797.3993,800.6227,645.09155,-0.15087890625,-0.0118408203125,0.999755859375,0.485992431640625,-2.190704345703125,0.58319091796875,1,1.0,1.0,1.0,1.0,10.00
2024-10-11 20:28:31.503,0.30167508,-0.07567414,0.67310166,0.583876,0.31085563,-0.112057135,0.4749979,0.4508603,0.50734466,-0.1031953,0.4544886,0.73781645,0.45995492,-0.09651717,0.37891403,0.5637147,0.1212239,-0.33891407,-0.28950587,-0.119074315,810.293,799.011,812.3077,802.23444,713.1868,-0.15087890625,-0.0118408203125,0.999755859375,0.485992431640625,-2.190704345703125,0.58319091796875,1,1.0,1.0,1.0,1.0,10.00
2024-10-11 20:28:31.503,0.30167508,-0.07567414,0.67310166,0.583876,0.31085563,-0.112057135,0.4749979,0.4508603,0.50734466,-0.1031953,0.4544886,0.73781645,0.45995492,-0.09651717,0.37891403,0.5637147,0.1212239,-0.33891407,-0.28950587,-0.119074315,808.2784,800.2198,809.89014,797.8022,818.3516,-0.15087890625,-0.0118408203125,0.999755859375,0.485992431640625,-2.190704345703125,0.58319091796875,1,1.0,1.0,1.0,1.0,10.00
2024-10-11 20:28:31.541,0.30167508,-0.07567414,0.67310166,0.583876,0.31085563,-0.112057135,0.4749979,0.4508603,0.50734466,-0.1031953,0.4544886,0.73781645,0.45995492,-0.09651717,0.37891403,0.5637147,0.1212239,-0.33891407,-0.28950587,-0.119074315,812.71063,800.6227,809.4872,796.5934,782.0879,-0.14813232421875,-0.01373291015625,0.99884033203125,-0.351409912109375,-2.474822998046875,-0.560760498046875,1,1.0,1.0,1.0,1.0,10.00
2024-10-11 20:28:31.542,0.30167508,-0.07567414,0.67310166,0.583876,0.31085563,-0.112057135,0.4749979,0.4508603,0.50734466,-0.1031953,0.4544886,0.73781645,0.45995492,-0.09651717,0.37891403,0.5637147,0.1212239,-0.33891407,-0.28950587,-0.119074315,809.4872,801.02563,809.89014,794.9817,690.6227,-0.14813232421875,-0.01373291015625,0.99884033203125,-0.351409912109375,-2.474822998046875,-0.560760498046875,1,1.0,1.0,1.0,1.0,10.00
2024-10-11 20:28:31.543,0.30167508,-0.07567414,0.67310166,0.583876,0.31085563,-0.112057135,0.4749979,0.4508603,0.50734466,-0.1031953,0.4544886,0.73781645,0.45995492,-0.09651717,0.37891403,0.5637147,0.1212239,-0.33891407,-0.28950587,-0.119074315,802.6374,797.3993,803.44324,793.36993,788.93774,-0.14813232421875,-0.01373291015625,0.99884033203125,-0.351409912109375,-2.474822998046875,-0.560760498046875,1,1.0,1.0,1.0,1.0,10.00
2024-10-11 20:28:31.545,0.30167508,-0.07567414,0.67310166,0.583876,0.31085563,-0.112057135,0.4749979,0.4508603,0.50734466,-0.1031953,0.4544886,0.73781645,0.45995492,-0.09651717,0.37891403,0.5637147,0.1212239,-0.33891407,-0.28950587,-0.119074315,800.2198,800.2198,803.8461,801.4286,878.7912,-0.14813232421875,-0.01373291015625,0.99884033203125,-0.351409912109375,-2.474822998046875,-0.560760498046875,1,1.0,1.0,1.0,1.0,10.00
2024-10-11 20:28:31.545,0.30167508,-0.07567414,0.67310166,0.583876,0.31085563,-0.112057135,0.4749979,0.4508603,0.50734466,-0.1031953,0.4544886,0.73781645,0.45995492,-0.09651717,0.37891403,0.5637147,0.1212239,-0.33891407,-0.28950587,-0.119074315,800.6227,803.0403,806.6667,803.0403,759.12085,-0.14813232421875,-0.01373291015625,0.99884033203125,-0.351409912109375,-2.474822998046875,-0.560760498046875,1,1.0,1.0,1.0,1.0,10.00
2024-10-11 20:28:31.546,0.28680232,-0.07506273,0.6673217,0.57386684,0.362044,-0.08585371,0.47490588,0.4624799,0.54705656,-0.07015045,0.4544886,0.73714507,0.4526862,-0.11313915,0.37370232,0.54480106,0.12197253,-0.38392913,-0.31823125,-0.115785725,805.05493,802.23444,803.8461,805.8608,738.97437,-0.14813232421875,-0.01373291015625,0.99884033203125,-0.351409912109375,-2.474822998046875,-0.560760498046875,1,1.0,1.0,1.0,1.0,10.00
2024-10-11 20:28:31.550,0.28680232,-0.07506273,0.6673217,0.57386684,0.362044,-0.08585371,0.47490588,0.4624799,0.54705656,-0.07015045,0.4544886,0.73714507,0.4526862,-0.11313915,0.37370232,0.54480106,0.12197253,-0.38392913,-0.31823125,-0.115785725,803.44324,799.41394,800.2198,809.4872,921.0989,-0.14813232421875,-0.01373291015625,0.99884033203125,-0.351409912109375,-2.474822998046875,-0.560760498046875,1,1.0,1.0,1.0,1.0,10.00
2024-10-11 20:28:31.550,0.28680232,-0.07506273,0.6673217,0.57386684,0.362044,-0.08585371,0.47490588,0.4624799,0.54705656,-0.07015045,0.4544886,0.73714507,0.4526862,-0.11313915,0.37370232,0.54480106,0.12197253,-0.38392913,-0.31823125,-0.115785725,792.5641,790.14655,799.41394,807.8755,1179.3773,-0.14813232421875,-0.01373291015625,0.99884033203125,-0.351409912109375,-2.474822998046875,-0.560760498046875,1,1.0,1.0,1.0,1.0,10.00
2024-10-11 20:28:31.551,0.28680232,-0.07506273,0.6673217,0.57386684,0.362044,-0.08585371,0.47490588,0.4624799,0.54705656,-0.07015045,0.4544886,0.73714507,0.4526862,-0.11313915,0.37370232,0.54480106,0.12197253,-0.38392913,-0.31823125,-0.115785725,799.81683,799.011,797.8022,805.05493,1032.3077,-0.14813232421875,-0.01373291015625,0.99884033203125,-0.351409912109375,-2.474822998046875,-0.560760498046875,1,1.0,1.0,1.0,1.0,10.00
2024-10-11 20:28:31.551,0.28680232,-0.07506273,0.6673217,0.57386684,0.362044,-0.08585371,0.47490588,0.4624799,0.54705656,-0.07015045,0.4544886,0.73714507,0.4526862,-0.11313915,0.37370232,0.54480106,0.12197253,-0.38392913,-0.31823125,-0.115785725,801.02563,810.293,797.8022,805.8608,794.9817,-0.14813232421875,-0.01373291015625,0.99884033203125,-0.351409912109375,-2.474822998046875,-0.560760498046875,1,1.0,1.0,1.0,1.0,10.00
2024-10-11 20:28:31.552,0.28680232,-0.07506273,0.6673217,0.57386684,0.362044,-0.08585371,0.47490588,0.4624799,0.54705656,-0.07015045,0.4544886,0.73714507,0.4526862,-0.11313915,0.37370232,0.54480106,0.12197253,-0.38392913,-0.31823125,-0.115785725,803.44324,802.23444,803.8461,804.2491,896.52014,-0.14813232421875,-0.01373291015625,0.99884033203125,-0.351409912109375,-2.474822998046875,-0.560760498046875,1,1.0,1.0,1.0,1.0,10.00
2024-10-11 20:28:31.552,0.28680232,-0.07506273,0.6673217,0.57386684,0.362044,-0.08585371,0.47490588,0.4624799,0.54705656,-0.07015045,0.4544886,0.73714507,0.4526862,-0.11313915,0.37370232,0.54480106,0.12197253,-0.38392913,-0.31823125,-0.115785725,807.0696,795.78754,803.8461,796.1905,701.50183,-0.14813232421875,-0.01373291015625,0.99884033203125,-0.351409912109375,-2.474822998046875,-0.560760498046875,1,1.0,1.0,1.0,1.0,10.00
2024-10-11 20:28:31.591,0.28680232,-0.07506273,0.6673217,0.57386684,0.362044,-0.08585371,0.47490588,0.4624799,0.54705656,-0.07015045,0.4544886,0.73714507,0.4526862,-0.11313915,0.37370232,0.54480106,0.12197253,-0.38392913,-0.31823125,-0.115785725,792.5641,796.99634,801.8315,794.9817,523.8095,-0.14349365234375,-0.01776123046875,0.99835205078125,-0.590667724609375,-1.712188720703125,-2.355194091796875,1,1.0,1.0,1.0,1.0,10.00
2024-10-11 20:28:31.592,0.28680232,-0.07506273,0.6673217,0.57386684,0.362044,-0.08585371,0.47490588,0.4624799,0.54705656,-0.07015045,0.4544886,0.73714507,0.4526862,-0.11313915,0.37370232,0.54480106,0.12197253,-0.38392913,-0.31823125,-0.115785725,788.5348,792.5641,799.81683,796.1905,604.3956,-0.14349365234375,-0.01776123046875,0.99835205078125,-0.590667724609375,-1.712188720703125,-2.355194091796875,1,1.0,1.0,1.0,1.0,10.00
2024-10-11 20:28:31.593,0.28680232,-0.07506273,0.6673217,0.57386684,0.362044,-0.08585371,0.47490588,0.4624799,0.54705656,-0.07015045,0.4544886,0.73714507,0.4526862,-0.11313915,0.37370232,0.54480106,0.12197253,-0.38392913,-0.31823125,-0.115785725,794.9817,791.75824,796.99634,801.02563,641.4652,-0.14349365234375,-0.01776123046875,0.99835205078125,-0.590667724609375,-1.712188720703125,-2.355194091796875,1,1.0,1.0,1.0,1.0,10.00
2024-10-11 20:28:31.594,0.28680232,-0.07506273,0.6673217,0.57386684,0.362044,-0.08585371,0.47490588,0.4624799,0.54705656,-0.07015045,0.4544886,0.73714507,0.4526862,-0.11313915,0.37370232,0.54480106,0.12197253,-0.38392913,-0.31823125,-0.115785725,798.60803,798.20514,793.36993,799.41394,583.44324,-0.14349365234375,-0.01776123046875,0.99835205078125,-0.590667724609375,-1.712188720703125,-2.355194091796875,1,1.0,1.0,1.0,1.0,10.00
2024-10-11 20:28:31.594,0.28680232,-0.07506273,0.6673217,0.57386684,0.362044,-0.08585371,0.47490588,0.4624799,0.54705656,-0.07015045,0.4544886,0.73714507,0.4526862,-0.11313915,0.37370232,0.54480106,0.12197253,-0.38392913,-0.31823125,-0.115785725,800.2198,799.011,791.75824,795.38464,488.75458,-0.14349365234375,-0.01776123046875,0.99835205078125,-0.590667724609375,-1.712188720703125,-2.355194091796875,1,1.0,1.0,1.0,1.0,10.00
2024-10-11 20:28:31.595,0.28680232,-0.07506273,0.6673217,0.57386684,0.362044,-0.08585371,0.47490588,0.4624799,0.54705656,-0.07015045,0.4544886,0.73714507,0.4526862,-0.11313915,0.37370232,0.54480106,0.12197253,-0.38392913,-0.31823125,-0.115785725,798.60803,799.011,799.81683,799.41394,774.0293,-0.14349365234375,-0.01776123046875,0.99835205078125,-0.590667724609375,-1.712188720703125,-2.355194091796875,1,1.0,1.0,1.0,1.0,10.00
2024-10-11 20:28:31.596,0.28680232,-0.07506273,0.6673217,0.57386684,0.362044,-0.08585371,0.47490588,0.4624799,0.54705656,-0.07015045,0.4544886,0.73714507,0.4526862,-0.11313915,0.37370232,0.54480106,0.12197253,-0.38392913,-0.31823125,-0.115785725,799.81683,800.2198,800.2198,804.65204,1102.4176,-0.14349365234375,-0.01776123046875,0.99835205078125,-0.590667724609375,-1.712188720703125,-2.355194091796875,1,1.0,1.0,1.0,1.0,10.00
2024-10-11 20:28:31.596,0.28680232,-0.07506273,0.6673217,0.57386684,0.362044,-0.08585371,0.47490588,0.4624799,0.54705656,-0.07015045,0.4544886,0.73714507,0.4526862,-0.11313915,0.37370232,0.54480106,0.12197253,-0.38392913,-0.31823125,-0.115785725,801.02563,801.02563,797.3993,801.02563,851.39197,-0.14349365234375,-0.01776123046875,0.99835205078125,-0.590667724609375,-1.712188720703125,-2.355194091796875,1,1.0,1.0,1.0,1.0,10.00
2024-10-11 20:28:31.597,0.28680232,-0.07506273,0.6673217,0.57386684,0.362044,-0.08585371,0.47490588,0.4624799,0.54705656,-0.07015045,0.4544886,0.73714507,0.4526862,-0.11313915,0.37370232,0.54480106,0.12197253,-0.38392913,-0.31823125,-0.115785725,802.6374,803.0403,804.2491,796.99634,616.08057,-0.14349365234375,-0.01776123046875,0.99835205078125,-0.590667724609375,-1.712188720703125,-2.355194091796875,1,1.0,1.0,1.0,1.0,10.00
2024-10-11 20:28:31.598,0.28680232,-0.07506273,0.6673217,0.57386684,0.362044,-0.08585371,0.47490588,0.4624799,0.54705656,-0.07015045,0.4544886,0.73714507,0.4526862,-0.11313915,0.37370232,0.54480106,0.12197253,-0.38392913,-0.31823125,-0.115785725,808.2784,799.81683,805.8608,802.6374,696.6667,-0.14349365234375,-0.01776123046875,0.99835205078125,-0.590667724609375,-1.712188720703125,-2.355194091796875,1,1.0,1.0,1.0,1.0,10.00
2024-10-11 20:28:31.599,0.28680232,-0.07506273,0.6673217,0.57386684,0.362044,-0.08585371,0.47490588,0.4624799,0.54705656,-0.07015045,0.4544886,0.73714507,0.4526862,-0.11313915,0.37370232,0.54480106,0.12197253,-0.38392913,-0.31823125,-0.115785725,809.89014,800.6227,805.4579,810.293,983.1502,-0.14349365234375,-0.01776123046875,0.99835205078125,-0.590667724609375,-1.712188720703125,-2.355194091796875,1,1.0,1.0,1.0,1.0,10.00
2024-10-11 20:28:31.599,0.28680232,-0.07506273,0.6673217,0.57386684,0.362044,-0.08585371,0.47490588,0.4624799,0.54705656,-0.07015045,0.4544886,0.73714507,0.4526862,-0.11313915,0.37370232,0.54480106,0.12197253,-0.38392913,-0.31823125,-0.115785725,807.47253,802.6374,805.05493,801.4286,919.89014,-0.14349365234375,-0.01776123046875,0.99835205078125,-0.590667724609375,-1.712188720703125,-2.355194091796875,1,1.0,1.0,1.0,1.0,10.00
2024-10-11 20:28:31.693,0.28680232,-0.07506273,0.6673217,0.57386684,0.362044,-0.08585371,0.47490588,0.4624799,0.54705656,-0.07015045,0.4544886,0.73714507,0.4526862,-0.11313915,0.37370232,0.54480106,0.12197253,-0.38392913,-0.31823125,-0.115785725,795.78754,797.3993,795.38464,790.9524,616.4835,-0.136474609375,-0.014404296875,0.99835205078125,-1.1663818359375,-1.854248046875,-1.86920166015625,1,1.0,1.0,1.0,1.0,10.00
2024-10-11 20:28:31.694,0.28680232,-0.07506273,0.6673217,0.57386684,0.362044,-0.08585371,0.47490588,0.4624799,0.54705656,-0.07015045,0.4544886,0.73714507,0.4526862,-0.11313915,0.37370232,0.54480106,0.12197253,-0.38392913,-0.31823125,-0.115785725,797.3993,801.4286,791.75824,793.7729,706.7399,-0.136474609375,-0.014404296875,0.99835205078125,-1.1663818359375,-1.854248046875,-1.86920166015625,1,1.0,1.0,1.0,1.0,10.00
2024-10-11 20:28:31.695,0.28680232,-0.07506273,0.6673217,0.57386684,0.362044,-0.08585371,0.47490588,0.4624799,0.54705656,-0.07015045,0.4544886,0.73714507,0.4526862,-0.11313915,0.37370232,0.54480106,0.12197253,-0.38392913,-0.31823125,-0.115785725,803.44324,806.26373,798.20514,797.8022,869.5238,-0.136474609375,-0.014404296875,0.99835205078125,-1.1663818359375,-1.854248046875,-1.86920166015625,1,1.0,1.0,1.0,1.0,10.00
2024-10-11 20:28:31.695,0.28680232,-0.07506273,0.6673217,0.57386684,0.362044,-0.08585371,0.47490588,0.4624799,0.54705656,-0.07015045,0.4544886,0.73714507,0.4526862,-0.11313915,0.37370232,0.54480106,0.12197253,-0.38392913,-0.31823125,-0.115785725,802.6374,803.8461,796.99634,790.9524,673.69965,-0.136474609375,-0.014404296875,0.99835205078125,-1.1663818359375,-1.854248046875,-1.86920166015625,1,1.0,1.0,1.0,1.0,10.00
2024-10-11 20:28:31.696,0.28680232,-0.07506273,0.6673217,0.57386684,0.362044,-0.08585371,0.47490588,0.4624799,0.54705656,-0.07015045,0.4544886,0.73714507,0.4526862,-0.11313915,0.37370232,0.54480106,0.12197253,-0.38392913,-0.31823125,-0.115785725,807.0696,803.44324,796.99634,793.7729,562.0879,-0.136474609375,-0.014404296875,0.99835205078125,-1.1663818359375,-1.854248046875,-1.86920166015625,1,1.0,1.0,1.0,1.0,10.00
2024-10-11 20:28:31.696,0.28680232,-0.07506273,0.6673217,0.57386684,0.362044,-0.08585371,0.47490588,0.4624799,0.54705656,-0.07015045,0.4544886,0.73714507,0.4526862,-0.11313915,0.37370232,0.54480106,0.12197253,-0.38392913,-0.31823125,-0.115785725,810.293,802.23444,795.38464,796.1905,762.3443,-0.136474609375,-0.014404296875,0.99835205078125,-1.1663818359375,-1.854248046875,-1.86920166015625,1,1.0,1.0,1.0,1.0,10.00
2024-10-11 20:28:31.697,0.28680232,-0.07506273,0.6673217,0.57386684,0.362044,-0.08585371,0.47490588,0.4624799,0.54705656,-0.07015045,0.4544886,0.73714507,0.4526862,-0.11313915,0.37370232,0.54480106,0.12197253,-0.38392913,-0.31823125,-0.115785725,809.4872,799.41394,794.17584,794.17584,850.989,-0.136474609375,-0.014404296875,0.99835205078125,-1.1663818359375,-1.854248046875,-1.86920166015625,1,1.0,1.0,1.0,1.0,10.00
2024-10-11 20:28:31.697,0.28046972,-0.072126456,0.64960337,0.5577186,0.41637212,-0.039032593,0.46960354,0.47756714,0.56203854,0.0032444058,0.4544886,0.741654,0.43728969,-0.13215981,0.3640552,0.52409315,0.11802762,-0.42213598,-0.35006753,-0.11693881,806.6667,799.41394,799.81683,790.54944,752.674,-0.136474609375,-0.014404296875,0.99835205078125,-1.1663818359375,-1.854248046875,-1.86920166015625,1,1.0,1.0,1.0,1.0,10.00
2024-10-11 20:28:31.702,0.28046972,-0.072126456,0.64960337,0.5577186,0.41637212,-0.039032593,0.46960354,0.47756714,0.56203854,0.0032444058,0.4544886,0.741654,0.43728969,-0.13215981,0.3640552,0.52409315,0.11802762,-0.42213598,-0.35006753,-0.11693881,804.65204,801.4286,799.41394,787.326,662.4176,-0.136474609375,-0.014404296875,0.99835205078125,-1.1663818359375,-1.854248046875,-1.86920166015625,1,1.0,1.0,1.0,1.0,10.00
2024-10-11 20:28:31.703,0.28046972,-0.072126456,0.64960337,0.5577186,0.41637212,-0.039032593,0.46960354,0.47756714,0.56203854,0.0032444058,0.4544886,0.741654,0.43728969,-0.13215981,0.3640552,0.52409315,0.11802762,-0.42213598,-0.35006753,-0.11693881,801.02563,794.9817,792.96704,792.1612,847.76556,-0.136474609375,-0.014404296875,0.99835205078125,-1.1663818359375,-1.854248046875,-1.86920166015625,1,1.0,1.0,1.0,1.0,10.00
2024-10-11 20:28:31.703,0.28046972,-0.072126456,0.64960337,0.5577186,0.41637212,-0.039032593,0.46960354,0.47756714,0.56203854,0.0032444058,0.4544886,0.741654,0.43728969,-0.13215981,0.3640552,0.52409315,0.11802762,-0.42213598,-0.35006753,-0.11693881,794.17584,794.9817,790.14655,793.36993,919.0842,-0.136474609375,-0.014404296875,0.99835205078125,-1.1663818359375,-1.854248046875,-1.86920166015625,1,1.0,1.0,1.0,1.0,10.00
2024-10-11 20:28:31.704,0.28046972,-0.072126456,0.64960337,0.5577186,0.41637212,-0.039032593,0.46960354,0.47756714,0.56203854,0.0032444058,0.4544886,0.741654,0.43728969,-0.13215981,0.3640552,0.52409315,0.11802762,-0.42213598,-0.35006753,-0.11693881,799.81683,802.23444,797.8022,794.17584,711.5751,-0.136474609375,-0.014404296875,0.99835205078125,-1.1663818359375,-1.854248046875,-1.86920166015625,1,1.0,1.0,1.0,1.0,10.00
2024-10-11 20:28:31.705,0.28046972,-0.072126456,0.64960337,0.5577186,0.41637212,-0.039032593,0.46960354,0.47756714,0.56203854,0.0032444058,0.4544886,0.741654,0.43728969,-0.13215981,0.3640552,0.52409315,0.11802762,-0.42213598,-0.35006753,-0.11693881,805.8608,802.23444,804.2491,796.1905,690.2198,-0.14398193359375,-0.02142333984375,1.00274658203125,-1.951446533203125,-1.413116455078125,0.22430419921875,1,1.0,1.0,1.0,1.0,10.00
2024-10-11 20:28:31.705,0.28046972,-0.072126456,0.64960337,0.5577186,0.41637212,-0.039032593,0.46960354,0.47756714,0.56203854,0.0032444058,0.4544886,0.741654,0.43728969,-0.13215981,0.3640552,0.52409315,0.11802762,-0.42213598,-0.35006753,-0.11693881,803.0403,802.6374,803.0403,794.9817,748.6447,-0.14398193359375,-0.02142333984375,1.00274658203125,-1.951446533203125,-1.413116455078125,0.22430419921875,1,1.0,1.0,1.0,1.0,10.00
2024-10-11 20:28:31.706,0.28046972,-0.072126456,0.64960337,0.5577186,0.41637212,-0.039032593,0.46960354,0.47756714,0.56203854,0.0032444058,0.4544886,0.741654,0.43728969,-0.13215981,0.3640552,0.52409315,0.11802762,-0.42213598,-0.35006753,-0.11693881,799.41394,804.2491,801.4286,793.7729,850.989,-0.14398193359375,-0.02142333984375,1.00274658203125,-1.951446533203125,-1.413116455078125,0.22430419921875,1,1.0,1.0,1.0,1.0,10.00
2024-10-11 20:28:31.706,0.28046972,-0.072126456,0.64960337,0.5577186,0.41637212,-0.039032593,0.46960354,0.47756714,0.56203854,0.0032444058,0.4544886,0.741654,0.43728969,-0.13215981,0.3640552,0.52409315,0.11802762,-0.42213598,-0.35006753,-0.11693881,788.1319,799.81683,794.9817,792.1612,758.71796,-0.14398193359375,-0.02142333984375,1.00274658203125,-1.951446533203125,-1.413116455078125,0.22430419921875,1,1.0,1.0,1.0,1.0,10.00
2024-10-11 20:28:31.707,0.28046972,-0.072126456,0.64960337,0.5577186,0.41637212,-0.039032593,0.46960354,0.47756714,0.56203854,0.0032444058,0.4544886,0.741654,0.43728969,-0.13215981,0.3640552,0.52409315,0.11802762,-0.42213598,-0.35006753,-0.11693881,786.52014,794.57874,787.72894,796.5934,714.7985,-0.14398193359375,-0.02142333984375,1.00274658203125,-1.951446533203125,-1.413116455078125,0.22430419921875,1,1.0,1.0,1.0,1.0,10.00
2024-10-11 20:28:31.708,0.28046972,-0.072126456,0.64960337,0.5577186,0.41637212,-0.039032593,0.46960354,0.47756714,0.56203854,0.0032444058,0.4544886,0.741654,0.43728969,-0.13215981,0.3640552,0.52409315,0.11802762,-0.42213598,-0.35006753,-0.11693881,787.326,792.5641,794.57874,798.60803,1017.8022,-0.14398193359375,-0.02142333984375,1.00274658203125,-1.951446533203125,-1.413116455078125,0.22430419921875,1,1.0,1.0,1.0,1.0,10.00
2024-10-11 20:28:31.709,0.28046972,-0.072126456,0.64960337,0.5577186,0.41637212,-0.039032593,0.46960354,0.47756714,0.56203854,0.0032444058,0.4544886,0.741654,0.43728969,-0.13215981,0.3640552,0.52409315,0.11802762,-0.42213598,-0.35006753,-0.11693881,791.75824,797.3993,803.8461,798.20514,906.99634,-0.14398193359375,-0.02142333984375,1.00274658203125,-1.951446533203125,-1.413116455078125,0.22430419921875,1,1.0,1.0,1.0,1.0,10.00
2024-10-11 20:28:31.710,0.28046972,-0.072126456,0.64960337,0.5577186,0.41637212,-0.039032593,0.46960354,0.47756714,0.56203854,0.0032444058,0.4544886,0.741654,0.43728969,-0.13215981,0.3640552,0.52409315,0.11802762,-0.42213598,-0.35006753,-0.11693881,800.6227,799.41394,804.2491,798.60803,682.5641,-0.14398193359375,-0.02142333984375,1.00274658203125,-1.951446533203125,-1.413116455078125,0.22430419921875,1,1.0,1.0,1.0,1.0,10.00
2024-10-11 20:28:31.710,0.28046972,-0.072126456,0.64960337,0.5577186,0.41637212,-0.039032593,0.46960354,0.47756714,0.56203854,0.0032444058,0.4544886,0.741654,0.43728969,-0.13215981,0.3640552,0.52409315,0.11802762,-0.42213598,-0.35006753,-0.11693881,794.57874,792.1612,799.41394,799.81683,758.71796,-0.14398193359375,-0.02142333984375,1.00274658203125,-1.951446533203125,-1.413116455078125,0.22430419921875,1,1.0,1.0,1.0,1.0,10.00
2024-10-11 20:28:31.711,0.28046972,-0.072126456,0.64960337,0.5577186,0.41637212,-0.039032593,0.46960354,0.47756714,0.56203854,0.0032444058,0.4544886,0.741654,0.43728969,-0.13215981,0.3640552,0.52409315,0.11802762,-0.42213598,-0.35006753,-0.11693881,796.5934,791.75824,803.0403,805.4579,839.304,-0.14398193359375,-0.02142333984375,1.00274658203125,-1.951446533203125,-1.413116455078125,0.22430419921875,1,1.0,1.0,1.0,1.0,10.00
2024-10-11 20:28:31.711,0.28046972,-0.072126456,0.64960337,0.5577186,0.41637212,-0.039032593,0.46960354,0.47756714,0.56203854,0.0032444058,0.4544886,0.741654,0.43728969,-0.13215981,0.3640552,0.52409315,0.11802762,-0.42213598,-0.35006753,-0.11693881,799.81683,797.8022,809.89014,806.6667,767.5824,-0.14398193359375,-0.02142333984375,1.00274658203125,-1.951446533203125,-1.413116455078125,0.22430419921875,1,1.0,1.0,1.0,1.0,10.00
2024-10-11 20:28:31.712,0.28046972,-0.072126456,0.64960337,0.5577186,0.41637212,-0.039032593,0.46960354,0.47756714,0.56203854,0.0032444058,0.4544886,0.741654,0.43728969,-0.13215981,0.3640552,0.52409315,0.11802762,-0.42213598,-0.35006753,-0.11693881,798.60803,794.57874,804.65204,803.44324,703.1135,-0.14398193359375,-0.02142333984375,1.00274658203125,-1.951446533203125,-1.413116455078125,0.22430419921875,1,1.0,1.0,1.0,1.0,10.00
2024-10-11 20:28:31.734,0.28046972,-0.072126456,0.64960337,0.5577186,0.41637212,-0.039032593,0.46960354,0.47756714,0.56203854,0.0032444058,0.4544886,0.741654,0.43728969,-0.13215981,0.3640552,0.52409315,0.11802762,-0.42213598,-0.35006753,-0.11693881,795.38464,790.9524,800.2198,801.02563,761.53845,-0.14398193359375,-0.02142333984375,1.00274658203125,-1.951446533203125,-1.413116455078125,0.22430419921875,1,1.0,1.0,1.0,1.0,10.00
2024-10-11 20:28:31.734,0.28046972,-0.072126456,0.64960337,0.5577186,0.41637212,-0.039032593,0.46960354,0.47756714,0.56203854,0.0032444058,0.4544886,0.741654,0.43728969,-0.13215981,0.3640552,0.52409315,0.11802762,-0.42213598,-0.35006753,-0.11693881,794.57874,794.9817,800.2198,803.0403,790.54944,-0.14398193359375,-0.02142333984375,1.00274658203125,-1.951446533203125,-1.413116455078125,0.22430419921875,1,1.0,1.0,1.0,1.0,10.00
2024-10-11 20:28:31.735,0.28046972,-0.072126456,0.64960337,0.5577186,0.41637212,-0.039032593,0.46960354,0.47756714,0.56203854,0.0032444058,0.4544886,0.741654,0.43728969,-0.13215981,0.3640552,0.52409315,0.11802762,-0.42213598,-0.35006753,-0.11693881,794.57874,794.57874,796.99634,803.44324,768.7912,-0.14398193359375,-0.02142333984375,1.00274658203125,-1.951446533203125,-1.413116455078125,0.22430419921875,1,1.0,1.0,1.0,1.0,10.00
2024-10-11 20:28:31.736,0.28046972,-0.072126456,0.64960337,0.5577186,0.41637212,-0.039032593,0.46960354,0.47756714,0.56203854,0.0032444058,0.4544886,0.741654,0.43728969,-0.13215981,0.3640552,0.52409315,0.11802762,-0.42213598,-0.35006753,-0.11693881,799.011,792.96704,796.5934,809.89014,777.25275,-0.14398193359375,-0.02142333984375,1.00274658203125,-1.951446533203125,-1.413116455078125,0.22430419921875,1,1.0,1.0,1.0,1.0,10.00
2024-10-11 20:28:31.736,0.28046972,-0.072126456,0.64960337,0.5577186,0.41637212,-0.039032593,0.46960354,0.47756714,0.56203854,0.0032444058,0.4544886,0.741654,0.43728969,-0.13215981,0.3640552,0.52409315,0.11802762,-0.42213598,-0.35006753,-0.11693881,804.2491,790.9524,803.8461,811.50183,851.79486,-0.14398193359375,-0.02142333984375,1.00274658203125,-1.951446533203125,-1.413116455078125,0.22430419921875,1,1.0,1.0,1.0,1.0,10.00
2024-10-11 20:28:31.737,0.28046972,-0.072126456,0.64960337,0.5577186,0.41637212,-0.039032593,0.46960354,0.47756714,0.56203854,0.0032444058,0.4544886,0.741654,0.43728969,-0.13215981,0.3640552,0.52409315,0.11802762,-0.42213598,-0.35006753,-0.11693881,799.41394,787.326,808.2784,804.2491,900.9524,-0.14398193359375,-0.02142333984375,1.00274658203125,-1.951446533203125,-1.413116455078125,0.22430419921875,1,1.0,1.0,1.0,1.0,10.00
2024-10-11 20:28:31.738,0.28046972,-0.072126456,0.64960337,0.5577186,0.41637212,-0.039032593,0.46960354,0.47756714,0.56203854,0.0032444058,0.4544886,0.741654,0.43728969,-0.13215981,0.3640552,0.52409315,0.11802762,-0.42213598,-0.35006753,-0.11693881,799.81683,792.96704,807.8755,805.8608,801.8315,-0.14398193359375,-0.02142333984375,1.00274658203125,-1.951446533203125,-1.413116455078125,0.22430419921875,1,1.0,1.0,1.0,1.0,10.00
2024-10-11 20:28:31.739,0.28046972,-0.072126456,0.64960337,0.5577186,0.41637212,-0.039032593,0.46960354,0.47756714,0.56203854,0.0032444058,0.4544886,0.741654,0.43728969,-0.13215981,0.3640552,0.52409315,0.11802762,-0.42213598,-0.35006753,-0.11693881,801.8315,800.2198,811.50183,808.2784,755.09155,-0.14398193359375,-0.02142333984375,1.00274658203125,-1.951446533203125,-1.413116455078125,0.22430419921875,1,1.0,1.0,1.0,1.0,10.00
2024-10-11 20:28:31.739,0.28046972,-0.072126456,0.64960337,0.5577186,0.41637212,-0.039032593,0.46960354,0.47756714,0.56203854,0.0032444058,0.4544886,0.741654,0.43728969,-0.13215981,0.3640552,0.52409315,0.11802762,-0.42213598,-0.35006753,-0.11693881,801.4286,800.2198,810.696,810.696,905.78754,-0.14398193359375,-0.02142333984375,1.00274658203125,-1.951446533203125,-1.413116455078125,0.22430419921875,1,1.0,1.0,1.0,1.0,10.00
2024-10-11 20:28:31.740,0.28510055,-0.083846875,0.5970082,0.528547,0.45505983,0.0034113678,0.44849133,0.4942207,0.56013054,0.04910595,0.4544886,0.7772024,0.41553617,-0.15058674,0.3543282,0.5045872,0.104778074,-0.45254564,-0.3746743,-0.11925653,805.05493,798.20514,807.0696,811.50183,1240.6227,-0.14398193359375,-0.02142333984375,1.00274658203125,-1.951446533203125,-1.413116455078125,0.22430419921875,1,1.0,1.0,1.0,1.0,10.00
2024-10-11 20:28:31.744,0.28510055,-0.083846875,0.5970082,0.528547,0.45505983,0.0034113678,0.44849133,0.4942207,0.56013054,0.04910595,0.4544886,0.7772024,0.41553617,-0.15058674,0.3543282,0.5045872,0.104778074,-0.45254564,-0.3746743,-0.11925653,801.02563,797.3993,806.26373,800.6227,1031.0989,-0.14398193359375,-0.02142333984375,1.00274658203125,-1.951446533203125,-1.413116455078125,0.22430419921875,1,1.0,1.0,1.0,1.0,10.00
2024-10-11 20:28:31.744,0.28510055,-0.083846875,0.5970082,0.528547,0.45505983,0.0034113678,0.44849133,0.4942207,0.56013054,0.04910595,0.4544886,0.7772024,0.41553617,-0.15058674,0.3543282,0.5045872,0.104778074,-0.45254564,-0.3746743,-0.11925653,794.17584,801.02563,798.60803,792.96704,690.6227,-0.14398193359375,-0.02142333984375,1.00274658203125,-1.951446533203125,-1.413116455078125,0.22430419921875,1,1.0,1.0,1.0,1.0,10.00
2024-10-11 20:28:31.769,0.28510055,-0.083846875,0.5970082,0.528547,0.45505983,0.0034113678,0.44849133,0.4942207,0.56013054,0.04910595,0.4544886,0.7772024,0.41553617,-0.15058674,0.3543282,0.5045872,0.104778074,-0.45254564,-0.3746743,-0.11925653,787.326,799.011,789.7436,798.60803,703.5165,-0.14617919921875,-0.0283203125,0.98944091796875,-1.637420654296875,-2.041168212890625,-0.695343017578125,1,1.0,1.0,1.0,1.0,10.00
2024-10-11 20:28:31.770,0.28510055,-0.083846875,0.5970082,0.528547,0.45505983,0.0034113678,0.44849133,0.4942207,0.56013054,0.04910595,0.4544886,0.7772024,0.41553617,-0.15058674,0.3543282,0.5045872,0.104778074,-0.45254564,-0.3746743,-0.11925653,781.28204,795.78754,795.78754,796.5934,649.12085,-0.14617919921875,-0.0283203125,0.98944091796875,-1.637420654296875,-2.041168212890625,-0.695343017578125,1,1.0,1.0,1.0,1.0,10.00
2024-10-11 20:28:31.771,0.28510055,-0.083846875,0.5970082,0.528547,0.45505983,0.0034113678,0.44849133,0.4942207,0.56013054,0.04910595,0.4544886,0.7772024,0.41553617,-0.15058674,0.3543282,0.5045872,0.104778074,-0.45254564,-0.3746743,-0.11925653,782.49084,801.4286,802.23444,789.34064,596.7399,-0.14617919921875,-0.0283203125,0.98944091796875,-1.637420654296875,-2.041168212890625,-0.695343017578125,1,1.0,1.0,1.0,1.0,10.00
2024-10-11 20:28:31.771,0.28510055,-0.083846875,0.5970082,0.528547,0.45505983,0.0034113678,0.44849133,0.4942207,0.56013054,0.04910595,0.4544886,0.7772024,0.41553617,-0.15058674,0.3543282,0.5045872,0.104778074,-0.45254564,-0.3746743,-0.11925653,781.28204,803.44324,802.6374,791.75824,684.9817,-0.14617919921875,-0.0283203125,0.98944091796875,-1.637420654296875,-2.041168212890625,-0.695343017578125,1,1.0,1.0,1.0,1.0,10.00
2024-10-11 20:28:31.772,0.28510055,-0.083846875,0.5970082,0.528547,0.45505983,0.0034113678,0.44849133,0.4942207,0.56013054,0.04910595,0.4544886,0.7772024,0.41553617,-0.15058674,0.3543282,0.5045872,0.104778074,-0.45254564,-0.3746743,-0.11925653,780.07324,796.1905,801.02563,795.78754,787.326,-0.14617919921875,-0.0283203125,0.98944091796875,-1.637420654296875,-2.041168212890625,-0.695343017578125,1,1.0,1.0,1.0,1.0,10.00
2024-10-11 20:28:31.773,0.28510055,-0.083846875,0.5970082,0.528547,0.45505983,0.0034113678,0.44849133,0.4942207,0.56013054,0.04910595,0.4544886,0.7772024,0.41553617,-0.15058674,0.3543282,0.5045872,0.104778074,-0.45254564,-0.3746743,-0.11925653,784.90845,791.3553,800.2198,795.38464,831.2454,-0.14617919921875,-0.0283203125,0.98944091796875,-1.637420654296875,-2.041168212890625,-0.695343017578125,1,1.0,1.0,1.0,1.0,10.00
2024-10-11 20:28:31.774,0.28510055,-0.083846875,0.5970082,0.528547,0.45505983,0.0034113678,0.44849133,0.4942207,0.56013054,0.04910595,0.4544886,0.7772024,0.41553617,-0.15058674,0.3543282,0.5045872,0.104778074,-0.45254564,-0.3746743,-0.11925653,790.54944,793.36993,799.41394,795.38464,784.10254,-0.14617919921875,-0.0283203125,0.98944091796875,-1.637420654296875,-2.041168212890625,-0.695343017578125,1,1.0,1.0,1.0,1.0,10.00
2024-10-11 20:28:31.774,0.28510055,-0.083846875,0.5970082,0.528547,0.45505983,0.0034113678,0.44849133,0.4942207,0.56013054,0.04910595,0.4544886,0.7772024,0.41553617,-0.15058674,0.3543282,0.5045872,0.104778074,-0.45254564,-0.3746743,-0.11925653,799.81683,796.99634,799.41394,803.8461,867.50916,-0.14617919921875,-0.0283203125,0.98944091796875,-1.637420654296875,-2.041168212890625,-0.695343017578125,1,1.0,1.0,1.0,1.0,10.00
2024-10-11 20:28:31.775,0.28510055,-0.083846875,0.5970082,0.528547,0.45505983,0.0034113678,0.44849133,0.4942207,0.56013054,0.04910595,0.4544886,0.7772024,0.41553617,-0.15058674,0.3543282,0.5045872,0.104778074,-0.45254564,-0.3746743,-0.11925653,798.60803,792.96704,800.6227,807.47253,1123.773,-0.14617919921875,-0.0283203125,0.98944091796875,-1.637420654296875,-2.041168212890625,-0.695343017578125,1,1.0,1.0,1.0,1.0,10.00
2024-10-11 20:28:31.776,0.28510055,-0.083846875,0.5970082,0.528547,0.45505983,0.0034113678,0.44849133,0.4942207,0.56013054,0.04910595,0.4544886,0.7772024,0.41553617,-0.15058674,0.3543282,0.5045872,0.104778074,-0.45254564,-0.3746743,-0.11925653,794.17584,794.17584,796.5934,799.011,900.9524,-0.14617919921875,-0.0283203125,0.98944091796875,-1.637420654296875,-2.041168212890625,-0.695343017578125,1,1.0,1.0,1.0,1.0,10.00
2024-10-11 20:28:31.776,0.28510055,-0.083846875,0.5970082,0.528547,0.45505983,0.0034113678,0.44849133,0.4942207,0.56013054,0.04910595,0.4544886,0.7772024,0.41553617,-0.15058674,0.3543282,0.5045872,0.104778074,-0.45254564,-0.3746743,-0.11925653,797.3993,802.6374,790.14655,794.9817,619.707,-0.14617919921875,-0.0283203125,0.98944091796875,-1.637420654296875,-2.041168212890625,-0.695343017578125,1,1.0,1.0,1.0,1.0,10.00
2024-10-11 20:28:31.777,0.28510055,-0.083846875,0.5970082,0.528547,0.45505983,0.0034113678,0.44849133,0.4942207,0.56013054,0.04910595,0.4544886,0.7772024,0.41553617,-0.15058674,0.3543282,0.5045872,0.104778074,-0.45254564,-0.3746743,-0.11925653,790.9524,795.38464,787.72894,796.1905,752.674,-0.14617919921875,-0.0283203125,0.98944091796875,-1.637420654296875,-2.041168212890625,-0.695343017578125,1,1.0,1.0,1.0,1.0,10.00
2024-10-11 20:28:31.806,0.28510055,-0.083846875,0.5970082,0.528547,0.45505983,0.0034113678,0.44849133,0.4942207,0.56013054,0.04910595,0.4544886,0.7772024,0.41553617,-0.15058674,0.3543282,0.5045872,0.104778074,-0.45254564,-0.3746743,-0.11925653,788.1319,795.38464,795.38464,803.0403,1176.1538,-0.1392822265625,-0.03271484375,1.00335693359375,-1.801910400390625,-1.74957275390625,-1.278533935546875,1,1.0,1.0,1.0,1.0,10.00
2024-10-11 20:28:31.807,0.28510055,-0.083846875,0.5970082,0.528547,0.45505983,0.0034113678,0.44849133,0.4942207,0.56013054,0.04910595,0.4544886,0.7772024,0.41553617,-0.15058674,0.3543282,0.5045872,0.104778074,-0.45254564,-0.3746743,-0.11925653,790.54944,797.8022,798.20514,801.4286,986.3736,-0.1392822265625,-0.03271484375,1.00335693359375,-1.801910400390625,-1.74957275390625,-1.278533935546875,1,1.0,1.0,1.0,1.0,10.00
2024-10-11 20:28:31.808,0.28510055,-0.083846875,0.5970082,0.528547,0.45505983,0.0034113678,0.44849133,0.4942207,0.56013054,0.04910595,0.4544886,0.7772024,0.41553617,-0.15058674,0.3543282,0.5045872,0.104778074,-0.45254564,-0.3746743,-0.11925653,794.17584,792.96704,798.20514,798.20514,743.8095,-0.1392822265625,-0.03271484375,1.00335693359375,-1.801910400390625,-1.74957275390625,-1.278533935546875,1,1.0,1.0,1.0,1.0,10.00
2024-10-11 20:28:31.808,0.28510055,-0.083846875,0.5970082,0.528547,0.45505983,0.0034113678,0.44849133,0.4942207,0.56013054,0.04910595,0.4544886,0.7772024,0.41553617,-0.15058674,0.3543282,0.5045872,0.104778074,-0.45254564,-0.3746743,-0.11925653,796.1905,790.54944,795.38464,797.3993,711.5751,-0.1392822265625,-0.03271484375,1.00335693359375,-1.801910400390625,-1.74957275390625,-1.278533935546875,1,1.0,1.0,1.0,1.0,10.00
2024-10-11 20:28:31.809,0.28510055,-0.083846875,0.5970082,0.528547,0.45505983,0.0034113678,0.44849133,0.4942207,0.56013054,0.04910595,0.4544886,0.7772024,0.41553617,-0.15058674,0.3543282,0.5045872,0.104778074,-0.45254564,-0.3746743,-0.11925653,793.36993,793.36993,793.36993,795.38464,667.6557,-0.1392822265625,-0.03271484375,1.00335693359375,-1.801910400390625,-1.74957275390625,-1.278533935546875,1,1.0,1.0,1.0,1.0,10.00
2024-10-11 20:28:31.810,0.28510055,-0.083846875,0.5970082,0.528547,0.45505983,0.0034113678,0.44849133,0.4942207,0.56013054,0.04910595,0.4544886,0.7772024,0.41553617,-0.15058674,0.3543282,0.5045872,0.104778074,-0.45254564,-0.3746743,-0.11925653,793.7729,799.81683,795.38464,793.7729,788.5348,-0.1392822265625,-0.03271484375,1.00335693359375,-1.801910400390625,-1.74957275390625,-1.278533935546875,1,1.0,1.0,1.0,1.0,10.00
2024-10-11 20:28:31.811,0.28510055,-0.083846875,0.5970082,0.528547,0.45505983,0.0034113678,0.44849133,0.4942207,0.56013054,0.04910595,0.4544886,0.7772024,0.41553617,-0.15058674,0.3543282,0.5045872,0.104778074,-0.45254564,-0.3746743,-0.11925653,794.9817,798.60803,796.99634,795.78754,821.978,-0.1392822265625,-0.03271484375,1.00335693359375,-1.801910400390625,-1.74957275390625,-1.278533935546875,1,1.0,1.0,1.0,1.0,10.00
2024-10-11 20:28:31.811,0.28510055,-0.083846875,0.5970082,0.528547,0.45505983,0.0034113678,0.44849133,0.4942207,0.56013054,0.04910595,0.4544886,0.7772024,0.41553617,-0.15058674,0.3543282,0.5045872,0.104778074,-0.45254564,-0.3746743,-0.11925653,800.6227,794.9817,796.5934,798.60803,865.89746,-0.1392822265625,-0.03271484375,1.00335693359375,-1.801910400390625,-1.74957275390625,-1.278533935546875,1,1.0,1.0,1.0,1.0,10.00
2024-10-11 20:28:31.812,0.28510055,-0.083846875,0.5970082,0.528547,0.45505983,0.0034113678,0.44849133,0.4942207,0.56013054,0.04910595,0.4544886,0.7772024,0.41553617,-0.15058674,0.3543282,0.5045872,0.104778074,-0.45254564,-0.3746743,-0.11925653,805.8608,800.2198,796.99634,808.2784,930.7692,-0.1392822265625,-0.03271484375,1.00335693359375,-1.801910400390625,-1.74957275390625,-1.278533935546875,1,1.0,1.0,1.0,1.0,10.00
2024-10-11 20:28:31.813,0.28510055,-0.083846875,0.5970082,0.528547,0.45505983,0.0034113678,0.44849133,0.4942207,0.56013054,0.04910595,0.4544886,0.7772024,0.41553617,-0.15058674,0.3543282,0.5045872,0.104778074,-0.45254564,-0.3746743,-0.11925653,794.9817,805.05493,793.7729,806.26373,697.47253,-0.1392822265625,-0.03271484375,1.00335693359375,-1.801910400390625,-1.74957275390625,-1.278533935546875,1,1.0,1.0,1.0,1.0,10.00
2024-10-11 20:28:31.813,0.28510055,-0.083846875,0.5970082,0.528547,0.45505983,0.0034113678,0.44849133,0.4942207,0.56013054,0.04910595,0.4544886,0.7772024,0.41553617,-0.15058674,0.3543282,0.5045872,0.104778074,-0.45254564,-0.3746743,-0.11925653,793.7729,803.0403,790.54944,803.0403,786.9231,-0.1392822265625,-0.03271484375,1.00335693359375,-1.801910400390625,-1.74957275390625,-1.278533935546875,1,1.0,1.0,1.0,1.0,10.00
2024-10-11 20:28:31.814,0.2913823,-0.12646304,0.49710587,0.4776276,0.47298142,0.020054063,0.39853504,0.5053773,0.6083703,0.058039825,0.45123813,0.7858934,0.39247942,-0.16684407,0.3449965,0.4874511,0.08206247,-0.47978577,-0.38731307,-0.12230949,800.6227,799.41394,801.8315,805.8608,894.90845,-0.1392822265625,-0.03271484375,1.00335693359375,-1.801910400390625,-1.74957275390625,-1.278533935546875,1,1.0,1.0,1.0,1.0,10.00
2024-10-11 20:28:31.882,0.2913823,-0.12646304,0.49710587,0.4776276,0.47298142,0.020054063,0.39853504,0.5053773,0.6083703,0.058039825,0.45123813,0.7858934,0.39247942,-0.16684407,0.3449965,0.4874511,0.08206247,-0.47978577,-0.38731307,-0.12230949,801.02563,798.60803,805.4579,798.60803,692.23444,-0.13348388671875,-0.04156494140625,0.99432373046875,-1.099090576171875,-1.517791748046875,-1.4654541015625,1,1.0,1.0,1.0,1.0,10.00
2024-10-11 20:28:31.883,0.2913823,-0.12646304,0.49710587,0.4776276,0.47298142,0.020054063,0.39853504,0.5053773,0.6083703,0.058039825,0.45123813,0.7858934,0.39247942,-0.16684407,0.3449965,0.4874511,0.08206247,-0.47978577,-0.38731307,-0.12230949,797.8022,799.81683,801.02563,791.3553,582.23444,-0.13348388671875,-0.04156494140625,0.99432373046875,-1.099090576171875,-1.517791748046875,-1.4654541015625,1,1.0,1.0,1.0,1.0,10.00
2024-10-11 20:28:31.884,0.2913823,-0.12646304,0.49710587,0.4776276,0.47298142,0.020054063,0.39853504,0.5053773,0.6083703,0.058039825,0.45123813,0.7858934,0.39247942,-0.16684407,0.3449965,0.4874511,0.08206247,-0.47978577,-0.38731307,-0.12230949,803.44324,799.011,799.41394,792.1612,669.67035,-0.13348388671875,-0.04156494140625,0.99432373046875,-1.099090576171875,-1.517791748046875,-1.4654541015625,1,1.0,1.0,1.0,1.0,10.00
2024-10-11 20:28:31.884,0.2913823,-0.12646304,0.49710587,0.4776276,0.47298142,0.020054063,0.39853504,0.5053773,0.6083703,0.058039825,0.45123813,0.7858934,0.39247942,-0.16684407,0.3449965,0.4874511,0.08206247,-0.47978577,-0.38731307,-0.12230949,807.47253,799.81683,798.20514,798.20514,764.7619,-0.13348388671875,-0.04156494140625,0.99432373046875,-1.099090576171875,-1.517791748046875,-1.4654541015625,1,1.0,1.0,1.0,1.0,10.00
2024-10-11 20:28:31.885,0.2913823,-0.12646304,0.49710587,0.4776276,0.47298142,0.020054063,0.39853504,0.5053773,0.6083703,0.058039825,0.45123813,0.7858934,0.39247942,-0.16684407,0.3449965,0.4874511,0.08206247,-0.47978577,-0.38731307,-0.12230949,800.6227,797.8022,801.8315,798.60803,728.0952,-0.13348388671875,-0.04156494140625,0.99432373046875,-1.099090576171875,-1.517791748046875,-1.4654541015625,1,1.0,1.0,1.0,1.0,10.00
2024-10-11 20:28:31.886,0.2913823,-0.12646304,0.49710587,0.4776276,0.47298142,0.020054063,0.39853504,0.5053773,0.6083703,0.058039825,0.45123813,0.7858934,0.39247942,-0.16684407,0.3449965,0.4874511,0.08206247,-0.47978577,-0.38731307,-0.12230949,806.26373,794.57874,803.0403,801.4286,750.2564,-0.13348388671875,-0.04156494140625,0.99432373046875,-1.099090576171875,-1.517791748046875,-1.4654541015625,1,1.0,1.0,1.0,1.0,10.00
2024-10-11 20:28:31.886,0.2913823,-0.12646304,0.49710587,0.4776276,0.47298142,0.020054063,0.39853504,0.5053773,0.6083703,0.058039825,0.45123813,0.7858934,0.39247942,-0.16684407,0.3449965,0.4874511,0.08206247,-0.47978577,-0.38731307,-0.12230949,800.6227,795.38464,799.81683,801.4286,889.2674,-0.13348388671875,-0.04156494140625,0.99432373046875,-1.099090576171875,-1.517791748046875,-1.4654541015625,1,1.0,1.0,1.0,1.0,10.00
2024-10-11 20:28:31.887,0.2913823,-0.12646304,0.49710587,0.4776276,0.47298142,0.020054063,0.39853504,0.5053773,0.6083703,0.058039825,0.45123813,0.7858934,0.39247942,-0.16684407,0.3449965,0.4874511,0.08206247,-0.47978577,-0.38731307,-0.12230949,796.1905,797.3993,804.65204,804.65204,1107.2528,-0.13348388671875,-0.04156494140625,0.99432373046875,-1.099090576171875,-1.517791748046875,-1.4654541015625,1,1.0,1.0,1.0,1.0,10.00
2024-10-11 20:28:31.888,0.2913823,-0.12646304,0.49710587,0.4776276,0.47298142,0.020054063,0.39853504,0.5053773,0.6083703,0.058039825,0.45123813,0.7858934,0.39247942,-0.16684407,0.3449965,0.4874511,0.08206247,-0.47978577,-0.38731307,-0.12230949,803.0403,799.81683,805.05493,807.47253,869.5238,-0.13348388671875,-0.04156494140625,0.99432373046875,-1.099090576171875,-1.517791748046875,-1.4654541015625,1,1.0,1.0,1.0,1.0,10.00
2024-10-11 20:28:31.889,0.2913823,-0.12646304,0.49710587,0.4776276,0.47298142,0.020054063,0.39853504,0.5053773,0.6083703,0.058039825,0.45123813,0.7858934,0.39247942,-0.16684407,0.3449965,0.4874511,0.08206247,-0.47978577,-0.38731307,-0.12230949,803.0403,799.81683,798.60803,803.8461,690.6227,-0.13348388671875,-0.04156494140625,0.99432373046875,-1.099090576171875,-1.517791748046875,-1.4654541015625,1,1.0,1.0,1.0,1.0,10.00
2024-10-11 20:28:31.889,0.2913823,-0.12646304,0.49710587,0.4776276,0.47298142,0.020054063,0.39853504,0.5053773,0.6083703,0.058039825,0.45123813,0.7858934,0.39247942,-0.16684407,0.3449965,0.4874511,0.08206247,-0.47978577,-0.38731307,-0.12230949,797.3993,794.57874,800.6227,803.44324,823.5897,-0.13348388671875,-0.04156494140625,0.99432373046875,-1.099090576171875,-1.517791748046875,-1.4654541015625,1,1.0,1.0,1.0,1.0,10.00
2024-10-11 20:28:31.890,0.2913823,-0.12646304,0.49710587,0.4776276,0.47298142,0.020054063,0.39853504,0.5053773,0.6083703,0.058039825,0.45123813,0.7858934,0.39247942,-0.16684407,0.3449965,0.4874511,0.08206247,-0.47978577,-0.38731307,-0.12230949,794.9817,792.5641,805.8608,801.4286,834.4689,-0.13348388671875,-0.04156494140625,0.99432373046875,-1.099090576171875,-1.517791748046875,-1.4654541015625,1,1.0,1.0,1.0,1.0,10.00
2024-10-11 20:28:31.921,0.2913823,-0.12646304,0.49710587,0.4776276,0.47298142,0.020054063,0.39853504,0.5053773,0.6083703,0.058039825,0.45123813,0.7858934,0.39247942,-0.16684407,0.3449965,0.4874511,0.08206247,-0.47978577,-0.38731307,-0.12230949,798.20514,795.38464,799.011,796.1905,667.25275,-0.128173828125,-0.03912353515625,0.993896484375,-0.28411865234375,-1.016845703125,-1.256103515625,1,1.0,1.0,1.0,1.0,10.00
2024-10-11 20:28:31.922,0.2913823,-0.12646304,0.49710587,0.4776276,0.47298142,0.020054063,0.39853504,0.5053773,0.6083703,0.058039825,0.45123813,0.7858934,0.39247942,-0.16684407,0.3449965,0.4874511,0.08206247,-0.47978577,-0.38731307,-0.12230949,803.44324,800.6227,796.1905,795.78754,605.2015,-0.128173828125,-0.03912353515625,0.993896484375,-0.28411865234375,-1.016845703125,-1.256103515625,1,1.0,1.0,1.0,1.0,10.00
2024-10-11 20:28:31.923,0.2913823,-0.12646304,0.49710587,0.4776276,0.47298142,0.020054063,0.39853504,0.5053773,0.6083703,0.058039825,0.45123813,0.7858934,0.39247942,-0.16684407,0.3449965,0.4874511,0.08206247,-0.47978577,-0.38731307,-0.12230949,801.02563,796.1905,796.1905,796.99634,709.9634,-0.128173828125,-0.03912353515625,0.993896484375,-0.28411865234375,-1.016845703125,-1.256103515625,1,1.0,1.0,1.0,1.0,10.00
2024-10-11 20:28:31.923,0.2913823,-0.12646304,0.49710587,0.4776276,0.47298142,0.020054063,0.39853504,0.5053773,0.6083703,0.058039825,0.45123813,0.7858934,0.39247942,-0.16684407,0.3449965,0.4874511,0.08206247,-0.47978577,-0.38731307,-0.12230949,795.38464,792.5641,793.36993,794.9817,770.80585,-0.128173828125,-0.03912353515625,0.993896484375,-0.28411865234375,-1.016845703125,-1.256103515625,1,1.0,1.0,1.0,1.0,10.00
2024-10-11 20:28:31.924,0.2913823,-0.12646304,0.49710587,0.4776276,0.47298142,0.020054063,0.39853504,0.5053773,0.6083703,0.058039825,0.45123813,0.7858934,0.39247942,-0.16684407,0.3449965,0.4874511,0.08206247,-0.47978577,-0.38731307,-0.12230949,799.41394,795.38464,792.1612,790.54944,638.6447,-0.128173828125,-0.03912353515625,0.993896484375,-0.28411865234375,-1.016845703125,-1.256103515625,1,1.0,1.0,1.0,1.0,10.00
2024-10-11 20:28:31.925,0.2913823,-0.12646304,0.49710587,0.4776276,0.47298142,0.020054063,0.39853504,0.5053773,0.6083703,0.058039825,0.45123813,0.7858934,0.39247942,-0.16684407,0.3449965,0.4874511,0.08206247,-0.47978577,-0.38731307,-0.12230949,801.02563,793.36993,796.5934,793.36993,670.4762,-0.128173828125,-0.03912353515625,0.993896484375,-0.28411865234375,-1.016845703125,-1.256103515625,1,1.0,1.0,1.0,1.0,10.00
2024-10-11 20:28:31.925,0.2913823,-0.12646304,0.49710587,0.4776276,0.47298142,0.020054063,0.39853504,0.5053773,0.6083703,0.058039825,0.45123813,0.7858934,0.39247942,-0.16684407,0.3449965,0.4874511,0.08206247,-0.47978577,-0.38731307,-0.12230949,792.96704,796.99634,799.41394,799.41394,945.6777,-0.128173828125,-0.03912353515625,0.993896484375,-0.28411865234375,-1.016845703125,-1.256103515625,1,1.0,1.0,1.0,1.0,10.00
2024-10-11 20:28:31.926,0.2913823,-0.12646304,0.49710587,0.4776276,0.47298142,0.020054063,0.39853504,0.5053773,0.6083703,0.058039825,0.45123813,0.7858934,0.39247942,-0.16684407,0.3449965,0.4874511,0.08206247,-0.47978577,-0.38731307,-0.12230949,788.93774,796.5934,799.011,805.4579,884.0293,-0.128173828125,-0.03912353515625,0.993896484375,-0.28411865234375,-1.016845703125,-1.256103515625,1,1.0,1.0,1.0,1.0,10.00
2024-10-11 20:28:31.927,0.2913823,-0.12646304,0.49710587,0.4776276,0.47298142,0.020054063,0.39853504,0.5053773,0.6083703,0.058039825,0.45123813,0.7858934,0.39247942,-0.16684407,0.3449965,0.4874511,0.08206247,-0.47978577,-0.38731307,-0.12230949,788.1319,792.5641,796.5934,804.65204,575.78754,-0.128173828125,-0.03912353515625,0.993896484375,-0.28411865234375,-1.016845703125,-1.256103515625,1,1.0,1.0,1.0,1.0,10.00
2024-10-11 20:28:31.928,0.2913823,-0.12646304,0.49710587,0.4776276,0.47298142,0.020054063,0.39853504,0.5053773,0.6083703,0.058039825,0.45123813,0.7858934,0.39247942,-0.16684407,0.3449965,0.4874511,0.08206247,-0.47978577,-0.38731307,-0.12230949,792.5641,796.1905,795.78754,804.2491,576.99634,-0.128173828125,-0.03912353515625,0.993896484375,-0.28411865234375,-1.016845703125,-1.256103515625,1,1.0,1.0,1.0,1.0,10.00
2024-10-11 20:28:31.928,0.2913823,-0.12646304,0.49710587,0.4776276,0.47298142,0.020054063,0.39853504,0.5053773,0.6083703,0.058039825,0.45123813,0.7858934,0.39247942,-0.16684407,0.3449965,0.4874511,0.08206247,-0.47978577,-0.38731307,-0.12230949,799.81683,796.5934,805.4579,811.0989,871.53845,-0.128173828125,-0.03912353515625,0.993896484375,-0.28411865234375,-1.016845703125,-1.256103515625,1,1.0,1.0,1.0,1.0,10.00
2024-10-11 20:28:31.929,0.2913823,-0.12646304,0.49710587,0.4776276,0.47298142,0.020054063,0.39853504,0.5053773,0.6083703,0.058039825,0.45123813,0.7858934,0.39247942,-0.16684407,0.3449965,0.4874511,0.08206247,-0.47978577,-0.38731307,-0.12230949,794.57874,800.6227,809.4872,812.3077,938.022,-0.128173828125,-0.03912353515625,0.993896484375,-0.28411865234375,-1.016845703125,-1.256103515625,1,1.0,1.0,1.0,1.0,10.00
2024-10-11 20:28:31.960,0.2913823,-0.12646304,0.49710587,0.4776276,0.47298142,0.020054063,0.39853504,0.5053773,0.6083703,0.058039825,0.45123813,0.7858934,0.39247942,-0.16684407,0.3449965,0.4874511,0.08206247,-0.47978577,-0.38731307,-0.12230949,793.7729,803.0403,808.2784,805.8608,782.8938,-0.128173828125,-0.03912353515625,0.993896484375,-0.28411865234375,-1.016845703125,-1.256103515625,1,1.0,1.0,1.0,1.0,10.00
2024-10-11 20:28:31.961,0.2915791,-0.1963488,0.3467619,0.40276113,0.4745644,0.007564524,0.3108994,0.50412333,0.6438588,0.06499304,0.44920322,0.7743029,0.3739195,-0.1819162,0.33352405,0.47103778,0.05782335,-0.50944513,-0.38904864,-0.12878652,793.7729,796.5934,810.696,800.2198,797.3993,-0.128173828125,-0.03912353515625,0.993896484375,-0.28411865234375,-1.016845703125,-1.256103515625,1,1.0,1.0,1.0,1.0,10.00
2024-10-11 20:28:31.967,0.2915791,-0.1963488,0.3467619,0.40276113,0.4745644,0.007564524,0.3108994,0.50412333,0.6438588,0.06499304,0.44920322,0.7743029,0.3739195,-0.1819162,0.33352405,0.47103778,0.05782335,-0.50944513,-0.38904864,-0.12878652,792.1612,790.54944,806.26373,799.011,1013.36993,-0.128173828125,-0.03912353515625,0.993896484375,-0.28411865234375,-1.016845703125,-1.256103515625,1,1.0,1.0,1.0,1.0,10.00
2024-10-11 20:28:31.968,0.2915791,-0.1963488,0.3467619,0.40276113,0.4745644,0.007564524,0.3108994,0.50412333,0.6438588,0.06499304,0.44920322,0.7743029,0.3739195,-0.1819162,0.33352405,0.47103778,0.05782335,-0.50944513,-0.38904864,-0.12878652,794.9817,793.36993,805.4579,797.3993,901.75824,-0.128173828125,-0.03912353515625,0.993896484375,-0.28411865234375,-1.016845703125,-1.256103515625,1,1.0,1.0,1.0,1.0,10.00
2024-10-11 20:28:31.968,0.2915791,-0.1963488,0.3467619,0.40276113,0.4745644,0.007564524,0.3108994,0.50412333,0.6438588,0.06499304,0.44920322,0.7743029,0.3739195,-0.1819162,0.33352405,0.47103778,0.05782335,-0.50944513,-0.38904864,-0.12878652,793.36993,796.5934,804.2491,796.1905,695.8608,-0.128173828125,-0.03912353515625,0.993896484375,-0.28411865234375,-1.016845703125,-1.256103515625,1,1.0,1.0,1.0,1.0,10.00
2024-10-11 20:28:31.969,0.2915791,-0.1963488,0.3467619,0.40276113,0.4745644,0.007564524,0.3108994,0.50412333,0.6438588,0.06499304,0.44920322,0.7743029,0.3739195,-0.1819162,0.33352405,0.47103778,0.05782335,-0.50944513,-0.38904864,-0.12878652,789.34064,794.57874,797.3993,796.99634,850.989,-0.128173828125,-0.03912353515625,0.993896484375,-0.28411865234375,-1.016845703125,-1.256103515625,1,1.0,1.0,1.0,1.0,10.00
2024-10-11 20:28:31.970,0.2915791,-0.1963488,0.3467619,0.40276113,0.4745644,0.007564524,0.3108994,0.50412333,0.6438588,0.06499304,0.44920322,0.7743029,0.3739195,-0.1819162,0.33352405,0.47103778,0.05782335,-0.50944513,-0.38904864,-0.12878652,794.57874,794.9817,799.41394,799.011,1105.641,-0.128173828125,-0.03912353515625,0.993896484375,-0.28411865234375,-1.016845703125,-1.256103515625,1,1.0,1.0,1.0,1.0,10.00
2024-10-11 20:28:31.970,0.2915791,-0.1963488,0.3467619,0.40276113,0.4745644,0.007564524,0.3108994,0.50412333,0.6438588,0.06499304,0.44920322,0.7743029,0.3739195,-0.1819162,0.33352405,0.47103778,0.05782335,-0.50944513,-0.38904864,-0.12878652,801.4286,799.011,805.4579,799.011,880.40295,-0.128173828125,-0.03912353515625,0.993896484375,-0.28411865234375,-1.016845703125,-1.256103515625,1,1.0,1.0,1.0,1.0,10.00
2024-10-11 20:28:31.971,0.2915791,-0.1963488,0.3467619,0.40276113,0.4745644,0.007564524,0.3108994,0.50412333,0.6438588,0.06499304,0.44920322,0.7743029,0.3739195,-0.1819162,0.33352405,0.47103778,0.05782335,-0.50944513,-0.38904864,-0.12878652,801.02563,804.2491,804.65204,804.65204,706.7399,-0.128173828125,-0.03912353515625,0.993896484375,-0.28411865234375,-1.016845703125,-1.256103515625,1,1.0,1.0,1.0,1.0,10.00
2024-10-11 20:28:31.972,0.2915791,-0.1963488,0.3467619,0.40276113,0.4745644,0.007564524,0.3108994,0.50412333,0.6438588,0.06499304,0.44920322,0.7743029,0.3739195,-0.1819162,0.33352405,0.47103778,0.05782335,-0.50944513,-0.38904864,-0.12878652,805.05493,799.011,803.44324,805.05493,778.46155,-0.128173828125,-0.03912353515625,0.993896484375,-0.28411865234375,-1.016845703125,-1.256103515625,1,1.0,1.0,1.0,1.0,10.00
2024-10-11 20:28:31.972,0.2915791,-0.1963488,0.3467619,0.40276113,0.4745644,0.007564524,0.3108994,0.50412333,0.6438588,0.06499304,0.44920322,0.7743029,0.3739195,-0.1819162,0.33352405,0.47103778,0.05782335,-0.50944513,-0.38904864,-0.12878652,799.011,791.75824,807.8755,803.44324,1032.3077,-0.128173828125,-0.03912353515625,0.993896484375,-0.28411865234375,-1.016845703125,-1.256103515625,1,1.0,1.0,1.0,1.0,10.00
2024-10-11 20:28:31.973,0.2915791,-0.1963488,0.3467619,0.40276113,0.4745644,0.007564524,0.3108994,0.50412333,0.6438588,0.06499304,0.44920322,0.7743029,0.3739195,-0.1819162,0.33352405,0.47103778,0.05782335,-0.50944513,-0.38904864,-0.12878652,796.1905,796.5934,807.8755,802.23444,882.8205,-0.128173828125,-0.03912353515625,0.993896484375,-0.28411865234375,-1.016845703125,-1.256103515625,1,1.0,1.0,1.0,1.0,10.00
2024-10-11 20:28:32.038,0.2915791,-0.1963488,0.3467619,0.40276113,0.4745644,0.007564524,0.3108994,0.50412333,0.6438588,0.06499304,0.44920322,0.7743029,0.3739195,-0.1819162,0.33352405,0.47103778,0.05782335,-0.50944513,-0.38904864,-0.12878652,801.4286,800.2198,806.6667,800.6227,712.7839,-0.13385009765625,-0.04840087890625,0.998779296875,-0.261688232421875,-1.6448974609375,-1.816864013671875,1,1.0,1.0,1.0,1.0,10.00
2024-10-11 20:28:32.039,0.2915791,-0.1963488,0.3467619,0.40276113,0.4745644,0.007564524,0.3108994,0.50412333,0.6438588,0.06499304,0.44920322,0.7743029,0.3739195,-0.1819162,0.33352405,0.47103778,0.05782335,-0.50944513,-0.38904864,-0.12878652,800.2198,803.0403,807.47253,796.5934,766.3736,-0.13385009765625,-0.04840087890625,0.998779296875,-0.261688232421875,-1.6448974609375,-1.816864013671875,1,1.0,1.0,1.0,1.0,10.00
2024-10-11 20:28:32.040,0.2915791,-0.1963488,0.3467619,0.40276113,0.4745644,0.007564524,0.3108994,0.50412333,0.6438588,0.06499304,0.44920322,0.7743029,0.3739195,-0.1819162,0.33352405,0.47103778,0.05782335,-0.50944513,-0.38904864,-0.12878652,798.20514,800.2198,800.2198,788.93774,672.0879,-0.13385009765625,-0.04840087890625,0.998779296875,-0.261688232421875,-1.6448974609375,-1.816864013671875,1,1.0,1.0,1.0,1.0,10.00
2024-10-11 20:28:32.040,0.2915791,-0.1963488,0.3467619,0.40276113,0.4745644,0.007564524,0.3108994,0.50412333,0.6438588,0.06499304,0.44920322,0.7743029,0.3739195,-0.1819162,0.33352405,0.47103778,0.05782335,-0.50944513,-0.38904864,-0.12878652,803.0403,802.23444,799.011,794.9817,624.1392,-0.13385009765625,-0.04840087890625,0.998779296875,-0.261688232421875,-1.6448974609375,-1.816864013671875,1,1.0,1.0,1.0,1.0,10.00
2024-10-11 20:28:32.041,0.2915791,-0.1963488,0.3467619,0.40276113,0.4745644,0.007564524,0.3108994,0.50412333,0.6438588,0.06499304,0.44920322,0.7743029,0.3739195,-0.1819162,0.33352405,0.47103778,0.05782335,-0.50944513,-0.38904864,-0.12878652,802.6374,805.8608,810.696,801.8315,665.2381,-0.13385009765625,-0.04840087890625,0.998779296875,-0.261688232421875,-1.6448974609375,-1.816864013671875,1,1.0,1.0,1.0,1.0,10.00
2024-10-11 20:28:32.042,0.2915791,-0.1963488,0.3467619,0.40276113,0.4745644,0.007564524,0.3108994,0.50412333,0.6438588,0.06499304,0.44920322,0.7743029,0.3739195,-0.1819162,0.33352405,0.47103778,0.05782335,-0.50944513,-0.38904864,-0.12878652,802.23444,803.0403,809.0842,795.38464,859.45056,-0.13385009765625,-0.04840087890625,0.998779296875,-0.261688232421875,-1.6448974609375,-1.816864013671875,1,1.0,1.0,1.0,1.0,10.00
2024-10-11 20:28:32.042,0.2915791,-0.1963488,0.3467619,0.40276113,0.4745644,0.007564524,0.3108994,0.50412333,0.6438588,0.06499304,0.44920322,0.7743029,0.3739195,-0.1819162,0.33352405,0.47103778,0.05782335,-0.50944513,-0.38904864,-0.12878652,804.2491,803.8461,803.0403,797.3993,850.989,-0.13385009765625,-0.04840087890625,0.998779296875,-0.261688232421875,-1.6448974609375,-1.816864013671875,1,1.0,1.0,1.0,1.0,10.00
2024-10-11 20:28:32.043,0.2915791,-0.1963488,0.3467619,0.40276113,0.4745644,0.007564524,0.3108994,0.50412333,0.6438588,0.06499304,0.44920322,0.7743029,0.3739195,-0.1819162,0.33352405,0.47103778,0.05782335,-0.50944513,-0.38904864,-0.12878652,806.6667,803.44324,808.2784,803.8461,769.19415,-0.13385009765625,-0.04840087890625,0.998779296875,-0.261688232421875,-1.6448974609375,-1.816864013671875,1,1.0,1.0,1.0,1.0,10.00
2024-10-11 20:28:32.044,0.2915791,-0.1963488,0.3467619,0.40276113,0.4745644,0.007564524,0.3108994,0.50412333,0.6438588,0.06499304,0.44920322,0.7743029,0.3739195,-0.1819162,0.33352405,0.47103778,0.05782335,-0.50944513,-0.38904864,-0.12878652,804.65204,803.0403,809.0842,803.44324,786.1172,-0.13385009765625,-0.04840087890625,0.998779296875,-0.261688232421875,-1.6448974609375,-1.816864013671875,1,1.0,1.0,1.0,1.0,10.00
2024-10-11 20:28:32.044,0.2915791,-0.1963488,0.3467619,0.40276113,0.4745644,0.007564524,0.3108994,0.50412333,0.6438588,0.06499304,0.44920322,0.7743029,0.3739195,-0.1819162,0.33352405,0.47103778,0.05782335,-0.50944513,-0.38904864,-0.12878652,801.4286,803.8461,805.05493,808.2784,867.1062,-0.13385009765625,-0.04840087890625,0.998779296875,-0.261688232421875,-1.6448974609375,-1.816864013671875,1,1.0,1.0,1.0,1.0,10.00
2024-10-11 20:28:32.045,0.2915791,-0.1963488,0.3467619,0.40276113,0.4745644,0.007564524,0.3108994,0.50412333,0.6438588,0.06499304,0.44920322,0.7743029,0.3739195,-0.1819162,0.33352405,0.47103778,0.05782335,-0.50944513,-0.38904864,-0.12878652,805.8608,802.23444,805.4579,810.696,774.0293,-0.13385009765625,-0.04840087890625,0.998779296875,-0.261688232421875,-1.6448974609375,-1.816864013671875,1,1.0,1.0,1.0,1.0,10.00
2024-10-11 20:28:32.046,0.2915791,-0.1963488,0.3467619,0.40276113,0.4745644,0.007564524,0.3108994,0.50412333,0.6438588,0.06499304,0.44920322,0.7743029,0.3739195,-0.1819162,0.33352405,0.47103778,0.05782335,-0.50944513,-0.38904864,-0.12878652,802.6374,797.3993,800.6227,800.6227,586.26373,-0.13385009765625,-0.04840087890625,0.998779296875,-0.261688232421875,-1.6448974609375,-1.816864013671875,1,1.0,1.0,1.0,1.0,10.00
2024-10-11 20:28:32.074,0.2915791,-0.1963488,0.3467619,0.40276113,0.4745644,0.007564524,0.3108994,0.50412333,0.6438588,0.06499304,0.44920322,0.7743029,0.3739195,-0.1819162,0.33352405,0.47103778,0.05782335,-0.50944513,-0.38904864,-0.12878652,805.05493,799.81683,788.93774,803.0403,599.15753,-0.13079833984375,-0.0455322265625,1.00238037109375,1.016845703125,0.037384033203125,-0.844879150390625,1,1.0,1.0,1.0,1.0,10.00
2024-10-11 20:28:32.075,0.2915791,-0.1963488,0.3467619,0.40276113,0.4745644,0.007564524,0.3108994,0.50412333,0.6438588,0.06499304,0.44920322,0.7743029,0.3739195,-0.1819162,0.33352405,0.47103778,0.05782335,-0.50944513,-0.38904864,-0.12878652,812.71063,805.05493,788.93774,811.0989,896.1172,-0.13079833984375,-0.0455322265625,1.00238037109375,1.016845703125,0.037384033203125,-0.844879150390625,1,1.0,1.0,1.0,1.0,10.00
2024-10-11 20:28:32.076,0.2915791,-0.1963488,0.3467619,0.40276113,0.4745644,0.007564524,0.3108994,0.50412333,0.6438588,0.06499304,0.44920322,0.7743029,0.3739195,-0.1819162,0.33352405,0.47103778,0.05782335,-0.50944513,-0.38904864,-0.12878652,811.50183,801.4286,796.5934,809.4872,889.2674,-0.13079833984375,-0.0455322265625,1.00238037109375,1.016845703125,0.037384033203125,-0.844879150390625,1,1.0,1.0,1.0,1.0,10.00
2024-10-11 20:28:32.077,0.28426296,-0.26975372,0.16994108,0.3103492,0.4650377,-0.020563088,0.18963753,0.48395035,0.6523685,0.07745234,0.37758622,0.7567161,0.363694,-0.19596997,0.31925637,0.45063362,0.04129727,-0.54153776,-0.38399535,-0.13885646,812.3077,798.60803,800.6227,805.4579,589.4872,-0.13079833984375,-0.0455322265625,1.00238037109375,1.016845703125,0.037384033203125,-0.844879150390625,1,1.0,1.0,1.0,1.0,10.00
2024-10-11 20:28:32.083,0.28426296,-0.26975372,0.16994108,0.3103492,0.4650377,-0.020563088,0.18963753,0.48395035,0.6523685,0.07745234,0.37758622,0.7567161,0.363694,-0.19596997,0.31925637,0.45063362,0.04129727,-0.54153776,-0.38399535,-0.13885646,803.44324,795.38464,798.20514,802.6374,629.3773,-0.13079833984375,-0.0455322265625,1.00238037109375,1.016845703125,0.037384033203125,-0.844879150390625,1,1.0,1.0,1.0,1.0,10.00
2024-10-11 20:28:32.084,0.28426296,-0.26975372,0.16994108,0.3103492,0.4650377,-0.020563088,0.18963753,0.48395035,0.6523685,0.07745234,0.37758622,0.7567161,0.363694,-0.19596997,0.31925637,0.45063362,0.04129727,-0.54153776,-0.38399535,-0.13885646,799.41394,790.9524,792.1612,803.0403,880.80585,-0.13079833984375,-0.0455322265625,1.00238037109375,1.016845703125,0.037384033203125,-0.844879150390625,1,1.0,1.0,1.0,1.0,10.00
2024-10-11 20:28:32.084,0.28426296,-0.26975372,0.16994108,0.3103492,0.4650377,-0.020563088,0.18963753,0.48395035,0.6523685,0.07745234,0.37758622,0.7567161,0.363694,-0.19596997,0.31925637,0.45063362,0.04129727,-0.54153776,-0.38399535,-0.13885646,804.65204,793.7729,793.36993,802.23444,908.60803,-0.13079833984375,-0.0455322265625,1.00238037109375,1.016845703125,0.037384033203125,-0.844879150390625,1,1.0,1.0,1.0,1.0,10.00
2024-10-11 20:28:32.085,0.28426296,-0.26975372,0.16994108,0.3103492,0.4650377,-0.020563088,0.18963753,0.48395035,0.6523685,0.07745234,0.37758622,0.7567161,0.363694,-0.19596997,0.31925637,0.45063362,0.04129727,-0.54153776,-0.38399535,-0.13885646,801.02563,797.8022,795.78754,797.3993,660.0,-0.13079833984375,-0.0455322265625,1.00238037109375,1.016845703125,0.037384033203125,-0.844879150390625,1,1.0,1.0,1.0,1.0,10.00
2024-10-11 20:28:32.086,0.28426296,-0.26975372,0.16994108,0.3103492,0.4650377,-0.020563088,0.18963753,0.48395035,0.6523685,0.07745234,0.37758622,0.7567161,0.363694,-0.19596997,0.31925637,0.45063362,0.04129727,-0.54153776,-0.38399535,-0.13885646,806.6667,801.4286,799.41394,805.8608,603.9927,-0.13079833984375,-0.0455322265625,1.00238037109375,1.016845703125,0.037384033203125,-0.844879150390625,1,1.0,1.0,1.0,1.0,10.00
2024-10-11 20:28:32.086,0.28426296,-0.26975372,0.16994108,0.3103492,0.4650377,-0.020563088,0.18963753,0.48395035,0.6523685,0.07745234,0.37758622,0.7567161,0.363694,-0.19596997,0.31925637,0.45063362,0.04129727,-0.54153776,-0.38399535,-0.13885646,813.1135,798.60803,796.99634,812.71063,892.0879,-0.13079833984375,-0.0455322265625,1.00238037109375,1.016845703125,0.037384033203125,-0.844879150390625,1,1.0,1.0,1.0,1.0,10.00
2024-10-11 20:28:32.087,0.28426296,-0.26975372,0.16994108,0.3103492,0.4650377,-0.020563088,0.18963753,0.48395035,0.6523685,0.07745234,0.37758622,0.7567161,0.363694,-0.19596997,0.31925637,0.45063362,0.04129727,-0.54153776,-0.38399535,-0.13885646,814.7253,801.8315,790.9524,812.3077,799.81683,-0.13079833984375,-0.0455322265625,1.00238037109375,1.016845703125,0.037384033203125,-0.844879150390625,1,1.0,1.0,1.0,1.0,10.00
2024-10-11 20:28:32.088,0.28426296,-0.26975372,0.16994108,0.3103492,0.4650377,-0.020563088,0.18963753,0.48395035,0.6523685,0.07745234,0.37758622,0.7567161,0.363694,-0.19596997,0.31925637,0.45063362,0.04129727,-0.54153776,-0.38399535,-0.13885646,819.5604,805.4579,802.6374,813.5165,554.0293,-0.13079833984375,-0.0455322265625,1.00238037109375,1.016845703125,0.037384033203125,-0.844879150390625,1,1.0,1.0,1.0,1.0,10.00
2024-10-11 20:28:32.118,0.28426296,-0.26975372,0.16994108,0.3103492,0.4650377,-0.020563088,0.18963753,0.48395035,0.6523685,0.07745234,0.37758622,0.7567161,0.363694,-0.19596997,0.31925637,0.45063362,0.04129727,-0.54153776,-0.38399535,-0.13885646,818.7546,804.2491,809.89014,816.337,639.45056,-0.13470458984375,-0.047119140625,0.98779296875,1.614990234375,-0.142059326171875,2.40753173828125,1,1.0,1.0,1.0,1.0,10.00
2024-10-11 20:28:32.119,0.28426296,-0.26975372,0.16994108,0.3103492,0.4650377,-0.020563088,0.18963753,0.48395035,0.6523685,0.07745234,0.37758622,0.7567161,0.363694,-0.19596997,0.31925637,0.45063362,0.04129727,-0.54153776,-0.38399535,-0.13885646,812.71063,800.6227,803.8461,813.5165,781.28204,-0.13470458984375,-0.047119140625,0.98779296875,1.614990234375,-0.142059326171875,2.40753173828125,1,1.0,1.0,1.0,1.0,10.00
2024-10-11 20:28:32.119,0.28426296,-0.26975372,0.16994108,0.3103492,0.4650377,-0.020563088,0.18963753,0.48395035,0.6523685,0.07745234,0.37758622,0.7567161,0.363694,-0.19596997,0.31925637,0.45063362,0.04129727,-0.54153776,-0.38399535,-0.13885646,811.0989,800.6227,802.6374,812.71063,749.0476,-0.13470458984375,-0.047119140625,0.98779296875,1.614990234375,-0.142059326171875,2.40753173828125,1,1.0,1.0,1.0,1.0,10.00
2024-10-11 20:28:32.120,0.28426296,-0.26975372,0.16994108,0.3103492,0.4650377,-0.020563088,0.18963753,0.48395035,0.6523685,0.07745234,0.37758622,0.7567161,0.363694,-0.19596997,0.31925637,0.45063362,0.04129727,-0.54153776,-0.38399535,-0.13885646,811.50183,801.8315,803.44324,809.89014,563.69965,-0.13470458984375,-0.047119140625,0.98779296875,1.614990234375,-0.142059326171875,2.40753173828125,1,1.0,1.0,1.0,1.0,10.00
2024-10-11 20:28:32.121,0.28426296,-0.26975372,0.16994108,0.3103492,0.4650377,-0.020563088,0.18963753,0.48395035,0.6523685,0.07745234,0.37758622,0.7567161,0.363694,-0.19596997,0.31925637,0.45063362,0.04129727,-0.54153776,-0.38399535,-0.13885646,806.6667,798.60803,797.8022,805.8608,722.4542,-0.13470458984375,-0.047119140625,0.98779296875,1.614990234375,-0.142059326171875,2.40753173828125,1,1.0,1.0,1.0,1.0,10.00
2024-10-11 20:28:32.121,0.28426296,-0.26975372,0.16994108,0.3103492,0.4650377,-0.020563088,0.18963753,0.48395035,0.6523685,0.07745234,0.37758622,0.7567161,0.363694,-0.19596997,0.31925637,0.45063362,0.04129727,-0.54153776,-0.38399535,-0.13885646,809.89014,801.02563,800.2198,819.5604,1292.6007,-0.13470458984375,-0.047119140625,0.98779296875,1.614990234375,-0.142059326171875,2.40753173828125,1,1.0,1.0,1.0,1.0,10.00
2024-10-11 20:28:32.122,0.28426296,-0.26975372,0.16994108,0.3103492,0.4650377,-0.020563088,0.18963753,0.48395035,0.6523685,0.07745234,0.37758622,0.7567161,0.363694,-0.19596997,0.31925637,0.45063362,0.04129727,-0.54153776,-0.38399535,-0.13885646,814.3223,805.4579,803.8461,819.9634,1113.6996,-0.13470458984375,-0.047119140625,0.98779296875,1.614990234375,-0.142059326171875,2.40753173828125,1,1.0,1.0,1.0,1.0,10.00
2024-10-11 20:28:32.123,0.28426296,-0.26975372,0.16994108,0.3103492,0.4650377,-0.020563088,0.18963753,0.48395035,0.6523685,0.07745234,0.37758622,0.7567161,0.363694,-0.19596997,0.31925637,0.45063362,0.04129727,-0.54153776,-0.38399535,-0.13885646,808.68134,805.05493,801.8315,813.91943,716.4103,-0.13470458984375,-0.047119140625,0.98779296875,1.614990234375,-0.142059326171875,2.40753173828125,1,1.0,1.0,1.0,1.0,10.00
