TimeStamp,Delta_TP9,Delta_AF7,Delta_AF8,Delta_TP10,Theta_TP9,Theta_AF7,Theta_AF8,Theta_TP10,Alpha_TP9,Alpha_AF7,Alpha_AF8,Alpha_TP10,Beta_TP9,Beta_AF7,Beta_AF8,Beta_TP10,Gamma_TP9,Gamma_AF7,Gamma_AF8,Gamma_TP10,RAW_TP9,RAW_AF7,RAW_AF8,RAW_TP10,AUX_RIGHT,Accelerometer_X,Accelerometer_Y,Accelerometer_Z,Gyro_X,Gyro_Y,Gyro_Z,HeadBandOn,HSI_TP9,HSI_AF7,HSI_AF8,HSI_TP10,Battery,Elements
2024-10-11 20:27:58.797,0.8548608,0.73437995,1.0822855,0.9053004,0.37920317,0.17538577,0.662029,0.33525366,0.61294806,0.18554832,0.41632682,0.37126115,0.62035483,-0.09682556,0.12166054,0.5117331,-0.0077280127,-0.35554826,-0.43326527,0.003331542,803.44324,802.23444,802.6374,798.60803,938.8278,0.1270751953125,0.0955810546875,0.99139404296875,0.43365478515625,-1.2261962890625,-0.31402587890625,1,1.0,1.0,1.0,1.0,10.00
2024-10-11 20:27:58.799,0.8548608,0.73437995,1.0822855,0.9053004,0.37920317,0.17538577,0.662029,0.33525366,0.61294806,0.18554832,0.41632682,0.37126115,0.62035483,-0.09682556,0.12166054,0.5117331,-0.0077280127,-0.35554826,-0.43326527,0.003331542,805.05493,803.44324,803.44324,803.0403,829.2308,0.1270751953125,0.0955810546875,0.99139404296875,0.43365478515625,-1.2261962890625,-0.31402587890625,1,1.0,1.0,1.0,1.0,10.00
2024-10-11 20:27:58.800,0.8548608,0.73437995,1.0822855,0.9053004,0.37920317,0.17538577,0.662029,0.33525366,0.61294806,0.18554832,0.41632682,0.37126115,0.62035483,-0.09682556,0.12166054,0.5117331,-0.0077280127,-0.35554826,-0.43326527,0.003331542,807.0696,805.05493,806.26373,806.6667,795.38464,0.1270751953125,0.0955810546875,0.99139404296875,0.43365478515625,-1.2261962890625,-0.31402587890625,1,1.0,1.0,1.0,1.0,10.00
2024-10-11 20:27:58.801,0.8548608,0.73437995,1.0822855,0.9053004,0.37920317,0.17538577,0.662029,0.33525366,0.61294806,0.18554832,0.41632682,0.37126115,0.62035483,-0.09682556,0.12166054,0.5117331,-0.0077280127,-0.35554826,-0.43326527,0.003331542,809.4872,803.44324,805.05493,810.293,889.2674,0.1270751953125,0.0955810546875,0.99139404296875,0.43365478515625,-1.2261962890625,-0.31402587890625,1,1.0,1.0,1.0,1.0,10.00
2024-10-11 20:27:58.802,0.8548608,0.73437995,1.0822855,0.9053004,0.37920317,0.17538577,0.662029,0.33525366,0.61294806,0.18554832,0.41632682,0.37126115,0.62035483,-0.09682556,0.12166054,0.5117331,-0.0077280127,-0.35554826,-0.43326527,0.003331542,810.696,803.0403,797.8022,813.91943,874.7619,0.1270751953125,0.0955810546875,0.99139404296875,0.43365478515625,-1.2261962890625,-0.31402587890625,1,1.0,1.0,1.0,1.0,10.00
2024-10-11 20:27:58.803,0.8548608,0.69620204,1.0822855,0.9053004,0.37920317,0.15224095,0.662029,0.33525366,0.61294806,0.14842737,0.41632682,0.37126115,0.62035483,-0.11644061,0.12166054,0.5117331,-0.0077280127,-0.36806837,-0.43326527,0.003331542,805.05493,804.2491,799.81683,809.89014,781.685,0.1270751953125,0.0955810546875,0.99139404296875,0.43365478515625,-1.2261962890625,-0.31402587890625,1,1.0,1.0,1.0,1.0,10.00
2024-10-11 20:27:58.807,0.8548608,0.69620204,1.0822855,0.9053004,0.37920317,0.15224095,0.662029,0.33525366,0.61294806,0.14842737,0.41632682,0.37126115,0.62035483,-0.11644061,0.12166054,0.5117331,-0.0077280127,-0.36806837,-0.43326527,0.003331542,805.05493,799.81683,808.2784,807.8755,863.0769,0.1270751953125,0.0955810546875,0.99139404296875,0.43365478515625,-1.2261962890625,-0.31402587890625,1,1.0,1.0,1.0,1.0,10.00
2024-10-11 20:27:58.808,0.8548608,0.69620204,1.0822855,0.9053004,0.37920317,0.15224095,0.662029,0.33525366,0.61294806,0.14842737,0.41632682,0.37126115,0.62035483,-0.11644061,0.12166054,0.5117331,-0.0077280127,-0.36806837,-0.43326527,0.003331542,807.0696,797.8022,806.6667,807.0696,940.4396,0.1270751953125,0.0955810546875,0.99139404296875,0.43365478515625,-1.2261962890625,-0.31402587890625,1,1.0,1.0,1.0,1.0,10.00
2024-10-11 20:27:58.809,0.8548608,0.69620204,1.0822855,0.9053004,0.37920317,0.15224095,0.662029,0.33525366,0.61294806,0.14842737,0.41632682,0.37126115,0.62035483,-0.11644061,0.12166054,0.5117331,-0.0077280127,-0.36806837,-0.43326527,0.003331542,802.6374,799.41394,799.41394,805.8608,882.4176,0.1270751953125,0.0955810546875,0.99139404296875,0.43365478515625,-1.2261962890625,-0.31402587890625,1,1.0,1.0,1.0,1.0,10.00
2024-10-11 20:27:58.810,0.8548608,0.69620204,1.0822855,0.9053004,0.37920317,0.15224095,0.662029,0.33525366,0.61294806,0.14842737,0.41632682,0.37126115,0.62035483,-0.11644061,0.12166054,0.5117331,-0.0077280127,-0.36806837,-0.43326527,0.003331542,803.44324,801.02563,801.8315,805.8608,711.1722,0.1270751953125,0.0955810546875,0.99139404296875,0.43365478515625,-1.2261962890625,-0.31402587890625,1,1.0,1.0,1.0,1.0,10.00
2024-10-11 20:27:58.810,0.8548608,0.69620204,1.0822855,0.9053004,0.37920317,0.15224095,0.662029,0.33525366,0.61294806,0.14842737,0.41632682,0.37126115,0.62035483,-0.11644061,0.12166054,0.5117331,-0.0077280127,-0.36806837,-0.43326527,0.003331542,799.011,802.23444,805.4579,805.8608,676.52014,0.1270751953125,0.0955810546875,0.99139404296875,0.43365478515625,-1.2261962890625,-0.31402587890625,1,1.0,1.0,1.0,1.0,10.00
2024-10-11 20:27:58.811,0.8548608,0.69620204,1.0822855,0.9053004,0.37920317,0.15224095,0.662029,0.33525366,0.61294806,0.14842737,0.41632682,0.37126115,0.62035483,-0.11644061,0.12166054,0.5117331,-0.0077280127,-0.36806837,-0.43326527,0.003331542,790.9524,796.1905,801.02563,806.26373,845.34796,0.1270751953125,0.0955810546875,0.99139404296875,0.43365478515625,-1.2261962890625,-0.31402587890625,1,1.0,1.0,1.0,1.0,10.00
2024-10-11 20:27:58.938,0.8548608,0.69620204,1.0822855,0.9053004,0.37920317,0.15224095,0.662029,0.33525366,0.61294806,0.14842737,0.41632682,0.37126115,0.62035483,-0.11644061,0.12166054,0.5117331,-0.0077280127,-0.36806837,-0.43326527,0.003331542,792.1612,795.78754,799.81683,802.23444,836.4835,0.12750244140625,0.09454345703125,0.99273681640625,0.545806884765625,-1.772003173828125,0.530853271484375,1,1.0,1.0,1.0,1.0,10.00
2024-10-11 20:27:58.939,0.8548608,0.69620204,1.0822855,0.9053004,0.37920317,0.15224095,0.662029,0.33525366,0.61294806,0.14842737,0.41632682,0.37126115,0.62035483,-0.11644061,0.12166054,0.5117331,-0.0077280127,-0.36806837,-0.43326527,0.003331542,792.1612,798.60803,805.05493,798.20514,724.0659,0.12750244140625,0.09454345703125,0.99273681640625,0.545806884765625,-1.772003173828125,0.530853271484375,1,1.0,1.0,1.0,1.0,10.00
2024-10-11 20:27:58.940,0.8548608,0.69620204,1.0822855,0.9053004,0.37920317,0.15224095,0.662029,0.33525366,0.61294806,0.14842737,0.41632682,0.37126115,0.62035483,-0.11644061,0.12166054,0.5117331,-0.0077280127,-0.36806837,-0.43326527,0.003331542,794.57874,795.78754,801.8315,801.02563,717.619,0.12750244140625,0.09454345703125,0.99273681640625,0.545806884765625,-1.772003173828125,0.530853271484375,1,1.0,1.0,1.0,1.0,10.00
2024-10-11 20:27:58.941,0.8548608,0.69620204,1.0822855,0.9053004,0.37920317,0.15224095,0.662029,0.33525366,0.61294806,0.14842737,0.41632682,0.37126115,0.62035483,-0.11644061,0.12166054,0.5117331,-0.0077280127,-0.36806837,-0.43326527,0.003331542,790.14655,793.36993,794.57874,802.6374,848.1685,0.12750244140625,0.09454345703125,0.99273681640625,0.545806884765625,-1.772003173828125,0.530853271484375,1,1.0,1.0,1.0,1.0,10.00
2024-10-11 20:27:58.942,0.8548608,0.69620204,1.0822855,0.9053004,0.37920317,0.15224095,0.662029,0.33525366,0.61294806,0.14842737,0.41632682,0.37126115,0.62035483,-0.11644061,0.12166054,0.5117331,-0.0077280127,-0.36806837,-0.43326527,0.003331542,790.54944,794.9817,800.6227,800.6227,826.4103,0.12750244140625,0.09454345703125,0.99273681640625,0.545806884765625,-1.772003173828125,0.530853271484375,1,1.0,1.0,1.0,1.0,10.00
2024-10-11 20:27:58.943,0.8548608,0.69620204,1.0822855,0.9053004,0.37920317,0.15224095,0.662029,0.33525366,0.61294806,0.14842737,0.41632682,0.37126115,0.62035483,-0.11644061,0.12166054,0.5117331,-0.0077280127,-0.36806837,-0.43326527,0.003331542,800.6227,794.17584,804.2491,796.1905,767.1795,0.12750244140625,0.09454345703125,0.99273681640625,0.545806884765625,-1.772003173828125,0.530853271484375,1,1.0,1.0,1.0,1.0,10.00
2024-10-11 20:27:58.943,0.8548608,0.69620204,1.0822855,0.9053004,0.37920317,0.15224095,0.662029,0.33525366,0.61294806,0.14842737,0.41632682,0.37126115,0.62035483,-0.11644061,0.12166054,0.5117331,-0.0077280127,-0.36806837,-0.43326527,0.003331542,805.8608,795.38464,804.65204,802.23444,875.56775,0.12750244140625,0.09454345703125,0.99273681640625,0.545806884765625,-1.772003173828125,0.530853271484375,1,1.0,1.0,1.0,1.0,10.00
2024-10-11 20:27:58.944,0.8548608,0.69620204,1.0822855,0.9053004,0.37920317,0.15224095,0.662029,0.33525366,0.61294806,0.14842737,0.41632682,0.37126115,0.62035483,-0.11644061,0.12166054,0.5117331,-0.0077280127,-0.36806837,-0.43326527,0.003331542,807.0696,798.20514,805.05493,813.91943,1051.6483,0.12750244140625,0.09454345703125,0.99273681640625,0.545806884765625,-1.772003173828125,0.530853271484375,1,1.0,1.0,1.0,1.0,10.00
2024-10-11 20:27:58.945,0.8548608,0.69620204,1.0822855,0.9053004,0.37920317,0.15224095,0.662029,0.33525366,0.61294806,0.14842737,0.41632682,0.37126115,0.62035483,-0.11644061,0.12166054,0.5117331,-0.0077280127,-0.36806837,-0.43326527,0.003331542,805.8608,797.3993,803.0403,809.0842,786.1172,0.12750244140625,0.09454345703125,0.99273681640625,0.545806884765625,-1.772003173828125,0.530853271484375,1,1.0,1.0,1.0,1.0,10.00
2024-10-11 20:27:58.946,0.8548608,0.69620204,1.0822855,0.9053004,0.37920317,0.15224095,0.662029,0.33525366,0.61294806,0.14842737,0.41632682,0.37126115,0.62035483,-0.11644061,0.12166054,0.5117331,-0.0077280127,-0.36806837,-0.43326527,0.003331542,802.23444,797.3993,801.02563,805.4579,511.72162,0.12750244140625,0.09454345703125,0.99273681640625,0.545806884765625,-1.772003173828125,0.530853271484375,1,1.0,1.0,1.0,1.0,10.00
2024-10-11 20:27:58.947,0.8548608,0.69620204,1.0822855,0.9053004,0.37920317,0.15224095,0.662029,0.33525366,0.61294806,0.14842737,0.41632682,0.37126115,0.62035483,-0.11644061,0.12166054,0.5117331,-0.0077280127,-0.36806837,-0.43326527,0.003331542,804.65204,799.81683,801.02563,807.8755,575.38464,0.12750244140625,0.09454345703125,0.99273681640625,0.545806884765625,-1.772003173828125,0.530853271484375,1,1.0,1.0,1.0,1.0,10.00
2024-10-11 20:27:58.948,0.8548608,0.69620204,1.0822855,0.9053004,0.37920317,0.15224095,0.662029,0.33525366,0.61294806,0.14842737,0.41632682,0.37126115,0.62035483,-0.11644061,0.12166054,0.5117331,-0.0077280127,-0.36806837,-0.43326527,0.003331542,812.3077,803.0403,801.02563,811.9048,754.2857,0.12750244140625,0.09454345703125,0.99273681640625,0.545806884765625,-1.772003173828125,0.530853271484375,1,1.0,1.0,1.0,1.0,10.00
2024-10-11 20:27:58.949,0.8548608,0.69620204,1.0822855,0.9053004,0.37920317,0.15224095,0.662029,0.33525366,0.61294806,0.14842737,0.41632682,0.37126115,0.62035483,-0.11644061,0.12166054,0.5117331,-0.0077280127,-0.36806837,-0.43326527,0.003331542,805.8608,800.6227,803.0403,807.0696,647.9121,0.12750244140625,0.09454345703125,0.99273681640625,0.545806884765625,-1.772003173828125,0.530853271484375,1,1.0,1.0,1.0,1.0,10.00
2024-10-11 20:27:58.950,0.8548608,0.69620204,1.0822855,0.9053004,0.37920317,0.15224095,0.662029,0.33525366,0.61294806,0.14842737,0.41632682,0.37126115,0.62035483,-0.11644061,0.12166054,0.5117331,-0.0077280127,-0.36806837,-0.43326527,0.003331542,800.2198,796.5934,803.8461,805.05493,515.7509,0.12750244140625,0.09454345703125,0.99273681640625,0.545806884765625,-1.772003173828125,0.530853271484375,1,1.0,1.0,1.0,1.0,10.00
2024-10-11 20:27:58.951,0.8548608,0.69620204,1.0822855,0.9053004,0.37920317,0.15224095,0.662029,0.33525366,0.61294806,0.14842737,0.41632682,0.37126115,0.62035483,-0.11644061,0.12166054,0.5117331,-0.0077280127,-0.36806837,-0.43326527,0.003331542,793.7729,795.38464,801.02563,803.0403,599.5604,0.12750244140625,0.09454345703125,0.99273681640625,0.545806884765625,-1.772003173828125,0.530853271484375,1,1.0,1.0,1.0,1.0,10.00
2024-10-11 20:27:58.951,0.8548608,0.69620204,1.0822855,0.9053004,0.37920317,0.15224095,0.662029,0.33525366,0.61294806,0.14842737,0.41632682,0.37126115,0.62035483,-0.11644061,0.12166054,0.5117331,-0.0077280127,-0.36806837,-0.43326527,0.003331542,792.96704,793.7729,797.3993,807.47253,787.72894,0.12750244140625,0.09454345703125,0.99273681640625,0.545806884765625,-1.772003173828125,0.530853271484375,1,1.0,1.0,1.0,1.0,10.00
2024-10-11 20:27:58.952,0.8548608,0.69620204,1.0822855,0.9053004,0.37920317,0.15224095,0.662029,0.33525366,0.61294806,0.14842737,0.41632682,0.37126115,0.62035483,-0.11644061,0.12166054,0.5117331,-0.0077280127,-0.36806837,-0.43326527,0.003331542,799.81683,799.011,790.54944,809.4872,756.7033,0.12750244140625,0.09454345703125,0.99273681640625,0.545806884765625,-1.772003173828125,0.530853271484375,1,1.0,1.0,1.0,1.0,10.00
2024-10-11 20:27:58.953,0.8548608,0.69620204,1.0822855,0.9053004,0.37920317,0.15224095,0.662029,0.33525366,0.61294806,0.14842737,0.41632682,0.37126115,0.62035483,-0.11644061,0.12166054,0.5117331,-0.0077280127,-0.36806837,-0.43326527,0.003331542,798.20514,800.6227,796.99634,799.81683,771.2088,0.12750244140625,0.09454345703125,0.99273681640625,0.545806884765625,-1.772003173828125,0.530853271484375,1,1.0,1.0,1.0,1.0,10.00
2024-10-11 20:27:58.954,0.8548608,0.69620204,1.0822855,0.9053004,0.37920317,0.15224095,0.662029,0.33525366,0.61294806,0.14842737,0.41632682,0.37126115,0.62035483,-0.11644061,0.12166054,0.5117331,-0.0077280127,-0.36806837,-0.43326527,0.003331542,797.3993,799.011,803.8461,796.99634,902.96704,0.12750244140625,0.09454345703125,0.99273681640625,0.545806884765625,-1.772003173828125,0.530853271484375,1,1.0,1.0,1.0,1.0,10.00
2024-10-11 20:27:58.955,0.8548608,0.6779471,1.0568081,0.9053004,0.37920317,0.1423878,0.6292809,0.33525366,0.61294806,0.11086725,0.41632682,0.37126115,0.62035483,-0.13822983,0.14068803,0.5117331,-0.0077280127,-0.38683853,-0.40740448,0.003331542,796.5934,801.02563,801.4286,792.5641,810.293,0.12750244140625,0.09454345703125,0.99273681640625,0.545806884765625,-1.772003173828125,0.530853271484375,1,1.0,1.0,1.0,1.0,10.00
2024-10-11 20:27:58.961,0.8548608,0.6779471,1.0568081,0.9053004,0.37920317,0.1423878,0.6292809,0.33525366,0.61294806,0.11086725,0.41632682,0.37126115,0.62035483,-0.13822983,0.14068803,0.5117331,-0.0077280127,-0.38683853,-0.40740448,0.003331542,801.4286,802.23444,797.3993,796.99634,702.71063,0.12750244140625,0.09454345703125,0.99273681640625,0.545806884765625,-1.772003173828125,0.530853271484375,1,1.0,1.0,1.0,1.0,10.00
2024-10-11 20:27:58.962,0.8548608,0.6779471,1.0568081,0.9053004,0.37920317,0.1423878,0.6292809,0.33525366,0.61294806,0.11086725,0.41632682,0.37126115,0.62035483,-0.13822983,0.14068803,0.5117331,-0.0077280127,-0.38683853,-0.40740448,0.003331542,803.8461,802.6374,791.3553,801.02563,678.5348,0.12750244140625,0.09454345703125,0.99273681640625,0.545806884765625,-1.772003173828125,0.530853271484375,1,1.0,1.0,1.0,1.0,10.00
2024-10-11 20:27:58.964,0.8548608,0.6779471,1.0568081,0.9053004,0.37920317,0.1423878,0.6292809,0.33525366,0.61294806,0.11086725,0.41632682,0.37126115,0.62035483,-0.13822983,0.14068803,0.5117331,-0.0077280127,-0.38683853,-0.40740448,0.003331542,801.8315,803.8461,796.99634,801.8315,742.6007,0.12750244140625,0.09454345703125,0.99273681640625,0.545806884765625,-1.772003173828125,0.530853271484375,1,1.0,1.0,1.0,1.0,10.00
2024-10-11 20:27:58.965,0.8548608,0.6779471,1.0568081,0.9053004,0.37920317,0.1423878,0.6292809,0.33525366,0.61294806,0.11086725,0.41632682,0.37126115,0.62035483,-0.13822983,0.14068803,0.5117331,-0.0077280127,-0.38683853,-0.40740448,0.003331542,801.02563,801.8315,801.8315,799.41394,736.1539,0.12750244140625,0.09454345703125,0.99273681640625,0.545806884765625,-1.772003173828125,0.530853271484375,1,1.0,1.0,1.0,1.0,10.00
2024-10-11 20:27:58.967,0.8548608,0.6779471,1.0568081,0.9053004,0.37920317,0.1423878,0.6292809,0.33525366,0.61294806,0.11086725,0.41632682,0.37126115,0.62035483,-0.13822983,0.14068803,0.5117331,-0.0077280127,-0.38683853,-0.40740448,0.003331542,804.65204,800.2198,800.6227,796.5934,619.304,0.12872314453125,0.099609375,0.991455078125,0.725250244140625,-1.3458251953125,0.740203857421875,1,1.0,1.0,1.0,1.0,10.00
2024-10-11 20:27:58.968,0.8548608,0.6779471,1.0568081,0.9053004,0.37920317,0.1423878,0.6292809,0.33525366,0.61294806,0.11086725,0.41632682,0.37126115,0.62035483,-0.13822983,0.14068803,0.5117331,-0.0077280127,-0.38683853,-0.40740448,0.003331542,809.89014,801.4286,803.44324,801.4286,717.619,0.12872314453125,0.099609375,0.991455078125,0.725250244140625,-1.3458251953125,0.740203857421875,1,1.0,1.0,1.0,1.0,10.00
2024-10-11 20:27:58.969,0.8548608,0.6779471,1.0568081,0.9053004,0.37920317,0.1423878,0.6292809,0.33525366,0.61294806,0.11086725,0.41632682,0.37126115,0.62035483,-0.13822983,0.14068803,0.5117331,-0.0077280127,-0.38683853,-0.40740448,0.003331542,806.6667,799.41394,801.02563,806.26373,841.7216,0.12872314453125,0.099609375,0.991455078125,0.725250244140625,-1.3458251953125,0.740203857421875,1,1.0,1.0,1.0,1.0,10.00
2024-10-11 20:27:58.970,0.8548608,0.6779471,1.0568081,0.9053004,0.37920317,0.1423878,0.6292809,0.33525366,0.61294806,0.11086725,0.41632682,0.37126115,0.62035483,-0.13822983,0.14068803,0.5117331,-0.0077280127,-0.38683853,-0.40740448,0.003331542,807.47253,796.99634,800.2198,807.47253,720.84247,0.12872314453125,0.099609375,0.991455078125,0.725250244140625,-1.3458251953125,0.740203857421875,1,1.0,1.0,1.0,1.0,10.00
2024-10-11 20:27:58.971,0.8548608,0.6779471,1.0568081,0.9053004,0.37920317,0.1423878,0.6292809,0.33525366,0.61294806,0.11086725,0.41632682,0.37126115,0.62035483,-0.13822983,0.14068803,0.5117331,-0.0077280127,-0.38683853,-0.40740448,0.003331542,809.89014,796.99634,801.8315,808.2784,683.7729,0.12872314453125,0.099609375,0.991455078125,0.725250244140625,-1.3458251953125,0.740203857421875,1,1.0,1.0,1.0,1.0,10.00
2024-10-11 20:27:58.972,0.8548608,0.6779471,1.0568081,0.9053004,0.37920317,0.1423878,0.6292809,0.33525366,0.61294806,0.11086725,0.41632682,0.37126115,0.62035483,-0.13822983,0.14068803,0.5117331,-0.0077280127,-0.38683853,-0.40740448,0.003331542,806.6667,797.8022,793.7729,804.2491,839.304,0.12872314453125,0.099609375,0.991455078125,0.725250244140625,-1.3458251953125,0.740203857421875,1,1.0,1.0,1.0,1.0,10.00
2024-10-11 20:27:58.973,0.8548608,0.6779471,1.0568081,0.9053004,0.37920317,0.1423878,0.6292809,0.33525366,0.61294806,0.11086725,0.41632682,0.37126115,0.62035483,-0.13822983,0.14068803,0.5117331,-0.0077280127,-0.38683853,-0.40740448,0.003331542,796.5934,796.1905,791.75824,797.8022,1043.5897,0.12872314453125,0.099609375,0.991455078125,0.725250244140625,-1.3458251953125,0.740203857421875,1,1.0,1.0,1.0,1.0,10.00
2024-10-11 20:27:58.974,0.8548608,0.6779471,1.0568081,0.9053004,0.37920317,0.1423878,0.6292809,0.33525366,0.61294806,0.11086725,0.41632682,0.37126115,0.62035483,-0.13822983,0.14068803,0.5117331,-0.0077280127,-0.38683853,-0.40740448,0.003331542,794.9817,795.38464,802.23444,796.99634,892.0879,0.12872314453125,0.099609375,0.991455078125,0.725250244140625,-1.3458251953125,0.740203857421875,1,1.0,1.0,1.0,1.0,10.00
2024-10-11 20:27:58.975,0.8548608,0.6779471,1.0568081,0.9053004,0.37920317,0.1423878,0.6292809,0.33525366,0.61294806,0.11086725,0.41632682,0.37126115,0.62035483,-0.13822983,0.14068803,0.5117331,-0.0077280127,-0.38683853,-0.40740448,0.003331542,798.20514,799.011,800.6227,792.96704,632.1978,0.12872314453125,0.099609375,0.991455078125,0.725250244140625,-1.3458251953125,0.740203857421875,1,1.0,1.0,1.0,1.0,10.00
2024-10-11 20:27:58.976,0.8548608,0.6779471,1.0568081,0.9053004,0.37920317,0.1423878,0.6292809,0.33525366,0.61294806,0.11086725,0.41632682,0.37126115,0.62035483,-0.13822983,0.14068803,0.5117331,-0.0077280127,-0.38683853,-0.40740448,0.003331542,808.68134,797.8022,798.60803,799.011,628.1685,0.12872314453125,0.099609375,0.991455078125,0.725250244140625,-1.3458251953125,0.740203857421875,1,1.0,1.0,1.0,1.0,10.00
2024-10-11 20:27:58.977,0.8548608,0.6779471,1.0568081,0.9053004,0.37920317,0.1423878,0.6292809,0.33525366,0.61294806,0.11086725,0.41632682,0.37126115,0.62035483,-0.13822983,0.14068803,0.5117331,-0.0077280127,-0.38683853,-0.40740448,0.003331542,827.2161,793.7729,807.0696,826.8132,765.16486,0.12872314453125,0.099609375,0.991455078125,0.725250244140625,-1.3458251953125,0.740203857421875,1,1.0,1.0,1.0,1.0,10.00
2024-10-11 20:27:58.978,0.8548608,0.6779471,1.0568081,0.9053004,0.37920317,0.1423878,0.6292809,0.33525366,0.61294806,0.11086725,0.41632682,0.37126115,0.62035483,-0.13822983,0.14068803,0.5117331,-0.0077280127,-0.38683853,-0.40740448,0.003331542,813.1135,795.38464,809.0842,823.9927,730.10986,0.12872314453125,0.099609375,0.991455078125,0.725250244140625,-1.3458251953125,0.740203857421875,1,1.0,1.0,1.0,1.0,10.00
2024-10-11 20:27:58.979,0.8548608,0.6779471,1.0568081,0.9053004,0.37920317,0.1423878,0.6292809,0.33525366,0.61294806,0.11086725,0.41632682,0.37126115,0.62035483,-0.13822983,0.14068803,0.5117331,-0.0077280127,-0.38683853,-0.40740448,0.003331542,784.5055,800.2198,804.2491,797.8022,643.8828,0.12176513671875,0.09765625,0.9954833984375,0.3289794921875,-0.3887939453125,1.18133544921875,1,1.0,1.0,1.0,1.0,10.00
2024-10-11 20:27:58.980,0.8548608,0.6779471,1.0568081,0.9053004,0.37920317,0.1423878,0.6292809,0.33525366,0.61294806,0.11086725,0.41632682,0.37126115,0.62035483,-0.13822983,0.14068803,0.5117331,-0.0077280127,-0.38683853,-0.40740448,0.003331542,768.3883,799.011,798.60803,788.1319,729.707,0.12176513671875,0.09765625,0.9954833984375,0.3289794921875,-0.3887939453125,1.18133544921875,1,1.0,1.0,1.0,1.0,10.00
2024-10-11 20:27:58.981,0.8548608,0.6779471,1.0568081,0.9053004,0.37920317,0.1423878,0.6292809,0.33525366,0.61294806,0.11086725,0.41632682,0.37126115,0.62035483,-0.13822983,0.14068803,0.5117331,-0.0077280127,-0.38683853,-0.40740448,0.003331542,768.3883,794.57874,796.99634,786.52014,878.3883,0.12176513671875,0.09765625,0.9954833984375,0.3289794921875,-0.3887939453125,1.18133544921875,1,1.0,1.0,1.0,1.0,10.00
2024-10-11 20:27:58.982,0.8548608,0.6779471,1.0568081,0.9053004,0.37920317,0.1423878,0.6292809,0.33525366,0.61294806,0.11086725,0.41632682,0.37126115,0.62035483,-0.13822983,0.14068803,0.5117331,-0.0077280127,-0.38683853,-0.40740448,0.003331542,776.8498,795.38464,800.2198,782.49084,800.2198,0.12176513671875,0.09765625,0.9954833984375,0.3289794921875,-0.3887939453125,1.18133544921875,1,1.0,1.0,1.0,1.0,10.00
2024-10-11 20:27:58.983,0.8548608,0.6779471,1.0568081,0.9053004,0.37920317,0.1423878,0.6292809,0.33525366,0.61294806,0.11086725,0.41632682,0.37126115,0.62035483,-0.13822983,0.14068803,0.5117331,-0.0077280127,-0.38683853,-0.40740448,0.003331542,781.28204,796.99634,799.41394,779.2674,726.4835,0.12176513671875,0.09765625,0.9954833984375,0.3289794921875,-0.3887939453125,1.18133544921875,1,1.0,1.0,1.0,1.0,10.00
2024-10-11 20:27:58.984,0.8548608,0.6779471,1.0568081,0.9053004,0.37920317,0.1423878,0.6292809,0.33525366,0.61294806,0.11086725,0.41632682,0.37126115,0.62035483,-0.13822983,0.14068803,0.5117331,-0.0077280127,-0.38683853,-0.40740448,0.003331542,787.72894,791.3553,799.011,784.90845,915.05493,0.12176513671875,0.09765625,0.9954833984375,0.3289794921875,-0.3887939453125,1.18133544921875,1,1.0,1.0,1.0,1.0,10.00
2024-10-11 20:27:58.985,0.8548608,0.6779471,1.0568081,0.9053004,0.37920317,0.1423878,0.6292809,0.33525366,0.61294806,0.11086725,0.41632682,0.37126115,0.62035483,-0.13822983,0.14068803,0.5117331,-0.0077280127,-0.38683853,-0.40740448,0.003331542,785.31134,791.3553,795.78754,790.9524,987.98535,0.12176513671875,0.09765625,0.9954833984375,0.3289794921875,-0.3887939453125,1.18133544921875,1,1.0,1.0,1.0,1.0,10.00
2024-10-11 20:27:58.985,0.8548608,0.6779471,1.0568081,0.9053004,0.37920317,0.1423878,0.6292809,0.33525366,0.61294806,0.11086725,0.41632682,0.37126115,0.62035483,-0.13822983,0.14068803,0.5117331,-0.0077280127,-0.38683853,-0.40740448,0.003331542,783.2967,795.78754,792.96704,787.326,738.1685,0.12176513671875,0.09765625,0.9954833984375,0.3289794921875,-0.3887939453125,1.18133544921875,1,1.0,1.0,1.0,1.0,10.00
2024-10-11 20:27:58.986,0.8548608,0.6779471,1.0568081,0.9053004,0.37920317,0.1423878,0.6292809,0.33525366,0.61294806,0.11086725,0.41632682,0.37126115,0.62035483,-0.13822983,0.14068803,0.5117331,-0.0077280127,-0.38683853,-0.40740448,0.003331542,780.4762,795.38464,801.02563,778.46155,613.2601,0.12176513671875,0.09765625,0.9954833984375,0.3289794921875,-0.3887939453125,1.18133544921875,1,1.0,1.0,1.0,1.0,10.00
2024-10-11 20:27:58.987,0.8548608,0.6639524,1.054881,0.86380064,0.37920317,0.13638774,0.6275212,0.32710147,0.61294806,0.039326176,0.41632682,0.68243587,0.62035483,-0.15320675,0.15918069,0.467308,-0.0077280127,-0.40775478,-0.39073575,0.026375994,776.8498,791.75824,803.44324,781.685,859.0476,0.12176513671875,0.09765625,0.9954833984375,0.3289794921875,-0.3887939453125,1.18133544921875,1,1.0,1.0,1.0,1.0,10.00
2024-10-11 20:27:58.992,0.8548608,0.6639524,1.054881,0.86380064,0.37920317,0.13638774,0.6275212,0.32710147,0.61294806,0.039326176,0.41632682,0.68243587,0.62035483,-0.15320675,0.15918069,0.467308,-0.0077280127,-0.40775478,-0.39073575,0.026375994,780.87915,793.36993,801.4286,783.2967,885.2381,0.12176513671875,0.09765625,0.9954833984375,0.3289794921875,-0.3887939453125,1.18133544921875,1,1.0,1.0,1.0,1.0,10.00
2024-10-11 20:27:58.993,0.8548608,0.6639524,1.054881,0.86380064,0.37920317,0.13638774,0.6275212,0.32710147,0.61294806,0.039326176,0.41632682,0.68243587,0.62035483,-0.15320675,0.15918069,0.467308,-0.0077280127,-0.40775478,-0.39073575,0.026375994,785.31134,803.0403,804.2491,780.87915,624.1392,0.12176513671875,0.09765625,0.9954833984375,0.3289794921875,-0.3887939453125,1.18133544921875,1,1.0,1.0,1.0,1.0,10.00
2024-10-11 20:27:58.994,0.8548608,0.6639524,1.054881,0.86380064,0.37920317,0.13638774,0.6275212,0.32710147,0.61294806,0.039326176,0.41632682,0.68243587,0.62035483,-0.15320675,0.15918069,0.467308,-0.0077280127,-0.40775478,-0.39073575,0.026375994,786.1172,804.2491,801.4286,785.31134,605.6044,0.13323974609375,0.09912109375,0.99468994140625,-0.0,1.5850830078125,2.355194091796875,1,1.0,1.0,1.0,1.0,10.00
2024-10-11 20:27:58.995,0.8548608,0.6639524,1.054881,0.86380064,0.37920317,0.13638774,0.6275212,0.32710147,0.61294806,0.039326176,0.41632682,0.68243587,0.62035483,-0.15320675,0.15918069,0.467308,-0.0077280127,-0.40775478,-0.39073575,0.026375994,791.75824,802.6374,799.011,790.14655,813.91943,0.13323974609375,0.09912109375,0.99468994140625,-0.0,1.5850830078125,2.355194091796875,1,1.0,1.0,1.0,1.0,10.00
2024-10-11 20:27:58.995,0.8548608,0.6639524,1.054881,0.86380064,0.37920317,0.13638774,0.6275212,0.32710147,0.61294806,0.039326176,0.41632682,0.68243587,0.62035483,-0.15320675,0.15918069,0.467308,-0.0077280127,-0.40775478,-0.39073575,0.026375994,798.60803,803.8461,804.65204,798.20514,862.674,0.13323974609375,0.09912109375,0.99468994140625,-0.0,1.5850830078125,2.355194091796875,1,1.0,1.0,1.0,1.0,10.00
2024-10-11 20:27:58.996,0.8548608,0.6639524,1.054881,0.86380064,0.37920317,0.13638774,0.6275212,0.32710147,0.61294806,0.039326176,0.41632682,0.68243587,0.62035483,-0.15320675,0.15918069,0.467308,-0.0077280127,-0.40775478,-0.39073575,0.026375994,797.3993,803.8461,807.0696,800.6227,829.6337,0.13323974609375,0.09912109375,0.99468994140625,-0.0,1.5850830078125,2.355194091796875,1,1.0,1.0,1.0,1.0,10.00
2024-10-11 20:27:58.997,0.8548608,0.6639524,1.054881,0.86380064,0.37920317,0.13638774,0.6275212,0.32710147,0.61294806,0.039326176,0.41632682,0.68243587,0.62035483,-0.15320675,0.15918069,0.467308,-0.0077280127,-0.40775478,-0.39073575,0.026375994,798.60803,803.8461,803.8461,796.5934,896.9231,0.13323974609375,0.09912109375,0.99468994140625,-0.0,1.5850830078125,2.355194091796875,1,1.0,1.0,1.0,1.0,10.00
2024-10-11 20:27:58.998,0.8548608,0.6639524,1.054881,0.86380064,0.37920317,0.13638774,0.6275212,0.32710147,0.61294806,0.039326176,0.41632682,0.68243587,0.62035483,-0.15320675,0.15918069,0.467308,-0.0077280127,-0.40775478,-0.39073575,0.026375994,801.4286,801.4286,801.02563,794.9817,1054.8718,0.13323974609375,0.09912109375,0.99468994140625,-0.0,1.5850830078125,2.355194091796875,1,1.0,1.0,1.0,1.0,10.00
2024-10-11 20:27:58.999,0.8548608,0.6639524,1.054881,0.86380064,0.37920317,0.13638774,0.6275212,0.32710147,0.61294806,0.039326176,0.41632682,0.68243587,0.62035483,-0.15320675,0.15918069,0.467308,-0.0077280127,-0.40775478,-0.39073575,0.026375994,800.6227,799.81683,806.26373,798.60803,1090.7325,0.13323974609375,0.09912109375,0.99468994140625,-0.0,1.5850830078125,2.355194091796875,1,1.0,1.0,1.0,1.0,10.00
2024-10-11 20:27:59.000,0.8548608,0.6639524,1.054881,0.86380064,0.37920317,0.13638774,0.6275212,0.32710147,0.61294806,0.039326176,0.41632682,0.68243587,0.62035483,-0.15320675,0.15918069,0.467308,-0.0077280127,-0.40775478,-0.39073575,0.026375994,799.81683,799.41394,807.0696,799.011,876.3736,0.13323974609375,0.09912109375,0.99468994140625,-0.0,1.5850830078125,2.355194091796875,1,1.0,1.0,1.0,1.0,10.00
2024-10-11 20:27:59.001,0.8548608,0.6639524,1.054881,0.86380064,0.37920317,0.13638774,0.6275212,0.32710147,0.61294806,0.039326176,0.41632682,0.68243587,0.62035483,-0.15320675,0.15918069,0.467308,-0.0077280127,-0.40775478,-0.39073575,0.026375994,800.6227,797.8022,801.02563,801.02563,818.7546,0.13323974609375,0.09912109375,0.99468994140625,-0.0,1.5850830078125,2.355194091796875,1,1.0,1.0,1.0,1.0,10.00
2024-10-11 20:27:59.003,0.8548608,0.6639524,1.054881,0.86380064,0.37920317,0.13638774,0.6275212,0.32710147,0.61294806,0.039326176,0.41632682,0.68243587,0.62035483,-0.15320675,0.15918069,0.467308,-0.0077280127,-0.40775478,-0.39073575,0.026375994,799.011,795.78754,796.99634,803.0403,972.674,0.13323974609375,0.09912109375,0.99468994140625,-0.0,1.5850830078125,2.355194091796875,1,1.0,1.0,1.0,1.0,10.00
2024-10-11 20:27:59.004,0.8548608,0.6639524,1.054881,0.86380064,0.37920317,0.13638774,0.6275212,0.32710147,0.61294806,0.039326176,0.41632682,0.68243587,0.62035483,-0.15320675,0.15918069,0.467308,-0.0077280127,-0.40775478,-0.39073575,0.026375994,800.2198,794.57874,797.3993,793.7729,866.7033,0.13323974609375,0.09912109375,0.99468994140625,-0.0,1.5850830078125,2.355194091796875,1,1.0,1.0,1.0,1.0,10.00
2024-10-11 20:27:59.005,0.8548608,0.6639524,1.054881,0.86380064,0.37920317,0.13638774,0.6275212,0.32710147,0.61294806,0.039326176,0.41632682,0.68243587,0.62035483,-0.15320675,0.15918069,0.467308,-0.0077280127,-0.40775478,-0.39073575,0.026375994,803.0403,794.57874,801.02563,792.96704,855.42126,0.13323974609375,0.09912109375,0.99468994140625,-0.0,1.5850830078125,2.355194091796875,1,1.0,1.0,1.0,1.0,10.00
2024-10-11 20:27:59.027,0.8548608,0.6639524,1.054881,0.86380064,0.37920317,0.13638774,0.6275212,0.32710147,0.61294806,0.039326176,0.41632682,0.68243587,0.62035483,-0.15320675,0.15918069,0.467308,-0.0077280127,-0.40775478,-0.39073575,0.026375994,805.05493,797.3993,801.8315,795.78754,1055.6776,0.1387939453125,0.09906005859375,0.99273681640625,-0.186920166015625,4.08233642578125,5.682373046875,1,1.0,1.0,1.0,1.0,10.00
2024-10-11 20:27:59.028,0.8548608,0.6639524,1.054881,0.86380064,0.37920317,0.13638774,0.6275212,0.32710147,0.61294806,0.039326176,0.41632682,0.68243587,0.62035483,-0.15320675,0.15918069,0.467308,-0.0077280127,-0.40775478,-0.39073575,0.026375994,809.4872,801.8315,804.2491,800.2198,1015.78754,0.1387939453125,0.09906005859375,0.99273681640625,-0.186920166015625,4.08233642578125,5.682373046875,1,1.0,1.0,1.0,1.0,10.00
2024-10-11 20:27:59.028,0.8548608,0.6639524,1.054881,0.86380064,0.37920317,0.13638774,0.6275212,0.32710147,0.61294806,0.039326176,0.41632682,0.68243587,0.62035483,-0.15320675,0.15918069,0.467308,-0.0077280127,-0.40775478,-0.39073575,0.026375994,805.8608,803.0403,801.02563,796.1905,807.47253,0.1387939453125,0.09906005859375,0.99273681640625,-0.186920166015625,4.08233642578125,5.682373046875,1,1.0,1.0,1.0,1.0,10.00
2024-10-11 20:27:59.029,0.8548608,0.6639524,1.054881,0.86380064,0.37920317,0.13638774,0.6275212,0.32710147,0.61294806,0.039326176,0.41632682,0.68243587,0.62035483,-0.15320675,0.15918069,0.467308,-0.0077280127,-0.40775478,-0.39073575,0.026375994,823.9927,801.8315,801.02563,809.0842,706.337,0.1387939453125,0.09906005859375,0.99273681640625,-0.186920166015625,4.08233642578125,5.682373046875,1,1.0,1.0,1.0,1.0,10.00
2024-10-11 20:27:59.029,0.8548608,0.6639524,1.054881,0.86380064,0.37920317,0.13638774,0.6275212,0.32710147,0.61294806,0.039326176,0.41632682,0.68243587,0.62035483,-0.15320675,0.15918069,0.467308,-0.0077280127,-0.40775478,-0.39073575,0.026375994,859.85345,802.6374,819.9634,853.8095,728.0952,0.1387939453125,0.09906005859375,0.99273681640625,-0.186920166015625,4.08233642578125,5.682373046875,1,1.0,1.0,1.0,1.0,10.00
2024-10-11 20:27:59.030,0.8548608,0.6639524,1.054881,0.86380064,0.37920317,0.13638774,0.6275212,0.32710147,0.61294806,0.039326176,0.41632682,0.68243587,0.62035483,-0.15320675,0.15918069,0.467308,-0.0077280127,-0.40775478,-0.39073575,0.026375994,821.1722,798.20514,830.0366,830.4396,873.95605,0.1387939453125,0.09906005859375,0.99273681640625,-0.186920166015625,4.08233642578125,5.682373046875,1,1.0,1.0,1.0,1.0,10.00
2024-10-11 20:27:59.031,0.8548608,0.6639524,1.054881,0.86380064,0.37920317,0.13638774,0.6275212,0.32710147,0.61294806,0.039326176,0.41632682,0.68243587,0.62035483,-0.15320675,0.15918069,0.467308,-0.0077280127,-0.40775478,-0.39073575,0.026375994,761.9414,805.4579,813.5165,772.01465,802.6374,0.1387939453125,0.09906005859375,0.99273681640625,-0.186920166015625,4.08233642578125,5.682373046875,1,1.0,1.0,1.0,1.0,10.00
2024-10-11 20:27:59.032,0.8548608,0.6639524,1.054881,0.86380064,0.37920317,0.13638774,0.6275212,0.32710147,0.61294806,0.039326176,0.41632682,0.68243587,0.62035483,-0.15320675,0.15918069,0.467308,-0.0077280127,-0.40775478,-0.39073575,0.026375994,756.7033,803.0403,804.65204,759.12085,695.05493,0.1387939453125,0.09906005859375,0.99273681640625,-0.186920166015625,4.08233642578125,5.682373046875,1,1.0,1.0,1.0,1.0,10.00
2024-10-11 20:27:59.032,0.8548608,0.6639524,1.054881,0.86380064,0.37920317,0.13638774,0.6275212,0.32710147,0.61294806,0.039326176,0.41632682,0.68243587,0.62035483,-0.15320675,0.15918069,0.467308,-0.0077280127,-0.40775478,-0.39073575,0.026375994,754.68866,795.38464,803.0403,755.09155,797.3993,0.1387939453125,0.09906005859375,0.99273681640625,-0.186920166015625,4.08233642578125,5.682373046875,1,1.0,1.0,1.0,1.0,10.00
2024-10-11 20:27:59.033,0.8548608,0.6639524,1.054881,0.86380064,0.37920317,0.13638774,0.6275212,0.32710147,0.61294806,0.039326176,0.41632682,0.68243587,0.62035483,-0.15320675,0.15918069,0.467308,-0.0077280127,-0.40775478,-0.39073575,0.026375994,732.1245,800.6227,810.696,736.9597,797.3993,0.1387939453125,0.09906005859375,0.99273681640625,-0.186920166015625,4.08233642578125,5.682373046875,1,1.0,1.0,1.0,1.0,10.00
2024-10-11 20:27:59.033,0.8548608,0.6639524,1.054881,0.86380064,0.37920317,0.13638774,0.6275212,0.32710147,0.61294806,0.039326176,0.41632682,0.68243587,0.62035483,-0.15320675,0.15918069,0.467308,-0.0077280127,-0.40775478,-0.39073575,0.026375994,716.8132,806.26373,825.2015,720.84247,670.4762,0.1387939453125,0.09906005859375,0.99273681640625,-0.186920166015625,4.08233642578125,5.682373046875,1,1.0,1.0,1.0,1.0,10.00
2024-10-11 20:27:59.034,0.8548608,0.65994585,1.051052,0.86380064,0.37920317,0.13497463,0.62517446,0.32710147,0.61294806,-0.10483155,0.41632682,0.68243587,0.62035483,-0.15999955,0.16467692,0.467308,-0.0077280127,-0.42874226,-0.37083077,0.026375994,706.337,812.3077,837.6923,713.9927,760.32965,0.1387939453125,0.09906005859375,0.99273681640625,-0.186920166015625,4.08233642578125,5.682373046875,1,1.0,1.0,1.0,1.0,10.00
2024-10-11 20:27:59.038,0.8548608,0.65994585,1.051052,0.86380064,0.37920317,0.13497463,0.62517446,0.32710147,0.61294806,-0.10483155,0.41632682,0.68243587,0.62035483,-0.15999955,0.16467692,0.467308,-0.0077280127,-0.42874226,-0.37083077,0.026375994,685.78754,813.91943,833.663,695.4579,944.4689,0.1387939453125,0.09906005859375,0.99273681640625,-0.186920166015625,4.08233642578125,5.682373046875,1,1.0,1.0,1.0,1.0,10.00
2024-10-11 20:27:59.039,0.8548608,0.65994585,1.051052,0.86380064,0.37920317,0.13497463,0.62517446,0.32710147,0.61294806,-0.10483155,0.41632682,0.68243587,0.62035483,-0.15999955,0.16467692,0.467308,-0.0077280127,-0.42874226,-0.37083077,0.026375994,673.69965,807.47253,825.6044,678.1319,858.6447,0.1387939453125,0.09906005859375,0.99273681640625,-0.186920166015625,4.08233642578125,5.682373046875,1,1.0,1.0,1.0,1.0,10.00
2024-10-11 20:27:59.039,0.8548608,0.65994585,1.051052,0.86380064,0.37920317,0.13497463,0.62517446,0.32710147,0.61294806,-0.10483155,0.41632682,0.68243587,0.62035483,-0.15999955,0.16467692,0.467308,-0.0077280127,-0.42874226,-0.37083077,0.026375994,651.9414,809.89014,834.4689,660.0,679.7436,0.1387939453125,0.09906005859375,0.99273681640625,-0.186920166015625,4.08233642578125,5.682373046875,1,1.0,1.0,1.0,1.0,10.00
2024-10-11 20:27:59.040,0.8548608,0.65994585,1.051052,0.86380064,0.37920317,0.13497463,0.62517446,0.32710147,0.61294806,-0.10483155,0.41632682,0.68243587,0.62035483,-0.15999955,0.16467692,0.467308,-0.0077280127,-0.42874226,-0.37083077,0.026375994,624.1392,815.12823,843.73627,645.4945,778.0586,0.1387939453125,0.09906005859375,0.99273681640625,-0.186920166015625,4.08233642578125,5.682373046875,1,1.0,1.0,1.0,1.0,10.00
2024-10-11 20:27:59.040,0.8548608,0.65994585,1.051052,0.86380064,0.37920317,0.13497463,0.62517446,0.32710147,0.61294806,-0.10483155,0.41632682,0.68243587,0.62035483,-0.15999955,0.16467692,0.467308,-0.0077280127,-0.42874226,-0.37083077,0.026375994,616.08057,813.5165,844.5421,646.7033,914.65204,0.1387939453125,0.09906005859375,0.99273681640625,-0.186920166015625,4.08233642578125,5.682373046875,1,1.0,1.0,1.0,1.0,10.00
2024-10-11 20:27:59.041,0.8548608,0.65994585,1.051052,0.86380064,0.37920317,0.13497463,0.62517446,0.32710147,0.61294806,-0.10483155,0.41632682,0.68243587,0.62035483,-0.15999955,0.16467692,0.467308,-0.0077280127,-0.42874226,-0.37083077,0.026375994,602.7839,811.50183,840.10986,633.4066,878.7912,0.1387939453125,0.09906005859375,0.99273681640625,-0.186920166015625,4.08233642578125,5.682373046875,1,1.0,1.0,1.0,1.0,10.00
2024-10-11 20:27:59.041,0.8548608,0.65994585,1.051052,0.86380064,0.37920317,0.13497463,0.62517446,0.32710147,0.61294806,-0.10483155,0.41632682,0.68243587,0.62035483,-0.15999955,0.16467692,0.467308,-0.0077280127,-0.42874226,-0.37083077,0.026375994,583.8461,809.0842,842.9304,611.6484,797.3993,0.1387939453125,0.09906005859375,0.99273681640625,-0.186920166015625,4.08233642578125,5.682373046875,1,1.0,1.0,1.0,1.0,10.00
2024-10-11 20:27:59.042,0.8548608,0.65994585,1.051052,0.86380064,0.37920317,0.13497463,0.62517446,0.32710147,0.61294806,-0.10483155,0.41632682,0.68243587,0.62035483,-0.15999955,0.16467692,0.467308,-0.0077280127,-0.42874226,-0.37083077,0.026375994,583.44324,811.0989,857.4359,616.08057,837.28937,0.1387939453125,0.09906005859375,0.99273681640625,-0.186920166015625,4.08233642578125,5.682373046875,1,1.0,1.0,1.0,1.0,10.00
2024-10-11 20:27:59.042,0.8548608,0.65994585,1.051052,0.86380064,0.37920317,0.13497463,0.62517446,0.32710147,0.61294806,-0.10483155,0.41632682,0.68243587,0.62035483,-0.15999955,0.16467692,0.467308,-0.0077280127,-0.42874226,-0.37083077,0.026375994,588.2784,810.293,863.0769,626.1539,1102.0146,0.1387939453125,0.09906005859375,0.99273681640625,-0.186920166015625,4.08233642578125,5.682373046875,1,1.0,1.0,1.0,1.0,10.00
2024-10-11 20:27:59.043,0.8548608,0.65994585,1.051052,0.86380064,0.37920317,0.13497463,0.62517446,0.32710147,0.61294806,-0.10483155,0.41632682,0.68243587,0.62035483,-0.15999955,0.16467692,0.467308,-0.0077280127,-0.42874226,-0.37083077,0.026375994,591.0989,803.8461,858.24176,626.9597,1322.4176,0.1387939453125,0.09906005859375,0.99273681640625,-0.186920166015625,4.08233642578125,5.682373046875,1,1.0,1.0,1.0,1.0,10.00
2024-10-11 20:27:59.043,0.8548608,0.65994585,1.051052,0.86380064,0.37920317,0.13497463,0.62517446,0.32710147,0.61294806,-0.10483155,0.41632682,0.68243587,0.62035483,-0.15999955,0.16467692,0.467308,-0.0077280127,-0.42874226,-0.37083077,0.026375994,597.5458,803.0403,857.4359,622.52747,1197.5092,0.1387939453125,0.09906005859375,0.99273681640625,-0.186920166015625,4.08233642578125,5.682373046875,1,1.0,1.0,1.0,1.0,10.00
2024-10-11 20:27:59.043,0.8548608,0.65994585,1.051052,0.86380064,0.37920317,0.13497463,0.62517446,0.32710147,0.61294806,-0.10483155,0.41632682,0.68243587,0.62035483,-0.15999955,0.16467692,0.467308,-0.0077280127,-0.42874226,-0.37083077,0.026375994,600.3663,803.44324,857.8388,620.10986,840.9158,0.1387939453125,0.09906005859375,0.99273681640625,-0.186920166015625,4.08233642578125,5.682373046875,1,1.0,1.0,1.0,1.0,10.00
2024-10-11 20:27:59.044,0.8548608,0.65994585,1.051052,0.86380064,0.37920317,0.13497463,0.62517446,0.32710147,0.61294806,-0.10483155,0.41632682,0.68243587,0.62035483,-0.15999955,0.16467692,0.467308,-0.0077280127,-0.42874226,-0.37083077,0.026375994,590.696,799.011,852.6007,621.7216,805.8608,0.12750244140625,0.09552001953125,0.99188232421875,0.0897216796875,3.45428466796875,9.6002197265625,1,1.0,1.0,1.0,1.0,10.00
2024-10-11 20:27:59.045,0.8548608,0.65994585,1.051052,0.86380064,0.37920317,0.13497463,0.62517446,0.32710147,0.61294806,-0.10483155,0.41632682,0.68243587,0.62035483,-0.15999955,0.16467692,0.467308,-0.0077280127,-0.42874226,-0.37083077,0.026375994,592.71063,797.8022,851.39197,628.1685,733.73627,0.12750244140625,0.09552001953125,0.99188232421875,0.0897216796875,3.45428466796875,9.6002197265625,1,1.0,1.0,1.0,1.0,10.00
2024-10-11 20:27:59.045,0.8548608,0.65994585,1.051052,0.86380064,0.37920317,0.13497463,0.62517446,0.32710147,0.61294806,-0.10483155,0.41632682,0.68243587,0.62035483,-0.15999955,0.16467692,0.467308,-0.0077280127,-0.42874226,-0.37083077,0.026375994,612.4542,798.60803,853.00366,640.2564,594.3223,0.12750244140625,0.09552001953125,0.99188232421875,0.0897216796875,3.45428466796875,9.6002197265625,1,1.0,1.0,1.0,1.0,10.00
2024-10-11 20:27:59.046,0.8548608,0.65994585,1.051052,0.86380064,0.37920317,0.13497463,0.62517446,0.32710147,0.61294806,-0.10483155,0.41632682,0.68243587,0.62035483,-0.15999955,0.16467692,0.467308,-0.0077280127,-0.42874226,-0.37083077,0.026375994,624.94507,792.1612,850.989,647.9121,602.7839,0.12750244140625,0.09552001953125,0.99188232421875,0.0897216796875,3.45428466796875,9.6002197265625,1,1.0,1.0,1.0,1.0,10.00
2024-10-11 20:27:59.046,0.8548608,0.65994585,1.051052,0.86380064,0.37920317,0.13497463,0.62517446,0.32710147,0.61294806,-0.10483155,0.41632682,0.68243587,0.62035483,-0.15999955,0.16467692,0.467308,-0.0077280127,-0.42874226,-0.37083077,0.026375994,637.03296,788.5348,841.7216,665.64105,1036.7399,0.12750244140625,0.09552001953125,0.99188232421875,0.0897216796875,3.45428466796875,9.6002197265625,1,1.0,1.0,1.0,1.0,10.00
2024-10-11 20:27:59.047,0.8548608,0.65994585,1.051052,0.86380064,0.37920317,0.13497463,0.62517446,0.32710147,0.61294806,-0.10483155,0.41632682,0.68243587,0.62035483,-0.15999955,0.16467692,0.467308,-0.0077280127,-0.42874226,-0.37083077,0.026375994,644.2857,792.1612,843.3333,675.7143,1430.0,0.12750244140625,0.09552001953125,0.99188232421875,0.0897216796875,3.45428466796875,9.6002197265625,1,1.0,1.0,1.0,1.0,10.00
2024-10-11 20:27:59.047,0.8548608,0.65994585,1.051052,0.86380064,0.37920317,0.13497463,0.62517446,0.32710147,0.61294806,-0.10483155,0.41632682,0.68243587,0.62035483,-0.15999955,0.16467692,0.467308,-0.0077280127,-0.42874226,-0.37083077,0.026375994,650.32965,786.9231,847.3626,680.54944,1281.7216,0.12750244140625,0.09552001953125,0.99188232421875,0.0897216796875,3.45428466796875,9.6002197265625,1,1.0,1.0,1.0,1.0,10.00
2024-10-11 20:27:59.048,0.8548608,0.65994585,1.051052,0.86380064,0.37920317,0.13497463,0.62517446,0.32710147,0.61294806,-0.10483155,0.41632682,0.68243587,0.62035483,-0.15999955,0.16467692,0.467308,-0.0077280127,-0.42874226,-0.37083077,0.026375994,664.0293,784.90845,843.3333,684.57874,947.28937,0.12750244140625,0.09552001953125,0.99188232421875,0.0897216796875,3.45428466796875,9.6002197265625,1,1.0,1.0,1.0,1.0,10.00
2024-10-11 20:27:59.048,0.8548608,0.65994585,1.051052,0.86380064,0.37920317,0.13497463,0.62517446,0.32710147,0.61294806,-0.10483155,0.41632682,0.68243587,0.62035483,-0.15999955,0.16467692,0.467308,-0.0077280127,-0.42874226,-0.37083077,0.026375994,680.54944,786.52014,841.31866,691.8315,693.8461,0.12750244140625,0.09552001953125,0.99188232421875,0.0897216796875,3.45428466796875,9.6002197265625,1,1.0,1.0,1.0,1.0,10.00
2024-10-11 20:27:59.049,0.8548608,0.65994585,1.051052,0.86380064,0.37920317,0.13497463,0.62517446,0.32710147,0.61294806,-0.10483155,0.41632682,0.68243587,0.62035483,-0.15999955,0.16467692,0.467308,-0.0077280127,-0.42874226,-0.37083077,0.026375994,677.72894,786.52014,834.0659,693.0403,587.47253,0.12750244140625,0.09552001953125,0.99188232421875,0.0897216796875,3.45428466796875,9.6002197265625,1,1.0,1.0,1.0,1.0,10.00
2024-10-11 20:27:59.049,0.8548608,0.65994585,1.051052,0.86380064,0.37920317,0.13497463,0.62517446,0.32710147,0.61294806,-0.10483155,0.41632682,0.68243587,0.62035483,-0.15999955,0.16467692,0.467308,-0.0077280127,-0.42874226,-0.37083077,0.026375994,684.17584,779.67035,831.6484,703.5165,526.2271,0.12750244140625,0.09552001953125,0.99188232421875,0.0897216796875,3.45428466796875,9.6002197265625,1,1.0,1.0,1.0,1.0,10.00
2024-10-11 20:27:59.050,0.8548608,0.65994585,1.051052,0.86380064,0.37920317,0.13497463,0.62517446,0.32710147,0.61294806,-0.10483155,0.41632682,0.68243587,0.62035483,-0.15999955,0.16467692,0.467308,-0.0077280127,-0.42874226,-0.37083077,0.026375994,693.44324,778.86444,835.2747,714.3956,679.34064,0.12750244140625,0.09552001953125,0.99188232421875,0.0897216796875,3.45428466796875,9.6002197265625,1,1.0,1.0,1.0,1.0,10.00
2024-10-11 20:27:59.051,0.8548608,0.65994585,1.051052,0.86380064,0.37920317,0.13497463,0.62517446,0.32710147,0.61294806,-0.10483155,0.41632682,0.68243587,0.62035483,-0.15999955,0.16467692,0.467308,-0.0077280127,-0.42874226,-0.37083077,0.026375994,681.3553,780.07324,832.0513,710.7692,717.2161,0.11529541015625,0.09405517578125,1.00567626953125,0.3887939453125,1.74957275390625,10.220794677734375,1,1.0,1.0,1.0,1.0,10.00
2024-10-11 20:27:59.051,0.8548608,0.6583482,1.0544815,0.86380064,0.37920317,0.13820568,0.62292343,0.32710147,0.61294806,-0.08985207,0.41632682,0.68243587,0.62035483,-0.1599535,0.1580155,0.467308,-0.0077280127,-0.44945535,-0.34557974,0.026375994,689.41394,776.8498,817.1429,723.663,630.18317,0.11529541015625,0.09405517578125,1.00567626953125,0.3887939453125,1.74957275390625,10.220794677734375,1,1.0,1.0,1.0,1.0,10.00
2024-10-11 20:27:59.055,0.8548608,0.6583482,1.0544815,0.86380064,0.37920317,0.13820568,0.62292343,0.32710147,0.61294806,-0.08985207,0.41632682,0.68243587,0.62035483,-0.1599535,0.1580155,0.467308,-0.0077280127,-0.44945535,-0.34557974,0.026375994,712.7839,778.0586,820.7692,747.03296,688.20514,0.11529541015625,0.09405517578125,1.00567626953125,0.3887939453125,1.74957275390625,10.220794677734375,1,1.0,1.0,1.0,1.0,10.00
2024-10-11 20:27:59.056,0.8548608,0.6583482,1.0544815,0.86380064,0.37920317,0.13820568,0.62292343,0.32710147,0.61294806,-0.08985207,0.41632682,0.68243587,0.62035483,-0.1599535,0.1580155,0.467308,-0.0077280127,-0.44945535,-0.34557974,0.026375994,719.2308,777.25275,832.4542,750.65936,864.68866,0.11529541015625,0.09405517578125,1.00567626953125,0.3887939453125,1.74957275390625,10.220794677734375,1,1.0,1.0,1.0,1.0,10.00
2024-10-11 20:27:59.056,0.8548608,0.6583482,1.0544815,0.86380064,0.37920317,0.13820568,0.62292343,0.32710147,0.61294806,-0.08985207,0.41632682,0.68243587,0.62035483,-0.1599535,0.1580155,0.467308,-0.0077280127,-0.44945535,-0.34557974,0.026375994,722.0513,776.4469,834.87177,747.03296,745.82416,0.11529541015625,0.09405517578125,1.00567626953125,0.3887939453125,1.74957275390625,10.220794677734375,1,1.0,1.0,1.0,1.0,10.00
2024-10-11 20:27:59.057,0.8548608,0.6583482,1.0544815,0.86380064,0.37920317,0.13820568,0.62292343,0.32710147,0.61294806,-0.08985207,0.41632682,0.68243587,0.62035483,-0.1599535,0.1580155,0.467308,-0.0077280127,-0.44945535,-0.34557974,0.026375994,728.9011,778.0586,830.4396,752.674,789.34064,0.11529541015625,0.09405517578125,1.00567626953125,0.3887939453125,1.74957275390625,10.220794677734375,1,1.0,1.0,1.0,1.0,10.00
2024-10-11 20:27:59.057,0.8548608,0.6583482,1.0544815,0.86380064,0.37920317,0.13820568,0.62292343,0.32710147,0.61294806,-0.08985207,0.41632682,0.68243587,0.62035483,-0.1599535,0.1580155,0.467308,-0.0077280127,-0.44945535,-0.34557974,0.026375994,736.1539,778.86444,821.1722,755.09155,939.2308,0.11529541015625,0.09405517578125,1.00567626953125,0.3887939453125,1.74957275390625,10.220794677734375,1,1.0,1.0,1.0,1.0,10.00
2024-10-11 20:27:59.058,0.8548608,0.6583482,1.0544815,0.86380064,0.37920317,0.13820568,0.62292343,0.32710147,0.61294806,-0.08985207,0.41632682,0.68243587,0.62035483,-0.1599535,0.1580155,0.467308,-0.0077280127,-0.44945535,-0.34557974,0.026375994,740.58606,779.67035,817.1429,759.12085,1082.2711,0.11529541015625,0.09405517578125,1.00567626953125,0.3887939453125,1.74957275390625,10.220794677734375,1,1.0,1.0,1.0,1.0,10.00
2024-10-11 20:27:59.058,0.8548608,0.6583482,1.0544815,0.86380064,0.37920317,0.13820568,0.62292343,0.32710147,0.61294806,-0.08985207,0.41632682,0.68243587,0.62035483,-0.1599535,0.1580155,0.467308,-0.0077280127,-0.44945535,-0.34557974,0.026375994,740.989,780.07324,817.5458,767.1795,1153.5897,0.11529541015625,0.09405517578125,1.00567626953125,0.3887939453125,1.74957275390625,10.220794677734375,1,1.0,1.0,1.0,1.0,10.00
2024-10-11 20:27:59.059,0.8548608,0.6583482,1.0544815,0.86380064,0.37920317,0.13820568,0.62292343,0.32710147,0.61294806,-0.08985207,0.41632682,0.68243587,0.62035483,-0.1599535,0.1580155,0.467308,-0.0077280127,-0.44945535,-0.34557974,0.026375994,738.97437,780.07324,817.5458,764.7619,721.2454,0.11529541015625,0.09405517578125,1.00567626953125,0.3887939453125,1.74957275390625,10.220794677734375,1,1.0,1.0,1.0,1.0,10.00
2024-10-11 20:27:59.059,0.8548608,0.6583482,1.0544815,0.86380064,0.37920317,0.13820568,0.62292343,0.32710147,0.61294806,-0.08985207,0.41632682,0.68243587,0.62035483,-0.1599535,0.1580155,0.467308,-0.0077280127,-0.44945535,-0.34557974,0.026375994,734.94507,780.07324,809.0842,766.77655,628.1685,0.11529541015625,0.09405517578125,1.00567626953125,0.3887939453125,1.74957275390625,10.220794677734375,1,1.0,1.0,1.0,1.0,10.00
2024-10-11 20:27:59.060,0.8548608,0.6583482,1.0544815,0.86380064,0.37920317,0.13820568,0.62292343,0.32710147,0.61294806,-0.08985207,0.41632682,0.68243587,0.62035483,-0.1599535,0.1580155,0.467308,-0.0077280127,-0.44945535,-0.34557974,0.026375994,743.00366,778.86444,810.293,782.8938,757.1062,0.11529541015625,0.09405517578125,1.00567626953125,0.3887939453125,1.74957275390625,10.220794677734375,1,1.0,1.0,1.0,1.0,10.00
2024-10-11 20:27:59.101,0.8548608,0.6583482,1.0544815,0.86380064,0.37920317,0.13820568,0.62292343,0.32710147,0.61294806,-0.08985207,0.41632682,0.68243587,0.62035483,-0.1599535,0.1580155,0.467308,-0.0077280127,-0.44945535,-0.34557974,0.026375994,752.27106,786.1172,814.3223,781.28204,506.88644,0.11553955078125,0.0867919921875,0.98809814453125,-0.575714111328125,-0.261688232421875,7.200164794921875,1,1.0,1.0,1.0,1.0,10.00
2024-10-11 20:27:59.102,0.8548608,0.6583482,1.0544815,0.86380064,0.37920317,0.13820568,0.62292343,0.32710147,0.61294806,-0.08985207,0.41632682,0.68243587,0.62035483,-0.1599535,0.1580155,0.467308,-0.0077280127,-0.44945535,-0.34557974,0.026375994,755.09155,790.54944,814.7253,770.80585,401.3187,0.11553955078125,0.0867919921875,0.98809814453125,-0.575714111328125,-0.261688232421875,7.200164794921875,1,1.0,1.0,1.0,1.0,10.00
2024-10-11 20:27:59.104,0.8548608,0.6583482,1.0544815,0.86380064,0.37920317,0.13820568,0.62292343,0.32710147,0.61294806,-0.08985207,0.41632682,0.68243587,0.62035483,-0.1599535,0.1580155,0.467308,-0.0077280127,-0.44945535,-0.34557974,0.026375994,758.71796,787.326,811.50183,774.0293,570.14655,0.11553955078125,0.0867919921875,0.98809814453125,-0.575714111328125,-0.261688232421875,7.200164794921875,1,1.0,1.0,1.0,1.0,10.00
2024-10-11 20:27:59.105,0.8548608,0.6583482,1.0544815,0.86380064,0.37920317,0.13820568,0.62292343,0.32710147,0.61294806,-0.08985207,0.41632682,0.68243587,0.62035483,-0.1599535,0.1580155,0.467308,-0.0077280127,-0.44945535,-0.34557974,0.026375994,764.7619,781.28204,807.47253,778.46155,553.6264,0.11553955078125,0.0867919921875,0.98809814453125,-0.575714111328125,-0.261688232421875,7.200164794921875,1,1.0,1.0,1.0,1.0,10.00
2024-10-11 20:27:59.106,0.8548608,0.6583482,1.0544815,0.86380064,0.37920317,0.13820568,0.62292343,0.32710147,0.61294806,-0.08985207,0.41632682,0.68243587,0.62035483,-0.1599535,0.1580155,0.467308,-0.0077280127,-0.44945535,-0.34557974,0.026375994,772.8205,780.07324,800.2198,777.25275,497.21613,0.11553955078125,0.0867919921875,0.98809814453125,-0.575714111328125,-0.261688232421875,7.200164794921875,1,1.0,1.0,1.0,1.0,10.00
2024-10-11 20:27:59.106,0.8548608,0.6583482,1.0544815,0.86380064,0.37920317,0.13820568,0.62292343,0.32710147,0.61294806,-0.08985207,0.41632682,0.68243587,0.62035483,-0.1599535,0.1580155,0.467308,-0.0077280127,-0.44945535,-0.34557974,0.026375994,778.46155,787.72894,805.8608,784.90845,675.31134,0.11553955078125,0.0867919921875,0.98809814453125,-0.575714111328125,-0.261688232421875,7.200164794921875,1,1.0,1.0,1.0,1.0,10.00
2024-10-11 20:27:59.107,0.8548608,0.6583482,1.0544815,0.86380064,0.37920317,0.13820568,0.62292343,0.32710147,0.61294806,-0.08985207,0.41632682,0.68243587,0.62035483,-0.1599535,0.1580155,0.467308,-0.0077280127,-0.44945535,-0.34557974,0.026375994,783.69965,784.5055,805.4579,791.75824,923.1135,0.11553955078125,0.0867919921875,0.98809814453125,-0.575714111328125,-0.261688232421875,7.200164794921875,1,1.0,1.0,1.0,1.0,10.00
2024-10-11 20:27:59.107,0.8548608,0.6583482,1.0544815,0.86380064,0.37920317,0.13820568,0.62292343,0.32710147,0.61294806,-0.08985207,0.41632682,0.68243587,0.62035483,-0.1599535,0.1580155,0.467308,-0.0077280127,-0.44945535,-0.34557974,0.026375994,788.5348,781.685,797.3993,794.9817,994.43225,0.11553955078125,0.0867919921875,0.98809814453125,-0.575714111328125,-0.261688232421875,7.200164794921875,1,1.0,1.0,1.0,1.0,10.00
2024-10-11 20:27:59.108,0.8548608,0.6583482,1.0544815,0.86380064,0.37920317,0.13820568,0.62292343,0.32710147,0.61294806,-0.08985207,0.41632682,0.68243587,0.62035483,-0.1599535,0.1580155,0.467308,-0.0077280127,-0.44945535,-0.34557974,0.026375994,785.31134,786.9231,794.9817,793.7729,610.84247,0.11553955078125,0.0867919921875,0.98809814453125,-0.575714111328125,-0.261688232421875,7.200164794921875,1,1.0,1.0,1.0,1.0,10.00
2024-10-11 20:27:59.108,0.8548608,0.6583482,1.0544815,0.86380064,0.37920317,0.13820568,0.62292343,0.32710147,0.61294806,-0.08985207,0.41632682,0.68243587,0.62035483,-0.1599535,0.1580155,0.467308,-0.0077280127,-0.44945535,-0.34557974,0.026375994,789.7436,789.34064,801.02563,796.1905,502.05127,0.11553955078125,0.0867919921875,0.98809814453125,-0.575714111328125,-0.261688232421875,7.200164794921875,1,1.0,1.0,1.0,1.0,10.00
2024-10-11 20:27:59.109,0.8548608,0.6583482,1.0544815,0.86380064,0.37920317,0.13820568,0.62292343,0.32710147,0.61294806,-0.08985207,0.41632682,0.68243587,0.62035483,-0.1599535,0.1580155,0.467308,-0.0077280127,-0.44945535,-0.34557974,0.026375994,795.38464,786.9231,806.6667,805.4579,815.5311,0.11553955078125,0.0867919921875,0.98809814453125,-0.575714111328125,-0.261688232421875,7.200164794921875,1,1.0,1.0,1.0,1.0,10.00
2024-10-11 20:27:59.109,0.8548608,0.6583482,1.0544815,0.86380064,0.37920317,0.13820568,0.62292343,0.32710147,0.61294806,-0.08985207,0.41632682,0.68243587,0.62035483,-0.1599535,0.1580155,0.467308,-0.0077280127,-0.44945535,-0.34557974,0.026375994,792.1612,787.72894,807.0696,811.0989,959.7802,0.11553955078125,0.0867919921875,0.98809814453125,-0.575714111328125,-0.261688232421875,7.200164794921875,1,1.0,1.0,1.0,1.0,10.00
2024-10-11 20:27:59.148,0.8548608,0.6583482,1.0544815,0.86380064,0.37920317,0.13820568,0.62292343,0.32710147,0.61294806,-0.08985207,0.41632682,0.68243587,0.62035483,-0.1599535,0.1580155,0.467308,-0.0077280127,-0.44945535,-0.34557974,0.026375994,789.7436,790.14655,806.26373,812.71063,657.98535,0.126708984375,0.0894775390625,0.98944091796875,-0.112152099609375,-1.891632080078125,4.05242919921875,1,1.0,1.0,1.0,1.0,10.00
2024-10-11 20:27:59.149,0.8548608,0.6583482,1.0544815,0.86380064,0.37920317,0.13820568,0.62292343,0.32710147,0.61294806,-0.08985207,0.41632682,0.68243587,0.62035483,-0.1599535,0.1580155,0.467308,-0.0077280127,-0.44945535,-0.34557974,0.026375994,789.7436,786.9231,800.6227,810.293,610.4396,0.126708984375,0.0894775390625,0.98944091796875,-0.112152099609375,-1.891632080078125,4.05242919921875,1,1.0,1.0,1.0,1.0,10.00
2024-10-11 20:27:59.150,0.8548608,0.6583482,1.0544815,0.86380064,0.37920317,0.13820568,0.62292343,0.32710147,0.61294806,-0.08985207,0.41632682,0.68243587,0.62035483,-0.1599535,0.1580155,0.467308,-0.0077280127,-0.44945535,-0.34557974,0.026375994,794.57874,789.7436,802.23444,818.7546,835.2747,0.126708984375,0.0894775390625,0.98944091796875,-0.112152099609375,-1.891632080078125,4.05242919921875,1,1.0,1.0,1.0,1.0,10.00
2024-10-11 20:27:59,,,,,,,,,,,,,,,,,,,,,,,,,,,,,,,,,,,,,,/muse/elements/blink
2024-10-11 20:27:59.150,0.8548608,0.65873444,1.0857264,0.86380064,0.37920317,0.14475617,0.6480104,0.32710147,0.61294806,-0.055335462,0.41632682,0.68243587,0.62035483,-0.15575495,0.16012347,0.467308,-0.0077280127,-0.4697062,-0.32577848,0.026375994,801.02563,793.36993,803.8461,821.5751,785.7143,0.126708984375,0.0894775390625,0.98944091796875,-0.112152099609375,-1.891632080078125,4.05242919921875,1,1.0,1.0,1.0,1.0,10.00
2024-10-11 20:27:59.154,0.8548608,0.65873444,1.0857264,0.86380064,0.37920317,0.14475617,0.6480104,0.32710147,0.61294806,-0.055335462,0.41632682,0.68243587,0.62035483,-0.15575495,0.16012347,0.467308,-0.0077280127,-0.4697062,-0.32577848,0.026375994,806.26373,787.326,796.5934,812.71063,676.1172,0.126708984375,0.0894775390625,0.98944091796875,-0.112152099609375,-1.891632080078125,4.05242919921875,1,1.0,1.0,1.0,1.0,10.00
2024-10-11 20:27:59.155,0.8548608,0.65873444,1.0857264,0.86380064,0.37920317,0.14475617,0.6480104,0.32710147,0.61294806,-0.055335462,0.41632682,0.68243587,0.62035483,-0.15575495,0.16012347,0.467308,-0.0077280127,-0.4697062,-0.32577848,0.026375994,811.0989,788.1319,788.93774,812.3077,881.2088,0.126708984375,0.0894775390625,0.98944091796875,-0.112152099609375,-1.891632080078125,4.05242919921875,1,1.0,1.0,1.0,1.0,10.00
2024-10-11 20:27:59.155,0.8548608,0.65873444,1.0857264,0.86380064,0.37920317,0.14475617,0.6480104,0.32710147,0.61294806,-0.055335462,0.41632682,0.68243587,0.62035483,-0.15575495,0.16012347,0.467308,-0.0077280127,-0.4697062,-0.32577848,0.026375994,815.9341,788.5348,784.5055,817.5458,1249.0842,0.126708984375,0.0894775390625,0.98944091796875,-0.112152099609375,-1.891632080078125,4.05242919921875,1,1.0,1.0,1.0,1.0,10.00
2024-10-11 20:27:59.156,0.8548608,0.65873444,1.0857264,0.86380064,0.37920317,0.14475617,0.6480104,0.32710147,0.61294806,-0.055335462,0.41632682,0.68243587,0.62035483,-0.15575495,0.16012347,0.467308,-0.0077280127,-0.4697062,-0.32577848,0.026375994,814.3223,790.9524,795.78754,816.337,1046.0073,0.126708984375,0.0894775390625,0.98944091796875,-0.112152099609375,-1.891632080078125,4.05242919921875,1,1.0,1.0,1.0,1.0,10.00
2024-10-11 20:27:59.157,0.8548608,0.65873444,1.0857264,0.86380064,0.37920317,0.14475617,0.6480104,0.32710147,0.61294806,-0.055335462,0.41632682,0.68243587,0.62035483,-0.15575495,0.16012347,0.467308,-0.0077280127,-0.4697062,-0.32577848,0.026375994,813.91943,791.3553,799.011,809.4872,735.7509,0.126708984375,0.0894775390625,0.98944091796875,-0.112152099609375,-1.891632080078125,4.05242919921875,1,1.0,1.0,1.0,1.0,10.00
2024-10-11 20:27:59.157,0.8548608,0.65873444,1.0857264,0.86380064,0.37920317,0.14475617,0.6480104,0.32710147,0.61294806,-0.055335462,0.41632682,0.68243587,0.62035483,-0.15575495,0.16012347,0.467308,-0.0077280127,-0.4697062,-0.32577848,0.026375994,813.1135,786.1172,794.9817,809.89014,701.0989,0.126708984375,0.0894775390625,0.98944091796875,-0.112152099609375,-1.891632080078125,4.05242919921875,1,1.0,1.0,1.0,1.0,10.00
2024-10-11 20:27:59.158,0.8548608,0.65873444,1.0857264,0.86380064,0.37920317,0.14475617,0.6480104,0.32710147,0.61294806,-0.055335462,0.41632682,0.68243587,0.62035483,-0.15575495,0.16012347,0.467308,-0.0077280127,-0.4697062,-0.32577848,0.026375994,806.6667,786.1172,800.2198,815.9341,718.4249,0.126708984375,0.0894775390625,0.98944091796875,-0.112152099609375,-1.891632080078125,4.05242919921875,1,1.0,1.0,1.0,1.0,10.00
2024-10-11 20:27:59.159,0.8548608,0.65873444,1.0857264,0.86380064,0.37920317,0.14475617,0.6480104,0.32710147,0.61294806,-0.055335462,0.41632682,0.68243587,0.62035483,-0.15575495,0.16012347,0.467308,-0.0077280127,-0.4697062,-0.32577848,0.026375994,804.65204,790.54944,801.4286,815.5311,755.4945,0.126708984375,0.0894775390625,0.98944091796875,-0.112152099609375,-1.891632080078125,4.05242919921875,1,1.0,1.0,1.0,1.0,10.00
2024-10-11 20:27:59.182,0.8548608,0.65873444,1.0857264,0.86380064,0.37920317,0.14475617,0.6480104,0.32710147,0.61294806,-0.055335462,0.41632682,0.68243587,0.62035483,-0.15575495,0.16012347,0.467308,-0.0077280127,-0.4697062,-0.32577848,0.026375994,803.8461,789.7436,796.99634,811.9048,714.7985,0.12445068359375,0.08551025390625,1.00653076171875,-0.291595458984375,-1.57012939453125,3.1103515625,1,1.0,1.0,1.0,1.0,10.00
2024-10-11 20:27:59.183,0.8548608,0.65873444,1.0857264,0.86380064,0.37920317,0.14475617,0.6480104,0.32710147,0.61294806,-0.055335462,0.41632682,0.68243587,0.62035483,-0.15575495,0.16012347,0.467308,-0.0077280127,-0.4697062,-0.32577848,0.026375994,807.47253,786.52014,792.1612,813.91943,740.18317,0.12445068359375,0.08551025390625,1.00653076171875,-0.291595458984375,-1.57012939453125,3.1103515625,1,1.0,1.0,1.0,1.0,10.00
2024-10-11 20:27:59.184,0.8548608,0.65873444,1.0857264,0.86380064,0.37920317,0.14475617,0.6480104,0.32710147,0.61294806,-0.055335462,0.41632682,0.68243587,0.62035483,-0.15575495,0.16012347,0.467308,-0.0077280127,-0.4697062,-0.32577848,0.026375994,811.9048,789.7436,794.57874,820.3663,891.28204,0.12445068359375,0.08551025390625,1.00653076171875,-0.291595458984375,-1.57012939453125,3.1103515625,1,1.0,1.0,1.0,1.0,10.00
2024-10-11 20:27:59.184,0.8548608,0.65873444,1.0857264,0.86380064,0.37920317,0.14475617,0.6480104,0.32710147,0.61294806,-0.055335462,0.41632682,0.68243587,0.62035483,-0.15575495,0.16012347,0.467308,-0.0077280127,-0.4697062,-0.32577848,0.026375994,817.9487,792.1612,798.20514,823.1868,837.6923,0.12445068359375,0.08551025390625,1.00653076171875,-0.291595458984375,-1.57012939453125,3.1103515625,1,1.0,1.0,1.0,1.0,10.00
2024-10-11 20:27:59.185,0.8548608,0.65873444,1.0857264,0.86380064,0.37920317,0.14475617,0.6480104,0.32710147,0.61294806,-0.055335462,0.41632682,0.68243587,0.62035483,-0.15575495,0.16012347,0.467308,-0.0077280127,-0.4697062,-0.32577848,0.026375994,818.3516,793.7729,790.54944,822.381,797.8022,0.12445068359375,0.08551025390625,1.00653076171875,-0.291595458984375,-1.57012939453125,3.1103515625,1,1.0,1.0,1.0,1.0,10.00
2024-10-11 20:27:59.185,0.8548608,0.65873444,1.0857264,0.86380064,0.37920317,0.14475617,0.6480104,0.32710147,0.61294806,-0.055335462,0.41632682,0.68243587,0.62035483,-0.15575495,0.16012347,0.467308,-0.0077280127,-0.4697062,-0.32577848,0.026375994,810.293,788.93774,784.90845,821.5751,1002.49084,0.12445068359375,0.08551025390625,1.00653076171875,-0.291595458984375,-1.57012939453125,3.1103515625,1,1.0,1.0,1.0,1.0,10.00
2024-10-11 20:27:59.186,0.8548608,0.65873444,1.0857264,0.86380064,0.37920317,0.14475617,0.6480104,0.32710147,0.61294806,-0.055335462,0.41632682,0.68243587,0.62035483,-0.15575495,0.16012347,0.467308,-0.0077280127,-0.4697062,-0.32577848,0.026375994,814.3223,790.9524,797.8022,819.5604,1062.9304,0.12445068359375,0.08551025390625,1.00653076171875,-0.291595458984375,-1.57012939453125,3.1103515625,1,1.0,1.0,1.0,1.0,10.00
2024-10-11 20:27:59.186,0.8548608,0.65873444,1.0857264,0.86380064,0.37920317,0.14475617,0.6480104,0.32710147,0.61294806,-0.055335462,0.41632682,0.68243587,0.62035483,-0.15575495,0.16012347,0.467308,-0.0077280127,-0.4697062,-0.32577848,0.026375994,812.71063,795.38464,802.6374,820.3663,859.45056,0.12445068359375,0.08551025390625,1.00653076171875,-0.291595458984375,-1.57012939453125,3.1103515625,1,1.0,1.0,1.0,1.0,10.00
2024-10-11 20:27:59.187,0.8548608,0.65873444,1.0857264,0.86380064,0.37920317,0.14475617,0.6480104,0.32710147,0.61294806,-0.055335462,0.41632682,0.68243587,0.62035483,-0.15575495,0.16012347,0.467308,-0.0077280127,-0.4697062,-0.32577848,0.026375994,808.2784,792.5641,803.44324,821.978,730.9158,0.12445068359375,0.08551025390625,1.00653076171875,-0.291595458984375,-1.57012939453125,3.1103515625,1,1.0,1.0,1.0,1.0,10.00
2024-10-11 20:27:59.188,0.8548608,0.65873444,1.0857264,0.86380064,0.37920317,0.14475617,0.6480104,0.32710147,0.61294806,-0.055335462,0.41632682,0.68243587,0.62035483,-0.15575495,0.16012347,0.467308,-0.0077280127,-0.4697062,-0.32577848,0.026375994,812.71063,789.7436,804.65204,823.5897,794.9817,0.12445068359375,0.08551025390625,1.00653076171875,-0.291595458984375,-1.57012939453125,3.1103515625,1,1.0,1.0,1.0,1.0,10.00
2024-10-11 20:27:59.188,0.8548608,0.65873444,1.0857264,0.86380064,0.37920317,0.14475617,0.6480104,0.32710147,0.61294806,-0.055335462,0.41632682,0.68243587,0.62035483,-0.15575495,0.16012347,0.467308,-0.0077280127,-0.4697062,-0.32577848,0.026375994,805.4579,789.7436,799.011,820.7692,888.0586,0.12445068359375,0.08551025390625,1.00653076171875,-0.291595458984375,-1.57012939453125,3.1103515625,1,1.0,1.0,1.0,1.0,10.00
2024-10-11 20:27:59.189,0.8548608,0.65873444,1.0857264,0.86380064,0.37920317,0.14475617,0.6480104,0.32710147,0.61294806,-0.055335462,0.41632682,0.68243587,0.62035483,-0.15575495,0.16012347,0.467308,-0.0077280127,-0.4697062,-0.32577848,0.026375994,800.2198,789.7436,800.2198,816.337,657.98535,0.12445068359375,0.08551025390625,1.00653076171875,-0.291595458984375,-1.57012939453125,3.1103515625,1,1.0,1.0,1.0,1.0,10.00
2024-10-11 20:27:59.216,0.8548608,0.65873444,1.0857264,0.86380064,0.37920317,0.14475617,0.6480104,0.32710147,0.61294806,-0.055335462,0.41632682,0.68243587,0.62035483,-0.15575495,0.16012347,0.467308,-0.0077280127,-0.4697062,-0.32577848,0.026375994,806.26373,791.3553,801.02563,816.7399,666.4469,0.12445068359375,0.08551025390625,1.00653076171875,-0.291595458984375,-1.57012939453125,3.1103515625,1,1.0,1.0,1.0,1.0,10.00
2024-10-11 20:27:59.217,0.8548608,0.65873444,1.0857264,0.86380064,0.37920317,0.14475617,0.6480104,0.32710147,0.61294806,-0.055335462,0.41632682,0.68243587,0.62035483,-0.15575495,0.16012347,0.467308,-0.0077280127,-0.4697062,-0.32577848,0.026375994,811.0989,792.5641,796.5934,818.7546,844.5421,0.12445068359375,0.08551025390625,1.00653076171875,-0.291595458984375,-1.57012939453125,3.1103515625,1,1.0,1.0,1.0,1.0,10.00
2024-10-11 20:27:59.217,0.8548608,0.65873444,1.0857264,0.86380064,0.37920317,0.14475617,0.6480104,0.32710147,0.61294806,-0.055335462,0.41632682,0.68243587,0.62035483,-0.15575495,0.16012347,0.467308,-0.0077280127,-0.4697062,-0.32577848,0.026375994,810.696,792.96704,793.7729,818.7546,707.5458,0.12445068359375,0.08551025390625,1.00653076171875,-0.291595458984375,-1.57012939453125,3.1103515625,1,1.0,1.0,1.0,1.0,10.00
2024-10-11 20:27:59.218,0.8548608,0.65873444,1.0857264,0.86380064,0.37920317,0.14475617,0.6480104,0.32710147,0.61294806,-0.055335462,0.41632682,0.68243587,0.62035483,-0.15575495,0.16012347,0.467308,-0.0077280127,-0.4697062,-0.32577848,0.026375994,808.2784,794.57874,788.5348,815.5311,543.5531,0.12445068359375,0.08551025390625,1.00653076171875,-0.291595458984375,-1.57012939453125,3.1103515625,1,1.0,1.0,1.0,1.0,10.00
2024-10-11 20:27:59.218,0.8548608,0.65873444,1.0857264,0.86380064,0.37920317,0.14475617,0.6480104,0.32710147,0.61294806,-0.055335462,0.41632682,0.68243587,0.62035483,-0.15575495,0.16012347,0.467308,-0.0077280127,-0.4697062,-0.32577848,0.026375994,809.0842,791.3553,795.38464,817.5458,699.0842,0.12445068359375,0.08551025390625,1.00653076171875,-0.291595458984375,-1.57012939453125,3.1103515625,1,1.0,1.0,1.0,1.0,10.00
2024-10-11 20:27:59.219,0.8548608,0.66762114,1.1147612,0.86380064,0.37920317,0.1635644,0.66482,0.32710147,0.61294806,0.020179564,0.4104575,0.68243587,0.62035483,-0.1510804,0.156808,0.467308,-0.0077280127,-0.48485982,-0.30637333,0.026375994,819.5604,791.75824,805.8608,823.1868,1007.326,0.12445068359375,0.08551025390625,1.00653076171875,-0.291595458984375,-1.57012939453125,3.1103515625,1,1.0,1.0,1.0,1.0,10.00
2024-10-11 20:27:59.223,0.8548608,0.66762114,1.1147612,0.86380064,0.37920317,0.1635644,0.66482,0.32710147,0.61294806,0.020179564,0.4104575,0.68243587,0.62035483,-0.1510804,0.156808,0.467308,-0.0077280127,-0.48485982,-0.30637333,0.026375994,819.9634,792.96704,802.23444,821.978,894.10254,0.12445068359375,0.08551025390625,1.00653076171875,-0.291595458984375,-1.57012939453125,3.1103515625,1,1.0,1.0,1.0,1.0,10.00
2024-10-11 20:27:59.223,0.8548608,0.66762114,1.1147612,0.86380064,0.37920317,0.1635644,0.66482,0.32710147,0.61294806,0.020179564,0.4104575,0.68243587,0.62035483,-0.1510804,0.156808,0.467308,-0.0077280127,-0.48485982,-0.30637333,0.026375994,810.293,794.57874,796.1905,813.5165,741.39197,0.12445068359375,0.08551025390625,1.00653076171875,-0.291595458984375,-1.57012939453125,3.1103515625,1,1.0,1.0,1.0,1.0,10.00
2024-10-11 20:27:59.224,0.8548608,0.66762114,1.1147612,0.86380064,0.37920317,0.1635644,0.66482,0.32710147,0.61294806,0.020179564,0.4104575,0.68243587,0.62035483,-0.1510804,0.156808,0.467308,-0.0077280127,-0.48485982,-0.30637333,0.026375994,814.7253,795.38464,799.011,813.91943,738.1685,0.12445068359375,0.08551025390625,1.00653076171875,-0.291595458984375,-1.57012939453125,3.1103515625,1,1.0,1.0,1.0,1.0,10.00
2024-10-11 20:27:59.224,0.8548608,0.66762114,1.1147612,0.86380064,0.37920317,0.1635644,0.66482,0.32710147,0.61294806,0.020179564,0.4104575,0.68243587,0.62035483,-0.1510804,0.156808,0.467308,-0.0077280127,-0.48485982,-0.30637333,0.026375994,819.5604,790.54944,802.23444,816.7399,1033.5165,0.12445068359375,0.08551025390625,1.00653076171875,-0.291595458984375,-1.57012939453125,3.1103515625,1,1.0,1.0,1.0,1.0,10.00
2024-10-11 20:27:59.225,0.8548608,0.66762114,1.1147612,0.86380064,0.37920317,0.1635644,0.66482,0.32710147,0.61294806,0.020179564,0.4104575,0.68243587,0.62035483,-0.1510804,0.156808,0.467308,-0.0077280127,-0.48485982,-0.30637333,0.026375994,815.12823,793.7729,797.8022,809.4872,943.663,0.12445068359375,0.08551025390625,1.00653076171875,-0.291595458984375,-1.57012939453125,3.1103515625,1,1.0,1.0,1.0,1.0,10.00
2024-10-11 20:27:59.225,0.8548608,0.66762114,1.1147612,0.86380064,0.37920317,0.1635644,0.66482,0.32710147,0.61294806,0.020179564,0.4104575,0.68243587,0.62035483,-0.1510804,0.156808,0.467308,-0.0077280127,-0.48485982,-0.30637333,0.026375994,812.71063,798.20514,790.14655,801.8315,662.01465,0.12445068359375,0.08551025390625,1.00653076171875,-0.291595458984375,-1.57012939453125,3.1103515625,1,1.0,1.0,1.0,1.0,10.00
2024-10-11 20:27:59.288,0.8548608,0.66762114,1.1147612,0.86380064,0.37920317,0.1635644,0.66482,0.32710147,0.61294806,0.020179564,0.4104575,0.68243587,0.62035483,-0.1510804,0.156808,0.467308,-0.0077280127,-0.48485982,-0.30637333,0.026375994,809.4872,795.38464,791.3553,803.8461,766.3736,0.11712646484375,0.08270263671875,0.99432373046875,-1.457977294921875,0.4486083984375,0.755157470703125,1,1.0,1.0,1.0,1.0,10.00
2024-10-11 20:27:59.289,0.8548608,0.66762114,1.1147612,0.86380064,0.37920317,0.1635644,0.66482,0.32710147,0.61294806,0.020179564,0.4104575,0.68243587,0.62035483,-0.1510804,0.156808,0.467308,-0.0077280127,-0.48485982,-0.30637333,0.026375994,806.6667,790.9524,797.8022,799.011,844.5421,0.11712646484375,0.08270263671875,0.99432373046875,-1.457977294921875,0.4486083984375,0.755157470703125,1,1.0,1.0,1.0,1.0,10.00
2024-10-11 20:27:59.290,0.8548608,0.66762114,1.1147612,0.86380064,0.37920317,0.1635644,0.66482,0.32710147,0.61294806,0.020179564,0.4104575,0.68243587,0.62035483,-0.1510804,0.156808,0.467308,-0.0077280127,-0.48485982,-0.30637333,0.026375994,813.1135,793.36993,802.23444,799.011,696.26373,0.11712646484375,0.08270263671875,0.99432373046875,-1.457977294921875,0.4486083984375,0.755157470703125,1,1.0,1.0,1.0,1.0,10.00
2024-10-11 20:27:59.290,0.8548608,0.66762114,1.1147612,0.86380064,0.37920317,0.1635644,0.66482,0.32710147,0.61294806,0.020179564,0.4104575,0.68243587,0.62035483,-0.1510804,0.156808,0.467308,-0.0077280127,-0.48485982,-0.30637333,0.026375994,811.50183,793.36993,801.02563,805.8608,558.0586,0.11712646484375,0.08270263671875,0.99432373046875,-1.457977294921875,0.4486083984375,0.755157470703125,1,1.0,1.0,1.0,1.0,10.00
2024-10-11 20:27:59.291,0.8548608,0.66762114,1.1147612,0.86380064,0.37920317,0.1635644,0.66482,0.32710147,0.61294806,0.020179564,0.4104575,0.68243587,0.62035483,-0.1510804,0.156808,0.467308,-0.0077280127,-0.48485982,-0.30637333,0.026375994,811.50183,790.9524,798.20514,811.0989,600.7692,0.11712646484375,0.08270263671875,0.99432373046875,-1.457977294921875,0.4486083984375,0.755157470703125,1,1.0,1.0,1.0,1.0,10.00
2024-10-11 20:27:59.292,0.8548608,0.66762114,1.1147612,0.86380064,0.37920317,0.1635644,0.66482,0.32710147,0.61294806,0.020179564,0.4104575,0.68243587,0.62035483,-0.1510804,0.156808,0.467308,-0.0077280127,-0.48485982,-0.30637333,0.026375994,817.5458,792.96704,804.65204,816.337,780.07324,0.11712646484375,0.08270263671875,0.99432373046875,-1.457977294921875,0.4486083984375,0.755157470703125,1,1.0,1.0,1.0,1.0,10.00
2024-10-11 20:27:59.293,0.8548608,0.66762114,1.1147612,0.86380064,0.37920317,0.1635644,0.66482,0.32710147,0.61294806,0.020179564,0.4104575,0.68243587,0.62035483,-0.1510804,0.156808,0.467308,-0.0077280127,-0.48485982,-0.30637333,0.026375994,813.5165,797.8022,805.4579,814.3223,833.2601,0.11712646484375,0.08270263671875,0.99432373046875,-1.457977294921875,0.4486083984375,0.755157470703125,1,1.0,1.0,1.0,1.0,10.00
2024-10-11 20:27:59.293,0.8548608,0.66762114,1.1147612,0.86380064,0.37920317,0.1635644,0.66482,0.32710147,0.61294806,0.020179564,0.4104575,0.68243587,0.62035483,-0.1510804,0.156808,0.467308,-0.0077280127,-0.48485982,-0.30637333,0.026375994,810.696,798.60803,803.44324,810.696,725.2747,0.11712646484375,0.08270263671875,0.99432373046875,-1.457977294921875,0.4486083984375,0.755157470703125,1,1.0,1.0,1.0,1.0,10.00
2024-10-11 20:27:59.294,0.8548608,0.66762114,1.1147612,0.86380064,0.37920317,0.1635644,0.66482,0.32710147,0.61294806,0.020179564,0.4104575,0.68243587,0.62035483,-0.1510804,0.156808,0.467308,-0.0077280127,-0.48485982,-0.30637333,0.026375994,809.0842,792.96704,804.65204,815.5311,799.81683,0.11712646484375,0.08270263671875,0.99432373046875,-1.457977294921875,0.4486083984375,0.755157470703125,1,1.0,1.0,1.0,1.0,10.00
2024-10-11 20:27:59.294,0.8548608,0.66762114,1.1147612,0.86380064,0.37920317,0.1635644,0.66482,0.32710147,0.61294806,0.020179564,0.4104575,0.68243587,0.62035483,-0.1510804,0.156808,0.467308,-0.0077280127,-0.48485982,-0.30637333,0.026375994,807.8755,795.78754,800.6227,826.8132,1052.8572,0.11712646484375,0.08270263671875,0.99432373046875,-1.457977294921875,0.4486083984375,0.755157470703125,1,1.0,1.0,1.0,1.0,10.00
2024-10-11 20:27:59.295,0.8548608,0.66762114,1.1147612,0.86380064,0.37920317,0.1635644,0.66482,0.32710147,0.61294806,0.020179564,0.4104575,0.68243587,0.62035483,-0.1510804,0.156808,0.467308,-0.0077280127,-0.48485982,-0.30637333,0.026375994,803.0403,798.60803,801.02563,820.7692,746.2271,0.11712646484375,0.08270263671875,0.99432373046875,-1.457977294921875,0.4486083984375,0.755157470703125,1,1.0,1.0,1.0,1.0,10.00
2024-10-11 20:27:59.296,0.8548608,0.66762114,1.1147612,0.86380064,0.37920317,0.1635644,0.66482,0.32710147,0.61294806,0.020179564,0.4104575,0.68243587,0.62035483,-0.1510804,0.156808,0.467308,-0.0077280127,-0.48485982,-0.30637333,0.026375994,804.65204,794.17584,804.65204,810.293,624.5421,0.11712646484375,0.08270263671875,0.99432373046875,-1.457977294921875,0.4486083984375,0.755157470703125,1,1.0,1.0,1.0,1.0,10.00
2024-10-11 20:27:59.353,0.8548608,0.66762114,1.1147612,0.86380064,0.37920317,0.1635644,0.66482,0.32710147,0.61294806,0.020179564,0.4104575,0.68243587,0.62035483,-0.1510804,0.156808,0.467308,-0.0077280127,-0.48485982,-0.30637333,0.026375994,806.26373,793.7729,804.65204,808.2784,745.42126,0.1160888671875,0.078369140625,1.000244140625,-2.03369140625,0.755157470703125,-0.755157470703125,1,1.0,1.0,1.0,1.0,10.00
2024-10-11 20:27:59.354,0.8548608,0.66762114,1.1147612,0.86380064,0.37920317,0.1635644,0.66482,0.32710147,0.61294806,0.020179564,0.4104575,0.68243587,0.62035483,-0.1510804,0.156808,0.467308,-0.0077280127,-0.48485982,-0.30637333,0.026375994,807.47253,801.02563,808.68134,815.9341,646.7033,0.1160888671875,0.078369140625,1.000244140625,-2.03369140625,0.755157470703125,-0.755157470703125,1,1.0,1.0,1.0,1.0,10.00
2024-10-11 20:27:59.354,0.8548608,0.66762114,1.1147612,0.86380064,0.37920317,0.1635644,0.66482,0.32710147,0.61294806,0.020179564,0.4104575,0.68243587,0.62035483,-0.1510804,0.156808,0.467308,-0.0077280127,-0.48485982,-0.30637333,0.026375994,811.50183,802.6374,806.6667,817.1429,606.8132,0.1160888671875,0.078369140625,1.000244140625,-2.03369140625,0.755157470703125,-0.755157470703125,1,1.0,1.0,1.0,1.0,10.00
2024-10-11 20:27:59.355,0.8548608,0.66762114,1.1147612,0.86380064,0.37920317,0.1635644,0.66482,0.32710147,0.61294806,0.020179564,0.4104575,0.68243587,0.62035483,-0.1510804,0.156808,0.467308,-0.0077280127,-0.48485982,-0.30637333,0.026375994,814.7253,793.7729,804.2491,811.9048,653.5531,0.1160888671875,0.078369140625,1.000244140625,-2.03369140625,0.755157470703125,-0.755157470703125,1,1.0,1.0,1.0,1.0,10.00
2024-10-11 20:27:59.355,0.8548608,0.66762114,1.1147612,0.86380064,0.37920317,0.1635644,0.66482,0.32710147,0.61294806,0.020179564,0.4104575,0.68243587,0.62035483,-0.1510804,0.156808,0.467308,-0.0077280127,-0.48485982,-0.30637333,0.026375994,814.7253,792.5641,799.81683,809.89014,720.0366,0.1160888671875,0.078369140625,1.000244140625,-2.03369140625,0.755157470703125,-0.755157470703125,1,1.0,1.0,1.0,1.0,10.00
2024-10-11 20:27:59.356,0.8548608,0.66762114,1.1147612,0.86380064,0.37920317,0.1635644,0.66482,0.32710147,0.61294806,0.020179564,0.4104575,0.68243587,0.62035483,-0.1510804,0.156808,0.467308,-0.0077280127,-0.48485982,-0.30637333,0.026375994,809.89014,798.20514,792.96704,813.91943,817.5458,0.1160888671875,0.078369140625,1.000244140625,-2.03369140625,0.755157470703125,-0.755157470703125,1,1.0,1.0,1.0,1.0,10.00
2024-10-11 20:27:59.357,0.8548608,0.66762114,1.1147612,0.86380064,0.37920317,0.1635644,0.66482,0.32710147,0.61294806,0.020179564,0.4104575,0.68243587,0.62035483,-0.1510804,0.156808,0.467308,-0.0077280127,-0.48485982,-0.30637333,0.026375994,807.47253,797.8022,799.81683,813.91943,931.978,0.1160888671875,0.078369140625,1.000244140625,-2.03369140625,0.755157470703125,-0.755157470703125,1,1.0,1.0,1.0,1.0,10.00
2024-10-11 20:27:59.359,0.8548608,0.6939436,1.1393704,0.91242427,0.37920317,0.20735192,0.672826,0.36439216,0.61294806,0.14047517,0.37837738,0.67347735,0.62035483,-0.14981513,0.14841099,0.43695542,-0.0077280127,-0.49189538,-0.28708684,0.0297637,810.696,795.38464,803.8461,810.293,886.8498,0.1160888671875,0.078369140625,1.000244140625,-2.03369140625,0.755157470703125,-0.755157470703125,1,1.0,1.0,1.0,1.0,10.00
2024-10-11 20:27:59.364,0.8548608,0.6939436,1.1393704,0.91242427,0.37920317,0.20735192,0.672826,0.36439216,0.61294806,0.14047517,0.37837738,0.67347735,0.62035483,-0.14981513,0.14841099,0.43695542,-0.0077280127,-0.49189538,-0.28708684,0.0297637,813.1135,797.8022,803.44324,815.9341,922.3077,0.1160888671875,0.078369140625,1.000244140625,-2.03369140625,0.755157470703125,-0.755157470703125,1,1.0,1.0,1.0,1.0,10.00
2024-10-11 20:27:59.365,0.8548608,0.6939436,1.1393704,0.91242427,0.37920317,0.20735192,0.672826,0.36439216,0.61294806,0.14047517,0.37837738,0.67347735,0.62035483,-0.14981513,0.14841099,0.43695542,-0.0077280127,-0.49189538,-0.28708684,0.0297637,814.3223,800.2198,801.8315,816.337,794.9817,0.1160888671875,0.078369140625,1.000244140625,-2.03369140625,0.755157470703125,-0.755157470703125,1,1.0,1.0,1.0,1.0,10.00
2024-10-11 20:27:59.365,0.8548608,0.6939436,1.1393704,0.91242427,0.37920317,0.20735192,0.672826,0.36439216,0.61294806,0.14047517,0.37837738,0.67347735,0.62035483,-0.14981513,0.14841099,0.43695542,-0.0077280127,-0.49189538,-0.28708684,0.0297637,812.71063,799.41394,799.81683,808.68134,701.0989,0.1160888671875,0.078369140625,1.000244140625,-2.03369140625,0.755157470703125,-0.755157470703125,1,1.0,1.0,1.0,1.0,10.00
2024-10-11 20:27:59.366,0.8548608,0.6939436,1.1393704,0.91242427,0.37920317,0.20735192,0.672826,0.36439216,0.61294806,0.14047517,0.37837738,0.67347735,0.62035483,-0.14981513,0.14841099,0.43695542,-0.0077280127,-0.49189538,-0.28708684,0.0297637,811.0989,799.81683,803.0403,807.8755,799.41394,0.1160888671875,0.078369140625,1.000244140625,-2.03369140625,0.755157470703125,-0.755157470703125,1,1.0,1.0,1.0,1.0,10.00
2024-10-11 20:27:59.392,0.8548608,0.6939436,1.1393704,0.91242427,0.37920317,0.20735192,0.672826,0.36439216,0.61294806,0.14047517,0.37837738,0.67347735,0.62035483,-0.14981513,0.14841099,0.43695542,-0.0077280127,-0.49189538,-0.28708684,0.0297637,813.91943,801.8315,801.4286,811.0989,1021.02563,0.11248779296875,0.07635498046875,1.00286865234375,-1.413116455078125,2.51220703125,-0.216827392578125,1,1.0,1.0,1.0,1.0,10.00
2024-10-11 20:27:59.393,0.8548608,0.6939436,1.1393704,0.91242427,0.37920317,0.20735192,0.672826,0.36439216,0.61294806,0.14047517,0.37837738,0.67347735,0.62035483,-0.14981513,0.14841099,0.43695542,-0.0077280127,-0.49189538,-0.28708684,0.0297637,810.696,805.05493,800.6227,803.0403,870.32965,0.11248779296875,0.07635498046875,1.00286865234375,-1.413116455078125,2.51220703125,-0.216827392578125,1,1.0,1.0,1.0,1.0,10.00
2024-10-11 20:27:59.395,0.8548608,0.6939436,1.1393704,0.91242427,0.37920317,0.20735192,0.672826,0.36439216,0.61294806,0.14047517,0.37837738,0.67347735,0.62035483,-0.14981513,0.14841099,0.43695542,-0.0077280127,-0.49189538,-0.28708684,0.0297637,809.89014,803.0403,799.011,804.65204,608.4249,0.11248779296875,0.07635498046875,1.00286865234375,-1.413116455078125,2.51220703125,-0.216827392578125,1,1.0,1.0,1.0,1.0,10.00
2024-10-11 20:27:59.396,0.8548608,0.6939436,1.1393704,0.91242427,0.37920317,0.20735192,0.672826,0.36439216,0.61294806,0.14047517,0.37837738,0.67347735,0.62035483,-0.14981513,0.14841099,0.43695542,-0.0077280127,-0.49189538,-0.28708684,0.0297637,807.8755,800.6227,790.14655,806.26373,709.15753,0.11248779296875,0.07635498046875,1.00286865234375,-1.413116455078125,2.51220703125,-0.216827392578125,1,1.0,1.0,1.0,1.0,10.00
2024-10-11 20:27:59.396,0.8548608,0.6939436,1.1393704,0.91242427,0.37920317,0.20735192,0.672826,0.36439216,0.61294806,0.14047517,0.37837738,0.67347735,0.62035483,-0.14981513,0.14841099,0.43695542,-0.0077280127,-0.49189538,-0.28708684,0.0297637,807.0696,794.9817,797.8022,799.81683,809.0842,0.11248779296875,0.07635498046875,1.00286865234375,-1.413116455078125,2.51220703125,-0.216827392578125,1,1.0,1.0,1.0,1.0,10.00
2024-10-11 20:27:59.397,0.8548608,0.6939436,1.1393704,0.91242427,0.37920317,0.20735192,0.672826,0.36439216,0.61294806,0.14047517,0.37837738,0.67347735,0.62035483,-0.14981513,0.14841099,0.43695542,-0.0077280127,-0.49189538,-0.28708684,0.0297637,809.89014,794.57874,805.4579,805.05493,812.71063,0.11248779296875,0.07635498046875,1.00286865234375,-1.413116455078125,2.51220703125,-0.216827392578125,1,1.0,1.0,1.0,1.0,10.00
2024-10-11 20:27:59.398,0.8548608,0.6939436,1.1393704,0.91242427,0.37920317,0.20735192,0.672826,0.36439216,0.61294806,0.14047517,0.37837738,0.67347735,0.62035483,-0.14981513,0.14841099,0.43695542,-0.0077280127,-0.49189538,-0.28708684,0.0297637,807.47253,799.41394,800.6227,809.4872,801.02563,0.11248779296875,0.07635498046875,1.00286865234375,-1.413116455078125,2.51220703125,-0.216827392578125,1,1.0,1.0,1.0,1.0,10.00
2024-10-11 20:27:59.399,0.8548608,0.6939436,1.1393704,0.91242427,0.37920317,0.20735192,0.672826,0.36439216,0.61294806,0.14047517,0.37837738,0.67347735,0.62035483,-0.14981513,0.14841099,0.43695542,-0.0077280127,-0.49189538,-0.28708684,0.0297637,810.293,805.4579,805.05493,815.5311,754.68866,0.11248779296875,0.07635498046875,1.00286865234375,-1.413116455078125,2.51220703125,-0.216827392578125,1,1.0,1.0,1.0,1.0,10.00
2024-10-11 20:27:59.400,0.8548608,0.6939436,1.1393704,0.91242427,0.37920317,0.20735192,0.672826,0.36439216,0.61294806,0.14047517,0.37837738,0.67347735,0.62035483,-0.14981513,0.14841099,0.43695542,-0.0077280127,-0.49189538,-0.28708684,0.0297637,807.47253,803.0403,807.0696,812.71063,800.6227,0.11248779296875,0.07635498046875,1.00286865234375,-1.413116455078125,2.51220703125,-0.216827392578125,1,1.0,1.0,1.0,1.0,10.00
2024-10-11 20:27:59.400,0.8548608,0.6939436,1.1393704,0.91242427,0.37920317,0.20735192,0.672826,0.36439216,0.61294806,0.14047517,0.37837738,0.67347735,0.62035483,-0.14981513,0.14841099,0.43695542,-0.0077280127,-0.49189538,-0.28708684,0.0297637,807.47253,798.20514,807.0696,805.8608,665.64105,0.11248779296875,0.07635498046875,1.00286865234375,-1.413116455078125,2.51220703125,-0.216827392578125,1,1.0,1.0,1.0,1.0,10.00
2024-10-11 20:27:59.401,0.8548608,0.6939436,1.1393704,0.91242427,0.37920317,0.20735192,0.672826,0.36439216,0.61294806,0.14047517,0.37837738,0.67347735,0.62035483,-0.14981513,0.14841099,0.43695542,-0.0077280127,-0.49189538,-0.28708684,0.0297637,812.71063,799.81683,805.05493,808.2784,611.2454,0.11248779296875,0.07635498046875,1.00286865234375,-1.413116455078125,2.51220703125,-0.216827392578125,1,1.0,1.0,1.0,1.0,10.00
2024-10-11 20:27:59.402,0.8548608,0.6939436,1.1393704,0.91242427,0.37920317,0.20735192,0.672826,0.36439216,0.61294806,0.14047517,0.37837738,0.67347735,0.62035483,-0.14981513,0.14841099,0.43695542,-0.0077280127,-0.49189538,-0.28708684,0.0297637,804.65204,798.60803,801.8315,806.6667,888.46155,0.11248779296875,0.07635498046875,1.00286865234375,-1.413116455078125,2.51220703125,-0.216827392578125,1,1.0,1.0,1.0,1.0,10.00
2024-10-11 20:27:59.455,0.8548608,0.6939436,1.1393704,0.91242427,0.37920317,0.20735192,0.672826,0.36439216,0.61294806,0.14047517,0.37837738,0.67347735,0.62035483,-0.14981513,0.14841099,0.43695542,-0.0077280127,-0.49189538,-0.28708684,0.0297637,802.6374,797.8022,797.3993,809.4872,904.17584,0.099609375,0.07196044921875,0.9923095703125,-1.383209228515625,1.8841552734375,1.248626708984375,1,1.0,1.0,1.0,1.0,10.00
2024-10-11 20:27:59.456,0.8548608,0.6939436,1.1393704,0.91242427,0.37920317,0.20735192,0.672826,0.36439216,0.61294806,0.14047517,0.37837738,0.67347735,0.62035483,-0.14981513,0.14841099,0.43695542,-0.0077280127,-0.49189538,-0.28708684,0.0297637,806.6667,800.6227,803.0403,807.0696,768.3883,0.099609375,0.07196044921875,0.9923095703125,-1.383209228515625,1.8841552734375,1.248626708984375,1,1.0,1.0,1.0,1.0,10.00
2024-10-11 20:27:59.457,0.8548608,0.6939436,1.1393704,0.91242427,0.37920317,0.20735192,0.672826,0.36439216,0.61294806,0.14047517,0.37837738,0.67347735,0.62035483,-0.14981513,0.14841099,0.43695542,-0.0077280127,-0.49189538,-0.28708684,0.0297637,807.47253,796.5934,811.0989,803.8461,782.49084,0.099609375,0.07196044921875,0.9923095703125,-1.383209228515625,1.8841552734375,1.248626708984375,1,1.0,1.0,1.0,1.0,10.00
2024-10-11 20:27:59.458,0.8548608,0.6939436,1.1393704,0.91242427,0.37920317,0.20735192,0.672826,0.36439216,0.61294806,0.14047517,0.37837738,0.67347735,0.62035483,-0.14981513,0.14841099,0.43695542,-0.0077280127,-0.49189538,-0.28708684,0.0297637,803.44324,793.36993,801.4286,802.6374,996.8498,0.099609375,0.07196044921875,0.9923095703125,-1.383209228515625,1.8841552734375,1.248626708984375,1,1.0,1.0,1.0,1.0,10.00
2024-10-11 20:27:59.458,0.8548608,0.6939436,1.1393704,0.91242427,0.37920317,0.20735192,0.672826,0.36439216,0.61294806,0.14047517,0.37837738,0.67347735,0.62035483,-0.14981513,0.14841099,0.43695542,-0.0077280127,-0.49189538,-0.28708684,0.0297637,800.2198,800.6227,797.8022,805.05493,944.4689,0.099609375,0.07196044921875,0.9923095703125,-1.383209228515625,1.8841552734375,1.248626708984375,1,1.0,1.0,1.0,1.0,10.00
2024-10-11 20:27:59.459,0.8548608,0.6939436,1.1393704,0.91242427,0.37920317,0.20735192,0.672826,0.36439216,0.61294806,0.14047517,0.37837738,0.67347735,0.62035483,-0.14981513,0.14841099,0.43695542,-0.0077280127,-0.49189538,-0.28708684,0.0297637,799.41394,800.2198,799.41394,804.65204,625.7509,0.099609375,0.07196044921875,0.9923095703125,-1.383209228515625,1.8841552734375,1.248626708984375,1,1.0,1.0,1.0,1.0,10.00
2024-10-11 20:27:59.459,0.8548608,0.6939436,1.1393704,0.91242427,0.37920317,0.20735192,0.672826,0.36439216,0.61294806,0.14047517,0.37837738,0.67347735,0.62035483,-0.14981513,0.14841099,0.43695542,-0.0077280127,-0.49189538,-0.28708684,0.0297637,798.20514,796.1905,797.8022,800.2198,713.9927,0.099609375,0.07196044921875,0.9923095703125,-1.383209228515625,1.8841552734375,1.248626708984375,1,1.0,1.0,1.0,1.0,10.00
2024-10-11 20:27:59.460,0.8548608,0.6939436,1.1393704,0.91242427,0.37920317,0.20735192,0.672826,0.36439216,0.61294806,0.14047517,0.37837738,0.67347735,0.62035483,-0.14981513,0.14841099,0.43695542,-0.0077280127,-0.49189538,-0.28708684,0.0297637,803.8461,799.81683,800.6227,805.8608,1062.5275,0.099609375,0.07196044921875,0.9923095703125,-1.383209228515625,1.8841552734375,1.248626708984375,1,1.0,1.0,1.0,1.0,10.00
2024-10-11 20:27:59.460,0.8548608,0.6939436,1.1393704,0.91242427,0.37920317,0.20735192,0.672826,0.36439216,0.61294806,0.14047517,0.37837738,0.67347735,0.62035483,-0.14981513,0.14841099,0.43695542,-0.0077280127,-0.49189538,-0.28708684,0.0297637,805.05493,797.8022,799.81683,807.0696,915.05493,0.099609375,0.07196044921875,0.9923095703125,-1.383209228515625,1.8841552734375,1.248626708984375,1,1.0,1.0,1.0,1.0,10.00
2024-10-11 20:27:59.461,0.8548608,0.735118,1.1619459,0.9793046,0.37920317,0.26847938,0.6790482,0.4044963,0.61294806,0.19331615,0.34595072,0.6579509,0.62035483,-0.15398964,0.13973095,0.4000851,-0.0077280127,-0.49666935,-0.26852143,0.024642907,805.05493,795.78754,794.57874,802.6374,631.79486,0.099609375,0.07196044921875,0.9923095703125,-1.383209228515625,1.8841552734375,1.248626708984375,1,1.0,1.0,1.0,1.0,10.00
2024-10-11 20:27:59.466,0.8548608,0.735118,1.1619459,0.9793046,0.37920317,0.26847938,0.6790482,0.4044963,0.61294806,0.19331615,0.34595072,0.6579509,0.62035483,-0.15398964,0.13973095,0.4000851,-0.0077280127,-0.49666935,-0.26852143,0.024642907,809.89014,796.1905,794.9817,803.0403,683.7729,0.099609375,0.07196044921875,0.9923095703125,-1.383209228515625,1.8841552734375,1.248626708984375,1,1.0,1.0,1.0,1.0,10.00
2024-10-11 20:27:59.466,0.8548608,0.735118,1.1619459,0.9793046,0.37920317,0.26847938,0.6790482,0.4044963,0.61294806,0.19331615,0.34595072,0.6579509,0.62035483,-0.15398964,0.13973095,0.4000851,-0.0077280127,-0.49666935,-0.26852143,0.024642907,807.0696,799.41394,800.6227,807.0696,716.4103,0.099609375,0.07196044921875,0.9923095703125,-1.383209228515625,1.8841552734375,1.248626708984375,1,1.0,1.0,1.0,1.0,10.00
2024-10-11 20:27:59.467,0.8548608,0.735118,1.1619459,0.9793046,0.37920317,0.26847938,0.6790482,0.4044963,0.61294806,0.19331615,0.34595072,0.6579509,0.62035483,-0.15398964,0.13973095,0.4000851,-0.0077280127,-0.49666935,-0.26852143,0.024642907,808.68134,803.44324,807.0696,810.293,680.9524,0.099609375,0.07196044921875,0.9923095703125,-1.383209228515625,1.8841552734375,1.248626708984375,1,1.0,1.0,1.0,1.0,10.00
2024-10-11 20:27:59.468,0.8548608,0.735118,1.1619459,0.9793046,0.37920317,0.26847938,0.6790482,0.4044963,0.61294806,0.19331615,0.34595072,0.6579509,0.62035483,-0.15398964,0.13973095,0.4000851,-0.0077280127,-0.49666935,-0.26852143,0.024642907,806.6667,804.2491,805.05493,802.23444,672.8938,0.099609375,0.07196044921875,0.9923095703125,-1.383209228515625,1.8841552734375,1.248626708984375,1,1.0,1.0,1.0,1.0,10.00
2024-10-11 20:27:59.468,0.8548608,0.735118,1.1619459,0.9793046,0.37920317,0.26847938,0.6790482,0.4044963,0.61294806,0.19331615,0.34595072,0.6579509,0.62035483,-0.15398964,0.13973095,0.4000851,-0.0077280127,-0.49666935,-0.26852143,0.024642907,799.81683,799.81683,799.011,792.96704,665.64105,0.099609375,0.07196044921875,0.9923095703125,-1.383209228515625,1.8841552734375,1.248626708984375,1,1.0,1.0,1.0,1.0,10.00
2024-10-11 20:27:59.469,0.8548608,0.735118,1.1619459,0.9793046,0.37920317,0.26847938,0.6790482,0.4044963,0.61294806,0.19331615,0.34595072,0.6579509,0.62035483,-0.15398964,0.13973095,0.4000851,-0.0077280127,-0.49666935,-0.26852143,0.024642907,796.1905,796.99634,801.4286,794.57874,768.3883,0.099609375,0.07196044921875,0.9923095703125,-1.383209228515625,1.8841552734375,1.248626708984375,1,1.0,1.0,1.0,1.0,10.00
2024-10-11 20:27:59.469,0.8548608,0.735118,1.1619459,0.9793046,0.37920317,0.26847938,0.6790482,0.4044963,0.61294806,0.19331615,0.34595072,0.6579509,0.62035483,-0.15398964,0.13973095,0.4000851,-0.0077280127,-0.49666935,-0.26852143,0.024642907,797.3993,795.78754,803.44324,802.23444,810.696,0.099609375,0.07196044921875,0.9923095703125,-1.383209228515625,1.8841552734375,1.248626708984375,1,1.0,1.0,1.0,1.0,10.00
2024-10-11 20:27:59.470,0.8548608,0.735118,1.1619459,0.9793046,0.37920317,0.26847938,0.6790482,0.4044963,0.61294806,0.19331615,0.34595072,0.6579509,0.62035483,-0.15398964,0.13973095,0.4000851,-0.0077280127,-0.49666935,-0.26852143,0.024642907,800.6227,793.36993,801.4286,801.02563,890.4762,0.099609375,0.07196044921875,0.9923095703125,-1.383209228515625,1.8841552734375,1.248626708984375,1,1.0,1.0,1.0,1.0,10.00
2024-10-11 20:27:59.470,0.8548608,0.735118,1.1619459,0.9793046,0.37920317,0.26847938,0.6790482,0.4044963,0.61294806,0.19331615,0.34595072,0.6579509,0.62035483,-0.15398964,0.13973095,0.4000851,-0.0077280127,-0.49666935,-0.26852143,0.024642907,803.44324,794.9817,796.5934,798.20514,959.7802,0.099609375,0.07196044921875,0.9923095703125,-1.383209228515625,1.8841552734375,1.248626708984375,1,1.0,1.0,1.0,1.0,10.00
2024-10-11 20:27:59.471,0.8548608,0.735118,1.1619459,0.9793046,0.37920317,0.26847938,0.6790482,0.4044963,0.61294806,0.19331615,0.34595072,0.6579509,0.62035483,-0.15398964,0.13973095,0.4000851,-0.0077280127,-0.49666935,-0.26852143,0.024642907,807.8755,793.7729,791.3553,805.05493,835.6777,0.099609375,0.07196044921875,0.9923095703125,-1.383209228515625,1.8841552734375,1.248626708984375,1,1.0,1.0,1.0,1.0,10.00
2024-10-11 20:27:59.472,0.8548608,0.735118,1.1619459,0.9793046,0.37920317,0.26847938,0.6790482,0.4044963,0.61294806,0.19331615,0.34595072,0.6579509,0.62035483,-0.15398964,0.13973095,0.4000851,-0.0077280127,-0.49666935,-0.26852143,0.024642907,806.26373,795.38464,795.38464,803.0403,711.1722,0.099609375,0.07196044921875,0.9923095703125,-1.383209228515625,1.8841552734375,1.248626708984375,1,1.0,1.0,1.0,1.0,10.00
2024-10-11 20:27:59.472,0.8548608,0.735118,1.1619459,0.9793046,0.37920317,0.26847938,0.6790482,0.4044963,0.61294806,0.19331615,0.34595072,0.6579509,0.62035483,-0.15398964,0.13973095,0.4000851,-0.0077280127,-0.49666935,-0.26852143,0.024642907,801.02563,796.99634,803.44324,794.17584,669.67035,0.099609375,0.07196044921875,0.9923095703125,-1.383209228515625,1.8841552734375,1.248626708984375,1,1.0,1.0,1.0,1.0,10.00
2024-10-11 20:27:59.473,0.8548608,0.735118,1.1619459,0.9793046,0.37920317,0.26847938,0.6790482,0.4044963,0.61294806,0.19331615,0.34595072,0.6579509,0.62035483,-0.15398964,0.13973095,0.4000851,-0.0077280127,-0.49666935,-0.26852143,0.024642907,807.8755,794.9817,804.2491,798.20514,789.34064,0.099609375,0.07196044921875,0.9923095703125,-1.383209228515625,1.8841552734375,1.248626708984375,1,1.0,1.0,1.0,1.0,10.00
2024-10-11 20:27:59.473,0.8548608,0.735118,1.1619459,0.9793046,0.37920317,0.26847938,0.6790482,0.4044963,0.61294806,0.19331615,0.34595072,0.6579509,0.62035483,-0.15398964,0.13973095,0.4000851,-0.0077280127,-0.49666935,-0.26852143,0.024642907,807.0696,798.60803,801.8315,800.6227,780.07324,0.099609375,0.07196044921875,0.9923095703125,-1.383209228515625,1.8841552734375,1.248626708984375,1,1.0,1.0,1.0,1.0,10.00
2024-10-11 20:27:59.498,0.8548608,0.735118,1.1619459,0.9793046,0.37920317,0.26847938,0.6790482,0.4044963,0.61294806,0.19331615,0.34595072,0.6579509,0.62035483,-0.15398964,0.13973095,0.4000851,-0.0077280127,-0.49666935,-0.26852143,0.024642907,801.8315,797.8022,799.81683,797.3993,630.18317,0.09368896484375,0.06689453125,0.99151611328125,-0.665435791015625,2.564544677734375,1.622467041015625,1,1.0,1.0,1.0,1.0,10.00
2024-10-11 20:27:59.499,0.8548608,0.735118,1.1619459,0.9793046,0.37920317,0.26847938,0.6790482,0.4044963,0.61294806,0.19331615,0.34595072,0.6579509,0.62035483,-0.15398964,0.13973095,0.4000851,-0.0077280127,-0.49666935,-0.26852143,0.024642907,804.2491,794.17584,803.44324,800.6227,653.95605,0.09368896484375,0.06689453125,0.99151611328125,-0.665435791015625,2.564544677734375,1.622467041015625,1,1.0,1.0,1.0,1.0,10.00
2024-10-11 20:27:59.499,0.8548608,0.735118,1.1619459,0.9793046,0.37920317,0.26847938,0.6790482,0.4044963,0.61294806,0.19331615,0.34595072,0.6579509,0.62035483,-0.15398964,0.13973095,0.4000851,-0.0077280127,-0.49666935,-0.26852143,0.024642907,802.6374,792.5641,804.2491,803.0403,896.52014,0.09368896484375,0.06689453125,0.99151611328125,-0.665435791015625,2.564544677734375,1.622467041015625,1,1.0,1.0,1.0,1.0,10.00
2024-10-11 20:27:59.500,0.8548608,0.735118,1.1619459,0.9793046,0.37920317,0.26847938,0.6790482,0.4044963,0.61294806,0.19331615,0.34595072,0.6579509,0.62035483,-0.15398964,0.13973095,0.4000851,-0.0077280127,-0.49666935,-0.26852143,0.024642907,802.23444,795.38464,800.2198,797.8022,821.978,0.09368896484375,0.06689453125,0.99151611328125,-0.665435791015625,2.564544677734375,1.622467041015625,1,1.0,1.0,1.0,1.0,10.00
2024-10-11 20:27:59.500,0.8548608,0.735118,1.1619459,0.9793046,0.37920317,0.26847938,0.6790482,0.4044963,0.61294806,0.19331615,0.34595072,0.6579509,0.62035483,-0.15398964,0.13973095,0.4000851,-0.0077280127,-0.49666935,-0.26852143,0.024642907,804.2491,800.2198,794.9817,803.8461,679.34064,0.09368896484375,0.06689453125,0.99151611328125,-0.665435791015625,2.564544677734375,1.622467041015625,1,1.0,1.0,1.0,1.0,10.00
2024-10-11 20:27:59.501,0.8548608,0.735118,1.1619459,0.9793046,0.37920317,0.26847938,0.6790482,0.4044963,0.61294806,0.19331615,0.34595072,0.6579509,0.62035483,-0.15398964,0.13973095,0.4000851,-0.0077280127,-0.49666935,-0.26852143,0.024642907,802.6374,801.8315,790.14655,807.8755,757.9121,0.09368896484375,0.06689453125,0.99151611328125,-0.665435791015625,2.564544677734375,1.622467041015625,1,1.0,1.0,1.0,1.0,10.00
2024-10-11 20:27:59.502,0.8548608,0.735118,1.1619459,0.9793046,0.37920317,0.26847938,0.6790482,0.4044963,0.61294806,0.19331615,0.34595072,0.6579509,0.62035483,-0.15398964,0.13973095,0.4000851,-0.0077280127,-0.49666935,-0.26852143,0.024642907,802.6374,799.81683,798.60803,810.696,1107.2528,0.09368896484375,0.06689453125,0.99151611328125,-0.665435791015625,2.564544677734375,1.622467041015625,1,1.0,1.0,1.0,1.0,10.00
2024-10-11 20:27:59.502,0.8548608,0.735118,1.1619459,0.9793046,0.37920317,0.26847938,0.6790482,0.4044963,0.61294806,0.19331615,0.34595072,0.6579509,0.62035483,-0.15398964,0.13973095,0.4000851,-0.0077280127,-0.49666935,-0.26852143,0.024642907,801.4286,796.99634,801.8315,809.89014,1390.1099,0.09368896484375,0.06689453125,0.99151611328125,-0.665435791015625,2.564544677734375,1.622467041015625,1,1.0,1.0,1.0,1.0,10.00
2024-10-11 20:27:59.503,0.8548608,0.735118,1.1619459,0.9793046,0.37920317,0.26847938,0.6790482,0.4044963,0.61294806,0.19331615,0.34595072,0.6579509,0.62035483,-0.15398964,0.13973095,0.4000851,-0.0077280127,-0.49666935,-0.26852143,0.024642907,801.4286,800.6227,798.60803,800.6227,873.95605,0.09368896484375,0.06689453125,0.99151611328125,-0.665435791015625,2.564544677734375,1.622467041015625,1,1.0,1.0,1.0,1.0,10.00
2024-10-11 20:27:59.503,0.8548608,0.735118,1.1619459,0.9793046,0.37920317,0.26847938,0.6790482,0.4044963,0.61294806,0.19331615,0.34595072,0.6579509,0.62035483,-0.15398964,0.13973095,0.4000851,-0.0077280127,-0.49666935,-0.26852143,0.024642907,813.1135,803.8461,801.4286,805.8608,618.0952,0.09368896484375,0.06689453125,0.99151611328125,-0.665435791015625,2.564544677734375,1.622467041015625,1,1.0,1.0,1.0,1.0,10.00
2024-10-11 20:27:59.504,0.8548608,0.735118,1.1619459,0.9793046,0.37920317,0.26847938,0.6790482,0.4044963,0.61294806,0.19331615,0.34595072,0.6579509,0.62035483,-0.15398964,0.13973095,0.4000851,-0.0077280127,-0.49666935,-0.26852143,0.024642907,815.5311,802.23444,805.8608,809.4872,823.1868,0.09368896484375,0.06689453125,0.99151611328125,-0.665435791015625,2.564544677734375,1.622467041015625,1,1.0,1.0,1.0,1.0,10.00
2024-10-11 20:27:59.504,0.8548608,0.77079153,1.1702454,0.9793046,0.37920317,0.32055673,0.67607373,0.4044963,0.61294806,0.19976148,0.29488355,0.6579509,0.62035483,-0.16594712,0.13596214,0.4000851,-0.0077280127,-0.511884,-0.2512979,0.024642907,807.0696,801.02563,805.8608,806.6667,743.8095,0.09368896484375,0.06689453125,0.99151611328125,-0.665435791015625,2.564544677734375,1.622467041015625,1,1.0,1.0,1.0,1.0,10.00
2024-10-11 20:27:59.573,0.8548608,0.77079153,1.1702454,0.9793046,0.37920317,0.32055673,0.67607373,0.4044963,0.61294806,0.19976148,0.29488355,0.6579509,0.62035483,-0.16594712,0.13596214,0.4000851,-0.0077280127,-0.511884,-0.2512979,0.024642907,806.6667,799.81683,801.8315,806.26373,618.49817,0.0771484375,0.0694580078125,1.00079345703125,-0.441131591796875,1.98883056640625,1.21124267578125,1,1.0,1.0,1.0,1.0,10.00
2024-10-11 20:27:59.574,0.8548608,0.77079153,1.1702454,0.9793046,0.37920317,0.32055673,0.67607373,0.4044963,0.61294806,0.19976148,0.29488355,0.6579509,0.62035483,-0.16594712,0.13596214,0.4000851,-0.0077280127,-0.511884,-0.2512979,0.024642907,801.02563,799.81683,798.60803,804.2491,636.2271,0.0771484375,0.0694580078125,1.00079345703125,-0.441131591796875,1.98883056640625,1.21124267578125,1,1.0,1.0,1.0,1.0,10.00
2024-10-11 20:27:59.575,0.8548608,0.77079153,1.1702454,0.9793046,0.37920317,0.32055673,0.67607373,0.4044963,0.61294806,0.19976148,0.29488355,0.6579509,0.62035483,-0.16594712,0.13596214,0.4000851,-0.0077280127,-0.511884,-0.2512979,0.024642907,792.1612,796.5934,792.96704,799.41394,818.3516,0.0771484375,0.0694580078125,1.00079345703125,-0.441131591796875,1.98883056640625,1.21124267578125,1,1.0,1.0,1.0,1.0,10.00
2024-10-11 20:27:59.575,0.8548608,0.77079153,1.1702454,0.9793046,0.37920317,0.32055673,0.67607373,0.4044963,0.61294806,0.19976148,0.29488355,0.6579509,0.62035483,-0.16594712,0.13596214,0.4000851,-0.0077280127,-0.511884,-0.2512979,0.024642907,792.96704,795.78754,794.9817,798.20514,794.57874,0.0771484375,0.0694580078125,1.00079345703125,-0.441131591796875,1.98883056640625,1.21124267578125,1,1.0,1.0,1.0,1.0,10.00
2024-10-11 20:27:59.576,0.8548608,0.77079153,1.1702454,0.9793046,0.37920317,0.32055673,0.67607373,0.4044963,0.61294806,0.19976148,0.29488355,0.6579509,0.62035483,-0.16594712,0.13596214,0.4000851,-0.0077280127,-0.511884,-0.2512979,0.024642907,797.3993,796.5934,802.23444,796.99634,552.4176,0.0771484375,0.0694580078125,1.00079345703125,-0.441131591796875,1.98883056640625,1.21124267578125,1,1.0,1.0,1.0,1.0,10.00
2024-10-11 20:27:59.576,0.8548608,0.77079153,1.1702454,0.9793046,0.37920317,0.32055673,0.67607373,0.4044963,0.61294806,0.19976148,0.29488355,0.6579509,0.62035483,-0.16594712,0.13596214,0.4000851,-0.0077280127,-0.511884,-0.2512979,0.024642907,791.75824,794.9817,801.02563,794.9817,718.4249,0.0771484375,0.0694580078125,1.00079345703125,-0.441131591796875,1.98883056640625,1.21124267578125,1,1.0,1.0,1.0,1.0,10.00
2024-10-11 20:27:59.577,0.8548608,0.77079153,1.1702454,0.9793046,0.37920317,0.32055673,0.67607373,0.4044963,0.61294806,0.19976148,0.29488355,0.6579509,0.62035483,-0.16594712,0.13596214,0.4000851,-0.0077280127,-0.511884,-0.2512979,0.024642907,785.7143,795.78754,794.57874,796.99634,976.7033,0.0771484375,0.0694580078125,1.00079345703125,-0.441131591796875,1.98883056640625,1.21124267578125,1,1.0,1.0,1.0,1.0,10.00
2024-10-11 20:27:59.578,0.8548608,0.77079153,1.1702454,0.9793046,0.37920317,0.32055673,0.67607373,0.4044963,0.61294806,0.19976148,0.29488355,0.6579509,0.62035483,-0.16594712,0.13596214,0.4000851,-0.0077280127,-0.511884,-0.2512979,0.024642907,790.14655,796.5934,794.57874,797.8022,800.6227,0.0771484375,0.0694580078125,1.00079345703125,-0.441131591796875,1.98883056640625,1.21124267578125,1,1.0,1.0,1.0,1.0,10.00
2024-10-11 20:27:59.578,0.8548608,0.77079153,1.1702454,0.9793046,0.37920317,0.32055673,0.67607373,0.4044963,0.61294806,0.19976148,0.29488355,0.6579509,0.62035483,-0.16594712,0.13596214,0.4000851,-0.0077280127,-0.511884,-0.2512979,0.024642907,796.99634,790.9524,792.5641,794.57874,649.12085,0.0771484375,0.0694580078125,1.00079345703125,-0.441131591796875,1.98883056640625,1.21124267578125,1,1.0,1.0,1.0,1.0,10.00
2024-10-11 20:27:59.579,0.8548608,0.77079153,1.1702454,0.9793046,0.37920317,0.32055673,0.67607373,0.4044963,0.61294806,0.19976148,0.29488355,0.6579509,0.62035483,-0.16594712,0.13596214,0.4000851,-0.0077280127,-0.511884,-0.2512979,0.024642907,797.8022,788.93774,791.75824,796.5934,909.41394,0.0771484375,0.0694580078125,1.00079345703125,-0.441131591796875,1.98883056640625,1.21124267578125,1,1.0,1.0,1.0,1.0,10.00
2024-10-11 20:27:59.579,0.8548608,0.77079153,1.1702454,0.9793046,0.37920317,0.32055673,0.67607373,0.4044963,0.61294806,0.19976148,0.29488355,0.6579509,0.62035483,-0.16594712,0.13596214,0.4000851,-0.0077280127,-0.511884,-0.2512979,0.024642907,796.99634,790.9524,794.57874,806.6667,1121.3553,0.0771484375,0.0694580078125,1.00079345703125,-0.441131591796875,1.98883056640625,1.21124267578125,1,1.0,1.0,1.0,1.0,10.00
2024-10-11 20:27:59.580,0.8548608,0.77079153,1.1702454,0.9793046,0.37920317,0.32055673,0.67607373,0.4044963,0.61294806,0.19976148,0.29488355,0.6579509,0.62035483,-0.16594712,0.13596214,0.4000851,-0.0077280127,-0.511884,-0.2512979,0.024642907,799.011,798.20514,804.2491,807.47253,796.5934,0.0771484375,0.0694580078125,1.00079345703125,-0.441131591796875,1.98883056640625,1.21124267578125,1,1.0,1.0,1.0,1.0,10.00
2024-10-11 20:27:59.607,0.8548608,0.77079153,1.1702454,0.9793046,0.37920317,0.32055673,0.67607373,0.4044963,0.61294806,0.19976148,0.29488355,0.6579509,0.62035483,-0.16594712,0.13596214,0.4000851,-0.0077280127,-0.511884,-0.2512979,0.024642907,797.3993,798.60803,803.44324,799.41394,719.6337,0.067138671875,0.0699462890625,1.01263427734375,-0.01495361328125,2.041168212890625,0.441131591796875,1,1.0,1.0,1.0,1.0,10.00
2024-10-11 20:27:59.608,0.8548608,0.77079153,1.1702454,0.9793046,0.37920317,0.32055673,0.67607373,0.4044963,0.61294806,0.19976148,0.29488355,0.6579509,0.62035483,-0.16594712,0.13596214,0.4000851,-0.0077280127,-0.511884,-0.2512979,0.024642907,803.8461,790.9524,796.5934,805.05493,767.98535,0.067138671875,0.0699462890625,1.01263427734375,-0.01495361328125,2.041168212890625,0.441131591796875,1,1.0,1.0,1.0,1.0,10.00
2024-10-11 20:27:59.608,0.8548608,0.77079153,1.1702454,0.9793046,0.37920317,0.32055673,0.67607373,0.4044963,0.61294806,0.19976148,0.29488355,0.6579509,0.62035483,-0.16594712,0.13596214,0.4000851,-0.0077280127,-0.511884,-0.2512979,0.024642907,805.4579,791.75824,803.0403,812.3077,728.0952,0.067138671875,0.0699462890625,1.01263427734375,-0.01495361328125,2.041168212890625,0.441131591796875,1,1.0,1.0,1.0,1.0,10.00
2024-10-11 20:27:59.609,0.8548608,0.77079153,1.1702454,0.9793046,0.37920317,0.32055673,0.67607373,0.4044963,0.61294806,0.19976148,0.29488355,0.6579509,0.62035483,-0.16594712,0.13596214,0.4000851,-0.0077280127,-0.511884,-0.2512979,0.024642907,804.2491,797.8022,809.0842,807.0696,662.01465,0.067138671875,0.0699462890625,1.01263427734375,-0.01495361328125,2.041168212890625,0.441131591796875,1,1.0,1.0,1.0,1.0,10.00
2024-10-11 20:27:59.610,0.8548608,0.77079153,1.1702454,0.9793046,0.37920317,0.32055673,0.67607373,0.4044963,0.61294806,0.19976148,0.29488355,0.6579509,0.62035483,-0.16594712,0.13596214,0.4000851,-0.0077280127,-0.511884,-0.2512979,0.024642907,801.4286,794.57874,807.0696,802.23444,596.337,0.067138671875,0.0699462890625,1.01263427734375,-0.01495361328125,2.041168212890625,0.441131591796875,1,1.0,1.0,1.0,1.0,10.00
2024-10-11 20:27:59.610,0.8548608,0.77079153,1.1702454,0.9793046,0.37920317,0.32055673,0.67607373,0.4044963,0.61294806,0.19976148,0.29488355,0.6579509,0.62035483,-0.16594712,0.13596214,0.4000851,-0.0077280127,-0.511884,-0.2512979,0.024642907,799.41394,789.7436,806.6667,807.0696,804.2491,0.067138671875,0.0699462890625,1.01263427734375,-0.01495361328125,2.041168212890625,0.441131591796875,1,1.0,1.0,1.0,1.0,10.00
2024-10-11 20:27:59.611,0.8548608,0.77079153,1.1702454,0.9793046,0.37920317,0.32055673,0.67607373,0.4044963,0.61294806,0.19976148,0.29488355,0.6579509,0.62035483,-0.16594712,0.13596214,0.4000851,-0.0077280127,-0.511884,-0.2512979,0.024642907,799.81683,794.9817,805.8608,812.3077,957.76556,0.067138671875,0.0699462890625,1.01263427734375,-0.01495361328125,2.041168212890625,0.441131591796875,1,1.0,1.0,1.0,1.0,10.00
2024-10-11 20:27:59.611,0.8548608,0.77079153,1.1702454,0.9793046,0.37920317,0.32055673,0.67607373,0.4044963,0.61294806,0.19976148,0.29488355,0.6579509,0.62035483,-0.16594712,0.13596214,0.4000851,-0.0077280127,-0.511884,-0.2512979,0.024642907,793.7729,798.20514,799.41394,805.4579,727.28937,0.067138671875,0.0699462890625,1.01263427734375,-0.01495361328125,2.041168212890625,0.441131591796875,1,1.0,1.0,1.0,1.0,10.00
2024-10-11 20:27:59.612,0.8548608,0.77079153,1.1702454,0.9793046,0.37920317,0.32055673,0.67607373,0.4044963,0.61294806,0.19976148,0.29488355,0.6579509,0.62035483,-0.16594712,0.13596214,0.4000851,-0.0077280127,-0.511884,-0.2512979,0.024642907,796.99634,798.60803,800.2198,799.41394,686.1905,0.067138671875,0.0699462890625,1.01263427734375,-0.01495361328125,2.041168212890625,0.441131591796875,1,1.0,1.0,1.0,1.0,10.00
2024-10-11 20:27:59.612,0.8548608,0.77079153,1.1702454,0.9793046,0.37920317,0.32055673,0.67607373,0.4044963,0.61294806,0.19976148,0.29488355,0.6579509,0.62035483,-0.16594712,0.13596214,0.4000851,-0.0077280127,-0.511884,-0.2512979,0.024642907,799.81683,798.60803,800.2198,805.8608,925.5311,0.067138671875,0.0699462890625,1.01263427734375,-0.01495361328125,2.041168212890625,0.441131591796875,1,1.0,1.0,1.0,1.0,10.00
2024-10-11 20:27:59.613,0.8548608,0.77079153,1.1702454,0.9793046,0.37920317,0.32055673,0.67607373,0.4044963,0.61294806,0.19976148,0.29488355,0.6579509,0.62035483,-0.16594712,0.13596214,0.4000851,-0.0077280127,-0.511884,-0.2512979,0.024642907,799.011,802.6374,799.011,810.293,766.3736,0.067138671875,0.0699462890625,1.01263427734375,-0.01495361328125,2.041168212890625,0.441131591796875,1,1.0,1.0,1.0,1.0,10.00
2024-10-11 20:27:59.614,0.8548608,0.77079153,1.1702454,0.9793046,0.37920317,0.32055673,0.67607373,0.4044963,0.61294806,0.19976148,0.29488355,0.6579509,0.62035483,-0.16594712,0.13596214,0.4000851,-0.0077280127,-0.511884,-0.2512979,0.024642907,801.4286,801.4286,807.47253,811.9048,666.8498,0.067138671875,0.0699462890625,1.01263427734375,-0.01495361328125,2.041168212890625,0.441131591796875,1,1.0,1.0,1.0,1.0,10.00
2024-10-11 20:27:59.706,0.8548608,0.77079153,1.1702454,0.9793046,0.37920317,0.32055673,0.67607373,0.4044963,0.61294806,0.19976148,0.29488355,0.6579509,0.62035483,-0.16594712,0.13596214,0.4000851,-0.0077280127,-0.511884,-0.2512979,0.024642907,794.17584,793.7729,807.47253,812.3077,875.56775,0.07049560546875,0.06787109375,1.0020751953125,-0.04486083984375,1.099090576171875,-0.620574951171875,1,1.0,1.0,1.0,1.0,10.00
2024-10-11 20:27:59.707,0.8548608,0.77815264,1.1285568,0.9793046,0.37920317,0.34226662,0.6264364,0.4044963,0.61294806,0.19976148,0.19202992,0.6579509,0.62035483,-0.18937843,0.14098144,0.4000851,-0.0077280127,-0.542369,-0.2385276,0.024642907,794.57874,792.96704,804.2491,815.5311,1020.6227,0.07049560546875,0.06787109375,1.0020751953125,-0.04486083984375,1.099090576171875,-0.620574951171875,1,1.0,1.0,1.0,1.0,10.00
2024-10-11 20:27:59.712,0.8548608,0.77815264,1.1285568,0.9793046,0.37920317,0.34226662,0.6264364,0.4044963,0.61294806,0.19976148,0.19202992,0.6579509,0.62035483,-0.18937843,0.14098144,0.4000851,-0.0077280127,-0.542369,-0.2385276,0.024642907,791.3553,792.1612,805.05493,811.9048,757.1062,0.07049560546875,0.06787109375,1.0020751953125,-0.04486083984375,1.099090576171875,-0.620574951171875,1,1.0,1.0,1.0,1.0,10.00
2024-10-11 20:27:59.712,0.8548608,0.77815264,1.1285568,0.9793046,0.37920317,0.34226662,0.6264364,0.4044963,0.61294806,0.19976148,0.19202992,0.6579509,0.62035483,-0.18937843,0.14098144,0.4000851,-0.0077280127,-0.542369,-0.2385276,0.024642907,793.7729,793.7729,805.8608,805.05493,655.9707,0.07049560546875,0.06787109375,1.0020751953125,-0.04486083984375,1.099090576171875,-0.620574951171875,1,1.0,1.0,1.0,1.0,10.00
2024-10-11 20:27:59.713,0.8548608,0.77815264,1.1285568,0.9793046,0.37920317,0.34226662,0.6264364,0.4044963,0.61294806,0.19976148,0.19202992,0.6579509,0.62035483,-0.18937843,0.14098144,0.4000851,-0.0077280127,-0.542369,-0.2385276,0.024642907,797.3993,796.5934,805.05493,804.2491,755.4945,0.07049560546875,0.06787109375,1.0020751953125,-0.04486083984375,1.099090576171875,-0.620574951171875,1,1.0,1.0,1.0,1.0,10.00
2024-10-11 20:27:59.713,0.8548608,0.77815264,1.1285568,0.9793046,0.37920317,0.34226662,0.6264364,0.4044963,0.61294806,0.19976148,0.19202992,0.6579509,0.62035483,-0.18937843,0.14098144,0.4000851,-0.0077280127,-0.542369,-0.2385276,0.024642907,790.54944,793.36993,805.8608,799.81683,799.011,0.07049560546875,0.06787109375,1.0020751953125,-0.04486083984375,1.099090576171875,-0.620574951171875,1,1.0,1.0,1.0,1.0,10.00
2024-10-11 20:27:59.714,0.8548608,0.77815264,1.1285568,0.9793046,0.37920317,0.34226662,0.6264364,0.4044963,0.61294806,0.19976148,0.19202992,0.6579509,0.62035483,-0.18937843,0.14098144,0.4000851,-0.0077280127,-0.542369,-0.2385276,0.024642907,788.5348,790.54944,802.23444,794.17584,859.45056,0.07049560546875,0.06787109375,1.0020751953125,-0.04486083984375,1.099090576171875,-0.620574951171875,1,1.0,1.0,1.0,1.0,10.00
2024-10-11 20:27:59.715,0.8548608,0.77815264,1.1285568,0.9793046,0.37920317,0.34226662,0.6264364,0.4044963,0.61294806,0.19976148,0.19202992,0.6579509,0.62035483,-0.18937843,0.14098144,0.4000851,-0.0077280127,-0.542369,-0.2385276,0.024642907,792.5641,791.75824,789.7436,798.60803,731.7216,0.07049560546875,0.06787109375,1.0020751953125,-0.04486083984375,1.099090576171875,-0.620574951171875,1,1.0,1.0,1.0,1.0,10.00
2024-10-11 20:27:59.715,0.8548608,0.77815264,1.1285568,0.9793046,0.37920317,0.34226662,0.6264364,0.4044963,0.61294806,0.19976148,0.19202992,0.6579509,0.62035483,-0.18937843,0.14098144,0.4000851,-0.0077280127,-0.542369,-0.2385276,0.024642907,791.3553,793.36993,790.9524,803.44324,815.5311,0.07049560546875,0.06787109375,1.0020751953125,-0.04486083984375,1.099090576171875,-0.620574951171875,1,1.0,1.0,1.0,1.0,10.00
2024-10-11 20:27:59.716,0.8548608,0.77815264,1.1285568,0.9793046,0.37920317,0.34226662,0.6264364,0.4044963,0.61294806,0.19976148,0.19202992,0.6579509,0.62035483,-0.18937843,0.14098144,0.4000851,-0.0077280127,-0.542369,-0.2385276,0.024642907,794.17584,793.7729,802.6374,805.4579,981.9414,0.07049560546875,0.06787109375,1.0020751953125,-0.04486083984375,1.099090576171875,-0.620574951171875,1,1.0,1.0,1.0,1.0,10.00
2024-10-11 20:27:59.716,0.8548608,0.77815264,1.1285568,0.9793046,0.37920317,0.34226662,0.6264364,0.4044963,0.61294806,0.19976148,0.19202992,0.6579509,0.62035483,-0.18937843,0.14098144,0.4000851,-0.0077280127,-0.542369,-0.2385276,0.024642907,800.2198,799.011,800.6227,807.0696,703.91943,0.07049560546875,0.06787109375,1.0020751953125,-0.04486083984375,1.099090576171875,-0.620574951171875,1,1.0,1.0,1.0,1.0,10.00
2024-10-11 20:27:59.717,0.8548608,0.77815264,1.1285568,0.9793046,0.37920317,0.34226662,0.6264364,0.4044963,0.61294806,0.19976148,0.19202992,0.6579509,0.62035483,-0.18937843,0.14098144,0.4000851,-0.0077280127,-0.542369,-0.2385276,0.024642907,802.23444,797.8022,799.81683,805.4579,591.9048,0.07049560546875,0.06787109375,1.0020751953125,-0.04486083984375,1.099090576171875,-0.620574951171875,1,1.0,1.0,1.0,1.0,10.00
2024-10-11 20:27:59.740,0.8548608,0.77815264,1.1285568,0.9793046,0.37920317,0.34226662,0.6264364,0.4044963,0.61294806,0.19976148,0.19202992,0.6579509,0.62035483,-0.18937843,0.14098144,0.4000851,-0.0077280127,-0.542369,-0.2385276,0.024642907,807.8755,795.38464,801.02563,808.2784,801.02563,0.07049560546875,0.06787109375,1.0020751953125,-0.04486083984375,1.099090576171875,-0.620574951171875,1,1.0,1.0,1.0,1.0,10.00
2024-10-11 20:27:59.741,0.8548608,0.77815264,1.1285568,0.9793046,0.37920317,0.34226662,0.6264364,0.4044963,0.61294806,0.19976148,0.19202992,0.6579509,0.62035483,-0.18937843,0.14098144,0.4000851,-0.0077280127,-0.542369,-0.2385276,0.024642907,808.68134,795.38464,802.6374,804.65204,811.9048,0.07049560546875,0.06787109375,1.0020751953125,-0.04486083984375,1.099090576171875,-0.620574951171875,1,1.0,1.0,1.0,1.0,10.00
2024-10-11 20:27:59.742,0.8548608,0.77815264,1.1285568,0.9793046,0.37920317,0.34226662,0.6264364,0.4044963,0.61294806,0.19976148,0.19202992,0.6579509,0.62035483,-0.18937843,0.14098144,0.4000851,-0.0077280127,-0.542369,-0.2385276,0.024642907,806.26373,794.9817,802.6374,798.60803,637.4359,0.07049560546875,0.06787109375,1.0020751953125,-0.04486083984375,1.099090576171875,-0.620574951171875,1,1.0,1.0,1.0,1.0,10.00
2024-10-11 20:27:59.743,0.8548608,0.77815264,1.1285568,0.9793046,0.37920317,0.34226662,0.6264364,0.4044963,0.61294806,0.19976148,0.19202992,0.6579509,0.62035483,-0.18937843,0.14098144,0.4000851,-0.0077280127,-0.542369,-0.2385276,0.024642907,803.44324,794.17584,799.011,795.78754,729.304,0.07049560546875,0.06787109375,1.0020751953125,-0.04486083984375,1.099090576171875,-0.620574951171875,1,1.0,1.0,1.0,1.0,10.00
2024-10-11 20:27:59.743,0.8548608,0.77815264,1.1285568,0.9793046,0.37920317,0.34226662,0.6264364,0.4044963,0.61294806,0.19976148,0.19202992,0.6579509,0.62035483,-0.18937843,0.14098144,0.4000851,-0.0077280127,-0.542369,-0.2385276,0.024642907,805.05493,794.9817,793.7729,801.8315,934.7985,0.07049560546875,0.06787109375,1.0020751953125,-0.04486083984375,1.099090576171875,-0.620574951171875,1,1.0,1.0,1.0,1.0,10.00
2024-10-11 20:27:59.744,0.8548608,0.77815264,1.1285568,0.9793046,0.37920317,0.34226662,0.6264364,0.4044963,0.61294806,0.19976148,0.19202992,0.6579509,0.62035483,-0.18937843,0.14098144,0.4000851,-0.0077280127,-0.542369,-0.2385276,0.024642907,803.8461,798.20514,799.41394,805.05493,896.9231,0.07049560546875,0.06787109375,1.0020751953125,-0.04486083984375,1.099090576171875,-0.620574951171875,1,1.0,1.0,1.0,1.0,10.00
2024-10-11 20:27:59.744,0.8548608,0.77815264,1.1285568,0.9793046,0.37920317,0.34226662,0.6264364,0.4044963,0.61294806,0.19976148,0.19202992,0.6579509,0.62035483,-0.18937843,0.14098144,0.4000851,-0.0077280127,-0.542369,-0.2385276,0.024642907,796.1905,797.3993,809.0842,794.9817,813.1135,0.07049560546875,0.06787109375,1.0020751953125,-0.04486083984375,1.099090576171875,-0.620574951171875,1,1.0,1.0,1.0,1.0,10.00
2024-10-11 20:27:59.745,0.8548608,0.77815264,1.1285568,0.9793046,0.37920317,0.34226662,0.6264364,0.4044963,0.61294806,0.19976148,0.19202992,0.6579509,0.62035483,-0.18937843,0.14098144,0.4000851,-0.0077280127,-0.542369,-0.2385276,0.024642907,794.9817,795.38464,806.6667,797.3993,886.8498,0.07049560546875,0.06787109375,1.0020751953125,-0.04486083984375,1.099090576171875,-0.620574951171875,1,1.0,1.0,1.0,1.0,10.00
2024-10-11 20:27:59.745,0.8548608,0.77815264,1.1285568,0.9793046,0.37920317,0.34226662,0.6264364,0.4044963,0.61294806,0.19976148,0.19202992,0.6579509,0.62035483,-0.18937843,0.14098144,0.4000851,-0.0077280127,-0.542369,-0.2385276,0.024642907,797.8022,796.5934,797.3993,803.0403,1057.2894,0.07049560546875,0.06787109375,1.0020751953125,-0.04486083984375,1.099090576171875,-0.620574951171875,1,1.0,1.0,1.0,1.0,10.00
2024-10-11 20:27:59.746,0.8548608,0.77815264,1.1285568,0.9793046,0.37920317,0.34226662,0.6264364,0.4044963,0.61294806,0.19976148,0.19202992,0.6579509,0.62035483,-0.18937843,0.14098144,0.4000851,-0.0077280127,-0.542369,-0.2385276,0.024642907,805.05493,799.41394,797.8022,797.8022,861.06226,0.07049560546875,0.06787109375,1.0020751953125,-0.04486083984375,1.099090576171875,-0.620574951171875,1,1.0,1.0,1.0,1.0,10.00
2024-10-11 20:27:59.747,0.8548608,0.77815264,1.1285568,0.9793046,0.37920317,0.34226662,0.6264364,0.4044963,0.61294806,0.19976148,0.19202992,0.6579509,0.62035483,-0.18937843,0.14098144,0.4000851,-0.0077280127,-0.542369,-0.2385276,0.024642907,809.89014,800.6227,803.0403,792.1612,713.1868,0.07049560546875,0.06787109375,1.0020751953125,-0.04486083984375,1.099090576171875,-0.620574951171875,1,1.0,1.0,1.0,1.0,10.00
