TimeStamp,Delta_TP9,Delta_AF7,Delta_AF8,Delta_TP10,Theta_TP9,Theta_AF7,Theta_AF8,Theta_TP10,Alpha_TP9,Alpha_AF7,Alpha_AF8,Alpha_TP10,Beta_TP9,Beta_AF7,Beta_AF8,Beta_TP10,Gamma_TP9,Gamma_AF7,Gamma_AF8,Gamma_TP10,RAW_TP9,RAW_AF7,RAW_AF8,RAW_TP10,AUX_RIGHT,Accelerometer_X,Accelerometer_Y,Accelerometer_Z,Gyro_X,Gyro_Y,Gyro_Z,HeadBandOn,HSI_TP9,HSI_AF7,HSI_AF8,HSI_TP10,Battery,Elements
2024-10-11 20:18:11.480,0.9620531,0.33787107,0.53048825,0.99010503,0.9151934,0.14168176,0.22242211,0.791182,1.3636627,0.25935924,0.44910458,0.9806771,0.7949813,0.07111196,-0.14858463,0.7186129,0.26402152,-0.1933396,-0.5176508,0.0452896,799.81683,793.36993,800.2198,811.9048,925.12823,0.1728515625,0.14227294921875,0.98065185546875,-0.171966552734375,1.009368896484375,0.471038818359375,1,1.0,1.0,1.0,1.0,10.00
2024-10-11 20:18:11.481,0.9620531,0.33787107,0.53048825,0.99010503,0.9151934,0.14168176,0.22242211,0.791182,1.3636627,0.25935924,0.44910458,0.9806771,0.7949813,0.07111196,-0.14858463,0.7186129,0.26402152,-0.1933396,-0.5176508,0.0452896,800.2198,791.3553,799.41394,803.0403,678.1319,0.1728515625,0.14227294921875,0.98065185546875,-0.171966552734375,1.009368896484375,0.471038818359375,1,1.0,1.0,1.0,1.0,10.00
2024-10-11 20:18:11.483,0.9620531,0.33787107,0.53048825,0.99010503,0.9151934,0.14168176,0.22242211,0.791182,1.3636627,0.25935924,0.44910458,0.9806771,0.7949813,0.07111196,-0.14858463,0.7186129,0.26402152,-0.1933396,-0.5176508,0.0452896,803.8461,794.17584,794.17584,798.60803,575.78754,0.1728515625,0.14227294921875,0.98065185546875,-0.171966552734375,1.009368896484375,0.471038818359375,1,1.0,1.0,1.0,1.0,10.00
2024-10-11 20:18:11.484,0.9620531,0.33787107,0.53048825,0.99010503,0.9151934,0.14168176,0.22242211,0.791182,1.3636627,0.25935924,0.44910458,0.9806771,0.7949813,0.07111196,-0.14858463,0.7186129,0.26402152,-0.1933396,-0.5176508,0.0452896,800.2198,803.0403,796.5934,799.41394,718.4249,0.1728515625,0.14227294921875,0.98065185546875,-0.171966552734375,1.009368896484375,0.471038818359375,1,1.0,1.0,1.0,1.0,10.00
2024-10-11 20:18:11.485,0.9620531,0.33787107,0.53048825,0.99010503,0.9151934,0.14168176,0.22242211,0.791182,1.3636627,0.25935924,0.44910458,0.9806771,0.7949813,0.07111196,-0.14858463,0.7186129,0.26402152,-0.1933396,-0.5176508,0.0452896,801.4286,800.6227,802.6374,804.2491,804.65204,0.1728515625,0.14227294921875,0.98065185546875,-0.171966552734375,1.009368896484375,0.471038818359375,1,1.0,1.0,1.0,1.0,10.00
2024-10-11 20:18:11.486,0.9620531,0.33787107,0.53048825,0.99010503,0.9151934,0.14168176,0.22242211,0.791182,1.3636627,0.25935924,0.44910458,0.9806771,0.7949813,0.07111196,-0.14858463,0.7186129,0.26402152,-0.1933396,-0.5176508,0.0452896,806.26373,792.96704,794.9817,805.4579,767.98535,0.1728515625,0.14227294921875,0.98065185546875,-0.171966552734375,1.009368896484375,0.471038818359375,1,1.0,1.0,1.0,1.0,10.00
2024-10-11 20:18:11.486,0.9620531,0.33787107,0.53048825,0.99010503,0.9151934,0.14168176,0.22242211,0.791182,1.3636627,0.25935924,0.44910458,0.9806771,0.7949813,0.07111196,-0.14858463,0.7186129,0.26402152,-0.1933396,-0.5176508,0.0452896,804.65204,796.1905,794.57874,803.44324,764.7619,0.1728515625,0.14227294921875,0.98065185546875,-0.171966552734375,1.009368896484375,0.471038818359375,1,1.0,1.0,1.0,1.0,10.00
2024-10-11 20:18:11.487,0.9620531,0.33787107,0.53048825,0.99010503,0.9151934,0.14168176,0.22242211,0.791182,1.3636627,0.25935924,0.44910458,0.9806771,0.7949813,0.07111196,-0.14858463,0.7186129,0.26402152,-0.1933396,-0.5176508,0.0452896,803.44324,799.81683,798.20514,808.2784,1108.0586,0.1728515625,0.14227294921875,0.98065185546875,-0.171966552734375,1.009368896484375,0.471038818359375,1,1.0,1.0,1.0,1.0,10.00
2024-10-11 20:18:11.488,0.9620531,0.33787107,0.53048825,0.99010503,0.9151934,0.14168176,0.22242211,0.791182,1.3636627,0.25935924,0.44910458,0.9806771,0.7949813,0.07111196,-0.14858463,0.7186129,0.26402152,-0.1933396,-0.5176508,0.0452896,806.6667,797.8022,802.6374,813.1135,1265.2014,0.1728515625,0.14227294921875,0.98065185546875,-0.171966552734375,1.009368896484375,0.471038818359375,1,1.0,1.0,1.0,1.0,10.00
2024-10-11 20:18:11.488,0.9620531,0.33787107,0.53048825,0.99010503,0.9151934,0.14168176,0.22242211,0.791182,1.3636627,0.25935924,0.44910458,0.9806771,0.7949813,0.07111196,-0.14858463,0.7186129,0.26402152,-0.1933396,-0.5176508,0.0452896,807.8755,799.41394,806.6667,810.696,806.26373,0.1728515625,0.14227294921875,0.98065185546875,-0.171966552734375,1.009368896484375,0.471038818359375,1,1.0,1.0,1.0,1.0,10.00
2024-10-11 20:18:11.489,0.9620531,0.33787107,0.53048825,0.99010503,0.9151934,0.14168176,0.22242211,0.791182,1.3636627,0.25935924,0.44910458,0.9806771,0.7949813,0.07111196,-0.14858463,0.7186129,0.26402152,-0.1933396,-0.5176508,0.0452896,808.2784,798.60803,802.6374,805.4579,644.2857,0.1728515625,0.14227294921875,0.98065185546875,-0.171966552734375,1.009368896484375,0.471038818359375,1,1.0,1.0,1.0,1.0,10.00
2024-10-11 20:18:11.490,0.9620531,0.33787107,0.53048825,0.99010503,0.9151934,0.14168176,0.22242211,0.791182,1.3636627,0.25935924,0.44910458,0.9806771,0.7949813,0.07111196,-0.14858463,0.7186129,0.26402152,-0.1933396,-0.5176508,0.0452896,811.9048,794.57874,798.20514,804.2491,622.52747,0.1728515625,0.14227294921875,0.98065185546875,-0.171966552734375,1.009368896484375,0.471038818359375,1,1.0,1.0,1.0,1.0,10.00
2024-10-11 20:18:11.527,0.9620531,0.33787107,0.53048825,0.99010503,0.9151934,0.14168176,0.22242211,0.791182,1.3636627,0.25935924,0.44910458,0.9806771,0.7949813,0.07111196,-0.14858463,0.7186129,0.26402152,-0.1933396,-0.5176508,0.0452896,817.1429,793.36993,795.38464,807.8755,663.6264,0.17718505859375,0.1368408203125,0.98193359375,-0.142059326171875,0.306549072265625,1.024322509765625,1,1.0,1.0,1.0,1.0,10.00
2024-10-11 20:18:11.528,0.9620531,0.33787107,0.53048825,0.99010503,0.9151934,0.14168176,0.22242211,0.791182,1.3636627,0.25935924,0.44910458,0.9806771,0.7949813,0.07111196,-0.14858463,0.7186129,0.26402152,-0.1933396,-0.5176508,0.0452896,816.7399,797.3993,796.5934,809.0842,666.8498,0.17718505859375,0.1368408203125,0.98193359375,-0.142059326171875,0.306549072265625,1.024322509765625,1,1.0,1.0,1.0,1.0,10.00
2024-10-11 20:18:11.529,0.9620531,0.33787107,0.53048825,0.99010503,0.9151934,0.14168176,0.22242211,0.791182,1.3636627,0.25935924,0.44910458,0.9806771,0.7949813,0.07111196,-0.14858463,0.7186129,0.26402152,-0.1933396,-0.5176508,0.0452896,820.3663,788.93774,799.011,806.26373,660.0,0.17718505859375,0.1368408203125,0.98193359375,-0.142059326171875,0.306549072265625,1.024322509765625,1,1.0,1.0,1.0,1.0,10.00
2024-10-11 20:18:11.529,0.9620531,0.33787107,0.53048825,0.99010503,0.9151934,0.14168176,0.22242211,0.791182,1.3636627,0.25935924,0.44910458,0.9806771,0.7949813,0.07111196,-0.14858463,0.7186129,0.26402152,-0.1933396,-0.5176508,0.0452896,818.7546,784.5055,797.3993,805.4579,659.19415,0.17718505859375,0.1368408203125,0.98193359375,-0.142059326171875,0.306549072265625,1.024322509765625,1,1.0,1.0,1.0,1.0,10.00
2024-10-11 20:18:11.530,0.9620531,0.33787107,0.53048825,0.99010503,0.9151934,0.14168176,0.22242211,0.791182,1.3636627,0.25935924,0.44910458,0.9806771,0.7949813,0.07111196,-0.14858463,0.7186129,0.26402152,-0.1933396,-0.5176508,0.0452896,811.9048,796.5934,796.5934,807.8755,683.36993,0.17718505859375,0.1368408203125,0.98193359375,-0.142059326171875,0.306549072265625,1.024322509765625,1,1.0,1.0,1.0,1.0,10.00
2024-10-11 20:18:11.530,0.9620531,0.33787107,0.53048825,0.99010503,0.9151934,0.14168176,0.22242211,0.791182,1.3636627,0.25935924,0.44910458,0.9806771,0.7949813,0.07111196,-0.14858463,0.7186129,0.26402152,-0.1933396,-0.5176508,0.0452896,808.68134,798.60803,796.1905,805.05493,813.5165,0.17718505859375,0.1368408203125,0.98193359375,-0.142059326171875,0.306549072265625,1.024322509765625,1,1.0,1.0,1.0,1.0,10.00
2024-10-11 20:18:11.531,0.9620531,0.33787107,0.53048825,0.99010503,0.9151934,0.14168176,0.22242211,0.791182,1.3636627,0.25935924,0.44910458,0.9806771,0.7949813,0.07111196,-0.14858463,0.7186129,0.26402152,-0.1933396,-0.5176508,0.0452896,801.4286,790.54944,796.1905,810.696,969.0476,0.17718505859375,0.1368408203125,0.98193359375,-0.142059326171875,0.306549072265625,1.024322509765625,1,1.0,1.0,1.0,1.0,10.00
2024-10-11 20:18:11.531,0.9620531,0.33787107,0.53048825,0.99010503,0.9151934,0.14168176,0.22242211,0.791182,1.3636627,0.25935924,0.44910458,0.9806771,0.7949813,0.07111196,-0.14858463,0.7186129,0.26402152,-0.1933396,-0.5176508,0.0452896,794.9817,793.7729,794.9817,816.337,900.9524,0.17718505859375,0.1368408203125,0.98193359375,-0.142059326171875,0.306549072265625,1.024322509765625,1,1.0,1.0,1.0,1.0,10.00
2024-10-11 20:18:11.532,0.9620531,0.33787107,0.53048825,0.99010503,0.9151934,0.14168176,0.22242211,0.791182,1.3636627,0.25935924,0.44910458,0.9806771,0.7949813,0.07111196,-0.14858463,0.7186129,0.26402152,-0.1933396,-0.5176508,0.0452896,801.4286,800.6227,795.38464,808.68134,775.2381,0.17718505859375,0.1368408203125,0.98193359375,-0.142059326171875,0.306549072265625,1.024322509765625,1,1.0,1.0,1.0,1.0,10.00
2024-10-11 20:18:11.532,0.9620531,0.33787107,0.53048825,0.99010503,0.9151934,0.14168176,0.22242211,0.791182,1.3636627,0.25935924,0.44910458,0.9806771,0.7949813,0.07111196,-0.14858463,0.7186129,0.26402152,-0.1933396,-0.5176508,0.0452896,805.4579,795.78754,798.20514,806.6667,788.93774,0.17718505859375,0.1368408203125,0.98193359375,-0.142059326171875,0.306549072265625,1.024322509765625,1,1.0,1.0,1.0,1.0,10.00
2024-10-11 20:18:11.533,0.9620531,0.33787107,0.53048825,0.99010503,0.9151934,0.14168176,0.22242211,0.791182,1.3636627,0.25935924,0.44910458,0.9806771,0.7949813,0.07111196,-0.14858463,0.7186129,0.26402152,-0.1933396,-0.5176508,0.0452896,806.26373,791.75824,790.9524,813.1135,871.13556,0.17718505859375,0.1368408203125,0.98193359375,-0.142059326171875,0.306549072265625,1.024322509765625,1,1.0,1.0,1.0,1.0,10.00
2024-10-11 20:18:11.534,0.9620531,0.33787107,0.53048825,0.99010503,0.9151934,0.14168176,0.22242211,0.791182,1.3636627,0.25935924,0.44910458,0.9806771,0.7949813,0.07111196,-0.14858463,0.7186129,0.26402152,-0.1933396,-0.5176508,0.0452896,800.6227,790.14655,786.9231,813.5165,1104.0293,0.17718505859375,0.1368408203125,0.98193359375,-0.142059326171875,0.306549072265625,1.024322509765625,1,1.0,1.0,1.0,1.0,10.00
2024-10-11 20:18:11.586,0.9620531,0.33787107,0.53048825,0.99010503,0.9151934,0.14168176,0.22242211,0.791182,1.3636627,0.25935924,0.44910458,0.9806771,0.7949813,0.07111196,-0.14858463,0.7186129,0.26402152,-0.1933396,-0.5176508,0.0452896,796.99634,794.57874,790.9524,807.47253,837.28937,0.1763916015625,0.136962890625,0.98297119140625,-0.515899658203125,1.1962890625,1.07666015625,1,1.0,1.0,1.0,1.0,10.00
2024-10-11 20:18:11.586,0.9501293,0.36732873,0.5754616,0.9603333,0.901754,0.17562863,0.21029091,0.7595628,1.3636627,0.3106854,0.44910458,0.9806771,0.78406316,0.07314003,-0.13937013,0.70325017,0.26327214,-0.18880595,-0.51342094,0.050469294,799.81683,792.96704,797.8022,808.2784,722.0513,0.1763916015625,0.136962890625,0.98297119140625,-0.515899658203125,1.1962890625,1.07666015625,1,1.0,1.0,1.0,1.0,10.00
2024-10-11 20:18:11.591,0.9501293,0.36732873,0.5754616,0.9603333,0.901754,0.17562863,0.21029091,0.7595628,1.3636627,0.3106854,0.44910458,0.9806771,0.78406316,0.07314003,-0.13937013,0.70325017,0.26327214,-0.18880595,-0.51342094,0.050469294,801.8315,790.54944,809.0842,807.47253,765.56775,0.1763916015625,0.136962890625,0.98297119140625,-0.515899658203125,1.1962890625,1.07666015625,1,1.0,1.0,1.0,1.0,10.00
2024-10-11 20:18:11.591,0.9501293,0.36732873,0.5754616,0.9603333,0.901754,0.17562863,0.21029091,0.7595628,1.3636627,0.3106854,0.44910458,0.9806771,0.78406316,0.07314003,-0.13937013,0.70325017,0.26327214,-0.18880595,-0.51342094,0.050469294,809.0842,796.5934,809.89014,807.47253,632.1978,0.1763916015625,0.136962890625,0.98297119140625,-0.515899658203125,1.1962890625,1.07666015625,1,1.0,1.0,1.0,1.0,10.00
2024-10-11 20:18:11.592,0.9501293,0.36732873,0.5754616,0.9603333,0.901754,0.17562863,0.21029091,0.7595628,1.3636627,0.3106854,0.44910458,0.9806771,0.78406316,0.07314003,-0.13937013,0.70325017,0.26327214,-0.18880595,-0.51342094,0.050469294,809.89014,801.02563,805.8608,803.8461,562.8938,0.1763916015625,0.136962890625,0.98297119140625,-0.515899658203125,1.1962890625,1.07666015625,1,1.0,1.0,1.0,1.0,10.00
2024-10-11 20:18:11.592,0.9501293,0.36732873,0.5754616,0.9603333,0.901754,0.17562863,0.21029091,0.7595628,1.3636627,0.3106854,0.44910458,0.9806771,0.78406316,0.07314003,-0.13937013,0.70325017,0.26327214,-0.18880595,-0.51342094,0.050469294,802.6374,801.4286,799.41394,805.8608,747.03296,0.1763916015625,0.136962890625,0.98297119140625,-0.515899658203125,1.1962890625,1.07666015625,1,1.0,1.0,1.0,1.0,10.00
2024-10-11 20:18:11.593,0.9501293,0.36732873,0.5754616,0.9603333,0.901754,0.17562863,0.21029091,0.7595628,1.3636627,0.3106854,0.44910458,0.9806771,0.78406316,0.07314003,-0.13937013,0.70325017,0.26327214,-0.18880595,-0.51342094,0.050469294,808.68134,793.7729,798.20514,813.1135,956.9597,0.1763916015625,0.136962890625,0.98297119140625,-0.515899658203125,1.1962890625,1.07666015625,1,1.0,1.0,1.0,1.0,10.00
2024-10-11 20:18:11.594,0.9501293,0.36732873,0.5754616,0.9603333,0.901754,0.17562863,0.21029091,0.7595628,1.3636627,0.3106854,0.44910458,0.9806771,0.78406316,0.07314003,-0.13937013,0.70325017,0.26327214,-0.18880595,-0.51342094,0.050469294,808.2784,791.3553,803.44324,802.6374,747.03296,0.1763916015625,0.136962890625,0.98297119140625,-0.515899658203125,1.1962890625,1.07666015625,1,1.0,1.0,1.0,1.0,10.00
2024-10-11 20:18:11.595,0.9501293,0.36732873,0.5754616,0.9603333,0.901754,0.17562863,0.21029091,0.7595628,1.3636627,0.3106854,0.44910458,0.9806771,0.78406316,0.07314003,-0.13937013,0.70325017,0.26327214,-0.18880595,-0.51342094,0.050469294,799.81683,794.9817,801.8315,794.9817,577.8022,0.1763916015625,0.136962890625,0.98297119140625,-0.515899658203125,1.1962890625,1.07666015625,1,1.0,1.0,1.0,1.0,10.00
2024-10-11 20:18:11.595,0.9501293,0.36732873,0.5754616,0.9603333,0.901754,0.17562863,0.21029091,0.7595628,1.3636627,0.3106854,0.44910458,0.9806771,0.78406316,0.07314003,-0.13937013,0.70325017,0.26327214,-0.18880595,-0.51342094,0.050469294,803.0403,796.99634,791.3553,800.6227,649.5238,0.1763916015625,0.136962890625,0.98297119140625,-0.515899658203125,1.1962890625,1.07666015625,1,1.0,1.0,1.0,1.0,10.00
2024-10-11 20:18:11.596,0.9501293,0.36732873,0.5754616,0.9603333,0.901754,0.17562863,0.21029091,0.7595628,1.3636627,0.3106854,0.44910458,0.9806771,0.78406316,0.07314003,-0.13937013,0.70325017,0.26327214,-0.18880595,-0.51342094,0.050469294,806.6667,801.4286,794.17584,807.8755,995.64105,0.1763916015625,0.136962890625,0.98297119140625,-0.515899658203125,1.1962890625,1.07666015625,1,1.0,1.0,1.0,1.0,10.00
2024-10-11 20:18:11.596,0.9501293,0.36732873,0.5754616,0.9603333,0.901754,0.17562863,0.21029091,0.7595628,1.3636627,0.3106854,0.44910458,0.9806771,0.78406316,0.07314003,-0.13937013,0.70325017,0.26327214,-0.18880595,-0.51342094,0.050469294,809.4872,803.44324,803.44324,811.0989,1190.6593,0.1763916015625,0.136962890625,0.98297119140625,-0.515899658203125,1.1962890625,1.07666015625,1,1.0,1.0,1.0,1.0,10.00
2024-10-11 20:18:11.618,0.9501293,0.36732873,0.5754616,0.9603333,0.901754,0.17562863,0.21029091,0.7595628,1.3636627,0.3106854,0.44910458,0.9806771,0.78406316,0.07314003,-0.13937013,0.70325017,0.26327214,-0.18880595,-0.51342094,0.050469294,809.0842,797.8022,803.8461,801.4286,859.85345,0.18084716796875,0.13671875,0.98382568359375,-0.299072265625,2.28790283203125,1.622467041015625,1,1.0,1.0,1.0,1.0,10.00
2024-10-11 20:18:11.619,0.9501293,0.36732873,0.5754616,0.9603333,0.901754,0.17562863,0.21029091,0.7595628,1.3636627,0.3106854,0.44910458,0.9806771,0.78406316,0.07314003,-0.13937013,0.70325017,0.26327214,-0.18880595,-0.51342094,0.050469294,808.2784,797.3993,800.2198,796.5934,681.3553,0.18084716796875,0.13671875,0.98382568359375,-0.299072265625,2.28790283203125,1.622467041015625,1,1.0,1.0,1.0,1.0,10.00
2024-10-11 20:18:11.620,0.9501293,0.36732873,0.5754616,0.9603333,0.901754,0.17562863,0.21029091,0.7595628,1.3636627,0.3106854,0.44910458,0.9806771,0.78406316,0.07314003,-0.13937013,0.70325017,0.26327214,-0.18880595,-0.51342094,0.050469294,813.91943,802.23444,798.60803,803.8461,854.61536,0.18084716796875,0.13671875,0.98382568359375,-0.299072265625,2.28790283203125,1.622467041015625,1,1.0,1.0,1.0,1.0,10.00
2024-10-11 20:18:11.621,0.9501293,0.36732873,0.5754616,0.9603333,0.901754,0.17562863,0.21029091,0.7595628,1.3636627,0.3106854,0.44910458,0.9806771,0.78406316,0.07314003,-0.13937013,0.70325017,0.26327214,-0.18880595,-0.51342094,0.050469294,818.7546,799.81683,797.3993,805.05493,843.3333,0.18084716796875,0.13671875,0.98382568359375,-0.299072265625,2.28790283203125,1.622467041015625,1,1.0,1.0,1.0,1.0,10.00
2024-10-11 20:18:11.622,0.9501293,0.36732873,0.5754616,0.9603333,0.901754,0.17562863,0.21029091,0.7595628,1.3636627,0.3106854,0.44910458,0.9806771,0.78406316,0.07314003,-0.13937013,0.70325017,0.26327214,-0.18880595,-0.51342094,0.050469294,814.7253,797.3993,797.8022,798.60803,585.05493,0.18084716796875,0.13671875,0.98382568359375,-0.299072265625,2.28790283203125,1.622467041015625,1,1.0,1.0,1.0,1.0,10.00
2024-10-11 20:18:11.622,0.9501293,0.36732873,0.5754616,0.9603333,0.901754,0.17562863,0.21029091,0.7595628,1.3636627,0.3106854,0.44910458,0.9806771,0.78406316,0.07314003,-0.13937013,0.70325017,0.26327214,-0.18880595,-0.51342094,0.050469294,812.3077,798.20514,798.60803,801.4286,731.31866,0.18084716796875,0.13671875,0.98382568359375,-0.299072265625,2.28790283203125,1.622467041015625,1,1.0,1.0,1.0,1.0,10.00
2024-10-11 20:18:11.623,0.9501293,0.36732873,0.5754616,0.9603333,0.901754,0.17562863,0.21029091,0.7595628,1.3636627,0.3106854,0.44910458,0.9806771,0.78406316,0.07314003,-0.13937013,0.70325017,0.26327214,-0.18880595,-0.51342094,0.050469294,815.12823,799.41394,787.326,808.68134,1048.022,0.18084716796875,0.13671875,0.98382568359375,-0.299072265625,2.28790283203125,1.622467041015625,1,1.0,1.0,1.0,1.0,10.00
2024-10-11 20:18:11.624,0.9501293,0.36732873,0.5754616,0.9603333,0.901754,0.17562863,0.21029091,0.7595628,1.3636627,0.3106854,0.44910458,0.9806771,0.78406316,0.07314003,-0.13937013,0.70325017,0.26327214,-0.18880595,-0.51342094,0.050469294,811.50183,795.38464,785.7143,798.60803,872.3443,0.18084716796875,0.13671875,0.98382568359375,-0.299072265625,2.28790283203125,1.622467041015625,1,1.0,1.0,1.0,1.0,10.00
2024-10-11 20:18:11.624,0.9501293,0.36732873,0.5754616,0.9603333,0.901754,0.17562863,0.21029091,0.7595628,1.3636627,0.3106854,0.44910458,0.9806771,0.78406316,0.07314003,-0.13937013,0.70325017,0.26327214,-0.18880595,-0.51342094,0.050469294,807.47253,787.326,799.011,791.75824,657.98535,0.18084716796875,0.13671875,0.98382568359375,-0.299072265625,2.28790283203125,1.622467041015625,1,1.0,1.0,1.0,1.0,10.00
2024-10-11 20:18:11.625,0.9501293,0.36732873,0.5754616,0.9603333,0.901754,0.17562863,0.21029091,0.7595628,1.3636627,0.3106854,0.44910458,0.9806771,0.78406316,0.07314003,-0.13937013,0.70325017,0.26327214,-0.18880595,-0.51342094,0.050469294,814.3223,785.7143,807.0696,800.6227,753.8828,0.18084716796875,0.13671875,0.98382568359375,-0.299072265625,2.28790283203125,1.622467041015625,1,1.0,1.0,1.0,1.0,10.00
2024-10-11 20:18:11.625,0.9501293,0.36732873,0.5754616,0.9603333,0.901754,0.17562863,0.21029091,0.7595628,1.3636627,0.3106854,0.44910458,0.9806771,0.78406316,0.07314003,-0.13937013,0.70325017,0.26327214,-0.18880595,-0.51342094,0.050469294,808.68134,791.75824,809.4872,806.6667,937.2161,0.18084716796875,0.13671875,0.98382568359375,-0.299072265625,2.28790283203125,1.622467041015625,1,1.0,1.0,1.0,1.0,10.00
2024-10-11 20:18:11.626,0.9501293,0.36732873,0.5754616,0.9603333,0.901754,0.17562863,0.21029091,0.7595628,1.3636627,0.3106854,0.44910458,0.9806771,0.78406316,0.07314003,-0.13937013,0.70325017,0.26327214,-0.18880595,-0.51342094,0.050469294,799.41394,788.1319,801.02563,801.8315,875.16486,0.18084716796875,0.13671875,0.98382568359375,-0.299072265625,2.28790283203125,1.622467041015625,1,1.0,1.0,1.0,1.0,10.00
2024-10-11 20:18:11.719,0.9501293,0.36732873,0.5754616,0.9603333,0.901754,0.17562863,0.21029091,0.7595628,1.3636627,0.3106854,0.44910458,0.9806771,0.78406316,0.07314003,-0.13937013,0.70325017,0.26327214,-0.18880595,-0.51342094,0.050469294,790.9524,781.28204,794.9817,797.8022,709.15753,0.216064453125,0.1473388671875,0.99749755859375,-1.5252685546875,8.605804443359375,4.059906005859375,1,1.0,1.0,1.0,1.0,10.00
2024-10-11 20:18:11.720,0.9501293,0.36732873,0.5754616,0.9603333,0.901754,0.17562863,0.21029091,0.7595628,1.3636627,0.3106854,0.44910458,0.9806771,0.78406316,0.07314003,-0.13937013,0.70325017,0.26327214,-0.18880595,-0.51342094,0.050469294,793.36993,788.93774,790.14655,803.8461,842.9304,0.216064453125,0.1473388671875,0.99749755859375,-1.5252685546875,8.605804443359375,4.059906005859375,1,1.0,1.0,1.0,1.0,10.00
2024-10-11 20:18:11.720,0.9501293,0.36732873,0.5754616,0.9603333,0.901754,0.17562863,0.21029091,0.7595628,1.3636627,0.3106854,0.44910458,0.9806771,0.78406316,0.07314003,-0.13937013,0.70325017,0.26327214,-0.18880595,-0.51342094,0.050469294,816.337,797.8022,795.38464,830.0366,1109.6703,0.216064453125,0.1473388671875,0.99749755859375,-1.5252685546875,8.605804443359375,4.059906005859375,1,1.0,1.0,1.0,1.0,10.00
2024-10-11 20:18:11.721,0.93687904,0.3900011,0.62078744,0.9291772,0.88910276,0.21898805,0.1713216,0.7289583,1.3636627,0.34186944,0.44141108,0.9806771,0.7825538,0.07118845,-0.14961296,0.68953913,0.26100454,-0.18446857,-0.490685,0.061914362,794.17584,798.60803,810.293,819.15753,884.43225,0.216064453125,0.1473388671875,0.99749755859375,-1.5252685546875,8.605804443359375,4.059906005859375,1,1.0,1.0,1.0,1.0,10.00
2024-10-11 20:18:11.725,0.93687904,0.3900011,0.62078744,0.9291772,0.88910276,0.21898805,0.1713216,0.7289583,1.3636627,0.34186944,0.44141108,0.9806771,0.7825538,0.07118845,-0.14961296,0.68953913,0.26100454,-0.18446857,-0.490685,0.061914362,761.53845,790.14655,814.7253,783.2967,680.9524,0.216064453125,0.1473388671875,0.99749755859375,-1.5252685546875,8.605804443359375,4.059906005859375,1,1.0,1.0,1.0,1.0,10.00
2024-10-11 20:18:11.726,0.93687904,0.3900011,0.62078744,0.9291772,0.88910276,0.21898805,0.1713216,0.7289583,1.3636627,0.34186944,0.44141108,0.9806771,0.7825538,0.07118845,-0.14961296,0.68953913,0.26100454,-0.18446857,-0.490685,0.061914362,774.43225,790.14655,809.0842,784.90845,805.8608,0.216064453125,0.1473388671875,0.99749755859375,-1.5252685546875,8.605804443359375,4.059906005859375,1,1.0,1.0,1.0,1.0,10.00
2024-10-11 20:18:11.726,0.93687904,0.3900011,0.62078744,0.9291772,0.88910276,0.21898805,0.1713216,0.7289583,1.3636627,0.34186944,0.44141108,0.9806771,0.7825538,0.07118845,-0.14961296,0.68953913,0.26100454,-0.18446857,-0.490685,0.061914362,778.86444,796.5934,803.0403,781.685,847.3626,0.216064453125,0.1473388671875,0.99749755859375,-1.5252685546875,8.605804443359375,4.059906005859375,1,1.0,1.0,1.0,1.0,10.00
2024-10-11 20:18:11.726,0.93687904,0.3900011,0.62078744,0.9291772,0.88910276,0.21898805,0.1713216,0.7289583,1.3636627,0.34186944,0.44141108,0.9806771,0.7825538,0.07118845,-0.14961296,0.68953913,0.26100454,-0.18446857,-0.490685,0.061914362,753.8828,801.8315,776.04395,762.74725,729.304,0.216064453125,0.1473388671875,0.99749755859375,-1.5252685546875,8.605804443359375,4.059906005859375,1,1.0,1.0,1.0,1.0,10.00
2024-10-11 20:18:11.727,0.93687904,0.3900011,0.62078744,0.9291772,0.88910276,0.21898805,0.1713216,0.7289583,1.3636627,0.34186944,0.44141108,0.9806771,0.7825538,0.07118845,-0.14961296,0.68953913,0.26100454,-0.18446857,-0.490685,0.061914362,738.1685,800.6227,765.56775,751.4652,671.685,0.216064453125,0.1473388671875,0.99749755859375,-1.5252685546875,8.605804443359375,4.059906005859375,1,1.0,1.0,1.0,1.0,10.00
2024-10-11 20:18:11.728,0.93687904,0.3900011,0.62078744,0.9291772,0.88910276,0.21898805,0.1713216,0.7289583,1.3636627,0.34186944,0.44141108,0.9806771,0.7825538,0.07118845,-0.14961296,0.68953913,0.26100454,-0.18446857,-0.490685,0.061914362,740.58606,778.46155,803.44324,756.7033,942.0513,0.216064453125,0.1473388671875,0.99749755859375,-1.5252685546875,8.605804443359375,4.059906005859375,1,1.0,1.0,1.0,1.0,10.00
2024-10-11 20:18:11.729,0.93687904,0.3900011,0.62078744,0.9291772,0.88910276,0.21898805,0.1713216,0.7289583,1.3636627,0.34186944,0.44141108,0.9806771,0.7825538,0.07118845,-0.14961296,0.68953913,0.26100454,-0.18446857,-0.490685,0.061914362,732.9304,779.2674,777.6557,748.24176,1121.7583,0.216064453125,0.1473388671875,0.99749755859375,-1.5252685546875,8.605804443359375,4.059906005859375,1,1.0,1.0,1.0,1.0,10.00
2024-10-11 20:18:11.729,0.93687904,0.3900011,0.62078744,0.9291772,0.88910276,0.21898805,0.1713216,0.7289583,1.3636627,0.34186944,0.44141108,0.9806771,0.7825538,0.07118845,-0.14961296,0.68953913,0.26100454,-0.18446857,-0.490685,0.061914362,726.4835,800.2198,753.47986,733.73627,828.8278,0.216064453125,0.1473388671875,0.99749755859375,-1.5252685546875,8.605804443359375,4.059906005859375,1,1.0,1.0,1.0,1.0,10.00
2024-10-11 20:18:11.730,0.93687904,0.3900011,0.62078744,0.9291772,0.88910276,0.21898805,0.1713216,0.7289583,1.3636627,0.34186944,0.44141108,0.9806771,0.7825538,0.07118845,-0.14961296,0.68953913,0.26100454,-0.18446857,-0.490685,0.061914362,717.2161,800.6227,798.20514,736.9597,719.6337,0.216064453125,0.1473388671875,0.99749755859375,-1.5252685546875,8.605804443359375,4.059906005859375,1,1.0,1.0,1.0,1.0,10.00
2024-10-11 20:18:11.731,0.93687904,0.3900011,0.62078744,0.9291772,0.88910276,0.21898805,0.1713216,0.7289583,1.3636627,0.34186944,0.44141108,0.9806771,0.7825538,0.07118845,-0.14961296,0.68953913,0.26100454,-0.18446857,-0.490685,0.061914362,702.3077,811.0989,827.2161,732.9304,744.21246,0.216064453125,0.1473388671875,0.99749755859375,-1.5252685546875,8.605804443359375,4.059906005859375,1,1.0,1.0,1.0,1.0,10.00
2024-10-11 20:18:11.731,0.93687904,0.3900011,0.62078744,0.9291772,0.88910276,0.21898805,0.1713216,0.7289583,1.3636627,0.34186944,0.44141108,0.9806771,0.7825538,0.07118845,-0.14961296,0.68953913,0.26100454,-0.18446857,-0.490685,0.061914362,699.4872,811.9048,827.2161,735.34796,633.8095,0.216064453125,0.1473388671875,0.99749755859375,-1.5252685546875,8.605804443359375,4.059906005859375,1,1.0,1.0,1.0,1.0,10.00
2024-10-11 20:18:11.731,0.93687904,0.3900011,0.62078744,0.9291772,0.88910276,0.21898805,0.1713216,0.7289583,1.3636627,0.34186944,0.44141108,0.9806771,0.7825538,0.07118845,-0.14961296,0.68953913,0.26100454,-0.18446857,-0.490685,0.061914362,699.4872,809.4872,819.15753,724.4689,639.45056,0.216064453125,0.1473388671875,0.99749755859375,-1.5252685546875,8.605804443359375,4.059906005859375,1,1.0,1.0,1.0,1.0,10.00
2024-10-11 20:18:11.732,0.93687904,0.3900011,0.62078744,0.9291772,0.88910276,0.21898805,0.1713216,0.7289583,1.3636627,0.34186944,0.44141108,0.9806771,0.7825538,0.07118845,-0.14961296,0.68953913,0.26100454,-0.18446857,-0.490685,0.061914362,701.0989,806.26373,811.0989,703.1135,865.4945,0.216064453125,0.1473388671875,0.99749755859375,-1.5252685546875,8.605804443359375,4.059906005859375,1,1.0,1.0,1.0,1.0,10.00
2024-10-11 20:18:11.732,0.93687904,0.3900011,0.62078744,0.9291772,0.88910276,0.21898805,0.1713216,0.7289583,1.3636627,0.34186944,0.44141108,0.9806771,0.7825538,0.07118845,-0.14961296,0.68953913,0.26100454,-0.18446857,-0.490685,0.061914362,694.65204,799.81683,805.4579,688.20514,1004.90845,0.216064453125,0.1473388671875,0.99749755859375,-1.5252685546875,8.605804443359375,4.059906005859375,1,1.0,1.0,1.0,1.0,10.00
2024-10-11 20:18:11.733,0.93687904,0.3900011,0.62078744,0.9291772,0.88910276,0.21898805,0.1713216,0.7289583,1.3636627,0.34186944,0.44141108,0.9806771,0.7825538,0.07118845,-0.14961296,0.68953913,0.26100454,-0.18446857,-0.490685,0.061914362,690.6227,803.0403,809.0842,677.72894,909.81683,0.216064453125,0.1473388671875,0.99749755859375,-1.5252685546875,8.605804443359375,4.059906005859375,1,1.0,1.0,1.0,1.0,10.00
2024-10-11 20:18:11.733,0.93687904,0.3900011,0.62078744,0.9291772,0.88910276,0.21898805,0.1713216,0.7289583,1.3636627,0.34186944,0.44141108,0.9806771,0.7825538,0.07118845,-0.14961296,0.68953913,0.26100454,-0.18446857,-0.490685,0.061914362,705.5311,803.0403,809.4872,695.05493,825.2015,0.216064453125,0.1473388671875,0.99749755859375,-1.5252685546875,8.605804443359375,4.059906005859375,1,1.0,1.0,1.0,1.0,10.00
2024-10-11 20:18:11.734,0.93687904,0.3900011,0.62078744,0.9291772,0.88910276,0.21898805,0.1713216,0.7289583,1.3636627,0.34186944,0.44141108,0.9806771,0.7825538,0.07118845,-0.14961296,0.68953913,0.26100454,-0.18446857,-0.490685,0.061914362,713.5897,806.6667,811.9048,712.381,936.4103,0.216064453125,0.1473388671875,0.99749755859375,-1.5252685546875,8.605804443359375,4.059906005859375,1,1.0,1.0,1.0,1.0,10.00
2024-10-11 20:18:11.734,0.93687904,0.3900011,0.62078744,0.9291772,0.88910276,0.21898805,0.1713216,0.7289583,1.3636627,0.34186944,0.44141108,0.9806771,0.7825538,0.07118845,-0.14961296,0.68953913,0.26100454,-0.18446857,-0.490685,0.061914362,702.3077,817.1429,815.5311,696.6667,939.6337,0.216064453125,0.1473388671875,0.99749755859375,-1.5252685546875,8.605804443359375,4.059906005859375,1,1.0,1.0,1.0,1.0,10.00
2024-10-11 20:18:11.735,0.93687904,0.3900011,0.62078744,0.9291772,0.88910276,0.21898805,0.1713216,0.7289583,1.3636627,0.34186944,0.44141108,0.9806771,0.7825538,0.07118845,-0.14961296,0.68953913,0.26100454,-0.18446857,-0.490685,0.061914362,697.47253,816.337,812.3077,690.6227,702.3077,0.216064453125,0.1473388671875,0.99749755859375,-1.5252685546875,8.605804443359375,4.059906005859375,1,1.0,1.0,1.0,1.0,10.00
2024-10-11 20:18:11.736,0.93687904,0.3900011,0.62078744,0.9291772,0.88910276,0.21898805,0.1713216,0.7289583,1.3636627,0.34186944,0.44141108,0.9806771,0.7825538,0.07118845,-0.14961296,0.68953913,0.26100454,-0.18446857,-0.490685,0.061914362,686.5934,811.0989,813.91943,693.44324,735.7509,0.216064453125,0.1473388671875,0.99749755859375,-1.5252685546875,8.605804443359375,4.059906005859375,1,1.0,1.0,1.0,1.0,10.00
2024-10-11 20:18:11.785,0.93687904,0.3900011,0.62078744,0.9291772,0.88910276,0.21898805,0.1713216,0.7289583,1.3636627,0.34186944,0.44141108,0.9806771,0.7825538,0.07118845,-0.14961296,0.68953913,0.26100454,-0.18446857,-0.490685,0.061914362,674.90845,806.6667,805.05493,692.6374,902.96704,0.20172119140625,0.15057373046875,1.017822265625,-6.437530517578125,21.151885986328125,13.017120361328125,1,1.0,1.0,1.0,1.0,10.00
2024-10-11 20:18:11.786,0.93687904,0.3900011,0.62078744,0.9291772,0.88910276,0.21898805,0.1713216,0.7289583,1.3636627,0.34186944,0.44141108,0.9806771,0.7825538,0.07118845,-0.14961296,0.68953913,0.26100454,-0.18446857,-0.490685,0.061914362,680.14655,801.4286,789.34064,710.7692,824.7985,0.20172119140625,0.15057373046875,1.017822265625,-6.437530517578125,21.151885986328125,13.017120361328125,1,1.0,1.0,1.0,1.0,10.00
2024-10-11 20:18:11.787,0.93687904,0.3900011,0.62078744,0.9291772,0.88910276,0.21898805,0.1713216,0.7289583,1.3636627,0.34186944,0.44141108,0.9806771,0.7825538,0.07118845,-0.14961296,0.68953913,0.26100454,-0.18446857,-0.490685,0.061914362,680.14655,799.81683,805.8608,724.87177,630.18317,0.20172119140625,0.15057373046875,1.017822265625,-6.437530517578125,21.151885986328125,13.017120361328125,1,1.0,1.0,1.0,1.0,10.00
2024-10-11 20:18:11.788,0.93687904,0.3900011,0.62078744,0.9291772,0.88910276,0.21898805,0.1713216,0.7289583,1.3636627,0.34186944,0.44141108,0.9806771,0.7825538,0.07118845,-0.14961296,0.68953913,0.26100454,-0.18446857,-0.490685,0.061914362,682.1612,808.68134,836.8865,724.0659,578.60803,0.20172119140625,0.15057373046875,1.017822265625,-6.437530517578125,21.151885986328125,13.017120361328125,1,1.0,1.0,1.0,1.0,10.00
2024-10-11 20:18:11.788,0.93687904,0.3900011,0.62078744,0.9291772,0.88910276,0.21898805,0.1713216,0.7289583,1.3636627,0.34186944,0.44141108,0.9806771,0.7825538,0.07118845,-0.14961296,0.68953913,0.26100454,-0.18446857,-0.490685,0.061914362,678.1319,814.7253,832.8571,721.6484,823.5897,0.20172119140625,0.15057373046875,1.017822265625,-6.437530517578125,21.151885986328125,13.017120361328125,1,1.0,1.0,1.0,1.0,10.00
2024-10-11 20:18:11.789,0.93687904,0.38724557,0.61649066,0.9291772,0.88910276,0.2226411,0.1408203,0.7289583,1.3636627,0.32201728,0.42943773,0.9806771,0.7825538,0.078296624,-0.1671516,0.68953913,0.26100454,-0.18188934,-0.47796005,0.061914362,657.5824,817.1429,831.6484,708.7546,989.59705,0.20172119140625,0.15057373046875,1.017822265625,-6.437530517578125,21.151885986328125,13.017120361328125,1,1.0,1.0,1.0,1.0,10.00
2024-10-11 20:18:11.793,0.93687904,0.38724557,0.61649066,0.9291772,0.88910276,0.2226411,0.1408203,0.7289583,1.3636627,0.32201728,0.42943773,0.9806771,0.7825538,0.078296624,-0.1671516,0.68953913,0.26100454,-0.18188934,-0.47796005,0.061914362,655.56775,809.0842,830.4396,702.3077,814.7253,0.20172119140625,0.15057373046875,1.017822265625,-6.437530517578125,21.151885986328125,13.017120361328125,1,1.0,1.0,1.0,1.0,10.00
2024-10-11 20:18:11.793,0.93687904,0.38724557,0.61649066,0.9291772,0.88910276,0.2226411,0.1408203,0.7289583,1.3636627,0.32201728,0.42943773,0.9806771,0.7825538,0.078296624,-0.1671516,0.68953913,0.26100454,-0.18188934,-0.47796005,0.061914362,668.0586,803.44324,825.6044,710.7692,664.43225,0.20172119140625,0.15057373046875,1.017822265625,-6.437530517578125,21.151885986328125,13.017120361328125,1,1.0,1.0,1.0,1.0,10.00
2024-10-11 20:18:11.794,0.93687904,0.38724557,0.61649066,0.9291772,0.88910276,0.2226411,0.1408203,0.7289583,1.3636627,0.32201728,0.42943773,0.9806771,0.7825538,0.078296624,-0.1671516,0.68953913,0.26100454,-0.18188934,-0.47796005,0.061914362,688.20514,811.50183,836.4835,720.84247,961.39197,0.20172119140625,0.15057373046875,1.017822265625,-6.437530517578125,21.151885986328125,13.017120361328125,1,1.0,1.0,1.0,1.0,10.00
2024-10-11 20:18:11.794,0.93687904,0.38724557,0.61649066,0.9291772,0.88910276,0.2226411,0.1408203,0.7289583,1.3636627,0.32201728,0.42943773,0.9806771,0.7825538,0.078296624,-0.1671516,0.68953913,0.26100454,-0.18188934,-0.47796005,0.061914362,691.8315,812.71063,837.6923,716.0073,1402.1978,0.20172119140625,0.15057373046875,1.017822265625,-6.437530517578125,21.151885986328125,13.017120361328125,1,1.0,1.0,1.0,1.0,10.00
2024-10-11 20:18:11.795,0.93687904,0.38724557,0.61649066,0.9291772,0.88910276,0.2226411,0.1408203,0.7289583,1.3636627,0.32201728,0.42943773,0.9806771,0.7825538,0.078296624,-0.1671516,0.68953913,0.26100454,-0.18188934,-0.47796005,0.061914362,686.5934,814.3223,832.4542,700.696,1089.5238,0.20172119140625,0.15057373046875,1.017822265625,-6.437530517578125,21.151885986328125,13.017120361328125,1,1.0,1.0,1.0,1.0,10.00
2024-10-11 20:18:11.795,0.93687904,0.38724557,0.61649066,0.9291772,0.88910276,0.2226411,0.1408203,0.7289583,1.3636627,0.32201728,0.42943773,0.9806771,0.7825538,0.078296624,-0.1671516,0.68953913,0.26100454,-0.18188934,-0.47796005,0.061914362,695.05493,810.696,813.1135,707.5458,580.6227,0.20172119140625,0.15057373046875,1.017822265625,-6.437530517578125,21.151885986328125,13.017120361328125,1,1.0,1.0,1.0,1.0,10.00
2024-10-11 20:18:11.821,0.93687904,0.38724557,0.61649066,0.9291772,0.88910276,0.2226411,0.1408203,0.7289583,1.3636627,0.32201728,0.42943773,0.9806771,0.7825538,0.078296624,-0.1671516,0.68953913,0.26100454,-0.18188934,-0.47796005,0.061914362,705.5311,798.60803,825.2015,725.2747,606.8132,0.145263671875,0.13983154296875,1.03131103515625,-15.6414794921875,27.0062255859375,19.51446533203125,1,1.0,1.0,1.0,1.0,10.00
2024-10-11 20:18:11.821,0.93687904,0.38724557,0.61649066,0.9291772,0.88910276,0.2226411,0.1408203,0.7289583,1.3636627,0.32201728,0.42943773,0.9806771,0.7825538,0.078296624,-0.1671516,0.68953913,0.26100454,-0.18188934,-0.47796005,0.061914362,703.91943,801.4286,838.9011,726.4835,727.6923,0.145263671875,0.13983154296875,1.03131103515625,-15.6414794921875,27.0062255859375,19.51446533203125,1,1.0,1.0,1.0,1.0,10.00
2024-10-11 20:18:11.822,0.93687904,0.38724557,0.61649066,0.9291772,0.88910276,0.2226411,0.1408203,0.7289583,1.3636627,0.32201728,0.42943773,0.9806771,0.7825538,0.078296624,-0.1671516,0.68953913,0.26100454,-0.18188934,-0.47796005,0.061914362,711.1722,816.7399,798.20514,728.9011,669.67035,0.145263671875,0.13983154296875,1.03131103515625,-15.6414794921875,27.0062255859375,19.51446533203125,1,1.0,1.0,1.0,1.0,10.00
2024-10-11 20:18:11.822,0.93687904,0.38724557,0.61649066,0.9291772,0.88910276,0.2226411,0.1408203,0.7289583,1.3636627,0.32201728,0.42943773,0.9806771,0.7825538,0.078296624,-0.1671516,0.68953913,0.26100454,-0.18188934,-0.47796005,0.061914362,716.4103,822.381,810.696,733.3333,593.5165,0.145263671875,0.13983154296875,1.03131103515625,-15.6414794921875,27.0062255859375,19.51446533203125,1,1.0,1.0,1.0,1.0,10.00
2024-10-11 20:18:11.823,0.93687904,0.38724557,0.61649066,0.9291772,0.88910276,0.2226411,0.1408203,0.7289583,1.3636627,0.32201728,0.42943773,0.9806771,0.7825538,0.078296624,-0.1671516,0.68953913,0.26100454,-0.18188934,-0.47796005,0.061914362,713.5897,816.7399,848.1685,735.7509,571.75824,0.145263671875,0.13983154296875,1.03131103515625,-15.6414794921875,27.0062255859375,19.51446533203125,1,1.0,1.0,1.0,1.0,10.00
2024-10-11 20:18:11.824,0.93687904,0.38724557,0.61649066,0.9291772,0.88910276,0.2226411,0.1408203,0.7289583,1.3636627,0.32201728,0.42943773,0.9806771,0.7825538,0.078296624,-0.1671516,0.68953913,0.26100454,-0.18188934,-0.47796005,0.061914362,717.619,815.12823,842.1245,738.5714,565.7143,0.145263671875,0.13983154296875,1.03131103515625,-15.6414794921875,27.0062255859375,19.51446533203125,1,1.0,1.0,1.0,1.0,10.00
2024-10-11 20:18:11.824,0.93687904,0.38724557,0.61649066,0.9291772,0.88910276,0.2226411,0.1408203,0.7289583,1.3636627,0.32201728,0.42943773,0.9806771,0.7825538,0.078296624,-0.1671516,0.68953913,0.26100454,-0.18188934,-0.47796005,0.061914362,734.5421,804.65204,828.8278,751.4652,608.8278,0.145263671875,0.13983154296875,1.03131103515625,-15.6414794921875,27.0062255859375,19.51446533203125,1,1.0,1.0,1.0,1.0,10.00
2024-10-11 20:18:11.825,0.93687904,0.38724557,0.61649066,0.9291772,0.88910276,0.2226411,0.1408203,0.7289583,1.3636627,0.32201728,0.42943773,0.9806771,0.7825538,0.078296624,-0.1671516,0.68953913,0.26100454,-0.18188934,-0.47796005,0.061914362,747.03296,801.4286,820.3663,767.98535,736.9597,0.145263671875,0.13983154296875,1.03131103515625,-15.6414794921875,27.0062255859375,19.51446533203125,1,1.0,1.0,1.0,1.0,10.00
2024-10-11 20:18:11.825,0.93687904,0.38724557,0.61649066,0.9291772,0.88910276,0.2226411,0.1408203,0.7289583,1.3636627,0.32201728,0.42943773,0.9806771,0.7825538,0.078296624,-0.1671516,0.68953913,0.26100454,-0.18188934,-0.47796005,0.061914362,761.53845,808.68134,817.5458,782.0879,873.5531,0.145263671875,0.13983154296875,1.03131103515625,-15.6414794921875,27.0062255859375,19.51446533203125,1,1.0,1.0,1.0,1.0,10.00
2024-10-11 20:18:11.825,0.93687904,0.38724557,0.61649066,0.9291772,0.88910276,0.2226411,0.1408203,0.7289583,1.3636627,0.32201728,0.42943773,0.9806771,0.7825538,0.078296624,-0.1671516,0.68953913,0.26100454,-0.18188934,-0.47796005,0.061914362,783.2967,806.6667,812.71063,784.90845,809.89014,0.145263671875,0.13983154296875,1.03131103515625,-15.6414794921875,27.0062255859375,19.51446533203125,1,1.0,1.0,1.0,1.0,10.00
2024-10-11 20:18:11.826,0.93687904,0.38724557,0.61649066,0.9291772,0.88910276,0.2226411,0.1408203,0.7289583,1.3636627,0.32201728,0.42943773,0.9806771,0.7825538,0.078296624,-0.1671516,0.68953913,0.26100454,-0.18188934,-0.47796005,0.061914362,781.28204,806.6667,806.6667,771.6117,696.26373,0.145263671875,0.13983154296875,1.03131103515625,-15.6414794921875,27.0062255859375,19.51446533203125,1,1.0,1.0,1.0,1.0,10.00
2024-10-11 20:18:11.826,0.93687904,0.38724557,0.61649066,0.9291772,0.88910276,0.2226411,0.1408203,0.7289583,1.3636627,0.32201728,0.42943773,0.9806771,0.7825538,0.078296624,-0.1671516,0.68953913,0.26100454,-0.18188934,-0.47796005,0.061914362,775.64105,812.3077,811.0989,778.0586,833.2601,0.145263671875,0.13983154296875,1.03131103515625,-15.6414794921875,27.0062255859375,19.51446533203125,1,1.0,1.0,1.0,1.0,10.00
2024-10-11 20:18:11.886,0.93687904,0.38724557,0.61649066,0.9291772,0.88910276,0.2226411,0.1408203,0.7289583,1.3636627,0.32201728,0.42943773,0.9806771,0.7825538,0.078296624,-0.1671516,0.68953913,0.26100454,-0.18188934,-0.47796005,0.061914362,773.22345,806.6667,805.8608,788.5348,940.4396,0.1129150390625,0.10205078125,0.98406982421875,-25.301513671875,27.701568603515625,20.11260986328125,1,1.0,1.0,1.0,1.0,10.00
2024-10-11 20:18:11.887,0.93687904,0.38724557,0.61649066,0.9291772,0.88910276,0.2226411,0.1408203,0.7289583,1.3636627,0.32201728,0.42943773,0.9806771,0.7825538,0.078296624,-0.1671516,0.68953913,0.26100454,-0.18188934,-0.47796005,0.061914362,773.6264,800.6227,792.5641,788.93774,736.9597,0.1129150390625,0.10205078125,0.98406982421875,-25.301513671875,27.701568603515625,20.11260986328125,1,1.0,1.0,1.0,1.0,10.00
2024-10-11 20:18:11.888,0.93687904,0.38724557,0.61649066,0.9291772,0.88910276,0.2226411,0.1408203,0.7289583,1.3636627,0.32201728,0.42943773,0.9806771,0.7825538,0.078296624,-0.1671516,0.68953913,0.26100454,-0.18188934,-0.47796005,0.061914362,786.1172,802.23444,801.4286,799.011,624.94507,0.1129150390625,0.10205078125,0.98406982421875,-25.301513671875,27.701568603515625,20.11260986328125,1,1.0,1.0,1.0,1.0,10.00
2024-10-11 20:18:11.889,0.93687904,0.38724557,0.61649066,0.9291772,0.88910276,0.2226411,0.1408203,0.7289583,1.3636627,0.32201728,0.42943773,0.9806771,0.7825538,0.078296624,-0.1671516,0.68953913,0.26100454,-0.18188934,-0.47796005,0.061914362,793.36993,800.2198,811.9048,803.0403,639.85345,0.1129150390625,0.10205078125,0.98406982421875,-25.301513671875,27.701568603515625,20.11260986328125,1,1.0,1.0,1.0,1.0,10.00
2024-10-11 20:18:11.889,0.93687904,0.38724557,0.61649066,0.9291772,0.88910276,0.2226411,0.1408203,0.7289583,1.3636627,0.32201728,0.42943773,0.9806771,0.7825538,0.078296624,-0.1671516,0.68953913,0.26100454,-0.18188934,-0.47796005,0.061914362,794.9817,803.0403,800.2198,807.0696,602.7839,0.1129150390625,0.10205078125,0.98406982421875,-25.301513671875,27.701568603515625,20.11260986328125,1,1.0,1.0,1.0,1.0,10.00
2024-10-11 20:18:11.890,0.93687904,0.38724557,0.61649066,0.9291772,0.88910276,0.2226411,0.1408203,0.7289583,1.3636627,0.32201728,0.42943773,0.9806771,0.7825538,0.078296624,-0.1671516,0.68953913,0.26100454,-0.18188934,-0.47796005,0.061914362,799.011,803.44324,790.54944,811.9048,762.3443,0.1129150390625,0.10205078125,0.98406982421875,-25.301513671875,27.701568603515625,20.11260986328125,1,1.0,1.0,1.0,1.0,10.00
2024-10-11 20:18:11.890,0.93687904,0.38724557,0.61649066,0.9291772,0.88910276,0.2226411,0.1408203,0.7289583,1.3636627,0.32201728,0.42943773,0.9806771,0.7825538,0.078296624,-0.1671516,0.68953913,0.26100454,-0.18188934,-0.47796005,0.061914362,804.2491,794.17584,784.5055,804.2491,875.16486,0.1129150390625,0.10205078125,0.98406982421875,-25.301513671875,27.701568603515625,20.11260986328125,1,1.0,1.0,1.0,1.0,10.00
2024-10-11 20:18:11.890,0.93687904,0.38514182,0.6171523,0.9291772,0.88910276,0.23235866,0.12877002,0.7289583,1.3636627,0.32201728,0.4272328,0.9806771,0.7825538,0.08745975,-0.17578025,0.68953913,0.26100454,-0.17733394,-0.47190332,0.061914362,811.50183,799.81683,786.1172,798.20514,992.8205,0.1129150390625,0.10205078125,0.98406982421875,-25.301513671875,27.701568603515625,20.11260986328125,1,1.0,1.0,1.0,1.0,10.00
2024-10-11 20:18:11.894,0.93687904,0.38514182,0.6171523,0.9291772,0.88910276,0.23235866,0.12877002,0.7289583,1.3636627,0.32201728,0.4272328,0.9806771,0.7825538,0.08745975,-0.17578025,0.68953913,0.26100454,-0.17733394,-0.47190332,0.061914362,807.8755,803.0403,781.685,799.81683,995.64105,0.1129150390625,0.10205078125,0.98406982421875,-25.301513671875,27.701568603515625,20.11260986328125,1,1.0,1.0,1.0,1.0,10.00
2024-10-11 20:18:11.895,0.93687904,0.38514182,0.6171523,0.9291772,0.88910276,0.23235866,0.12877002,0.7289583,1.3636627,0.32201728,0.4272328,0.9806771,0.7825538,0.08745975,-0.17578025,0.68953913,0.26100454,-0.17733394,-0.47190332,0.061914362,813.5165,798.20514,786.52014,799.41394,634.61536,0.1129150390625,0.10205078125,0.98406982421875,-25.301513671875,27.701568603515625,20.11260986328125,1,1.0,1.0,1.0,1.0,10.00
2024-10-11 20:18:11.895,0.93687904,0.38514182,0.6171523,0.9291772,0.88910276,0.23235866,0.12877002,0.7289583,1.3636627,0.32201728,0.4272328,0.9806771,0.7825538,0.08745975,-0.17578025,0.68953913,0.26100454,-0.17733394,-0.47190332,0.061914362,833.2601,801.4286,803.0403,796.1905,656.77655,0.1129150390625,0.10205078125,0.98406982421875,-25.301513671875,27.701568603515625,20.11260986328125,1,1.0,1.0,1.0,1.0,10.00
2024-10-11 20:18:11.896,0.93687904,0.38514182,0.6171523,0.9291772,0.88910276,0.23235866,0.12877002,0.7289583,1.3636627,0.32201728,0.4272328,0.9806771,0.7825538,0.08745975,-0.17578025,0.68953913,0.26100454,-0.17733394,-0.47190332,0.061914362,832.8571,802.6374,801.8315,795.38464,697.8755,0.1129150390625,0.10205078125,0.98406982421875,-25.301513671875,27.701568603515625,20.11260986328125,1,1.0,1.0,1.0,1.0,10.00
2024-10-11 20:18:11.897,0.93687904,0.38514182,0.6171523,0.9291772,0.88910276,0.23235866,0.12877002,0.7289583,1.3636627,0.32201728,0.4272328,0.9806771,0.7825538,0.08745975,-0.17578025,0.68953913,0.26100454,-0.17733394,-0.47190332,0.061914362,836.08057,816.337,794.17584,805.4579,612.8571,0.0665283203125,0.0589599609375,0.9945068359375,-23.865966796875,23.350067138671875,21.84722900390625,1,1.0,1.0,1.0,1.0,10.00
2024-10-11 20:18:11.897,0.93687904,0.38514182,0.6171523,0.9291772,0.88910276,0.23235866,0.12877002,0.7289583,1.3636627,0.32201728,0.4272328,0.9806771,0.7825538,0.08745975,-0.17578025,0.68953913,0.26100454,-0.17733394,-0.47190332,0.061914362,839.707,825.2015,803.8461,817.1429,643.0769,0.0665283203125,0.0589599609375,0.9945068359375,-23.865966796875,23.350067138671875,21.84722900390625,1,1.0,1.0,1.0,1.0,10.00
2024-10-11 20:18:11.898,0.93687904,0.38514182,0.6171523,0.9291772,0.88910276,0.23235866,0.12877002,0.7289583,1.3636627,0.32201728,0.4272328,0.9806771,0.7825538,0.08745975,-0.17578025,0.68953913,0.26100454,-0.17733394,-0.47190332,0.061914362,810.696,808.68134,807.8755,830.0366,772.8205,0.0665283203125,0.0589599609375,0.9945068359375,-23.865966796875,23.350067138671875,21.84722900390625,1,1.0,1.0,1.0,1.0,10.00
2024-10-11 20:18:11.898,0.93687904,0.38514182,0.6171523,0.9291772,0.88910276,0.23235866,0.12877002,0.7289583,1.3636627,0.32201728,0.4272328,0.9806771,0.7825538,0.08745975,-0.17578025,0.68953913,0.26100454,-0.17733394,-0.47190332,0.061914362,803.44324,793.36993,798.20514,834.87177,823.1868,0.0665283203125,0.0589599609375,0.9945068359375,-23.865966796875,23.350067138671875,21.84722900390625,1,1.0,1.0,1.0,1.0,10.00
2024-10-11 20:18:11.899,0.93687904,0.38514182,0.6171523,0.9291772,0.88910276,0.23235866,0.12877002,0.7289583,1.3636627,0.32201728,0.4272328,0.9806771,0.7825538,0.08745975,-0.17578025,0.68953913,0.26100454,-0.17733394,-0.47190332,0.061914362,817.1429,793.36993,792.1612,840.10986,728.0952,0.0665283203125,0.0589599609375,0.9945068359375,-23.865966796875,23.350067138671875,21.84722900390625,1,1.0,1.0,1.0,1.0,10.00
2024-10-11 20:18:11.899,0.93687904,0.38514182,0.6171523,0.9291772,0.88910276,0.23235866,0.12877002,0.7289583,1.3636627,0.32201728,0.4272328,0.9806771,0.7825538,0.08745975,-0.17578025,0.68953913,0.26100454,-0.17733394,-0.47190332,0.061914362,818.7546,797.3993,788.5348,832.4542,695.05493,0.0665283203125,0.0589599609375,0.9945068359375,-23.865966796875,23.350067138671875,21.84722900390625,1,1.0,1.0,1.0,1.0,10.00
2024-10-11 20:18:11.900,0.93687904,0.38514182,0.6171523,0.9291772,0.88910276,0.23235866,0.12877002,0.7289583,1.3636627,0.32201728,0.4272328,0.9806771,0.7825538,0.08745975,-0.17578025,0.68953913,0.26100454,-0.17733394,-0.47190332,0.061914362,821.5751,786.52014,787.72894,830.84247,935.6044,0.0665283203125,0.0589599609375,0.9945068359375,-23.865966796875,23.350067138671875,21.84722900390625,1,1.0,1.0,1.0,1.0,10.00
2024-10-11 20:18:11.900,0.93687904,0.38514182,0.6171523,0.9291772,0.88910276,0.23235866,0.12877002,0.7289583,1.3636627,0.32201728,0.4272328,0.9806771,0.7825538,0.08745975,-0.17578025,0.68953913,0.26100454,-0.17733394,-0.47190332,0.061914362,823.5897,775.2381,793.7729,844.5421,1024.249,0.0665283203125,0.0589599609375,0.9945068359375,-23.865966796875,23.350067138671875,21.84722900390625,1,1.0,1.0,1.0,1.0,10.00
2024-10-11 20:18:11.900,0.93687904,0.38514182,0.6171523,0.9291772,0.88910276,0.23235866,0.12877002,0.7289583,1.3636627,0.32201728,0.4272328,0.9806771,0.7825538,0.08745975,-0.17578025,0.68953913,0.26100454,-0.17733394,-0.47190332,0.061914362,827.619,783.69965,796.1905,843.3333,693.0403,0.0665283203125,0.0589599609375,0.9945068359375,-23.865966796875,23.350067138671875,21.84722900390625,1,1.0,1.0,1.0,1.0,10.00
2024-10-11 20:18:11.901,0.93687904,0.38514182,0.6171523,0.9291772,0.88910276,0.23235866,0.12877002,0.7289583,1.3636627,0.32201728,0.4272328,0.9806771,0.7825538,0.08745975,-0.17578025,0.68953913,0.26100454,-0.17733394,-0.47190332,0.061914362,829.2308,794.9817,790.9524,850.18317,537.50916,0.0665283203125,0.0589599609375,0.9945068359375,-23.865966796875,23.350067138671875,21.84722900390625,1,1.0,1.0,1.0,1.0,10.00
2024-10-11 20:18:11.901,0.93687904,0.38514182,0.6171523,0.9291772,0.88910276,0.23235866,0.12877002,0.7289583,1.3636627,0.32201728,0.4272328,0.9806771,0.7825538,0.08745975,-0.17578025,0.68953913,0.26100454,-0.17733394,-0.47190332,0.061914362,828.4249,804.2491,778.0586,858.6447,779.67035,0.0665283203125,0.0589599609375,0.9945068359375,-23.865966796875,23.350067138671875,21.84722900390625,1,1.0,1.0,1.0,1.0,10.00
2024-10-11 20:18:11.902,0.93687904,0.38514182,0.6171523,0.9291772,0.88910276,0.23235866,0.12877002,0.7289583,1.3636627,0.32201728,0.4272328,0.9806771,0.7825538,0.08745975,-0.17578025,0.68953913,0.26100454,-0.17733394,-0.47190332,0.061914362,834.87177,803.0403,776.4469,856.2271,968.6447,0.0665283203125,0.0589599609375,0.9945068359375,-23.865966796875,23.350067138671875,21.84722900390625,1,1.0,1.0,1.0,1.0,10.00
2024-10-11 20:18:11.986,0.93687904,0.38514182,0.6171523,0.9291772,0.88910276,0.23235866,0.12877002,0.7289583,1.3636627,0.32201728,0.4272328,0.9806771,0.7825538,0.08745975,-0.17578025,0.68953913,0.26100454,-0.17733394,-0.47190332,0.061914362,843.3333,784.90845,789.34064,838.49817,893.69965,0.0665283203125,0.0589599609375,0.9945068359375,-23.865966796875,23.350067138671875,21.84722900390625,1,1.0,1.0,1.0,1.0,10.00
2024-10-11 20:18:11.987,0.93687904,0.38514182,0.6171523,0.9291772,0.88910276,0.23235866,0.12877002,0.7289583,1.3636627,0.32201728,0.4272328,0.9806771,0.7825538,0.08745975,-0.17578025,0.68953913,0.26100454,-0.17733394,-0.47190332,0.061914362,853.4066,786.9231,791.75824,820.3663,755.4945,0.0665283203125,0.0589599609375,0.9945068359375,-23.865966796875,23.350067138671875,21.84722900390625,1,1.0,1.0,1.0,1.0,10.00
2024-10-11 20:18:11.988,0.93687904,0.38514182,0.6171523,0.9291772,0.88910276,0.23235866,0.12877002,0.7289583,1.3636627,0.32201728,0.4272328,0.9806771,0.7825538,0.08745975,-0.17578025,0.68953913,0.26100454,-0.17733394,-0.47190332,0.061914362,846.9597,808.2784,795.38464,817.1429,804.65204,0.0665283203125,0.0589599609375,0.9945068359375,-23.865966796875,23.350067138671875,21.84722900390625,1,1.0,1.0,1.0,1.0,10.00
2024-10-11 20:18:11.989,0.93687904,0.38514182,0.6171523,0.9291772,0.88910276,0.23235866,0.12877002,0.7289583,1.3636627,0.32201728,0.4272328,0.9806771,0.7825538,0.08745975,-0.17578025,0.68953913,0.26100454,-0.17733394,-0.47190332,0.061914362,835.6777,819.5604,791.3553,819.5604,913.44324,0.0665283203125,0.0589599609375,0.9945068359375,-23.865966796875,23.350067138671875,21.84722900390625,1,1.0,1.0,1.0,1.0,10.00
2024-10-11 20:18:11.989,0.93687904,0.38514182,0.6171523,0.9291772,0.88910276,0.23235866,0.12877002,0.7289583,1.3636627,0.32201728,0.4272328,0.9806771,0.7825538,0.08745975,-0.17578025,0.68953913,0.26100454,-0.17733394,-0.47190332,0.061914362,838.0952,819.15753,789.7436,816.7399,812.3077,0.0665283203125,0.0589599609375,0.9945068359375,-23.865966796875,23.350067138671875,21.84722900390625,1,1.0,1.0,1.0,1.0,10.00
2024-10-11 20:18:11.990,0.93687904,0.38514182,0.6171523,0.9291772,0.88910276,0.23235866,0.12877002,0.7289583,1.3636627,0.32201728,0.4272328,0.9806771,0.7825538,0.08745975,-0.17578025,0.68953913,0.26100454,-0.17733394,-0.47190332,0.061914362,849.7802,821.1722,789.34064,807.8755,794.9817,0.0665283203125,0.0589599609375,0.9945068359375,-23.865966796875,23.350067138671875,21.84722900390625,1,1.0,1.0,1.0,1.0,10.00
2024-10-11 20:18:11.990,0.93687904,0.38514182,0.6171523,0.9291772,0.88910276,0.23235866,0.12877002,0.7289583,1.3636627,0.32201728,0.4272328,0.9806771,0.7825538,0.08745975,-0.17578025,0.68953913,0.26100454,-0.17733394,-0.47190332,0.061914362,857.03296,814.7253,780.07324,810.293,915.8608,0.0665283203125,0.0589599609375,0.9945068359375,-23.865966796875,23.350067138671875,21.84722900390625,1,1.0,1.0,1.0,1.0,10.00
2024-10-11 20:18:11.991,0.93687904,0.38514182,0.6171523,0.9291772,0.88910276,0.23235866,0.12877002,0.7289583,1.3636627,0.32201728,0.4272328,0.9806771,0.7825538,0.08745975,-0.17578025,0.68953913,0.26100454,-0.17733394,-0.47190332,0.061914362,854.61536,797.8022,780.4762,826.8132,1253.1135,0.0665283203125,0.0589599609375,0.9945068359375,-23.865966796875,23.350067138671875,21.84722900390625,1,1.0,1.0,1.0,1.0,10.00
2024-10-11 20:18:11.992,0.93687904,0.38514182,0.6171523,0.9291772,0.88910276,0.23235866,0.12877002,0.7289583,1.3636627,0.32201728,0.4272328,0.9806771,0.7825538,0.08745975,-0.17578025,0.68953913,0.26100454,-0.17733394,-0.47190332,0.061914362,841.7216,792.5641,783.2967,825.6044,1151.1721,0.0665283203125,0.0589599609375,0.9945068359375,-23.865966796875,23.350067138671875,21.84722900390625,1,1.0,1.0,1.0,1.0,10.00
2024-10-11 20:18:11,,,,,,,,,,,,,,,,,,,,,,,,,,,,,,,,,,,,,,/muse/elements/blink
2024-10-11 20:18:11.992,0.93687904,0.39806437,0.625035,0.9291772,0.88910276,0.24044971,0.1392575,0.7289583,1.3636627,0.32201728,0.40980768,0.9806771,0.7825538,0.10095947,-0.17853475,0.68953913,0.26100454,-0.16417085,-0.47594503,0.061914362,833.2601,792.5641,778.46155,816.7399,721.2454,0.0665283203125,0.0589599609375,0.9945068359375,-23.865966796875,23.350067138671875,21.84722900390625,1,1.0,1.0,1.0,1.0,10.00
2024-10-11 20:18:11.997,0.93687904,0.39806437,0.625035,0.9291772,0.88910276,0.24044971,0.1392575,0.7289583,1.3636627,0.32201728,0.40980768,0.9806771,0.7825538,0.10095947,-0.17853475,0.68953913,0.26100454,-0.16417085,-0.47594503,0.061914362,826.8132,790.9524,770.0,811.9048,641.8681,0.0665283203125,0.0589599609375,0.9945068359375,-23.865966796875,23.350067138671875,21.84722900390625,1,1.0,1.0,1.0,1.0,10.00
2024-10-11 20:18:11.997,0.93687904,0.39806437,0.625035,0.9291772,0.88910276,0.24044971,0.1392575,0.7289583,1.3636627,0.32201728,0.40980768,0.9806771,0.7825538,0.10095947,-0.17853475,0.68953913,0.26100454,-0.16417085,-0.47594503,0.061914362,837.28937,781.28204,772.01465,820.3663,657.98535,0.0665283203125,0.0589599609375,0.9945068359375,-23.865966796875,23.350067138671875,21.84722900390625,1,1.0,1.0,1.0,1.0,10.00
2024-10-11 20:18:12.022,0.93687904,0.39806437,0.625035,0.9291772,0.88910276,0.24044971,0.1392575,0.7289583,1.3636627,0.32201728,0.40980768,0.9806771,0.7825538,0.10095947,-0.17853475,0.68953913,0.26100454,-0.16417085,-0.47594503,0.061914362,847.3626,783.69965,784.5055,827.2161,685.78754,0.011962890625,0.03424072265625,0.97747802734375,-18.46771240234375,19.57427978515625,21.196746826171875,1,1.0,1.0,1.0,1.0,10.00
2024-10-11 20:18:12.023,0.93687904,0.39806437,0.625035,0.9291772,0.88910276,0.24044971,0.1392575,0.7289583,1.3636627,0.32201728,0.40980768,0.9806771,0.7825538,0.10095947,-0.17853475,0.68953913,0.26100454,-0.16417085,-0.47594503,0.061914362,826.8132,809.89014,780.87915,820.7692,772.4176,0.011962890625,0.03424072265625,0.97747802734375,-18.46771240234375,19.57427978515625,21.196746826171875,1,1.0,1.0,1.0,1.0,10.00
2024-10-11 20:18:12.023,0.93687904,0.39806437,0.625035,0.9291772,0.88910276,0.24044971,0.1392575,0.7289583,1.3636627,0.32201728,0.40980768,0.9806771,0.7825538,0.10095947,-0.17853475,0.68953913,0.26100454,-0.16417085,-0.47594503,0.061914362,811.9048,816.337,788.1319,822.7839,796.1905,0.011962890625,0.03424072265625,0.97747802734375,-18.46771240234375,19.57427978515625,21.196746826171875,1,1.0,1.0,1.0,1.0,10.00
2024-10-11 20:18:12.024,0.93687904,0.39806437,0.625035,0.9291772,0.88910276,0.24044971,0.1392575,0.7289583,1.3636627,0.32201728,0.40980768,0.9806771,0.7825538,0.10095947,-0.17853475,0.68953913,0.26100454,-0.16417085,-0.47594503,0.061914362,792.5641,803.44324,787.72894,823.1868,751.8681,0.011962890625,0.03424072265625,0.97747802734375,-18.46771240234375,19.57427978515625,21.196746826171875,1,1.0,1.0,1.0,1.0,10.00
2024-10-11 20:18:12.024,0.93687904,0.39806437,0.625035,0.9291772,0.88910276,0.24044971,0.1392575,0.7289583,1.3636627,0.32201728,0.40980768,0.9806771,0.7825538,0.10095947,-0.17853475,0.68953913,0.26100454,-0.16417085,-0.47594503,0.061914362,784.90845,792.96704,760.7326,820.7692,799.81683,0.011962890625,0.03424072265625,0.97747802734375,-18.46771240234375,19.57427978515625,21.196746826171875,1,1.0,1.0,1.0,1.0,10.00
2024-10-11 20:18:12.025,0.93687904,0.39806437,0.625035,0.9291772,0.88910276,0.24044971,0.1392575,0.7289583,1.3636627,0.32201728,0.40980768,0.9806771,0.7825538,0.10095947,-0.17853475,0.68953913,0.26100454,-0.16417085,-0.47594503,0.061914362,797.8022,790.54944,756.30035,819.9634,898.1319,0.011962890625,0.03424072265625,0.97747802734375,-18.46771240234375,19.57427978515625,21.196746826171875,1,1.0,1.0,1.0,1.0,10.00
2024-10-11 20:18:12.026,0.93687904,0.39806437,0.625035,0.9291772,0.88910276,0.24044971,0.1392575,0.7289583,1.3636627,0.32201728,0.40980768,0.9806771,0.7825538,0.10095947,-0.17853475,0.68953913,0.26100454,-0.16417085,-0.47594503,0.061914362,809.4872,785.7143,783.69965,826.0073,930.7692,0.011962890625,0.03424072265625,0.97747802734375,-18.46771240234375,19.57427978515625,21.196746826171875,1,1.0,1.0,1.0,1.0,10.00
2024-10-11 20:18:12.026,0.93687904,0.39806437,0.625035,0.9291772,0.88910276,0.24044971,0.1392575,0.7289583,1.3636627,0.32201728,0.40980768,0.9806771,0.7825538,0.10095947,-0.17853475,0.68953913,0.26100454,-0.16417085,-0.47594503,0.061914362,811.9048,780.07324,796.1905,830.4396,857.03296,0.011962890625,0.03424072265625,0.97747802734375,-18.46771240234375,19.57427978515625,21.196746826171875,1,1.0,1.0,1.0,1.0,10.00
2024-10-11 20:18:12.027,0.93687904,0.39806437,0.625035,0.9291772,0.88910276,0.24044971,0.1392575,0.7289583,1.3636627,0.32201728,0.40980768,0.9806771,0.7825538,0.10095947,-0.17853475,0.68953913,0.26100454,-0.16417085,-0.47594503,0.061914362,812.71063,786.9231,795.78754,827.2161,794.17584,0.011962890625,0.03424072265625,0.97747802734375,-18.46771240234375,19.57427978515625,21.196746826171875,1,1.0,1.0,1.0,1.0,10.00
2024-10-11 20:18:12.027,0.93687904,0.39806437,0.625035,0.9291772,0.88910276,0.24044971,0.1392575,0.7289583,1.3636627,0.32201728,0.40980768,0.9806771,0.7825538,0.10095947,-0.17853475,0.68953913,0.26100454,-0.16417085,-0.47594503,0.061914362,817.5458,779.67035,793.36993,835.6777,825.2015,0.011962890625,0.03424072265625,0.97747802734375,-18.46771240234375,19.57427978515625,21.196746826171875,1,1.0,1.0,1.0,1.0,10.00
2024-10-11 20:18:12.028,0.93687904,0.39806437,0.625035,0.9291772,0.88910276,0.24044971,0.1392575,0.7289583,1.3636627,0.32201728,0.40980768,0.9806771,0.7825538,0.10095947,-0.17853475,0.68953913,0.26100454,-0.16417085,-0.47594503,0.061914362,815.5311,778.86444,787.72894,843.3333,1162.4542,0.011962890625,0.03424072265625,0.97747802734375,-18.46771240234375,19.57427978515625,21.196746826171875,1,1.0,1.0,1.0,1.0,10.00
2024-10-11 20:18:12.028,0.93687904,0.39806437,0.625035,0.9291772,0.88910276,0.24044971,0.1392575,0.7289583,1.3636627,0.32201728,0.40980768,0.9806771,0.7825538,0.10095947,-0.17853475,0.68953913,0.26100454,-0.16417085,-0.47594503,0.061914362,815.9341,800.2198,791.75824,833.2601,963.8095,0.011962890625,0.03424072265625,0.97747802734375,-18.46771240234375,19.57427978515625,21.196746826171875,1,1.0,1.0,1.0,1.0,10.00
2024-10-11 20:18:12.029,0.93687904,0.39806437,0.625035,0.9291772,0.88910276,0.24044971,0.1392575,0.7289583,1.3636627,0.32201728,0.40980768,0.9806771,0.7825538,0.10095947,-0.17853475,0.68953913,0.26100454,-0.16417085,-0.47594503,0.061914362,821.1722,799.41394,803.0403,834.4689,623.3333,-0.00274658203125,0.03399658203125,1.00830078125,-11.4544677734375,17.563018798828125,10.1385498046875,1,1.0,1.0,1.0,1.0,10.00
2024-10-11 20:18:12.029,0.93687904,0.39806437,0.625035,0.9291772,0.88910276,0.24044971,0.1392575,0.7289583,1.3636627,0.32201728,0.40980768,0.9806771,0.7825538,0.10095947,-0.17853475,0.68953913,0.26100454,-0.16417085,-0.47594503,0.061914362,823.9927,804.2491,802.6374,835.6777,796.1905,-0.00274658203125,0.03399658203125,1.00830078125,-11.4544677734375,17.563018798828125,10.1385498046875,1,1.0,1.0,1.0,1.0,10.00
2024-10-11 20:18:12.030,0.93687904,0.39806437,0.625035,0.9291772,0.88910276,0.24044971,0.1392575,0.7289583,1.3636627,0.32201728,0.40980768,0.9806771,0.7825538,0.10095947,-0.17853475,0.68953913,0.26100454,-0.16417085,-0.47594503,0.061914362,822.7839,805.4579,794.57874,829.2308,791.75824,-0.00274658203125,0.03399658203125,1.00830078125,-11.4544677734375,17.563018798828125,10.1385498046875,1,1.0,1.0,1.0,1.0,10.00
2024-10-11 20:18:12.030,0.93687904,0.39806437,0.625035,0.9291772,0.88910276,0.24044971,0.1392575,0.7289583,1.3636627,0.32201728,0.40980768,0.9806771,0.7825538,0.10095947,-0.17853475,0.68953913,0.26100454,-0.16417085,-0.47594503,0.061914362,819.9634,795.78754,796.99634,829.2308,599.5604,-0.00274658203125,0.03399658203125,1.00830078125,-11.4544677734375,17.563018798828125,10.1385498046875,1,1.0,1.0,1.0,1.0,10.00
2024-10-11 20:18:12.031,0.93687904,0.39806437,0.625035,0.9291772,0.88910276,0.24044971,0.1392575,0.7289583,1.3636627,0.32201728,0.40980768,0.9806771,0.7825538,0.10095947,-0.17853475,0.68953913,0.26100454,-0.16417085,-0.47594503,0.061914362,824.7985,799.41394,796.1905,830.0366,607.619,-0.00274658203125,0.03399658203125,1.00830078125,-11.4544677734375,17.563018798828125,10.1385498046875,1,1.0,1.0,1.0,1.0,10.00
2024-10-11 20:18:12.031,0.93687904,0.39806437,0.625035,0.9291772,0.88910276,0.24044971,0.1392575,0.7289583,1.3636627,0.32201728,0.40980768,0.9806771,0.7825538,0.10095947,-0.17853475,0.68953913,0.26100454,-0.16417085,-0.47594503,0.061914362,828.8278,799.011,792.96704,819.15753,917.8755,-0.00274658203125,0.03399658203125,1.00830078125,-11.4544677734375,17.563018798828125,10.1385498046875,1,1.0,1.0,1.0,1.0,10.00
2024-10-11 20:18:12.032,0.93687904,0.39806437,0.625035,0.9291772,0.88910276,0.24044971,0.1392575,0.7289583,1.3636627,0.32201728,0.40980768,0.9806771,0.7825538,0.10095947,-0.17853475,0.68953913,0.26100454,-0.16417085,-0.47594503,0.061914362,828.4249,797.3993,786.1172,812.71063,890.87915,-0.00274658203125,0.03399658203125,1.00830078125,-11.4544677734375,17.563018798828125,10.1385498046875,1,1.0,1.0,1.0,1.0,10.00
2024-10-11 20:18:12.032,0.93687904,0.39806437,0.625035,0.9291772,0.88910276,0.24044971,0.1392575,0.7289583,1.3636627,0.32201728,0.40980768,0.9806771,0.7825538,0.10095947,-0.17853475,0.68953913,0.26100454,-0.16417085,-0.47594503,0.061914362,823.5897,795.78754,772.8205,817.5458,529.85345,-0.00274658203125,0.03399658203125,1.00830078125,-11.4544677734375,17.563018798828125,10.1385498046875,1,1.0,1.0,1.0,1.0,10.00
2024-10-11 20:18:12.032,0.93687904,0.39806437,0.625035,0.9291772,0.88910276,0.24044971,0.1392575,0.7289583,1.3636627,0.32201728,0.40980768,0.9806771,0.7825538,0.10095947,-0.17853475,0.68953913,0.26100454,-0.16417085,-0.47594503,0.061914362,821.978,790.54944,776.8498,817.9487,517.3626,-0.00274658203125,0.03399658203125,1.00830078125,-11.4544677734375,17.563018798828125,10.1385498046875,1,1.0,1.0,1.0,1.0,10.00
2024-10-11 20:18:12.033,0.93687904,0.39806437,0.625035,0.9291772,0.88910276,0.24044971,0.1392575,0.7289583,1.3636627,0.32201728,0.40980768,0.9806771,0.7825538,0.10095947,-0.17853475,0.68953913,0.26100454,-0.16417085,-0.47594503,0.061914362,825.2015,786.1172,786.9231,813.91943,811.9048,-0.00274658203125,0.03399658203125,1.00830078125,-11.4544677734375,17.563018798828125,10.1385498046875,1,1.0,1.0,1.0,1.0,10.00
2024-10-11 20:18:12.034,0.93687904,0.39806437,0.625035,0.9291772,0.88910276,0.24044971,0.1392575,0.7289583,1.3636627,0.32201728,0.40980768,0.9806771,0.7825538,0.10095947,-0.17853475,0.68953913,0.26100454,-0.16417085,-0.47594503,0.061914362,823.5897,790.54944,791.75824,815.5311,803.0403,-0.00274658203125,0.03399658203125,1.00830078125,-11.4544677734375,17.563018798828125,10.1385498046875,1,1.0,1.0,1.0,1.0,10.00
2024-10-11 20:18:12.034,0.9158482,0.43365744,0.63825446,0.9117308,0.8809262,0.24877922,0.16039199,0.7040174,1.3616627,0.322921,0.37417266,0.934258,0.7831048,0.123876095,-0.1761185,0.71289796,0.22734094,-0.13208662,-0.48683727,0.08075316,821.978,798.20514,797.3993,813.5165,604.3956,-0.00274658203125,0.03399658203125,1.00830078125,-11.4544677734375,17.563018798828125,10.1385498046875,1,1.0,1.0,1.0,1.0,10.00
2024-10-11 20:18:12.159,0.9158482,0.43365744,0.63825446,0.9117308,0.8809262,0.24877922,0.16039199,0.7040174,1.3616627,0.322921,0.37417266,0.934258,0.7831048,0.123876095,-0.1761185,0.71289796,0.22734094,-0.13208662,-0.48683727,0.08075316,825.6044,796.5934,788.1319,810.293,655.9707,-0.0472412109375,0.01190185546875,1.0430908203125,-10.684356689453125,20.21728515625,3.87298583984375,1,1.0,1.0,1.0,1.0,10.00
2024-10-11 20:18:12.160,0.9158482,0.43365744,0.63825446,0.9117308,0.8809262,0.24877922,0.16039199,0.7040174,1.3616627,0.322921,0.37417266,0.934258,0.7831048,0.123876095,-0.1761185,0.71289796,0.22734094,-0.13208662,-0.48683727,0.08075316,826.0073,798.60803,782.49084,812.71063,824.3956,-0.0472412109375,0.01190185546875,1.0430908203125,-10.684356689453125,20.21728515625,3.87298583984375,1,1.0,1.0,1.0,1.0,10.00
2024-10-11 20:18:12.161,0.9158482,0.43365744,0.63825446,0.9117308,0.8809262,0.24877922,0.16039199,0.7040174,1.3616627,0.322921,0.37417266,0.934258,0.7831048,0.123876095,-0.1761185,0.71289796,0.22734094,-0.13208662,-0.48683727,0.08075316,819.9634,794.9817,797.3993,809.4872,803.8461,-0.0472412109375,0.01190185546875,1.0430908203125,-10.684356689453125,20.21728515625,3.87298583984375,1,1.0,1.0,1.0,1.0,10.00
2024-10-11 20:18:12.161,0.9158482,0.43365744,0.63825446,0.9117308,0.8809262,0.24877922,0.16039199,0.7040174,1.3616627,0.322921,0.37417266,0.934258,0.7831048,0.123876095,-0.1761185,0.71289796,0.22734094,-0.13208662,-0.48683727,0.08075316,830.84247,784.5055,801.4286,813.91943,646.7033,-0.0472412109375,0.01190185546875,1.0430908203125,-10.684356689453125,20.21728515625,3.87298583984375,1,1.0,1.0,1.0,1.0,10.00
2024-10-11 20:18:12.162,0.9158482,0.43365744,0.63825446,0.9117308,0.8809262,0.24877922,0.16039199,0.7040174,1.3616627,0.322921,0.37417266,0.934258,0.7831048,0.123876095,-0.1761185,0.71289796,0.22734094,-0.13208662,-0.48683727,0.08075316,837.6923,790.9524,792.96704,821.5751,782.8938,-0.0472412109375,0.01190185546875,1.0430908203125,-10.684356689453125,20.21728515625,3.87298583984375,1,1.0,1.0,1.0,1.0,10.00
2024-10-11 20:18:12.163,0.9158482,0.43365744,0.63825446,0.9117308,0.8809262,0.24877922,0.16039199,0.7040174,1.3616627,0.322921,0.37417266,0.934258,0.7831048,0.123876095,-0.1761185,0.71289796,0.22734094,-0.13208662,-0.48683727,0.08075316,820.3663,792.1612,796.5934,819.5604,1144.7252,-0.0472412109375,0.01190185546875,1.0430908203125,-10.684356689453125,20.21728515625,3.87298583984375,1,1.0,1.0,1.0,1.0,10.00
2024-10-11 20:18:12.163,0.9158482,0.43365744,0.63825446,0.9117308,0.8809262,0.24877922,0.16039199,0.7040174,1.3616627,0.322921,0.37417266,0.934258,0.7831048,0.123876095,-0.1761185,0.71289796,0.22734094,-0.13208662,-0.48683727,0.08075316,796.1905,796.5934,795.78754,812.3077,1107.6556,-0.0472412109375,0.01190185546875,1.0430908203125,-10.684356689453125,20.21728515625,3.87298583984375,1,1.0,1.0,1.0,1.0,10.00
2024-10-11 20:18:12.164,0.9158482,0.43365744,0.63825446,0.9117308,0.8809262,0.24877922,0.16039199,0.7040174,1.3616627,0.322921,0.37417266,0.934258,0.7831048,0.123876095,-0.1761185,0.71289796,0.22734094,-0.13208662,-0.48683727,0.08075316,790.9524,800.2198,792.96704,809.0842,829.2308,-0.0472412109375,0.01190185546875,1.0430908203125,-10.684356689453125,20.21728515625,3.87298583984375,1,1.0,1.0,1.0,1.0,10.00
2024-10-11 20:18:12.164,0.9158482,0.43365744,0.63825446,0.9117308,0.8809262,0.24877922,0.16039199,0.7040174,1.3616627,0.322921,0.37417266,0.934258,0.7831048,0.123876095,-0.1761185,0.71289796,0.22734094,-0.13208662,-0.48683727,0.08075316,805.8608,792.1612,798.60803,816.337,716.4103,-0.0472412109375,0.01190185546875,1.0430908203125,-10.684356689453125,20.21728515625,3.87298583984375,1,1.0,1.0,1.0,1.0,10.00
2024-10-11 20:18:12.165,0.9158482,0.43365744,0.63825446,0.9117308,0.8809262,0.24877922,0.16039199,0.7040174,1.3616627,0.322921,0.37417266,0.934258,0.7831048,0.123876095,-0.1761185,0.71289796,0.22734094,-0.13208662,-0.48683727,0.08075316,805.4579,778.0586,799.41394,820.7692,1127.3993,-0.0472412109375,0.01190185546875,1.0430908203125,-10.684356689453125,20.21728515625,3.87298583984375,1,1.0,1.0,1.0,1.0,10.00
2024-10-11 20:18:12.165,0.9158482,0.43365744,0.63825446,0.9117308,0.8809262,0.24877922,0.16039199,0.7040174,1.3616627,0.322921,0.37417266,0.934258,0.7831048,0.123876095,-0.1761185,0.71289796,0.22734094,-0.13208662,-0.48683727,0.08075316,800.6227,777.25275,799.81683,821.1722,1174.9451,-0.0472412109375,0.01190185546875,1.0430908203125,-10.684356689453125,20.21728515625,3.87298583984375,1,1.0,1.0,1.0,1.0,10.00
2024-10-11 20:18:12.166,0.9158482,0.43365744,0.63825446,0.9117308,0.8809262,0.24877922,0.16039199,0.7040174,1.3616627,0.322921,0.37417266,0.934258,0.7831048,0.123876095,-0.1761185,0.71289796,0.22734094,-0.13208662,-0.48683727,0.08075316,801.8315,796.5934,792.5641,815.9341,716.8132,-0.0472412109375,0.01190185546875,1.0430908203125,-10.684356689453125,20.21728515625,3.87298583984375,1,1.0,1.0,1.0,1.0,10.00
2024-10-11 20:18:12.167,0.9158482,0.43365744,0.63825446,0.9117308,0.8809262,0.24877922,0.16039199,0.7040174,1.3616627,0.322921,0.37417266,0.934258,0.7831048,0.123876095,-0.1761185,0.71289796,0.22734094,-0.13208662,-0.48683727,0.08075316,807.8755,800.6227,788.93774,821.978,758.71796,-0.06298828125,-0.0076904296875,1.00225830078125,-11.985321044921875,11.67877197265625,0.097198486328125,1,1.0,1.0,1.0,1.0,10.00
2024-10-11 20:18:12.168,0.9158482,0.43365744,0.63825446,0.9117308,0.8809262,0.24877922,0.16039199,0.7040174,1.3616627,0.322921,0.37417266,0.934258,0.7831048,0.123876095,-0.1761185,0.71289796,0.22734094,-0.13208662,-0.48683727,0.08075316,815.12823,797.3993,797.8022,829.2308,778.86444,-0.06298828125,-0.0076904296875,1.00225830078125,-11.985321044921875,11.67877197265625,0.097198486328125,1,1.0,1.0,1.0,1.0,10.00
2024-10-11 20:18:12.168,0.9158482,0.43365744,0.63825446,0.9117308,0.8809262,0.24877922,0.16039199,0.7040174,1.3616627,0.322921,0.37417266,0.934258,0.7831048,0.123876095,-0.1761185,0.71289796,0.22734094,-0.13208662,-0.48683727,0.08075316,817.1429,795.78754,803.44324,828.022,710.3663,-0.06298828125,-0.0076904296875,1.00225830078125,-11.985321044921875,11.67877197265625,0.097198486328125,1,1.0,1.0,1.0,1.0,10.00
2024-10-11 20:18:12.169,0.9158482,0.43365744,0.63825446,0.9117308,0.8809262,0.24877922,0.16039199,0.7040174,1.3616627,0.322921,0.37417266,0.934258,0.7831048,0.123876095,-0.1761185,0.71289796,0.22734094,-0.13208662,-0.48683727,0.08075316,809.89014,790.9524,801.8315,832.0513,660.40295,-0.06298828125,-0.0076904296875,1.00225830078125,-11.985321044921875,11.67877197265625,0.097198486328125,1,1.0,1.0,1.0,1.0,10.00
2024-10-11 20:18:12.169,0.9158482,0.43365744,0.63825446,0.9117308,0.8809262,0.24877922,0.16039199,0.7040174,1.3616627,0.322921,0.37417266,0.934258,0.7831048,0.123876095,-0.1761185,0.71289796,0.22734094,-0.13208662,-0.48683727,0.08075316,811.50183,795.38464,809.89014,834.4689,722.8571,-0.06298828125,-0.0076904296875,1.00225830078125,-11.985321044921875,11.67877197265625,0.097198486328125,1,1.0,1.0,1.0,1.0,10.00
2024-10-11 20:18:12.170,0.9158482,0.43365744,0.63825446,0.9117308,0.8809262,0.24877922,0.16039199,0.7040174,1.3616627,0.322921,0.37417266,0.934258,0.7831048,0.123876095,-0.1761185,0.71289796,0.22734094,-0.13208662,-0.48683727,0.08075316,819.5604,797.8022,800.6227,830.4396,820.3663,-0.06298828125,-0.0076904296875,1.00225830078125,-11.985321044921875,11.67877197265625,0.097198486328125,1,1.0,1.0,1.0,1.0,10.00
2024-10-11 20:18:12.170,0.9158482,0.43365744,0.63825446,0.9117308,0.8809262,0.24877922,0.16039199,0.7040174,1.3616627,0.322921,0.37417266,0.934258,0.7831048,0.123876095,-0.1761185,0.71289796,0.22734094,-0.13208662,-0.48683727,0.08075316,817.5458,794.17584,796.5934,828.4249,906.5934,-0.06298828125,-0.0076904296875,1.00225830078125,-11.985321044921875,11.67877197265625,0.097198486328125,1,1.0,1.0,1.0,1.0,10.00
2024-10-11 20:18:12.171,0.9158482,0.43365744,0.63825446,0.9117308,0.8809262,0.24877922,0.16039199,0.7040174,1.3616627,0.322921,0.37417266,0.934258,0.7831048,0.123876095,-0.1761185,0.71289796,0.22734094,-0.13208662,-0.48683727,0.08075316,817.5458,796.1905,809.89014,821.5751,889.67035,-0.06298828125,-0.0076904296875,1.00225830078125,-11.985321044921875,11.67877197265625,0.097198486328125,1,1.0,1.0,1.0,1.0,10.00
2024-10-11 20:18:12.172,0.9158482,0.43365744,0.63825446,0.9117308,0.8809262,0.24877922,0.16039199,0.7040174,1.3616627,0.322921,0.37417266,0.934258,0.7831048,0.123876095,-0.1761185,0.71289796,0.22734094,-0.13208662,-0.48683727,0.08075316,819.15753,787.326,800.6227,815.9341,896.1172,-0.06298828125,-0.0076904296875,1.00225830078125,-11.985321044921875,11.67877197265625,0.097198486328125,1,1.0,1.0,1.0,1.0,10.00
2024-10-11 20:18:12.172,0.9158482,0.43365744,0.63825446,0.9117308,0.8809262,0.24877922,0.16039199,0.7040174,1.3616627,0.322921,0.37417266,0.934258,0.7831048,0.123876095,-0.1761185,0.71289796,0.22734094,-0.13208662,-0.48683727,0.08075316,816.337,794.57874,800.2198,818.7546,878.7912,-0.06298828125,-0.0076904296875,1.00225830078125,-11.985321044921875,11.67877197265625,0.097198486328125,1,1.0,1.0,1.0,1.0,10.00
2024-10-11 20:18:12.173,0.9158482,0.43365744,0.63825446,0.9117308,0.8809262,0.24877922,0.16039199,0.7040174,1.3616627,0.322921,0.37417266,0.934258,0.7831048,0.123876095,-0.1761185,0.71289796,0.22734094,-0.13208662,-0.48683727,0.08075316,821.1722,801.4286,803.8461,821.978,756.30035,-0.06298828125,-0.0076904296875,1.00225830078125,-11.985321044921875,11.67877197265625,0.097198486328125,1,1.0,1.0,1.0,1.0,10.00
2024-10-11 20:18:12.173,0.9158482,0.43365744,0.63825446,0.9117308,0.8809262,0.24877922,0.16039199,0.7040174,1.3616627,0.322921,0.37417266,0.934258,0.7831048,0.123876095,-0.1761185,0.71289796,0.22734094,-0.13208662,-0.48683727,0.08075316,810.696,788.5348,798.20514,811.50183,798.60803,-0.06298828125,-0.0076904296875,1.00225830078125,-11.985321044921875,11.67877197265625,0.097198486328125,1,1.0,1.0,1.0,1.0,10.00
2024-10-11 20:18:12.196,0.9158482,0.43365744,0.63825446,0.9117308,0.8809262,0.24877922,0.16039199,0.7040174,1.3616627,0.322921,0.37417266,0.934258,0.7831048,0.123876095,-0.1761185,0.71289796,0.22734094,-0.13208662,-0.48683727,0.08075316,804.65204,787.72894,797.3993,802.6374,839.304,-0.06298828125,-0.0076904296875,1.00225830078125,-11.985321044921875,11.67877197265625,0.097198486328125,1,1.0,1.0,1.0,1.0,10.00
2024-10-11 20:18:12.197,0.9194794,0.48990908,0.6594199,0.9097871,0.88514745,0.25935516,0.17869097,0.6968295,1.3616627,0.3305545,0.34178832,0.87490386,0.77912027,0.16655119,-0.16767891,0.7288149,0.20290716,-0.07794823,-0.49712494,0.094706595,806.6667,789.34064,792.96704,802.6374,773.6264,-0.06298828125,-0.0076904296875,1.00225830078125,-11.985321044921875,11.67877197265625,0.097198486328125,1,1.0,1.0,1.0,1.0,10.00
2024-10-11 20:18:12.202,0.9194794,0.48990908,0.6594199,0.9097871,0.88514745,0.25935516,0.17869097,0.6968295,1.3616627,0.3305545,0.34178832,0.87490386,0.77912027,0.16655119,-0.16767891,0.7288149,0.20290716,-0.07794823,-0.49712494,0.094706595,804.2491,789.7436,793.7729,808.2784,683.36993,-0.06298828125,-0.0076904296875,1.00225830078125,-11.985321044921875,11.67877197265625,0.097198486328125,1,1.0,1.0,1.0,1.0,10.00
2024-10-11 20:18:12.204,0.9194794,0.48990908,0.6594199,0.9097871,0.88514745,0.25935516,0.17869097,0.6968295,1.3616627,0.3305545,0.34178832,0.87490386,0.77912027,0.16655119,-0.16767891,0.7288149,0.20290716,-0.07794823,-0.49712494,0.094706595,809.89014,796.5934,806.26373,818.7546,921.50183,-0.06298828125,-0.0076904296875,1.00225830078125,-11.985321044921875,11.67877197265625,0.097198486328125,1,1.0,1.0,1.0,1.0,10.00
2024-10-11 20:18:12.205,0.9194794,0.48990908,0.6594199,0.9097871,0.88514745,0.25935516,0.17869097,0.6968295,1.3616627,0.3305545,0.34178832,0.87490386,0.77912027,0.16655119,-0.16767891,0.7288149,0.20290716,-0.07794823,-0.49712494,0.094706595,811.9048,802.6374,809.89014,820.3663,1035.5311,-0.06298828125,-0.0076904296875,1.00225830078125,-11.985321044921875,11.67877197265625,0.097198486328125,1,1.0,1.0,1.0,1.0,10.00
2024-10-11 20:18:12.206,0.9194794,0.48990908,0.6594199,0.9097871,0.88514745,0.25935516,0.17869097,0.6968295,1.3616627,0.3305545,0.34178832,0.87490386,0.77912027,0.16655119,-0.16767891,0.7288149,0.20290716,-0.07794823,-0.49712494,0.094706595,808.68134,805.05493,799.81683,821.1722,882.4176,-0.06298828125,-0.0076904296875,1.00225830078125,-11.985321044921875,11.67877197265625,0.097198486328125,1,1.0,1.0,1.0,1.0,10.00
2024-10-11 20:18:12.207,0.9194794,0.48990908,0.6594199,0.9097871,0.88514745,0.25935516,0.17869097,0.6968295,1.3616627,0.3305545,0.34178832,0.87490386,0.77912027,0.16655119,-0.16767891,0.7288149,0.20290716,-0.07794823,-0.49712494,0.094706595,806.26373,794.17584,799.011,820.7692,777.6557,-0.06298828125,-0.0076904296875,1.00225830078125,-11.985321044921875,11.67877197265625,0.097198486328125,1,1.0,1.0,1.0,1.0,10.00
2024-10-11 20:18:12.207,0.9194794,0.48990908,0.6594199,0.9097871,0.88514745,0.25935516,0.17869097,0.6968295,1.3616627,0.3305545,0.34178832,0.87490386,0.77912027,0.16655119,-0.16767891,0.7288149,0.20290716,-0.07794823,-0.49712494,0.094706595,814.3223,794.17584,801.8315,826.8132,831.6484,-0.06298828125,-0.0076904296875,1.00225830078125,-11.985321044921875,11.67877197265625,0.097198486328125,1,1.0,1.0,1.0,1.0,10.00
2024-10-11 20:18:12.208,0.9194794,0.48990908,0.6594199,0.9097871,0.88514745,0.25935516,0.17869097,0.6968295,1.3616627,0.3305545,0.34178832,0.87490386,0.77912027,0.16655119,-0.16767891,0.7288149,0.20290716,-0.07794823,-0.49712494,0.094706595,815.5311,799.81683,799.81683,828.4249,996.8498,-0.06298828125,-0.0076904296875,1.00225830078125,-11.985321044921875,11.67877197265625,0.097198486328125,1,1.0,1.0,1.0,1.0,10.00
2024-10-11 20:18:12.209,0.9194794,0.48990908,0.6594199,0.9097871,0.88514745,0.25935516,0.17869097,0.6968295,1.3616627,0.3305545,0.34178832,0.87490386,0.77912027,0.16655119,-0.16767891,0.7288149,0.20290716,-0.07794823,-0.49712494,0.094706595,807.8755,792.1612,800.6227,817.5458,853.8095,-0.06298828125,-0.0076904296875,1.00225830078125,-11.985321044921875,11.67877197265625,0.097198486328125,1,1.0,1.0,1.0,1.0,10.00
2024-10-11 20:18:12.210,0.9194794,0.48990908,0.6594199,0.9097871,0.88514745,0.25935516,0.17869097,0.6968295,1.3616627,0.3305545,0.34178832,0.87490386,0.77912027,0.16655119,-0.16767891,0.7288149,0.20290716,-0.07794823,-0.49712494,0.094706595,810.293,796.1905,801.4286,821.978,644.68866,-0.06298828125,-0.0076904296875,1.00225830078125,-11.985321044921875,11.67877197265625,0.097198486328125,1,1.0,1.0,1.0,1.0,10.00
2024-10-11 20:18:12.210,0.9194794,0.48990908,0.6594199,0.9097871,0.88514745,0.25935516,0.17869097,0.6968295,1.3616627,0.3305545,0.34178832,0.87490386,0.77912027,0.16655119,-0.16767891,0.7288149,0.20290716,-0.07794823,-0.49712494,0.094706595,806.6667,796.5934,807.0696,826.4103,859.0476,-0.06298828125,-0.0076904296875,1.00225830078125,-11.985321044921875,11.67877197265625,0.097198486328125,1,1.0,1.0,1.0,1.0,10.00
2024-10-11 20:18:12.235,0.9194794,0.48990908,0.6594199,0.9097871,0.88514745,0.25935516,0.17869097,0.6968295,1.3616627,0.3305545,0.34178832,0.87490386,0.77912027,0.16655119,-0.16767891,0.7288149,0.20290716,-0.07794823,-0.49712494,0.094706595,803.44324,782.49084,806.6667,826.4103,1025.4579,-0.05816650390625,-0.03924560546875,0.99542236328125,-12.867584228515625,2.938385009765625,-2.16827392578125,1,1.0,1.0,1.0,1.0,10.00
2024-10-11 20:18:12.236,0.9194794,0.48990908,0.6594199,0.9097871,0.88514745,0.25935516,0.17869097,0.6968295,1.3616627,0.3305545,0.34178832,0.87490386,0.77912027,0.16655119,-0.16767891,0.7288149,0.20290716,-0.07794823,-0.49712494,0.094706595,805.05493,783.2967,803.8461,825.2015,797.8022,-0.05816650390625,-0.03924560546875,0.99542236328125,-12.867584228515625,2.938385009765625,-2.16827392578125,1,1.0,1.0,1.0,1.0,10.00
2024-10-11 20:18:12.237,0.9194794,0.48990908,0.6594199,0.9097871,0.88514745,0.25935516,0.17869097,0.6968295,1.3616627,0.3305545,0.34178832,0.87490386,0.77912027,0.16655119,-0.16767891,0.7288149,0.20290716,-0.07794823,-0.49712494,0.094706595,805.8608,789.34064,801.02563,817.9487,612.4542,-0.05816650390625,-0.03924560546875,0.99542236328125,-12.867584228515625,2.938385009765625,-2.16827392578125,1,1.0,1.0,1.0,1.0,10.00
2024-10-11 20:18:12.238,0.9194794,0.48990908,0.6594199,0.9097871,0.88514745,0.25935516,0.17869097,0.6968295,1.3616627,0.3305545,0.34178832,0.87490386,0.77912027,0.16655119,-0.16767891,0.7288149,0.20290716,-0.07794823,-0.49712494,0.094706595,810.696,785.31134,796.99634,817.1429,879.59705,-0.05816650390625,-0.03924560546875,0.99542236328125,-12.867584228515625,2.938385009765625,-2.16827392578125,1,1.0,1.0,1.0,1.0,10.00
2024-10-11 20:18:12.239,0.9194794,0.48990908,0.6594199,0.9097871,0.88514745,0.25935516,0.17869097,0.6968295,1.3616627,0.3305545,0.34178832,0.87490386,0.77912027,0.16655119,-0.16767891,0.7288149,0.20290716,-0.07794823,-0.49712494,0.094706595,810.293,790.9524,794.57874,817.1429,1235.7876,-0.05816650390625,-0.03924560546875,0.99542236328125,-12.867584228515625,2.938385009765625,-2.16827392578125,1,1.0,1.0,1.0,1.0,10.00
2024-10-11 20:18:12.239,0.9194794,0.48990908,0.6594199,0.9097871,0.88514745,0.25935516,0.17869097,0.6968295,1.3616627,0.3305545,0.34178832,0.87490386,0.77912027,0.16655119,-0.16767891,0.7288149,0.20290716,-0.07794823,-0.49712494,0.094706595,807.0696,796.1905,788.1319,806.26373,896.1172,-0.05816650390625,-0.03924560546875,0.99542236328125,-12.867584228515625,2.938385009765625,-2.16827392578125,1,1.0,1.0,1.0,1.0,10.00
2024-10-11 20:18:12.241,0.9194794,0.48990908,0.6594199,0.9097871,0.88514745,0.25935516,0.17869097,0.6968295,1.3616627,0.3305545,0.34178832,0.87490386,0.77912027,0.16655119,-0.16767891,0.7288149,0.20290716,-0.07794823,-0.49712494,0.094706595,803.0403,792.5641,794.9817,797.8022,657.1795,-0.05816650390625,-0.03924560546875,0.99542236328125,-12.867584228515625,2.938385009765625,-2.16827392578125,1,1.0,1.0,1.0,1.0,10.00
2024-10-11 20:18:12.242,0.9194794,0.48990908,0.6594199,0.9097871,0.88514745,0.25935516,0.17869097,0.6968295,1.3616627,0.3305545,0.34178832,0.87490386,0.77912027,0.16655119,-0.16767891,0.7288149,0.20290716,-0.07794823,-0.49712494,0.094706595,803.8461,791.75824,801.02563,804.2491,1103.2234,-0.05816650390625,-0.03924560546875,0.99542236328125,-12.867584228515625,2.938385009765625,-2.16827392578125,1,1.0,1.0,1.0,1.0,10.00
2024-10-11 20:18:12.243,0.9194794,0.48990908,0.6594199,0.9097871,0.88514745,0.25935516,0.17869097,0.6968295,1.3616627,0.3305545,0.34178832,0.87490386,0.77912027,0.16655119,-0.16767891,0.7288149,0.20290716,-0.07794823,-0.49712494,0.094706595,816.7399,799.81683,799.81683,819.5604,1350.6227,-0.05816650390625,-0.03924560546875,0.99542236328125,-12.867584228515625,2.938385009765625,-2.16827392578125,1,1.0,1.0,1.0,1.0,10.00
2024-10-11 20:18:12.243,0.9194794,0.48990908,0.6594199,0.9097871,0.88514745,0.25935516,0.17869097,0.6968295,1.3616627,0.3305545,0.34178832,0.87490386,0.77912027,0.16655119,-0.16767891,0.7288149,0.20290716,-0.07794823,-0.49712494,0.094706595,817.9487,801.4286,801.8315,816.7399,836.4835,-0.05816650390625,-0.03924560546875,0.99542236328125,-12.867584228515625,2.938385009765625,-2.16827392578125,1,1.0,1.0,1.0,1.0,10.00
2024-10-11 20:18:12.244,0.9194794,0.48990908,0.6594199,0.9097871,0.88514745,0.25935516,0.17869097,0.6968295,1.3616627,0.3305545,0.34178832,0.87490386,0.77912027,0.16655119,-0.16767891,0.7288149,0.20290716,-0.07794823,-0.49712494,0.094706595,809.89014,787.72894,798.60803,808.68134,634.21246,-0.05816650390625,-0.03924560546875,0.99542236328125,-12.867584228515625,2.938385009765625,-2.16827392578125,1,1.0,1.0,1.0,1.0,10.00
2024-10-11 20:18:12.245,0.9194794,0.48990908,0.6594199,0.9097871,0.88514745,0.25935516,0.17869097,0.6968295,1.3616627,0.3305545,0.34178832,0.87490386,0.77912027,0.16655119,-0.16767891,0.7288149,0.20290716,-0.07794823,-0.49712494,0.094706595,801.8315,784.90845,792.1612,801.4286,669.2674,-0.05816650390625,-0.03924560546875,0.99542236328125,-12.867584228515625,2.938385009765625,-2.16827392578125,1,1.0,1.0,1.0,1.0,10.00
2024-10-11 20:18:12.269,0.9194794,0.48990908,0.6594199,0.9097871,0.88514745,0.25935516,0.17869097,0.6968295,1.3616627,0.3305545,0.34178832,0.87490386,0.77912027,0.16655119,-0.16767891,0.7288149,0.20290716,-0.07794823,-0.49712494,0.094706595,810.696,797.8022,792.5641,800.6227,641.06226,-0.05975341796875,-0.06805419921875,0.9803466796875,-12.852630615234375,0.500946044921875,-0.725250244140625,1,1.0,1.0,1.0,1.0,10.00
2024-10-11 20:18:12.270,0.9194794,0.48990908,0.6594199,0.9097871,0.88514745,0.25935516,0.17869097,0.6968295,1.3616627,0.3305545,0.34178832,0.87490386,0.77912027,0.16655119,-0.16767891,0.7288149,0.20290716,-0.07794823,-0.49712494,0.094706595,820.3663,790.14655,792.5641,802.6374,633.00366,-0.05975341796875,-0.06805419921875,0.9803466796875,-12.852630615234375,0.500946044921875,-0.725250244140625,1,1.0,1.0,1.0,1.0,10.00
2024-10-11 20:18:12.270,0.9194794,0.48990908,0.6594199,0.9097871,0.88514745,0.25935516,0.17869097,0.6968295,1.3616627,0.3305545,0.34178832,0.87490386,0.77912027,0.16655119,-0.16767891,0.7288149,0.20290716,-0.07794823,-0.49712494,0.094706595,813.5165,785.31134,787.326,803.0403,674.5055,-0.05975341796875,-0.06805419921875,0.9803466796875,-12.852630615234375,0.500946044921875,-0.725250244140625,1,1.0,1.0,1.0,1.0,10.00
2024-10-11 20:18:12.271,0.93297124,0.5453206,0.68775153,0.90435183,0.88282466,0.26825672,0.18225738,0.67615336,1.3616627,0.3515167,0.32836533,0.84417623,0.76074827,0.235543,-0.15384288,0.7222989,0.19782667,-0.013534605,-0.5008152,0.09988312,804.65204,797.3993,788.5348,804.65204,649.5238,-0.05975341796875,-0.06805419921875,0.9803466796875,-12.852630615234375,0.500946044921875,-0.725250244140625,1,1.0,1.0,1.0,1.0,10.00
2024-10-11 20:18:12.276,0.93297124,0.5453206,0.68775153,0.90435183,0.88282466,0.26825672,0.18225738,0.67615336,1.3616627,0.3515167,0.32836533,0.84417623,0.76074827,0.235543,-0.15384288,0.7222989,0.19782667,-0.013534605,-0.5008152,0.09988312,798.60803,800.2198,807.0696,808.2784,611.2454,-0.05975341796875,-0.06805419921875,0.9803466796875,-12.852630615234375,0.500946044921875,-0.725250244140625,1,1.0,1.0,1.0,1.0,10.00
2024-10-11 20:18:12.277,0.93297124,0.5453206,0.68775153,0.90435183,0.88282466,0.26825672,0.18225738,0.67615336,1.3616627,0.3515167,0.32836533,0.84417623,0.76074827,0.235543,-0.15384288,0.7222989,0.19782667,-0.013534605,-0.5008152,0.09988312,801.02563,798.60803,813.5165,813.5165,762.74725,-0.05975341796875,-0.06805419921875,0.9803466796875,-12.852630615234375,0.500946044921875,-0.725250244140625,1,1.0,1.0,1.0,1.0,10.00
2024-10-11 20:18:12.278,0.93297124,0.5453206,0.68775153,0.90435183,0.88282466,0.26825672,0.18225738,0.67615336,1.3616627,0.3515167,0.32836533,0.84417623,0.76074827,0.235543,-0.15384288,0.7222989,0.19782667,-0.013534605,-0.5008152,0.09988312,801.4286,802.6374,805.05493,812.3077,944.0659,-0.05975341796875,-0.06805419921875,0.9803466796875,-12.852630615234375,0.500946044921875,-0.725250244140625,1,1.0,1.0,1.0,1.0,10.00
2024-10-11 20:18:12.278,0.93297124,0.5453206,0.68775153,0.90435183,0.88282466,0.26825672,0.18225738,0.67615336,1.3616627,0.3515167,0.32836533,0.84417623,0.76074827,0.235543,-0.15384288,0.7222989,0.19782667,-0.013534605,-0.5008152,0.09988312,797.3993,795.38464,795.38464,811.9048,1035.1282,-0.05975341796875,-0.06805419921875,0.9803466796875,-12.852630615234375,0.500946044921875,-0.725250244140625,1,1.0,1.0,1.0,1.0,10.00
2024-10-11 20:18:12.279,0.93297124,0.5453206,0.68775153,0.90435183,0.88282466,0.26825672,0.18225738,0.67615336,1.3616627,0.3515167,0.32836533,0.84417623,0.76074827,0.235543,-0.15384288,0.7222989,0.19782667,-0.013534605,-0.5008152,0.09988312,799.41394,796.5934,799.41394,811.9048,898.1319,-0.05975341796875,-0.06805419921875,0.9803466796875,-12.852630615234375,0.500946044921875,-0.725250244140625,1,1.0,1.0,1.0,1.0,10.00
2024-10-11 20:18:12.280,0.93297124,0.5453206,0.68775153,0.90435183,0.88282466,0.26825672,0.18225738,0.67615336,1.3616627,0.3515167,0.32836533,0.84417623,0.76074827,0.235543,-0.15384288,0.7222989,0.19782667,-0.013534605,-0.5008152,0.09988312,804.65204,801.8315,796.5934,805.05493,804.2491,-0.05975341796875,-0.06805419921875,0.9803466796875,-12.852630615234375,0.500946044921875,-0.725250244140625,1,1.0,1.0,1.0,1.0,10.00
2024-10-11 20:18:12.280,0.93297124,0.5453206,0.68775153,0.90435183,0.88282466,0.26825672,0.18225738,0.67615336,1.3616627,0.3515167,0.32836533,0.84417623,0.76074827,0.235543,-0.15384288,0.7222989,0.19782667,-0.013534605,-0.5008152,0.09988312,806.6667,793.7729,788.5348,805.05493,877.98535,-0.05975341796875,-0.06805419921875,0.9803466796875,-12.852630615234375,0.500946044921875,-0.725250244140625,1,1.0,1.0,1.0,1.0,10.00
2024-10-11 20:18:12.281,0.93297124,0.5453206,0.68775153,0.90435183,0.88282466,0.26825672,0.18225738,0.67615336,1.3616627,0.3515167,0.32836533,0.84417623,0.76074827,0.235543,-0.15384288,0.7222989,0.19782667,-0.013534605,-0.5008152,0.09988312,804.2491,798.20514,792.5641,815.12823,869.5238,-0.05975341796875,-0.06805419921875,0.9803466796875,-12.852630615234375,0.500946044921875,-0.725250244140625,1,1.0,1.0,1.0,1.0,10.00
2024-10-11 20:18:12.302,0.93297124,0.5453206,0.68775153,0.90435183,0.88282466,0.26825672,0.18225738,0.67615336,1.3616627,0.3515167,0.32836533,0.84417623,0.76074827,0.235543,-0.15384288,0.7222989,0.19782667,-0.013534605,-0.5008152,0.09988312,796.5934,802.23444,794.17584,809.4872,734.5421,-0.0947265625,-0.08526611328125,0.98541259765625,-11.52923583984375,-0.291595458984375,-0.321502685546875,1,1.0,1.0,1.0,1.0,10.00
2024-10-11 20:18:12.303,0.93297124,0.5453206,0.68775153,0.90435183,0.88282466,0.26825672,0.18225738,0.67615336,1.3616627,0.3515167,0.32836533,0.84417623,0.76074827,0.235543,-0.15384288,0.7222989,0.19782667,-0.013534605,-0.5008152,0.09988312,800.2198,795.78754,798.60803,811.50183,776.8498,-0.0947265625,-0.08526611328125,0.98541259765625,-11.52923583984375,-0.291595458984375,-0.321502685546875,1,1.0,1.0,1.0,1.0,10.00
2024-10-11 20:18:12.304,0.93297124,0.5453206,0.68775153,0.90435183,0.88282466,0.26825672,0.18225738,0.67615336,1.3616627,0.3515167,0.32836533,0.84417623,0.76074827,0.235543,-0.15384288,0.7222989,0.19782667,-0.013534605,-0.5008152,0.09988312,803.8461,788.1319,799.81683,834.0659,979.5238,-0.0947265625,-0.08526611328125,0.98541259765625,-11.52923583984375,-0.291595458984375,-0.321502685546875,1,1.0,1.0,1.0,1.0,10.00
2024-10-11 20:18:12.305,0.93297124,0.5453206,0.68775153,0.90435183,0.88282466,0.26825672,0.18225738,0.67615336,1.3616627,0.3515167,0.32836533,0.84417623,0.76074827,0.235543,-0.15384288,0.7222989,0.19782667,-0.013534605,-0.5008152,0.09988312,791.75824,787.72894,809.0842,825.2015,1064.1392,-0.0947265625,-0.08526611328125,0.98541259765625,-11.52923583984375,-0.291595458984375,-0.321502685546875,1,1.0,1.0,1.0,1.0,10.00
2024-10-11 20:18:12.305,0.93297124,0.5453206,0.68775153,0.90435183,0.88282466,0.26825672,0.18225738,0.67615336,1.3616627,0.3515167,0.32836533,0.84417623,0.76074827,0.235543,-0.15384288,0.7222989,0.19782667,-0.013534605,-0.5008152,0.09988312,792.5641,789.34064,813.91943,805.4579,779.67035,-0.0947265625,-0.08526611328125,0.98541259765625,-11.52923583984375,-0.291595458984375,-0.321502685546875,1,1.0,1.0,1.0,1.0,10.00
2024-10-11 20:18:12.306,0.93297124,0.5453206,0.68775153,0.90435183,0.88282466,0.26825672,0.18225738,0.67615336,1.3616627,0.3515167,0.32836533,0.84417623,0.76074827,0.235543,-0.15384288,0.7222989,0.19782667,-0.013534605,-0.5008152,0.09988312,808.68134,796.5934,805.05493,817.5458,818.7546,-0.0947265625,-0.08526611328125,0.98541259765625,-11.52923583984375,-0.291595458984375,-0.321502685546875,1,1.0,1.0,1.0,1.0,10.00
2024-10-11 20:18:12.306,0.93297124,0.5453206,0.68775153,0.90435183,0.88282466,0.26825672,0.18225738,0.67615336,1.3616627,0.3515167,0.32836533,0.84417623,0.76074827,0.235543,-0.15384288,0.7222989,0.19782667,-0.013534605,-0.5008152,0.09988312,814.3223,806.6667,806.6667,830.0366,1132.2344,-0.0947265625,-0.08526611328125,0.98541259765625,-11.52923583984375,-0.291595458984375,-0.321502685546875,1,1.0,1.0,1.0,1.0,10.00
2024-10-11 20:18:12.307,0.93297124,0.5453206,0.68775153,0.90435183,0.88282466,0.26825672,0.18225738,0.67615336,1.3616627,0.3515167,0.32836533,0.84417623,0.76074827,0.235543,-0.15384288,0.7222989,0.19782667,-0.013534605,-0.5008152,0.09988312,812.3077,805.4579,807.47253,830.4396,1173.3334,-0.0947265625,-0.08526611328125,0.98541259765625,-11.52923583984375,-0.291595458984375,-0.321502685546875,1,1.0,1.0,1.0,1.0,10.00
2024-10-11 20:18:12.308,0.93297124,0.5453206,0.68775153,0.90435183,0.88282466,0.26825672,0.18225738,0.67615336,1.3616627,0.3515167,0.32836533,0.84417623,0.76074827,0.235543,-0.15384288,0.7222989,0.19782667,-0.013534605,-0.5008152,0.09988312,812.71063,801.8315,809.0842,815.9341,780.87915,-0.0947265625,-0.08526611328125,0.98541259765625,-11.52923583984375,-0.291595458984375,-0.321502685546875,1,1.0,1.0,1.0,1.0,10.00
2024-10-11 20:18:12.308,0.93297124,0.5453206,0.68775153,0.90435183,0.88282466,0.26825672,0.18225738,0.67615336,1.3616627,0.3515167,0.32836533,0.84417623,0.76074827,0.235543,-0.15384288,0.7222989,0.19782667,-0.013534605,-0.5008152,0.09988312,813.5165,798.60803,809.0842,816.7399,664.0293,-0.0947265625,-0.08526611328125,0.98541259765625,-11.52923583984375,-0.291595458984375,-0.321502685546875,1,1.0,1.0,1.0,1.0,10.00
2024-10-11 20:18:12.309,0.93297124,0.5453206,0.68775153,0.90435183,0.88282466,0.26825672,0.18225738,0.67615336,1.3616627,0.3515167,0.32836533,0.84417623,0.76074827,0.235543,-0.15384288,0.7222989,0.19782667,-0.013534605,-0.5008152,0.09988312,812.3077,798.60803,805.05493,812.3077,717.2161,-0.0947265625,-0.08526611328125,0.98541259765625,-11.52923583984375,-0.291595458984375,-0.321502685546875,1,1.0,1.0,1.0,1.0,10.00
2024-10-11 20:18:12.309,0.93297124,0.5453206,0.68775153,0.90435183,0.88282466,0.26825672,0.18225738,0.67615336,1.3616627,0.3515167,0.32836533,0.84417623,0.76074827,0.235543,-0.15384288,0.7222989,0.19782667,-0.013534605,-0.5008152,0.09988312,813.5165,795.78754,802.23444,799.41394,778.0586,-0.0947265625,-0.08526611328125,0.98541259765625,-11.52923583984375,-0.291595458984375,-0.321502685546875,1,1.0,1.0,1.0,1.0,10.00
2024-10-11 20:18:12.427,0.93297124,0.5453206,0.68775153,0.90435183,0.88282466,0.26825672,0.18225738,0.67615336,1.3616627,0.3515167,0.32836533,0.84417623,0.76074827,0.235543,-0.15384288,0.7222989,0.19782667,-0.013534605,-0.5008152,0.09988312,807.8755,796.5934,799.011,802.23444,788.1319,-0.0765380859375,-0.10418701171875,0.99822998046875,-10.88623046875,0.216827392578125,-1.42059326171875,1,1.0,1.0,1.0,1.0,10.00
2024-10-11 20:18:12.428,0.93297124,0.5453206,0.68775153,0.90435183,0.88282466,0.26825672,0.18225738,0.67615336,1.3616627,0.3515167,0.32836533,0.84417623,0.76074827,0.235543,-0.15384288,0.7222989,0.19782667,-0.013534605,-0.5008152,0.09988312,804.65204,800.6227,800.2198,804.2491,722.0513,-0.0765380859375,-0.10418701171875,0.99822998046875,-10.88623046875,0.216827392578125,-1.42059326171875,1,1.0,1.0,1.0,1.0,10.00
2024-10-11 20:18:12.429,0.93297124,0.5453206,0.68775153,0.90435183,0.88282466,0.26825672,0.18225738,0.67615336,1.3616627,0.3515167,0.32836533,0.84417623,0.76074827,0.235543,-0.15384288,0.7222989,0.19782667,-0.013534605,-0.5008152,0.09988312,807.47253,803.44324,804.65204,805.4579,871.9414,-0.0765380859375,-0.10418701171875,0.99822998046875,-10.88623046875,0.216827392578125,-1.42059326171875,1,1.0,1.0,1.0,1.0,10.00
2024-10-11 20:18:12.430,0.93297124,0.5453206,0.68775153,0.90435183,0.88282466,0.26825672,0.18225738,0.67615336,1.3616627,0.3515167,0.32836533,0.84417623,0.76074827,0.235543,-0.15384288,0.7222989,0.19782667,-0.013534605,-0.5008152,0.09988312,807.0696,799.011,798.60803,804.65204,834.4689,-0.0765380859375,-0.10418701171875,0.99822998046875,-10.88623046875,0.216827392578125,-1.42059326171875,1,1.0,1.0,1.0,1.0,10.00
2024-10-11 20:18:12.430,0.93297124,0.5453206,0.68775153,0.90435183,0.88282466,0.26825672,0.18225738,0.67615336,1.3616627,0.3515167,0.32836533,0.84417623,0.76074827,0.235543,-0.15384288,0.7222989,0.19782667,-0.013534605,-0.5008152,0.09988312,804.2491,790.14655,796.99634,795.78754,599.15753,-0.0765380859375,-0.10418701171875,0.99822998046875,-10.88623046875,0.216827392578125,-1.42059326171875,1,1.0,1.0,1.0,1.0,10.00
2024-10-11 20:18:12.431,0.9290859,0.5868652,0.71858877,0.8673061,0.86610454,0.27291495,0.17087401,0.6279364,1.3593198,0.4189536,0.28412482,0.819074,0.72687423,0.31760174,-0.14000365,0.6840752,0.21027917,0.044773202,-0.49467188,0.09390251,807.47253,796.1905,794.57874,796.5934,765.16486,-0.0765380859375,-0.10418701171875,0.99822998046875,-10.88623046875,0.216827392578125,-1.42059326171875,1,1.0,1.0,1.0,1.0,10.00
2024-10-11 20:18:12.436,0.9290859,0.5868652,0.71858877,0.8673061,0.86610454,0.27291495,0.17087401,0.6279364,1.3593198,0.4189536,0.28412482,0.819074,0.72687423,0.31760174,-0.14000365,0.6840752,0.21027917,0.044773202,-0.49467188,0.09390251,811.9048,801.8315,794.57874,811.0989,1157.619,-0.0765380859375,-0.10418701171875,0.99822998046875,-10.88623046875,0.216827392578125,-1.42059326171875,1,1.0,1.0,1.0,1.0,10.00
2024-10-11 20:18:12.436,0.9290859,0.5868652,0.71858877,0.8673061,0.86610454,0.27291495,0.17087401,0.6279364,1.3593198,0.4189536,0.28412482,0.819074,0.72687423,0.31760174,-0.14000365,0.6840752,0.21027917,0.044773202,-0.49467188,0.09390251,808.68134,794.9817,805.8608,813.5165,919.0842,-0.0765380859375,-0.10418701171875,0.99822998046875,-10.88623046875,0.216827392578125,-1.42059326171875,1,1.0,1.0,1.0,1.0,10.00
2024-10-11 20:18:12.437,0.9290859,0.5868652,0.71858877,0.8673061,0.86610454,0.27291495,0.17087401,0.6279364,1.3593198,0.4189536,0.28412482,0.819074,0.72687423,0.31760174,-0.14000365,0.6840752,0.21027917,0.044773202,-0.49467188,0.09390251,805.4579,792.5641,807.0696,801.8315,603.9927,-0.0765380859375,-0.10418701171875,0.99822998046875,-10.88623046875,0.216827392578125,-1.42059326171875,1,1.0,1.0,1.0,1.0,10.00
2024-10-11 20:18:12.438,0.9290859,0.5868652,0.71858877,0.8673061,0.86610454,0.27291495,0.17087401,0.6279364,1.3593198,0.4189536,0.28412482,0.819074,0.72687423,0.31760174,-0.14000365,0.6840752,0.21027917,0.044773202,-0.49467188,0.09390251,807.8755,802.6374,805.4579,803.8461,735.7509,-0.0765380859375,-0.10418701171875,0.99822998046875,-10.88623046875,0.216827392578125,-1.42059326171875,1,1.0,1.0,1.0,1.0,10.00
2024-10-11 20:18:12.438,0.9290859,0.5868652,0.71858877,0.8673061,0.86610454,0.27291495,0.17087401,0.6279364,1.3593198,0.4189536,0.28412482,0.819074,0.72687423,0.31760174,-0.14000365,0.6840752,0.21027917,0.044773202,-0.49467188,0.09390251,807.8755,801.8315,800.2198,809.0842,958.1685,-0.0765380859375,-0.10418701171875,0.99822998046875,-10.88623046875,0.216827392578125,-1.42059326171875,1,1.0,1.0,1.0,1.0,10.00
2024-10-11 20:18:12.439,0.9290859,0.5868652,0.71858877,0.8673061,0.86610454,0.27291495,0.17087401,0.6279364,1.3593198,0.4189536,0.28412482,0.819074,0.72687423,0.31760174,-0.14000365,0.6840752,0.21027917,0.044773202,-0.49467188,0.09390251,801.4286,794.57874,792.5641,799.81683,809.0842,-0.0765380859375,-0.10418701171875,0.99822998046875,-10.88623046875,0.216827392578125,-1.42059326171875,1,1.0,1.0,1.0,1.0,10.00
2024-10-11 20:18:12.494,0.9290859,0.5868652,0.71858877,0.8673061,0.86610454,0.27291495,0.17087401,0.6279364,1.3593198,0.4189536,0.28412482,0.819074,0.72687423,0.31760174,-0.14000365,0.6840752,0.21027917,0.044773202,-0.49467188,0.09390251,798.20514,789.7436,795.78754,795.78754,665.64105,-0.0728759765625,-0.11834716796875,0.99810791015625,-8.874969482421875,-2.415008544921875,-3.050537109375,1,1.0,1.0,1.0,1.0,10.00
2024-10-11 20:18:12.495,0.9290859,0.5868652,0.71858877,0.8673061,0.86610454,0.27291495,0.17087401,0.6279364,1.3593198,0.4189536,0.28412482,0.819074,0.72687423,0.31760174,-0.14000365,0.6840752,0.21027917,0.044773202,-0.49467188,0.09390251,800.2198,789.7436,795.78754,798.60803,632.6007,-0.0728759765625,-0.11834716796875,0.99810791015625,-8.874969482421875,-2.415008544921875,-3.050537109375,1,1.0,1.0,1.0,1.0,10.00
2024-10-11 20:18:12.495,0.9290859,0.5868652,0.71858877,0.8673061,0.86610454,0.27291495,0.17087401,0.6279364,1.3593198,0.4189536,0.28412482,0.819074,0.72687423,0.31760174,-0.14000365,0.6840752,0.21027917,0.044773202,-0.49467188,0.09390251,803.8461,794.57874,793.7729,797.3993,749.45056,-0.0728759765625,-0.11834716796875,0.99810791015625,-8.874969482421875,-2.415008544921875,-3.050537109375,1,1.0,1.0,1.0,1.0,10.00
2024-10-11 20:18:12.496,0.9290859,0.5868652,0.71858877,0.8673061,0.86610454,0.27291495,0.17087401,0.6279364,1.3593198,0.4189536,0.28412482,0.819074,0.72687423,0.31760174,-0.14000365,0.6840752,0.21027917,0.044773202,-0.49467188,0.09390251,809.0842,801.8315,799.011,801.02563,777.6557,-0.0728759765625,-0.11834716796875,0.99810791015625,-8.874969482421875,-2.415008544921875,-3.050537109375,1,1.0,1.0,1.0,1.0,10.00
2024-10-11 20:18:12.497,0.9290859,0.5868652,0.71858877,0.8673061,0.86610454,0.27291495,0.17087401,0.6279364,1.3593198,0.4189536,0.28412482,0.819074,0.72687423,0.31760174,-0.14000365,0.6840752,0.21027917,0.044773202,-0.49467188,0.09390251,811.0989,800.6227,795.78754,805.4579,685.38464,-0.0728759765625,-0.11834716796875,0.99810791015625,-8.874969482421875,-2.415008544921875,-3.050537109375,1,1.0,1.0,1.0,1.0,10.00
2024-10-11 20:18:12.497,0.9290859,0.5868652,0.71858877,0.8673061,0.86610454,0.27291495,0.17087401,0.6279364,1.3593198,0.4189536,0.28412482,0.819074,0.72687423,0.31760174,-0.14000365,0.6840752,0.21027917,0.044773202,-0.49467188,0.09390251,804.2491,793.36993,795.78754,802.6374,1011.75824,-0.0728759765625,-0.11834716796875,0.99810791015625,-8.874969482421875,-2.415008544921875,-3.050537109375,1,1.0,1.0,1.0,1.0,10.00
2024-10-11 20:18:12.498,0.9290859,0.5868652,0.71858877,0.8673061,0.86610454,0.27291495,0.17087401,0.6279364,1.3593198,0.4189536,0.28412482,0.819074,0.72687423,0.31760174,-0.14000365,0.6840752,0.21027917,0.044773202,-0.49467188,0.09390251,801.8315,797.8022,792.96704,808.2784,1002.8938,-0.0728759765625,-0.11834716796875,0.99810791015625,-8.874969482421875,-2.415008544921875,-3.050537109375,1,1.0,1.0,1.0,1.0,10.00
2024-10-11 20:18:12.498,0.9290859,0.5868652,0.71858877,0.8673061,0.86610454,0.27291495,0.17087401,0.6279364,1.3593198,0.4189536,0.28412482,0.819074,0.72687423,0.31760174,-0.14000365,0.6840752,0.21027917,0.044773202,-0.49467188,0.09390251,804.65204,797.8022,792.5641,818.7546,667.6557,-0.0728759765625,-0.11834716796875,0.99810791015625,-8.874969482421875,-2.415008544921875,-3.050537109375,1,1.0,1.0,1.0,1.0,10.00
2024-10-11 20:18:12.499,0.9290859,0.5868652,0.71858877,0.8673061,0.86610454,0.27291495,0.17087401,0.6279364,1.3593198,0.4189536,0.28412482,0.819074,0.72687423,0.31760174,-0.14000365,0.6840752,0.21027917,0.044773202,-0.49467188,0.09390251,799.41394,798.60803,800.2198,810.293,642.674,-0.0728759765625,-0.11834716796875,0.99810791015625,-8.874969482421875,-2.415008544921875,-3.050537109375,1,1.0,1.0,1.0,1.0,10.00
2024-10-11 20:18:12.500,0.9290859,0.5868652,0.71858877,0.8673061,0.86610454,0.27291495,0.17087401,0.6279364,1.3593198,0.4189536,0.28412482,0.819074,0.72687423,0.31760174,-0.14000365,0.6840752,0.21027917,0.044773202,-0.49467188,0.09390251,801.8315,805.4579,796.1905,796.99634,690.6227,-0.0728759765625,-0.11834716796875,0.99810791015625,-8.874969482421875,-2.415008544921875,-3.050537109375,1,1.0,1.0,1.0,1.0,10.00
2024-10-11 20:18:12.500,0.9290859,0.5868652,0.71858877,0.8673061,0.86610454,0.27291495,0.17087401,0.6279364,1.3593198,0.4189536,0.28412482,0.819074,0.72687423,0.31760174,-0.14000365,0.6840752,0.21027917,0.044773202,-0.49467188,0.09390251,808.2784,803.0403,793.7729,801.02563,722.0513,-0.0728759765625,-0.11834716796875,0.99810791015625,-8.874969482421875,-2.415008544921875,-3.050537109375,1,1.0,1.0,1.0,1.0,10.00
2024-10-11 20:18:12.501,0.9290859,0.5868652,0.71858877,0.8673061,0.86610454,0.27291495,0.17087401,0.6279364,1.3593198,0.4189536,0.28412482,0.819074,0.72687423,0.31760174,-0.14000365,0.6840752,0.21027917,0.044773202,-0.49467188,0.09390251,803.44324,792.5641,799.011,805.4579,774.0293,-0.0728759765625,-0.11834716796875,0.99810791015625,-8.874969482421875,-2.415008544921875,-3.050537109375,1,1.0,1.0,1.0,1.0,10.00
2024-10-11 20:18:12.561,0.9290859,0.5868652,0.71858877,0.8673061,0.86610454,0.27291495,0.17087401,0.6279364,1.3593198,0.4189536,0.28412482,0.819074,0.72687423,0.31760174,-0.14000365,0.6840752,0.21027917,0.044773202,-0.49467188,0.09390251,797.3993,792.96704,799.41394,804.65204,774.83514,-0.0728759765625,-0.11834716796875,0.99810791015625,-8.874969482421875,-2.415008544921875,-3.050537109375,1,1.0,1.0,1.0,1.0,10.00
2024-10-11 20:18:12.562,0.9290859,0.5868652,0.71858877,0.8673061,0.86610454,0.27291495,0.17087401,0.6279364,1.3593198,0.4189536,0.28412482,0.819074,0.72687423,0.31760174,-0.14000365,0.6840752,0.21027917,0.044773202,-0.49467188,0.09390251,798.60803,798.20514,799.81683,807.0696,859.85345,-0.0728759765625,-0.11834716796875,0.99810791015625,-8.874969482421875,-2.415008544921875,-3.050537109375,1,1.0,1.0,1.0,1.0,10.00
2024-10-11 20:18:12.563,0.9290859,0.5868652,0.71858877,0.8673061,0.86610454,0.27291495,0.17087401,0.6279364,1.3593198,0.4189536,0.28412482,0.819074,0.72687423,0.31760174,-0.14000365,0.6840752,0.21027917,0.044773202,-0.49467188,0.09390251,796.99634,798.60803,800.2198,811.9048,771.2088,-0.0728759765625,-0.11834716796875,0.99810791015625,-8.874969482421875,-2.415008544921875,-3.050537109375,1,1.0,1.0,1.0,1.0,10.00
2024-10-11 20:18:12.563,0.9290859,0.5868652,0.71858877,0.8673061,0.86610454,0.27291495,0.17087401,0.6279364,1.3593198,0.4189536,0.28412482,0.819074,0.72687423,0.31760174,-0.14000365,0.6840752,0.21027917,0.044773202,-0.49467188,0.09390251,788.93774,799.41394,802.23444,809.0842,645.89746,-0.0728759765625,-0.11834716796875,0.99810791015625,-8.874969482421875,-2.415008544921875,-3.050537109375,1,1.0,1.0,1.0,1.0,10.00
2024-10-11 20:18:12.564,0.9290859,0.5868652,0.71858877,0.8673061,0.86610454,0.27291495,0.17087401,0.6279364,1.3593198,0.4189536,0.28412482,0.819074,0.72687423,0.31760174,-0.14000365,0.6840752,0.21027917,0.044773202,-0.49467188,0.09390251,790.54944,799.41394,799.011,805.05493,766.3736,-0.0728759765625,-0.11834716796875,0.99810791015625,-8.874969482421875,-2.415008544921875,-3.050537109375,1,1.0,1.0,1.0,1.0,10.00
2024-10-11 20:18:12.564,0.9290859,0.5868652,0.71858877,0.8673061,0.86610454,0.27291495,0.17087401,0.6279364,1.3593198,0.4189536,0.28412482,0.819074,0.72687423,0.31760174,-0.14000365,0.6840752,0.21027917,0.044773202,-0.49467188,0.09390251,794.9817,801.02563,791.75824,806.6667,969.0476,-0.0728759765625,-0.11834716796875,0.99810791015625,-8.874969482421875,-2.415008544921875,-3.050537109375,1,1.0,1.0,1.0,1.0,10.00
2024-10-11 20:18:12.565,0.9290859,0.5868652,0.71858877,0.8673061,0.86610454,0.27291495,0.17087401,0.6279364,1.3593198,0.4189536,0.28412482,0.819074,0.72687423,0.31760174,-0.14000365,0.6840752,0.21027917,0.044773202,-0.49467188,0.09390251,793.36993,799.41394,794.9817,800.2198,927.5458,-0.0728759765625,-0.11834716796875,0.99810791015625,-8.874969482421875,-2.415008544921875,-3.050537109375,1,1.0,1.0,1.0,1.0,10.00
2024-10-11 20:18:12.566,0.9102284,0.6084131,0.74328595,0.7931834,0.8439505,0.272702,0.15042222,0.55613923,1.3522253,0.43919575,0.13824446,0.7166526,0.68891025,0.38877442,-0.12878577,0.61898184,0.23029199,0.08742872,-0.48087028,0.07998922,791.75824,799.81683,800.6227,789.7436,822.7839,-0.0728759765625,-0.11834716796875,0.99810791015625,-8.874969482421875,-2.415008544921875,-3.050537109375,1,1.0,1.0,1.0,1.0,10.00
2024-10-11 20:18:12.570,0.9102284,0.6084131,0.74328595,0.7931834,0.8439505,0.272702,0.15042222,0.55613923,1.3522253,0.43919575,0.13824446,0.7166526,0.68891025,0.38877442,-0.12878577,0.61898184,0.23029199,0.08742872,-0.48087028,0.07998922,790.54944,797.3993,795.78754,793.36993,901.75824,-0.0728759765625,-0.11834716796875,0.99810791015625,-8.874969482421875,-2.415008544921875,-3.050537109375,1,1.0,1.0,1.0,1.0,10.00
2024-10-11 20:18:12.571,0.9102284,0.6084131,0.74328595,0.7931834,0.8439505,0.272702,0.15042222,0.55613923,1.3522253,0.43919575,0.13824446,0.7166526,0.68891025,0.38877442,-0.12878577,0.61898184,0.23029199,0.08742872,-0.48087028,0.07998922,786.1172,790.9524,789.34064,799.81683,897.326,-0.0728759765625,-0.11834716796875,0.99810791015625,-8.874969482421875,-2.415008544921875,-3.050537109375,1,1.0,1.0,1.0,1.0,10.00
2024-10-11 20:18:12.572,0.9102284,0.6084131,0.74328595,0.7931834,0.8439505,0.272702,0.15042222,0.55613923,1.3522253,0.43919575,0.13824446,0.7166526,0.68891025,0.38877442,-0.12878577,0.61898184,0.23029199,0.08742872,-0.48087028,0.07998922,789.7436,786.9231,796.1905,801.4286,723.663,-0.0728759765625,-0.11834716796875,0.99810791015625,-8.874969482421875,-2.415008544921875,-3.050537109375,1,1.0,1.0,1.0,1.0,10.00
2024-10-11 20:18:12.572,0.9102284,0.6084131,0.74328595,0.7931834,0.8439505,0.272702,0.15042222,0.55613923,1.3522253,0.43919575,0.13824446,0.7166526,0.68891025,0.38877442,-0.12878577,0.61898184,0.23029199,0.08742872,-0.48087028,0.07998922,794.17584,792.96704,799.011,805.8608,656.3736,-0.0728759765625,-0.11834716796875,0.99810791015625,-8.874969482421875,-2.415008544921875,-3.050537109375,1,1.0,1.0,1.0,1.0,10.00
2024-10-11 20:18:12.628,0.9102284,0.6084131,0.74328595,0.7931834,0.8439505,0.272702,0.15042222,0.55613923,1.3522253,0.43919575,0.13824446,0.7166526,0.68891025,0.38877442,-0.12878577,0.61898184,0.23029199,0.08742872,-0.48087028,0.07998922,792.96704,801.8315,789.7436,805.05493,854.61536,-0.06170654296875,-0.11737060546875,0.994873046875,-4.5758056640625,-5.203857421875,-3.775787353515625,1,1.0,1.0,1.0,1.0,10.00
2024-10-11 20:18:12.629,0.9102284,0.6084131,0.74328595,0.7931834,0.8439505,0.272702,0.15042222,0.55613923,1.3522253,0.43919575,0.13824446,0.7166526,0.68891025,0.38877442,-0.12878577,0.61898184,0.23029199,0.08742872,-0.48087028,0.07998922,788.93774,798.60803,793.7729,804.65204,951.31866,-0.06170654296875,-0.11737060546875,0.994873046875,-4.5758056640625,-5.203857421875,-3.775787353515625,1,1.0,1.0,1.0,1.0,10.00
2024-10-11 20:18:12.630,0.9102284,0.6084131,0.74328595,0.7931834,0.8439505,0.272702,0.15042222,0.55613923,1.3522253,0.43919575,0.13824446,0.7166526,0.68891025,0.38877442,-0.12878577,0.61898184,0.23029199,0.08742872,-0.48087028,0.07998922,787.72894,801.4286,799.81683,804.65204,734.94507,-0.06170654296875,-0.11737060546875,0.994873046875,-4.5758056640625,-5.203857421875,-3.775787353515625,1,1.0,1.0,1.0,1.0,10.00
2024-10-11 20:18:12.630,0.9102284,0.6084131,0.74328595,0.7931834,0.8439505,0.272702,0.15042222,0.55613923,1.3522253,0.43919575,0.13824446,0.7166526,0.68891025,0.38877442,-0.12878577,0.61898184,0.23029199,0.08742872,-0.48087028,0.07998922,793.7729,799.41394,793.36993,802.6374,657.98535,-0.06170654296875,-0.11737060546875,0.994873046875,-4.5758056640625,-5.203857421875,-3.775787353515625,1,1.0,1.0,1.0,1.0,10.00
2024-10-11 20:18:12.631,0.9102284,0.6084131,0.74328595,0.7931834,0.8439505,0.272702,0.15042222,0.55613923,1.3522253,0.43919575,0.13824446,0.7166526,0.68891025,0.38877442,-0.12878577,0.61898184,0.23029199,0.08742872,-0.48087028,0.07998922,798.20514,796.5934,795.78754,800.6227,859.45056,-0.06170654296875,-0.11737060546875,0.994873046875,-4.5758056640625,-5.203857421875,-3.775787353515625,1,1.0,1.0,1.0,1.0,10.00
2024-10-11 20:18:12.631,0.9102284,0.6084131,0.74328595,0.7931834,0.8439505,0.272702,0.15042222,0.55613923,1.3522253,0.43919575,0.13824446,0.7166526,0.68891025,0.38877442,-0.12878577,0.61898184,0.23029199,0.08742872,-0.48087028,0.07998922,794.57874,793.7729,799.81683,798.60803,1088.7179,-0.06170654296875,-0.11737060546875,0.994873046875,-4.5758056640625,-5.203857421875,-3.775787353515625,1,1.0,1.0,1.0,1.0,10.00
2024-10-11 20:18:12.632,0.9102284,0.6084131,0.74328595,0.7931834,0.8439505,0.272702,0.15042222,0.55613923,1.3522253,0.43919575,0.13824446,0.7166526,0.68891025,0.38877442,-0.12878577,0.61898184,0.23029199,0.08742872,-0.48087028,0.07998922,792.96704,794.9817,799.81683,798.60803,893.69965,-0.06170654296875,-0.11737060546875,0.994873046875,-4.5758056640625,-5.203857421875,-3.775787353515625,1,1.0,1.0,1.0,1.0,10.00
2024-10-11 20:18:12.632,0.9102284,0.6084131,0.74328595,0.7931834,0.8439505,0.272702,0.15042222,0.55613923,1.3522253,0.43919575,0.13824446,0.7166526,0.68891025,0.38877442,-0.12878577,0.61898184,0.23029199,0.08742872,-0.48087028,0.07998922,790.14655,797.3993,799.011,796.99634,763.1502,-0.06170654296875,-0.11737060546875,0.994873046875,-4.5758056640625,-5.203857421875,-3.775787353515625,1,1.0,1.0,1.0,1.0,10.00
2024-10-11 20:18:12.633,0.9102284,0.6084131,0.74328595,0.7931834,0.8439505,0.272702,0.15042222,0.55613923,1.3522253,0.43919575,0.13824446,0.7166526,0.68891025,0.38877442,-0.12878577,0.61898184,0.23029199,0.08742872,-0.48087028,0.07998922,782.0879,791.75824,795.78754,801.02563,893.69965,-0.06170654296875,-0.11737060546875,0.994873046875,-4.5758056640625,-5.203857421875,-3.775787353515625,1,1.0,1.0,1.0,1.0,10.00
2024-10-11 20:18:12.634,0.9102284,0.6084131,0.74328595,0.7931834,0.8439505,0.272702,0.15042222,0.55613923,1.3522253,0.43919575,0.13824446,0.7166526,0.68891025,0.38877442,-0.12878577,0.61898184,0.23029199,0.08742872,-0.48087028,0.07998922,786.9231,796.1905,799.81683,807.47253,823.1868,-0.06170654296875,-0.11737060546875,0.994873046875,-4.5758056640625,-5.203857421875,-3.775787353515625,1,1.0,1.0,1.0,1.0,10.00
2024-10-11 20:18:12.634,0.9102284,0.6084131,0.74328595,0.7931834,0.8439505,0.272702,0.15042222,0.55613923,1.3522253,0.43919575,0.13824446,0.7166526,0.68891025,0.38877442,-0.12878577,0.61898184,0.23029199,0.08742872,-0.48087028,0.07998922,790.54944,797.3993,805.8608,800.6227,686.99634,-0.06170654296875,-0.11737060546875,0.994873046875,-4.5758056640625,-5.203857421875,-3.775787353515625,1,1.0,1.0,1.0,1.0,10.00
2024-10-11 20:18:12.635,0.9102284,0.6084131,0.74328595,0.7931834,0.8439505,0.272702,0.15042222,0.55613923,1.3522253,0.43919575,0.13824446,0.7166526,0.68891025,0.38877442,-0.12878577,0.61898184,0.23029199,0.08742872,-0.48087028,0.07998922,788.5348,799.41394,806.6667,801.8315,722.0513,-0.06170654296875,-0.11737060546875,0.994873046875,-4.5758056640625,-5.203857421875,-3.775787353515625,1,1.0,1.0,1.0,1.0,10.00
2024-10-11 20:18:12.766,0.9102284,0.6084131,0.74328595,0.7931834,0.8439505,0.272702,0.15042222,0.55613923,1.3522253,0.43919575,0.13824446,0.7166526,0.68891025,0.38877442,-0.12878577,0.61898184,0.23029199,0.08742872,-0.48087028,0.07998922,786.52014,797.3993,801.02563,802.6374,838.49817,-0.0579833984375,-0.11236572265625,0.99725341796875,-1.7047119140625,-5.5328369140625,-5.24871826171875,1,1.0,1.0,1.0,1.0,10.00
2024-10-11 20:18:12.767,0.9102284,0.6084131,0.74328595,0.7931834,0.8439505,0.272702,0.15042222,0.55613923,1.3522253,0.43919575,0.13824446,0.7166526,0.68891025,0.38877442,-0.12878577,0.61898184,0.23029199,0.08742872,-0.48087028,0.07998922,785.7143,792.96704,795.78754,794.9817,828.022,-0.0579833984375,-0.11236572265625,0.99725341796875,-1.7047119140625,-5.5328369140625,-5.24871826171875,1,1.0,1.0,1.0,1.0,10.00
2024-10-11 20:18:12.768,0.9102284,0.6084131,0.74328595,0.7931834,0.8439505,0.272702,0.15042222,0.55613923,1.3522253,0.43919575,0.13824446,0.7166526,0.68891025,0.38877442,-0.12878577,0.61898184,0.23029199,0.08742872,-0.48087028,0.07998922,791.75824,797.8022,794.9817,801.4286,670.07324,-0.0579833984375,-0.11236572265625,0.99725341796875,-1.7047119140625,-5.5328369140625,-5.24871826171875,1,1.0,1.0,1.0,1.0,10.00
2024-10-11 20:18:12.768,0.9102284,0.6084131,0.74328595,0.7931834,0.8439505,0.272702,0.15042222,0.55613923,1.3522253,0.43919575,0.13824446,0.7166526,0.68891025,0.38877442,-0.12878577,0.61898184,0.23029199,0.08742872,-0.48087028,0.07998922,797.8022,798.20514,788.93774,802.6374,661.2088,-0.0579833984375,-0.11236572265625,0.99725341796875,-1.7047119140625,-5.5328369140625,-5.24871826171875,1,1.0,1.0,1.0,1.0,10.00
2024-10-11 20:18:12.769,0.9102284,0.6084131,0.74328595,0.7931834,0.8439505,0.272702,0.15042222,0.55613923,1.3522253,0.43919575,0.13824446,0.7166526,0.68891025,0.38877442,-0.12878577,0.61898184,0.23029199,0.08742872,-0.48087028,0.07998922,799.81683,801.4286,795.38464,804.65204,788.5348,-0.0579833984375,-0.11236572265625,0.99725341796875,-1.7047119140625,-5.5328369140625,-5.24871826171875,1,1.0,1.0,1.0,1.0,10.00
2024-10-11 20:18:12.769,0.9102284,0.6084131,0.74328595,0.7931834,0.8439505,0.272702,0.15042222,0.55613923,1.3522253,0.43919575,0.13824446,0.7166526,0.68891025,0.38877442,-0.12878577,0.61898184,0.23029199,0.08742872,-0.48087028,0.07998922,799.011,801.4286,801.4286,809.4872,820.7692,-0.0579833984375,-0.11236572265625,0.99725341796875,-1.7047119140625,-5.5328369140625,-5.24871826171875,1,1.0,1.0,1.0,1.0,10.00
2024-10-11 20:18:12.770,0.9102284,0.6084131,0.74328595,0.7931834,0.8439505,0.272702,0.15042222,0.55613923,1.3522253,0.43919575,0.13824446,0.7166526,0.68891025,0.38877442,-0.12878577,0.61898184,0.23029199,0.08742872,-0.48087028,0.07998922,795.78754,795.38464,796.5934,805.4579,792.1612,-0.0579833984375,-0.11236572265625,0.99725341796875,-1.7047119140625,-5.5328369140625,-5.24871826171875,1,1.0,1.0,1.0,1.0,10.00
2024-10-11 20:18:12.770,0.9102284,0.6084131,0.74328595,0.7931834,0.8439505,0.272702,0.15042222,0.55613923,1.3522253,0.43919575,0.13824446,0.7166526,0.68891025,0.38877442,-0.12878577,0.61898184,0.23029199,0.08742872,-0.48087028,0.07998922,796.1905,793.7729,798.20514,806.26373,856.63007,-0.0579833984375,-0.11236572265625,0.99725341796875,-1.7047119140625,-5.5328369140625,-5.24871826171875,1,1.0,1.0,1.0,1.0,10.00
2024-10-11 20:18:12.771,0.9102284,0.6084131,0.74328595,0.7931834,0.8439505,0.272702,0.15042222,0.55613923,1.3522253,0.43919575,0.13824446,0.7166526,0.68891025,0.38877442,-0.12878577,0.61898184,0.23029199,0.08742872,-0.48087028,0.07998922,805.4579,795.38464,799.41394,818.7546,899.7436,-0.0579833984375,-0.11236572265625,0.99725341796875,-1.7047119140625,-5.5328369140625,-5.24871826171875,1,1.0,1.0,1.0,1.0,10.00
2024-10-11 20:18:12.771,0.8820889,0.616288,0.76482344,0.68490964,0.8289992,0.26887786,0.12593955,0.47670528,1.3096509,0.44363305,-0.027870754,0.5803202,0.6617455,0.43414876,-0.11689861,0.5489444,0.24898979,0.115025505,-0.4646054,0.067088425,807.8755,800.6227,804.65204,817.9487,769.59705,-0.0579833984375,-0.11236572265625,0.99725341796875,-1.7047119140625,-5.5328369140625,-5.24871826171875,1,1.0,1.0,1.0,1.0,10.00
2024-10-11 20:18:12.777,0.8820889,0.616288,0.76482344,0.68490964,0.8289992,0.26887786,0.12593955,0.47670528,1.3096509,0.44363305,-0.027870754,0.5803202,0.6617455,0.43414876,-0.11689861,0.5489444,0.24898979,0.115025505,-0.4646054,0.067088425,805.05493,795.38464,801.8315,811.0989,741.79486,-0.0579833984375,-0.11236572265625,0.99725341796875,-1.7047119140625,-5.5328369140625,-5.24871826171875,1,1.0,1.0,1.0,1.0,10.00
2024-10-11 20:18:12.777,0.8820889,0.616288,0.76482344,0.68490964,0.8289992,0.26887786,0.12593955,0.47670528,1.3096509,0.44363305,-0.027870754,0.5803202,0.6617455,0.43414876,-0.11689861,0.5489444,0.24898979,0.115025505,-0.4646054,0.067088425,803.8461,796.1905,797.3993,807.0696,959.7802,-0.0579833984375,-0.11236572265625,0.99725341796875,-1.7047119140625,-5.5328369140625,-5.24871826171875,1,1.0,1.0,1.0,1.0,10.00
2024-10-11 20:18:12.800,0.8820889,0.616288,0.76482344,0.68490964,0.8289992,0.26887786,0.12593955,0.47670528,1.3096509,0.44363305,-0.027870754,0.5803202,0.6617455,0.43414876,-0.11689861,0.5489444,0.24898979,0.115025505,-0.4646054,0.067088425,804.2491,806.6667,798.20514,803.0403,946.08057,-0.03240966796875,-0.10540771484375,1.00408935546875,-0.635528564453125,-5.5926513671875,-6.287994384765625,1,1.0,1.0,1.0,1.0,10.00
