TimeStamp,Delta_TP9,Delta_AF7,Delta_AF8,Delta_TP10,Theta_TP9,Theta_AF7,Theta_AF8,Theta_TP10,Alpha_TP9,Alpha_AF7,Alpha_AF8,Alpha_TP10,Beta_TP9,Beta_AF7,Beta_AF8,Beta_TP10,Gamma_TP9,Gamma_AF7,Gamma_AF8,Gamma_TP10,RAW_TP9,RAW_AF7,RAW_AF8,RAW_TP10,AUX_RIGHT,Accelerometer_X,Accelerometer_Y,Accelerometer_Z,Gyro_X,Gyro_Y,Gyro_Z,HeadBandOn,HSI_TP9,HSI_AF7,HSI_AF8,HSI_TP10,Battery,Elements
2024-10-11 20:09:27.328,0.43299803,-0.28254083,0.048573192,0.42373252,0.34513527,-0.39955053,-0.4217617,0.29861242,0.74379015,0.06412446,-0.045790363,0.47612095,0.5967124,-0.21437146,-0.1570597,0.47247678,-0.02058923,-0.4256912,-0.66016084,-0.0532273,818.3516,798.60803,801.02563,808.2784,1104.4323,-0.08917236328125,0.0806884765625,1.00482177734375,0.67291259765625,-0.83740234375,0.306549072265625,1,1.0,1.0,1.0,1.0,15.00
2024-10-11 20:09:27.330,0.43299803,-0.28254083,0.048573192,0.42373252,0.34513527,-0.39955053,-0.4217617,0.29861242,0.74379015,0.06412446,-0.045790363,0.47612095,0.5967124,-0.21437146,-0.1570597,0.47247678,-0.02058923,-0.4256912,-0.66016084,-0.0532273,822.7839,801.02563,800.2198,809.4872,938.4249,-0.08917236328125,0.0806884765625,1.00482177734375,0.67291259765625,-0.83740234375,0.306549072265625,1,1.0,1.0,1.0,1.0,15.00
2024-10-11 20:09:27.331,0.43299803,-0.28254083,0.048573192,0.42373252,0.34513527,-0.39955053,-0.4217617,0.29861242,0.74379015,0.06412446,-0.045790363,0.47612095,0.5967124,-0.21437146,-0.1570597,0.47247678,-0.02058923,-0.4256912,-0.66016084,-0.0532273,811.9048,799.81683,797.8022,800.2198,623.73627,-0.08917236328125,0.0806884765625,1.00482177734375,0.67291259765625,-0.83740234375,0.306549072265625,1,1.0,1.0,1.0,1.0,15.00
2024-10-11 20:09:27.332,0.43299803,-0.28254083,0.048573192,0.42373252,0.34513527,-0.39955053,-0.4217617,0.29861242,0.74379015,0.06412446,-0.045790363,0.47612095,0.5967124,-0.21437146,-0.1570597,0.47247678,-0.02058923,-0.4256912,-0.66016084,-0.0532273,805.4579,798.60803,794.9817,795.38464,705.5311,-0.08917236328125,0.0806884765625,1.00482177734375,0.67291259765625,-0.83740234375,0.306549072265625,1,1.0,1.0,1.0,1.0,15.00
2024-10-11 20:09:27.333,0.43299803,-0.28254083,0.048573192,0.42373252,0.34513527,-0.39955053,-0.4217617,0.29861242,0.74379015,0.06412446,-0.045790363,0.47612095,0.5967124,-0.21437146,-0.1570597,0.47247678,-0.02058923,-0.4256912,-0.66016084,-0.0532273,804.2491,799.81683,794.57874,798.20514,730.5128,-0.08917236328125,0.0806884765625,1.00482177734375,0.67291259765625,-0.83740234375,0.306549072265625,1,1.0,1.0,1.0,1.0,15.00
2024-10-11 20:09:27.333,0.43299803,-0.28254083,0.048573192,0.42373252,0.34513527,-0.39955053,-0.4217617,0.29861242,0.74379015,0.06412446,-0.045790363,0.47612095,0.5967124,-0.21437146,-0.1570597,0.47247678,-0.02058923,-0.4256912,-0.66016084,-0.0532273,796.5934,800.6227,796.99634,799.41394,750.2564,-0.08917236328125,0.0806884765625,1.00482177734375,0.67291259765625,-0.83740234375,0.306549072265625,1,1.0,1.0,1.0,1.0,15.00
2024-10-11 20:09:27.334,0.43299803,-0.28254083,0.048573192,0.42373252,0.34513527,-0.39955053,-0.4217617,0.29861242,0.74379015,0.06412446,-0.045790363,0.47612095,0.5967124,-0.21437146,-0.1570597,0.47247678,-0.02058923,-0.4256912,-0.66016084,-0.0532273,796.1905,797.8022,802.23444,798.60803,804.2491,-0.08917236328125,0.0806884765625,1.00482177734375,0.67291259765625,-0.83740234375,0.306549072265625,1,1.0,1.0,1.0,1.0,15.00
2024-10-11 20:09:27.335,0.43299803,-0.28254083,0.048573192,0.42373252,0.34513527,-0.39955053,-0.4217617,0.29861242,0.74379015,0.06412446,-0.045790363,0.47612095,0.5967124,-0.21437146,-0.1570597,0.47247678,-0.02058923,-0.4256912,-0.66016084,-0.0532273,800.6227,794.9817,796.5934,803.44324,975.89746,-0.08917236328125,0.0806884765625,1.00482177734375,0.67291259765625,-0.83740234375,0.306549072265625,1,1.0,1.0,1.0,1.0,15.00
2024-10-11 20:09:27.335,0.43299803,-0.28254083,0.048573192,0.42373252,0.34513527,-0.39955053,-0.4217617,0.29861242,0.74379015,0.06412446,-0.045790363,0.47612095,0.5967124,-0.21437146,-0.1570597,0.47247678,-0.02058923,-0.4256912,-0.66016084,-0.0532273,801.02563,791.3553,790.9524,807.47253,1033.9194,-0.08917236328125,0.0806884765625,1.00482177734375,0.67291259765625,-0.83740234375,0.306549072265625,1,1.0,1.0,1.0,1.0,15.00
2024-10-11 20:09:27.336,0.43299803,-0.28254083,0.048573192,0.42373252,0.34513527,-0.39955053,-0.4217617,0.29861242,0.74379015,0.06412446,-0.045790363,0.47612095,0.5967124,-0.21437146,-0.1570597,0.47247678,-0.02058923,-0.4256912,-0.66016084,-0.0532273,800.6227,793.36993,796.5934,803.0403,824.3956,-0.08917236328125,0.0806884765625,1.00482177734375,0.67291259765625,-0.83740234375,0.306549072265625,1,1.0,1.0,1.0,1.0,15.00
2024-10-11 20:09:27.336,0.43299803,-0.28254083,0.048573192,0.42373252,0.34513527,-0.39955053,-0.4217617,0.29861242,0.74379015,0.06412446,-0.045790363,0.47612095,0.5967124,-0.21437146,-0.1570597,0.47247678,-0.02058923,-0.4256912,-0.66016084,-0.0532273,803.44324,796.5934,804.2491,807.0696,855.42126,-0.08917236328125,0.0806884765625,1.00482177734375,0.67291259765625,-0.83740234375,0.306549072265625,1,1.0,1.0,1.0,1.0,15.00
2024-10-11 20:09:27.337,0.43299803,-0.28254083,0.048573192,0.42373252,0.34513527,-0.39955053,-0.4217617,0.29861242,0.74379015,0.06412446,-0.045790363,0.47612095,0.5967124,-0.21437146,-0.1570597,0.47247678,-0.02058923,-0.4256912,-0.66016084,-0.0532273,802.6374,793.7729,806.6667,808.68134,1053.663,-0.08917236328125,0.0806884765625,1.00482177734375,0.67291259765625,-0.83740234375,0.306549072265625,1,1.0,1.0,1.0,1.0,15.00
2024-10-11 20:09:27.430,0.43299803,-0.28254083,0.048573192,0.42373252,0.34513527,-0.39955053,-0.4217617,0.29861242,0.74379015,0.06412446,-0.045790363,0.47612095,0.5967124,-0.21437146,-0.1570597,0.47247678,-0.02058923,-0.4256912,-0.66016084,-0.0532273,799.011,793.36993,802.6374,802.6374,1007.72894,-0.09002685546875,0.08441162109375,0.99749755859375,0.82244873046875,-0.7177734375,0.201873779296875,1,1.0,1.0,1.0,1.0,15.00
2024-10-11 20:09:27.433,0.43299803,-0.28254083,0.048573192,0.42373252,0.34513527,-0.39955053,-0.4217617,0.29861242,0.74379015,0.06412446,-0.045790363,0.47612095,0.5967124,-0.21437146,-0.1570597,0.47247678,-0.02058923,-0.4256912,-0.66016084,-0.0532273,793.7729,796.99634,800.6227,802.23444,835.6777,-0.09002685546875,0.08441162109375,0.99749755859375,0.82244873046875,-0.7177734375,0.201873779296875,1,1.0,1.0,1.0,1.0,15.00
2024-10-11 20:09:27.435,0.43299803,-0.28254083,0.048573192,0.42373252,0.34513527,-0.39955053,-0.4217617,0.29861242,0.74379015,0.06412446,-0.045790363,0.47612095,0.5967124,-0.21437146,-0.1570597,0.47247678,-0.02058923,-0.4256912,-0.66016084,-0.0532273,796.5934,796.5934,801.02563,802.6374,815.9341,-0.09002685546875,0.08441162109375,0.99749755859375,0.82244873046875,-0.7177734375,0.201873779296875,1,1.0,1.0,1.0,1.0,15.00
2024-10-11 20:09:27.436,0.43299803,-0.28254083,0.048573192,0.42373252,0.34513527,-0.39955053,-0.4217617,0.29861242,0.74379015,0.06412446,-0.045790363,0.47612095,0.5967124,-0.21437146,-0.1570597,0.47247678,-0.02058923,-0.4256912,-0.66016084,-0.0532273,800.6227,794.57874,799.81683,802.6374,804.2491,-0.09002685546875,0.08441162109375,0.99749755859375,0.82244873046875,-0.7177734375,0.201873779296875,1,1.0,1.0,1.0,1.0,15.00
2024-10-11 20:09:27.437,0.43299803,-0.28254083,0.048573192,0.42373252,0.34513527,-0.39955053,-0.4217617,0.29861242,0.74379015,0.06412446,-0.045790363,0.47612095,0.5967124,-0.21437146,-0.1570597,0.47247678,-0.02058923,-0.4256912,-0.66016084,-0.0532273,801.4286,794.9817,796.99634,801.02563,729.304,-0.09002685546875,0.08441162109375,0.99749755859375,0.82244873046875,-0.7177734375,0.201873779296875,1,1.0,1.0,1.0,1.0,15.00
2024-10-11 20:09:27.437,0.43299803,-0.28254083,0.048573192,0.42373252,0.34513527,-0.39955053,-0.4217617,0.29861242,0.74379015,0.06412446,-0.045790363,0.47612095,0.5967124,-0.21437146,-0.1570597,0.47247678,-0.02058923,-0.4256912,-0.66016084,-0.0532273,808.68134,798.20514,799.011,804.65204,711.1722,-0.09002685546875,0.08441162109375,0.99749755859375,0.82244873046875,-0.7177734375,0.201873779296875,1,1.0,1.0,1.0,1.0,15.00
2024-10-11 20:09:27.438,0.43299803,-0.28254083,0.048573192,0.42373252,0.34513527,-0.39955053,-0.4217617,0.29861242,0.74379015,0.06412446,-0.045790363,0.47612095,0.5967124,-0.21437146,-0.1570597,0.47247678,-0.02058923,-0.4256912,-0.66016084,-0.0532273,812.3077,800.6227,801.8315,809.4872,764.7619,-0.09002685546875,0.08441162109375,0.99749755859375,0.82244873046875,-0.7177734375,0.201873779296875,1,1.0,1.0,1.0,1.0,15.00
2024-10-11 20:09:27.439,0.43299803,-0.28254083,0.048573192,0.42373252,0.34513527,-0.39955053,-0.4217617,0.29861242,0.74379015,0.06412446,-0.045790363,0.47612095,0.5967124,-0.21437146,-0.1570597,0.47247678,-0.02058923,-0.4256912,-0.66016084,-0.0532273,809.0842,798.20514,800.6227,810.293,991.6117,-0.09002685546875,0.08441162109375,0.99749755859375,0.82244873046875,-0.7177734375,0.201873779296875,1,1.0,1.0,1.0,1.0,15.00
2024-10-11 20:09:27.440,0.43299803,-0.28254083,0.048573192,0.42373252,0.34513527,-0.39955053,-0.4217617,0.29861242,0.74379015,0.06412446,-0.045790363,0.47612095,0.5967124,-0.21437146,-0.1570597,0.47247678,-0.02058923,-0.4256912,-0.66016084,-0.0532273,804.2491,799.41394,802.6374,811.50183,858.24176,-0.09002685546875,0.08441162109375,0.99749755859375,0.82244873046875,-0.7177734375,0.201873779296875,1,1.0,1.0,1.0,1.0,15.00
2024-10-11 20:09:27.440,0.43299803,-0.28254083,0.048573192,0.42373252,0.34513527,-0.39955053,-0.4217617,0.29861242,0.74379015,0.06412446,-0.045790363,0.47612095,0.5967124,-0.21437146,-0.1570597,0.47247678,-0.02058923,-0.4256912,-0.66016084,-0.0532273,806.26373,804.2491,801.4286,811.9048,619.304,-0.09002685546875,0.08441162109375,0.99749755859375,0.82244873046875,-0.7177734375,0.201873779296875,1,1.0,1.0,1.0,1.0,15.00
2024-10-11 20:09:27.441,0.43299803,-0.28254083,0.048573192,0.42373252,0.34513527,-0.39955053,-0.4217617,0.29861242,0.74379015,0.06412446,-0.045790363,0.47612095,0.5967124,-0.21437146,-0.1570597,0.47247678,-0.02058923,-0.4256912,-0.66016084,-0.0532273,809.89014,804.65204,799.81683,810.293,711.5751,-0.09002685546875,0.08441162109375,0.99749755859375,0.82244873046875,-0.7177734375,0.201873779296875,1,1.0,1.0,1.0,1.0,15.00
2024-10-11 20:09:27.442,0.433273,-0.24698636,0.008573688,0.4523852,0.43846598,-0.3627725,-0.40068507,0.3638304,0.7957022,0.055209145,-0.06610942,0.55780643,0.6130943,-0.18737511,-0.1588855,0.49544826,-0.020437323,-0.4287679,-0.67337793,-0.060226664,806.26373,802.6374,802.6374,812.3077,751.06226,-0.09002685546875,0.08441162109375,0.99749755859375,0.82244873046875,-0.7177734375,0.201873779296875,1,1.0,1.0,1.0,1.0,15.00
2024-10-11 20:09:27.447,0.433273,-0.24698636,0.008573688,0.4523852,0.43846598,-0.3627725,-0.40068507,0.3638304,0.7957022,0.055209145,-0.06610942,0.55780643,0.6130943,-0.18737511,-0.1588855,0.49544826,-0.020437323,-0.4287679,-0.67337793,-0.060226664,809.89014,802.6374,803.8461,821.978,692.6374,-0.093505859375,0.0828857421875,1.0008544921875,0.657958984375,-0.844879150390625,0.11962890625,1,1.0,1.0,1.0,1.0,15.00
2024-10-11 20:09:27.448,0.433273,-0.24698636,0.008573688,0.4523852,0.43846598,-0.3627725,-0.40068507,0.3638304,0.7957022,0.055209145,-0.06610942,0.55780643,0.6130943,-0.18737511,-0.1588855,0.49544826,-0.020437323,-0.4287679,-0.67337793,-0.060226664,812.71063,803.0403,804.2491,817.1429,774.83514,-0.093505859375,0.0828857421875,1.0008544921875,0.657958984375,-0.844879150390625,0.11962890625,1,1.0,1.0,1.0,1.0,15.00
2024-10-11 20:09:27.449,0.433273,-0.24698636,0.008573688,0.4523852,0.43846598,-0.3627725,-0.40068507,0.3638304,0.7957022,0.055209145,-0.06610942,0.55780643,0.6130943,-0.18737511,-0.1588855,0.49544826,-0.020437323,-0.4287679,-0.67337793,-0.060226664,808.2784,796.99634,800.6227,812.71063,971.4652,-0.093505859375,0.0828857421875,1.0008544921875,0.657958984375,-0.844879150390625,0.11962890625,1,1.0,1.0,1.0,1.0,15.00
2024-10-11 20:09:27.450,0.433273,-0.24698636,0.008573688,0.4523852,0.43846598,-0.3627725,-0.40068507,0.3638304,0.7957022,0.055209145,-0.06610942,0.55780643,0.6130943,-0.18737511,-0.1588855,0.49544826,-0.020437323,-0.4287679,-0.67337793,-0.060226664,808.2784,794.9817,798.60803,815.12823,862.674,-0.093505859375,0.0828857421875,1.0008544921875,0.657958984375,-0.844879150390625,0.11962890625,1,1.0,1.0,1.0,1.0,15.00
2024-10-11 20:09:27.450,0.433273,-0.24698636,0.008573688,0.4523852,0.43846598,-0.3627725,-0.40068507,0.3638304,0.7957022,0.055209145,-0.06610942,0.55780643,0.6130943,-0.18737511,-0.1588855,0.49544826,-0.020437323,-0.4287679,-0.67337793,-0.060226664,809.89014,796.5934,800.6227,812.3077,660.0,-0.093505859375,0.0828857421875,1.0008544921875,0.657958984375,-0.844879150390625,0.11962890625,1,1.0,1.0,1.0,1.0,15.00
2024-10-11 20:09:27.451,0.433273,-0.24698636,0.008573688,0.4523852,0.43846598,-0.3627725,-0.40068507,0.3638304,0.7957022,0.055209145,-0.06610942,0.55780643,0.6130943,-0.18737511,-0.1588855,0.49544826,-0.020437323,-0.4287679,-0.67337793,-0.060226664,810.293,792.96704,802.6374,811.0989,729.707,-0.093505859375,0.0828857421875,1.0008544921875,0.657958984375,-0.844879150390625,0.11962890625,1,1.0,1.0,1.0,1.0,15.00
2024-10-11 20:09:27.451,0.433273,-0.24698636,0.008573688,0.4523852,0.43846598,-0.3627725,-0.40068507,0.3638304,0.7957022,0.055209145,-0.06610942,0.55780643,0.6130943,-0.18737511,-0.1588855,0.49544826,-0.020437323,-0.4287679,-0.67337793,-0.060226664,800.6227,789.7436,799.41394,811.9048,991.6117,-0.093505859375,0.0828857421875,1.0008544921875,0.657958984375,-0.844879150390625,0.11962890625,1,1.0,1.0,1.0,1.0,15.00
2024-10-11 20:09:27.452,0.433273,-0.24698636,0.008573688,0.4523852,0.43846598,-0.3627725,-0.40068507,0.3638304,0.7957022,0.055209145,-0.06610942,0.55780643,0.6130943,-0.18737511,-0.1588855,0.49544826,-0.020437323,-0.4287679,-0.67337793,-0.060226664,799.41394,791.3553,798.60803,813.1135,989.59705,-0.093505859375,0.0828857421875,1.0008544921875,0.657958984375,-0.844879150390625,0.11962890625,1,1.0,1.0,1.0,1.0,15.00
2024-10-11 20:09:27.452,0.433273,-0.24698636,0.008573688,0.4523852,0.43846598,-0.3627725,-0.40068507,0.3638304,0.7957022,0.055209145,-0.06610942,0.55780643,0.6130943,-0.18737511,-0.1588855,0.49544826,-0.020437323,-0.4287679,-0.67337793,-0.060226664,803.0403,795.38464,804.65204,809.0842,757.1062,-0.093505859375,0.0828857421875,1.0008544921875,0.657958984375,-0.844879150390625,0.11962890625,1,1.0,1.0,1.0,1.0,15.00
2024-10-11 20:09:27.453,0.433273,-0.24698636,0.008573688,0.4523852,0.43846598,-0.3627725,-0.40068507,0.3638304,0.7957022,0.055209145,-0.06610942,0.55780643,0.6130943,-0.18737511,-0.1588855,0.49544826,-0.020437323,-0.4287679,-0.67337793,-0.060226664,795.78754,795.78754,807.47253,807.47253,685.38464,-0.093505859375,0.0828857421875,1.0008544921875,0.657958984375,-0.844879150390625,0.11962890625,1,1.0,1.0,1.0,1.0,15.00
2024-10-11 20:09:27.454,0.433273,-0.24698636,0.008573688,0.4523852,0.43846598,-0.3627725,-0.40068507,0.3638304,0.7957022,0.055209145,-0.06610942,0.55780643,0.6130943,-0.18737511,-0.1588855,0.49544826,-0.020437323,-0.4287679,-0.67337793,-0.060226664,794.9817,793.36993,800.6227,812.71063,796.5934,-0.093505859375,0.0828857421875,1.0008544921875,0.657958984375,-0.844879150390625,0.11962890625,1,1.0,1.0,1.0,1.0,15.00
2024-10-11 20:09:27.454,0.433273,-0.24698636,0.008573688,0.4523852,0.43846598,-0.3627725,-0.40068507,0.3638304,0.7957022,0.055209145,-0.06610942,0.55780643,0.6130943,-0.18737511,-0.1588855,0.49544826,-0.020437323,-0.4287679,-0.67337793,-0.060226664,803.44324,794.17584,802.6374,817.1429,844.94507,-0.093505859375,0.0828857421875,1.0008544921875,0.657958984375,-0.844879150390625,0.11962890625,1,1.0,1.0,1.0,1.0,15.00
2024-10-11 20:09:27.500,0.433273,-0.24698636,0.008573688,0.4523852,0.43846598,-0.3627725,-0.40068507,0.3638304,0.7957022,0.055209145,-0.06610942,0.55780643,0.6130943,-0.18737511,-0.1588855,0.49544826,-0.020437323,-0.4287679,-0.67337793,-0.060226664,806.26373,799.41394,809.0842,816.337,722.4542,-0.093505859375,0.0828857421875,1.0008544921875,0.657958984375,-0.844879150390625,0.11962890625,1,1.0,1.0,1.0,1.0,15.00
2024-10-11 20:09:27.500,0.433273,-0.24698636,0.008573688,0.4523852,0.43846598,-0.3627725,-0.40068507,0.3638304,0.7957022,0.055209145,-0.06610942,0.55780643,0.6130943,-0.18737511,-0.1588855,0.49544826,-0.020437323,-0.4287679,-0.67337793,-0.060226664,806.26373,801.4286,807.0696,805.8608,662.8205,-0.093505859375,0.0828857421875,1.0008544921875,0.657958984375,-0.844879150390625,0.11962890625,1,1.0,1.0,1.0,1.0,15.00
2024-10-11 20:09:27.501,0.433273,-0.24698636,0.008573688,0.4523852,0.43846598,-0.3627725,-0.40068507,0.3638304,0.7957022,0.055209145,-0.06610942,0.55780643,0.6130943,-0.18737511,-0.1588855,0.49544826,-0.020437323,-0.4287679,-0.67337793,-0.060226664,808.68134,796.1905,799.41394,805.4579,1046.8132,-0.093505859375,0.0828857421875,1.0008544921875,0.657958984375,-0.844879150390625,0.11962890625,1,1.0,1.0,1.0,1.0,15.00
2024-10-11 20:09:27.502,0.433273,-0.24698636,0.008573688,0.4523852,0.43846598,-0.3627725,-0.40068507,0.3638304,0.7957022,0.055209145,-0.06610942,0.55780643,0.6130943,-0.18737511,-0.1588855,0.49544826,-0.020437323,-0.4287679,-0.67337793,-0.060226664,812.3077,799.81683,795.38464,804.65204,1195.0916,-0.093505859375,0.0828857421875,1.0008544921875,0.657958984375,-0.844879150390625,0.11962890625,1,1.0,1.0,1.0,1.0,15.00
2024-10-11 20:09:27.502,0.433273,-0.24698636,0.008573688,0.4523852,0.43846598,-0.3627725,-0.40068507,0.3638304,0.7957022,0.055209145,-0.06610942,0.55780643,0.6130943,-0.18737511,-0.1588855,0.49544826,-0.020437323,-0.4287679,-0.67337793,-0.060226664,814.3223,804.65204,799.011,800.2198,753.47986,-0.093505859375,0.0828857421875,1.0008544921875,0.657958984375,-0.844879150390625,0.11962890625,1,1.0,1.0,1.0,1.0,15.00
2024-10-11 20:09:27.503,0.433273,-0.24698636,0.008573688,0.4523852,0.43846598,-0.3627725,-0.40068507,0.3638304,0.7957022,0.055209145,-0.06610942,0.55780643,0.6130943,-0.18737511,-0.1588855,0.49544826,-0.020437323,-0.4287679,-0.67337793,-0.060226664,812.71063,802.23444,802.6374,805.4579,686.5934,-0.093505859375,0.0828857421875,1.0008544921875,0.657958984375,-0.844879150390625,0.11962890625,1,1.0,1.0,1.0,1.0,15.00
2024-10-11 20:09:27.504,0.433273,-0.24698636,0.008573688,0.4523852,0.43846598,-0.3627725,-0.40068507,0.3638304,0.7957022,0.055209145,-0.06610942,0.55780643,0.6130943,-0.18737511,-0.1588855,0.49544826,-0.020437323,-0.4287679,-0.67337793,-0.060226664,809.4872,798.20514,802.23444,803.44324,979.12085,-0.093505859375,0.0828857421875,1.0008544921875,0.657958984375,-0.844879150390625,0.11962890625,1,1.0,1.0,1.0,1.0,15.00
2024-10-11 20:09:27.504,0.433273,-0.24698636,0.008573688,0.4523852,0.43846598,-0.3627725,-0.40068507,0.3638304,0.7957022,0.055209145,-0.06610942,0.55780643,0.6130943,-0.18737511,-0.1588855,0.49544826,-0.020437323,-0.4287679,-0.67337793,-0.060226664,805.8608,798.20514,801.8315,797.8022,902.1612,-0.093505859375,0.0828857421875,1.0008544921875,0.657958984375,-0.844879150390625,0.11962890625,1,1.0,1.0,1.0,1.0,15.00
2024-10-11 20:09:27.505,0.433273,-0.24698636,0.008573688,0.4523852,0.43846598,-0.3627725,-0.40068507,0.3638304,0.7957022,0.055209145,-0.06610942,0.55780643,0.6130943,-0.18737511,-0.1588855,0.49544826,-0.020437323,-0.4287679,-0.67337793,-0.060226664,806.6667,803.44324,801.4286,792.5641,637.03296,-0.093505859375,0.0828857421875,1.0008544921875,0.657958984375,-0.844879150390625,0.11962890625,1,1.0,1.0,1.0,1.0,15.00
2024-10-11 20:09:27.505,0.433273,-0.24698636,0.008573688,0.4523852,0.43846598,-0.3627725,-0.40068507,0.3638304,0.7957022,0.055209145,-0.06610942,0.55780643,0.6130943,-0.18737511,-0.1588855,0.49544826,-0.020437323,-0.4287679,-0.67337793,-0.060226664,805.4579,805.4579,801.8315,793.36993,593.1135,-0.093505859375,0.0828857421875,1.0008544921875,0.657958984375,-0.844879150390625,0.11962890625,1,1.0,1.0,1.0,1.0,15.00
2024-10-11 20:09:27.506,0.433273,-0.24698636,0.008573688,0.4523852,0.43846598,-0.3627725,-0.40068507,0.3638304,0.7957022,0.055209145,-0.06610942,0.55780643,0.6130943,-0.18737511,-0.1588855,0.49544826,-0.020437323,-0.4287679,-0.67337793,-0.060226664,794.9817,800.2198,796.5934,801.02563,911.4286,-0.093505859375,0.0828857421875,1.0008544921875,0.657958984375,-0.844879150390625,0.11962890625,1,1.0,1.0,1.0,1.0,15.00
2024-10-11 20:09:27.506,0.433273,-0.24698636,0.008573688,0.4523852,0.43846598,-0.3627725,-0.40068507,0.3638304,0.7957022,0.055209145,-0.06610942,0.55780643,0.6130943,-0.18737511,-0.1588855,0.49544826,-0.020437323,-0.4287679,-0.67337793,-0.060226664,801.8315,794.9817,796.5934,810.696,1008.1319,-0.093505859375,0.0828857421875,1.0008544921875,0.657958984375,-0.844879150390625,0.11962890625,1,1.0,1.0,1.0,1.0,15.00
2024-10-11 20:09:27.534,0.433273,-0.24698636,0.008573688,0.4523852,0.43846598,-0.3627725,-0.40068507,0.3638304,0.7957022,0.055209145,-0.06610942,0.55780643,0.6130943,-0.18737511,-0.1588855,0.49544826,-0.020437323,-0.4287679,-0.67337793,-0.060226664,818.3516,792.5641,809.4872,821.5751,736.9597,-0.0870361328125,0.079345703125,1.00250244140625,0.70281982421875,-0.800018310546875,0.082244873046875,1,1.0,1.0,1.0,1.0,15.00
2024-10-11 20:09:27.535,0.4516184,-0.21390106,-0.029421235,0.47882882,0.52285486,-0.3340679,-0.38315192,0.4341429,0.830064,0.050480876,-0.08711012,0.6118954,0.6357247,-0.16288464,-0.15967028,0.51548004,-0.020804726,-0.4314364,-0.6742432,-0.073813386,789.7436,796.1905,795.38464,791.75824,761.9414,-0.0870361328125,0.079345703125,1.00250244140625,0.70281982421875,-0.800018310546875,0.082244873046875,1,1.0,1.0,1.0,1.0,15.00
2024-10-11 20:09:27.541,0.4516184,-0.21390106,-0.029421235,0.47882882,0.52285486,-0.3340679,-0.38315192,0.4341429,0.830064,0.050480876,-0.08711012,0.6118954,0.6357247,-0.16288464,-0.15967028,0.51548004,-0.020804726,-0.4314364,-0.6742432,-0.073813386,767.5824,805.8608,782.0879,762.3443,830.84247,-0.0870361328125,0.079345703125,1.00250244140625,0.70281982421875,-0.800018310546875,0.082244873046875,1,1.0,1.0,1.0,1.0,15.00
2024-10-11 20:09:27.542,0.4516184,-0.21390106,-0.029421235,0.47882882,0.52285486,-0.3340679,-0.38315192,0.4341429,0.830064,0.050480876,-0.08711012,0.6118954,0.6357247,-0.16288464,-0.15967028,0.51548004,-0.020804726,-0.4314364,-0.6742432,-0.073813386,754.68866,808.2784,792.1612,757.9121,789.7436,-0.0870361328125,0.079345703125,1.00250244140625,0.70281982421875,-0.800018310546875,0.082244873046875,1,1.0,1.0,1.0,1.0,15.00
2024-10-11 20:09:27.543,0.4516184,-0.21390106,-0.029421235,0.47882882,0.52285486,-0.3340679,-0.38315192,0.4341429,0.830064,0.050480876,-0.08711012,0.6118954,0.6357247,-0.16288464,-0.15967028,0.51548004,-0.020804726,-0.4314364,-0.6742432,-0.073813386,727.28937,801.4286,795.78754,743.4066,734.94507,-0.0870361328125,0.079345703125,1.00250244140625,0.70281982421875,-0.800018310546875,0.082244873046875,1,1.0,1.0,1.0,1.0,15.00
2024-10-11 20:09:27.543,0.4516184,-0.21390106,-0.029421235,0.47882882,0.52285486,-0.3340679,-0.38315192,0.4341429,0.830064,0.050480876,-0.08711012,0.6118954,0.6357247,-0.16288464,-0.15967028,0.51548004,-0.020804726,-0.4314364,-0.6742432,-0.073813386,728.49817,797.3993,791.75824,738.1685,887.6557,-0.0870361328125,0.079345703125,1.00250244140625,0.70281982421875,-0.800018310546875,0.082244873046875,1,1.0,1.0,1.0,1.0,15.00
2024-10-11 20:09:27.544,0.4516184,-0.21390106,-0.029421235,0.47882882,0.52285486,-0.3340679,-0.38315192,0.4341429,0.830064,0.050480876,-0.08711012,0.6118954,0.6357247,-0.16288464,-0.15967028,0.51548004,-0.020804726,-0.4314364,-0.6742432,-0.073813386,735.34796,800.2198,790.14655,740.18317,967.8388,-0.0870361328125,0.079345703125,1.00250244140625,0.70281982421875,-0.800018310546875,0.082244873046875,1,1.0,1.0,1.0,1.0,15.00
2024-10-11 20:09:27.545,0.4516184,-0.21390106,-0.029421235,0.47882882,0.52285486,-0.3340679,-0.38315192,0.4341429,0.830064,0.050480876,-0.08711012,0.6118954,0.6357247,-0.16288464,-0.15967028,0.51548004,-0.020804726,-0.4314364,-0.6742432,-0.073813386,730.10986,805.8608,790.9524,730.9158,832.0513,-0.0870361328125,0.079345703125,1.00250244140625,0.70281982421875,-0.800018310546875,0.082244873046875,1,1.0,1.0,1.0,1.0,15.00
2024-10-11 20:09:27.545,0.4516184,-0.21390106,-0.029421235,0.47882882,0.52285486,-0.3340679,-0.38315192,0.4341429,0.830064,0.050480876,-0.08711012,0.6118954,0.6357247,-0.16288464,-0.15967028,0.51548004,-0.020804726,-0.4314364,-0.6742432,-0.073813386,709.5604,803.0403,795.78754,718.022,815.9341,-0.0870361328125,0.079345703125,1.00250244140625,0.70281982421875,-0.800018310546875,0.082244873046875,1,1.0,1.0,1.0,1.0,15.00
2024-10-11 20:09:27.546,0.4516184,-0.21390106,-0.029421235,0.47882882,0.52285486,-0.3340679,-0.38315192,0.4341429,0.830064,0.050480876,-0.08711012,0.6118954,0.6357247,-0.16288464,-0.15967028,0.51548004,-0.020804726,-0.4314364,-0.6742432,-0.073813386,698.68134,797.3993,800.2198,722.8571,871.13556,-0.0870361328125,0.079345703125,1.00250244140625,0.70281982421875,-0.800018310546875,0.082244873046875,1,1.0,1.0,1.0,1.0,15.00
2024-10-11 20:09:27.546,0.4516184,-0.21390106,-0.029421235,0.47882882,0.52285486,-0.3340679,-0.38315192,0.4341429,0.830064,0.050480876,-0.08711012,0.6118954,0.6357247,-0.16288464,-0.15967028,0.51548004,-0.020804726,-0.4314364,-0.6742432,-0.073813386,703.1135,802.23444,797.3993,730.5128,821.1722,-0.0870361328125,0.079345703125,1.00250244140625,0.70281982421875,-0.800018310546875,0.082244873046875,1,1.0,1.0,1.0,1.0,15.00
2024-10-11 20:09:27.547,0.4516184,-0.21390106,-0.029421235,0.47882882,0.52285486,-0.3340679,-0.38315192,0.4341429,0.830064,0.050480876,-0.08711012,0.6118954,0.6357247,-0.16288464,-0.15967028,0.51548004,-0.020804726,-0.4314364,-0.6742432,-0.073813386,692.6374,805.05493,790.9524,712.7839,692.6374,-0.0870361328125,0.079345703125,1.00250244140625,0.70281982421875,-0.800018310546875,0.082244873046875,1,1.0,1.0,1.0,1.0,15.00
2024-10-11 20:09:27.573,0.4516184,-0.21390106,-0.029421235,0.47882882,0.52285486,-0.3340679,-0.38315192,0.4341429,0.830064,0.050480876,-0.08711012,0.6118954,0.6357247,-0.16288464,-0.15967028,0.51548004,-0.020804726,-0.4314364,-0.6742432,-0.073813386,687.8022,801.8315,782.0879,697.47253,761.13556,-0.07666015625,0.0789794921875,1.00653076171875,1.1962890625,-1.1962890625,-0.097198486328125,1,1.0,1.0,1.0,1.0,15.00
2024-10-11 20:09:27.574,0.4516184,-0.21390106,-0.029421235,0.47882882,0.52285486,-0.3340679,-0.38315192,0.4341429,0.830064,0.050480876,-0.08711012,0.6118954,0.6357247,-0.16288464,-0.15967028,0.51548004,-0.020804726,-0.4314364,-0.6742432,-0.073813386,689.81683,803.0403,783.2967,702.3077,917.47253,-0.07666015625,0.0789794921875,1.00653076171875,1.1962890625,-1.1962890625,-0.097198486328125,1,1.0,1.0,1.0,1.0,15.00
2024-10-11 20:09:27.575,0.4516184,-0.21390106,-0.029421235,0.47882882,0.52285486,-0.3340679,-0.38315192,0.4341429,0.830064,0.050480876,-0.08711012,0.6118954,0.6357247,-0.16288464,-0.15967028,0.51548004,-0.020804726,-0.4314364,-0.6742432,-0.073813386,690.2198,805.8608,786.1172,700.293,847.76556,-0.07666015625,0.0789794921875,1.00653076171875,1.1962890625,-1.1962890625,-0.097198486328125,1,1.0,1.0,1.0,1.0,15.00
2024-10-11 20:09:27.576,0.4516184,-0.21390106,-0.029421235,0.47882882,0.52285486,-0.3340679,-0.38315192,0.4341429,0.830064,0.050480876,-0.08711012,0.6118954,0.6357247,-0.16288464,-0.15967028,0.51548004,-0.020804726,-0.4314364,-0.6742432,-0.073813386,705.12823,808.2784,784.10254,704.7253,703.91943,-0.07666015625,0.0789794921875,1.00653076171875,1.1962890625,-1.1962890625,-0.097198486328125,1,1.0,1.0,1.0,1.0,15.00
2024-10-11 20:09:27.576,0.4516184,-0.21390106,-0.029421235,0.47882882,0.52285486,-0.3340679,-0.38315192,0.4341429,0.830064,0.050480876,-0.08711012,0.6118954,0.6357247,-0.16288464,-0.15967028,0.51548004,-0.020804726,-0.4314364,-0.6742432,-0.073813386,714.7985,809.4872,782.49084,715.6044,807.8755,-0.07666015625,0.0789794921875,1.00653076171875,1.1962890625,-1.1962890625,-0.097198486328125,1,1.0,1.0,1.0,1.0,15.00
2024-10-11 20:09:27.577,0.4516184,-0.21390106,-0.029421235,0.47882882,0.52285486,-0.3340679,-0.38315192,0.4341429,0.830064,0.050480876,-0.08711012,0.6118954,0.6357247,-0.16288464,-0.15967028,0.51548004,-0.020804726,-0.4314364,-0.6742432,-0.073813386,707.5458,808.2784,778.86444,712.7839,1012.1612,-0.07666015625,0.0789794921875,1.00653076171875,1.1962890625,-1.1962890625,-0.097198486328125,1,1.0,1.0,1.0,1.0,15.00
2024-10-11 20:09:27.577,0.4516184,-0.21390106,-0.029421235,0.47882882,0.52285486,-0.3340679,-0.38315192,0.4341429,0.830064,0.050480876,-0.08711012,0.6118954,0.6357247,-0.16288464,-0.15967028,0.51548004,-0.020804726,-0.4314364,-0.6742432,-0.073813386,713.9927,808.2784,779.67035,715.2015,1004.5055,-0.07666015625,0.0789794921875,1.00653076171875,1.1962890625,-1.1962890625,-0.097198486328125,1,1.0,1.0,1.0,1.0,15.00
2024-10-11 20:09:27.578,0.4516184,-0.21390106,-0.029421235,0.47882882,0.52285486,-0.3340679,-0.38315192,0.4341429,0.830064,0.050480876,-0.08711012,0.6118954,0.6357247,-0.16288464,-0.15967028,0.51548004,-0.020804726,-0.4314364,-0.6742432,-0.073813386,717.2161,810.696,785.31134,713.9927,826.0073,-0.07666015625,0.0789794921875,1.00653076171875,1.1962890625,-1.1962890625,-0.097198486328125,1,1.0,1.0,1.0,1.0,15.00
2024-10-11 20:09:27.579,0.4516184,-0.21390106,-0.029421235,0.47882882,0.52285486,-0.3340679,-0.38315192,0.4341429,0.830064,0.050480876,-0.08711012,0.6118954,0.6357247,-0.16288464,-0.15967028,0.51548004,-0.020804726,-0.4314364,-0.6742432,-0.073813386,715.6044,813.5165,783.69965,713.9927,838.9011,-0.07666015625,0.0789794921875,1.00653076171875,1.1962890625,-1.1962890625,-0.097198486328125,1,1.0,1.0,1.0,1.0,15.00
2024-10-11 20:09:27.579,0.4516184,-0.21390106,-0.029421235,0.47882882,0.52285486,-0.3340679,-0.38315192,0.4341429,0.830064,0.050480876,-0.08711012,0.6118954,0.6357247,-0.16288464,-0.15967028,0.51548004,-0.020804726,-0.4314364,-0.6742432,-0.073813386,720.0366,810.293,780.87915,716.4103,1067.3627,-0.07666015625,0.0789794921875,1.00653076171875,1.1962890625,-1.1962890625,-0.097198486328125,1,1.0,1.0,1.0,1.0,15.00
2024-10-11 20:09:27.580,0.4516184,-0.21390106,-0.029421235,0.47882882,0.52285486,-0.3340679,-0.38315192,0.4341429,0.830064,0.050480876,-0.08711012,0.6118954,0.6357247,-0.16288464,-0.15967028,0.51548004,-0.020804726,-0.4314364,-0.6742432,-0.073813386,724.0659,811.9048,784.90845,720.0366,1014.57874,-0.07666015625,0.0789794921875,1.00653076171875,1.1962890625,-1.1962890625,-0.097198486328125,1,1.0,1.0,1.0,1.0,15.00
2024-10-11 20:09:27.580,0.4516184,-0.21390106,-0.029421235,0.47882882,0.52285486,-0.3340679,-0.38315192,0.4341429,0.830064,0.050480876,-0.08711012,0.6118954,0.6357247,-0.16288464,-0.15967028,0.51548004,-0.020804726,-0.4314364,-0.6742432,-0.073813386,730.9158,813.91943,783.69965,726.4835,696.6667,-0.07666015625,0.0789794921875,1.00653076171875,1.1962890625,-1.1962890625,-0.097198486328125,1,1.0,1.0,1.0,1.0,15.00
2024-10-11 20:09:27.648,0.4516184,-0.21390106,-0.029421235,0.47882882,0.52285486,-0.3340679,-0.38315192,0.4341429,0.830064,0.050480876,-0.08711012,0.6118954,0.6357247,-0.16288464,-0.15967028,0.51548004,-0.020804726,-0.4314364,-0.6742432,-0.073813386,732.9304,810.293,782.8938,723.663,750.2564,-0.08892822265625,0.07952880859375,1.02392578125,1.158905029296875,0.560760498046875,-0.067291259765625,1,1.0,1.0,1.0,1.0,15.00
2024-10-11 20:09:27.649,0.4516184,-0.21390106,-0.029421235,0.47882882,0.52285486,-0.3340679,-0.38315192,0.4341429,0.830064,0.050480876,-0.08711012,0.6118954,0.6357247,-0.16288464,-0.15967028,0.51548004,-0.020804726,-0.4314364,-0.6742432,-0.073813386,738.1685,810.293,781.685,730.9158,937.2161,-0.08892822265625,0.07952880859375,1.02392578125,1.158905029296875,0.560760498046875,-0.067291259765625,1,1.0,1.0,1.0,1.0,15.00
2024-10-11 20:09:27.650,0.4516184,-0.21390106,-0.029421235,0.47882882,0.52285486,-0.3340679,-0.38315192,0.4341429,0.830064,0.050480876,-0.08711012,0.6118954,0.6357247,-0.16288464,-0.15967028,0.51548004,-0.020804726,-0.4314364,-0.6742432,-0.073813386,749.0476,807.8755,783.69965,740.58606,824.7985,-0.08892822265625,0.07952880859375,1.02392578125,1.158905029296875,0.560760498046875,-0.067291259765625,1,1.0,1.0,1.0,1.0,15.00
2024-10-11 20:09:27.650,0.45740286,-0.18866563,-0.055926908,0.5020075,0.53306556,-0.31054506,-0.3671813,0.4569387,0.830064,0.04856591,-0.101762034,0.6118954,0.6368568,-0.1460236,-0.16047367,0.52908957,-0.01702338,-0.43658185,-0.66577536,-0.08132592,760.32965,810.696,788.1319,751.8681,683.36993,-0.08892822265625,0.07952880859375,1.02392578125,1.158905029296875,0.560760498046875,-0.067291259765625,1,1.0,1.0,1.0,1.0,15.00
2024-10-11 20:09:27.656,0.45740286,-0.18866563,-0.055926908,0.5020075,0.53306556,-0.31054506,-0.3671813,0.4569387,0.830064,0.04856591,-0.101762034,0.6118954,0.6368568,-0.1460236,-0.16047367,0.52908957,-0.01702338,-0.43658185,-0.66577536,-0.08132592,769.59705,811.50183,785.7143,758.71796,703.91943,-0.08892822265625,0.07952880859375,1.02392578125,1.158905029296875,0.560760498046875,-0.067291259765625,1,1.0,1.0,1.0,1.0,15.00
2024-10-11 20:09:27.656,0.45740286,-0.18866563,-0.055926908,0.5020075,0.53306556,-0.31054506,-0.3671813,0.4569387,0.830064,0.04856591,-0.101762034,0.6118954,0.6368568,-0.1460236,-0.16047367,0.52908957,-0.01702338,-0.43658185,-0.66577536,-0.08132592,772.01465,809.4872,785.7143,761.53845,812.71063,-0.08892822265625,0.07952880859375,1.02392578125,1.158905029296875,0.560760498046875,-0.067291259765625,1,1.0,1.0,1.0,1.0,15.00
2024-10-11 20:09:27.657,0.45740286,-0.18866563,-0.055926908,0.5020075,0.53306556,-0.31054506,-0.3671813,0.4569387,0.830064,0.04856591,-0.101762034,0.6118954,0.6368568,-0.1460236,-0.16047367,0.52908957,-0.01702338,-0.43658185,-0.66577536,-0.08132592,767.1795,810.293,790.14655,764.7619,805.8608,-0.08892822265625,0.07952880859375,1.02392578125,1.158905029296875,0.560760498046875,-0.067291259765625,1,1.0,1.0,1.0,1.0,15.00
2024-10-11 20:09:27.658,0.45740286,-0.18866563,-0.055926908,0.5020075,0.53306556,-0.31054506,-0.3671813,0.4569387,0.830064,0.04856591,-0.101762034,0.6118954,0.6368568,-0.1460236,-0.16047367,0.52908957,-0.01702338,-0.43658185,-0.66577536,-0.08132592,767.1795,812.71063,790.9524,763.95605,718.8278,-0.08892822265625,0.07952880859375,1.02392578125,1.158905029296875,0.560760498046875,-0.067291259765625,1,1.0,1.0,1.0,1.0,15.00
2024-10-11 20:09:27.658,0.45740286,-0.18866563,-0.055926908,0.5020075,0.53306556,-0.31054506,-0.3671813,0.4569387,0.830064,0.04856591,-0.101762034,0.6118954,0.6368568,-0.1460236,-0.16047367,0.52908957,-0.01702338,-0.43658185,-0.66577536,-0.08132592,771.6117,813.91943,790.9524,772.8205,776.04395,-0.08892822265625,0.07952880859375,1.02392578125,1.158905029296875,0.560760498046875,-0.067291259765625,1,1.0,1.0,1.0,1.0,15.00
2024-10-11 20:09:27.659,0.45740286,-0.18866563,-0.055926908,0.5020075,0.53306556,-0.31054506,-0.3671813,0.4569387,0.830064,0.04856591,-0.101762034,0.6118954,0.6368568,-0.1460236,-0.16047367,0.52908957,-0.01702338,-0.43658185,-0.66577536,-0.08132592,772.01465,811.0989,794.57874,775.2381,774.43225,-0.08892822265625,0.07952880859375,1.02392578125,1.158905029296875,0.560760498046875,-0.067291259765625,1,1.0,1.0,1.0,1.0,15.00
2024-10-11 20:09:27.659,0.45740286,-0.18866563,-0.055926908,0.5020075,0.53306556,-0.31054506,-0.3671813,0.4569387,0.830064,0.04856591,-0.101762034,0.6118954,0.6368568,-0.1460236,-0.16047367,0.52908957,-0.01702338,-0.43658185,-0.66577536,-0.08132592,765.16486,806.6667,795.78754,771.2088,680.54944,-0.08892822265625,0.07952880859375,1.02392578125,1.158905029296875,0.560760498046875,-0.067291259765625,1,1.0,1.0,1.0,1.0,15.00
2024-10-11 20:09:27.660,0.45740286,-0.18866563,-0.055926908,0.5020075,0.53306556,-0.31054506,-0.3671813,0.4569387,0.830064,0.04856591,-0.101762034,0.6118954,0.6368568,-0.1460236,-0.16047367,0.52908957,-0.01702338,-0.43658185,-0.66577536,-0.08132592,765.56775,808.68134,794.9817,772.4176,688.60803,-0.08892822265625,0.07952880859375,1.02392578125,1.158905029296875,0.560760498046875,-0.067291259765625,1,1.0,1.0,1.0,1.0,15.00
2024-10-11 20:09:27.686,0.45740286,-0.18866563,-0.055926908,0.5020075,0.53306556,-0.31054506,-0.3671813,0.4569387,0.830064,0.04856591,-0.101762034,0.6118954,0.6368568,-0.1460236,-0.16047367,0.52908957,-0.01702338,-0.43658185,-0.66577536,-0.08132592,775.64105,809.4872,800.6227,780.4762,985.16486,-0.08709716796875,0.07586669921875,0.99798583984375,2.572021484375,0.16448974609375,-4.29168701171875,1,1.0,1.0,1.0,1.0,15.00
2024-10-11 20:09:27.687,0.45740286,-0.18866563,-0.055926908,0.5020075,0.53306556,-0.31054506,-0.3671813,0.4569387,0.830064,0.04856591,-0.101762034,0.6118954,0.6368568,-0.1460236,-0.16047367,0.52908957,-0.01702338,-0.43658185,-0.66577536,-0.08132592,774.83514,805.4579,799.81683,785.7143,1194.2858,-0.08709716796875,0.07586669921875,0.99798583984375,2.572021484375,0.16448974609375,-4.29168701171875,1,1.0,1.0,1.0,1.0,15.00
2024-10-11 20:09:27.688,0.45740286,-0.18866563,-0.055926908,0.5020075,0.53306556,-0.31054506,-0.3671813,0.4569387,0.830064,0.04856591,-0.101762034,0.6118954,0.6368568,-0.1460236,-0.16047367,0.52908957,-0.01702338,-0.43658185,-0.66577536,-0.08132592,774.0293,808.68134,798.60803,778.86444,877.5824,-0.08709716796875,0.07586669921875,0.99798583984375,2.572021484375,0.16448974609375,-4.29168701171875,1,1.0,1.0,1.0,1.0,15.00
2024-10-11 20:09:27.689,0.45740286,-0.18866563,-0.055926908,0.5020075,0.53306556,-0.31054506,-0.3671813,0.4569387,0.830064,0.04856591,-0.101762034,0.6118954,0.6368568,-0.1460236,-0.16047367,0.52908957,-0.01702338,-0.43658185,-0.66577536,-0.08132592,779.67035,809.0842,799.011,776.4469,728.9011,-0.08709716796875,0.07586669921875,0.99798583984375,2.572021484375,0.16448974609375,-4.29168701171875,1,1.0,1.0,1.0,1.0,15.00
2024-10-11 20:09:27.689,0.45740286,-0.18866563,-0.055926908,0.5020075,0.53306556,-0.31054506,-0.3671813,0.4569387,0.830064,0.04856591,-0.101762034,0.6118954,0.6368568,-0.1460236,-0.16047367,0.52908957,-0.01702338,-0.43658185,-0.66577536,-0.08132592,785.7143,805.4579,794.9817,778.0586,702.71063,-0.08709716796875,0.07586669921875,0.99798583984375,2.572021484375,0.16448974609375,-4.29168701171875,1,1.0,1.0,1.0,1.0,15.00
2024-10-11 20:09:27.690,0.45740286,-0.18866563,-0.055926908,0.5020075,0.53306556,-0.31054506,-0.3671813,0.4569387,0.830064,0.04856591,-0.101762034,0.6118954,0.6368568,-0.1460236,-0.16047367,0.52908957,-0.01702338,-0.43658185,-0.66577536,-0.08132592,783.2967,803.44324,793.7729,776.4469,804.65204,-0.08709716796875,0.07586669921875,0.99798583984375,2.572021484375,0.16448974609375,-4.29168701171875,1,1.0,1.0,1.0,1.0,15.00
2024-10-11 20:09:27.691,0.45740286,-0.18866563,-0.055926908,0.5020075,0.53306556,-0.31054506,-0.3671813,0.4569387,0.830064,0.04856591,-0.101762034,0.6118954,0.6368568,-0.1460236,-0.16047367,0.52908957,-0.01702338,-0.43658185,-0.66577536,-0.08132592,778.46155,804.65204,795.38464,774.83514,919.0842,-0.08709716796875,0.07586669921875,0.99798583984375,2.572021484375,0.16448974609375,-4.29168701171875,1,1.0,1.0,1.0,1.0,15.00
2024-10-11 20:09:27.691,0.45740286,-0.18866563,-0.055926908,0.5020075,0.53306556,-0.31054506,-0.3671813,0.4569387,0.830064,0.04856591,-0.101762034,0.6118954,0.6368568,-0.1460236,-0.16047367,0.52908957,-0.01702338,-0.43658185,-0.66577536,-0.08132592,781.28204,807.0696,794.17584,779.67035,873.5531,-0.08709716796875,0.07586669921875,0.99798583984375,2.572021484375,0.16448974609375,-4.29168701171875,1,1.0,1.0,1.0,1.0,15.00
2024-10-11 20:09:27.692,0.45740286,-0.18866563,-0.055926908,0.5020075,0.53306556,-0.31054506,-0.3671813,0.4569387,0.830064,0.04856591,-0.101762034,0.6118954,0.6368568,-0.1460236,-0.16047367,0.52908957,-0.01702338,-0.43658185,-0.66577536,-0.08132592,779.2674,807.0696,790.9524,780.87915,865.09155,-0.08709716796875,0.07586669921875,0.99798583984375,2.572021484375,0.16448974609375,-4.29168701171875,1,1.0,1.0,1.0,1.0,15.00
2024-10-11 20:09:27.692,0.45740286,-0.18866563,-0.055926908,0.5020075,0.53306556,-0.31054506,-0.3671813,0.4569387,0.830064,0.04856591,-0.101762034,0.6118954,0.6368568,-0.1460236,-0.16047367,0.52908957,-0.01702338,-0.43658185,-0.66577536,-0.08132592,782.8938,809.89014,791.3553,777.25275,827.2161,-0.08709716796875,0.07586669921875,0.99798583984375,2.572021484375,0.16448974609375,-4.29168701171875,1,1.0,1.0,1.0,1.0,15.00
2024-10-11 20:09:27.693,0.45740286,-0.18866563,-0.055926908,0.5020075,0.53306556,-0.31054506,-0.3671813,0.4569387,0.830064,0.04856591,-0.101762034,0.6118954,0.6368568,-0.1460236,-0.16047367,0.52908957,-0.01702338,-0.43658185,-0.66577536,-0.08132592,787.326,813.5165,791.3553,773.6264,677.326,-0.08709716796875,0.07586669921875,0.99798583984375,2.572021484375,0.16448974609375,-4.29168701171875,1,1.0,1.0,1.0,1.0,15.00
2024-10-11 20:09:27.694,0.45740286,-0.18866563,-0.055926908,0.5020075,0.53306556,-0.31054506,-0.3671813,0.4569387,0.830064,0.04856591,-0.101762034,0.6118954,0.6368568,-0.1460236,-0.16047367,0.52908957,-0.01702338,-0.43658185,-0.66577536,-0.08132592,788.93774,811.0989,794.17584,778.46155,699.4872,-0.08709716796875,0.07586669921875,0.99798583984375,2.572021484375,0.16448974609375,-4.29168701171875,1,1.0,1.0,1.0,1.0,15.00
2024-10-11 20:09:27.720,0.45740286,-0.18866563,-0.055926908,0.5020075,0.53306556,-0.31054506,-0.3671813,0.4569387,0.830064,0.04856591,-0.101762034,0.6118954,0.6368568,-0.1460236,-0.16047367,0.52908957,-0.01702338,-0.43658185,-0.66577536,-0.08132592,784.90845,801.4286,788.93774,784.5055,781.28204,-0.08709716796875,0.07586669921875,0.99798583984375,2.572021484375,0.16448974609375,-4.29168701171875,1,1.0,1.0,1.0,1.0,15.00
2024-10-11 20:09:27.720,0.45740286,-0.18866563,-0.055926908,0.5020075,0.53306556,-0.31054506,-0.3671813,0.4569387,0.830064,0.04856591,-0.101762034,0.6118954,0.6368568,-0.1460236,-0.16047367,0.52908957,-0.01702338,-0.43658185,-0.66577536,-0.08132592,777.6557,803.0403,789.34064,782.0879,707.5458,-0.08709716796875,0.07586669921875,0.99798583984375,2.572021484375,0.16448974609375,-4.29168701171875,1,1.0,1.0,1.0,1.0,15.00
2024-10-11 20:09:27.721,0.45740286,-0.18866563,-0.055926908,0.5020075,0.53306556,-0.31054506,-0.3671813,0.4569387,0.830064,0.04856591,-0.101762034,0.6118954,0.6368568,-0.1460236,-0.16047367,0.52908957,-0.01702338,-0.43658185,-0.66577536,-0.08132592,776.04395,805.4579,795.78754,782.49084,639.85345,-0.08709716796875,0.07586669921875,0.99798583984375,2.572021484375,0.16448974609375,-4.29168701171875,1,1.0,1.0,1.0,1.0,15.00
2024-10-11 20:09:27.722,0.45740286,-0.18866563,-0.055926908,0.5020075,0.53306556,-0.31054506,-0.3671813,0.4569387,0.830064,0.04856591,-0.101762034,0.6118954,0.6368568,-0.1460236,-0.16047367,0.52908957,-0.01702338,-0.43658185,-0.66577536,-0.08132592,771.6117,801.4286,791.75824,786.52014,894.90845,-0.08709716796875,0.07586669921875,0.99798583984375,2.572021484375,0.16448974609375,-4.29168701171875,1,1.0,1.0,1.0,1.0,15.00
2024-10-11 20:09:27.722,0.45740286,-0.18866563,-0.055926908,0.5020075,0.53306556,-0.31054506,-0.3671813,0.4569387,0.830064,0.04856591,-0.101762034,0.6118954,0.6368568,-0.1460236,-0.16047367,0.52908957,-0.01702338,-0.43658185,-0.66577536,-0.08132592,774.83514,797.8022,794.9817,795.38464,1055.2748,-0.08709716796875,0.07586669921875,0.99798583984375,2.572021484375,0.16448974609375,-4.29168701171875,1,1.0,1.0,1.0,1.0,15.00
2024-10-11 20:09:27,,,,,,,,,,,,,,,,,,,,,,,,,,,,,,,,,,,,,,/muse/elements/blink
2024-10-11 20:09:27.723,0.46342734,-0.16691041,-0.04914369,0.5244986,0.54047436,-0.29466137,-0.34264034,0.47441894,0.830064,0.054254964,-0.10214665,0.60885,0.63444734,-0.13647857,-0.16292585,0.5423088,-0.0114666335,-0.4446235,-0.65472823,-0.08706829,788.5348,803.8461,799.011,792.1612,778.0586,-0.08709716796875,0.07586669921875,0.99798583984375,2.572021484375,0.16448974609375,-4.29168701171875,1,1.0,1.0,1.0,1.0,15.00
2024-10-11 20:09:27.729,0.46342734,-0.16691041,-0.04914369,0.5244986,0.54047436,-0.29466137,-0.34264034,0.47441894,0.830064,0.054254964,-0.10214665,0.60885,0.63444734,-0.13647857,-0.16292585,0.5423088,-0.0114666335,-0.4446235,-0.65472823,-0.08706829,788.1319,803.8461,795.78754,785.7143,728.9011,-0.08709716796875,0.07586669921875,0.99798583984375,2.572021484375,0.16448974609375,-4.29168701171875,1,1.0,1.0,1.0,1.0,15.00
2024-10-11 20:09:27.729,0.46342734,-0.16691041,-0.04914369,0.5244986,0.54047436,-0.29466137,-0.34264034,0.47441894,0.830064,0.054254964,-0.10214665,0.60885,0.63444734,-0.13647857,-0.16292585,0.5423088,-0.0114666335,-0.4446235,-0.65472823,-0.08706829,785.31134,800.2198,795.38464,798.60803,865.4945,-0.08709716796875,0.07586669921875,0.99798583984375,2.572021484375,0.16448974609375,-4.29168701171875,1,1.0,1.0,1.0,1.0,15.00
2024-10-11 20:09:27.730,0.46342734,-0.16691041,-0.04914369,0.5244986,0.54047436,-0.29466137,-0.34264034,0.47441894,0.830064,0.054254964,-0.10214665,0.60885,0.63444734,-0.13647857,-0.16292585,0.5423088,-0.0114666335,-0.4446235,-0.65472823,-0.08706829,793.36993,807.8755,799.011,803.8461,864.68866,-0.08709716796875,0.07586669921875,0.99798583984375,2.572021484375,0.16448974609375,-4.29168701171875,1,1.0,1.0,1.0,1.0,15.00
2024-10-11 20:09:27.731,0.46342734,-0.16691041,-0.04914369,0.5244986,0.54047436,-0.29466137,-0.34264034,0.47441894,0.830064,0.054254964,-0.10214665,0.60885,0.63444734,-0.13647857,-0.16292585,0.5423088,-0.0114666335,-0.4446235,-0.65472823,-0.08706829,791.3553,808.68134,799.011,792.96704,708.3516,-0.08709716796875,0.07586669921875,0.99798583984375,2.572021484375,0.16448974609375,-4.29168701171875,1,1.0,1.0,1.0,1.0,15.00
2024-10-11 20:09:27.731,0.46342734,-0.16691041,-0.04914369,0.5244986,0.54047436,-0.29466137,-0.34264034,0.47441894,0.830064,0.054254964,-0.10214665,0.60885,0.63444734,-0.13647857,-0.16292585,0.5423088,-0.0114666335,-0.4446235,-0.65472823,-0.08706829,794.17584,803.44324,797.3993,795.38464,747.4359,-0.08709716796875,0.07586669921875,0.99798583984375,2.572021484375,0.16448974609375,-4.29168701171875,1,1.0,1.0,1.0,1.0,15.00
2024-10-11 20:09:27.732,0.46342734,-0.16691041,-0.04914369,0.5244986,0.54047436,-0.29466137,-0.34264034,0.47441894,0.830064,0.054254964,-0.10214665,0.60885,0.63444734,-0.13647857,-0.16292585,0.5423088,-0.0114666335,-0.4446235,-0.65472823,-0.08706829,802.6374,802.6374,797.3993,804.65204,941.6484,-0.08709716796875,0.07586669921875,0.99798583984375,2.572021484375,0.16448974609375,-4.29168701171875,1,1.0,1.0,1.0,1.0,15.00
2024-10-11 20:09:27.759,0.46342734,-0.16691041,-0.04914369,0.5244986,0.54047436,-0.29466137,-0.34264034,0.47441894,0.830064,0.054254964,-0.10214665,0.60885,0.63444734,-0.13647857,-0.16292585,0.5423088,-0.0114666335,-0.4446235,-0.65472823,-0.08706829,805.8608,802.23444,798.20514,801.8315,955.7509,-0.06597900390625,0.09332275390625,1.0006103515625,1.854248046875,1.86920166015625,-4.463653564453125,1,1.0,1.0,1.0,1.0,15.00
2024-10-11 20:09:27.760,0.46342734,-0.16691041,-0.04914369,0.5244986,0.54047436,-0.29466137,-0.34264034,0.47441894,0.830064,0.054254964,-0.10214665,0.60885,0.63444734,-0.13647857,-0.16292585,0.5423088,-0.0114666335,-0.4446235,-0.65472823,-0.08706829,806.6667,798.60803,803.0403,800.2198,800.6227,-0.06597900390625,0.09332275390625,1.0006103515625,1.854248046875,1.86920166015625,-4.463653564453125,1,1.0,1.0,1.0,1.0,15.00
2024-10-11 20:09:27.760,0.46342734,-0.16691041,-0.04914369,0.5244986,0.54047436,-0.29466137,-0.34264034,0.47441894,0.830064,0.054254964,-0.10214665,0.60885,0.63444734,-0.13647857,-0.16292585,0.5423088,-0.0114666335,-0.4446235,-0.65472823,-0.08706829,801.8315,796.5934,799.81683,799.81683,782.8938,-0.06597900390625,0.09332275390625,1.0006103515625,1.854248046875,1.86920166015625,-4.463653564453125,1,1.0,1.0,1.0,1.0,15.00
2024-10-11 20:09:27.761,0.46342734,-0.16691041,-0.04914369,0.5244986,0.54047436,-0.29466137,-0.34264034,0.47441894,0.830064,0.054254964,-0.10214665,0.60885,0.63444734,-0.13647857,-0.16292585,0.5423088,-0.0114666335,-0.4446235,-0.65472823,-0.08706829,803.44324,800.2198,797.3993,803.8461,876.77655,-0.06597900390625,0.09332275390625,1.0006103515625,1.854248046875,1.86920166015625,-4.463653564453125,1,1.0,1.0,1.0,1.0,15.00
2024-10-11 20:09:27.761,0.46342734,-0.16691041,-0.04914369,0.5244986,0.54047436,-0.29466137,-0.34264034,0.47441894,0.830064,0.054254964,-0.10214665,0.60885,0.63444734,-0.13647857,-0.16292585,0.5423088,-0.0114666335,-0.4446235,-0.65472823,-0.08706829,808.2784,805.05493,804.65204,809.4872,866.7033,-0.06597900390625,0.09332275390625,1.0006103515625,1.854248046875,1.86920166015625,-4.463653564453125,1,1.0,1.0,1.0,1.0,15.00
2024-10-11 20:09:27.762,0.46342734,-0.16691041,-0.04914369,0.5244986,0.54047436,-0.29466137,-0.34264034,0.47441894,0.830064,0.054254964,-0.10214665,0.60885,0.63444734,-0.13647857,-0.16292585,0.5423088,-0.0114666335,-0.4446235,-0.65472823,-0.08706829,809.89014,803.0403,803.0403,808.2784,871.53845,-0.06597900390625,0.09332275390625,1.0006103515625,1.854248046875,1.86920166015625,-4.463653564453125,1,1.0,1.0,1.0,1.0,15.00
2024-10-11 20:09:27.763,0.46342734,-0.16691041,-0.04914369,0.5244986,0.54047436,-0.29466137,-0.34264034,0.47441894,0.830064,0.054254964,-0.10214665,0.60885,0.63444734,-0.13647857,-0.16292585,0.5423088,-0.0114666335,-0.4446235,-0.65472823,-0.08706829,813.1135,802.23444,798.20514,811.0989,1011.3553,-0.06597900390625,0.09332275390625,1.0006103515625,1.854248046875,1.86920166015625,-4.463653564453125,1,1.0,1.0,1.0,1.0,15.00
2024-10-11 20:09:27.763,0.46342734,-0.16691041,-0.04914369,0.5244986,0.54047436,-0.29466137,-0.34264034,0.47441894,0.830064,0.054254964,-0.10214665,0.60885,0.63444734,-0.13647857,-0.16292585,0.5423088,-0.0114666335,-0.4446235,-0.65472823,-0.08706829,816.7399,804.2491,800.6227,813.91943,1037.5458,-0.06597900390625,0.09332275390625,1.0006103515625,1.854248046875,1.86920166015625,-4.463653564453125,1,1.0,1.0,1.0,1.0,15.00
2024-10-11 20:09:27.764,0.46342734,-0.16691041,-0.04914369,0.5244986,0.54047436,-0.29466137,-0.34264034,0.47441894,0.830064,0.054254964,-0.10214665,0.60885,0.63444734,-0.13647857,-0.16292585,0.5423088,-0.0114666335,-0.4446235,-0.65472823,-0.08706829,818.7546,802.23444,803.0403,816.337,882.8205,-0.06597900390625,0.09332275390625,1.0006103515625,1.854248046875,1.86920166015625,-4.463653564453125,1,1.0,1.0,1.0,1.0,15.00
2024-10-11 20:09:27.764,0.46342734,-0.16691041,-0.04914369,0.5244986,0.54047436,-0.29466137,-0.34264034,0.47441894,0.830064,0.054254964,-0.10214665,0.60885,0.63444734,-0.13647857,-0.16292585,0.5423088,-0.0114666335,-0.4446235,-0.65472823,-0.08706829,816.337,801.02563,801.02563,815.12823,786.9231,-0.06597900390625,0.09332275390625,1.0006103515625,1.854248046875,1.86920166015625,-4.463653564453125,1,1.0,1.0,1.0,1.0,15.00
2024-10-11 20:09:27.765,0.46342734,-0.16691041,-0.04914369,0.5244986,0.54047436,-0.29466137,-0.34264034,0.47441894,0.830064,0.054254964,-0.10214665,0.60885,0.63444734,-0.13647857,-0.16292585,0.5423088,-0.0114666335,-0.4446235,-0.65472823,-0.08706829,813.5165,800.6227,800.6227,815.12823,772.01465,-0.06597900390625,0.09332275390625,1.0006103515625,1.854248046875,1.86920166015625,-4.463653564453125,1,1.0,1.0,1.0,1.0,15.00
2024-10-11 20:09:27.766,0.46342734,-0.16691041,-0.04914369,0.5244986,0.54047436,-0.29466137,-0.34264034,0.47441894,0.830064,0.054254964,-0.10214665,0.60885,0.63444734,-0.13647857,-0.16292585,0.5423088,-0.0114666335,-0.4446235,-0.65472823,-0.08706829,805.8608,800.2198,800.6227,813.91943,906.5934,-0.06597900390625,0.09332275390625,1.0006103515625,1.854248046875,1.86920166015625,-4.463653564453125,1,1.0,1.0,1.0,1.0,15.00
2024-10-11 20:09:27.799,0.46342734,-0.16691041,-0.04914369,0.5244986,0.54047436,-0.29466137,-0.34264034,0.47441894,0.830064,0.054254964,-0.10214665,0.60885,0.63444734,-0.13647857,-0.16292585,0.5423088,-0.0114666335,-0.4446235,-0.65472823,-0.08706829,800.2198,802.23444,801.8315,808.68134,832.0513,-0.09259033203125,0.09521484375,0.99139404296875,0.605621337890625,4.972076416015625,2.55706787109375,1,1.0,1.0,1.0,1.0,15.00
2024-10-11 20:09:27.800,0.46342734,-0.16691041,-0.04914369,0.5244986,0.54047436,-0.29466137,-0.34264034,0.47441894,0.830064,0.054254964,-0.10214665,0.60885,0.63444734,-0.13647857,-0.16292585,0.5423088,-0.0114666335,-0.4446235,-0.65472823,-0.08706829,799.81683,802.6374,800.6227,805.8608,627.76556,-0.09259033203125,0.09521484375,0.99139404296875,0.605621337890625,4.972076416015625,2.55706787109375,1,1.0,1.0,1.0,1.0,15.00
2024-10-11 20:09:27.801,0.46342734,-0.16691041,-0.04914369,0.5244986,0.54047436,-0.29466137,-0.34264034,0.47441894,0.830064,0.054254964,-0.10214665,0.60885,0.63444734,-0.13647857,-0.16292585,0.5423088,-0.0114666335,-0.4446235,-0.65472823,-0.08706829,805.8608,798.60803,796.99634,807.8755,763.5531,-0.09259033203125,0.09521484375,0.99139404296875,0.605621337890625,4.972076416015625,2.55706787109375,1,1.0,1.0,1.0,1.0,15.00
2024-10-11 20:09:27.801,0.46342734,-0.16691041,-0.04914369,0.5244986,0.54047436,-0.29466137,-0.34264034,0.47441894,0.830064,0.054254964,-0.10214665,0.60885,0.63444734,-0.13647857,-0.16292585,0.5423088,-0.0114666335,-0.4446235,-0.65472823,-0.08706829,808.68134,798.20514,797.8022,818.3516,1066.1538,-0.09259033203125,0.09521484375,0.99139404296875,0.605621337890625,4.972076416015625,2.55706787109375,1,1.0,1.0,1.0,1.0,15.00
2024-10-11 20:09:27.802,0.46342734,-0.16691041,-0.04914369,0.5244986,0.54047436,-0.29466137,-0.34264034,0.47441894,0.830064,0.054254964,-0.10214665,0.60885,0.63444734,-0.13647857,-0.16292585,0.5423088,-0.0114666335,-0.4446235,-0.65472823,-0.08706829,803.8461,803.0403,797.3993,812.71063,882.01465,-0.09259033203125,0.09521484375,0.99139404296875,0.605621337890625,4.972076416015625,2.55706787109375,1,1.0,1.0,1.0,1.0,15.00
2024-10-11 20:09:27.802,0.46342734,-0.16691041,-0.04914369,0.5244986,0.54047436,-0.29466137,-0.34264034,0.47441894,0.830064,0.054254964,-0.10214665,0.60885,0.63444734,-0.13647857,-0.16292585,0.5423088,-0.0114666335,-0.4446235,-0.65472823,-0.08706829,801.8315,801.8315,798.60803,804.2491,813.91943,-0.09259033203125,0.09521484375,0.99139404296875,0.605621337890625,4.972076416015625,2.55706787109375,1,1.0,1.0,1.0,1.0,15.00
2024-10-11 20:09:27.803,0.46342734,-0.16691041,-0.04914369,0.5244986,0.54047436,-0.29466137,-0.34264034,0.47441894,0.830064,0.054254964,-0.10214665,0.60885,0.63444734,-0.13647857,-0.16292585,0.5423088,-0.0114666335,-0.4446235,-0.65472823,-0.08706829,799.41394,797.3993,799.81683,805.8608,990.80585,-0.09259033203125,0.09521484375,0.99139404296875,0.605621337890625,4.972076416015625,2.55706787109375,1,1.0,1.0,1.0,1.0,15.00
2024-10-11 20:09:27.804,0.46721092,-0.12385205,0.014825616,0.53593665,0.5505645,-0.2851987,-0.29057315,0.48043752,0.830064,0.070817985,-0.10214665,0.6028725,0.63273233,-0.13029724,-0.16648266,0.5578411,-0.001953338,-0.45246923,-0.6469855,-0.08653352,796.1905,796.5934,798.60803,802.6374,981.9414,-0.09259033203125,0.09521484375,0.99139404296875,0.605621337890625,4.972076416015625,2.55706787109375,1,1.0,1.0,1.0,1.0,15.00
2024-10-11 20:09:27.809,0.46721092,-0.12385205,0.014825616,0.53593665,0.5505645,-0.2851987,-0.29057315,0.48043752,0.830064,0.070817985,-0.10214665,0.6028725,0.63273233,-0.13029724,-0.16648266,0.5578411,-0.001953338,-0.45246923,-0.6469855,-0.08653352,796.1905,798.60803,795.78754,795.78754,916.26373,-0.09259033203125,0.09521484375,0.99139404296875,0.605621337890625,4.972076416015625,2.55706787109375,1,1.0,1.0,1.0,1.0,15.00
2024-10-11 20:09:27.810,0.46721092,-0.12385205,0.014825616,0.53593665,0.5505645,-0.2851987,-0.29057315,0.48043752,0.830064,0.070817985,-0.10214665,0.6028725,0.63273233,-0.13029724,-0.16648266,0.5578411,-0.001953338,-0.45246923,-0.6469855,-0.08653352,801.4286,797.3993,793.36993,795.78754,883.6264,-0.09259033203125,0.09521484375,0.99139404296875,0.605621337890625,4.972076416015625,2.55706787109375,1,1.0,1.0,1.0,1.0,15.00
2024-10-11 20:09:27.810,0.46721092,-0.12385205,0.014825616,0.53593665,0.5505645,-0.2851987,-0.29057315,0.48043752,0.830064,0.070817985,-0.10214665,0.6028725,0.63273233,-0.13029724,-0.16648266,0.5578411,-0.001953338,-0.45246923,-0.6469855,-0.08653352,793.7729,797.8022,789.34064,793.7729,850.18317,-0.09259033203125,0.09521484375,0.99139404296875,0.605621337890625,4.972076416015625,2.55706787109375,1,1.0,1.0,1.0,1.0,15.00
2024-10-11 20:09:27.811,0.46721092,-0.12385205,0.014825616,0.53593665,0.5505645,-0.2851987,-0.29057315,0.48043752,0.830064,0.070817985,-0.10214665,0.6028725,0.63273233,-0.13029724,-0.16648266,0.5578411,-0.001953338,-0.45246923,-0.6469855,-0.08653352,789.7436,797.3993,790.9524,796.1905,785.31134,-0.09259033203125,0.09521484375,0.99139404296875,0.605621337890625,4.972076416015625,2.55706787109375,1,1.0,1.0,1.0,1.0,15.00
2024-10-11 20:09:27.835,0.46721092,-0.12385205,0.014825616,0.53593665,0.5505645,-0.2851987,-0.29057315,0.48043752,0.830064,0.070817985,-0.10214665,0.6028725,0.63273233,-0.13029724,-0.16648266,0.5578411,-0.001953338,-0.45246923,-0.6469855,-0.08653352,799.011,797.8022,799.011,807.0696,713.5897,-0.12457275390625,0.0960693359375,1.00299072265625,1.24114990234375,1.637420654296875,0.5682373046875,1,1.0,1.0,1.0,1.0,15.00
2024-10-11 20:09:27.835,0.46721092,-0.12385205,0.014825616,0.53593665,0.5505645,-0.2851987,-0.29057315,0.48043752,0.830064,0.070817985,-0.10214665,0.6028725,0.63273233,-0.13029724,-0.16648266,0.5578411,-0.001953338,-0.45246923,-0.6469855,-0.08653352,796.1905,797.8022,798.60803,806.26373,729.304,-0.12457275390625,0.0960693359375,1.00299072265625,1.24114990234375,1.637420654296875,0.5682373046875,1,1.0,1.0,1.0,1.0,15.00
2024-10-11 20:09:27.836,0.46721092,-0.12385205,0.014825616,0.53593665,0.5505645,-0.2851987,-0.29057315,0.48043752,0.830064,0.070817985,-0.10214665,0.6028725,0.63273233,-0.13029724,-0.16648266,0.5578411,-0.001953338,-0.45246923,-0.6469855,-0.08653352,791.75824,792.1612,796.5934,812.71063,958.97437,-0.12457275390625,0.0960693359375,1.00299072265625,1.24114990234375,1.637420654296875,0.5682373046875,1,1.0,1.0,1.0,1.0,15.00
2024-10-11 20:09:27.837,0.46721092,-0.12385205,0.014825616,0.53593665,0.5505645,-0.2851987,-0.29057315,0.48043752,0.830064,0.070817985,-0.10214665,0.6028725,0.63273233,-0.13029724,-0.16648266,0.5578411,-0.001953338,-0.45246923,-0.6469855,-0.08653352,797.8022,791.75824,800.2198,816.337,961.39197,-0.12457275390625,0.0960693359375,1.00299072265625,1.24114990234375,1.637420654296875,0.5682373046875,1,1.0,1.0,1.0,1.0,15.00
2024-10-11 20:09:27.838,0.46721092,-0.12385205,0.014825616,0.53593665,0.5505645,-0.2851987,-0.29057315,0.48043752,0.830064,0.070817985,-0.10214665,0.6028725,0.63273233,-0.13029724,-0.16648266,0.5578411,-0.001953338,-0.45246923,-0.6469855,-0.08653352,799.81683,795.78754,801.8315,809.4872,791.75824,-0.12457275390625,0.0960693359375,1.00299072265625,1.24114990234375,1.637420654296875,0.5682373046875,1,1.0,1.0,1.0,1.0,15.00
2024-10-11 20:09:27.838,0.46721092,-0.12385205,0.014825616,0.53593665,0.5505645,-0.2851987,-0.29057315,0.48043752,0.830064,0.070817985,-0.10214665,0.6028725,0.63273233,-0.13029724,-0.16648266,0.5578411,-0.001953338,-0.45246923,-0.6469855,-0.08653352,797.8022,796.5934,801.8315,811.9048,914.2491,-0.12457275390625,0.0960693359375,1.00299072265625,1.24114990234375,1.637420654296875,0.5682373046875,1,1.0,1.0,1.0,1.0,15.00
2024-10-11 20:09:27.839,0.46721092,-0.12385205,0.014825616,0.53593665,0.5505645,-0.2851987,-0.29057315,0.48043752,0.830064,0.070817985,-0.10214665,0.6028725,0.63273233,-0.13029724,-0.16648266,0.5578411,-0.001953338,-0.45246923,-0.6469855,-0.08653352,796.99634,796.1905,798.60803,808.2784,1070.586,-0.12457275390625,0.0960693359375,1.00299072265625,1.24114990234375,1.637420654296875,0.5682373046875,1,1.0,1.0,1.0,1.0,15.00
2024-10-11 20:09:27.839,0.46721092,-0.12385205,0.014825616,0.53593665,0.5505645,-0.2851987,-0.29057315,0.48043752,0.830064,0.070817985,-0.10214665,0.6028725,0.63273233,-0.13029724,-0.16648266,0.5578411,-0.001953338,-0.45246923,-0.6469855,-0.08653352,800.6227,797.3993,795.38464,803.0403,946.8865,-0.12457275390625,0.0960693359375,1.00299072265625,1.24114990234375,1.637420654296875,0.5682373046875,1,1.0,1.0,1.0,1.0,15.00
2024-10-11 20:09:27.840,0.46721092,-0.12385205,0.014825616,0.53593665,0.5505645,-0.2851987,-0.29057315,0.48043752,0.830064,0.070817985,-0.10214665,0.6028725,0.63273233,-0.13029724,-0.16648266,0.5578411,-0.001953338,-0.45246923,-0.6469855,-0.08653352,801.4286,801.4286,793.36993,799.81683,670.4762,-0.12457275390625,0.0960693359375,1.00299072265625,1.24114990234375,1.637420654296875,0.5682373046875,1,1.0,1.0,1.0,1.0,15.00
2024-10-11 20:09:27.841,0.46721092,-0.12385205,0.014825616,0.53593665,0.5505645,-0.2851987,-0.29057315,0.48043752,0.830064,0.070817985,-0.10214665,0.6028725,0.63273233,-0.13029724,-0.16648266,0.5578411,-0.001953338,-0.45246923,-0.6469855,-0.08653352,801.4286,800.6227,792.96704,801.02563,738.1685,-0.12457275390625,0.0960693359375,1.00299072265625,1.24114990234375,1.637420654296875,0.5682373046875,1,1.0,1.0,1.0,1.0,15.00
2024-10-11 20:09:27.841,0.46721092,-0.12385205,0.014825616,0.53593665,0.5505645,-0.2851987,-0.29057315,0.48043752,0.830064,0.070817985,-0.10214665,0.6028725,0.63273233,-0.13029724,-0.16648266,0.5578411,-0.001953338,-0.45246923,-0.6469855,-0.08653352,805.8608,800.6227,795.38464,813.1135,917.0696,-0.12457275390625,0.0960693359375,1.00299072265625,1.24114990234375,1.637420654296875,0.5682373046875,1,1.0,1.0,1.0,1.0,15.00
2024-10-11 20:09:27.842,0.46721092,-0.12385205,0.014825616,0.53593665,0.5505645,-0.2851987,-0.29057315,0.48043752,0.830064,0.070817985,-0.10214665,0.6028725,0.63273233,-0.13029724,-0.16648266,0.5578411,-0.001953338,-0.45246923,-0.6469855,-0.08653352,805.8608,804.65204,793.7729,811.9048,773.22345,-0.12457275390625,0.0960693359375,1.00299072265625,1.24114990234375,1.637420654296875,0.5682373046875,1,1.0,1.0,1.0,1.0,15.00
2024-10-11 20:09:27.896,0.46721092,-0.12385205,0.014825616,0.53593665,0.5505645,-0.2851987,-0.29057315,0.48043752,0.830064,0.070817985,-0.10214665,0.6028725,0.63273233,-0.13029724,-0.16648266,0.5578411,-0.001953338,-0.45246923,-0.6469855,-0.08653352,805.05493,801.8315,793.36993,806.6667,545.9707,-0.10723876953125,0.10015869140625,1.01141357421875,0.261688232421875,0.52337646484375,-5.286102294921875,1,1.0,1.0,1.0,1.0,15.00
2024-10-11 20:09:27.897,0.46721092,-0.12385205,0.014825616,0.53593665,0.5505645,-0.2851987,-0.29057315,0.48043752,0.830064,0.070817985,-0.10214665,0.6028725,0.63273233,-0.13029724,-0.16648266,0.5578411,-0.001953338,-0.45246923,-0.6469855,-0.08653352,810.696,799.011,794.17584,811.9048,639.0476,-0.10723876953125,0.10015869140625,1.01141357421875,0.261688232421875,0.52337646484375,-5.286102294921875,1,1.0,1.0,1.0,1.0,15.00
2024-10-11 20:09:27.898,0.46721092,-0.12385205,0.014825616,0.53593665,0.5505645,-0.2851987,-0.29057315,0.48043752,0.830064,0.070817985,-0.10214665,0.6028725,0.63273233,-0.13029724,-0.16648266,0.5578411,-0.001953338,-0.45246923,-0.6469855,-0.08653352,810.696,798.60803,793.7729,816.337,822.7839,-0.10723876953125,0.10015869140625,1.01141357421875,0.261688232421875,0.52337646484375,-5.286102294921875,1,1.0,1.0,1.0,1.0,15.00
2024-10-11 20:09:27.898,0.46721092,-0.12385205,0.014825616,0.53593665,0.5505645,-0.2851987,-0.29057315,0.48043752,0.830064,0.070817985,-0.10214665,0.6028725,0.63273233,-0.13029724,-0.16648266,0.5578411,-0.001953338,-0.45246923,-0.6469855,-0.08653352,805.05493,798.20514,795.78754,803.44324,612.0513,-0.10723876953125,0.10015869140625,1.01141357421875,0.261688232421875,0.52337646484375,-5.286102294921875,1,1.0,1.0,1.0,1.0,15.00
2024-10-11 20:09:27.899,0.46721092,-0.12385205,0.014825616,0.53593665,0.5505645,-0.2851987,-0.29057315,0.48043752,0.830064,0.070817985,-0.10214665,0.6028725,0.63273233,-0.13029724,-0.16648266,0.5578411,-0.001953338,-0.45246923,-0.6469855,-0.08653352,805.8608,799.011,799.41394,799.011,524.21246,-0.10723876953125,0.10015869140625,1.01141357421875,0.261688232421875,0.52337646484375,-5.286102294921875,1,1.0,1.0,1.0,1.0,15.00
2024-10-11 20:09:27.900,0.46721092,-0.12385205,0.014825616,0.53593665,0.5505645,-0.2851987,-0.29057315,0.48043752,0.830064,0.070817985,-0.10214665,0.6028725,0.63273233,-0.13029724,-0.16648266,0.5578411,-0.001953338,-0.45246923,-0.6469855,-0.08653352,808.68134,797.3993,799.41394,810.696,784.90845,-0.10723876953125,0.10015869140625,1.01141357421875,0.261688232421875,0.52337646484375,-5.286102294921875,1,1.0,1.0,1.0,1.0,15.00
2024-10-11 20:09:27.900,0.46721092,-0.12385205,0.014825616,0.53593665,0.5505645,-0.2851987,-0.29057315,0.48043752,0.830064,0.070817985,-0.10214665,0.6028725,0.63273233,-0.13029724,-0.16648266,0.5578411,-0.001953338,-0.45246923,-0.6469855,-0.08653352,811.0989,801.02563,799.41394,818.3516,975.09155,-0.10723876953125,0.10015869140625,1.01141357421875,0.261688232421875,0.52337646484375,-5.286102294921875,1,1.0,1.0,1.0,1.0,15.00
2024-10-11 20:09:27.901,0.46721092,-0.12385205,0.014825616,0.53593665,0.5505645,-0.2851987,-0.29057315,0.48043752,0.830064,0.070817985,-0.10214665,0.6028725,0.63273233,-0.13029724,-0.16648266,0.5578411,-0.001953338,-0.45246923,-0.6469855,-0.08653352,810.696,796.5934,799.81683,817.9487,799.81683,-0.10723876953125,0.10015869140625,1.01141357421875,0.261688232421875,0.52337646484375,-5.286102294921875,1,1.0,1.0,1.0,1.0,15.00
2024-10-11 20:09:27.901,0.46721092,-0.12385205,0.014825616,0.53593665,0.5505645,-0.2851987,-0.29057315,0.48043752,0.830064,0.070817985,-0.10214665,0.6028725,0.63273233,-0.13029724,-0.16648266,0.5578411,-0.001953338,-0.45246923,-0.6469855,-0.08653352,808.68134,790.54944,798.60803,815.9341,576.99634,-0.10723876953125,0.10015869140625,1.01141357421875,0.261688232421875,0.52337646484375,-5.286102294921875,1,1.0,1.0,1.0,1.0,15.00
2024-10-11 20:09:27.902,0.46435323,-0.04246968,0.124197386,0.52361554,0.5668058,-0.2764919,-0.2118102,0.4719934,0.830064,0.07009464,-0.0774918,0.5956065,0.6331042,-0.124767326,-0.16922319,0.57773334,0.010195335,-0.45812124,-0.6467269,-0.079007514,809.89014,803.0403,796.99634,819.5604,710.7692,-0.10723876953125,0.10015869140625,1.01141357421875,0.261688232421875,0.52337646484375,-5.286102294921875,1,1.0,1.0,1.0,1.0,15.00
2024-10-11 20:09:27.907,0.46435323,-0.04246968,0.124197386,0.52361554,0.5668058,-0.2764919,-0.2118102,0.4719934,0.830064,0.07009464,-0.0774918,0.5956065,0.6331042,-0.124767326,-0.16922319,0.57773334,0.010195335,-0.45812124,-0.6467269,-0.079007514,807.47253,807.0696,798.60803,813.5165,804.65204,-0.10723876953125,0.10015869140625,1.01141357421875,0.261688232421875,0.52337646484375,-5.286102294921875,1,1.0,1.0,1.0,1.0,15.00
2024-10-11 20:09:27.908,0.46435323,-0.04246968,0.124197386,0.52361554,0.5668058,-0.2764919,-0.2118102,0.4719934,0.830064,0.07009464,-0.0774918,0.5956065,0.6331042,-0.124767326,-0.16922319,0.57773334,0.010195335,-0.45812124,-0.6467269,-0.079007514,802.23444,806.6667,800.6227,806.6667,674.5055,-0.10723876953125,0.10015869140625,1.01141357421875,0.261688232421875,0.52337646484375,-5.286102294921875,1,1.0,1.0,1.0,1.0,15.00
2024-10-11 20:09:27.934,0.46435323,-0.04246968,0.124197386,0.52361554,0.5668058,-0.2764919,-0.2118102,0.4719934,0.830064,0.07009464,-0.0774918,0.5956065,0.6331042,-0.124767326,-0.16922319,0.57773334,0.010195335,-0.45812124,-0.6467269,-0.079007514,801.8315,802.23444,802.23444,803.8461,622.1245,-0.10723876953125,0.10015869140625,1.01141357421875,0.261688232421875,0.52337646484375,-5.286102294921875,1,1.0,1.0,1.0,1.0,15.00
2024-10-11 20:09:27.935,0.46435323,-0.04246968,0.124197386,0.52361554,0.5668058,-0.2764919,-0.2118102,0.4719934,0.830064,0.07009464,-0.0774918,0.5956065,0.6331042,-0.124767326,-0.16922319,0.57773334,0.010195335,-0.45812124,-0.6467269,-0.079007514,808.68134,799.011,806.6667,806.6667,867.50916,-0.10723876953125,0.10015869140625,1.01141357421875,0.261688232421875,0.52337646484375,-5.286102294921875,1,1.0,1.0,1.0,1.0,15.00
2024-10-11 20:09:27.935,0.46435323,-0.04246968,0.124197386,0.52361554,0.5668058,-0.2764919,-0.2118102,0.4719934,0.830064,0.07009464,-0.0774918,0.5956065,0.6331042,-0.124767326,-0.16922319,0.57773334,0.010195335,-0.45812124,-0.6467269,-0.079007514,813.1135,797.3993,810.696,807.47253,967.4359,-0.10723876953125,0.10015869140625,1.01141357421875,0.261688232421875,0.52337646484375,-5.286102294921875,1,1.0,1.0,1.0,1.0,15.00
2024-10-11 20:09:27.936,0.46435323,-0.04246968,0.124197386,0.52361554,0.5668058,-0.2764919,-0.2118102,0.4719934,0.830064,0.07009464,-0.0774918,0.5956065,0.6331042,-0.124767326,-0.16922319,0.57773334,0.010195335,-0.45812124,-0.6467269,-0.079007514,812.3077,799.011,808.68134,807.0696,706.7399,-0.10723876953125,0.10015869140625,1.01141357421875,0.261688232421875,0.52337646484375,-5.286102294921875,1,1.0,1.0,1.0,1.0,15.00
2024-10-11 20:09:27.937,0.46435323,-0.04246968,0.124197386,0.52361554,0.5668058,-0.2764919,-0.2118102,0.4719934,0.830064,0.07009464,-0.0774918,0.5956065,0.6331042,-0.124767326,-0.16922319,0.57773334,0.010195335,-0.45812124,-0.6467269,-0.079007514,804.2491,802.6374,805.4579,805.8608,653.5531,-0.10723876953125,0.10015869140625,1.01141357421875,0.261688232421875,0.52337646484375,-5.286102294921875,1,1.0,1.0,1.0,1.0,15.00
2024-10-11 20:09:27.938,0.46435323,-0.04246968,0.124197386,0.52361554,0.5668058,-0.2764919,-0.2118102,0.4719934,0.830064,0.07009464,-0.0774918,0.5956065,0.6331042,-0.124767326,-0.16922319,0.57773334,0.010195335,-0.45812124,-0.6467269,-0.079007514,801.8315,801.02563,803.0403,801.4286,1026.2638,-0.10723876953125,0.10015869140625,1.01141357421875,0.261688232421875,0.52337646484375,-5.286102294921875,1,1.0,1.0,1.0,1.0,15.00
2024-10-11 20:09:27.938,0.46435323,-0.04246968,0.124197386,0.52361554,0.5668058,-0.2764919,-0.2118102,0.4719934,0.830064,0.07009464,-0.0774918,0.5956065,0.6331042,-0.124767326,-0.16922319,0.57773334,0.010195335,-0.45812124,-0.6467269,-0.079007514,807.8755,801.02563,806.6667,807.8755,1077.8389,-0.10723876953125,0.10015869140625,1.01141357421875,0.261688232421875,0.52337646484375,-5.286102294921875,1,1.0,1.0,1.0,1.0,15.00
2024-10-11 20:09:27.939,0.46435323,-0.04246968,0.124197386,0.52361554,0.5668058,-0.2764919,-0.2118102,0.4719934,0.830064,0.07009464,-0.0774918,0.5956065,0.6331042,-0.124767326,-0.16922319,0.57773334,0.010195335,-0.45812124,-0.6467269,-0.079007514,803.8461,801.8315,805.8608,811.0989,823.1868,-0.10723876953125,0.10015869140625,1.01141357421875,0.261688232421875,0.52337646484375,-5.286102294921875,1,1.0,1.0,1.0,1.0,15.00
2024-10-11 20:09:27.940,0.46435323,-0.04246968,0.124197386,0.52361554,0.5668058,-0.2764919,-0.2118102,0.4719934,0.830064,0.07009464,-0.0774918,0.5956065,0.6331042,-0.124767326,-0.16922319,0.57773334,0.010195335,-0.45812124,-0.6467269,-0.079007514,803.44324,800.6227,802.23444,811.50183,806.6667,-0.10723876953125,0.10015869140625,1.01141357421875,0.261688232421875,0.52337646484375,-5.286102294921875,1,1.0,1.0,1.0,1.0,15.00
2024-10-11 20:09:27.941,0.46435323,-0.04246968,0.124197386,0.52361554,0.5668058,-0.2764919,-0.2118102,0.4719934,0.830064,0.07009464,-0.0774918,0.5956065,0.6331042,-0.124767326,-0.16922319,0.57773334,0.010195335,-0.45812124,-0.6467269,-0.079007514,809.0842,800.6227,804.2491,813.5165,743.00366,-0.10723876953125,0.10015869140625,1.01141357421875,0.261688232421875,0.52337646484375,-5.286102294921875,1,1.0,1.0,1.0,1.0,15.00
2024-10-11 20:09:27.941,0.46435323,-0.04246968,0.124197386,0.52361554,0.5668058,-0.2764919,-0.2118102,0.4719934,0.830064,0.07009464,-0.0774918,0.5956065,0.6331042,-0.124767326,-0.16922319,0.57773334,0.010195335,-0.45812124,-0.6467269,-0.079007514,806.26373,801.8315,807.47253,813.1135,724.4689,-0.10723876953125,0.10015869140625,1.01141357421875,0.261688232421875,0.52337646484375,-5.286102294921875,1,1.0,1.0,1.0,1.0,15.00
2024-10-11 20:09:27.942,0.46435323,-0.04246968,0.124197386,0.52361554,0.5668058,-0.2764919,-0.2118102,0.4719934,0.830064,0.07009464,-0.0774918,0.5956065,0.6331042,-0.124767326,-0.16922319,0.57773334,0.010195335,-0.45812124,-0.6467269,-0.079007514,808.2784,799.41394,807.0696,811.0989,728.49817,-0.10723876953125,0.10015869140625,1.01141357421875,0.261688232421875,0.52337646484375,-5.286102294921875,1,1.0,1.0,1.0,1.0,15.00
2024-10-11 20:09:27.966,0.46435323,-0.04246968,0.124197386,0.52361554,0.5668058,-0.2764919,-0.2118102,0.4719934,0.830064,0.07009464,-0.0774918,0.5956065,0.6331042,-0.124767326,-0.16922319,0.57773334,0.010195335,-0.45812124,-0.6467269,-0.079007514,806.6667,796.1905,805.05493,812.71063,794.17584,-0.10107421875,0.086181640625,0.99908447265625,-1.607513427734375,2.624359130859375,-4.65057373046875,1,1.0,1.0,1.0,1.0,15.00
2024-10-11 20:09:27.968,0.46435323,-0.04246968,0.124197386,0.52361554,0.5668058,-0.2764919,-0.2118102,0.4719934,0.830064,0.07009464,-0.0774918,0.5956065,0.6331042,-0.124767326,-0.16922319,0.57773334,0.010195335,-0.45812124,-0.6467269,-0.079007514,812.3077,795.38464,804.2491,822.7839,1003.2967,-0.10107421875,0.086181640625,0.99908447265625,-1.607513427734375,2.624359130859375,-4.65057373046875,1,1.0,1.0,1.0,1.0,15.00
2024-10-11 20:09:27.968,0.46435323,-0.04246968,0.124197386,0.52361554,0.5668058,-0.2764919,-0.2118102,0.4719934,0.830064,0.07009464,-0.0774918,0.5956065,0.6331042,-0.124767326,-0.16922319,0.57773334,0.010195335,-0.45812124,-0.6467269,-0.079007514,819.5604,796.1905,804.2491,827.2161,889.2674,-0.10107421875,0.086181640625,0.99908447265625,-1.607513427734375,2.624359130859375,-4.65057373046875,1,1.0,1.0,1.0,1.0,15.00
2024-10-11 20:09:27.969,0.46435323,-0.04246968,0.124197386,0.52361554,0.5668058,-0.2764919,-0.2118102,0.4719934,0.830064,0.07009464,-0.0774918,0.5956065,0.6331042,-0.124767326,-0.16922319,0.57773334,0.010195335,-0.45812124,-0.6467269,-0.079007514,796.5934,796.1905,807.0696,809.4872,750.2564,-0.10107421875,0.086181640625,0.99908447265625,-1.607513427734375,2.624359130859375,-4.65057373046875,1,1.0,1.0,1.0,1.0,15.00
2024-10-11 20:09:27.970,0.46435323,-0.04246968,0.124197386,0.52361554,0.5668058,-0.2764919,-0.2118102,0.4719934,0.830064,0.07009464,-0.0774918,0.5956065,0.6331042,-0.124767326,-0.16922319,0.57773334,0.010195335,-0.45812124,-0.6467269,-0.079007514,788.93774,792.5641,807.0696,807.0696,869.92676,-0.10107421875,0.086181640625,0.99908447265625,-1.607513427734375,2.624359130859375,-4.65057373046875,1,1.0,1.0,1.0,1.0,15.00
2024-10-11 20:09:27.970,0.46435323,-0.04246968,0.124197386,0.52361554,0.5668058,-0.2764919,-0.2118102,0.4719934,0.830064,0.07009464,-0.0774918,0.5956065,0.6331042,-0.124767326,-0.16922319,0.57773334,0.010195335,-0.45812124,-0.6467269,-0.079007514,796.5934,790.9524,802.23444,813.1135,940.4396,-0.10107421875,0.086181640625,0.99908447265625,-1.607513427734375,2.624359130859375,-4.65057373046875,1,1.0,1.0,1.0,1.0,15.00
2024-10-11 20:09:27.971,0.46435323,-0.04246968,0.124197386,0.52361554,0.5668058,-0.2764919,-0.2118102,0.4719934,0.830064,0.07009464,-0.0774918,0.5956065,0.6331042,-0.124767326,-0.16922319,0.57773334,0.010195335,-0.45812124,-0.6467269,-0.079007514,794.57874,796.5934,800.2198,808.2784,840.9158,-0.10107421875,0.086181640625,0.99908447265625,-1.607513427734375,2.624359130859375,-4.65057373046875,1,1.0,1.0,1.0,1.0,15.00
2024-10-11 20:09:27.972,0.46435323,-0.04246968,0.124197386,0.52361554,0.5668058,-0.2764919,-0.2118102,0.4719934,0.830064,0.07009464,-0.0774918,0.5956065,0.6331042,-0.124767326,-0.16922319,0.57773334,0.010195335,-0.45812124,-0.6467269,-0.079007514,795.78754,799.41394,800.2198,801.4286,895.7143,-0.10107421875,0.086181640625,0.99908447265625,-1.607513427734375,2.624359130859375,-4.65057373046875,1,1.0,1.0,1.0,1.0,15.00
2024-10-11 20:09:27.972,0.46435323,-0.04246968,0.124197386,0.52361554,0.5668058,-0.2764919,-0.2118102,0.4719934,0.830064,0.07009464,-0.0774918,0.5956065,0.6331042,-0.124767326,-0.16922319,0.57773334,0.010195335,-0.45812124,-0.6467269,-0.079007514,799.41394,796.1905,797.8022,800.6227,1075.0183,-0.10107421875,0.086181640625,0.99908447265625,-1.607513427734375,2.624359130859375,-4.65057373046875,1,1.0,1.0,1.0,1.0,15.00
2024-10-11 20:09:27.973,0.46435323,-0.04246968,0.124197386,0.52361554,0.5668058,-0.2764919,-0.2118102,0.4719934,0.830064,0.07009464,-0.0774918,0.5956065,0.6331042,-0.124767326,-0.16922319,0.57773334,0.010195335,-0.45812124,-0.6467269,-0.079007514,799.011,795.38464,798.60803,807.0696,1211.2087,-0.10107421875,0.086181640625,0.99908447265625,-1.607513427734375,2.624359130859375,-4.65057373046875,1,1.0,1.0,1.0,1.0,15.00
2024-10-11 20:09:27.974,0.46435323,-0.04246968,0.124197386,0.52361554,0.5668058,-0.2764919,-0.2118102,0.4719934,0.830064,0.07009464,-0.0774918,0.5956065,0.6331042,-0.124767326,-0.16922319,0.57773334,0.010195335,-0.45812124,-0.6467269,-0.079007514,796.99634,802.23444,801.02563,801.02563,979.5238,-0.10107421875,0.086181640625,0.99908447265625,-1.607513427734375,2.624359130859375,-4.65057373046875,1,1.0,1.0,1.0,1.0,15.00
2024-10-11 20:09:27.974,0.45141518,0.05955792,0.23952027,0.48335123,0.588277,-0.26336145,-0.12841934,0.45374098,0.830064,0.06830315,-0.011214334,0.58668554,0.6313835,-0.11967717,-0.17122559,0.59945476,0.021239253,-0.46345386,-0.655136,-0.06981261,798.20514,800.6227,799.011,802.23444,789.34064,-0.10107421875,0.086181640625,0.99908447265625,-1.607513427734375,2.624359130859375,-4.65057373046875,1,1.0,1.0,1.0,1.0,15.00
2024-10-11 20:09:28.068,0.45141518,0.05955792,0.23952027,0.48335123,0.588277,-0.26336145,-0.12841934,0.45374098,0.830064,0.06830315,-0.011214334,0.58668554,0.6313835,-0.11967717,-0.17122559,0.59945476,0.021239253,-0.46345386,-0.655136,-0.06981261,801.8315,799.81683,799.41394,810.696,743.4066,-0.12750244140625,0.08392333984375,0.99200439453125,-0.34393310546875,6.92352294921875,-3.162689208984375,1,1.0,1.0,1.0,1.0,15.00
2024-10-11 20:09:28.069,0.45141518,0.05955792,0.23952027,0.48335123,0.588277,-0.26336145,-0.12841934,0.45374098,0.830064,0.06830315,-0.011214334,0.58668554,0.6313835,-0.11967717,-0.17122559,0.59945476,0.021239253,-0.46345386,-0.655136,-0.06981261,808.2784,802.6374,801.8315,811.0989,735.7509,-0.12750244140625,0.08392333984375,0.99200439453125,-0.34393310546875,6.92352294921875,-3.162689208984375,1,1.0,1.0,1.0,1.0,15.00
2024-10-11 20:09:28.069,0.45141518,0.05955792,0.23952027,0.48335123,0.588277,-0.26336145,-0.12841934,0.45374098,0.830064,0.06830315,-0.011214334,0.58668554,0.6313835,-0.11967717,-0.17122559,0.59945476,0.021239253,-0.46345386,-0.655136,-0.06981261,808.2784,801.4286,798.60803,810.293,716.0073,-0.12750244140625,0.08392333984375,0.99200439453125,-0.34393310546875,6.92352294921875,-3.162689208984375,1,1.0,1.0,1.0,1.0,15.00
2024-10-11 20:09:28.070,0.45141518,0.05955792,0.23952027,0.48335123,0.588277,-0.26336145,-0.12841934,0.45374098,0.830064,0.06830315,-0.011214334,0.58668554,0.6313835,-0.11967717,-0.17122559,0.59945476,0.021239253,-0.46345386,-0.655136,-0.06981261,809.0842,798.60803,796.99634,809.0842,729.707,-0.12750244140625,0.08392333984375,0.99200439453125,-0.34393310546875,6.92352294921875,-3.162689208984375,1,1.0,1.0,1.0,1.0,15.00
2024-10-11 20:09:28.071,0.45141518,0.05955792,0.23952027,0.48335123,0.588277,-0.26336145,-0.12841934,0.45374098,0.830064,0.06830315,-0.011214334,0.58668554,0.6313835,-0.11967717,-0.17122559,0.59945476,0.021239253,-0.46345386,-0.655136,-0.06981261,813.5165,794.57874,800.6227,811.50183,873.5531,-0.12750244140625,0.08392333984375,0.99200439453125,-0.34393310546875,6.92352294921875,-3.162689208984375,1,1.0,1.0,1.0,1.0,15.00
2024-10-11 20:09:28.071,0.45141518,0.05955792,0.23952027,0.48335123,0.588277,-0.26336145,-0.12841934,0.45374098,0.830064,0.06830315,-0.011214334,0.58668554,0.6313835,-0.11967717,-0.17122559,0.59945476,0.021239253,-0.46345386,-0.655136,-0.06981261,811.9048,793.36993,798.20514,811.9048,977.9121,-0.12750244140625,0.08392333984375,0.99200439453125,-0.34393310546875,6.92352294921875,-3.162689208984375,1,1.0,1.0,1.0,1.0,15.00
2024-10-11 20:09:28.072,0.45141518,0.05955792,0.23952027,0.48335123,0.588277,-0.26336145,-0.12841934,0.45374098,0.830064,0.06830315,-0.011214334,0.58668554,0.6313835,-0.11967717,-0.17122559,0.59945476,0.021239253,-0.46345386,-0.655136,-0.06981261,809.0842,792.1612,797.3993,810.696,936.0073,-0.12750244140625,0.08392333984375,0.99200439453125,-0.34393310546875,6.92352294921875,-3.162689208984375,1,1.0,1.0,1.0,1.0,15.00
2024-10-11 20:09:28.072,0.45141518,0.05955792,0.23952027,0.48335123,0.588277,-0.26336145,-0.12841934,0.45374098,0.830064,0.06830315,-0.011214334,0.58668554,0.6313835,-0.11967717,-0.17122559,0.59945476,0.021239253,-0.46345386,-0.655136,-0.06981261,807.47253,793.7729,799.41394,812.3077,818.3516,-0.12750244140625,0.08392333984375,0.99200439453125,-0.34393310546875,6.92352294921875,-3.162689208984375,1,1.0,1.0,1.0,1.0,15.00
2024-10-11 20:09:28.073,0.45141518,0.05955792,0.23952027,0.48335123,0.588277,-0.26336145,-0.12841934,0.45374098,0.830064,0.06830315,-0.011214334,0.58668554,0.6313835,-0.11967717,-0.17122559,0.59945476,0.021239253,-0.46345386,-0.655136,-0.06981261,807.0696,795.38464,801.02563,817.5458,1216.4469,-0.12750244140625,0.08392333984375,0.99200439453125,-0.34393310546875,6.92352294921875,-3.162689208984375,1,1.0,1.0,1.0,1.0,15.00
2024-10-11 20:09:28.073,0.45141518,0.05955792,0.23952027,0.48335123,0.588277,-0.26336145,-0.12841934,0.45374098,0.830064,0.06830315,-0.011214334,0.58668554,0.6313835,-0.11967717,-0.17122559,0.59945476,0.021239253,-0.46345386,-0.655136,-0.06981261,804.65204,797.3993,805.05493,820.7692,1151.978,-0.12750244140625,0.08392333984375,0.99200439453125,-0.34393310546875,6.92352294921875,-3.162689208984375,1,1.0,1.0,1.0,1.0,15.00
2024-10-11 20:09:28.074,0.45141518,0.05955792,0.23952027,0.48335123,0.588277,-0.26336145,-0.12841934,0.45374098,0.830064,0.06830315,-0.011214334,0.58668554,0.6313835,-0.11967717,-0.17122559,0.59945476,0.021239253,-0.46345386,-0.655136,-0.06981261,807.47253,801.4286,801.8315,814.3223,653.95605,-0.12750244140625,0.08392333984375,0.99200439453125,-0.34393310546875,6.92352294921875,-3.162689208984375,1,1.0,1.0,1.0,1.0,15.00
2024-10-11 20:09:28.074,0.45141518,0.05955792,0.23952027,0.48335123,0.588277,-0.26336145,-0.12841934,0.45374098,0.830064,0.06830315,-0.011214334,0.58668554,0.6313835,-0.11967717,-0.17122559,0.59945476,0.021239253,-0.46345386,-0.655136,-0.06981261,807.8755,800.6227,800.2198,819.5604,849.7802,-0.12750244140625,0.08392333984375,0.99200439453125,-0.34393310546875,6.92352294921875,-3.162689208984375,1,1.0,1.0,1.0,1.0,15.00
2024-10-11 20:09:28.101,0.45141518,0.05955792,0.23952027,0.48335123,0.588277,-0.26336145,-0.12841934,0.45374098,0.830064,0.06830315,-0.011214334,0.58668554,0.6313835,-0.11967717,-0.17122559,0.59945476,0.021239253,-0.46345386,-0.655136,-0.06981261,799.41394,801.02563,803.0403,821.1722,960.18317,-0.1517333984375,0.0841064453125,0.98919677734375,-0.276641845703125,7.5665283203125,-1.652374267578125,1,1.0,1.0,1.0,1.0,15.00
2024-10-11 20:09:28.102,0.45141518,0.05955792,0.23952027,0.48335123,0.588277,-0.26336145,-0.12841934,0.45374098,0.830064,0.06830315,-0.011214334,0.58668554,0.6313835,-0.11967717,-0.17122559,0.59945476,0.021239253,-0.46345386,-0.655136,-0.06981261,801.4286,801.4286,804.65204,810.696,788.93774,-0.1517333984375,0.0841064453125,0.98919677734375,-0.276641845703125,7.5665283203125,-1.652374267578125,1,1.0,1.0,1.0,1.0,15.00
2024-10-11 20:09:28.102,0.45141518,0.05955792,0.23952027,0.48335123,0.588277,-0.26336145,-0.12841934,0.45374098,0.830064,0.06830315,-0.011214334,0.58668554,0.6313835,-0.11967717,-0.17122559,0.59945476,0.021239253,-0.46345386,-0.655136,-0.06981261,808.2784,801.02563,806.26373,810.696,751.8681,-0.1517333984375,0.0841064453125,0.98919677734375,-0.276641845703125,7.5665283203125,-1.652374267578125,1,1.0,1.0,1.0,1.0,15.00
2024-10-11 20:09:28.103,0.45141518,0.05955792,0.23952027,0.48335123,0.588277,-0.26336145,-0.12841934,0.45374098,0.830064,0.06830315,-0.011214334,0.58668554,0.6313835,-0.11967717,-0.17122559,0.59945476,0.021239253,-0.46345386,-0.655136,-0.06981261,805.05493,803.0403,802.6374,811.50183,761.13556,-0.1517333984375,0.0841064453125,0.98919677734375,-0.276641845703125,7.5665283203125,-1.652374267578125,1,1.0,1.0,1.0,1.0,15.00
2024-10-11 20:09:28.104,0.45141518,0.05955792,0.23952027,0.48335123,0.588277,-0.26336145,-0.12841934,0.45374098,0.830064,0.06830315,-0.011214334,0.58668554,0.6313835,-0.11967717,-0.17122559,0.59945476,0.021239253,-0.46345386,-0.655136,-0.06981261,801.02563,802.23444,800.6227,811.9048,774.83514,-0.1517333984375,0.0841064453125,0.98919677734375,-0.276641845703125,7.5665283203125,-1.652374267578125,1,1.0,1.0,1.0,1.0,15.00
2024-10-11 20:09:28.104,0.45141518,0.05955792,0.23952027,0.48335123,0.588277,-0.26336145,-0.12841934,0.45374098,0.830064,0.06830315,-0.011214334,0.58668554,0.6313835,-0.11967717,-0.17122559,0.59945476,0.021239253,-0.46345386,-0.655136,-0.06981261,805.05493,798.20514,799.81683,813.1135,865.09155,-0.1517333984375,0.0841064453125,0.98919677734375,-0.276641845703125,7.5665283203125,-1.652374267578125,1,1.0,1.0,1.0,1.0,15.00
2024-10-11 20:09:28.105,0.45141518,0.05955792,0.23952027,0.48335123,0.588277,-0.26336145,-0.12841934,0.45374098,0.830064,0.06830315,-0.011214334,0.58668554,0.6313835,-0.11967717,-0.17122559,0.59945476,0.021239253,-0.46345386,-0.655136,-0.06981261,804.2491,799.41394,799.011,812.71063,938.4249,-0.1517333984375,0.0841064453125,0.98919677734375,-0.276641845703125,7.5665283203125,-1.652374267578125,1,1.0,1.0,1.0,1.0,15.00
2024-10-11 20:09:28.105,0.45141518,0.05955792,0.23952027,0.48335123,0.588277,-0.26336145,-0.12841934,0.45374098,0.830064,0.06830315,-0.011214334,0.58668554,0.6313835,-0.11967717,-0.17122559,0.59945476,0.021239253,-0.46345386,-0.655136,-0.06981261,804.65204,798.60803,803.44324,823.1868,975.89746,-0.1517333984375,0.0841064453125,0.98919677734375,-0.276641845703125,7.5665283203125,-1.652374267578125,1,1.0,1.0,1.0,1.0,15.00
2024-10-11 20:09:28.106,0.45141518,0.05955792,0.23952027,0.48335123,0.588277,-0.26336145,-0.12841934,0.45374098,0.830064,0.06830315,-0.011214334,0.58668554,0.6313835,-0.11967717,-0.17122559,0.59945476,0.021239253,-0.46345386,-0.655136,-0.06981261,805.05493,794.57874,803.44324,824.3956,882.4176,-0.1517333984375,0.0841064453125,0.98919677734375,-0.276641845703125,7.5665283203125,-1.652374267578125,1,1.0,1.0,1.0,1.0,15.00
2024-10-11 20:09:28.106,0.45141518,0.05955792,0.23952027,0.48335123,0.588277,-0.26336145,-0.12841934,0.45374098,0.830064,0.06830315,-0.011214334,0.58668554,0.6313835,-0.11967717,-0.17122559,0.59945476,0.021239253,-0.46345386,-0.655136,-0.06981261,807.0696,795.78754,804.2491,816.7399,727.28937,-0.1517333984375,0.0841064453125,0.98919677734375,-0.276641845703125,7.5665283203125,-1.652374267578125,1,1.0,1.0,1.0,1.0,15.00
2024-10-11 20:09:28.107,0.45141518,0.05955792,0.23952027,0.48335123,0.588277,-0.26336145,-0.12841934,0.45374098,0.830064,0.06830315,-0.011214334,0.58668554,0.6313835,-0.11967717,-0.17122559,0.59945476,0.021239253,-0.46345386,-0.655136,-0.06981261,810.293,799.011,805.8608,815.5311,734.94507,-0.1517333984375,0.0841064453125,0.98919677734375,-0.276641845703125,7.5665283203125,-1.652374267578125,1,1.0,1.0,1.0,1.0,15.00
2024-10-11 20:09:28.107,0.45141518,0.05955792,0.23952027,0.48335123,0.588277,-0.26336145,-0.12841934,0.45374098,0.830064,0.06830315,-0.011214334,0.58668554,0.6313835,-0.11967717,-0.17122559,0.59945476,0.021239253,-0.46345386,-0.655136,-0.06981261,809.4872,798.60803,804.65204,822.381,954.5421,-0.1517333984375,0.0841064453125,0.98919677734375,-0.276641845703125,7.5665283203125,-1.652374267578125,1,1.0,1.0,1.0,1.0,15.00
2024-10-11 20:09:28.134,0.45141518,0.05955792,0.23952027,0.48335123,0.588277,-0.26336145,-0.12841934,0.45374098,0.830064,0.06830315,-0.011214334,0.58668554,0.6313835,-0.11967717,-0.17122559,0.59945476,0.021239253,-0.46345386,-0.655136,-0.06981261,812.3077,801.02563,804.2491,826.0073,819.9634,-0.179443359375,0.0849609375,0.97857666015625,0.097198486328125,7.22259521484375,-2.27294921875,1,1.0,1.0,1.0,1.0,15.00
2024-10-11 20:09:28.135,0.42887112,0.15375988,0.32835498,0.4262972,0.61207,-0.24697192,-0.060891755,0.43747124,0.82839674,0.06830315,0.05378805,0.5835294,0.6214815,-0.11461308,-0.17431235,0.614803,0.027823213,-0.47106034,-0.6683626,-0.06604688,815.9341,801.8315,801.8315,822.381,587.47253,-0.179443359375,0.0849609375,0.97857666015625,0.097198486328125,7.22259521484375,-2.27294921875,1,1.0,1.0,1.0,1.0,15.00
2024-10-11 20:09:28.140,0.42887112,0.15375988,0.32835498,0.4262972,0.61207,-0.24697192,-0.060891755,0.43747124,0.82839674,0.06830315,0.05378805,0.5835294,0.6214815,-0.11461308,-0.17431235,0.614803,0.027823213,-0.47106034,-0.6683626,-0.06604688,821.978,802.23444,804.65204,821.978,735.34796,-0.179443359375,0.0849609375,0.97857666015625,0.097198486328125,7.22259521484375,-2.27294921875,1,1.0,1.0,1.0,1.0,15.00
2024-10-11 20:09:28.141,0.42887112,0.15375988,0.32835498,0.4262972,0.61207,-0.24697192,-0.060891755,0.43747124,0.82839674,0.06830315,0.05378805,0.5835294,0.6214815,-0.11461308,-0.17431235,0.614803,0.027823213,-0.47106034,-0.6683626,-0.06604688,823.5897,803.44324,810.293,820.3663,751.06226,-0.179443359375,0.0849609375,0.97857666015625,0.097198486328125,7.22259521484375,-2.27294921875,1,1.0,1.0,1.0,1.0,15.00
2024-10-11 20:09:28.141,0.42887112,0.15375988,0.32835498,0.4262972,0.61207,-0.24697192,-0.060891755,0.43747124,0.82839674,0.06830315,0.05378805,0.5835294,0.6214815,-0.11461308,-0.17431235,0.614803,0.027823213,-0.47106034,-0.6683626,-0.06604688,817.5458,804.2491,807.0696,819.5604,633.4066,-0.179443359375,0.0849609375,0.97857666015625,0.097198486328125,7.22259521484375,-2.27294921875,1,1.0,1.0,1.0,1.0,15.00
2024-10-11 20:09:28.142,0.42887112,0.15375988,0.32835498,0.4262972,0.61207,-0.24697192,-0.060891755,0.43747124,0.82839674,0.06830315,0.05378805,0.5835294,0.6214815,-0.11461308,-0.17431235,0.614803,0.027823213,-0.47106034,-0.6683626,-0.06604688,823.9927,805.05493,805.4579,823.5897,706.337,-0.179443359375,0.0849609375,0.97857666015625,0.097198486328125,7.22259521484375,-2.27294921875,1,1.0,1.0,1.0,1.0,15.00
2024-10-11 20:09:28.143,0.42887112,0.15375988,0.32835498,0.4262972,0.61207,-0.24697192,-0.060891755,0.43747124,0.82839674,0.06830315,0.05378805,0.5835294,0.6214815,-0.11461308,-0.17431235,0.614803,0.027823213,-0.47106034,-0.6683626,-0.06604688,826.4103,800.6227,805.4579,821.1722,801.8315,-0.179443359375,0.0849609375,0.97857666015625,0.097198486328125,7.22259521484375,-2.27294921875,1,1.0,1.0,1.0,1.0,15.00
2024-10-11 20:09:28.143,0.42887112,0.15375988,0.32835498,0.4262972,0.61207,-0.24697192,-0.060891755,0.43747124,0.82839674,0.06830315,0.05378805,0.5835294,0.6214815,-0.11461308,-0.17431235,0.614803,0.027823213,-0.47106034,-0.6683626,-0.06604688,819.15753,799.41394,799.011,817.1429,899.7436,-0.179443359375,0.0849609375,0.97857666015625,0.097198486328125,7.22259521484375,-2.27294921875,1,1.0,1.0,1.0,1.0,15.00
2024-10-11 20:09:28.144,0.42887112,0.15375988,0.32835498,0.4262972,0.61207,-0.24697192,-0.060891755,0.43747124,0.82839674,0.06830315,0.05378805,0.5835294,0.6214815,-0.11461308,-0.17431235,0.614803,0.027823213,-0.47106034,-0.6683626,-0.06604688,820.3663,804.65204,797.3993,815.9341,769.59705,-0.179443359375,0.0849609375,0.97857666015625,0.097198486328125,7.22259521484375,-2.27294921875,1,1.0,1.0,1.0,1.0,15.00
2024-10-11 20:09:28.144,0.42887112,0.15375988,0.32835498,0.4262972,0.61207,-0.24697192,-0.060891755,0.43747124,0.82839674,0.06830315,0.05378805,0.5835294,0.6214815,-0.11461308,-0.17431235,0.614803,0.027823213,-0.47106034,-0.6683626,-0.06604688,819.9634,804.65204,800.6227,813.1135,571.3553,-0.179443359375,0.0849609375,0.97857666015625,0.097198486328125,7.22259521484375,-2.27294921875,1,1.0,1.0,1.0,1.0,15.00
2024-10-11 20:09:28.145,0.42887112,0.15375988,0.32835498,0.4262972,0.61207,-0.24697192,-0.060891755,0.43747124,0.82839674,0.06830315,0.05378805,0.5835294,0.6214815,-0.11461308,-0.17431235,0.614803,0.027823213,-0.47106034,-0.6683626,-0.06604688,817.5458,799.41394,799.011,813.5165,699.89014,-0.179443359375,0.0849609375,0.97857666015625,0.097198486328125,7.22259521484375,-2.27294921875,1,1.0,1.0,1.0,1.0,15.00
2024-10-11 20:09:28.145,0.42887112,0.15375988,0.32835498,0.4262972,0.61207,-0.24697192,-0.060891755,0.43747124,0.82839674,0.06830315,0.05378805,0.5835294,0.6214815,-0.11461308,-0.17431235,0.614803,0.027823213,-0.47106034,-0.6683626,-0.06604688,818.7546,799.41394,796.5934,816.7399,906.99634,-0.179443359375,0.0849609375,0.97857666015625,0.097198486328125,7.22259521484375,-2.27294921875,1,1.0,1.0,1.0,1.0,15.00
2024-10-11 20:09:28.146,0.42887112,0.15375988,0.32835498,0.4262972,0.61207,-0.24697192,-0.060891755,0.43747124,0.82839674,0.06830315,0.05378805,0.5835294,0.6214815,-0.11461308,-0.17431235,0.614803,0.027823213,-0.47106034,-0.6683626,-0.06604688,819.5604,804.65204,799.011,814.3223,727.28937,-0.185546875,0.0848388671875,0.9931640625,-0.515899658203125,4.77020263671875,-2.953338623046875,1,1.0,1.0,1.0,1.0,15.00
2024-10-11 20:09:28.147,0.42887112,0.15375988,0.32835498,0.4262972,0.61207,-0.24697192,-0.060891755,0.43747124,0.82839674,0.06830315,0.05378805,0.5835294,0.6214815,-0.11461308,-0.17431235,0.614803,0.027823213,-0.47106034,-0.6683626,-0.06604688,817.9487,802.23444,798.60803,807.8755,608.4249,-0.185546875,0.0848388671875,0.9931640625,-0.515899658203125,4.77020263671875,-2.953338623046875,1,1.0,1.0,1.0,1.0,15.00
2024-10-11 20:09:28.147,0.42887112,0.15375988,0.32835498,0.4262972,0.61207,-0.24697192,-0.060891755,0.43747124,0.82839674,0.06830315,0.05378805,0.5835294,0.6214815,-0.11461308,-0.17431235,0.614803,0.027823213,-0.47106034,-0.6683626,-0.06604688,813.91943,795.78754,797.3993,815.5311,859.85345,-0.185546875,0.0848388671875,0.9931640625,-0.515899658203125,4.77020263671875,-2.953338623046875,1,1.0,1.0,1.0,1.0,15.00
2024-10-11 20:09:28.148,0.42887112,0.15375988,0.32835498,0.4262972,0.61207,-0.24697192,-0.060891755,0.43747124,0.82839674,0.06830315,0.05378805,0.5835294,0.6214815,-0.11461308,-0.17431235,0.614803,0.027823213,-0.47106034,-0.6683626,-0.06604688,814.3223,791.3553,800.2198,819.5604,880.0,-0.185546875,0.0848388671875,0.9931640625,-0.515899658203125,4.77020263671875,-2.953338623046875,1,1.0,1.0,1.0,1.0,15.00
2024-10-11 20:09:28.149,0.42887112,0.15375988,0.32835498,0.4262972,0.61207,-0.24697192,-0.060891755,0.43747124,0.82839674,0.06830315,0.05378805,0.5835294,0.6214815,-0.11461308,-0.17431235,0.614803,0.027823213,-0.47106034,-0.6683626,-0.06604688,818.7546,798.60803,801.4286,812.71063,694.2491,-0.185546875,0.0848388671875,0.9931640625,-0.515899658203125,4.77020263671875,-2.953338623046875,1,1.0,1.0,1.0,1.0,15.00
2024-10-11 20:09:28.149,0.42887112,0.15375988,0.32835498,0.4262972,0.61207,-0.24697192,-0.060891755,0.43747124,0.82839674,0.06830315,0.05378805,0.5835294,0.6214815,-0.11461308,-0.17431235,0.614803,0.027823213,-0.47106034,-0.6683626,-0.06604688,813.91943,804.65204,797.3993,811.50183,747.4359,-0.185546875,0.0848388671875,0.9931640625,-0.515899658203125,4.77020263671875,-2.953338623046875,1,1.0,1.0,1.0,1.0,15.00
2024-10-11 20:09:28.150,0.42887112,0.15375988,0.32835498,0.4262972,0.61207,-0.24697192,-0.060891755,0.43747124,0.82839674,0.06830315,0.05378805,0.5835294,0.6214815,-0.11461308,-0.17431235,0.614803,0.027823213,-0.47106034,-0.6683626,-0.06604688,809.4872,797.3993,794.57874,817.1429,926.7399,-0.185546875,0.0848388671875,0.9931640625,-0.515899658203125,4.77020263671875,-2.953338623046875,1,1.0,1.0,1.0,1.0,15.00
2024-10-11 20:09:28.150,0.42887112,0.15375988,0.32835498,0.4262972,0.61207,-0.24697192,-0.060891755,0.43747124,0.82839674,0.06830315,0.05378805,0.5835294,0.6214815,-0.11461308,-0.17431235,0.614803,0.027823213,-0.47106034,-0.6683626,-0.06604688,809.89014,790.9524,795.38464,817.1429,898.93774,-0.185546875,0.0848388671875,0.9931640625,-0.515899658203125,4.77020263671875,-2.953338623046875,1,1.0,1.0,1.0,1.0,15.00
2024-10-11 20:09:28.151,0.42887112,0.15375988,0.32835498,0.4262972,0.61207,-0.24697192,-0.060891755,0.43747124,0.82839674,0.06830315,0.05378805,0.5835294,0.6214815,-0.11461308,-0.17431235,0.614803,0.027823213,-0.47106034,-0.6683626,-0.06604688,810.696,794.17584,795.38464,813.5165,620.9158,-0.185546875,0.0848388671875,0.9931640625,-0.515899658203125,4.77020263671875,-2.953338623046875,1,1.0,1.0,1.0,1.0,15.00
2024-10-11 20:09:28.151,0.42887112,0.15375988,0.32835498,0.4262972,0.61207,-0.24697192,-0.060891755,0.43747124,0.82839674,0.06830315,0.05378805,0.5835294,0.6214815,-0.11461308,-0.17431235,0.614803,0.027823213,-0.47106034,-0.6683626,-0.06604688,814.7253,798.20514,797.8022,817.1429,551.2088,-0.185546875,0.0848388671875,0.9931640625,-0.515899658203125,4.77020263671875,-2.953338623046875,1,1.0,1.0,1.0,1.0,15.00
2024-10-11 20:09:28.152,0.42887112,0.15375988,0.32835498,0.4262972,0.61207,-0.24697192,-0.060891755,0.43747124,0.82839674,0.06830315,0.05378805,0.5835294,0.6214815,-0.11461308,-0.17431235,0.614803,0.027823213,-0.47106034,-0.6683626,-0.06604688,812.71063,791.75824,801.8315,822.381,860.65936,-0.185546875,0.0848388671875,0.9931640625,-0.515899658203125,4.77020263671875,-2.953338623046875,1,1.0,1.0,1.0,1.0,15.00
2024-10-11 20:09:28.152,0.42887112,0.15375988,0.32835498,0.4262972,0.61207,-0.24697192,-0.060891755,0.43747124,0.82839674,0.06830315,0.05378805,0.5835294,0.6214815,-0.11461308,-0.17431235,0.614803,0.027823213,-0.47106034,-0.6683626,-0.06604688,813.5165,790.9524,802.6374,825.6044,1180.1831,-0.185546875,0.0848388671875,0.9931640625,-0.515899658203125,4.77020263671875,-2.953338623046875,1,1.0,1.0,1.0,1.0,15.00
2024-10-11 20:09:28.216,0.42887112,0.15375988,0.32835498,0.4262972,0.61207,-0.24697192,-0.060891755,0.43747124,0.82839674,0.06830315,0.05378805,0.5835294,0.6214815,-0.11461308,-0.17431235,0.614803,0.027823213,-0.47106034,-0.6683626,-0.06604688,811.9048,798.20514,802.23444,818.7546,754.2857,-0.185546875,0.0848388671875,0.9931640625,-0.515899658203125,4.77020263671875,-2.953338623046875,1,1.0,1.0,1.0,1.0,15.00
2024-10-11 20:09:28.217,0.42887112,0.15375988,0.32835498,0.4262972,0.61207,-0.24697192,-0.060891755,0.43747124,0.82839674,0.06830315,0.05378805,0.5835294,0.6214815,-0.11461308,-0.17431235,0.614803,0.027823213,-0.47106034,-0.6683626,-0.06604688,809.4872,797.8022,803.0403,815.12823,590.696,-0.185546875,0.0848388671875,0.9931640625,-0.515899658203125,4.77020263671875,-2.953338623046875,1,1.0,1.0,1.0,1.0,15.00
2024-10-11 20:09:28.218,0.42887112,0.15375988,0.32835498,0.4262972,0.61207,-0.24697192,-0.060891755,0.43747124,0.82839674,0.06830315,0.05378805,0.5835294,0.6214815,-0.11461308,-0.17431235,0.614803,0.027823213,-0.47106034,-0.6683626,-0.06604688,809.4872,797.8022,805.8608,819.5604,846.9597,-0.185546875,0.0848388671875,0.9931640625,-0.515899658203125,4.77020263671875,-2.953338623046875,1,1.0,1.0,1.0,1.0,15.00
2024-10-11 20:09:28.218,0.4014871,0.22248071,0.38243008,0.3835278,0.6410974,-0.23008066,-0.014276112,0.43621925,0.81751025,0.06830315,0.07701354,0.58189934,0.60161686,-0.108270235,-0.17938326,0.6175705,0.026912665,-0.48077744,-0.6776976,-0.07150626,802.23444,795.38464,803.8461,820.3663,833.663,-0.185546875,0.0848388671875,0.9931640625,-0.515899658203125,4.77020263671875,-2.953338623046875,1,1.0,1.0,1.0,1.0,15.00
2024-10-11 20:09:28.224,0.4014871,0.22248071,0.38243008,0.3835278,0.6410974,-0.23008066,-0.014276112,0.43621925,0.81751025,0.06830315,0.07701354,0.58189934,0.60161686,-0.108270235,-0.17938326,0.6175705,0.026912665,-0.48077744,-0.6776976,-0.07150626,799.011,797.3993,803.44324,816.7399,747.4359,-0.185546875,0.0848388671875,0.9931640625,-0.515899658203125,4.77020263671875,-2.953338623046875,1,1.0,1.0,1.0,1.0,15.00
2024-10-11 20:09:28.224,0.4014871,0.22248071,0.38243008,0.3835278,0.6410974,-0.23008066,-0.014276112,0.43621925,0.81751025,0.06830315,0.07701354,0.58189934,0.60161686,-0.108270235,-0.17938326,0.6175705,0.026912665,-0.48077744,-0.6776976,-0.07150626,802.6374,801.4286,802.23444,813.1135,774.0293,-0.185546875,0.0848388671875,0.9931640625,-0.515899658203125,4.77020263671875,-2.953338623046875,1,1.0,1.0,1.0,1.0,15.00
2024-10-11 20:09:28.225,0.4014871,0.22248071,0.38243008,0.3835278,0.6410974,-0.23008066,-0.014276112,0.43621925,0.81751025,0.06830315,0.07701354,0.58189934,0.60161686,-0.108270235,-0.17938326,0.6175705,0.026912665,-0.48077744,-0.6776976,-0.07150626,799.41394,793.7729,795.38464,819.9634,1242.2344,-0.185546875,0.0848388671875,0.9931640625,-0.515899658203125,4.77020263671875,-2.953338623046875,1,1.0,1.0,1.0,1.0,15.00
2024-10-11 20:09:28.225,0.4014871,0.22248071,0.38243008,0.3835278,0.6410974,-0.23008066,-0.014276112,0.43621925,0.81751025,0.06830315,0.07701354,0.58189934,0.60161686,-0.108270235,-0.17938326,0.6175705,0.026912665,-0.48077744,-0.6776976,-0.07150626,795.38464,792.5641,796.99634,819.5604,1274.4689,-0.185546875,0.0848388671875,0.9931640625,-0.515899658203125,4.77020263671875,-2.953338623046875,1,1.0,1.0,1.0,1.0,15.00
2024-10-11 20:09:28.226,0.4014871,0.22248071,0.38243008,0.3835278,0.6410974,-0.23008066,-0.014276112,0.43621925,0.81751025,0.06830315,0.07701354,0.58189934,0.60161686,-0.108270235,-0.17938326,0.6175705,0.026912665,-0.48077744,-0.6776976,-0.07150626,805.4579,799.41394,798.20514,810.696,819.9634,-0.185546875,0.0848388671875,0.9931640625,-0.515899658203125,4.77020263671875,-2.953338623046875,1,1.0,1.0,1.0,1.0,15.00
2024-10-11 20:09:28.227,0.4014871,0.22248071,0.38243008,0.3835278,0.6410974,-0.23008066,-0.014276112,0.43621925,0.81751025,0.06830315,0.07701354,0.58189934,0.60161686,-0.108270235,-0.17938326,0.6175705,0.026912665,-0.48077744,-0.6776976,-0.07150626,808.68134,798.20514,794.57874,807.0696,821.5751,-0.185546875,0.0848388671875,0.9931640625,-0.515899658203125,4.77020263671875,-2.953338623046875,1,1.0,1.0,1.0,1.0,15.00
2024-10-11 20:09:28.227,0.4014871,0.22248071,0.38243008,0.3835278,0.6410974,-0.23008066,-0.014276112,0.43621925,0.81751025,0.06830315,0.07701354,0.58189934,0.60161686,-0.108270235,-0.17938326,0.6175705,0.026912665,-0.48077744,-0.6776976,-0.07150626,807.47253,798.20514,795.78754,805.4579,842.1245,-0.185546875,0.0848388671875,0.9931640625,-0.515899658203125,4.77020263671875,-2.953338623046875,1,1.0,1.0,1.0,1.0,15.00
2024-10-11 20:09:28.228,0.4014871,0.22248071,0.38243008,0.3835278,0.6410974,-0.23008066,-0.014276112,0.43621925,0.81751025,0.06830315,0.07701354,0.58189934,0.60161686,-0.108270235,-0.17938326,0.6175705,0.026912665,-0.48077744,-0.6776976,-0.07150626,813.1135,801.02563,801.4286,811.50183,820.3663,-0.185546875,0.0848388671875,0.9931640625,-0.515899658203125,4.77020263671875,-2.953338623046875,1,1.0,1.0,1.0,1.0,15.00
2024-10-11 20:09:28.315,0.4014871,0.22248071,0.38243008,0.3835278,0.6410974,-0.23008066,-0.014276112,0.43621925,0.81751025,0.06830315,0.07701354,0.58189934,0.60161686,-0.108270235,-0.17938326,0.6175705,0.026912665,-0.48077744,-0.6776976,-0.07150626,813.5165,800.6227,804.2491,809.89014,788.1319,-0.17999267578125,0.0858154296875,0.98699951171875,-0.46356201171875,2.40753173828125,-2.310333251953125,1,1.0,1.0,1.0,1.0,15.00
2024-10-11 20:09:28.316,0.4014871,0.22248071,0.38243008,0.3835278,0.6410974,-0.23008066,-0.014276112,0.43621925,0.81751025,0.06830315,0.07701354,0.58189934,0.60161686,-0.108270235,-0.17938326,0.6175705,0.026912665,-0.48077744,-0.6776976,-0.07150626,816.337,803.44324,803.44324,807.0696,721.6484,-0.17999267578125,0.0858154296875,0.98699951171875,-0.46356201171875,2.40753173828125,-2.310333251953125,1,1.0,1.0,1.0,1.0,15.00
2024-10-11 20:09:28.317,0.4014871,0.22248071,0.38243008,0.3835278,0.6410974,-0.23008066,-0.014276112,0.43621925,0.81751025,0.06830315,0.07701354,0.58189934,0.60161686,-0.108270235,-0.17938326,0.6175705,0.026912665,-0.48077744,-0.6776976,-0.07150626,818.3516,801.02563,800.2198,810.696,802.6374,-0.17999267578125,0.0858154296875,0.98699951171875,-0.46356201171875,2.40753173828125,-2.310333251953125,1,1.0,1.0,1.0,1.0,15.00
2024-10-11 20:09:28.318,0.4014871,0.22248071,0.38243008,0.3835278,0.6410974,-0.23008066,-0.014276112,0.43621925,0.81751025,0.06830315,0.07701354,0.58189934,0.60161686,-0.108270235,-0.17938326,0.6175705,0.026912665,-0.48077744,-0.6776976,-0.07150626,807.8755,796.5934,799.41394,806.6667,884.43225,-0.17999267578125,0.0858154296875,0.98699951171875,-0.46356201171875,2.40753173828125,-2.310333251953125,1,1.0,1.0,1.0,1.0,15.00
2024-10-11 20:09:28.318,0.4014871,0.22248071,0.38243008,0.3835278,0.6410974,-0.23008066,-0.014276112,0.43621925,0.81751025,0.06830315,0.07701354,0.58189934,0.60161686,-0.108270235,-0.17938326,0.6175705,0.026912665,-0.48077744,-0.6776976,-0.07150626,801.02563,796.5934,802.23444,806.6667,820.3663,-0.17999267578125,0.0858154296875,0.98699951171875,-0.46356201171875,2.40753173828125,-2.310333251953125,1,1.0,1.0,1.0,1.0,15.00
2024-10-11 20:09:28.319,0.4014871,0.22248071,0.38243008,0.3835278,0.6410974,-0.23008066,-0.014276112,0.43621925,0.81751025,0.06830315,0.07701354,0.58189934,0.60161686,-0.108270235,-0.17938326,0.6175705,0.026912665,-0.48077744,-0.6776976,-0.07150626,803.44324,792.96704,804.2491,812.3077,925.5311,-0.17999267578125,0.0858154296875,0.98699951171875,-0.46356201171875,2.40753173828125,-2.310333251953125,1,1.0,1.0,1.0,1.0,15.00
2024-10-11 20:09:28.320,0.4014871,0.22248071,0.38243008,0.3835278,0.6410974,-0.23008066,-0.014276112,0.43621925,0.81751025,0.06830315,0.07701354,0.58189934,0.60161686,-0.108270235,-0.17938326,0.6175705,0.026912665,-0.48077744,-0.6776976,-0.07150626,804.65204,792.96704,802.23444,809.0842,931.1722,-0.17999267578125,0.0858154296875,0.98699951171875,-0.46356201171875,2.40753173828125,-2.310333251953125,1,1.0,1.0,1.0,1.0,15.00
2024-10-11 20:09:28.320,0.4014871,0.22248071,0.38243008,0.3835278,0.6410974,-0.23008066,-0.014276112,0.43621925,0.81751025,0.06830315,0.07701354,0.58189934,0.60161686,-0.108270235,-0.17938326,0.6175705,0.026912665,-0.48077744,-0.6776976,-0.07150626,813.5165,797.8022,803.0403,812.3077,795.38464,-0.17999267578125,0.0858154296875,0.98699951171875,-0.46356201171875,2.40753173828125,-2.310333251953125,1,1.0,1.0,1.0,1.0,15.00
2024-10-11 20:09:28.321,0.4014871,0.22248071,0.38243008,0.3835278,0.6410974,-0.23008066,-0.014276112,0.43621925,0.81751025,0.06830315,0.07701354,0.58189934,0.60161686,-0.108270235,-0.17938326,0.6175705,0.026912665,-0.48077744,-0.6776976,-0.07150626,818.3516,800.6227,800.6227,817.5458,818.7546,-0.17999267578125,0.0858154296875,0.98699951171875,-0.46356201171875,2.40753173828125,-2.310333251953125,1,1.0,1.0,1.0,1.0,15.00
2024-10-11 20:09:28.321,0.4014871,0.22248071,0.38243008,0.3835278,0.6410974,-0.23008066,-0.014276112,0.43621925,0.81751025,0.06830315,0.07701354,0.58189934,0.60161686,-0.108270235,-0.17938326,0.6175705,0.026912665,-0.48077744,-0.6776976,-0.07150626,816.337,800.6227,801.02563,822.7839,885.64105,-0.17999267578125,0.0858154296875,0.98699951171875,-0.46356201171875,2.40753173828125,-2.310333251953125,1,1.0,1.0,1.0,1.0,15.00
2024-10-11 20:09:28.322,0.4014871,0.22248071,0.38243008,0.3835278,0.6410974,-0.23008066,-0.014276112,0.43621925,0.81751025,0.06830315,0.07701354,0.58189934,0.60161686,-0.108270235,-0.17938326,0.6175705,0.026912665,-0.48077744,-0.6776976,-0.07150626,811.9048,803.8461,804.65204,823.1868,861.06226,-0.17999267578125,0.0858154296875,0.98699951171875,-0.46356201171875,2.40753173828125,-2.310333251953125,1,1.0,1.0,1.0,1.0,15.00
2024-10-11 20:09:28.322,0.4014871,0.22248071,0.38243008,0.3835278,0.6410974,-0.23008066,-0.014276112,0.43621925,0.81751025,0.06830315,0.07701354,0.58189934,0.60161686,-0.108270235,-0.17938326,0.6175705,0.026912665,-0.48077744,-0.6776976,-0.07150626,803.0403,802.23444,799.011,804.2491,688.20514,-0.17999267578125,0.0858154296875,0.98699951171875,-0.46356201171875,2.40753173828125,-2.310333251953125,1,1.0,1.0,1.0,1.0,15.00
2024-10-11 20:09:28.350,0.4014871,0.22248071,0.38243008,0.3835278,0.6410974,-0.23008066,-0.014276112,0.43621925,0.81751025,0.06830315,0.07701354,0.58189934,0.60161686,-0.108270235,-0.17938326,0.6175705,0.026912665,-0.48077744,-0.6776976,-0.07150626,812.71063,799.81683,798.60803,805.8608,684.57874,-0.1783447265625,0.0867919921875,0.99395751953125,-0.605621337890625,-1.009368896484375,-1.30096435546875,1,1.0,1.0,1.0,1.0,15.00
2024-10-11 20:09:28.351,0.4014871,0.22248071,0.38243008,0.3835278,0.6410974,-0.23008066,-0.014276112,0.43621925,0.81751025,0.06830315,0.07701354,0.58189934,0.60161686,-0.108270235,-0.17938326,0.6175705,0.026912665,-0.48077744,-0.6776976,-0.07150626,815.12823,800.2198,804.2491,815.12823,818.7546,-0.1783447265625,0.0867919921875,0.99395751953125,-0.605621337890625,-1.009368896484375,-1.30096435546875,1,1.0,1.0,1.0,1.0,15.00
2024-10-11 20:09:28.352,0.4014871,0.22248071,0.38243008,0.3835278,0.6410974,-0.23008066,-0.014276112,0.43621925,0.81751025,0.06830315,0.07701354,0.58189934,0.60161686,-0.108270235,-0.17938326,0.6175705,0.026912665,-0.48077744,-0.6776976,-0.07150626,797.3993,799.41394,802.23444,801.4286,822.381,-0.1783447265625,0.0867919921875,0.99395751953125,-0.605621337890625,-1.009368896484375,-1.30096435546875,1,1.0,1.0,1.0,1.0,15.00
2024-10-11 20:09:28.352,0.4014871,0.22248071,0.38243008,0.3835278,0.6410974,-0.23008066,-0.014276112,0.43621925,0.81751025,0.06830315,0.07701354,0.58189934,0.60161686,-0.108270235,-0.17938326,0.6175705,0.026912665,-0.48077744,-0.6776976,-0.07150626,812.71063,800.6227,803.0403,805.4579,688.60803,-0.1783447265625,0.0867919921875,0.99395751953125,-0.605621337890625,-1.009368896484375,-1.30096435546875,1,1.0,1.0,1.0,1.0,15.00
2024-10-11 20:09:28.353,0.4014871,0.22248071,0.38243008,0.3835278,0.6410974,-0.23008066,-0.014276112,0.43621925,0.81751025,0.06830315,0.07701354,0.58189934,0.60161686,-0.108270235,-0.17938326,0.6175705,0.026912665,-0.48077744,-0.6776976,-0.07150626,823.5897,801.4286,804.2491,811.9048,703.1135,-0.1783447265625,0.0867919921875,0.99395751953125,-0.605621337890625,-1.009368896484375,-1.30096435546875,1,1.0,1.0,1.0,1.0,15.00
2024-10-11 20:09:28.353,0.3817506,0.2590044,0.4086118,0.37838754,0.68028903,-0.21502925,0.014196762,0.45574117,0.7771226,0.06830315,0.07701354,0.58189934,0.5796238,-0.09918422,-0.18711466,0.6090337,0.016393164,-0.49311763,-0.6757203,-0.0842607,814.3223,798.60803,798.60803,809.4872,934.7985,-0.1783447265625,0.0867919921875,0.99395751953125,-0.605621337890625,-1.009368896484375,-1.30096435546875,1,1.0,1.0,1.0,1.0,15.00
2024-10-11 20:09:28.359,0.3817506,0.2590044,0.4086118,0.37838754,0.68028903,-0.21502925,0.014196762,0.45574117,0.7771226,0.06830315,0.07701354,0.58189934,0.5796238,-0.09918422,-0.18711466,0.6090337,0.016393164,-0.49311763,-0.6757203,-0.0842607,815.12823,801.8315,798.60803,809.89014,923.5165,-0.1783447265625,0.0867919921875,0.99395751953125,-0.605621337890625,-1.009368896484375,-1.30096435546875,1,1.0,1.0,1.0,1.0,15.00
2024-10-11 20:09:28.359,0.3817506,0.2590044,0.4086118,0.37838754,0.68028903,-0.21502925,0.014196762,0.45574117,0.7771226,0.06830315,0.07701354,0.58189934,0.5796238,-0.09918422,-0.18711466,0.6090337,0.016393164,-0.49311763,-0.6757203,-0.0842607,813.5165,804.2491,804.2491,812.71063,672.8938,-0.1783447265625,0.0867919921875,0.99395751953125,-0.605621337890625,-1.009368896484375,-1.30096435546875,1,1.0,1.0,1.0,1.0,15.00
2024-10-11 20:09:28.360,0.3817506,0.2590044,0.4086118,0.37838754,0.68028903,-0.21502925,0.014196762,0.45574117,0.7771226,0.06830315,0.07701354,0.58189934,0.5796238,-0.09918422,-0.18711466,0.6090337,0.016393164,-0.49311763,-0.6757203,-0.0842607,810.696,801.8315,809.4872,816.337,744.21246,-0.1783447265625,0.0867919921875,0.99395751953125,-0.605621337890625,-1.009368896484375,-1.30096435546875,1,1.0,1.0,1.0,1.0,15.00
2024-10-11 20:09:28.360,0.3817506,0.2590044,0.4086118,0.37838754,0.68028903,-0.21502925,0.014196762,0.45574117,0.7771226,0.06830315,0.07701354,0.58189934,0.5796238,-0.09918422,-0.18711466,0.6090337,0.016393164,-0.49311763,-0.6757203,-0.0842607,811.50183,802.6374,808.68134,813.1135,863.8828,-0.1783447265625,0.0867919921875,0.99395751953125,-0.605621337890625,-1.009368896484375,-1.30096435546875,1,1.0,1.0,1.0,1.0,15.00
2024-10-11 20:09:28.361,0.3817506,0.2590044,0.4086118,0.37838754,0.68028903,-0.21502925,0.014196762,0.45574117,0.7771226,0.06830315,0.07701354,0.58189934,0.5796238,-0.09918422,-0.18711466,0.6090337,0.016393164,-0.49311763,-0.6757203,-0.0842607,813.91943,801.8315,803.8461,810.696,722.0513,-0.1783447265625,0.0867919921875,0.99395751953125,-0.605621337890625,-1.009368896484375,-1.30096435546875,1,1.0,1.0,1.0,1.0,15.00
2024-10-11 20:09:28.361,0.3817506,0.2590044,0.4086118,0.37838754,0.68028903,-0.21502925,0.014196762,0.45574117,0.7771226,0.06830315,0.07701354,0.58189934,0.5796238,-0.09918422,-0.18711466,0.6090337,0.016393164,-0.49311763,-0.6757203,-0.0842607,814.7253,801.4286,802.23444,803.44324,593.91943,-0.1783447265625,0.0867919921875,0.99395751953125,-0.605621337890625,-1.009368896484375,-1.30096435546875,1,1.0,1.0,1.0,1.0,15.00
2024-10-11 20:09:28.450,0.3817506,0.2590044,0.4086118,0.37838754,0.68028903,-0.21502925,0.014196762,0.45574117,0.7771226,0.06830315,0.07701354,0.58189934,0.5796238,-0.09918422,-0.18711466,0.6090337,0.016393164,-0.49311763,-0.6757203,-0.0842607,809.4872,799.81683,803.8461,803.0403,705.5311,-0.18414306640625,0.0826416015625,0.9874267578125,-1.263580322265625,-1.039276123046875,-1.60003662109375,1,1.0,1.0,1.0,1.0,15.00
2024-10-11 20:09:28.451,0.3817506,0.2590044,0.4086118,0.37838754,0.68028903,-0.21502925,0.014196762,0.45574117,0.7771226,0.06830315,0.07701354,0.58189934,0.5796238,-0.09918422,-0.18711466,0.6090337,0.016393164,-0.49311763,-0.6757203,-0.0842607,809.0842,795.38464,800.6227,814.3223,921.9048,-0.18414306640625,0.0826416015625,0.9874267578125,-1.263580322265625,-1.039276123046875,-1.60003662109375,1,1.0,1.0,1.0,1.0,15.00
2024-10-11 20:09:28.452,0.3817506,0.2590044,0.4086118,0.37838754,0.68028903,-0.21502925,0.014196762,0.45574117,0.7771226,0.06830315,0.07701354,0.58189934,0.5796238,-0.09918422,-0.18711466,0.6090337,0.016393164,-0.49311763,-0.6757203,-0.0842607,809.0842,795.38464,799.011,809.89014,863.0769,-0.18414306640625,0.0826416015625,0.9874267578125,-1.263580322265625,-1.039276123046875,-1.60003662109375,1,1.0,1.0,1.0,1.0,15.00
2024-10-11 20:09:28.453,0.3817506,0.2590044,0.4086118,0.37838754,0.68028903,-0.21502925,0.014196762,0.45574117,0.7771226,0.06830315,0.07701354,0.58189934,0.5796238,-0.09918422,-0.18711466,0.6090337,0.016393164,-0.49311763,-0.6757203,-0.0842607,805.05493,799.81683,800.2198,797.3993,754.2857,-0.18414306640625,0.0826416015625,0.9874267578125,-1.263580322265625,-1.039276123046875,-1.60003662109375,1,1.0,1.0,1.0,1.0,15.00
2024-10-11 20:09:28.453,0.3817506,0.2590044,0.4086118,0.37838754,0.68028903,-0.21502925,0.014196762,0.45574117,0.7771226,0.06830315,0.07701354,0.58189934,0.5796238,-0.09918422,-0.18711466,0.6090337,0.016393164,-0.49311763,-0.6757203,-0.0842607,807.0696,801.4286,802.6374,799.011,887.6557,-0.18414306640625,0.0826416015625,0.9874267578125,-1.263580322265625,-1.039276123046875,-1.60003662109375,1,1.0,1.0,1.0,1.0,15.00
2024-10-11 20:09:28.454,0.3817506,0.2590044,0.4086118,0.37838754,0.68028903,-0.21502925,0.014196762,0.45574117,0.7771226,0.06830315,0.07701354,0.58189934,0.5796238,-0.09918422,-0.18711466,0.6090337,0.016393164,-0.49311763,-0.6757203,-0.0842607,809.89014,800.2198,802.23444,807.8755,1046.0073,-0.18414306640625,0.0826416015625,0.9874267578125,-1.263580322265625,-1.039276123046875,-1.60003662109375,1,1.0,1.0,1.0,1.0,15.00
2024-10-11 20:09:28.454,0.3817506,0.2590044,0.4086118,0.37838754,0.68028903,-0.21502925,0.014196762,0.45574117,0.7771226,0.06830315,0.07701354,0.58189934,0.5796238,-0.09918422,-0.18711466,0.6090337,0.016393164,-0.49311763,-0.6757203,-0.0842607,808.68134,799.011,798.20514,805.8608,883.22345,-0.18414306640625,0.0826416015625,0.9874267578125,-1.263580322265625,-1.039276123046875,-1.60003662109375,1,1.0,1.0,1.0,1.0,15.00
2024-10-11 20:09:28.455,0.3817506,0.2590044,0.4086118,0.37838754,0.68028903,-0.21502925,0.014196762,0.45574117,0.7771226,0.06830315,0.07701354,0.58189934,0.5796238,-0.09918422,-0.18711466,0.6090337,0.016393164,-0.49311763,-0.6757203,-0.0842607,805.05493,798.20514,801.8315,802.23444,711.5751,-0.18414306640625,0.0826416015625,0.9874267578125,-1.263580322265625,-1.039276123046875,-1.60003662109375,1,1.0,1.0,1.0,1.0,15.00
2024-10-11 20:09:28.455,0.3817506,0.2590044,0.4086118,0.37838754,0.68028903,-0.21502925,0.014196762,0.45574117,0.7771226,0.06830315,0.07701354,0.58189934,0.5796238,-0.09918422,-0.18711466,0.6090337,0.016393164,-0.49311763,-0.6757203,-0.0842607,803.44324,799.81683,802.6374,807.47253,791.75824,-0.18414306640625,0.0826416015625,0.9874267578125,-1.263580322265625,-1.039276123046875,-1.60003662109375,1,1.0,1.0,1.0,1.0,15.00
2024-10-11 20:09:28.456,0.3817506,0.2590044,0.4086118,0.37838754,0.68028903,-0.21502925,0.014196762,0.45574117,0.7771226,0.06830315,0.07701354,0.58189934,0.5796238,-0.09918422,-0.18711466,0.6090337,0.016393164,-0.49311763,-0.6757203,-0.0842607,807.47253,803.8461,802.23444,807.47253,844.94507,-0.18414306640625,0.0826416015625,0.9874267578125,-1.263580322265625,-1.039276123046875,-1.60003662109375,1,1.0,1.0,1.0,1.0,15.00
2024-10-11 20:09:28.457,0.3817506,0.2590044,0.4086118,0.37838754,0.68028903,-0.21502925,0.014196762,0.45574117,0.7771226,0.06830315,0.07701354,0.58189934,0.5796238,-0.09918422,-0.18711466,0.6090337,0.016393164,-0.49311763,-0.6757203,-0.0842607,811.0989,804.65204,804.2491,799.011,711.5751,-0.18414306640625,0.0826416015625,0.9874267578125,-1.263580322265625,-1.039276123046875,-1.60003662109375,1,1.0,1.0,1.0,1.0,15.00
2024-10-11 20:09:28.457,0.3817506,0.2590044,0.4086118,0.37838754,0.68028903,-0.21502925,0.014196762,0.45574117,0.7771226,0.06830315,0.07701354,0.58189934,0.5796238,-0.09918422,-0.18711466,0.6090337,0.016393164,-0.49311763,-0.6757203,-0.0842607,810.293,800.6227,800.2198,797.8022,701.0989,-0.18414306640625,0.0826416015625,0.9874267578125,-1.263580322265625,-1.039276123046875,-1.60003662109375,1,1.0,1.0,1.0,1.0,15.00
2024-10-11 20:09:28.483,0.3817506,0.2590044,0.4086118,0.37838754,0.68028903,-0.21502925,0.014196762,0.45574117,0.7771226,0.06830315,0.07701354,0.58189934,0.5796238,-0.09918422,-0.18711466,0.6090337,0.016393164,-0.49311763,-0.6757203,-0.0842607,805.4579,794.17584,799.011,801.4286,853.8095,-0.17852783203125,0.08538818359375,1.002685546875,-1.039276123046875,-1.77947998046875,-1.48040771484375,1,1.0,1.0,1.0,1.0,15.00
2024-10-11 20:09:28.484,0.3817506,0.2590044,0.4086118,0.37838754,0.68028903,-0.21502925,0.014196762,0.45574117,0.7771226,0.06830315,0.07701354,0.58189934,0.5796238,-0.09918422,-0.18711466,0.6090337,0.016393164,-0.49311763,-0.6757203,-0.0842607,798.20514,794.17584,801.02563,796.99634,865.4945,-0.17852783203125,0.08538818359375,1.002685546875,-1.039276123046875,-1.77947998046875,-1.48040771484375,1,1.0,1.0,1.0,1.0,15.00
2024-10-11 20:09:28.485,0.3817506,0.2590044,0.4086118,0.37838754,0.68028903,-0.21502925,0.014196762,0.45574117,0.7771226,0.06830315,0.07701354,0.58189934,0.5796238,-0.09918422,-0.18711466,0.6090337,0.016393164,-0.49311763,-0.6757203,-0.0842607,796.99634,795.78754,801.8315,797.3993,672.8938,-0.17852783203125,0.08538818359375,1.002685546875,-1.039276123046875,-1.77947998046875,-1.48040771484375,1,1.0,1.0,1.0,1.0,15.00
2024-10-11 20:09:28.486,0.3817506,0.2590044,0.4086118,0.37838754,0.68028903,-0.21502925,0.014196762,0.45574117,0.7771226,0.06830315,0.07701354,0.58189934,0.5796238,-0.09918422,-0.18711466,0.6090337,0.016393164,-0.49311763,-0.6757203,-0.0842607,801.8315,792.5641,802.23444,799.81683,659.19415,-0.17852783203125,0.08538818359375,1.002685546875,-1.039276123046875,-1.77947998046875,-1.48040771484375,1,1.0,1.0,1.0,1.0,15.00
2024-10-11 20:09:28.486,0.3817506,0.2590044,0.4086118,0.37838754,0.68028903,-0.21502925,0.014196762,0.45574117,0.7771226,0.06830315,0.07701354,0.58189934,0.5796238,-0.09918422,-0.18711466,0.6090337,0.016393164,-0.49311763,-0.6757203,-0.0842607,807.0696,797.3993,801.4286,800.2198,796.5934,-0.17852783203125,0.08538818359375,1.002685546875,-1.039276123046875,-1.77947998046875,-1.48040771484375,1,1.0,1.0,1.0,1.0,15.00
2024-10-11 20:09:28.487,0.3817506,0.2590044,0.4086118,0.37838754,0.68028903,-0.21502925,0.014196762,0.45574117,0.7771226,0.06830315,0.07701354,0.58189934,0.5796238,-0.09918422,-0.18711466,0.6090337,0.016393164,-0.49311763,-0.6757203,-0.0842607,810.293,803.0403,797.8022,803.0403,809.4872,-0.17852783203125,0.08538818359375,1.002685546875,-1.039276123046875,-1.77947998046875,-1.48040771484375,1,1.0,1.0,1.0,1.0,15.00
2024-10-11 20:09:28.487,0.3817506,0.2590044,0.4086118,0.37838754,0.68028903,-0.21502925,0.014196762,0.45574117,0.7771226,0.06830315,0.07701354,0.58189934,0.5796238,-0.09918422,-0.18711466,0.6090337,0.016393164,-0.49311763,-0.6757203,-0.0842607,805.05493,798.20514,796.5934,804.2491,789.7436,-0.17852783203125,0.08538818359375,1.002685546875,-1.039276123046875,-1.77947998046875,-1.48040771484375,1,1.0,1.0,1.0,1.0,15.00
2024-10-11 20:09:28.488,0.3728329,0.2687885,0.4175784,0.40441602,0.7321894,-0.20487121,0.031760644,0.49530488,0.75486374,0.06830315,0.07701354,0.58189934,0.56958246,-0.0887096,-0.19744998,0.59768575,-0.0034559956,-0.51288533,-0.6628674,-0.100325964,803.8461,798.20514,796.5934,803.0403,788.5348,-0.17852783203125,0.08538818359375,1.002685546875,-1.039276123046875,-1.77947998046875,-1.48040771484375,1,1.0,1.0,1.0,1.0,15.00
