TimeStamp,Delta_TP9,Delta_AF7,Delta_AF8,Delta_TP10,Theta_TP9,Theta_AF7,Theta_AF8,Theta_TP10,Alpha_TP9,Alpha_AF7,Alpha_AF8,Alpha_TP10,Beta_TP9,Beta_AF7,Beta_AF8,Beta_TP10,Gamma_TP9,Gamma_AF7,Gamma_AF8,Gamma_TP10,RAW_TP9,RAW_AF7,RAW_AF8,RAW_TP10,AUX_RIGHT,Accelerometer_X,Accelerometer_Y,Accelerometer_Z,Gyro_X,Gyro_Y,Gyro_Z,HeadBandOn,HSI_TP9,HSI_AF7,HSI_AF8,HSI_TP10,Battery,Elements
2024-10-11 20:13:25.500,0.6108664,0.57465297,0.9763774,0.97754955,0.572322,0.33438075,0.486529,0.54265183,1.3478286,0.5625963,0.5260947,1.2574718,0.8175839,0.09991833,0.041722346,0.5877754,0.09627902,-0.04778233,-0.49901003,-0.038011014,812.3077,793.7729,803.0403,817.1429,954.1392,-0.148193359375,0.05029296875,0.9813232421875,4.486083984375,0.560760498046875,-5.854339599609375,1,1.0,1.0,1.0,1.0,10.00
2024-10-11 20:13:25.501,0.6108664,0.57465297,0.9763774,0.97754955,0.572322,0.33438075,0.486529,0.54265183,1.3478286,0.5625963,0.5260947,1.2574718,0.8175839,0.09991833,0.041722346,0.5877754,0.09627902,-0.04778233,-0.49901003,-0.038011014,804.65204,801.4286,798.60803,811.0989,633.00366,-0.148193359375,0.05029296875,0.9813232421875,4.486083984375,0.560760498046875,-5.854339599609375,1,1.0,1.0,1.0,1.0,10.00
2024-10-11 20:13:25.502,0.6108664,0.57465297,0.9763774,0.97754955,0.572322,0.33438075,0.486529,0.54265183,1.3478286,0.5625963,0.5260947,1.2574718,0.8175839,0.09991833,0.041722346,0.5877754,0.09627902,-0.04778233,-0.49901003,-0.038011014,803.8461,803.44324,799.011,808.68134,505.67764,-0.148193359375,0.05029296875,0.9813232421875,4.486083984375,0.560760498046875,-5.854339599609375,1,1.0,1.0,1.0,1.0,10.00
2024-10-11 20:13:25.504,0.6108664,0.57465297,0.9763774,0.97754955,0.572322,0.33438075,0.486529,0.54265183,1.3478286,0.5625963,0.5260947,1.2574718,0.8175839,0.09991833,0.041722346,0.5877754,0.09627902,-0.04778233,-0.49901003,-0.038011014,805.4579,800.6227,808.2784,813.5165,830.0366,-0.148193359375,0.05029296875,0.9813232421875,4.486083984375,0.560760498046875,-5.854339599609375,1,1.0,1.0,1.0,1.0,10.00
2024-10-11 20:13:25.506,0.6108664,0.57465297,0.9763774,0.97754955,0.572322,0.33438075,0.486529,0.54265183,1.3478286,0.5625963,0.5260947,1.2574718,0.8175839,0.09991833,0.041722346,0.5877754,0.09627902,-0.04778233,-0.49901003,-0.038011014,799.81683,796.5934,804.65204,817.5458,1055.6776,-0.148193359375,0.05029296875,0.9813232421875,4.486083984375,0.560760498046875,-5.854339599609375,1,1.0,1.0,1.0,1.0,10.00
2024-10-11 20:13:25.508,0.6108664,0.57465297,0.9763774,0.97754955,0.572322,0.33438075,0.486529,0.54265183,1.3478286,0.5625963,0.5260947,1.2574718,0.8175839,0.09991833,0.041722346,0.5877754,0.09627902,-0.04778233,-0.49901003,-0.038011014,802.6374,796.99634,803.0403,811.9048,851.79486,-0.148193359375,0.05029296875,0.9813232421875,4.486083984375,0.560760498046875,-5.854339599609375,1,1.0,1.0,1.0,1.0,10.00
2024-10-11 20:13:25.509,0.6108664,0.57465297,0.9763774,0.97754955,0.572322,0.33438075,0.486529,0.54265183,1.3478286,0.5625963,0.5260947,1.2574718,0.8175839,0.09991833,0.041722346,0.5877754,0.09627902,-0.04778233,-0.49901003,-0.038011014,801.8315,795.78754,804.65204,806.6667,670.4762,-0.148193359375,0.05029296875,0.9813232421875,4.486083984375,0.560760498046875,-5.854339599609375,1,1.0,1.0,1.0,1.0,10.00
2024-10-11 20:13:25.510,0.6279047,0.6216148,0.9809879,1.0108343,0.5920557,0.36074245,0.49505416,0.60759026,1.3478286,0.5704878,0.52500856,1.2609059,0.8204609,0.13159627,0.064801745,0.60574335,0.09866935,-0.04172383,-0.48305592,-0.030218123,798.20514,792.96704,799.81683,814.7253,961.39197,-0.148193359375,0.05029296875,0.9813232421875,4.486083984375,0.560760498046875,-5.854339599609375,1,1.0,1.0,1.0,1.0,10.00
2024-10-11 20:13:25.517,0.6279047,0.6216148,0.9809879,1.0108343,0.5920557,0.36074245,0.49505416,0.60759026,1.3478286,0.5704878,0.52500856,1.2609059,0.8204609,0.13159627,0.064801745,0.60574335,0.09866935,-0.04172383,-0.48305592,-0.030218123,799.81683,793.7729,798.60803,817.1429,1095.1648,-0.148193359375,0.05029296875,0.9813232421875,4.486083984375,0.560760498046875,-5.854339599609375,1,1.0,1.0,1.0,1.0,10.00
2024-10-11 20:13:25.518,0.6279047,0.6216148,0.9809879,1.0108343,0.5920557,0.36074245,0.49505416,0.60759026,1.3478286,0.5704878,0.52500856,1.2609059,0.8204609,0.13159627,0.064801745,0.60574335,0.09866935,-0.04172383,-0.48305592,-0.030218123,800.2198,793.7729,803.44324,813.5165,656.77655,-0.148193359375,0.05029296875,0.9813232421875,4.486083984375,0.560760498046875,-5.854339599609375,1,1.0,1.0,1.0,1.0,10.00
2024-10-11 20:13:25.519,0.6279047,0.6216148,0.9809879,1.0108343,0.5920557,0.36074245,0.49505416,0.60759026,1.3478286,0.5704878,0.52500856,1.2609059,0.8204609,0.13159627,0.064801745,0.60574335,0.09866935,-0.04172383,-0.48305592,-0.030218123,801.8315,794.9817,806.6667,813.91943,568.1319,-0.148193359375,0.05029296875,0.9813232421875,4.486083984375,0.560760498046875,-5.854339599609375,1,1.0,1.0,1.0,1.0,10.00
2024-10-11 20:13:25.520,0.6279047,0.6216148,0.9809879,1.0108343,0.5920557,0.36074245,0.49505416,0.60759026,1.3478286,0.5704878,0.52500856,1.2609059,0.8204609,0.13159627,0.064801745,0.60574335,0.09866935,-0.04172383,-0.48305592,-0.030218123,802.6374,797.3993,806.6667,810.293,670.4762,-0.148193359375,0.05029296875,0.9813232421875,4.486083984375,0.560760498046875,-5.854339599609375,1,1.0,1.0,1.0,1.0,10.00
2024-10-11 20:13:25.592,0.6279047,0.6216148,0.9809879,1.0108343,0.5920557,0.36074245,0.49505416,0.60759026,1.3478286,0.5704878,0.52500856,1.2609059,0.8204609,0.13159627,0.064801745,0.60574335,0.09866935,-0.04172383,-0.48305592,-0.030218123,800.6227,793.36993,805.05493,808.68134,736.55676,-0.15673828125,0.07684326171875,0.98529052734375,8.052520751953125,1.39068603515625,2.0037841796875,1,1.0,1.0,1.0,1.0,10.00
2024-10-11 20:13:25.594,0.6279047,0.6216148,0.9809879,1.0108343,0.5920557,0.36074245,0.49505416,0.60759026,1.3478286,0.5704878,0.52500856,1.2609059,0.8204609,0.13159627,0.064801745,0.60574335,0.09866935,-0.04172383,-0.48305592,-0.030218123,807.8755,790.9524,803.44324,803.44324,747.4359,-0.15673828125,0.07684326171875,0.98529052734375,8.052520751953125,1.39068603515625,2.0037841796875,1,1.0,1.0,1.0,1.0,10.00
2024-10-11 20:13:25.595,0.6279047,0.6216148,0.9809879,1.0108343,0.5920557,0.36074245,0.49505416,0.60759026,1.3478286,0.5704878,0.52500856,1.2609059,0.8204609,0.13159627,0.064801745,0.60574335,0.09866935,-0.04172383,-0.48305592,-0.030218123,807.8755,799.011,800.6227,803.44324,681.3553,-0.15673828125,0.07684326171875,0.98529052734375,8.052520751953125,1.39068603515625,2.0037841796875,1,1.0,1.0,1.0,1.0,10.00
2024-10-11 20:13:25.596,0.6279047,0.6216148,0.9809879,1.0108343,0.5920557,0.36074245,0.49505416,0.60759026,1.3478286,0.5704878,0.52500856,1.2609059,0.8204609,0.13159627,0.064801745,0.60574335,0.09866935,-0.04172383,-0.48305592,-0.030218123,801.8315,803.0403,801.02563,808.68134,723.2601,-0.15673828125,0.07684326171875,0.98529052734375,8.052520751953125,1.39068603515625,2.0037841796875,1,1.0,1.0,1.0,1.0,10.00
2024-10-11 20:13:25.598,0.6279047,0.6216148,0.9809879,1.0108343,0.5920557,0.36074245,0.49505416,0.60759026,1.3478286,0.5704878,0.52500856,1.2609059,0.8204609,0.13159627,0.064801745,0.60574335,0.09866935,-0.04172383,-0.48305592,-0.030218123,805.4579,798.60803,796.1905,807.8755,776.4469,-0.15673828125,0.07684326171875,0.98529052734375,8.052520751953125,1.39068603515625,2.0037841796875,1,1.0,1.0,1.0,1.0,10.00
2024-10-11 20:13:25.599,0.6279047,0.6216148,0.9809879,1.0108343,0.5920557,0.36074245,0.49505416,0.60759026,1.3478286,0.5704878,0.52500856,1.2609059,0.8204609,0.13159627,0.064801745,0.60574335,0.09866935,-0.04172383,-0.48305592,-0.030218123,809.0842,798.20514,792.96704,804.2491,786.1172,-0.15673828125,0.07684326171875,0.98529052734375,8.052520751953125,1.39068603515625,2.0037841796875,1,1.0,1.0,1.0,1.0,10.00
2024-10-11 20:13:25.600,0.6279047,0.6216148,0.9809879,1.0108343,0.5920557,0.36074245,0.49505416,0.60759026,1.3478286,0.5704878,0.52500856,1.2609059,0.8204609,0.13159627,0.064801745,0.60574335,0.09866935,-0.04172383,-0.48305592,-0.030218123,805.8608,794.9817,802.23444,805.4579,884.83514,-0.15673828125,0.07684326171875,0.98529052734375,8.052520751953125,1.39068603515625,2.0037841796875,1,1.0,1.0,1.0,1.0,10.00
2024-10-11 20:13:25.601,0.6279047,0.6216148,0.9809879,1.0108343,0.5920557,0.36074245,0.49505416,0.60759026,1.3478286,0.5704878,0.52500856,1.2609059,0.8204609,0.13159627,0.064801745,0.60574335,0.09866935,-0.04172383,-0.48305592,-0.030218123,809.4872,792.96704,807.47253,812.3077,939.2308,-0.15673828125,0.07684326171875,0.98529052734375,8.052520751953125,1.39068603515625,2.0037841796875,1,1.0,1.0,1.0,1.0,10.00
2024-10-11 20:13:25.603,0.6279047,0.6216148,0.9809879,1.0108343,0.5920557,0.36074245,0.49505416,0.60759026,1.3478286,0.5704878,0.52500856,1.2609059,0.8204609,0.13159627,0.064801745,0.60574335,0.09866935,-0.04172383,-0.48305592,-0.030218123,808.68134,797.8022,802.6374,808.68134,846.9597,-0.15673828125,0.07684326171875,0.98529052734375,8.052520751953125,1.39068603515625,2.0037841796875,1,1.0,1.0,1.0,1.0,10.00
2024-10-11 20:13:25.603,0.6279047,0.6216148,0.9809879,1.0108343,0.5920557,0.36074245,0.49505416,0.60759026,1.3478286,0.5704878,0.52500856,1.2609059,0.8204609,0.13159627,0.064801745,0.60574335,0.09866935,-0.04172383,-0.48305592,-0.030218123,806.26373,795.78754,801.02563,807.8755,736.1539,-0.15673828125,0.07684326171875,0.98529052734375,8.052520751953125,1.39068603515625,2.0037841796875,1,1.0,1.0,1.0,1.0,10.00
2024-10-11 20:13:25.604,0.6279047,0.6216148,0.9809879,1.0108343,0.5920557,0.36074245,0.49505416,0.60759026,1.3478286,0.5704878,0.52500856,1.2609059,0.8204609,0.13159627,0.064801745,0.60574335,0.09866935,-0.04172383,-0.48305592,-0.030218123,819.15753,788.93774,801.8315,819.5604,787.326,-0.15673828125,0.07684326171875,0.98529052734375,8.052520751953125,1.39068603515625,2.0037841796875,1,1.0,1.0,1.0,1.0,10.00
2024-10-11 20:13:25.605,0.6279047,0.6216148,0.9809879,1.0108343,0.5920557,0.36074245,0.49505416,0.60759026,1.3478286,0.5704878,0.52500856,1.2609059,0.8204609,0.13159627,0.064801745,0.60574335,0.09866935,-0.04172383,-0.48305592,-0.030218123,806.6667,789.7436,801.4286,820.3663,900.9524,-0.15673828125,0.07684326171875,0.98529052734375,8.052520751953125,1.39068603515625,2.0037841796875,1,1.0,1.0,1.0,1.0,10.00
2024-10-11 20:13:25.606,0.6279047,0.6216148,0.9809879,1.0108343,0.5920557,0.36074245,0.49505416,0.60759026,1.3478286,0.5704878,0.52500856,1.2609059,0.8204609,0.13159627,0.064801745,0.60574335,0.09866935,-0.04172383,-0.48305592,-0.030218123,784.10254,791.3553,803.8461,812.71063,707.9487,-0.15673828125,0.07684326171875,0.98529052734375,8.052520751953125,1.39068603515625,2.0037841796875,1,1.0,1.0,1.0,1.0,10.00
2024-10-11 20:13:25.607,0.6279047,0.6216148,0.9809879,1.0108343,0.5920557,0.36074245,0.49505416,0.60759026,1.3478286,0.5704878,0.52500856,1.2609059,0.8204609,0.13159627,0.064801745,0.60574335,0.09866935,-0.04172383,-0.48305592,-0.030218123,786.1172,788.5348,809.0842,814.7253,636.2271,-0.15673828125,0.07684326171875,0.98529052734375,8.052520751953125,1.39068603515625,2.0037841796875,1,1.0,1.0,1.0,1.0,10.00
2024-10-11 20:13:25.608,0.6279047,0.6216148,0.9809879,1.0108343,0.5920557,0.36074245,0.49505416,0.60759026,1.3478286,0.5704878,0.52500856,1.2609059,0.8204609,0.13159627,0.064801745,0.60574335,0.09866935,-0.04172383,-0.48305592,-0.030218123,794.57874,788.5348,809.4872,822.381,860.2564,-0.15673828125,0.07684326171875,0.98529052734375,8.052520751953125,1.39068603515625,2.0037841796875,1,1.0,1.0,1.0,1.0,10.00
2024-10-11 20:13:25.609,0.6279047,0.6216148,0.9809879,1.0108343,0.5920557,0.36074245,0.49505416,0.60759026,1.3478286,0.5704878,0.52500856,1.2609059,0.8204609,0.13159627,0.064801745,0.60574335,0.09866935,-0.04172383,-0.48305592,-0.030218123,792.5641,791.3553,809.4872,816.7399,1039.1575,-0.15673828125,0.07684326171875,0.98529052734375,8.052520751953125,1.39068603515625,2.0037841796875,1,1.0,1.0,1.0,1.0,10.00
2024-10-11 20:13:25.610,0.6279047,0.6216148,0.9809879,1.0108343,0.5920557,0.36074245,0.49505416,0.60759026,1.3478286,0.5704878,0.52500856,1.2609059,0.8204609,0.13159627,0.064801745,0.60574335,0.09866935,-0.04172383,-0.48305592,-0.030218123,784.5055,787.72894,810.696,804.2491,822.7839,-0.15673828125,0.07684326171875,0.98529052734375,8.052520751953125,1.39068603515625,2.0037841796875,1,1.0,1.0,1.0,1.0,10.00
2024-10-11 20:13:25.611,0.6279047,0.6216148,0.9809879,1.0108343,0.5920557,0.36074245,0.49505416,0.60759026,1.3478286,0.5704878,0.52500856,1.2609059,0.8204609,0.13159627,0.064801745,0.60574335,0.09866935,-0.04172383,-0.48305592,-0.030218123,792.1612,786.9231,809.0842,809.0842,740.989,-0.15673828125,0.07684326171875,0.98529052734375,8.052520751953125,1.39068603515625,2.0037841796875,1,1.0,1.0,1.0,1.0,10.00
2024-10-11 20:13:25.612,0.6279047,0.6216148,0.9809879,1.0108343,0.5920557,0.36074245,0.49505416,0.60759026,1.3478286,0.5704878,0.52500856,1.2609059,0.8204609,0.13159627,0.064801745,0.60574335,0.09866935,-0.04172383,-0.48305592,-0.030218123,794.57874,792.1612,809.4872,815.12823,990.0,-0.15673828125,0.07684326171875,0.98529052734375,8.052520751953125,1.39068603515625,2.0037841796875,1,1.0,1.0,1.0,1.0,10.00
2024-10-11 20:13:25.613,0.6279047,0.6216148,0.9809879,1.0108343,0.5920557,0.36074245,0.49505416,0.60759026,1.3478286,0.5704878,0.52500856,1.2609059,0.8204609,0.13159627,0.064801745,0.60574335,0.09866935,-0.04172383,-0.48305592,-0.030218123,786.9231,797.3993,806.6667,811.50183,994.43225,-0.15673828125,0.07684326171875,0.98529052734375,8.052520751953125,1.39068603515625,2.0037841796875,1,1.0,1.0,1.0,1.0,10.00
2024-10-11 20:13:25.614,0.6279047,0.6216148,0.9809879,1.0108343,0.5920557,0.36074245,0.49505416,0.60759026,1.3478286,0.5704878,0.52500856,1.2609059,0.8204609,0.13159627,0.064801745,0.60574335,0.09866935,-0.04172383,-0.48305592,-0.030218123,793.7729,797.3993,805.4579,809.0842,703.5165,-0.15673828125,0.07684326171875,0.98529052734375,8.052520751953125,1.39068603515625,2.0037841796875,1,1.0,1.0,1.0,1.0,10.00
2024-10-11 20:13:25.615,0.64234936,0.6647504,0.9833934,1.0616834,0.6147976,0.38038713,0.5068344,0.6977632,1.3478286,0.56795394,0.52218443,1.2675222,0.817376,0.15670952,0.07987369,0.6180854,0.09637392,-0.038226634,-0.46768862,-0.024402414,811.0989,796.99634,806.26373,815.9341,649.12085,-0.15673828125,0.07684326171875,0.98529052734375,8.052520751953125,1.39068603515625,2.0037841796875,1,1.0,1.0,1.0,1.0,10.00
2024-10-11 20:13:25.620,0.64234936,0.6647504,0.9833934,1.0616834,0.6147976,0.38038713,0.5068344,0.6977632,1.3478286,0.56795394,0.52218443,1.2675222,0.817376,0.15670952,0.07987369,0.6180854,0.09637392,-0.038226634,-0.46768862,-0.024402414,815.5311,796.99634,805.4579,817.9487,794.57874,-0.15673828125,0.07684326171875,0.98529052734375,8.052520751953125,1.39068603515625,2.0037841796875,1,1.0,1.0,1.0,1.0,10.00
2024-10-11 20:13:25.621,0.64234936,0.6647504,0.9833934,1.0616834,0.6147976,0.38038713,0.5068344,0.6977632,1.3478286,0.56795394,0.52218443,1.2675222,0.817376,0.15670952,0.07987369,0.6180854,0.09637392,-0.038226634,-0.46768862,-0.024402414,807.8755,797.3993,805.8608,816.7399,807.8755,-0.15673828125,0.07684326171875,0.98529052734375,8.052520751953125,1.39068603515625,2.0037841796875,1,1.0,1.0,1.0,1.0,10.00
2024-10-11 20:13:25.650,0.64234936,0.6647504,0.9833934,1.0616834,0.6147976,0.38038713,0.5068344,0.6977632,1.3478286,0.56795394,0.52218443,1.2675222,0.817376,0.15670952,0.07987369,0.6180854,0.09637392,-0.038226634,-0.46768862,-0.024402414,809.0842,799.011,807.8755,817.5458,610.0366,-0.1729736328125,0.121337890625,0.9781494140625,9.667510986328125,0.949554443359375,7.663726806640625,1,1.0,1.0,1.0,1.0,10.00
2024-10-11 20:13:25.651,0.64234936,0.6647504,0.9833934,1.0616834,0.6147976,0.38038713,0.5068344,0.6977632,1.3478286,0.56795394,0.52218443,1.2675222,0.817376,0.15670952,0.07987369,0.6180854,0.09637392,-0.038226634,-0.46768862,-0.024402414,815.12823,799.011,807.0696,814.3223,634.61536,-0.1729736328125,0.121337890625,0.9781494140625,9.667510986328125,0.949554443359375,7.663726806640625,1,1.0,1.0,1.0,1.0,10.00
2024-10-11 20:13:25.651,0.64234936,0.6647504,0.9833934,1.0616834,0.6147976,0.38038713,0.5068344,0.6977632,1.3478286,0.56795394,0.52218443,1.2675222,0.817376,0.15670952,0.07987369,0.6180854,0.09637392,-0.038226634,-0.46768862,-0.024402414,807.47253,798.20514,799.81683,807.47253,857.8388,-0.1729736328125,0.121337890625,0.9781494140625,9.667510986328125,0.949554443359375,7.663726806640625,1,1.0,1.0,1.0,1.0,10.00
2024-10-11 20:13:25.653,0.64234936,0.6647504,0.9833934,1.0616834,0.6147976,0.38038713,0.5068344,0.6977632,1.3478286,0.56795394,0.52218443,1.2675222,0.817376,0.15670952,0.07987369,0.6180854,0.09637392,-0.038226634,-0.46768862,-0.024402414,803.44324,796.1905,798.60803,803.0403,772.8205,-0.1729736328125,0.121337890625,0.9781494140625,9.667510986328125,0.949554443359375,7.663726806640625,1,1.0,1.0,1.0,1.0,10.00
2024-10-11 20:13:25.654,0.64234936,0.6647504,0.9833934,1.0616834,0.6147976,0.38038713,0.5068344,0.6977632,1.3478286,0.56795394,0.52218443,1.2675222,0.817376,0.15670952,0.07987369,0.6180854,0.09637392,-0.038226634,-0.46768862,-0.024402414,812.3077,796.5934,803.44324,803.44324,556.4469,-0.1729736328125,0.121337890625,0.9781494140625,9.667510986328125,0.949554443359375,7.663726806640625,1,1.0,1.0,1.0,1.0,10.00
2024-10-11 20:13:25.655,0.64234936,0.6647504,0.9833934,1.0616834,0.6147976,0.38038713,0.5068344,0.6977632,1.3478286,0.56795394,0.52218443,1.2675222,0.817376,0.15670952,0.07987369,0.6180854,0.09637392,-0.038226634,-0.46768862,-0.024402414,813.5165,796.99634,805.4579,806.26373,714.3956,-0.1729736328125,0.121337890625,0.9781494140625,9.667510986328125,0.949554443359375,7.663726806640625,1,1.0,1.0,1.0,1.0,10.00
2024-10-11 20:13:25.657,0.64234936,0.6647504,0.9833934,1.0616834,0.6147976,0.38038713,0.5068344,0.6977632,1.3478286,0.56795394,0.52218443,1.2675222,0.817376,0.15670952,0.07987369,0.6180854,0.09637392,-0.038226634,-0.46768862,-0.024402414,803.44324,794.57874,802.23444,814.7253,1190.2565,-0.1729736328125,0.121337890625,0.9781494140625,9.667510986328125,0.949554443359375,7.663726806640625,1,1.0,1.0,1.0,1.0,10.00
2024-10-11 20:13:25.658,0.64234936,0.6647504,0.9833934,1.0616834,0.6147976,0.38038713,0.5068344,0.6977632,1.3478286,0.56795394,0.52218443,1.2675222,0.817376,0.15670952,0.07987369,0.6180854,0.09637392,-0.038226634,-0.46768862,-0.024402414,792.96704,793.7729,801.02563,812.71063,1205.9707,-0.1729736328125,0.121337890625,0.9781494140625,9.667510986328125,0.949554443359375,7.663726806640625,1,1.0,1.0,1.0,1.0,10.00
2024-10-11 20:13:25.660,0.64234936,0.6647504,0.9833934,1.0616834,0.6147976,0.38038713,0.5068344,0.6977632,1.3478286,0.56795394,0.52218443,1.2675222,0.817376,0.15670952,0.07987369,0.6180854,0.09637392,-0.038226634,-0.46768862,-0.024402414,792.96704,795.38464,801.8315,805.4579,719.6337,-0.1729736328125,0.121337890625,0.9781494140625,9.667510986328125,0.949554443359375,7.663726806640625,1,1.0,1.0,1.0,1.0,10.00
2024-10-11 20:13:25.661,0.64234936,0.6647504,0.9833934,1.0616834,0.6147976,0.38038713,0.5068344,0.6977632,1.3478286,0.56795394,0.52218443,1.2675222,0.817376,0.15670952,0.07987369,0.6180854,0.09637392,-0.038226634,-0.46768862,-0.024402414,793.36993,796.99634,804.2491,810.696,786.1172,-0.1729736328125,0.121337890625,0.9781494140625,9.667510986328125,0.949554443359375,7.663726806640625,1,1.0,1.0,1.0,1.0,10.00
2024-10-11 20:13:25.662,0.64234936,0.6647504,0.9833934,1.0616834,0.6147976,0.38038713,0.5068344,0.6977632,1.3478286,0.56795394,0.52218443,1.2675222,0.817376,0.15670952,0.07987369,0.6180854,0.09637392,-0.038226634,-0.46768862,-0.024402414,797.8022,793.7729,804.65204,813.5165,942.0513,-0.1729736328125,0.121337890625,0.9781494140625,9.667510986328125,0.949554443359375,7.663726806640625,1,1.0,1.0,1.0,1.0,10.00
2024-10-11 20:13:25.663,0.64234936,0.6647504,0.9833934,1.0616834,0.6147976,0.38038713,0.5068344,0.6977632,1.3478286,0.56795394,0.52218443,1.2675222,0.817376,0.15670952,0.07987369,0.6180854,0.09637392,-0.038226634,-0.46768862,-0.024402414,795.38464,792.5641,800.6227,807.0696,728.49817,-0.1729736328125,0.121337890625,0.9781494140625,9.667510986328125,0.949554443359375,7.663726806640625,1,1.0,1.0,1.0,1.0,10.00
2024-10-11 20:13:25.664,0.64234936,0.6647504,0.9833934,1.0616834,0.6147976,0.38038713,0.5068344,0.6977632,1.3478286,0.56795394,0.52218443,1.2675222,0.817376,0.15670952,0.07987369,0.6180854,0.09637392,-0.038226634,-0.46768862,-0.024402414,788.5348,793.36993,801.8315,803.0403,628.5714,-0.19921875,0.1473388671875,0.97991943359375,8.49365234375,-0.59814453125,7.245025634765625,1,1.0,1.0,1.0,1.0,10.00
2024-10-11 20:13:25.665,0.64234936,0.6647504,0.9833934,1.0616834,0.6147976,0.38038713,0.5068344,0.6977632,1.3478286,0.56795394,0.52218443,1.2675222,0.817376,0.15670952,0.07987369,0.6180854,0.09637392,-0.038226634,-0.46768862,-0.024402414,795.78754,794.17584,803.0403,810.696,740.989,-0.19921875,0.1473388671875,0.97991943359375,8.49365234375,-0.59814453125,7.245025634765625,1,1.0,1.0,1.0,1.0,10.00
2024-10-11 20:13:25.666,0.64234936,0.6647504,0.9833934,1.0616834,0.6147976,0.38038713,0.5068344,0.6977632,1.3478286,0.56795394,0.52218443,1.2675222,0.817376,0.15670952,0.07987369,0.6180854,0.09637392,-0.038226634,-0.46768862,-0.024402414,803.8461,795.38464,795.78754,815.9341,791.75824,-0.19921875,0.1473388671875,0.97991943359375,8.49365234375,-0.59814453125,7.245025634765625,1,1.0,1.0,1.0,1.0,10.00
2024-10-11 20:13:25.667,0.64234936,0.6647504,0.9833934,1.0616834,0.6147976,0.38038713,0.5068344,0.6977632,1.3478286,0.56795394,0.52218443,1.2675222,0.817376,0.15670952,0.07987369,0.6180854,0.09637392,-0.038226634,-0.46768862,-0.024402414,802.23444,782.8938,796.5934,811.0989,782.49084,-0.19921875,0.1473388671875,0.97991943359375,8.49365234375,-0.59814453125,7.245025634765625,1,1.0,1.0,1.0,1.0,10.00
2024-10-11 20:13:25.668,0.64234936,0.6647504,0.9833934,1.0616834,0.6147976,0.38038713,0.5068344,0.6977632,1.3478286,0.56795394,0.52218443,1.2675222,0.817376,0.15670952,0.07987369,0.6180854,0.09637392,-0.038226634,-0.46768862,-0.024402414,800.6227,788.5348,801.02563,805.05493,728.0952,-0.19921875,0.1473388671875,0.97991943359375,8.49365234375,-0.59814453125,7.245025634765625,1,1.0,1.0,1.0,1.0,10.00
2024-10-11 20:13:25.669,0.64234936,0.6647504,0.9833934,1.0616834,0.6147976,0.38038713,0.5068344,0.6977632,1.3478286,0.56795394,0.52218443,1.2675222,0.817376,0.15670952,0.07987369,0.6180854,0.09637392,-0.038226634,-0.46768862,-0.024402414,807.8755,805.4579,803.8461,804.2491,749.85345,-0.19921875,0.1473388671875,0.97991943359375,8.49365234375,-0.59814453125,7.245025634765625,1,1.0,1.0,1.0,1.0,10.00
2024-10-11 20:13:25.670,0.64234936,0.6647504,0.9833934,1.0616834,0.6147976,0.38038713,0.5068344,0.6977632,1.3478286,0.56795394,0.52218443,1.2675222,0.817376,0.15670952,0.07987369,0.6180854,0.09637392,-0.038226634,-0.46768862,-0.024402414,817.1429,802.23444,809.0842,803.8461,915.8608,-0.19921875,0.1473388671875,0.97991943359375,8.49365234375,-0.59814453125,7.245025634765625,1,1.0,1.0,1.0,1.0,10.00
2024-10-11 20:13:25.671,0.64234936,0.6647504,0.9833934,1.0616834,0.6147976,0.38038713,0.5068344,0.6977632,1.3478286,0.56795394,0.52218443,1.2675222,0.817376,0.15670952,0.07987369,0.6180854,0.09637392,-0.038226634,-0.46768862,-0.024402414,811.9048,799.41394,807.8755,796.99634,783.69965,-0.19921875,0.1473388671875,0.97991943359375,8.49365234375,-0.59814453125,7.245025634765625,1,1.0,1.0,1.0,1.0,10.00
2024-10-11 20:13:25.672,0.64234936,0.6647504,0.9833934,1.0616834,0.6147976,0.38038713,0.5068344,0.6977632,1.3478286,0.56795394,0.52218443,1.2675222,0.817376,0.15670952,0.07987369,0.6180854,0.09637392,-0.038226634,-0.46768862,-0.024402414,805.4579,800.6227,808.68134,798.20514,697.0696,-0.19921875,0.1473388671875,0.97991943359375,8.49365234375,-0.59814453125,7.245025634765625,1,1.0,1.0,1.0,1.0,10.00
2024-10-11 20:13:25.673,0.64234936,0.6647504,0.9833934,1.0616834,0.6147976,0.38038713,0.5068344,0.6977632,1.3478286,0.56795394,0.52218443,1.2675222,0.817376,0.15670952,0.07987369,0.6180854,0.09637392,-0.038226634,-0.46768862,-0.024402414,803.8461,798.60803,809.0842,802.23444,907.3993,-0.19921875,0.1473388671875,0.97991943359375,8.49365234375,-0.59814453125,7.245025634765625,1,1.0,1.0,1.0,1.0,10.00
2024-10-11 20:13:25.674,0.64234936,0.6647504,0.9833934,1.0616834,0.6147976,0.38038713,0.5068344,0.6977632,1.3478286,0.56795394,0.52218443,1.2675222,0.817376,0.15670952,0.07987369,0.6180854,0.09637392,-0.038226634,-0.46768862,-0.024402414,802.6374,798.60803,805.4579,803.44324,936.0073,-0.19921875,0.1473388671875,0.97991943359375,8.49365234375,-0.59814453125,7.245025634765625,1,1.0,1.0,1.0,1.0,10.00
2024-10-11 20:13:25.675,0.6555264,0.6965445,0.98434126,1.1147609,0.63945055,0.3952631,0.5201819,0.7793797,1.3478286,0.532139,0.5169241,1.2728713,0.81219894,0.17006785,0.08644296,0.62469286,0.09138664,-0.03953845,-0.46269807,-0.025205113,802.23444,796.1905,803.44324,800.2198,764.35895,-0.19921875,0.1473388671875,0.97991943359375,8.49365234375,-0.59814453125,7.245025634765625,1,1.0,1.0,1.0,1.0,10.00
2024-10-11 20:13:25.717,0.6555264,0.6965445,0.98434126,1.1147609,0.63945055,0.3952631,0.5201819,0.7793797,1.3478286,0.532139,0.5169241,1.2728713,0.81219894,0.17006785,0.08644296,0.62469286,0.09138664,-0.03953845,-0.46269807,-0.025205113,799.81683,796.5934,800.2198,800.6227,654.7619,-0.21307373046875,0.16717529296875,0.9989013671875,7.04315185546875,0.201873779296875,4.388885498046875,1,1.0,1.0,1.0,1.0,10.00
2024-10-11 20:13:25.718,0.6555264,0.6965445,0.98434126,1.1147609,0.63945055,0.3952631,0.5201819,0.7793797,1.3478286,0.532139,0.5169241,1.2728713,0.81219894,0.17006785,0.08644296,0.62469286,0.09138664,-0.03953845,-0.46269807,-0.025205113,801.8315,796.99634,796.99634,801.02563,732.1245,-0.21307373046875,0.16717529296875,0.9989013671875,7.04315185546875,0.201873779296875,4.388885498046875,1,1.0,1.0,1.0,1.0,10.00
2024-10-11 20:13:25.719,0.6555264,0.6965445,0.98434126,1.1147609,0.63945055,0.3952631,0.5201819,0.7793797,1.3478286,0.532139,0.5169241,1.2728713,0.81219894,0.17006785,0.08644296,0.62469286,0.09138664,-0.03953845,-0.46269807,-0.025205113,801.8315,795.78754,801.8315,795.38464,790.9524,-0.21307373046875,0.16717529296875,0.9989013671875,7.04315185546875,0.201873779296875,4.388885498046875,1,1.0,1.0,1.0,1.0,10.00
2024-10-11 20:13:25.720,0.6555264,0.6965445,0.98434126,1.1147609,0.63945055,0.3952631,0.5201819,0.7793797,1.3478286,0.532139,0.5169241,1.2728713,0.81219894,0.17006785,0.08644296,0.62469286,0.09138664,-0.03953845,-0.46269807,-0.025205113,803.44324,795.78754,799.011,799.41394,707.9487,-0.21307373046875,0.16717529296875,0.9989013671875,7.04315185546875,0.201873779296875,4.388885498046875,1,1.0,1.0,1.0,1.0,10.00
2024-10-11 20:13:25.721,0.6555264,0.6965445,0.98434126,1.1147609,0.63945055,0.3952631,0.5201819,0.7793797,1.3478286,0.532139,0.5169241,1.2728713,0.81219894,0.17006785,0.08644296,0.62469286,0.09138664,-0.03953845,-0.46269807,-0.025205113,805.05493,790.9524,801.8315,803.0403,668.86444,-0.21307373046875,0.16717529296875,0.9989013671875,7.04315185546875,0.201873779296875,4.388885498046875,1,1.0,1.0,1.0,1.0,10.00
2024-10-11 20:13:25.722,0.6555264,0.6965445,0.98434126,1.1147609,0.63945055,0.3952631,0.5201819,0.7793797,1.3478286,0.532139,0.5169241,1.2728713,0.81219894,0.17006785,0.08644296,0.62469286,0.09138664,-0.03953845,-0.46269807,-0.025205113,799.41394,791.3553,807.8755,811.50183,1091.1355,-0.21307373046875,0.16717529296875,0.9989013671875,7.04315185546875,0.201873779296875,4.388885498046875,1,1.0,1.0,1.0,1.0,10.00
2024-10-11 20:13:25.723,0.6555264,0.6965445,0.98434126,1.1147609,0.63945055,0.3952631,0.5201819,0.7793797,1.3478286,0.532139,0.5169241,1.2728713,0.81219894,0.17006785,0.08644296,0.62469286,0.09138664,-0.03953845,-0.46269807,-0.025205113,790.54944,793.36993,801.02563,811.9048,1324.4323,-0.21307373046875,0.16717529296875,0.9989013671875,7.04315185546875,0.201873779296875,4.388885498046875,1,1.0,1.0,1.0,1.0,10.00
2024-10-11 20:13:25.724,0.6555264,0.6965445,0.98434126,1.1147609,0.63945055,0.3952631,0.5201819,0.7793797,1.3478286,0.532139,0.5169241,1.2728713,0.81219894,0.17006785,0.08644296,0.62469286,0.09138664,-0.03953845,-0.46269807,-0.025205113,796.5934,793.36993,802.23444,803.44324,866.7033,-0.21307373046875,0.16717529296875,0.9989013671875,7.04315185546875,0.201873779296875,4.388885498046875,1,1.0,1.0,1.0,1.0,10.00
2024-10-11 20:13:25.725,0.6555264,0.6965445,0.98434126,1.1147609,0.63945055,0.3952631,0.5201819,0.7793797,1.3478286,0.532139,0.5169241,1.2728713,0.81219894,0.17006785,0.08644296,0.62469286,0.09138664,-0.03953845,-0.46269807,-0.025205113,803.0403,789.7436,805.4579,804.65204,716.0073,-0.21307373046875,0.16717529296875,0.9989013671875,7.04315185546875,0.201873779296875,4.388885498046875,1,1.0,1.0,1.0,1.0,10.00
2024-10-11 20:13:25.726,0.6555264,0.6965445,0.98434126,1.1147609,0.63945055,0.3952631,0.5201819,0.7793797,1.3478286,0.532139,0.5169241,1.2728713,0.81219894,0.17006785,0.08644296,0.62469286,0.09138664,-0.03953845,-0.46269807,-0.025205113,803.0403,789.7436,801.4286,807.8755,791.75824,-0.21307373046875,0.16717529296875,0.9989013671875,7.04315185546875,0.201873779296875,4.388885498046875,1,1.0,1.0,1.0,1.0,10.00
2024-10-11 20:13:25.727,0.6555264,0.6965445,0.98434126,1.1147609,0.63945055,0.3952631,0.5201819,0.7793797,1.3478286,0.532139,0.5169241,1.2728713,0.81219894,0.17006785,0.08644296,0.62469286,0.09138664,-0.03953845,-0.46269807,-0.025205113,808.2784,792.1612,801.02563,810.696,702.3077,-0.21307373046875,0.16717529296875,0.9989013671875,7.04315185546875,0.201873779296875,4.388885498046875,1,1.0,1.0,1.0,1.0,10.00
2024-10-11 20:13:25.728,0.6555264,0.6965445,0.98434126,1.1147609,0.63945055,0.3952631,0.5201819,0.7793797,1.3478286,0.532139,0.5169241,1.2728713,0.81219894,0.17006785,0.08644296,0.62469286,0.09138664,-0.03953845,-0.46269807,-0.025205113,809.89014,790.9524,801.02563,811.50183,696.6667,-0.21307373046875,0.16717529296875,0.9989013671875,7.04315185546875,0.201873779296875,4.388885498046875,1,1.0,1.0,1.0,1.0,10.00
2024-10-11 20:13:25.730,0.6555264,0.6965445,0.98434126,1.1147609,0.63945055,0.3952631,0.5201819,0.7793797,1.3478286,0.532139,0.5169241,1.2728713,0.81219894,0.17006785,0.08644296,0.62469286,0.09138664,-0.03953845,-0.46269807,-0.025205113,814.3223,796.99634,801.4286,822.7839,895.7143,-0.208251953125,0.1817626953125,0.9844970703125,5.585174560546875,-0.306549072265625,2.49725341796875,1,1.0,1.0,1.0,1.0,10.00
2024-10-11 20:13:25.731,0.6555264,0.6965445,0.98434126,1.1147609,0.63945055,0.3952631,0.5201819,0.7793797,1.3478286,0.532139,0.5169241,1.2728713,0.81219894,0.17006785,0.08644296,0.62469286,0.09138664,-0.03953845,-0.46269807,-0.025205113,815.5311,799.81683,805.4579,820.7692,880.80585,-0.208251953125,0.1817626953125,0.9844970703125,5.585174560546875,-0.306549072265625,2.49725341796875,1,1.0,1.0,1.0,1.0,10.00
2024-10-11 20:13:25.733,0.6555264,0.6965445,0.98434126,1.1147609,0.63945055,0.3952631,0.5201819,0.7793797,1.3478286,0.532139,0.5169241,1.2728713,0.81219894,0.17006785,0.08644296,0.62469286,0.09138664,-0.03953845,-0.46269807,-0.025205113,814.3223,794.9817,802.6374,807.47253,571.75824,-0.208251953125,0.1817626953125,0.9844970703125,5.585174560546875,-0.306549072265625,2.49725341796875,1,1.0,1.0,1.0,1.0,10.00
2024-10-11 20:13:25.734,0.6555264,0.6965445,0.98434126,1.1147609,0.63945055,0.3952631,0.5201819,0.7793797,1.3478286,0.532139,0.5169241,1.2728713,0.81219894,0.17006785,0.08644296,0.62469286,0.09138664,-0.03953845,-0.46269807,-0.025205113,816.7399,799.41394,800.6227,809.4872,599.15753,-0.208251953125,0.1817626953125,0.9844970703125,5.585174560546875,-0.306549072265625,2.49725341796875,1,1.0,1.0,1.0,1.0,10.00
2024-10-11 20:13:25.735,0.6555264,0.6965445,0.98434126,1.1147609,0.63945055,0.3952631,0.5201819,0.7793797,1.3478286,0.532139,0.5169241,1.2728713,0.81219894,0.17006785,0.08644296,0.62469286,0.09138664,-0.03953845,-0.46269807,-0.025205113,809.4872,803.44324,793.36993,807.47253,739.3773,-0.208251953125,0.1817626953125,0.9844970703125,5.585174560546875,-0.306549072265625,2.49725341796875,1,1.0,1.0,1.0,1.0,10.00
2024-10-11 20:13:25.735,0.6555264,0.6965445,0.98434126,1.1147609,0.63945055,0.3952631,0.5201819,0.7793797,1.3478286,0.532139,0.5169241,1.2728713,0.81219894,0.17006785,0.08644296,0.62469286,0.09138664,-0.03953845,-0.46269807,-0.025205113,802.23444,796.5934,789.34064,797.8022,744.21246,-0.208251953125,0.1817626953125,0.9844970703125,5.585174560546875,-0.306549072265625,2.49725341796875,1,1.0,1.0,1.0,1.0,10.00
2024-10-11 20:13:25.736,0.6555264,0.6965445,0.98434126,1.1147609,0.63945055,0.3952631,0.5201819,0.7793797,1.3478286,0.532139,0.5169241,1.2728713,0.81219894,0.17006785,0.08644296,0.62469286,0.09138664,-0.03953845,-0.46269807,-0.025205113,799.41394,793.7729,794.9817,790.54944,790.9524,-0.208251953125,0.1817626953125,0.9844970703125,5.585174560546875,-0.306549072265625,2.49725341796875,1,1.0,1.0,1.0,1.0,10.00
2024-10-11 20:13:25.737,0.6555264,0.6965445,0.98434126,1.1147609,0.63945055,0.3952631,0.5201819,0.7793797,1.3478286,0.532139,0.5169241,1.2728713,0.81219894,0.17006785,0.08644296,0.62469286,0.09138664,-0.03953845,-0.46269807,-0.025205113,804.2491,796.5934,796.99634,794.9817,691.02563,-0.208251953125,0.1817626953125,0.9844970703125,5.585174560546875,-0.306549072265625,2.49725341796875,1,1.0,1.0,1.0,1.0,10.00
2024-10-11 20:13:25.738,0.6555264,0.6965445,0.98434126,1.1147609,0.63945055,0.3952631,0.5201819,0.7793797,1.3478286,0.532139,0.5169241,1.2728713,0.81219894,0.17006785,0.08644296,0.62469286,0.09138664,-0.03953845,-0.46269807,-0.025205113,805.05493,794.57874,796.5934,798.60803,823.9927,-0.208251953125,0.1817626953125,0.9844970703125,5.585174560546875,-0.306549072265625,2.49725341796875,1,1.0,1.0,1.0,1.0,10.00
2024-10-11 20:13:25.738,0.6555264,0.6965445,0.98434126,1.1147609,0.63945055,0.3952631,0.5201819,0.7793797,1.3478286,0.532139,0.5169241,1.2728713,0.81219894,0.17006785,0.08644296,0.62469286,0.09138664,-0.03953845,-0.46269807,-0.025205113,801.02563,796.1905,792.96704,800.2198,868.71796,-0.208251953125,0.1817626953125,0.9844970703125,5.585174560546875,-0.306549072265625,2.49725341796875,1,1.0,1.0,1.0,1.0,10.00
2024-10-11 20:13:25.739,0.6555264,0.6965445,0.98434126,1.1147609,0.63945055,0.3952631,0.5201819,0.7793797,1.3478286,0.532139,0.5169241,1.2728713,0.81219894,0.17006785,0.08644296,0.62469286,0.09138664,-0.03953845,-0.46269807,-0.025205113,799.011,795.78754,794.17584,799.81683,660.0,-0.208251953125,0.1817626953125,0.9844970703125,5.585174560546875,-0.306549072265625,2.49725341796875,1,1.0,1.0,1.0,1.0,10.00
2024-10-11 20:13:25.740,0.6555264,0.6965445,0.98434126,1.1147609,0.63945055,0.3952631,0.5201819,0.7793797,1.3478286,0.532139,0.5169241,1.2728713,0.81219894,0.17006785,0.08644296,0.62469286,0.09138664,-0.03953845,-0.46269807,-0.025205113,794.17584,794.57874,803.0403,800.6227,722.4542,-0.208251953125,0.1817626953125,0.9844970703125,5.585174560546875,-0.306549072265625,2.49725341796875,1,1.0,1.0,1.0,1.0,10.00
2024-10-11 20:13:25.760,0.6555264,0.6965445,0.98434126,1.1147609,0.63945055,0.3952631,0.5201819,0.7793797,1.3478286,0.532139,0.5169241,1.2728713,0.81219894,0.17006785,0.08644296,0.62469286,0.09138664,-0.03953845,-0.46269807,-0.025205113,794.57874,800.6227,805.05493,803.0403,863.8828,-0.208251953125,0.1817626953125,0.9844970703125,5.585174560546875,-0.306549072265625,2.49725341796875,1,1.0,1.0,1.0,1.0,10.00
2024-10-11 20:13:25.761,0.6717637,0.71610177,0.9835683,1.1541264,0.66735584,0.4048644,0.5306609,0.8316005,1.3478286,0.4893349,0.5137243,1.2728713,0.8116985,0.17287716,0.08853775,0.62481844,0.08846198,-0.049234748,-0.4702063,-0.03520607,798.20514,802.23444,802.6374,802.23444,921.0989,-0.208251953125,0.1817626953125,0.9844970703125,5.585174560546875,-0.306549072265625,2.49725341796875,1,1.0,1.0,1.0,1.0,10.00
2024-10-11 20:13:25.765,0.6717637,0.71610177,0.9835683,1.1541264,0.66735584,0.4048644,0.5306609,0.8316005,1.3478286,0.4893349,0.5137243,1.2728713,0.8116985,0.17287716,0.08853775,0.62481844,0.08846198,-0.049234748,-0.4702063,-0.03520607,799.011,795.38464,804.2491,801.4286,831.6484,-0.208251953125,0.1817626953125,0.9844970703125,5.585174560546875,-0.306549072265625,2.49725341796875,1,1.0,1.0,1.0,1.0,10.00
2024-10-11 20:13:25.766,0.6717637,0.71610177,0.9835683,1.1541264,0.66735584,0.4048644,0.5306609,0.8316005,1.3478286,0.4893349,0.5137243,1.2728713,0.8116985,0.17287716,0.08853775,0.62481844,0.08846198,-0.049234748,-0.4702063,-0.03520607,799.81683,794.9817,805.4579,799.41394,809.0842,-0.208251953125,0.1817626953125,0.9844970703125,5.585174560546875,-0.306549072265625,2.49725341796875,1,1.0,1.0,1.0,1.0,10.00
2024-10-11 20:13:25.766,0.6717637,0.71610177,0.9835683,1.1541264,0.66735584,0.4048644,0.5306609,0.8316005,1.3478286,0.4893349,0.5137243,1.2728713,0.8116985,0.17287716,0.08853775,0.62481844,0.08846198,-0.049234748,-0.4702063,-0.03520607,799.011,801.4286,803.0403,802.23444,1136.6666,-0.208251953125,0.1817626953125,0.9844970703125,5.585174560546875,-0.306549072265625,2.49725341796875,1,1.0,1.0,1.0,1.0,10.00
2024-10-11 20:13:25.767,0.6717637,0.71610177,0.9835683,1.1541264,0.66735584,0.4048644,0.5306609,0.8316005,1.3478286,0.4893349,0.5137243,1.2728713,0.8116985,0.17287716,0.08853775,0.62481844,0.08846198,-0.049234748,-0.4702063,-0.03520607,814.7253,796.1905,801.02563,814.7253,1183.8096,-0.208251953125,0.1817626953125,0.9844970703125,5.585174560546875,-0.306549072265625,2.49725341796875,1,1.0,1.0,1.0,1.0,10.00
2024-10-11 20:13:25.768,0.6717637,0.71610177,0.9835683,1.1541264,0.66735584,0.4048644,0.5306609,0.8316005,1.3478286,0.4893349,0.5137243,1.2728713,0.8116985,0.17287716,0.08853775,0.62481844,0.08846198,-0.049234748,-0.4702063,-0.03520607,809.0842,792.96704,799.81683,805.05493,781.28204,-0.208251953125,0.1817626953125,0.9844970703125,5.585174560546875,-0.306549072265625,2.49725341796875,1,1.0,1.0,1.0,1.0,10.00
2024-10-11 20:13:25.768,0.6717637,0.71610177,0.9835683,1.1541264,0.66735584,0.4048644,0.5306609,0.8316005,1.3478286,0.4893349,0.5137243,1.2728713,0.8116985,0.17287716,0.08853775,0.62481844,0.08846198,-0.049234748,-0.4702063,-0.03520607,776.4469,800.2198,800.2198,782.49084,699.89014,-0.208251953125,0.1817626953125,0.9844970703125,5.585174560546875,-0.306549072265625,2.49725341796875,1,1.0,1.0,1.0,1.0,10.00
2024-10-11 20:13:25.769,0.6717637,0.71610177,0.9835683,1.1541264,0.66735584,0.4048644,0.5306609,0.8316005,1.3478286,0.4893349,0.5137243,1.2728713,0.8116985,0.17287716,0.08853775,0.62481844,0.08846198,-0.049234748,-0.4702063,-0.03520607,781.685,796.99634,802.6374,793.7729,976.7033,-0.208251953125,0.1817626953125,0.9844970703125,5.585174560546875,-0.306549072265625,2.49725341796875,1,1.0,1.0,1.0,1.0,10.00
2024-10-11 20:13:25.769,0.6717637,0.71610177,0.9835683,1.1541264,0.66735584,0.4048644,0.5306609,0.8316005,1.3478286,0.4893349,0.5137243,1.2728713,0.8116985,0.17287716,0.08853775,0.62481844,0.08846198,-0.049234748,-0.4702063,-0.03520607,784.10254,791.75824,805.05493,797.8022,946.4835,-0.208251953125,0.1817626953125,0.9844970703125,5.585174560546875,-0.306549072265625,2.49725341796875,1,1.0,1.0,1.0,1.0,10.00
2024-10-11 20:13:25.769,0.6717637,0.71610177,0.9835683,1.1541264,0.66735584,0.4048644,0.5306609,0.8316005,1.3478286,0.4893349,0.5137243,1.2728713,0.8116985,0.17287716,0.08853775,0.62481844,0.08846198,-0.049234748,-0.4702063,-0.03520607,788.5348,797.3993,801.02563,787.72894,731.7216,-0.208251953125,0.1817626953125,0.9844970703125,5.585174560546875,-0.306549072265625,2.49725341796875,1,1.0,1.0,1.0,1.0,10.00
2024-10-11 20:13:25.770,0.6717637,0.71610177,0.9835683,1.1541264,0.66735584,0.4048644,0.5306609,0.8316005,1.3478286,0.4893349,0.5137243,1.2728713,0.8116985,0.17287716,0.08853775,0.62481844,0.08846198,-0.049234748,-0.4702063,-0.03520607,792.1612,791.75824,796.99634,788.93774,828.4249,-0.208251953125,0.1817626953125,0.9844970703125,5.585174560546875,-0.306549072265625,2.49725341796875,1,1.0,1.0,1.0,1.0,10.00
2024-10-11 20:13:25.897,0.6717637,0.71610177,0.9835683,1.1541264,0.66735584,0.4048644,0.5306609,0.8316005,1.3478286,0.4893349,0.5137243,1.2728713,0.8116985,0.17287716,0.08853775,0.62481844,0.08846198,-0.049234748,-0.4702063,-0.03520607,777.6557,785.31134,803.44324,794.57874,856.63007,-0.20623779296875,0.17401123046875,0.969482421875,1.86920166015625,-0.426177978515625,1.472930908203125,1,1.0,1.0,1.0,1.0,10.00
2024-10-11 20:13:25.897,0.6717637,0.71610177,0.9835683,1.1541264,0.66735584,0.4048644,0.5306609,0.8316005,1.3478286,0.4893349,0.5137243,1.2728713,0.8116985,0.17287716,0.08853775,0.62481844,0.08846198,-0.049234748,-0.4702063,-0.03520607,785.31134,788.93774,813.91943,803.0403,784.10254,-0.20623779296875,0.17401123046875,0.969482421875,1.86920166015625,-0.426177978515625,1.472930908203125,1,1.0,1.0,1.0,1.0,10.00
2024-10-11 20:13:25.898,0.6717637,0.71610177,0.9835683,1.1541264,0.66735584,0.4048644,0.5306609,0.8316005,1.3478286,0.4893349,0.5137243,1.2728713,0.8116985,0.17287716,0.08853775,0.62481844,0.08846198,-0.049234748,-0.4702063,-0.03520607,797.8022,789.7436,817.5458,808.68134,806.6667,-0.20623779296875,0.17401123046875,0.969482421875,1.86920166015625,-0.426177978515625,1.472930908203125,1,1.0,1.0,1.0,1.0,10.00
2024-10-11 20:13:25.899,0.6717637,0.71610177,0.9835683,1.1541264,0.66735584,0.4048644,0.5306609,0.8316005,1.3478286,0.4893349,0.5137243,1.2728713,0.8116985,0.17287716,0.08853775,0.62481844,0.08846198,-0.049234748,-0.4702063,-0.03520607,801.8315,794.57874,813.1135,807.8755,788.93774,-0.20623779296875,0.17401123046875,0.969482421875,1.86920166015625,-0.426177978515625,1.472930908203125,1,1.0,1.0,1.0,1.0,10.00
2024-10-11 20:13:25.899,0.6717637,0.71610177,0.9835683,1.1541264,0.66735584,0.4048644,0.5306609,0.8316005,1.3478286,0.4893349,0.5137243,1.2728713,0.8116985,0.17287716,0.08853775,0.62481844,0.08846198,-0.049234748,-0.4702063,-0.03520607,805.8608,796.5934,811.50183,807.47253,812.3077,-0.20623779296875,0.17401123046875,0.969482421875,1.86920166015625,-0.426177978515625,1.472930908203125,1,1.0,1.0,1.0,1.0,10.00
2024-10-11 20:13:25.899,0.6717637,0.71610177,0.9835683,1.1541264,0.66735584,0.4048644,0.5306609,0.8316005,1.3478286,0.4893349,0.5137243,1.2728713,0.8116985,0.17287716,0.08853775,0.62481844,0.08846198,-0.049234748,-0.4702063,-0.03520607,805.8608,794.17584,808.68134,809.0842,822.7839,-0.20623779296875,0.17401123046875,0.969482421875,1.86920166015625,-0.426177978515625,1.472930908203125,1,1.0,1.0,1.0,1.0,10.00
2024-10-11 20:13:25.900,0.6717637,0.71610177,0.9835683,1.1541264,0.66735584,0.4048644,0.5306609,0.8316005,1.3478286,0.4893349,0.5137243,1.2728713,0.8116985,0.17287716,0.08853775,0.62481844,0.08846198,-0.049234748,-0.4702063,-0.03520607,806.26373,793.36993,807.0696,807.47253,866.30035,-0.20623779296875,0.17401123046875,0.969482421875,1.86920166015625,-0.426177978515625,1.472930908203125,1,1.0,1.0,1.0,1.0,10.00
2024-10-11 20:13:25.900,0.6717637,0.71610177,0.9835683,1.1541264,0.66735584,0.4048644,0.5306609,0.8316005,1.3478286,0.4893349,0.5137243,1.2728713,0.8116985,0.17287716,0.08853775,0.62481844,0.08846198,-0.049234748,-0.4702063,-0.03520607,807.8755,796.1905,807.8755,809.4872,1014.57874,-0.20623779296875,0.17401123046875,0.969482421875,1.86920166015625,-0.426177978515625,1.472930908203125,1,1.0,1.0,1.0,1.0,10.00
2024-10-11 20:13:25.901,0.6717637,0.71610177,0.9835683,1.1541264,0.66735584,0.4048644,0.5306609,0.8316005,1.3478286,0.4893349,0.5137243,1.2728713,0.8116985,0.17287716,0.08853775,0.62481844,0.08846198,-0.049234748,-0.4702063,-0.03520607,807.8755,794.57874,804.65204,808.68134,894.5055,-0.20623779296875,0.17401123046875,0.969482421875,1.86920166015625,-0.426177978515625,1.472930908203125,1,1.0,1.0,1.0,1.0,10.00
2024-10-11 20:13:25.902,0.6717637,0.71610177,0.9835683,1.1541264,0.66735584,0.4048644,0.5306609,0.8316005,1.3478286,0.4893349,0.5137243,1.2728713,0.8116985,0.17287716,0.08853775,0.62481844,0.08846198,-0.049234748,-0.4702063,-0.03520607,804.65204,788.1319,803.44324,803.8461,809.0842,-0.20623779296875,0.17401123046875,0.969482421875,1.86920166015625,-0.426177978515625,1.472930908203125,1,1.0,1.0,1.0,1.0,10.00
2024-10-11 20:13:25.902,0.6717637,0.71610177,0.9835683,1.1541264,0.66735584,0.4048644,0.5306609,0.8316005,1.3478286,0.4893349,0.5137243,1.2728713,0.8116985,0.17287716,0.08853775,0.62481844,0.08846198,-0.049234748,-0.4702063,-0.03520607,803.0403,790.9524,802.6374,807.8755,853.00366,-0.20623779296875,0.17401123046875,0.969482421875,1.86920166015625,-0.426177978515625,1.472930908203125,1,1.0,1.0,1.0,1.0,10.00
2024-10-11 20:13:25.903,0.6717637,0.71610177,0.9835683,1.1541264,0.66735584,0.4048644,0.5306609,0.8316005,1.3478286,0.4893349,0.5137243,1.2728713,0.8116985,0.17287716,0.08853775,0.62481844,0.08846198,-0.049234748,-0.4702063,-0.03520607,801.4286,791.3553,803.8461,809.4872,873.5531,-0.20623779296875,0.17401123046875,0.969482421875,1.86920166015625,-0.426177978515625,1.472930908203125,1,1.0,1.0,1.0,1.0,10.00
2024-10-11 20:13:25.903,0.6717637,0.71610177,0.9835683,1.1541264,0.66735584,0.4048644,0.5306609,0.8316005,1.3478286,0.4893349,0.5137243,1.2728713,0.8116985,0.17287716,0.08853775,0.62481844,0.08846198,-0.049234748,-0.4702063,-0.03520607,800.6227,794.57874,805.4579,799.41394,810.293,-0.21429443359375,0.15667724609375,0.96563720703125,0.61309814453125,-0.306549072265625,1.263580322265625,1,1.0,1.0,1.0,1.0,10.00
2024-10-11 20:13:25.904,0.6717637,0.71610177,0.9835683,1.1541264,0.66735584,0.4048644,0.5306609,0.8316005,1.3478286,0.4893349,0.5137243,1.2728713,0.8116985,0.17287716,0.08853775,0.62481844,0.08846198,-0.049234748,-0.4702063,-0.03520607,795.78754,800.6227,803.8461,790.9524,699.89014,-0.21429443359375,0.15667724609375,0.96563720703125,0.61309814453125,-0.306549072265625,1.263580322265625,1,1.0,1.0,1.0,1.0,10.00
2024-10-11 20:13:25.904,0.6717637,0.71610177,0.9835683,1.1541264,0.66735584,0.4048644,0.5306609,0.8316005,1.3478286,0.4893349,0.5137243,1.2728713,0.8116985,0.17287716,0.08853775,0.62481844,0.08846198,-0.049234748,-0.4702063,-0.03520607,794.9817,801.8315,803.44324,790.54944,702.71063,-0.21429443359375,0.15667724609375,0.96563720703125,0.61309814453125,-0.306549072265625,1.263580322265625,1,1.0,1.0,1.0,1.0,10.00
2024-10-11 20:13:25.905,0.6957342,0.72596544,0.9829022,1.1771418,0.69904894,0.41025832,0.53493863,0.8527258,1.3478286,0.46783295,0.5137243,1.2728713,0.8201705,0.17073236,0.09092661,0.61757475,0.0906216,-0.070915245,-0.483778,-0.05413822,801.8315,796.1905,800.6227,791.75824,826.8132,-0.21429443359375,0.15667724609375,0.96563720703125,0.61309814453125,-0.306549072265625,1.263580322265625,1,1.0,1.0,1.0,1.0,10.00
2024-10-11 20:13:25.909,0.6957342,0.72596544,0.9829022,1.1771418,0.69904894,0.41025832,0.53493863,0.8527258,1.3478286,0.46783295,0.5137243,1.2728713,0.8201705,0.17073236,0.09092661,0.61757475,0.0906216,-0.070915245,-0.483778,-0.05413822,794.17584,790.54944,797.8022,788.93774,812.71063,-0.21429443359375,0.15667724609375,0.96563720703125,0.61309814453125,-0.306549072265625,1.263580322265625,1,1.0,1.0,1.0,1.0,10.00
2024-10-11 20:13:25.910,0.6957342,0.72596544,0.9829022,1.1771418,0.69904894,0.41025832,0.53493863,0.8527258,1.3478286,0.46783295,0.5137243,1.2728713,0.8201705,0.17073236,0.09092661,0.61757475,0.0906216,-0.070915245,-0.483778,-0.05413822,796.1905,797.8022,801.02563,785.7143,826.8132,-0.21429443359375,0.15667724609375,0.96563720703125,0.61309814453125,-0.306549072265625,1.263580322265625,1,1.0,1.0,1.0,1.0,10.00
2024-10-11 20:13:25.910,0.6957342,0.72596544,0.9829022,1.1771418,0.69904894,0.41025832,0.53493863,0.8527258,1.3478286,0.46783295,0.5137243,1.2728713,0.8201705,0.17073236,0.09092661,0.61757475,0.0906216,-0.070915245,-0.483778,-0.05413822,804.65204,803.0403,804.2491,790.54944,1014.9817,-0.21429443359375,0.15667724609375,0.96563720703125,0.61309814453125,-0.306549072265625,1.263580322265625,1,1.0,1.0,1.0,1.0,10.00
2024-10-11 20:13:25.911,0.6957342,0.72596544,0.9829022,1.1771418,0.69904894,0.41025832,0.53493863,0.8527258,1.3478286,0.46783295,0.5137243,1.2728713,0.8201705,0.17073236,0.09092661,0.61757475,0.0906216,-0.070915245,-0.483778,-0.05413822,803.0403,794.9817,803.8461,790.9524,979.12085,-0.21429443359375,0.15667724609375,0.96563720703125,0.61309814453125,-0.306549072265625,1.263580322265625,1,1.0,1.0,1.0,1.0,10.00
2024-10-11 20:13:25.911,0.6957342,0.72596544,0.9829022,1.1771418,0.69904894,0.41025832,0.53493863,0.8527258,1.3478286,0.46783295,0.5137243,1.2728713,0.8201705,0.17073236,0.09092661,0.61757475,0.0906216,-0.070915245,-0.483778,-0.05413822,801.8315,797.8022,807.0696,792.5641,877.1795,-0.21429443359375,0.15667724609375,0.96563720703125,0.61309814453125,-0.306549072265625,1.263580322265625,1,1.0,1.0,1.0,1.0,10.00
2024-10-11 20:13:25.911,0.6957342,0.72596544,0.9829022,1.1771418,0.69904894,0.41025832,0.53493863,0.8527258,1.3478286,0.46783295,0.5137243,1.2728713,0.8201705,0.17073236,0.09092661,0.61757475,0.0906216,-0.070915245,-0.483778,-0.05413822,807.47253,805.05493,806.26373,801.8315,733.73627,-0.21429443359375,0.15667724609375,0.96563720703125,0.61309814453125,-0.306549072265625,1.263580322265625,1,1.0,1.0,1.0,1.0,10.00
2024-10-11 20:13:25.912,0.6957342,0.72596544,0.9829022,1.1771418,0.69904894,0.41025832,0.53493863,0.8527258,1.3478286,0.46783295,0.5137243,1.2728713,0.8201705,0.17073236,0.09092661,0.61757475,0.0906216,-0.070915245,-0.483778,-0.05413822,814.7253,806.26373,803.0403,810.293,796.1905,-0.21429443359375,0.15667724609375,0.96563720703125,0.61309814453125,-0.306549072265625,1.263580322265625,1,1.0,1.0,1.0,1.0,10.00
2024-10-11 20:13:25.912,0.6957342,0.72596544,0.9829022,1.1771418,0.69904894,0.41025832,0.53493863,0.8527258,1.3478286,0.46783295,0.5137243,1.2728713,0.8201705,0.17073236,0.09092661,0.61757475,0.0906216,-0.070915245,-0.483778,-0.05413822,813.91943,804.2491,804.2491,815.5311,998.86444,-0.21429443359375,0.15667724609375,0.96563720703125,0.61309814453125,-0.306549072265625,1.263580322265625,1,1.0,1.0,1.0,1.0,10.00
2024-10-11 20:13:25.913,0.6957342,0.72596544,0.9829022,1.1771418,0.69904894,0.41025832,0.53493863,0.8527258,1.3478286,0.46783295,0.5137243,1.2728713,0.8201705,0.17073236,0.09092661,0.61757475,0.0906216,-0.070915245,-0.483778,-0.05413822,811.0989,799.81683,801.02563,811.0989,810.696,-0.20831298828125,0.166259765625,0.96331787109375,2.295379638671875,-1.55517578125,0.76263427734375,1,1.0,1.0,1.0,1.0,10.00
2024-10-11 20:13:25.914,0.6957342,0.72596544,0.9829022,1.1771418,0.69904894,0.41025832,0.53493863,0.8527258,1.3478286,0.46783295,0.5137243,1.2728713,0.8201705,0.17073236,0.09092661,0.61757475,0.0906216,-0.070915245,-0.483778,-0.05413822,811.50183,799.41394,797.3993,811.9048,710.3663,-0.20831298828125,0.166259765625,0.96331787109375,2.295379638671875,-1.55517578125,0.76263427734375,1,1.0,1.0,1.0,1.0,10.00
2024-10-11 20:13:25.914,0.6957342,0.72596544,0.9829022,1.1771418,0.69904894,0.41025832,0.53493863,0.8527258,1.3478286,0.46783295,0.5137243,1.2728713,0.8201705,0.17073236,0.09092661,0.61757475,0.0906216,-0.070915245,-0.483778,-0.05413822,808.2784,794.9817,800.2198,817.5458,910.2198,-0.20831298828125,0.166259765625,0.96331787109375,2.295379638671875,-1.55517578125,0.76263427734375,1,1.0,1.0,1.0,1.0,10.00
2024-10-11 20:13:25.915,0.6957342,0.72596544,0.9829022,1.1771418,0.69904894,0.41025832,0.53493863,0.8527258,1.3478286,0.46783295,0.5137243,1.2728713,0.8201705,0.17073236,0.09092661,0.61757475,0.0906216,-0.070915245,-0.483778,-0.05413822,812.71063,794.57874,800.6227,815.5311,956.55676,-0.20831298828125,0.166259765625,0.96331787109375,2.295379638671875,-1.55517578125,0.76263427734375,1,1.0,1.0,1.0,1.0,10.00
2024-10-11 20:13:25.915,0.6957342,0.72596544,0.9829022,1.1771418,0.69904894,0.41025832,0.53493863,0.8527258,1.3478286,0.46783295,0.5137243,1.2728713,0.8201705,0.17073236,0.09092661,0.61757475,0.0906216,-0.070915245,-0.483778,-0.05413822,810.293,799.41394,802.6374,813.5165,752.27106,-0.20831298828125,0.166259765625,0.96331787109375,2.295379638671875,-1.55517578125,0.76263427734375,1,1.0,1.0,1.0,1.0,10.00
2024-10-11 20:13:25.916,0.6957342,0.72596544,0.9829022,1.1771418,0.69904894,0.41025832,0.53493863,0.8527258,1.3478286,0.46783295,0.5137243,1.2728713,0.8201705,0.17073236,0.09092661,0.61757475,0.0906216,-0.070915245,-0.483778,-0.05413822,803.44324,796.1905,805.8608,811.0989,655.16486,-0.20831298828125,0.166259765625,0.96331787109375,2.295379638671875,-1.55517578125,0.76263427734375,1,1.0,1.0,1.0,1.0,10.00
2024-10-11 20:13:25.916,0.6957342,0.72596544,0.9829022,1.1771418,0.69904894,0.41025832,0.53493863,0.8527258,1.3478286,0.46783295,0.5137243,1.2728713,0.8201705,0.17073236,0.09092661,0.61757475,0.0906216,-0.070915245,-0.483778,-0.05413822,805.4579,795.38464,803.44324,817.5458,945.6777,-0.20831298828125,0.166259765625,0.96331787109375,2.295379638671875,-1.55517578125,0.76263427734375,1,1.0,1.0,1.0,1.0,10.00
2024-10-11 20:13:25.917,0.6957342,0.72596544,0.9829022,1.1771418,0.69904894,0.41025832,0.53493863,0.8527258,1.3478286,0.46783295,0.5137243,1.2728713,0.8201705,0.17073236,0.09092661,0.61757475,0.0906216,-0.070915245,-0.483778,-0.05413822,801.4286,800.2198,803.8461,826.4103,1021.8315,-0.20831298828125,0.166259765625,0.96331787109375,2.295379638671875,-1.55517578125,0.76263427734375,1,1.0,1.0,1.0,1.0,10.00
2024-10-11 20:13:25.918,0.6957342,0.72596544,0.9829022,1.1771418,0.69904894,0.41025832,0.53493863,0.8527258,1.3478286,0.46783295,0.5137243,1.2728713,0.8201705,0.17073236,0.09092661,0.61757475,0.0906216,-0.070915245,-0.483778,-0.05413822,801.8315,804.65204,807.0696,818.7546,703.5165,-0.20831298828125,0.166259765625,0.96331787109375,2.295379638671875,-1.55517578125,0.76263427734375,1,1.0,1.0,1.0,1.0,10.00
2024-10-11 20:13:25.918,0.6957342,0.72596544,0.9829022,1.1771418,0.69904894,0.41025832,0.53493863,0.8527258,1.3478286,0.46783295,0.5137243,1.2728713,0.8201705,0.17073236,0.09092661,0.61757475,0.0906216,-0.070915245,-0.483778,-0.05413822,800.6227,800.2198,806.6667,813.91943,678.5348,-0.20831298828125,0.166259765625,0.96331787109375,2.295379638671875,-1.55517578125,0.76263427734375,1,1.0,1.0,1.0,1.0,10.00
2024-10-11 20:13:25.919,0.6957342,0.72596544,0.9829022,1.1771418,0.69904894,0.41025832,0.53493863,0.8527258,1.3478286,0.46783295,0.5137243,1.2728713,0.8201705,0.17073236,0.09092661,0.61757475,0.0906216,-0.070915245,-0.483778,-0.05413822,797.3993,794.57874,804.65204,821.978,862.27106,-0.20831298828125,0.166259765625,0.96331787109375,2.295379638671875,-1.55517578125,0.76263427734375,1,1.0,1.0,1.0,1.0,10.00
2024-10-11 20:13:25.919,0.6957342,0.72596544,0.9829022,1.1771418,0.69904894,0.41025832,0.53493863,0.8527258,1.3478286,0.46783295,0.5137243,1.2728713,0.8201705,0.17073236,0.09092661,0.61757475,0.0906216,-0.070915245,-0.483778,-0.05413822,803.44324,791.75824,801.4286,821.1722,965.42126,-0.20831298828125,0.166259765625,0.96331787109375,2.295379638671875,-1.55517578125,0.76263427734375,1,1.0,1.0,1.0,1.0,10.00
2024-10-11 20:13:25.997,0.6957342,0.72596544,0.9829022,1.1771418,0.69904894,0.41025832,0.53493863,0.8527258,1.3478286,0.46783295,0.5137243,1.2728713,0.8201705,0.17073236,0.09092661,0.61757475,0.0906216,-0.070915245,-0.483778,-0.05413822,804.65204,793.7729,799.81683,816.337,781.685,-0.2052001953125,0.1759033203125,0.98260498046875,1.495361328125,-2.61688232421875,-1.6448974609375,1,1.0,1.0,1.0,1.0,10.00
2024-10-11 20:13:25.998,0.6957342,0.72596544,0.9829022,1.1771418,0.69904894,0.41025832,0.53493863,0.8527258,1.3478286,0.46783295,0.5137243,1.2728713,0.8201705,0.17073236,0.09092661,0.61757475,0.0906216,-0.070915245,-0.483778,-0.05413822,805.4579,797.3993,800.6227,813.5165,632.1978,-0.2052001953125,0.1759033203125,0.98260498046875,1.495361328125,-2.61688232421875,-1.6448974609375,1,1.0,1.0,1.0,1.0,10.00
2024-10-11 20:13:25.999,0.6957342,0.72596544,0.9829022,1.1771418,0.69904894,0.41025832,0.53493863,0.8527258,1.3478286,0.46783295,0.5137243,1.2728713,0.8201705,0.17073236,0.09092661,0.61757475,0.0906216,-0.070915245,-0.483778,-0.05413822,808.68134,793.36993,801.4286,805.05493,722.0513,-0.2052001953125,0.1759033203125,0.98260498046875,1.495361328125,-2.61688232421875,-1.6448974609375,1,1.0,1.0,1.0,1.0,10.00
2024-10-11 20:13:25.999,0.6957342,0.72596544,0.9829022,1.1771418,0.69904894,0.41025832,0.53493863,0.8527258,1.3478286,0.46783295,0.5137243,1.2728713,0.8201705,0.17073236,0.09092661,0.61757475,0.0906216,-0.070915245,-0.483778,-0.05413822,806.6667,796.99634,799.81683,797.8022,813.1135,-0.2052001953125,0.1759033203125,0.98260498046875,1.495361328125,-2.61688232421875,-1.6448974609375,1,1.0,1.0,1.0,1.0,10.00
2024-10-11 20:13:26.000,0.6957342,0.72596544,0.9829022,1.1771418,0.69904894,0.41025832,0.53493863,0.8527258,1.3478286,0.46783295,0.5137243,1.2728713,0.8201705,0.17073236,0.09092661,0.61757475,0.0906216,-0.070915245,-0.483778,-0.05413822,809.89014,803.8461,800.2198,795.78754,703.1135,-0.2052001953125,0.1759033203125,0.98260498046875,1.495361328125,-2.61688232421875,-1.6448974609375,1,1.0,1.0,1.0,1.0,10.00
2024-10-11 20:13:26.000,0.7210426,0.73077273,0.98053926,1.184688,0.7316687,0.4136508,0.53182334,0.85100377,1.3478286,0.46610913,0.51317376,1.2728713,0.83650416,0.16912307,0.09564771,0.6040326,0.09680694,-0.10584403,-0.49516678,-0.07885532,814.7253,805.05493,802.6374,796.99634,714.3956,-0.2052001953125,0.1759033203125,0.98260498046875,1.495361328125,-2.61688232421875,-1.6448974609375,1,1.0,1.0,1.0,1.0,10.00
2024-10-11 20:13:26.004,0.7210426,0.73077273,0.98053926,1.184688,0.7316687,0.4136508,0.53182334,0.85100377,1.3478286,0.46610913,0.51317376,1.2728713,0.83650416,0.16912307,0.09564771,0.6040326,0.09680694,-0.10584403,-0.49516678,-0.07885532,814.7253,796.1905,801.4286,796.99634,1095.9707,-0.2052001953125,0.1759033203125,0.98260498046875,1.495361328125,-2.61688232421875,-1.6448974609375,1,1.0,1.0,1.0,1.0,10.00
2024-10-11 20:13:26.005,0.7210426,0.73077273,0.98053926,1.184688,0.7316687,0.4136508,0.53182334,0.85100377,1.3478286,0.46610913,0.51317376,1.2728713,0.83650416,0.16912307,0.09564771,0.6040326,0.09680694,-0.10584403,-0.49516678,-0.07885532,811.0989,790.9524,802.23444,803.0403,1374.3956,-0.2052001953125,0.1759033203125,0.98260498046875,1.495361328125,-2.61688232421875,-1.6448974609375,1,1.0,1.0,1.0,1.0,10.00
2024-10-11 20:13:26.005,0.7210426,0.73077273,0.98053926,1.184688,0.7316687,0.4136508,0.53182334,0.85100377,1.3478286,0.46610913,0.51317376,1.2728713,0.83650416,0.16912307,0.09564771,0.6040326,0.09680694,-0.10584403,-0.49516678,-0.07885532,809.0842,797.3993,800.6227,804.2491,1232.1611,-0.2052001953125,0.1759033203125,0.98260498046875,1.495361328125,-2.61688232421875,-1.6448974609375,1,1.0,1.0,1.0,1.0,10.00
2024-10-11 20:13:26.006,0.7210426,0.73077273,0.98053926,1.184688,0.7316687,0.4136508,0.53182334,0.85100377,1.3478286,0.46610913,0.51317376,1.2728713,0.83650416,0.16912307,0.09564771,0.6040326,0.09680694,-0.10584403,-0.49516678,-0.07885532,809.0842,798.60803,804.65204,794.57874,888.0586,-0.2052001953125,0.1759033203125,0.98260498046875,1.495361328125,-2.61688232421875,-1.6448974609375,1,1.0,1.0,1.0,1.0,10.00
2024-10-11 20:13:26.006,0.7210426,0.73077273,0.98053926,1.184688,0.7316687,0.4136508,0.53182334,0.85100377,1.3478286,0.46610913,0.51317376,1.2728713,0.83650416,0.16912307,0.09564771,0.6040326,0.09680694,-0.10584403,-0.49516678,-0.07885532,809.89014,796.99634,805.4579,791.75824,670.4762,-0.2052001953125,0.1759033203125,0.98260498046875,1.495361328125,-2.61688232421875,-1.6448974609375,1,1.0,1.0,1.0,1.0,10.00
2024-10-11 20:13:26.007,0.7210426,0.73077273,0.98053926,1.184688,0.7316687,0.4136508,0.53182334,0.85100377,1.3478286,0.46610913,0.51317376,1.2728713,0.83650416,0.16912307,0.09564771,0.6040326,0.09680694,-0.10584403,-0.49516678,-0.07885532,812.3077,798.20514,802.23444,792.96704,692.6374,-0.2052001953125,0.1759033203125,0.98260498046875,1.495361328125,-2.61688232421875,-1.6448974609375,1,1.0,1.0,1.0,1.0,10.00
2024-10-11 20:13:26.069,0.7210426,0.73077273,0.98053926,1.184688,0.7316687,0.4136508,0.53182334,0.85100377,1.3478286,0.46610913,0.51317376,1.2728713,0.83650416,0.16912307,0.09564771,0.6040326,0.09680694,-0.10584403,-0.49516678,-0.07885532,809.4872,797.8022,802.6374,796.99634,680.54944,-0.19415283203125,0.168212890625,0.99041748046875,-1.143951416015625,-2.609405517578125,-4.344024658203125,1,1.0,1.0,1.0,1.0,10.00
2024-10-11 20:13:26.070,0.7210426,0.73077273,0.98053926,1.184688,0.7316687,0.4136508,0.53182334,0.85100377,1.3478286,0.46610913,0.51317376,1.2728713,0.83650416,0.16912307,0.09564771,0.6040326,0.09680694,-0.10584403,-0.49516678,-0.07885532,807.8755,792.96704,803.44324,807.0696,774.83514,-0.19415283203125,0.168212890625,0.99041748046875,-1.143951416015625,-2.609405517578125,-4.344024658203125,1,1.0,1.0,1.0,1.0,10.00
2024-10-11 20:13:26.071,0.7210426,0.73077273,0.98053926,1.184688,0.7316687,0.4136508,0.53182334,0.85100377,1.3478286,0.46610913,0.51317376,1.2728713,0.83650416,0.16912307,0.09564771,0.6040326,0.09680694,-0.10584403,-0.49516678,-0.07885532,806.6667,795.38464,804.2491,809.0842,810.293,-0.19415283203125,0.168212890625,0.99041748046875,-1.143951416015625,-2.609405517578125,-4.344024658203125,1,1.0,1.0,1.0,1.0,10.00
2024-10-11 20:13:26.072,0.7210426,0.73077273,0.98053926,1.184688,0.7316687,0.4136508,0.53182334,0.85100377,1.3478286,0.46610913,0.51317376,1.2728713,0.83650416,0.16912307,0.09564771,0.6040326,0.09680694,-0.10584403,-0.49516678,-0.07885532,807.8755,801.4286,803.0403,806.6667,611.6484,-0.19415283203125,0.168212890625,0.99041748046875,-1.143951416015625,-2.609405517578125,-4.344024658203125,1,1.0,1.0,1.0,1.0,10.00
2024-10-11 20:13:26.072,0.7210426,0.73077273,0.98053926,1.184688,0.7316687,0.4136508,0.53182334,0.85100377,1.3478286,0.46610913,0.51317376,1.2728713,0.83650416,0.16912307,0.09564771,0.6040326,0.09680694,-0.10584403,-0.49516678,-0.07885532,809.0842,802.6374,802.23444,810.293,577.3993,-0.19415283203125,0.168212890625,0.99041748046875,-1.143951416015625,-2.609405517578125,-4.344024658203125,1,1.0,1.0,1.0,1.0,10.00
2024-10-11 20:13:26.073,0.7210426,0.73077273,0.98053926,1.184688,0.7316687,0.4136508,0.53182334,0.85100377,1.3478286,0.46610913,0.51317376,1.2728713,0.83650416,0.16912307,0.09564771,0.6040326,0.09680694,-0.10584403,-0.49516678,-0.07885532,808.2784,800.2198,802.6374,815.12823,867.1062,-0.19415283203125,0.168212890625,0.99041748046875,-1.143951416015625,-2.609405517578125,-4.344024658203125,1,1.0,1.0,1.0,1.0,10.00
2024-10-11 20:13:26.073,0.7210426,0.73077273,0.98053926,1.184688,0.7316687,0.4136508,0.53182334,0.85100377,1.3478286,0.46610913,0.51317376,1.2728713,0.83650416,0.16912307,0.09564771,0.6040326,0.09680694,-0.10584403,-0.49516678,-0.07885532,803.44324,794.57874,804.2491,809.89014,958.5714,-0.19415283203125,0.168212890625,0.99041748046875,-1.143951416015625,-2.609405517578125,-4.344024658203125,1,1.0,1.0,1.0,1.0,10.00
2024-10-11 20:13:26.074,0.7210426,0.73077273,0.98053926,1.184688,0.7316687,0.4136508,0.53182334,0.85100377,1.3478286,0.46610913,0.51317376,1.2728713,0.83650416,0.16912307,0.09564771,0.6040326,0.09680694,-0.10584403,-0.49516678,-0.07885532,800.2198,803.0403,804.2491,805.4579,688.60803,-0.19415283203125,0.168212890625,0.99041748046875,-1.143951416015625,-2.609405517578125,-4.344024658203125,1,1.0,1.0,1.0,1.0,10.00
2024-10-11 20:13:26.075,0.7210426,0.73077273,0.98053926,1.184688,0.7316687,0.4136508,0.53182334,0.85100377,1.3478286,0.46610913,0.51317376,1.2728713,0.83650416,0.16912307,0.09564771,0.6040326,0.09680694,-0.10584403,-0.49516678,-0.07885532,805.4579,806.6667,805.05493,802.6374,648.315,-0.19415283203125,0.168212890625,0.99041748046875,-1.143951416015625,-2.609405517578125,-4.344024658203125,1,1.0,1.0,1.0,1.0,10.00
2024-10-11 20:13:26.075,0.7210426,0.73077273,0.98053926,1.184688,0.7316687,0.4136508,0.53182334,0.85100377,1.3478286,0.46610913,0.51317376,1.2728713,0.83650416,0.16912307,0.09564771,0.6040326,0.09680694,-0.10584403,-0.49516678,-0.07885532,805.4579,801.4286,805.05493,804.2491,863.47986,-0.19415283203125,0.168212890625,0.99041748046875,-1.143951416015625,-2.609405517578125,-4.344024658203125,1,1.0,1.0,1.0,1.0,10.00
2024-10-11 20:13:26.076,0.7210426,0.73077273,0.98053926,1.184688,0.7316687,0.4136508,0.53182334,0.85100377,1.3478286,0.46610913,0.51317376,1.2728713,0.83650416,0.16912307,0.09564771,0.6040326,0.09680694,-0.10584403,-0.49516678,-0.07885532,804.65204,800.6227,809.4872,807.8755,849.3773,-0.19415283203125,0.168212890625,0.99041748046875,-1.143951416015625,-2.609405517578125,-4.344024658203125,1,1.0,1.0,1.0,1.0,10.00
2024-10-11 20:13:26.076,0.7210426,0.73077273,0.98053926,1.184688,0.7316687,0.4136508,0.53182334,0.85100377,1.3478286,0.46610913,0.51317376,1.2728713,0.83650416,0.16912307,0.09564771,0.6040326,0.09680694,-0.10584403,-0.49516678,-0.07885532,801.8315,803.0403,808.2784,802.23444,635.82416,-0.19415283203125,0.168212890625,0.99041748046875,-1.143951416015625,-2.609405517578125,-4.344024658203125,1,1.0,1.0,1.0,1.0,10.00
2024-10-11 20:13:26.077,0.7210426,0.73077273,0.98053926,1.184688,0.7316687,0.4136508,0.53182334,0.85100377,1.3478286,0.46610913,0.51317376,1.2728713,0.83650416,0.16912307,0.09564771,0.6040326,0.09680694,-0.10584403,-0.49516678,-0.07885532,796.5934,802.23444,806.26373,801.02563,680.14655,-0.19415283203125,0.168212890625,0.99041748046875,-1.143951416015625,-2.609405517578125,-4.344024658203125,1,1.0,1.0,1.0,1.0,10.00
2024-10-11 20:13:26.078,0.7210426,0.73077273,0.98053926,1.184688,0.7316687,0.4136508,0.53182334,0.85100377,1.3478286,0.46610913,0.51317376,1.2728713,0.83650416,0.16912307,0.09564771,0.6040326,0.09680694,-0.10584403,-0.49516678,-0.07885532,803.8461,800.2198,805.4579,804.65204,933.1868,-0.19415283203125,0.168212890625,0.99041748046875,-1.143951416015625,-2.609405517578125,-4.344024658203125,1,1.0,1.0,1.0,1.0,10.00
2024-10-11 20:13:26.078,0.7210426,0.73077273,0.98053926,1.184688,0.7316687,0.4136508,0.53182334,0.85100377,1.3478286,0.46610913,0.51317376,1.2728713,0.83650416,0.16912307,0.09564771,0.6040326,0.09680694,-0.10584403,-0.49516678,-0.07885532,803.8461,798.60803,804.65204,801.8315,839.707,-0.19415283203125,0.168212890625,0.99041748046875,-1.143951416015625,-2.609405517578125,-4.344024658203125,1,1.0,1.0,1.0,1.0,10.00
2024-10-11 20:13:26.079,0.7210426,0.73077273,0.98053926,1.184688,0.7316687,0.4136508,0.53182334,0.85100377,1.3478286,0.46610913,0.51317376,1.2728713,0.83650416,0.16912307,0.09564771,0.6040326,0.09680694,-0.10584403,-0.49516678,-0.07885532,801.02563,799.011,807.0696,803.8461,581.8315,-0.19415283203125,0.168212890625,0.99041748046875,-1.143951416015625,-2.609405517578125,-4.344024658203125,1,1.0,1.0,1.0,1.0,10.00
2024-10-11 20:13:26.079,0.7210426,0.73077273,0.98053926,1.184688,0.7316687,0.4136508,0.53182334,0.85100377,1.3478286,0.46610913,0.51317376,1.2728713,0.83650416,0.16912307,0.09564771,0.6040326,0.09680694,-0.10584403,-0.49516678,-0.07885532,804.65204,794.9817,801.8315,809.0842,736.1539,-0.19415283203125,0.168212890625,0.99041748046875,-1.143951416015625,-2.609405517578125,-4.344024658203125,1,1.0,1.0,1.0,1.0,10.00
2024-10-11 20:13:26.080,0.7210426,0.73077273,0.98053926,1.184688,0.7316687,0.4136508,0.53182334,0.85100377,1.3478286,0.46610913,0.51317376,1.2728713,0.83650416,0.16912307,0.09564771,0.6040326,0.09680694,-0.10584403,-0.49516678,-0.07885532,803.0403,788.93774,801.8315,809.4872,968.24176,-0.19415283203125,0.168212890625,0.99041748046875,-1.143951416015625,-2.609405517578125,-4.344024658203125,1,1.0,1.0,1.0,1.0,10.00
2024-10-11 20:13:26.081,0.7210426,0.73077273,0.98053926,1.184688,0.7316687,0.4136508,0.53182334,0.85100377,1.3478286,0.46610913,0.51317376,1.2728713,0.83650416,0.16912307,0.09564771,0.6040326,0.09680694,-0.10584403,-0.49516678,-0.07885532,800.6227,796.1905,805.4579,812.3077,871.13556,-0.19415283203125,0.168212890625,0.99041748046875,-1.143951416015625,-2.609405517578125,-4.344024658203125,1,1.0,1.0,1.0,1.0,10.00
2024-10-11 20:13:26.082,0.75010586,0.7330343,0.97220725,1.1831907,0.76092577,0.41504526,0.5222529,0.8354451,1.3478286,0.46610913,0.5117488,1.2728713,0.85736084,0.16995622,0.10255138,0.5874899,0.10438164,-0.15079704,-0.49897924,-0.105076656,799.011,798.20514,806.26373,809.4872,665.2381,-0.19415283203125,0.168212890625,0.99041748046875,-1.143951416015625,-2.609405517578125,-4.344024658203125,1,1.0,1.0,1.0,1.0,10.00
2024-10-11 20:13:26.087,0.75010586,0.7330343,0.97220725,1.1831907,0.76092577,0.41504526,0.5222529,0.8354451,1.3478286,0.46610913,0.5117488,1.2728713,0.85736084,0.16995622,0.10255138,0.5874899,0.10438164,-0.15079704,-0.49897924,-0.105076656,803.0403,791.3553,810.293,816.7399,700.293,-0.19415283203125,0.168212890625,0.99041748046875,-1.143951416015625,-2.609405517578125,-4.344024658203125,1,1.0,1.0,1.0,1.0,10.00
2024-10-11 20:13:26.088,0.75010586,0.7330343,0.97220725,1.1831907,0.76092577,0.41504526,0.5222529,0.8354451,1.3478286,0.46610913,0.5117488,1.2728713,0.85736084,0.16995622,0.10255138,0.5874899,0.10438164,-0.15079704,-0.49897924,-0.105076656,813.91943,794.57874,810.696,819.5604,894.10254,-0.19415283203125,0.168212890625,0.99041748046875,-1.143951416015625,-2.609405517578125,-4.344024658203125,1,1.0,1.0,1.0,1.0,10.00
2024-10-11 20:13:26.089,0.75010586,0.7330343,0.97220725,1.1831907,0.76092577,0.41504526,0.5222529,0.8354451,1.3478286,0.46610913,0.5117488,1.2728713,0.85736084,0.16995622,0.10255138,0.5874899,0.10438164,-0.15079704,-0.49897924,-0.105076656,815.12823,802.23444,806.26373,806.26373,820.7692,-0.19415283203125,0.168212890625,0.99041748046875,-1.143951416015625,-2.609405517578125,-4.344024658203125,1,1.0,1.0,1.0,1.0,10.00
2024-10-11 20:13:26.090,0.75010586,0.7330343,0.97220725,1.1831907,0.76092577,0.41504526,0.5222529,0.8354451,1.3478286,0.46610913,0.5117488,1.2728713,0.85736084,0.16995622,0.10255138,0.5874899,0.10438164,-0.15079704,-0.49897924,-0.105076656,803.8461,800.2198,802.23444,805.8608,596.337,-0.19415283203125,0.168212890625,0.99041748046875,-1.143951416015625,-2.609405517578125,-4.344024658203125,1,1.0,1.0,1.0,1.0,10.00
2024-10-11 20:13:26.116,0.75010586,0.7330343,0.97220725,1.1831907,0.76092577,0.41504526,0.5222529,0.8354451,1.3478286,0.46610913,0.5117488,1.2728713,0.85736084,0.16995622,0.10255138,0.5874899,0.10438164,-0.15079704,-0.49897924,-0.105076656,796.99634,794.57874,801.4286,805.4579,677.72894,-0.17431640625,0.154296875,0.9830322265625,-3.730926513671875,-2.071075439453125,-4.47113037109375,1,1.0,1.0,1.0,1.0,10.00
2024-10-11 20:13:26.119,0.75010586,0.7330343,0.97220725,1.1831907,0.76092577,0.41504526,0.5222529,0.8354451,1.3478286,0.46610913,0.5117488,1.2728713,0.85736084,0.16995622,0.10255138,0.5874899,0.10438164,-0.15079704,-0.49897924,-0.105076656,796.1905,796.1905,802.23444,806.26373,896.52014,-0.17431640625,0.154296875,0.9830322265625,-3.730926513671875,-2.071075439453125,-4.47113037109375,1,1.0,1.0,1.0,1.0,10.00
2024-10-11 20:13:26.120,0.75010586,0.7330343,0.97220725,1.1831907,0.76092577,0.41504526,0.5222529,0.8354451,1.3478286,0.46610913,0.5117488,1.2728713,0.85736084,0.16995622,0.10255138,0.5874899,0.10438164,-0.15079704,-0.49897924,-0.105076656,801.8315,795.78754,800.6227,809.4872,778.0586,-0.17431640625,0.154296875,0.9830322265625,-3.730926513671875,-2.071075439453125,-4.47113037109375,1,1.0,1.0,1.0,1.0,10.00
2024-10-11 20:13:26.121,0.75010586,0.7330343,0.97220725,1.1831907,0.76092577,0.41504526,0.5222529,0.8354451,1.3478286,0.46610913,0.5117488,1.2728713,0.85736084,0.16995622,0.10255138,0.5874899,0.10438164,-0.15079704,-0.49897924,-0.105076656,804.65204,790.14655,799.81683,811.0989,643.0769,-0.17431640625,0.154296875,0.9830322265625,-3.730926513671875,-2.071075439453125,-4.47113037109375,1,1.0,1.0,1.0,1.0,10.00
2024-10-11 20:13:26.122,0.75010586,0.7330343,0.97220725,1.1831907,0.76092577,0.41504526,0.5222529,0.8354451,1.3478286,0.46610913,0.5117488,1.2728713,0.85736084,0.16995622,0.10255138,0.5874899,0.10438164,-0.15079704,-0.49897924,-0.105076656,801.02563,794.9817,797.3993,808.2784,809.0842,-0.17431640625,0.154296875,0.9830322265625,-3.730926513671875,-2.071075439453125,-4.47113037109375,1,1.0,1.0,1.0,1.0,10.00
2024-10-11 20:13:26.123,0.75010586,0.7330343,0.97220725,1.1831907,0.76092577,0.41504526,0.5222529,0.8354451,1.3478286,0.46610913,0.5117488,1.2728713,0.85736084,0.16995622,0.10255138,0.5874899,0.10438164,-0.15079704,-0.49897924,-0.105076656,804.65204,801.4286,801.8315,812.3077,993.22345,-0.17431640625,0.154296875,0.9830322265625,-3.730926513671875,-2.071075439453125,-4.47113037109375,1,1.0,1.0,1.0,1.0,10.00
2024-10-11 20:13:26.124,0.75010586,0.7330343,0.97220725,1.1831907,0.76092577,0.41504526,0.5222529,0.8354451,1.3478286,0.46610913,0.5117488,1.2728713,0.85736084,0.16995622,0.10255138,0.5874899,0.10438164,-0.15079704,-0.49897924,-0.105076656,804.65204,803.8461,803.44324,810.696,887.25275,-0.17431640625,0.154296875,0.9830322265625,-3.730926513671875,-2.071075439453125,-4.47113037109375,1,1.0,1.0,1.0,1.0,10.00
2024-10-11 20:13:26.124,0.75010586,0.7330343,0.97220725,1.1831907,0.76092577,0.41504526,0.5222529,0.8354451,1.3478286,0.46610913,0.5117488,1.2728713,0.85736084,0.16995622,0.10255138,0.5874899,0.10438164,-0.15079704,-0.49897924,-0.105076656,801.8315,798.60803,800.6227,802.23444,746.2271,-0.17431640625,0.154296875,0.9830322265625,-3.730926513671875,-2.071075439453125,-4.47113037109375,1,1.0,1.0,1.0,1.0,10.00
2024-10-11 20:13:26.125,0.75010586,0.7330343,0.97220725,1.1831907,0.76092577,0.41504526,0.5222529,0.8354451,1.3478286,0.46610913,0.5117488,1.2728713,0.85736084,0.16995622,0.10255138,0.5874899,0.10438164,-0.15079704,-0.49897924,-0.105076656,796.99634,795.38464,798.20514,800.6227,874.7619,-0.17431640625,0.154296875,0.9830322265625,-3.730926513671875,-2.071075439453125,-4.47113037109375,1,1.0,1.0,1.0,1.0,10.00
2024-10-11 20:13:26.126,0.75010586,0.7330343,0.97220725,1.1831907,0.76092577,0.41504526,0.5222529,0.8354451,1.3478286,0.46610913,0.5117488,1.2728713,0.85736084,0.16995622,0.10255138,0.5874899,0.10438164,-0.15079704,-0.49897924,-0.105076656,800.6227,803.0403,796.1905,804.2491,971.4652,-0.17431640625,0.154296875,0.9830322265625,-3.730926513671875,-2.071075439453125,-4.47113037109375,1,1.0,1.0,1.0,1.0,10.00
2024-10-11 20:13:26.127,0.75010586,0.7330343,0.97220725,1.1831907,0.76092577,0.41504526,0.5222529,0.8354451,1.3478286,0.46610913,0.5117488,1.2728713,0.85736084,0.16995622,0.10255138,0.5874899,0.10438164,-0.15079704,-0.49897924,-0.105076656,803.44324,804.65204,801.4286,807.8755,742.1978,-0.17431640625,0.154296875,0.9830322265625,-3.730926513671875,-2.071075439453125,-4.47113037109375,1,1.0,1.0,1.0,1.0,10.00
2024-10-11 20:13:26.128,0.75010586,0.7330343,0.97220725,1.1831907,0.76092577,0.41504526,0.5222529,0.8354451,1.3478286,0.46610913,0.5117488,1.2728713,0.85736084,0.16995622,0.10255138,0.5874899,0.10438164,-0.15079704,-0.49897924,-0.105076656,799.41394,799.81683,803.8461,806.6667,592.71063,-0.17431640625,0.154296875,0.9830322265625,-3.730926513671875,-2.071075439453125,-4.47113037109375,1,1.0,1.0,1.0,1.0,10.00
2024-10-11 20:13:26.130,0.75010586,0.7330343,0.97220725,1.1831907,0.76092577,0.41504526,0.5222529,0.8354451,1.3478286,0.46610913,0.5117488,1.2728713,0.85736084,0.16995622,0.10255138,0.5874899,0.10438164,-0.15079704,-0.49897924,-0.105076656,804.2491,796.99634,801.8315,807.0696,631.79486,-0.17559814453125,0.14019775390625,0.977294921875,-6.527252197265625,0.979461669921875,0.725250244140625,1,1.0,1.0,1.0,1.0,10.00
2024-10-11 20:13:26.131,0.75010586,0.7330343,0.97220725,1.1831907,0.76092577,0.41504526,0.5222529,0.8354451,1.3478286,0.46610913,0.5117488,1.2728713,0.85736084,0.16995622,0.10255138,0.5874899,0.10438164,-0.15079704,-0.49897924,-0.105076656,805.8608,793.7729,802.23444,807.47253,542.74725,-0.17559814453125,0.14019775390625,0.977294921875,-6.527252197265625,0.979461669921875,0.725250244140625,1,1.0,1.0,1.0,1.0,10.00
2024-10-11 20:13:26.132,0.75010586,0.7330343,0.97220725,1.1831907,0.76092577,0.41504526,0.5222529,0.8354451,1.3478286,0.46610913,0.5117488,1.2728713,0.85736084,0.16995622,0.10255138,0.5874899,0.10438164,-0.15079704,-0.49897924,-0.105076656,803.0403,796.99634,804.2491,809.89014,452.89377,-0.17559814453125,0.14019775390625,0.977294921875,-6.527252197265625,0.979461669921875,0.725250244140625,1,1.0,1.0,1.0,1.0,10.00
2024-10-11 20:13:26.133,0.75010586,0.7330343,0.97220725,1.1831907,0.76092577,0.41504526,0.5222529,0.8354451,1.3478286,0.46610913,0.5117488,1.2728713,0.85736084,0.16995622,0.10255138,0.5874899,0.10438164,-0.15079704,-0.49897924,-0.105076656,806.6667,801.8315,804.2491,813.5165,559.67035,-0.17559814453125,0.14019775390625,0.977294921875,-6.527252197265625,0.979461669921875,0.725250244140625,1,1.0,1.0,1.0,1.0,10.00
2024-10-11 20:13:26.133,0.75010586,0.7330343,0.97220725,1.1831907,0.76092577,0.41504526,0.5222529,0.8354451,1.3478286,0.46610913,0.5117488,1.2728713,0.85736084,0.16995622,0.10255138,0.5874899,0.10438164,-0.15079704,-0.49897924,-0.105076656,810.293,799.011,806.6667,818.7546,930.3663,-0.17559814453125,0.14019775390625,0.977294921875,-6.527252197265625,0.979461669921875,0.725250244140625,1,1.0,1.0,1.0,1.0,10.00
2024-10-11 20:13:26.135,0.75010586,0.7330343,0.97220725,1.1831907,0.76092577,0.41504526,0.5222529,0.8354451,1.3478286,0.46610913,0.5117488,1.2728713,0.85736084,0.16995622,0.10255138,0.5874899,0.10438164,-0.15079704,-0.49897924,-0.105076656,815.9341,797.8022,810.293,826.0073,1212.8206,-0.17559814453125,0.14019775390625,0.977294921875,-6.527252197265625,0.979461669921875,0.725250244140625,1,1.0,1.0,1.0,1.0,10.00
2024-10-11 20:13:26.136,0.75010586,0.7330343,0.97220725,1.1831907,0.76092577,0.41504526,0.5222529,0.8354451,1.3478286,0.46610913,0.5117488,1.2728713,0.85736084,0.16995622,0.10255138,0.5874899,0.10438164,-0.15079704,-0.49897924,-0.105076656,816.337,800.2198,811.50183,821.1722,898.1319,-0.17559814453125,0.14019775390625,0.977294921875,-6.527252197265625,0.979461669921875,0.725250244140625,1,1.0,1.0,1.0,1.0,10.00
2024-10-11 20:13:26.137,0.75010586,0.7330343,0.97220725,1.1831907,0.76092577,0.41504526,0.5222529,0.8354451,1.3478286,0.46610913,0.5117488,1.2728713,0.85736084,0.16995622,0.10255138,0.5874899,0.10438164,-0.15079704,-0.49897924,-0.105076656,817.1429,799.41394,809.4872,824.3956,707.1429,-0.17559814453125,0.14019775390625,0.977294921875,-6.527252197265625,0.979461669921875,0.725250244140625,1,1.0,1.0,1.0,1.0,10.00
2024-10-11 20:13:26.138,0.75010586,0.7330343,0.97220725,1.1831907,0.76092577,0.41504526,0.5222529,0.8354451,1.3478286,0.46610913,0.5117488,1.2728713,0.85736084,0.16995622,0.10255138,0.5874899,0.10438164,-0.15079704,-0.49897924,-0.105076656,824.3956,800.2198,807.0696,828.022,717.2161,-0.17559814453125,0.14019775390625,0.977294921875,-6.527252197265625,0.979461669921875,0.725250244140625,1,1.0,1.0,1.0,1.0,10.00
2024-10-11 20:13:26.139,0.7303262,0.7248791,0.94843125,1.1699517,0.74109155,0.4099701,0.49831158,0.8112045,1.3478286,0.46610913,0.5072259,1.2728713,0.86440766,0.17100744,0.11002449,0.5711098,0.10055636,-0.20067699,-0.49544463,-0.12948106,823.5897,802.6374,807.8755,815.5311,545.56775,-0.17559814453125,0.14019775390625,0.977294921875,-6.527252197265625,0.979461669921875,0.725250244140625,1,1.0,1.0,1.0,1.0,10.00
2024-10-11 20:13:26.144,0.7303262,0.7248791,0.94843125,1.1699517,0.74109155,0.4099701,0.49831158,0.8112045,1.3478286,0.46610913,0.5072259,1.2728713,0.86440766,0.17100744,0.11002449,0.5711098,0.10055636,-0.20067699,-0.49544463,-0.12948106,820.3663,801.4286,801.4286,812.71063,522.6007,-0.17559814453125,0.14019775390625,0.977294921875,-6.527252197265625,0.979461669921875,0.725250244140625,1,1.0,1.0,1.0,1.0,10.00
2024-10-11 20:13:26.145,0.7303262,0.7248791,0.94843125,1.1699517,0.74109155,0.4099701,0.49831158,0.8112045,1.3478286,0.46610913,0.5072259,1.2728713,0.86440766,0.17100744,0.11002449,0.5711098,0.10055636,-0.20067699,-0.49544463,-0.12948106,815.5311,798.20514,798.60803,813.91943,780.87915,-0.17559814453125,0.14019775390625,0.977294921875,-6.527252197265625,0.979461669921875,0.725250244140625,1,1.0,1.0,1.0,1.0,10.00
2024-10-11 20:13:26.166,0.7303262,0.7248791,0.94843125,1.1699517,0.74109155,0.4099701,0.49831158,0.8112045,1.3478286,0.46610913,0.5072259,1.2728713,0.86440766,0.17100744,0.11002449,0.5711098,0.10055636,-0.20067699,-0.49544463,-0.12948106,811.9048,797.8022,805.8608,811.9048,990.0,-0.19482421875,0.13580322265625,0.98724365234375,-6.50482177734375,0.94207763671875,7.245025634765625,1,1.0,1.0,1.0,1.0,10.00
2024-10-11 20:13:26.167,0.7303262,0.7248791,0.94843125,1.1699517,0.74109155,0.4099701,0.49831158,0.8112045,1.3478286,0.46610913,0.5072259,1.2728713,0.86440766,0.17100744,0.11002449,0.5711098,0.10055636,-0.20067699,-0.49544463,-0.12948106,807.0696,797.3993,807.8755,809.4872,710.7692,-0.19482421875,0.13580322265625,0.98724365234375,-6.50482177734375,0.94207763671875,7.245025634765625,1,1.0,1.0,1.0,1.0,10.00
2024-10-11 20:13:26.168,0.7303262,0.7248791,0.94843125,1.1699517,0.74109155,0.4099701,0.49831158,0.8112045,1.3478286,0.46610913,0.5072259,1.2728713,0.86440766,0.17100744,0.11002449,0.5711098,0.10055636,-0.20067699,-0.49544463,-0.12948106,804.2491,796.1905,809.0842,810.696,630.18317,-0.19482421875,0.13580322265625,0.98724365234375,-6.50482177734375,0.94207763671875,7.245025634765625,1,1.0,1.0,1.0,1.0,10.00
2024-10-11 20:13:26.169,0.7303262,0.7248791,0.94843125,1.1699517,0.74109155,0.4099701,0.49831158,0.8112045,1.3478286,0.46610913,0.5072259,1.2728713,0.86440766,0.17100744,0.11002449,0.5711098,0.10055636,-0.20067699,-0.49544463,-0.12948106,805.4579,796.99634,803.8461,813.91943,806.6667,-0.19482421875,0.13580322265625,0.98724365234375,-6.50482177734375,0.94207763671875,7.245025634765625,1,1.0,1.0,1.0,1.0,10.00
2024-10-11 20:13:26.169,0.7303262,0.7248791,0.94843125,1.1699517,0.74109155,0.4099701,0.49831158,0.8112045,1.3478286,0.46610913,0.5072259,1.2728713,0.86440766,0.17100744,0.11002449,0.5711098,0.10055636,-0.20067699,-0.49544463,-0.12948106,807.47253,799.011,803.0403,816.7399,767.1795,-0.19482421875,0.13580322265625,0.98724365234375,-6.50482177734375,0.94207763671875,7.245025634765625,1,1.0,1.0,1.0,1.0,10.00
2024-10-11 20:13:26.170,0.7303262,0.7248791,0.94843125,1.1699517,0.74109155,0.4099701,0.49831158,0.8112045,1.3478286,0.46610913,0.5072259,1.2728713,0.86440766,0.17100744,0.11002449,0.5711098,0.10055636,-0.20067699,-0.49544463,-0.12948106,806.6667,793.36993,805.05493,817.9487,750.65936,-0.19482421875,0.13580322265625,0.98724365234375,-6.50482177734375,0.94207763671875,7.245025634765625,1,1.0,1.0,1.0,1.0,10.00
2024-10-11 20:13:26.170,0.7303262,0.7248791,0.94843125,1.1699517,0.74109155,0.4099701,0.49831158,0.8112045,1.3478286,0.46610913,0.5072259,1.2728713,0.86440766,0.17100744,0.11002449,0.5711098,0.10055636,-0.20067699,-0.49544463,-0.12948106,805.4579,786.9231,804.65204,819.5604,805.4579,-0.19482421875,0.13580322265625,0.98724365234375,-6.50482177734375,0.94207763671875,7.245025634765625,1,1.0,1.0,1.0,1.0,10.00
2024-10-11 20:13:26.171,0.7303262,0.7248791,0.94843125,1.1699517,0.74109155,0.4099701,0.49831158,0.8112045,1.3478286,0.46610913,0.5072259,1.2728713,0.86440766,0.17100744,0.11002449,0.5711098,0.10055636,-0.20067699,-0.49544463,-0.12948106,811.0989,787.72894,805.05493,825.6044,1077.4359,-0.19482421875,0.13580322265625,0.98724365234375,-6.50482177734375,0.94207763671875,7.245025634765625,1,1.0,1.0,1.0,1.0,10.00
2024-10-11 20:13:26.171,0.7303262,0.7248791,0.94843125,1.1699517,0.74109155,0.4099701,0.49831158,0.8112045,1.3478286,0.46610913,0.5072259,1.2728713,0.86440766,0.17100744,0.11002449,0.5711098,0.10055636,-0.20067699,-0.49544463,-0.12948106,817.9487,793.36993,806.26373,826.8132,1181.7949,-0.19482421875,0.13580322265625,0.98724365234375,-6.50482177734375,0.94207763671875,7.245025634765625,1,1.0,1.0,1.0,1.0,10.00
2024-10-11 20:13:26.172,0.7303262,0.7248791,0.94843125,1.1699517,0.74109155,0.4099701,0.49831158,0.8112045,1.3478286,0.46610913,0.5072259,1.2728713,0.86440766,0.17100744,0.11002449,0.5711098,0.10055636,-0.20067699,-0.49544463,-0.12948106,819.15753,795.38464,809.0842,819.9634,782.49084,-0.19482421875,0.13580322265625,0.98724365234375,-6.50482177734375,0.94207763671875,7.245025634765625,1,1.0,1.0,1.0,1.0,10.00
2024-10-11 20:13:26.172,0.7303262,0.7248791,0.94843125,1.1699517,0.74109155,0.4099701,0.49831158,0.8112045,1.3478286,0.46610913,0.5072259,1.2728713,0.86440766,0.17100744,0.11002449,0.5711098,0.10055636,-0.20067699,-0.49544463,-0.12948106,814.3223,788.1319,804.2491,813.91943,594.3223,-0.19482421875,0.13580322265625,0.98724365234375,-6.50482177734375,0.94207763671875,7.245025634765625,1,1.0,1.0,1.0,1.0,10.00
2024-10-11 20:13:26.173,0.7303262,0.7248791,0.94843125,1.1699517,0.74109155,0.4099701,0.49831158,0.8112045,1.3478286,0.46610913,0.5072259,1.2728713,0.86440766,0.17100744,0.11002449,0.5711098,0.10055636,-0.20067699,-0.49544463,-0.12948106,808.2784,790.14655,802.6374,808.68134,728.9011,-0.19482421875,0.13580322265625,0.98724365234375,-6.50482177734375,0.94207763671875,7.245025634765625,1,1.0,1.0,1.0,1.0,10.00
2024-10-11 20:13:26.202,0.7303262,0.7248791,0.94843125,1.1699517,0.74109155,0.4099701,0.49831158,0.8112045,1.3478286,0.46610913,0.5072259,1.2728713,0.86440766,0.17100744,0.11002449,0.5711098,0.10055636,-0.20067699,-0.49544463,-0.12948106,809.89014,797.3993,802.6374,807.8755,792.5641,-0.1968994140625,0.12554931640625,0.980224609375,-6.34033203125,-4.687957763671875,9.218902587890625,1,1.0,1.0,1.0,1.0,10.00
2024-10-11 20:13:26.203,0.7303262,0.7248791,0.94843125,1.1699517,0.74109155,0.4099701,0.49831158,0.8112045,1.3478286,0.46610913,0.5072259,1.2728713,0.86440766,0.17100744,0.11002449,0.5711098,0.10055636,-0.20067699,-0.49544463,-0.12948106,816.337,796.99634,803.0403,805.8608,721.6484,-0.1968994140625,0.12554931640625,0.980224609375,-6.34033203125,-4.687957763671875,9.218902587890625,1,1.0,1.0,1.0,1.0,10.00
2024-10-11 20:13:26.204,0.7303262,0.7248791,0.94843125,1.1699517,0.74109155,0.4099701,0.49831158,0.8112045,1.3478286,0.46610913,0.5072259,1.2728713,0.86440766,0.17100744,0.11002449,0.5711098,0.10055636,-0.20067699,-0.49544463,-0.12948106,811.50183,798.20514,809.4872,803.8461,635.0183,-0.1968994140625,0.12554931640625,0.980224609375,-6.34033203125,-4.687957763671875,9.218902587890625,1,1.0,1.0,1.0,1.0,10.00
2024-10-11 20:13:26.204,0.7303262,0.7248791,0.94843125,1.1699517,0.74109155,0.4099701,0.49831158,0.8112045,1.3478286,0.46610913,0.5072259,1.2728713,0.86440766,0.17100744,0.11002449,0.5711098,0.10055636,-0.20067699,-0.49544463,-0.12948106,807.8755,799.011,806.6667,801.8315,700.696,-0.1968994140625,0.12554931640625,0.980224609375,-6.34033203125,-4.687957763671875,9.218902587890625,1,1.0,1.0,1.0,1.0,10.00
2024-10-11 20:13:26.205,0.7303262,0.7248791,0.94843125,1.1699517,0.74109155,0.4099701,0.49831158,0.8112045,1.3478286,0.46610913,0.5072259,1.2728713,0.86440766,0.17100744,0.11002449,0.5711098,0.10055636,-0.20067699,-0.49544463,-0.12948106,809.0842,799.41394,802.6374,801.02563,714.3956,-0.1968994140625,0.12554931640625,0.980224609375,-6.34033203125,-4.687957763671875,9.218902587890625,1,1.0,1.0,1.0,1.0,10.00
2024-10-11 20:13:26.206,0.7303262,0.7248791,0.94843125,1.1699517,0.74109155,0.4099701,0.49831158,0.8112045,1.3478286,0.46610913,0.5072259,1.2728713,0.86440766,0.17100744,0.11002449,0.5711098,0.10055636,-0.20067699,-0.49544463,-0.12948106,806.26373,798.20514,804.2491,801.02563,664.83514,-0.1968994140625,0.12554931640625,0.980224609375,-6.34033203125,-4.687957763671875,9.218902587890625,1,1.0,1.0,1.0,1.0,10.00
2024-10-11 20:13:26.206,0.7303262,0.7248791,0.94843125,1.1699517,0.74109155,0.4099701,0.49831158,0.8112045,1.3478286,0.46610913,0.5072259,1.2728713,0.86440766,0.17100744,0.11002449,0.5711098,0.10055636,-0.20067699,-0.49544463,-0.12948106,809.4872,796.99634,805.8608,805.4579,805.05493,-0.1968994140625,0.12554931640625,0.980224609375,-6.34033203125,-4.687957763671875,9.218902587890625,1,1.0,1.0,1.0,1.0,10.00
2024-10-11 20:13:26.207,0.7303262,0.7248791,0.94843125,1.1699517,0.74109155,0.4099701,0.49831158,0.8112045,1.3478286,0.46610913,0.5072259,1.2728713,0.86440766,0.17100744,0.11002449,0.5711098,0.10055636,-0.20067699,-0.49544463,-0.12948106,812.71063,803.0403,809.89014,814.7253,902.5641,-0.1968994140625,0.12554931640625,0.980224609375,-6.34033203125,-4.687957763671875,9.218902587890625,1,1.0,1.0,1.0,1.0,10.00
2024-10-11 20:13:26.207,0.7303262,0.7248791,0.94843125,1.1699517,0.74109155,0.4099701,0.49831158,0.8112045,1.3478286,0.46610913,0.5072259,1.2728713,0.86440766,0.17100744,0.11002449,0.5711098,0.10055636,-0.20067699,-0.49544463,-0.12948106,813.1135,805.8608,814.3223,818.3516,671.28204,-0.1968994140625,0.12554931640625,0.980224609375,-6.34033203125,-4.687957763671875,9.218902587890625,1,1.0,1.0,1.0,1.0,10.00
2024-10-11 20:13:26.208,0.7303262,0.7248791,0.94843125,1.1699517,0.74109155,0.4099701,0.49831158,0.8112045,1.3478286,0.46610913,0.5072259,1.2728713,0.86440766,0.17100744,0.11002449,0.5711098,0.10055636,-0.20067699,-0.49544463,-0.12948106,813.1135,802.6374,807.8755,811.9048,568.1319,-0.1968994140625,0.12554931640625,0.980224609375,-6.34033203125,-4.687957763671875,9.218902587890625,1,1.0,1.0,1.0,1.0,10.00
2024-10-11 20:13:26.209,0.7303262,0.7248791,0.94843125,1.1699517,0.74109155,0.4099701,0.49831158,0.8112045,1.3478286,0.46610913,0.5072259,1.2728713,0.86440766,0.17100744,0.11002449,0.5711098,0.10055636,-0.20067699,-0.49544463,-0.12948106,807.47253,801.02563,800.2198,800.6227,753.0769,-0.1968994140625,0.12554931640625,0.980224609375,-6.34033203125,-4.687957763671875,9.218902587890625,1,1.0,1.0,1.0,1.0,10.00
2024-10-11 20:13:26.209,0.6956097,0.7012043,0.8985996,1.1427777,0.7105905,0.39145207,0.44776404,0.78591824,1.3478286,0.46610913,0.5011094,1.2706465,0.8607956,0.16885623,0.11564719,0.55542594,0.088364564,-0.25214463,-0.48882782,-0.1501989,805.8608,801.8315,805.05493,804.2491,912.6374,-0.1968994140625,0.12554931640625,0.980224609375,-6.34033203125,-4.687957763671875,9.218902587890625,1,1.0,1.0,1.0,1.0,10.00
2024-10-11 20:13:26.270,0.6956097,0.7012043,0.8985996,1.1427777,0.7105905,0.39145207,0.44776404,0.78591824,1.3478286,0.46610913,0.5011094,1.2706465,0.8607956,0.16885623,0.11564719,0.55542594,0.088364564,-0.25214463,-0.48882782,-0.1501989,802.6374,803.8461,805.05493,804.2491,734.1392,-0.1968994140625,0.12554931640625,0.980224609375,-6.34033203125,-4.687957763671875,9.218902587890625,1,1.0,1.0,1.0,1.0,10.00
2024-10-11 20:13:26.271,0.6956097,0.7012043,0.8985996,1.1427777,0.7105905,0.39145207,0.44776404,0.78591824,1.3478286,0.46610913,0.5011094,1.2706465,0.8607956,0.16885623,0.11564719,0.55542594,0.088364564,-0.25214463,-0.48882782,-0.1501989,794.17584,802.6374,801.02563,797.8022,637.4359,-0.1968994140625,0.12554931640625,0.980224609375,-6.34033203125,-4.687957763671875,9.218902587890625,1,1.0,1.0,1.0,1.0,10.00
2024-10-11 20:13:26.272,0.6956097,0.7012043,0.8985996,1.1427777,0.7105905,0.39145207,0.44776404,0.78591824,1.3478286,0.46610913,0.5011094,1.2706465,0.8607956,0.16885623,0.11564719,0.55542594,0.088364564,-0.25214463,-0.48882782,-0.1501989,798.20514,800.2198,803.8461,803.0403,683.36993,-0.1968994140625,0.12554931640625,0.980224609375,-6.34033203125,-4.687957763671875,9.218902587890625,1,1.0,1.0,1.0,1.0,10.00
2024-10-11 20:13:26.272,0.6956097,0.7012043,0.8985996,1.1427777,0.7105905,0.39145207,0.44776404,0.78591824,1.3478286,0.46610913,0.5011094,1.2706465,0.8607956,0.16885623,0.11564719,0.55542594,0.088364564,-0.25214463,-0.48882782,-0.1501989,801.4286,799.81683,803.44324,807.0696,738.1685,-0.1968994140625,0.12554931640625,0.980224609375,-6.34033203125,-4.687957763671875,9.218902587890625,1,1.0,1.0,1.0,1.0,10.00
2024-10-11 20:13:26.273,0.6956097,0.7012043,0.8985996,1.1427777,0.7105905,0.39145207,0.44776404,0.78591824,1.3478286,0.46610913,0.5011094,1.2706465,0.8607956,0.16885623,0.11564719,0.55542594,0.088364564,-0.25214463,-0.48882782,-0.1501989,803.8461,801.4286,802.6374,805.4579,807.47253,-0.1968994140625,0.12554931640625,0.980224609375,-6.34033203125,-4.687957763671875,9.218902587890625,1,1.0,1.0,1.0,1.0,10.00
2024-10-11 20:13:26.273,0.6956097,0.7012043,0.8985996,1.1427777,0.7105905,0.39145207,0.44776404,0.78591824,1.3478286,0.46610913,0.5011094,1.2706465,0.8607956,0.16885623,0.11564719,0.55542594,0.088364564,-0.25214463,-0.48882782,-0.1501989,808.68134,801.8315,801.8315,811.0989,759.5238,-0.1968994140625,0.12554931640625,0.980224609375,-6.34033203125,-4.687957763671875,9.218902587890625,1,1.0,1.0,1.0,1.0,10.00
2024-10-11 20:13:26.274,0.6956097,0.7012043,0.8985996,1.1427777,0.7105905,0.39145207,0.44776404,0.78591824,1.3478286,0.46610913,0.5011094,1.2706465,0.8607956,0.16885623,0.11564719,0.55542594,0.088364564,-0.25214463,-0.48882782,-0.1501989,809.89014,801.8315,803.8461,819.9634,950.5128,-0.1968994140625,0.12554931640625,0.980224609375,-6.34033203125,-4.687957763671875,9.218902587890625,1,1.0,1.0,1.0,1.0,10.00
2024-10-11 20:13:26.275,0.6956097,0.7012043,0.8985996,1.1427777,0.7105905,0.39145207,0.44776404,0.78591824,1.3478286,0.46610913,0.5011094,1.2706465,0.8607956,0.16885623,0.11564719,0.55542594,0.088364564,-0.25214463,-0.48882782,-0.1501989,798.60803,793.36993,806.26373,827.2161,1097.9854,-0.1968994140625,0.12554931640625,0.980224609375,-6.34033203125,-4.687957763671875,9.218902587890625,1,1.0,1.0,1.0,1.0,10.00
2024-10-11 20:13:26.275,0.6956097,0.7012043,0.8985996,1.1427777,0.7105905,0.39145207,0.44776404,0.78591824,1.3478286,0.46610913,0.5011094,1.2706465,0.8607956,0.16885623,0.11564719,0.55542594,0.088364564,-0.25214463,-0.48882782,-0.1501989,807.47253,794.57874,809.4872,836.8865,774.0293,-0.1968994140625,0.12554931640625,0.980224609375,-6.34033203125,-4.687957763671875,9.218902587890625,1,1.0,1.0,1.0,1.0,10.00
2024-10-11 20:13:26.276,0.6956097,0.7012043,0.8985996,1.1427777,0.7105905,0.39145207,0.44776404,0.78591824,1.3478286,0.46610913,0.5011094,1.2706465,0.8607956,0.16885623,0.11564719,0.55542594,0.088364564,-0.25214463,-0.48882782,-0.1501989,822.7839,813.91943,803.44324,831.2454,696.26373,-0.1968994140625,0.12554931640625,0.980224609375,-6.34033203125,-4.687957763671875,9.218902587890625,1,1.0,1.0,1.0,1.0,10.00
2024-10-11 20:13:26.276,0.6956097,0.7012043,0.8985996,1.1427777,0.7105905,0.39145207,0.44776404,0.78591824,1.3478286,0.46610913,0.5011094,1.2706465,0.8607956,0.16885623,0.11564719,0.55542594,0.088364564,-0.25214463,-0.48882782,-0.1501989,807.0696,814.3223,793.7729,805.4579,747.8388,-0.1968994140625,0.12554931640625,0.980224609375,-6.34033203125,-4.687957763671875,9.218902587890625,1,1.0,1.0,1.0,1.0,10.00
2024-10-11 20:13:26.277,0.6956097,0.7012043,0.8985996,1.1427777,0.7105905,0.39145207,0.44776404,0.78591824,1.3478286,0.46610913,0.5011094,1.2706465,0.8607956,0.16885623,0.11564719,0.55542594,0.088364564,-0.25214463,-0.48882782,-0.1501989,803.8461,806.6667,796.5934,801.02563,640.65936,-0.1968994140625,0.12554931640625,0.980224609375,-6.34033203125,-4.687957763671875,9.218902587890625,1,1.0,1.0,1.0,1.0,10.00
2024-10-11 20:13:26.340,0.6956097,0.7012043,0.8985996,1.1427777,0.7105905,0.39145207,0.44776404,0.78591824,1.3478286,0.46610913,0.5011094,1.2706465,0.8607956,0.16885623,0.11564719,0.55542594,0.088364564,-0.25214463,-0.48882782,-0.1501989,806.26373,808.2784,794.57874,801.02563,560.87915,-0.18328857421875,0.10870361328125,0.98681640625,-4.35150146484375,-5.076751708984375,7.49176025390625,1,1.0,1.0,1.0,1.0,10.00
2024-10-11 20:13:26.341,0.6956097,0.7012043,0.8985996,1.1427777,0.7105905,0.39145207,0.44776404,0.78591824,1.3478286,0.46610913,0.5011094,1.2706465,0.8607956,0.16885623,0.11564719,0.55542594,0.088364564,-0.25214463,-0.48882782,-0.1501989,805.8608,813.5165,786.1172,788.93774,639.85345,-0.18328857421875,0.10870361328125,0.98681640625,-4.35150146484375,-5.076751708984375,7.49176025390625,1,1.0,1.0,1.0,1.0,10.00
2024-10-11 20:13:26.342,0.6956097,0.7012043,0.8985996,1.1427777,0.7105905,0.39145207,0.44776404,0.78591824,1.3478286,0.46610913,0.5011094,1.2706465,0.8607956,0.16885623,0.11564719,0.55542594,0.088364564,-0.25214463,-0.48882782,-0.1501989,807.8755,807.0696,784.10254,791.75824,763.5531,-0.18328857421875,0.10870361328125,0.98681640625,-4.35150146484375,-5.076751708984375,7.49176025390625,1,1.0,1.0,1.0,1.0,10.00
2024-10-11 20:13:26.342,0.6956097,0.7012043,0.8985996,1.1427777,0.7105905,0.39145207,0.44776404,0.78591824,1.3478286,0.46610913,0.5011094,1.2706465,0.8607956,0.16885623,0.11564719,0.55542594,0.088364564,-0.25214463,-0.48882782,-0.1501989,796.99634,801.02563,782.0879,790.9524,734.94507,-0.18328857421875,0.10870361328125,0.98681640625,-4.35150146484375,-5.076751708984375,7.49176025390625,1,1.0,1.0,1.0,1.0,10.00
2024-10-11 20:13:26.343,0.6956097,0.7012043,0.8985996,1.1427777,0.7105905,0.39145207,0.44776404,0.78591824,1.3478286,0.46610913,0.5011094,1.2706465,0.8607956,0.16885623,0.11564719,0.55542594,0.088364564,-0.25214463,-0.48882782,-0.1501989,790.14655,806.26373,779.67035,790.9524,588.68134,-0.18328857421875,0.10870361328125,0.98681640625,-4.35150146484375,-5.076751708984375,7.49176025390625,1,1.0,1.0,1.0,1.0,10.00
2024-10-11 20:13:26.343,0.6956097,0.7012043,0.8985996,1.1427777,0.7105905,0.39145207,0.44776404,0.78591824,1.3478286,0.46610913,0.5011094,1.2706465,0.8607956,0.16885623,0.11564719,0.55542594,0.088364564,-0.25214463,-0.48882782,-0.1501989,800.2198,807.0696,778.46155,800.6227,830.4396,-0.18328857421875,0.10870361328125,0.98681640625,-4.35150146484375,-5.076751708984375,7.49176025390625,1,1.0,1.0,1.0,1.0,10.00
2024-10-11 20:13:26.344,0.6956097,0.7012043,0.8985996,1.1427777,0.7105905,0.39145207,0.44776404,0.78591824,1.3478286,0.46610913,0.5011094,1.2706465,0.8607956,0.16885623,0.11564719,0.55542594,0.088364564,-0.25214463,-0.48882782,-0.1501989,799.41394,808.2784,782.8938,807.47253,1164.8718,-0.18328857421875,0.10870361328125,0.98681640625,-4.35150146484375,-5.076751708984375,7.49176025390625,1,1.0,1.0,1.0,1.0,10.00
2024-10-11 20:13:26.344,0.6956097,0.7012043,0.8985996,1.1427777,0.7105905,0.39145207,0.44776404,0.78591824,1.3478286,0.46610913,0.5011094,1.2706465,0.8607956,0.16885623,0.11564719,0.55542594,0.088364564,-0.25214463,-0.48882782,-0.1501989,795.78754,806.6667,786.9231,804.2491,943.2601,-0.18328857421875,0.10870361328125,0.98681640625,-4.35150146484375,-5.076751708984375,7.49176025390625,1,1.0,1.0,1.0,1.0,10.00
2024-10-11 20:13:26.345,0.6956097,0.7012043,0.8985996,1.1427777,0.7105905,0.39145207,0.44776404,0.78591824,1.3478286,0.46610913,0.5011094,1.2706465,0.8607956,0.16885623,0.11564719,0.55542594,0.088364564,-0.25214463,-0.48882782,-0.1501989,807.8755,805.05493,782.49084,804.65204,602.381,-0.18328857421875,0.10870361328125,0.98681640625,-4.35150146484375,-5.076751708984375,7.49176025390625,1,1.0,1.0,1.0,1.0,10.00
2024-10-11 20:13:26.346,0.6956097,0.7012043,0.8985996,1.1427777,0.7105905,0.39145207,0.44776404,0.78591824,1.3478286,0.46610913,0.5011094,1.2706465,0.8607956,0.16885623,0.11564719,0.55542594,0.088364564,-0.25214463,-0.48882782,-0.1501989,811.9048,803.44324,785.31134,813.91943,717.2161,-0.18328857421875,0.10870361328125,0.98681640625,-4.35150146484375,-5.076751708984375,7.49176025390625,1,1.0,1.0,1.0,1.0,10.00
2024-10-11 20:13:26.346,0.6956097,0.7012043,0.8985996,1.1427777,0.7105905,0.39145207,0.44776404,0.78591824,1.3478286,0.46610913,0.5011094,1.2706465,0.8607956,0.16885623,0.11564719,0.55542594,0.088364564,-0.25214463,-0.48882782,-0.1501989,805.4579,800.6227,788.1319,817.9487,994.0293,-0.18328857421875,0.10870361328125,0.98681640625,-4.35150146484375,-5.076751708984375,7.49176025390625,1,1.0,1.0,1.0,1.0,10.00
2024-10-11 20:13:26.347,0.6956097,0.7012043,0.8985996,1.1427777,0.7105905,0.39145207,0.44776404,0.78591824,1.3478286,0.46610913,0.5011094,1.2706465,0.8607956,0.16885623,0.11564719,0.55542594,0.088364564,-0.25214463,-0.48882782,-0.1501989,803.0403,800.2198,785.7143,814.3223,821.978,-0.18328857421875,0.10870361328125,0.98681640625,-4.35150146484375,-5.076751708984375,7.49176025390625,1,1.0,1.0,1.0,1.0,10.00
2024-10-11 20:13:26.374,0.6956097,0.7012043,0.8985996,1.1427777,0.7105905,0.39145207,0.44776404,0.78591824,1.3478286,0.46610913,0.5011094,1.2706465,0.8607956,0.16885623,0.11564719,0.55542594,0.088364564,-0.25214463,-0.48882782,-0.1501989,811.9048,799.41394,788.1319,809.0842,641.06226,-0.1612548828125,0.084716796875,0.9942626953125,-4.6954345703125,-0.0,1.74957275390625,1,1.0,1.0,1.0,1.0,10.00
2024-10-11 20:13:26.375,0.6435666,0.66564935,0.81289655,1.1015528,0.66745335,0.35447693,0.36644238,0.7672772,1.3478286,0.46610913,0.47447982,1.2797453,0.838883,0.1615323,0.115822874,0.5415286,0.05920365,-0.30440482,-0.48379174,-0.1641503,809.89014,802.6374,789.7436,811.9048,766.77655,-0.1612548828125,0.084716796875,0.9942626953125,-4.6954345703125,-0.0,1.74957275390625,1,1.0,1.0,1.0,1.0,10.00
2024-10-11 20:13:26.380,0.6435666,0.66564935,0.81289655,1.1015528,0.66745335,0.35447693,0.36644238,0.7672772,1.3478286,0.46610913,0.47447982,1.2797453,0.838883,0.1615323,0.115822874,0.5415286,0.05920365,-0.30440482,-0.48379174,-0.1641503,807.47253,800.2198,784.5055,811.50183,874.7619,-0.1612548828125,0.084716796875,0.9942626953125,-4.6954345703125,-0.0,1.74957275390625,1,1.0,1.0,1.0,1.0,10.00
2024-10-11 20:13:26.381,0.6435666,0.66564935,0.81289655,1.1015528,0.66745335,0.35447693,0.36644238,0.7672772,1.3478286,0.46610913,0.47447982,1.2797453,0.838883,0.1615323,0.115822874,0.5415286,0.05920365,-0.30440482,-0.48379174,-0.1641503,811.9048,796.99634,785.31134,804.65204,794.9817,-0.1612548828125,0.084716796875,0.9942626953125,-4.6954345703125,-0.0,1.74957275390625,1,1.0,1.0,1.0,1.0,10.00
2024-10-11 20:13:26.382,0.6435666,0.66564935,0.81289655,1.1015528,0.66745335,0.35447693,0.36644238,0.7672772,1.3478286,0.46610913,0.47447982,1.2797453,0.838883,0.1615323,0.115822874,0.5415286,0.05920365,-0.30440482,-0.48379174,-0.1641503,803.44324,802.6374,791.3553,802.23444,702.71063,-0.1612548828125,0.084716796875,0.9942626953125,-4.6954345703125,-0.0,1.74957275390625,1,1.0,1.0,1.0,1.0,10.00
2024-10-11 20:13:26.382,0.6435666,0.66564935,0.81289655,1.1015528,0.66745335,0.35447693,0.36644238,0.7672772,1.3478286,0.46610913,0.47447982,1.2797453,0.838883,0.1615323,0.115822874,0.5415286,0.05920365,-0.30440482,-0.48379174,-0.1641503,800.2198,800.2198,789.34064,807.8755,938.4249,-0.1612548828125,0.084716796875,0.9942626953125,-4.6954345703125,-0.0,1.74957275390625,1,1.0,1.0,1.0,1.0,10.00
2024-10-11 20:13:26.383,0.6435666,0.66564935,0.81289655,1.1015528,0.66745335,0.35447693,0.36644238,0.7672772,1.3478286,0.46610913,0.47447982,1.2797453,0.838883,0.1615323,0.115822874,0.5415286,0.05920365,-0.30440482,-0.48379174,-0.1641503,805.05493,797.3993,789.7436,811.50183,1056.4835,-0.1612548828125,0.084716796875,0.9942626953125,-4.6954345703125,-0.0,1.74957275390625,1,1.0,1.0,1.0,1.0,10.00
2024-10-11 20:13:26.383,0.6435666,0.66564935,0.81289655,1.1015528,0.66745335,0.35447693,0.36644238,0.7672772,1.3478286,0.46610913,0.47447982,1.2797453,0.838883,0.1615323,0.115822874,0.5415286,0.05920365,-0.30440482,-0.48379174,-0.1641503,809.89014,800.2198,792.1612,808.68134,846.1539,-0.1612548828125,0.084716796875,0.9942626953125,-4.6954345703125,-0.0,1.74957275390625,1,1.0,1.0,1.0,1.0,10.00
2024-10-11 20:13:26.384,0.6435666,0.66564935,0.81289655,1.1015528,0.66745335,0.35447693,0.36644238,0.7672772,1.3478286,0.46610913,0.47447982,1.2797453,0.838883,0.1615323,0.115822874,0.5415286,0.05920365,-0.30440482,-0.48379174,-0.1641503,815.5311,799.011,794.9817,803.44324,711.1722,-0.1612548828125,0.084716796875,0.9942626953125,-4.6954345703125,-0.0,1.74957275390625,1,1.0,1.0,1.0,1.0,10.00
2024-10-11 20:13:26.384,0.6435666,0.66564935,0.81289655,1.1015528,0.66745335,0.35447693,0.36644238,0.7672772,1.3478286,0.46610913,0.47447982,1.2797453,0.838883,0.1615323,0.115822874,0.5415286,0.05920365,-0.30440482,-0.48379174,-0.1641503,815.9341,797.3993,793.36993,801.02563,828.022,-0.1612548828125,0.084716796875,0.9942626953125,-4.6954345703125,-0.0,1.74957275390625,1,1.0,1.0,1.0,1.0,10.00
2024-10-11 20:13:26.385,0.6435666,0.66564935,0.81289655,1.1015528,0.66745335,0.35447693,0.36644238,0.7672772,1.3478286,0.46610913,0.47447982,1.2797453,0.838883,0.1615323,0.115822874,0.5415286,0.05920365,-0.30440482,-0.48379174,-0.1641503,819.5604,796.5934,795.78754,807.47253,882.8205,-0.1612548828125,0.084716796875,0.9942626953125,-4.6954345703125,-0.0,1.74957275390625,1,1.0,1.0,1.0,1.0,10.00
2024-10-11 20:13:26.385,0.6435666,0.66564935,0.81289655,1.1015528,0.66745335,0.35447693,0.36644238,0.7672772,1.3478286,0.46610913,0.47447982,1.2797453,0.838883,0.1615323,0.115822874,0.5415286,0.05920365,-0.30440482,-0.48379174,-0.1641503,818.7546,799.41394,799.011,802.23444,773.22345,-0.1612548828125,0.084716796875,0.9942626953125,-4.6954345703125,-0.0,1.74957275390625,1,1.0,1.0,1.0,1.0,10.00
2024-10-11 20:13:26.412,0.6435666,0.66564935,0.81289655,1.1015528,0.66745335,0.35447693,0.36644238,0.7672772,1.3478286,0.46610913,0.47447982,1.2797453,0.838883,0.1615323,0.115822874,0.5415286,0.05920365,-0.30440482,-0.48379174,-0.1641503,811.0989,801.02563,796.99634,796.99634,738.5714,-0.14813232421875,0.0281982421875,1.01556396484375,-6.0711669921875,-2.205657958984375,-5.585174560546875,1,1.0,1.0,1.0,1.0,10.00
2024-10-11 20:13:26.413,0.6435666,0.66564935,0.81289655,1.1015528,0.66745335,0.35447693,0.36644238,0.7672772,1.3478286,0.46610913,0.47447982,1.2797453,0.838883,0.1615323,0.115822874,0.5415286,0.05920365,-0.30440482,-0.48379174,-0.1641503,808.68134,794.9817,799.011,808.2784,784.10254,-0.14813232421875,0.0281982421875,1.01556396484375,-6.0711669921875,-2.205657958984375,-5.585174560546875,1,1.0,1.0,1.0,1.0,10.00
2024-10-11 20:13:26.414,0.6435666,0.66564935,0.81289655,1.1015528,0.66745335,0.35447693,0.36644238,0.7672772,1.3478286,0.46610913,0.47447982,1.2797453,0.838883,0.1615323,0.115822874,0.5415286,0.05920365,-0.30440482,-0.48379174,-0.1641503,800.6227,799.41394,797.3993,808.2784,850.58606,-0.14813232421875,0.0281982421875,1.01556396484375,-6.0711669921875,-2.205657958984375,-5.585174560546875,1,1.0,1.0,1.0,1.0,10.00
2024-10-11 20:13:26.414,0.6435666,0.66564935,0.81289655,1.1015528,0.66745335,0.35447693,0.36644238,0.7672772,1.3478286,0.46610913,0.47447982,1.2797453,0.838883,0.1615323,0.115822874,0.5415286,0.05920365,-0.30440482,-0.48379174,-0.1641503,796.1905,805.05493,793.7729,801.8315,786.52014,-0.14813232421875,0.0281982421875,1.01556396484375,-6.0711669921875,-2.205657958984375,-5.585174560546875,1,1.0,1.0,1.0,1.0,10.00
2024-10-11 20:13:26.415,0.6435666,0.66564935,0.81289655,1.1015528,0.66745335,0.35447693,0.36644238,0.7672772,1.3478286,0.46610913,0.47447982,1.2797453,0.838883,0.1615323,0.115822874,0.5415286,0.05920365,-0.30440482,-0.48379174,-0.1641503,804.65204,800.6227,800.2198,804.65204,796.5934,-0.14813232421875,0.0281982421875,1.01556396484375,-6.0711669921875,-2.205657958984375,-5.585174560546875,1,1.0,1.0,1.0,1.0,10.00
2024-10-11 20:13:26.415,0.6435666,0.66564935,0.81289655,1.1015528,0.66745335,0.35447693,0.36644238,0.7672772,1.3478286,0.46610913,0.47447982,1.2797453,0.838883,0.1615323,0.115822874,0.5415286,0.05920365,-0.30440482,-0.48379174,-0.1641503,804.2491,799.41394,799.81683,806.6667,1265.2014,-0.14813232421875,0.0281982421875,1.01556396484375,-6.0711669921875,-2.205657958984375,-5.585174560546875,1,1.0,1.0,1.0,1.0,10.00
2024-10-11 20:13:26.416,0.6435666,0.66564935,0.81289655,1.1015528,0.66745335,0.35447693,0.36644238,0.7672772,1.3478286,0.46610913,0.47447982,1.2797453,0.838883,0.1615323,0.115822874,0.5415286,0.05920365,-0.30440482,-0.48379174,-0.1641503,801.4286,801.8315,794.9817,803.0403,1290.989,-0.14813232421875,0.0281982421875,1.01556396484375,-6.0711669921875,-2.205657958984375,-5.585174560546875,1,1.0,1.0,1.0,1.0,10.00
2024-10-11 20:13:26.417,0.6435666,0.66564935,0.81289655,1.1015528,0.66745335,0.35447693,0.36644238,0.7672772,1.3478286,0.46610913,0.47447982,1.2797453,0.838883,0.1615323,0.115822874,0.5415286,0.05920365,-0.30440482,-0.48379174,-0.1641503,804.65204,801.8315,797.3993,805.8608,768.3883,-0.14813232421875,0.0281982421875,1.01556396484375,-6.0711669921875,-2.205657958984375,-5.585174560546875,1,1.0,1.0,1.0,1.0,10.00
2024-10-11 20:13:26.417,0.6435666,0.66564935,0.81289655,1.1015528,0.66745335,0.35447693,0.36644238,0.7672772,1.3478286,0.46610913,0.47447982,1.2797453,0.838883,0.1615323,0.115822874,0.5415286,0.05920365,-0.30440482,-0.48379174,-0.1641503,803.0403,800.2198,799.41394,807.47253,759.92676,-0.14813232421875,0.0281982421875,1.01556396484375,-6.0711669921875,-2.205657958984375,-5.585174560546875,1,1.0,1.0,1.0,1.0,10.00
2024-10-11 20:13:26.418,0.6435666,0.66564935,0.81289655,1.1015528,0.66745335,0.35447693,0.36644238,0.7672772,1.3478286,0.46610913,0.47447982,1.2797453,0.838883,0.1615323,0.115822874,0.5415286,0.05920365,-0.30440482,-0.48379174,-0.1641503,808.2784,803.0403,799.011,807.47253,807.47253,-0.14813232421875,0.0281982421875,1.01556396484375,-6.0711669921875,-2.205657958984375,-5.585174560546875,1,1.0,1.0,1.0,1.0,10.00
2024-10-11 20:13:26.418,0.6435666,0.66564935,0.81289655,1.1015528,0.66745335,0.35447693,0.36644238,0.7672772,1.3478286,0.46610913,0.47447982,1.2797453,0.838883,0.1615323,0.115822874,0.5415286,0.05920365,-0.30440482,-0.48379174,-0.1641503,811.50183,806.26373,797.8022,807.0696,573.36993,-0.14813232421875,0.0281982421875,1.01556396484375,-6.0711669921875,-2.205657958984375,-5.585174560546875,1,1.0,1.0,1.0,1.0,10.00
2024-10-11 20:13:26.419,0.6435666,0.66564935,0.81289655,1.1015528,0.66745335,0.35447693,0.36644238,0.7672772,1.3478286,0.46610913,0.47447982,1.2797453,0.838883,0.1615323,0.115822874,0.5415286,0.05920365,-0.30440482,-0.48379174,-0.1641503,807.8755,803.0403,796.99634,803.0403,587.47253,-0.14813232421875,0.0281982421875,1.01556396484375,-6.0711669921875,-2.205657958984375,-5.585174560546875,1,1.0,1.0,1.0,1.0,10.00
2024-10-11 20:13:26.508,0.6435666,0.66564935,0.81289655,1.1015528,0.66745335,0.35447693,0.36644238,0.7672772,1.3478286,0.46610913,0.47447982,1.2797453,0.838883,0.1615323,0.115822874,0.5415286,0.05920365,-0.30440482,-0.48379174,-0.1641503,810.293,801.4286,797.8022,806.26373,960.58606,-0.119140625,0.02508544921875,0.9566650390625,1.472930908203125,1.996307373046875,-7.237548828125,1,1.0,1.0,1.0,1.0,10.00
2024-10-11 20:13:26.509,0.6435666,0.66564935,0.81289655,1.1015528,0.66745335,0.35447693,0.36644238,0.7672772,1.3478286,0.46610913,0.47447982,1.2797453,0.838883,0.1615323,0.115822874,0.5415286,0.05920365,-0.30440482,-0.48379174,-0.1641503,809.0842,802.23444,800.6227,807.0696,958.1685,-0.119140625,0.02508544921875,0.9566650390625,1.472930908203125,1.996307373046875,-7.237548828125,1,1.0,1.0,1.0,1.0,10.00
2024-10-11 20:13:26.509,0.6435666,0.66564935,0.81289655,1.1015528,0.66745335,0.35447693,0.36644238,0.7672772,1.3478286,0.46610913,0.47447982,1.2797453,0.838883,0.1615323,0.115822874,0.5415286,0.05920365,-0.30440482,-0.48379174,-0.1641503,806.26373,801.02563,799.41394,799.81683,561.28204,-0.119140625,0.02508544921875,0.9566650390625,1.472930908203125,1.996307373046875,-7.237548828125,1,1.0,1.0,1.0,1.0,10.00
2024-10-11 20:13:26.510,0.5818767,0.6251122,0.69383615,1.0521531,0.6129279,0.29713514,0.26951134,0.7579462,1.3478286,0.46610913,0.4473898,1.2823652,0.79262966,0.15011485,0.108455285,0.5336263,0.013420228,-0.35678896,-0.48004776,-0.16692933,806.26373,803.0403,801.8315,800.2198,654.7619,-0.119140625,0.02508544921875,0.9566650390625,1.472930908203125,1.996307373046875,-7.237548828125,1,1.0,1.0,1.0,1.0,10.00
2024-10-11 20:13:26.515,0.5818767,0.6251122,0.69383615,1.0521531,0.6129279,0.29713514,0.26951134,0.7579462,1.3478286,0.46610913,0.4473898,1.2823652,0.79262966,0.15011485,0.108455285,0.5336263,0.013420228,-0.35678896,-0.48004776,-0.16692933,809.4872,799.41394,802.23444,799.41394,876.3736,-0.119140625,0.02508544921875,0.9566650390625,1.472930908203125,1.996307373046875,-7.237548828125,1,1.0,1.0,1.0,1.0,10.00
2024-10-11 20:13:26.516,0.5818767,0.6251122,0.69383615,1.0521531,0.6129279,0.29713514,0.26951134,0.7579462,1.3478286,0.46610913,0.4473898,1.2823652,0.79262966,0.15011485,0.108455285,0.5336263,0.013420228,-0.35678896,-0.48004776,-0.16692933,811.0989,795.38464,798.20514,796.99634,837.6923,-0.119140625,0.02508544921875,0.9566650390625,1.472930908203125,1.996307373046875,-7.237548828125,1,1.0,1.0,1.0,1.0,10.00
2024-10-11 20:13:26.516,0.5818767,0.6251122,0.69383615,1.0521531,0.6129279,0.29713514,0.26951134,0.7579462,1.3478286,0.46610913,0.4473898,1.2823652,0.79262966,0.15011485,0.108455285,0.5336263,0.013420228,-0.35678896,-0.48004776,-0.16692933,797.3993,795.78754,797.8022,796.5934,743.00366,-0.119140625,0.02508544921875,0.9566650390625,1.472930908203125,1.996307373046875,-7.237548828125,1,1.0,1.0,1.0,1.0,10.00
2024-10-11 20:13:26.517,0.5818767,0.6251122,0.69383615,1.0521531,0.6129279,0.29713514,0.26951134,0.7579462,1.3478286,0.46610913,0.4473898,1.2823652,0.79262966,0.15011485,0.108455285,0.5336263,0.013420228,-0.35678896,-0.48004776,-0.16692933,794.9817,794.9817,801.4286,798.60803,693.0403,-0.119140625,0.02508544921875,0.9566650390625,1.472930908203125,1.996307373046875,-7.237548828125,1,1.0,1.0,1.0,1.0,10.00
2024-10-11 20:13:26.518,0.5818767,0.6251122,0.69383615,1.0521531,0.6129279,0.29713514,0.26951134,0.7579462,1.3478286,0.46610913,0.4473898,1.2823652,0.79262966,0.15011485,0.108455285,0.5336263,0.013420228,-0.35678896,-0.48004776,-0.16692933,804.65204,793.36993,803.0403,809.89014,874.35895,-0.119140625,0.02508544921875,0.9566650390625,1.472930908203125,1.996307373046875,-7.237548828125,1,1.0,1.0,1.0,1.0,10.00
2024-10-11 20:13:26.518,0.5818767,0.6251122,0.69383615,1.0521531,0.6129279,0.29713514,0.26951134,0.7579462,1.3478286,0.46610913,0.4473898,1.2823652,0.79262966,0.15011485,0.108455285,0.5336263,0.013420228,-0.35678896,-0.48004776,-0.16692933,805.4579,794.9817,801.8315,807.0696,946.8865,-0.119140625,0.02508544921875,0.9566650390625,1.472930908203125,1.996307373046875,-7.237548828125,1,1.0,1.0,1.0,1.0,10.00
2024-10-11 20:13:26.519,0.5818767,0.6251122,0.69383615,1.0521531,0.6129279,0.29713514,0.26951134,0.7579462,1.3478286,0.46610913,0.4473898,1.2823652,0.79262966,0.15011485,0.108455285,0.5336263,0.013420228,-0.35678896,-0.48004776,-0.16692933,806.6667,794.57874,804.2491,799.81683,672.8938,-0.119140625,0.02508544921875,0.9566650390625,1.472930908203125,1.996307373046875,-7.237548828125,1,1.0,1.0,1.0,1.0,10.00
2024-10-11 20:13:26.519,0.5818767,0.6251122,0.69383615,1.0521531,0.6129279,0.29713514,0.26951134,0.7579462,1.3478286,0.46610913,0.4473898,1.2823652,0.79262966,0.15011485,0.108455285,0.5336263,0.013420228,-0.35678896,-0.48004776,-0.16692933,802.23444,797.8022,801.8315,804.65204,643.8828,-0.119140625,0.02508544921875,0.9566650390625,1.472930908203125,1.996307373046875,-7.237548828125,1,1.0,1.0,1.0,1.0,10.00
2024-10-11 20:13:26.520,0.5818767,0.6251122,0.69383615,1.0521531,0.6129279,0.29713514,0.26951134,0.7579462,1.3478286,0.46610913,0.4473898,1.2823652,0.79262966,0.15011485,0.108455285,0.5336263,0.013420228,-0.35678896,-0.48004776,-0.16692933,797.8022,796.1905,802.6374,811.0989,949.304,-0.119140625,0.02508544921875,0.9566650390625,1.472930908203125,1.996307373046875,-7.237548828125,1,1.0,1.0,1.0,1.0,10.00
2024-10-11 20:13:26.521,0.5818767,0.6251122,0.69383615,1.0521531,0.6129279,0.29713514,0.26951134,0.7579462,1.3478286,0.46610913,0.4473898,1.2823652,0.79262966,0.15011485,0.108455285,0.5336263,0.013420228,-0.35678896,-0.48004776,-0.16692933,805.4579,792.5641,804.65204,807.0696,973.0769,-0.119140625,0.02508544921875,0.9566650390625,1.472930908203125,1.996307373046875,-7.237548828125,1,1.0,1.0,1.0,1.0,10.00
2024-10-11 20:13:26.521,0.5818767,0.6251122,0.69383615,1.0521531,0.6129279,0.29713514,0.26951134,0.7579462,1.3478286,0.46610913,0.4473898,1.2823652,0.79262966,0.15011485,0.108455285,0.5336263,0.013420228,-0.35678896,-0.48004776,-0.16692933,796.99634,796.1905,797.3993,797.8022,743.4066,-0.119140625,0.02508544921875,0.9566650390625,1.472930908203125,1.996307373046875,-7.237548828125,1,1.0,1.0,1.0,1.0,10.00
2024-10-11 20:13:26.522,0.5818767,0.6251122,0.69383615,1.0521531,0.6129279,0.29713514,0.26951134,0.7579462,1.3478286,0.46610913,0.4473898,1.2823652,0.79262966,0.15011485,0.108455285,0.5336263,0.013420228,-0.35678896,-0.48004776,-0.16692933,792.1612,797.8022,795.38464,802.23444,747.4359,-0.119140625,0.02508544921875,0.9566650390625,1.472930908203125,1.996307373046875,-7.237548828125,1,1.0,1.0,1.0,1.0,10.00
2024-10-11 20:13:26.522,0.5818767,0.6251122,0.69383615,1.0521531,0.6129279,0.29713514,0.26951134,0.7579462,1.3478286,0.46610913,0.4473898,1.2823652,0.79262966,0.15011485,0.108455285,0.5336263,0.013420228,-0.35678896,-0.48004776,-0.16692933,796.1905,793.7729,801.4286,809.89014,894.10254,-0.119140625,0.02508544921875,0.9566650390625,1.472930908203125,1.996307373046875,-7.237548828125,1,1.0,1.0,1.0,1.0,10.00
2024-10-11 20:13:26.523,0.5818767,0.6251122,0.69383615,1.0521531,0.6129279,0.29713514,0.26951134,0.7579462,1.3478286,0.46610913,0.4473898,1.2823652,0.79262966,0.15011485,0.108455285,0.5336263,0.013420228,-0.35678896,-0.48004776,-0.16692933,790.9524,792.5641,801.8315,809.0842,1006.52014,-0.119140625,0.02508544921875,0.9566650390625,1.472930908203125,1.996307373046875,-7.237548828125,1,1.0,1.0,1.0,1.0,10.00
2024-10-11 20:13:26.523,0.5818767,0.6251122,0.69383615,1.0521531,0.6129279,0.29713514,0.26951134,0.7579462,1.3478286,0.46610913,0.4473898,1.2823652,0.79262966,0.15011485,0.108455285,0.5336263,0.013420228,-0.35678896,-0.48004776,-0.16692933,793.7729,795.38464,799.41394,806.26373,868.315,-0.119140625,0.02508544921875,0.9566650390625,1.472930908203125,1.996307373046875,-7.237548828125,1,1.0,1.0,1.0,1.0,10.00
2024-10-11 20:13:26.524,0.5818767,0.6251122,0.69383615,1.0521531,0.6129279,0.29713514,0.26951134,0.7579462,1.3478286,0.46610913,0.4473898,1.2823652,0.79262966,0.15011485,0.108455285,0.5336263,0.013420228,-0.35678896,-0.48004776,-0.16692933,801.8315,791.75824,800.2198,806.26373,759.12085,-0.119140625,0.02508544921875,0.9566650390625,1.472930908203125,1.996307373046875,-7.237548828125,1,1.0,1.0,1.0,1.0,10.00
2024-10-11 20:13:26.524,0.5818767,0.6251122,0.69383615,1.0521531,0.6129279,0.29713514,0.26951134,0.7579462,1.3478286,0.46610913,0.4473898,1.2823652,0.79262966,0.15011485,0.108455285,0.5336263,0.013420228,-0.35678896,-0.48004776,-0.16692933,801.8315,792.1612,797.8022,804.2491,802.23444,-0.119140625,0.02508544921875,0.9566650390625,1.472930908203125,1.996307373046875,-7.237548828125,1,1.0,1.0,1.0,1.0,10.00
2024-10-11 20:13:26.525,0.5818767,0.6251122,0.69383615,1.0521531,0.6129279,0.29713514,0.26951134,0.7579462,1.3478286,0.46610913,0.4473898,1.2823652,0.79262966,0.15011485,0.108455285,0.5336263,0.013420228,-0.35678896,-0.48004776,-0.16692933,800.6227,792.96704,799.81683,808.68134,738.1685,-0.119140625,0.02508544921875,0.9566650390625,1.472930908203125,1.996307373046875,-7.237548828125,1,1.0,1.0,1.0,1.0,10.00
2024-10-11 20:13:26.526,0.5818767,0.6251122,0.69383615,1.0521531,0.6129279,0.29713514,0.26951134,0.7579462,1.3478286,0.46610913,0.4473898,1.2823652,0.79262966,0.15011485,0.108455285,0.5336263,0.013420228,-0.35678896,-0.48004776,-0.16692933,797.3993,789.7436,805.8608,815.12823,656.77655,-0.119140625,0.02508544921875,0.9566650390625,1.472930908203125,1.996307373046875,-7.237548828125,1,1.0,1.0,1.0,1.0,10.00
2024-10-11 20:13:26.526,0.5818767,0.6251122,0.69383615,1.0521531,0.6129279,0.29713514,0.26951134,0.7579462,1.3478286,0.46610913,0.4473898,1.2823652,0.79262966,0.15011485,0.108455285,0.5336263,0.013420228,-0.35678896,-0.48004776,-0.16692933,797.3993,791.75824,805.05493,814.3223,743.00366,-0.119140625,0.02508544921875,0.9566650390625,1.472930908203125,1.996307373046875,-7.237548828125,1,1.0,1.0,1.0,1.0,10.00
2024-10-11 20:13:26.555,0.5818767,0.6251122,0.69383615,1.0521531,0.6129279,0.29713514,0.26951134,0.7579462,1.3478286,0.46610913,0.4473898,1.2823652,0.79262966,0.15011485,0.108455285,0.5336263,0.013420228,-0.35678896,-0.48004776,-0.16692933,801.8315,793.7729,811.0989,816.337,878.3883,-0.16009521484375,0.0640869140625,0.98406982421875,7.319793701171875,5.884246826171875,-2.145843505859375,1,1.0,1.0,1.0,1.0,10.00
2024-10-11 20:13:26.556,0.5818767,0.6251122,0.69383615,1.0521531,0.6129279,0.29713514,0.26951134,0.7579462,1.3478286,0.46610913,0.4473898,1.2823652,0.79262966,0.15011485,0.108455285,0.5336263,0.013420228,-0.35678896,-0.48004776,-0.16692933,799.011,794.9817,814.7253,821.1722,857.4359,-0.16009521484375,0.0640869140625,0.98406982421875,7.319793701171875,5.884246826171875,-2.145843505859375,1,1.0,1.0,1.0,1.0,10.00
2024-10-11 20:13:26.556,0.5818767,0.6251122,0.69383615,1.0521531,0.6129279,0.29713514,0.26951134,0.7579462,1.3478286,0.46610913,0.4473898,1.2823652,0.79262966,0.15011485,0.108455285,0.5336263,0.013420228,-0.35678896,-0.48004776,-0.16692933,793.7729,796.5934,805.8608,821.5751,762.74725,-0.16009521484375,0.0640869140625,0.98406982421875,7.319793701171875,5.884246826171875,-2.145843505859375,1,1.0,1.0,1.0,1.0,10.00
