TimeStamp,Delta_TP9,Delta_AF7,Delta_AF8,Delta_TP10,Theta_TP9,Theta_AF7,Theta_AF8,Theta_TP10,Alpha_TP9,Alpha_AF7,Alpha_AF8,Alpha_TP10,Beta_TP9,Beta_AF7,Beta_AF8,Beta_TP10,Gamma_TP9,Gamma_AF7,Gamma_AF8,Gamma_TP10,RAW_TP9,RAW_AF7,RAW_AF8,RAW_TP10,AUX_RIGHT,Accelerometer_X,Accelerometer_Y,Accelerometer_Z,Gyro_X,Gyro_Y,Gyro_Z,HeadBandOn,HSI_TP9,HSI_AF7,HSI_AF8,HSI_TP10,Battery,Elements
2024-10-11 20:22:13.846,1.0965457,1.2328441,0.79557985,0.7333324,0.8362484,0.6298453,0.44254765,0.2535235,0.9269942,0.35812896,0.068367526,0.59103715,0.3821684,0.3865734,-0.08572505,0.22638728,0.37251702,-0.15947023,-0.20775214,0.16004242,803.8461,800.2198,776.8498,817.1429,729.707,0.15960693359375,0.08441162109375,0.98443603515625,0.6878662109375,-2.983245849609375,-1.248626708984375,1,1.0,1.0,1.0,1.0,10.00
2024-10-11 20:22:13.847,1.0965457,1.2328441,0.79557985,0.7333324,0.8362484,0.6298453,0.44254765,0.2535235,0.9269942,0.35812896,0.068367526,0.59103715,0.3821684,0.3865734,-0.08572505,0.22638728,0.37251702,-0.15947023,-0.20775214,0.16004242,806.6667,801.02563,775.2381,821.978,960.989,0.15960693359375,0.08441162109375,0.98443603515625,0.6878662109375,-2.983245849609375,-1.248626708984375,1,1.0,1.0,1.0,1.0,10.00
2024-10-11 20:22:13.848,1.0965457,1.2328441,0.79557985,0.7333324,0.8362484,0.6298453,0.44254765,0.2535235,0.9269942,0.35812896,0.068367526,0.59103715,0.3821684,0.3865734,-0.08572505,0.22638728,0.37251702,-0.15947023,-0.20775214,0.16004242,807.8755,805.4579,773.6264,814.7253,749.85345,0.15960693359375,0.08441162109375,0.98443603515625,0.6878662109375,-2.983245849609375,-1.248626708984375,1,1.0,1.0,1.0,1.0,10.00
2024-10-11 20:22:13.848,1.0965457,1.2328441,0.79557985,0.7333324,0.8362484,0.6298453,0.44254765,0.2535235,0.9269942,0.35812896,0.068367526,0.59103715,0.3821684,0.3865734,-0.08572505,0.22638728,0.37251702,-0.15947023,-0.20775214,0.16004242,812.3077,815.12823,780.07324,811.0989,629.7802,0.15960693359375,0.08441162109375,0.98443603515625,0.6878662109375,-2.983245849609375,-1.248626708984375,1,1.0,1.0,1.0,1.0,10.00
2024-10-11 20:22:13.849,1.0965457,1.2328441,0.79557985,0.7333324,0.8362484,0.6298453,0.44254765,0.2535235,0.9269942,0.35812896,0.068367526,0.59103715,0.3821684,0.3865734,-0.08572505,0.22638728,0.37251702,-0.15947023,-0.20775214,0.16004242,821.1722,815.5311,778.86444,813.1135,841.7216,0.15960693359375,0.08441162109375,0.98443603515625,0.6878662109375,-2.983245849609375,-1.248626708984375,1,1.0,1.0,1.0,1.0,10.00
2024-10-11 20:22:13.849,1.0965457,1.1788756,0.79557985,0.7333324,0.8362484,0.5871499,0.44254765,0.2535235,0.9269942,0.35812896,0.068367526,0.59103715,0.3821684,0.3907119,-0.08572505,0.22638728,0.37251702,-0.14683993,-0.20775214,0.16004242,831.2454,814.3223,780.07324,818.3516,923.1135,0.15960693359375,0.08441162109375,0.98443603515625,0.6878662109375,-2.983245849609375,-1.248626708984375,1,1.0,1.0,1.0,1.0,10.00
2024-10-11 20:22:13.853,1.0965457,1.1788756,0.79557985,0.7333324,0.8362484,0.5871499,0.44254765,0.2535235,0.9269942,0.35812896,0.068367526,0.59103715,0.3821684,0.3907119,-0.08572505,0.22638728,0.37251702,-0.14683993,-0.20775214,0.16004242,828.8278,814.7253,784.5055,813.91943,800.6227,0.15960693359375,0.08441162109375,0.98443603515625,0.6878662109375,-2.983245849609375,-1.248626708984375,1,1.0,1.0,1.0,1.0,10.00
2024-10-11 20:22:13.854,1.0965457,1.1788756,0.79557985,0.7333324,0.8362484,0.5871499,0.44254765,0.2535235,0.9269942,0.35812896,0.068367526,0.59103715,0.3821684,0.3907119,-0.08572505,0.22638728,0.37251702,-0.14683993,-0.20775214,0.16004242,821.1722,807.8755,784.90845,803.8461,783.2967,0.15960693359375,0.08441162109375,0.98443603515625,0.6878662109375,-2.983245849609375,-1.248626708984375,1,1.0,1.0,1.0,1.0,10.00
2024-10-11 20:22:13.854,1.0965457,1.1788756,0.79557985,0.7333324,0.8362484,0.5871499,0.44254765,0.2535235,0.9269942,0.35812896,0.068367526,0.59103715,0.3821684,0.3907119,-0.08572505,0.22638728,0.37251702,-0.14683993,-0.20775214,0.16004242,822.7839,807.0696,782.8938,803.8461,834.0659,0.15960693359375,0.08441162109375,0.98443603515625,0.6878662109375,-2.983245849609375,-1.248626708984375,1,1.0,1.0,1.0,1.0,10.00
2024-10-11 20:22:13.855,1.0965457,1.1788756,0.79557985,0.7333324,0.8362484,0.5871499,0.44254765,0.2535235,0.9269942,0.35812896,0.068367526,0.59103715,0.3821684,0.3907119,-0.08572505,0.22638728,0.37251702,-0.14683993,-0.20775214,0.16004242,820.3663,799.011,781.28204,803.8461,831.6484,0.15960693359375,0.08441162109375,0.98443603515625,0.6878662109375,-2.983245849609375,-1.248626708984375,1,1.0,1.0,1.0,1.0,10.00
2024-10-11 20:22:13.856,1.0965457,1.1788756,0.79557985,0.7333324,0.8362484,0.5871499,0.44254765,0.2535235,0.9269942,0.35812896,0.068367526,0.59103715,0.3821684,0.3907119,-0.08572505,0.22638728,0.37251702,-0.14683993,-0.20775214,0.16004242,818.7546,790.54944,781.28204,801.02563,718.4249,0.15960693359375,0.08441162109375,0.98443603515625,0.6878662109375,-2.983245849609375,-1.248626708984375,1,1.0,1.0,1.0,1.0,10.00
2024-10-11 20:22:13.857,1.0965457,1.1788756,0.79557985,0.7333324,0.8362484,0.5871499,0.44254765,0.2535235,0.9269942,0.35812896,0.068367526,0.59103715,0.3821684,0.3907119,-0.08572505,0.22638728,0.37251702,-0.14683993,-0.20775214,0.16004242,815.9341,802.6374,786.52014,797.8022,662.4176,0.15960693359375,0.08441162109375,0.98443603515625,0.6878662109375,-2.983245849609375,-1.248626708984375,1,1.0,1.0,1.0,1.0,10.00
2024-10-11 20:22:13.886,1.0965457,1.1788756,0.79557985,0.7333324,0.8362484,0.5871499,0.44254765,0.2535235,0.9269942,0.35812896,0.068367526,0.59103715,0.3821684,0.3907119,-0.08572505,0.22638728,0.37251702,-0.14683993,-0.20775214,0.16004242,815.9341,815.9341,791.75824,795.78754,747.03296,0.1668701171875,0.08538818359375,0.98992919921875,0.7476806640625,-3.54400634765625,-1.36077880859375,1,1.0,1.0,1.0,1.0,10.00
2024-10-11 20:22:13.887,1.0965457,1.1788756,0.79557985,0.7333324,0.8362484,0.5871499,0.44254765,0.2535235,0.9269942,0.35812896,0.068367526,0.59103715,0.3821684,0.3907119,-0.08572505,0.22638728,0.37251702,-0.14683993,-0.20775214,0.16004242,811.0989,795.38464,790.14655,795.78754,859.85345,0.1668701171875,0.08538818359375,0.98992919921875,0.7476806640625,-3.54400634765625,-1.36077880859375,1,1.0,1.0,1.0,1.0,10.00
2024-10-11 20:22:13.888,1.0965457,1.1788756,0.79557985,0.7333324,0.8362484,0.5871499,0.44254765,0.2535235,0.9269942,0.35812896,0.068367526,0.59103715,0.3821684,0.3907119,-0.08572505,0.22638728,0.37251702,-0.14683993,-0.20775214,0.16004242,806.6667,791.3553,793.7729,795.38464,774.0293,0.1668701171875,0.08538818359375,0.98992919921875,0.7476806640625,-3.54400634765625,-1.36077880859375,1,1.0,1.0,1.0,1.0,10.00
2024-10-11 20:22:13.888,1.0965457,1.1788756,0.79557985,0.7333324,0.8362484,0.5871499,0.44254765,0.2535235,0.9269942,0.35812896,0.068367526,0.59103715,0.3821684,0.3907119,-0.08572505,0.22638728,0.37251702,-0.14683993,-0.20775214,0.16004242,814.7253,816.337,790.14655,799.41394,718.022,0.1668701171875,0.08538818359375,0.98992919921875,0.7476806640625,-3.54400634765625,-1.36077880859375,1,1.0,1.0,1.0,1.0,10.00
2024-10-11 20:22:13.889,1.0965457,1.1788756,0.79557985,0.7333324,0.8362484,0.5871499,0.44254765,0.2535235,0.9269942,0.35812896,0.068367526,0.59103715,0.3821684,0.3907119,-0.08572505,0.22638728,0.37251702,-0.14683993,-0.20775214,0.16004242,808.2784,815.9341,789.7436,800.2198,722.0513,0.1668701171875,0.08538818359375,0.98992919921875,0.7476806640625,-3.54400634765625,-1.36077880859375,1,1.0,1.0,1.0,1.0,10.00
2024-10-11 20:22:13.890,1.0965457,1.1788756,0.79557985,0.7333324,0.8362484,0.5871499,0.44254765,0.2535235,0.9269942,0.35812896,0.068367526,0.59103715,0.3821684,0.3907119,-0.08572505,0.22638728,0.37251702,-0.14683993,-0.20775214,0.16004242,795.38464,807.0696,799.011,795.78754,805.4579,0.1668701171875,0.08538818359375,0.98992919921875,0.7476806640625,-3.54400634765625,-1.36077880859375,1,1.0,1.0,1.0,1.0,10.00
2024-10-11 20:22:13.891,1.0965457,1.1788756,0.79557985,0.7333324,0.8362484,0.5871499,0.44254765,0.2535235,0.9269942,0.35812896,0.068367526,0.59103715,0.3821684,0.3907119,-0.08572505,0.22638728,0.37251702,-0.14683993,-0.20775214,0.16004242,787.72894,796.99634,793.7729,798.20514,846.1539,0.1668701171875,0.08538818359375,0.98992919921875,0.7476806640625,-3.54400634765625,-1.36077880859375,1,1.0,1.0,1.0,1.0,10.00
2024-10-11 20:22:13.891,1.0965457,1.1788756,0.79557985,0.7333324,0.8362484,0.5871499,0.44254765,0.2535235,0.9269942,0.35812896,0.068367526,0.59103715,0.3821684,0.3907119,-0.08572505,0.22638728,0.37251702,-0.14683993,-0.20775214,0.16004242,779.2674,787.72894,788.5348,799.011,785.31134,0.1668701171875,0.08538818359375,0.98992919921875,0.7476806640625,-3.54400634765625,-1.36077880859375,1,1.0,1.0,1.0,1.0,10.00
2024-10-11 20:22:13.892,1.0965457,1.1788756,0.79557985,0.7333324,0.8362484,0.5871499,0.44254765,0.2535235,0.9269942,0.35812896,0.068367526,0.59103715,0.3821684,0.3907119,-0.08572505,0.22638728,0.37251702,-0.14683993,-0.20775214,0.16004242,780.07324,792.5641,795.78754,793.7729,808.2784,0.1668701171875,0.08538818359375,0.98992919921875,0.7476806640625,-3.54400634765625,-1.36077880859375,1,1.0,1.0,1.0,1.0,10.00
2024-10-11 20:22:13.892,1.0965457,1.1788756,0.79557985,0.7333324,0.8362484,0.5871499,0.44254765,0.2535235,0.9269942,0.35812896,0.068367526,0.59103715,0.3821684,0.3907119,-0.08572505,0.22638728,0.37251702,-0.14683993,-0.20775214,0.16004242,782.8938,800.2198,796.99634,793.7729,742.1978,0.1668701171875,0.08538818359375,0.98992919921875,0.7476806640625,-3.54400634765625,-1.36077880859375,1,1.0,1.0,1.0,1.0,10.00
2024-10-11 20:22:13.893,1.0965457,1.1788756,0.79557985,0.7333324,0.8362484,0.5871499,0.44254765,0.2535235,0.9269942,0.35812896,0.068367526,0.59103715,0.3821684,0.3907119,-0.08572505,0.22638728,0.37251702,-0.14683993,-0.20775214,0.16004242,786.1172,797.8022,800.6227,796.5934,851.39197,0.1668701171875,0.08538818359375,0.98992919921875,0.7476806640625,-3.54400634765625,-1.36077880859375,1,1.0,1.0,1.0,1.0,10.00
2024-10-11 20:22:13.893,1.0965457,1.1788756,0.79557985,0.7333324,0.8362484,0.5871499,0.44254765,0.2535235,0.9269942,0.35812896,0.068367526,0.59103715,0.3821684,0.3907119,-0.08572505,0.22638728,0.37251702,-0.14683993,-0.20775214,0.16004242,793.36993,791.3553,799.81683,793.36993,1012.96704,0.1668701171875,0.08538818359375,0.98992919921875,0.7476806640625,-3.54400634765625,-1.36077880859375,1,1.0,1.0,1.0,1.0,10.00
2024-10-11 20:22:13.990,1.0965457,1.1788756,0.79557985,0.7333324,0.8362484,0.5871499,0.44254765,0.2535235,0.9269942,0.35812896,0.068367526,0.59103715,0.3821684,0.3907119,-0.08572505,0.22638728,0.37251702,-0.14683993,-0.20775214,0.16004242,794.57874,792.1612,794.9817,796.99634,874.35895,0.164306640625,0.088623046875,0.98394775390625,0.740203857421875,-4.38140869140625,-1.45050048828125,1,1.0,1.0,1.0,1.0,10.00
2024-10-11 20:22:13.990,1.0965457,1.1788756,0.79557985,0.7333324,0.8362484,0.5871499,0.44254765,0.2535235,0.9269942,0.35812896,0.068367526,0.59103715,0.3821684,0.3907119,-0.08572505,0.22638728,0.37251702,-0.14683993,-0.20775214,0.16004242,796.99634,796.5934,801.02563,807.8755,697.0696,0.164306640625,0.088623046875,0.98394775390625,0.740203857421875,-4.38140869140625,-1.45050048828125,1,1.0,1.0,1.0,1.0,10.00
2024-10-11 20:22:13.991,1.0965457,1.1788756,0.79557985,0.7333324,0.8362484,0.5871499,0.44254765,0.2535235,0.9269942,0.35812896,0.068367526,0.59103715,0.3821684,0.3907119,-0.08572505,0.22638728,0.37251702,-0.14683993,-0.20775214,0.16004242,796.1905,801.4286,800.2198,803.8461,732.1245,0.164306640625,0.088623046875,0.98394775390625,0.740203857421875,-4.38140869140625,-1.45050048828125,1,1.0,1.0,1.0,1.0,10.00
2024-10-11 20:22:13.992,1.0965457,1.1788756,0.79557985,0.7333324,0.8362484,0.5871499,0.44254765,0.2535235,0.9269942,0.35812896,0.068367526,0.59103715,0.3821684,0.3907119,-0.08572505,0.22638728,0.37251702,-0.14683993,-0.20775214,0.16004242,803.0403,797.3993,799.81683,805.05493,902.5641,0.164306640625,0.088623046875,0.98394775390625,0.740203857421875,-4.38140869140625,-1.45050048828125,1,1.0,1.0,1.0,1.0,10.00
2024-10-11 20:22:13.992,1.0965457,1.1788756,0.79557985,0.7333324,0.8362484,0.5871499,0.44254765,0.2535235,0.9269942,0.35812896,0.068367526,0.59103715,0.3821684,0.3907119,-0.08572505,0.22638728,0.37251702,-0.14683993,-0.20775214,0.16004242,803.44324,797.3993,800.6227,809.0842,951.31866,0.164306640625,0.088623046875,0.98394775390625,0.740203857421875,-4.38140869140625,-1.45050048828125,1,1.0,1.0,1.0,1.0,10.00
2024-10-11 20:22:13.993,1.0965457,1.1788756,0.79557985,0.7333324,0.8362484,0.5871499,0.44254765,0.2535235,0.9269942,0.35812896,0.068367526,0.59103715,0.3821684,0.3907119,-0.08572505,0.22638728,0.37251702,-0.14683993,-0.20775214,0.16004242,798.20514,800.6227,801.02563,810.696,885.2381,0.164306640625,0.088623046875,0.98394775390625,0.740203857421875,-4.38140869140625,-1.45050048828125,1,1.0,1.0,1.0,1.0,10.00
2024-10-11 20:22:13.994,1.0965457,1.1788756,0.79557985,0.7333324,0.8362484,0.5871499,0.44254765,0.2535235,0.9269942,0.35812896,0.068367526,0.59103715,0.3821684,0.3907119,-0.08572505,0.22638728,0.37251702,-0.14683993,-0.20775214,0.16004242,804.2491,776.04395,799.41394,811.9048,853.8095,0.164306640625,0.088623046875,0.98394775390625,0.740203857421875,-4.38140869140625,-1.45050048828125,1,1.0,1.0,1.0,1.0,10.00
2024-10-11 20:22:13.994,1.0206945,1.12746,0.79557985,0.7333324,0.7920166,0.55386955,0.44254765,0.2535235,0.956902,0.35812896,0.068367526,0.59103715,0.38182145,0.38491508,-0.08572505,0.22638728,0.31418753,-0.12553358,-0.20775214,0.16004242,809.4872,788.93774,794.57874,811.9048,919.89014,0.164306640625,0.088623046875,0.98394775390625,0.740203857421875,-4.38140869140625,-1.45050048828125,1,1.0,1.0,1.0,1.0,10.00
2024-10-11 20:22:13.998,1.0206945,1.12746,0.79557985,0.7333324,0.7920166,0.55386955,0.44254765,0.2535235,0.956902,0.35812896,0.068367526,0.59103715,0.38182145,0.38491508,-0.08572505,0.22638728,0.31418753,-0.12553358,-0.20775214,0.16004242,807.0696,819.15753,794.57874,813.5165,895.7143,0.164306640625,0.088623046875,0.98394775390625,0.740203857421875,-4.38140869140625,-1.45050048828125,1,1.0,1.0,1.0,1.0,10.00
2024-10-11 20:22:13.998,1.0206945,1.12746,0.79557985,0.7333324,0.7920166,0.55386955,0.44254765,0.2535235,0.956902,0.35812896,0.068367526,0.59103715,0.38182145,0.38491508,-0.08572505,0.22638728,0.31418753,-0.12553358,-0.20775214,0.16004242,812.3077,815.5311,801.8315,821.1722,635.42126,0.164306640625,0.088623046875,0.98394775390625,0.740203857421875,-4.38140869140625,-1.45050048828125,1,1.0,1.0,1.0,1.0,10.00
2024-10-11 20:22:13.999,1.0206945,1.12746,0.79557985,0.7333324,0.7920166,0.55386955,0.44254765,0.2535235,0.956902,0.35812896,0.068367526,0.59103715,0.38182145,0.38491508,-0.08572505,0.22638728,0.31418753,-0.12553358,-0.20775214,0.16004242,824.3956,805.4579,805.4579,833.2601,639.85345,0.164306640625,0.088623046875,0.98394775390625,0.740203857421875,-4.38140869140625,-1.45050048828125,1,1.0,1.0,1.0,1.0,10.00
2024-10-11 20:22:13.999,1.0206945,1.12746,0.79557985,0.7333324,0.7920166,0.55386955,0.44254765,0.2535235,0.956902,0.35812896,0.068367526,0.59103715,0.38182145,0.38491508,-0.08572505,0.22638728,0.31418753,-0.12553358,-0.20775214,0.16004242,822.381,798.60803,799.41394,826.0073,862.27106,0.164306640625,0.088623046875,0.98394775390625,0.740203857421875,-4.38140869140625,-1.45050048828125,1,1.0,1.0,1.0,1.0,10.00
2024-10-11 20:22:14.056,1.0206945,1.12746,0.79557985,0.7333324,0.7920166,0.55386955,0.44254765,0.2535235,0.956902,0.35812896,0.068367526,0.59103715,0.38182145,0.38491508,-0.08572505,0.22638728,0.31418753,-0.12553358,-0.20775214,0.16004242,833.663,805.4579,792.1612,826.4103,871.9414,0.1668701171875,0.09722900390625,0.98602294921875,0.52337646484375,-7.8057861328125,-1.42059326171875,1,1.0,1.0,1.0,1.0,10.00
2024-10-11 20:22:14.057,1.0206945,1.12746,0.79557985,0.7333324,0.7920166,0.55386955,0.44254765,0.2535235,0.956902,0.35812896,0.068367526,0.59103715,0.38182145,0.38491508,-0.08572505,0.22638728,0.31418753,-0.12553358,-0.20775214,0.16004242,848.97437,802.23444,797.8022,843.3333,728.49817,0.1668701171875,0.09722900390625,0.98602294921875,0.52337646484375,-7.8057861328125,-1.42059326171875,1,1.0,1.0,1.0,1.0,10.00
2024-10-11 20:22:14.058,1.0206945,1.12746,0.79557985,0.7333324,0.7920166,0.55386955,0.44254765,0.2535235,0.956902,0.35812896,0.068367526,0.59103715,0.38182145,0.38491508,-0.08572505,0.22638728,0.31418753,-0.12553358,-0.20775214,0.16004242,845.34796,796.5934,801.8315,849.7802,661.6117,0.1668701171875,0.09722900390625,0.98602294921875,0.52337646484375,-7.8057861328125,-1.42059326171875,1,1.0,1.0,1.0,1.0,10.00
2024-10-11 20:22:14.058,1.0206945,1.12746,0.79557985,0.7333324,0.7920166,0.55386955,0.44254765,0.2535235,0.956902,0.35812896,0.068367526,0.59103715,0.38182145,0.38491508,-0.08572505,0.22638728,0.31418753,-0.12553358,-0.20775214,0.16004242,836.08057,804.65204,792.96704,835.2747,848.1685,0.1668701171875,0.09722900390625,0.98602294921875,0.52337646484375,-7.8057861328125,-1.42059326171875,1,1.0,1.0,1.0,1.0,10.00
2024-10-11 20:22:14.059,1.0206945,1.12746,0.79557985,0.7333324,0.7920166,0.55386955,0.44254765,0.2535235,0.956902,0.35812896,0.068367526,0.59103715,0.38182145,0.38491508,-0.08572505,0.22638728,0.31418753,-0.12553358,-0.20775214,0.16004242,824.7985,800.6227,791.3553,817.5458,838.49817,0.1668701171875,0.09722900390625,0.98602294921875,0.52337646484375,-7.8057861328125,-1.42059326171875,1,1.0,1.0,1.0,1.0,10.00
2024-10-11 20:22:14.059,1.0206945,1.12746,0.79557985,0.7333324,0.7920166,0.55386955,0.44254765,0.2535235,0.956902,0.35812896,0.068367526,0.59103715,0.38182145,0.38491508,-0.08572505,0.22638728,0.31418753,-0.12553358,-0.20775214,0.16004242,836.08057,796.99634,793.7729,824.3956,579.011,0.1668701171875,0.09722900390625,0.98602294921875,0.52337646484375,-7.8057861328125,-1.42059326171875,1,1.0,1.0,1.0,1.0,10.00
2024-10-11 20:22:14.060,1.0206945,1.12746,0.79557985,0.7333324,0.7920166,0.55386955,0.44254765,0.2535235,0.956902,0.35812896,0.068367526,0.59103715,0.38182145,0.38491508,-0.08572505,0.22638728,0.31418753,-0.12553358,-0.20775214,0.16004242,842.1245,796.5934,790.14655,833.2601,697.8755,0.1668701171875,0.09722900390625,0.98602294921875,0.52337646484375,-7.8057861328125,-1.42059326171875,1,1.0,1.0,1.0,1.0,10.00
2024-10-11 20:22:14.060,1.0206945,1.12746,0.79557985,0.7333324,0.7920166,0.55386955,0.44254765,0.2535235,0.956902,0.35812896,0.068367526,0.59103715,0.38182145,0.38491508,-0.08572505,0.22638728,0.31418753,-0.12553358,-0.20775214,0.16004242,833.663,791.75824,797.3993,843.3333,950.5128,0.1668701171875,0.09722900390625,0.98602294921875,0.52337646484375,-7.8057861328125,-1.42059326171875,1,1.0,1.0,1.0,1.0,10.00
2024-10-11 20:22:14.061,1.0206945,1.12746,0.79557985,0.7333324,0.7920166,0.55386955,0.44254765,0.2535235,0.956902,0.35812896,0.068367526,0.59103715,0.38182145,0.38491508,-0.08572505,0.22638728,0.31418753,-0.12553358,-0.20775214,0.16004242,834.4689,795.38464,805.8608,850.989,790.14655,0.1668701171875,0.09722900390625,0.98602294921875,0.52337646484375,-7.8057861328125,-1.42059326171875,1,1.0,1.0,1.0,1.0,10.00
2024-10-11 20:22:14.061,1.0206945,1.12746,0.79557985,0.7333324,0.7920166,0.55386955,0.44254765,0.2535235,0.956902,0.35812896,0.068367526,0.59103715,0.38182145,0.38491508,-0.08572505,0.22638728,0.31418753,-0.12553358,-0.20775214,0.16004242,825.6044,799.41394,794.9817,832.8571,543.95605,0.1668701171875,0.09722900390625,0.98602294921875,0.52337646484375,-7.8057861328125,-1.42059326171875,1,1.0,1.0,1.0,1.0,10.00
2024-10-11 20:22:14.062,1.0206945,1.12746,0.79557985,0.7333324,0.7920166,0.55386955,0.44254765,0.2535235,0.956902,0.35812896,0.068367526,0.59103715,0.38182145,0.38491508,-0.08572505,0.22638728,0.31418753,-0.12553358,-0.20775214,0.16004242,820.7692,792.5641,786.9231,821.5751,646.30035,0.1668701171875,0.09722900390625,0.98602294921875,0.52337646484375,-7.8057861328125,-1.42059326171875,1,1.0,1.0,1.0,1.0,10.00
2024-10-11 20:22:14.062,1.0206945,1.12746,0.79557985,0.7333324,0.7920166,0.55386955,0.44254765,0.2535235,0.956902,0.35812896,0.068367526,0.59103715,0.38182145,0.38491508,-0.08572505,0.22638728,0.31418753,-0.12553358,-0.20775214,0.16004242,830.84247,787.72894,792.96704,832.8571,807.0696,0.1668701171875,0.09722900390625,0.98602294921875,0.52337646484375,-7.8057861328125,-1.42059326171875,1,1.0,1.0,1.0,1.0,10.00
2024-10-11 20:22:14.128,1.0206945,1.12746,0.79557985,0.7333324,0.7920166,0.55386955,0.44254765,0.2535235,0.956902,0.35812896,0.068367526,0.59103715,0.38182145,0.38491508,-0.08572505,0.22638728,0.31418753,-0.12553358,-0.20775214,0.16004242,832.8571,790.54944,798.20514,842.52747,778.86444,0.1668701171875,0.09722900390625,0.98602294921875,0.52337646484375,-7.8057861328125,-1.42059326171875,1,1.0,1.0,1.0,1.0,10.00
2024-10-11 20:22:14.129,1.0206945,1.12746,0.79557985,0.7333324,0.7920166,0.55386955,0.44254765,0.2535235,0.956902,0.35812896,0.068367526,0.59103715,0.38182145,0.38491508,-0.08572505,0.22638728,0.31418753,-0.12553358,-0.20775214,0.16004242,824.7985,784.10254,804.65204,848.97437,688.60803,0.1668701171875,0.09722900390625,0.98602294921875,0.52337646484375,-7.8057861328125,-1.42059326171875,1,1.0,1.0,1.0,1.0,10.00
2024-10-11 20:22:14.129,1.0206945,1.12746,0.79557985,0.7333324,0.7920166,0.55386955,0.44254765,0.2535235,0.956902,0.35812896,0.068367526,0.59103715,0.38182145,0.38491508,-0.08572505,0.22638728,0.31418753,-0.12553358,-0.20775214,0.16004242,828.4249,781.28204,798.60803,850.58606,757.9121,0.1668701171875,0.09722900390625,0.98602294921875,0.52337646484375,-7.8057861328125,-1.42059326171875,1,1.0,1.0,1.0,1.0,10.00
2024-10-11 20:22:14.130,1.0206945,1.12746,0.79557985,0.7333324,0.7920166,0.55386955,0.44254765,0.2535235,0.956902,0.35812896,0.068367526,0.59103715,0.38182145,0.38491508,-0.08572505,0.22638728,0.31418753,-0.12553358,-0.20775214,0.16004242,834.0659,794.57874,794.57874,842.9304,889.67035,0.1668701171875,0.09722900390625,0.98602294921875,0.52337646484375,-7.8057861328125,-1.42059326171875,1,1.0,1.0,1.0,1.0,10.00
2024-10-11 20:22:14.131,1.0206945,1.12746,0.79557985,0.7333324,0.7920166,0.55386955,0.44254765,0.2535235,0.956902,0.35812896,0.068367526,0.59103715,0.38182145,0.38491508,-0.08572505,0.22638728,0.31418753,-0.12553358,-0.20775214,0.16004242,828.4249,801.4286,799.81683,825.2015,850.989,0.1668701171875,0.09722900390625,0.98602294921875,0.52337646484375,-7.8057861328125,-1.42059326171875,1,1.0,1.0,1.0,1.0,10.00
2024-10-11 20:22:14.131,1.0206945,1.12746,0.79557985,0.7333324,0.7920166,0.55386955,0.44254765,0.2535235,0.956902,0.35812896,0.068367526,0.59103715,0.38182145,0.38491508,-0.08572505,0.22638728,0.31418753,-0.12553358,-0.20775214,0.16004242,826.0073,799.011,799.81683,827.2161,822.381,0.1668701171875,0.09722900390625,0.98602294921875,0.52337646484375,-7.8057861328125,-1.42059326171875,1,1.0,1.0,1.0,1.0,10.00
2024-10-11 20:22:14.132,1.0206945,1.12746,0.79557985,0.7333324,0.7920166,0.55386955,0.44254765,0.2535235,0.956902,0.35812896,0.068367526,0.59103715,0.38182145,0.38491508,-0.08572505,0.22638728,0.31418753,-0.12553358,-0.20775214,0.16004242,830.84247,793.36993,800.2198,840.9158,990.0,0.1668701171875,0.09722900390625,0.98602294921875,0.52337646484375,-7.8057861328125,-1.42059326171875,1,1.0,1.0,1.0,1.0,10.00
2024-10-11 20:22:14.133,1.0206945,1.12746,0.79557985,0.7333324,0.7920166,0.55386955,0.44254765,0.2535235,0.956902,0.35812896,0.068367526,0.59103715,0.38182145,0.38491508,-0.08572505,0.22638728,0.31418753,-0.12553358,-0.20775214,0.16004242,834.87177,800.2198,802.23444,839.304,906.99634,0.1668701171875,0.09722900390625,0.98602294921875,0.52337646484375,-7.8057861328125,-1.42059326171875,1,1.0,1.0,1.0,1.0,10.00
2024-10-11 20:22:14.133,1.0206945,1.12746,0.79557985,0.7333324,0.7920166,0.55386955,0.44254765,0.2535235,0.956902,0.35812896,0.068367526,0.59103715,0.38182145,0.38491508,-0.08572505,0.22638728,0.31418753,-0.12553358,-0.20775214,0.16004242,830.84247,797.3993,811.50183,835.2747,693.44324,0.1668701171875,0.09722900390625,0.98602294921875,0.52337646484375,-7.8057861328125,-1.42059326171875,1,1.0,1.0,1.0,1.0,10.00
2024-10-11 20:22:14.134,0.9587098,1.07932,0.81797206,0.7333324,0.7744683,0.529106,0.29398093,0.2535235,0.956902,0.3605599,0.17475593,0.59103715,0.36838442,0.3800068,-0.003236773,0.22638728,0.2579035,-0.10272219,-0.32155728,0.16004242,832.0513,788.1319,801.02563,823.9927,726.08057,0.1668701171875,0.09722900390625,0.98602294921875,0.52337646484375,-7.8057861328125,-1.42059326171875,1,1.0,1.0,1.0,1.0,10.00
2024-10-11 20:22:14.140,0.9587098,1.07932,0.81797206,0.7333324,0.7744683,0.529106,0.29398093,0.2535235,0.956902,0.3605599,0.17475593,0.59103715,0.36838442,0.3800068,-0.003236773,0.22638728,0.2579035,-0.10272219,-0.32155728,0.16004242,837.6923,795.38464,793.36993,825.6044,785.7143,0.1668701171875,0.09722900390625,0.98602294921875,0.52337646484375,-7.8057861328125,-1.42059326171875,1,1.0,1.0,1.0,1.0,10.00
2024-10-11 20:22:14.140,0.9587098,1.07932,0.81797206,0.7333324,0.7744683,0.529106,0.29398093,0.2535235,0.956902,0.3605599,0.17475593,0.59103715,0.36838442,0.3800068,-0.003236773,0.22638728,0.2579035,-0.10272219,-0.32155728,0.16004242,846.55676,790.9524,800.6227,852.1978,793.36993,0.1668701171875,0.09722900390625,0.98602294921875,0.52337646484375,-7.8057861328125,-1.42059326171875,1,1.0,1.0,1.0,1.0,10.00
2024-10-11 20:22:14.200,0.9587098,1.07932,0.81797206,0.7333324,0.7744683,0.529106,0.29398093,0.2535235,0.956902,0.3605599,0.17475593,0.59103715,0.36838442,0.3800068,-0.003236773,0.22638728,0.2579035,-0.10272219,-0.32155728,0.16004242,837.6923,790.54944,799.011,848.1685,763.5531,0.1766357421875,0.0950927734375,0.9833984375,-0.34393310546875,-11.484375,-2.056121826171875,1,1.0,1.0,1.0,1.0,10.00
2024-10-11 20:22:14.201,0.9587098,1.07932,0.81797206,0.7333324,0.7744683,0.529106,0.29398093,0.2535235,0.956902,0.3605599,0.17475593,0.59103715,0.36838442,0.3800068,-0.003236773,0.22638728,0.2579035,-0.10272219,-0.32155728,0.16004242,821.5751,797.3993,799.41394,828.022,741.79486,0.1766357421875,0.0950927734375,0.9833984375,-0.34393310546875,-11.484375,-2.056121826171875,1,1.0,1.0,1.0,1.0,10.00
2024-10-11 20:22:14.202,0.9587098,1.07932,0.81797206,0.7333324,0.7744683,0.529106,0.29398093,0.2535235,0.956902,0.3605599,0.17475593,0.59103715,0.36838442,0.3800068,-0.003236773,0.22638728,0.2579035,-0.10272219,-0.32155728,0.16004242,815.12823,793.36993,799.81683,821.1722,728.0952,0.1766357421875,0.0950927734375,0.9833984375,-0.34393310546875,-11.484375,-2.056121826171875,1,1.0,1.0,1.0,1.0,10.00
2024-10-11 20:22:14.202,0.9587098,1.07932,0.81797206,0.7333324,0.7744683,0.529106,0.29398093,0.2535235,0.956902,0.3605599,0.17475593,0.59103715,0.36838442,0.3800068,-0.003236773,0.22638728,0.2579035,-0.10272219,-0.32155728,0.16004242,822.7839,788.1319,797.3993,826.8132,753.47986,0.1766357421875,0.0950927734375,0.9833984375,-0.34393310546875,-11.484375,-2.056121826171875,1,1.0,1.0,1.0,1.0,10.00
2024-10-11 20:22:14.203,0.9587098,1.07932,0.81797206,0.7333324,0.7744683,0.529106,0.29398093,0.2535235,0.956902,0.3605599,0.17475593,0.59103715,0.36838442,0.3800068,-0.003236773,0.22638728,0.2579035,-0.10272219,-0.32155728,0.16004242,835.2747,790.9524,801.8315,842.1245,696.26373,0.1766357421875,0.0950927734375,0.9833984375,-0.34393310546875,-11.484375,-2.056121826171875,1,1.0,1.0,1.0,1.0,10.00
2024-10-11 20:22:14.204,0.9587098,1.07932,0.81797206,0.7333324,0.7744683,0.529106,0.29398093,0.2535235,0.956902,0.3605599,0.17475593,0.59103715,0.36838442,0.3800068,-0.003236773,0.22638728,0.2579035,-0.10272219,-0.32155728,0.16004242,828.8278,788.93774,803.8461,843.3333,903.7729,0.1766357421875,0.0950927734375,0.9833984375,-0.34393310546875,-11.484375,-2.056121826171875,1,1.0,1.0,1.0,1.0,10.00
2024-10-11 20:22:14.204,0.9587098,1.07932,0.81797206,0.7333324,0.7744683,0.529106,0.29398093,0.2535235,0.956902,0.3605599,0.17475593,0.59103715,0.36838442,0.3800068,-0.003236773,0.22638728,0.2579035,-0.10272219,-0.32155728,0.16004242,819.15753,779.67035,799.81683,835.6777,1143.5165,0.1766357421875,0.0950927734375,0.9833984375,-0.34393310546875,-11.484375,-2.056121826171875,1,1.0,1.0,1.0,1.0,10.00
2024-10-11 20:22:14.205,0.9587098,1.07932,0.81797206,0.7333324,0.7744683,0.529106,0.29398093,0.2535235,0.956902,0.3605599,0.17475593,0.59103715,0.36838442,0.3800068,-0.003236773,0.22638728,0.2579035,-0.10272219,-0.32155728,0.16004242,828.8278,784.10254,794.9817,830.4396,939.6337,0.1766357421875,0.0950927734375,0.9833984375,-0.34393310546875,-11.484375,-2.056121826171875,1,1.0,1.0,1.0,1.0,10.00
2024-10-11 20:22:14.206,0.9587098,1.07932,0.81797206,0.7333324,0.7744683,0.529106,0.29398093,0.2535235,0.956902,0.3605599,0.17475593,0.59103715,0.36838442,0.3800068,-0.003236773,0.22638728,0.2579035,-0.10272219,-0.32155728,0.16004242,828.022,790.9524,796.5934,829.2308,667.6557,0.1766357421875,0.0950927734375,0.9833984375,-0.34393310546875,-11.484375,-2.056121826171875,1,1.0,1.0,1.0,1.0,10.00
2024-10-11 20:22:14.206,0.9587098,1.07932,0.81797206,0.7333324,0.7744683,0.529106,0.29398093,0.2535235,0.956902,0.3605599,0.17475593,0.59103715,0.36838442,0.3800068,-0.003236773,0.22638728,0.2579035,-0.10272219,-0.32155728,0.16004242,823.1868,789.34064,804.2491,831.6484,748.24176,0.1766357421875,0.0950927734375,0.9833984375,-0.34393310546875,-11.484375,-2.056121826171875,1,1.0,1.0,1.0,1.0,10.00
2024-10-11 20:22:14.207,0.9587098,1.07932,0.81797206,0.7333324,0.7744683,0.529106,0.29398093,0.2535235,0.956902,0.3605599,0.17475593,0.59103715,0.36838442,0.3800068,-0.003236773,0.22638728,0.2579035,-0.10272219,-0.32155728,0.16004242,828.022,792.96704,805.05493,836.4835,881.2088,0.1766357421875,0.0950927734375,0.9833984375,-0.34393310546875,-11.484375,-2.056121826171875,1,1.0,1.0,1.0,1.0,10.00
2024-10-11 20:22:14.208,0.9587098,1.07932,0.81797206,0.7333324,0.7744683,0.529106,0.29398093,0.2535235,0.956902,0.3605599,0.17475593,0.59103715,0.36838442,0.3800068,-0.003236773,0.22638728,0.2579035,-0.10272219,-0.32155728,0.16004242,825.6044,790.9524,799.41394,830.84247,701.9048,0.1766357421875,0.0950927734375,0.9833984375,-0.34393310546875,-11.484375,-2.056121826171875,1,1.0,1.0,1.0,1.0,10.00
2024-10-11 20:22:14.300,0.9587098,1.07932,0.81797206,0.7333324,0.7744683,0.529106,0.29398093,0.2535235,0.956902,0.3605599,0.17475593,0.59103715,0.36838442,0.3800068,-0.003236773,0.22638728,0.2579035,-0.10272219,-0.32155728,0.16004242,825.6044,794.57874,792.1612,829.6337,622.52747,0.1922607421875,0.08770751953125,0.98541259765625,-0.725250244140625,-12.08251953125,-2.684173583984375,1,1.0,1.0,1.0,1.0,10.00
2024-10-11 20:22:14.301,0.9587098,1.07932,0.81797206,0.7333324,0.7744683,0.529106,0.29398093,0.2535235,0.956902,0.3605599,0.17475593,0.59103715,0.36838442,0.3800068,-0.003236773,0.22638728,0.2579035,-0.10272219,-0.32155728,0.16004242,833.2601,796.99634,796.5934,841.31866,873.5531,0.1922607421875,0.08770751953125,0.98541259765625,-0.725250244140625,-12.08251953125,-2.684173583984375,1,1.0,1.0,1.0,1.0,10.00
2024-10-11 20:22:14.302,0.9587098,1.07932,0.81797206,0.7333324,0.7744683,0.529106,0.29398093,0.2535235,0.956902,0.3605599,0.17475593,0.59103715,0.36838442,0.3800068,-0.003236773,0.22638728,0.2579035,-0.10272219,-0.32155728,0.16004242,829.6337,791.75824,805.05493,839.707,936.0073,0.1922607421875,0.08770751953125,0.98541259765625,-0.725250244140625,-12.08251953125,-2.684173583984375,1,1.0,1.0,1.0,1.0,10.00
2024-10-11 20:22:14.302,0.9587098,1.07932,0.81797206,0.7333324,0.7744683,0.529106,0.29398093,0.2535235,0.956902,0.3605599,0.17475593,0.59103715,0.36838442,0.3800068,-0.003236773,0.22638728,0.2579035,-0.10272219,-0.32155728,0.16004242,820.3663,796.5934,806.26373,823.1868,686.99634,0.1922607421875,0.08770751953125,0.98541259765625,-0.725250244140625,-12.08251953125,-2.684173583984375,1,1.0,1.0,1.0,1.0,10.00
2024-10-11 20:22:14.303,0.9587098,1.07932,0.81797206,0.7333324,0.7744683,0.529106,0.29398093,0.2535235,0.956902,0.3605599,0.17475593,0.59103715,0.36838442,0.3800068,-0.003236773,0.22638728,0.2579035,-0.10272219,-0.32155728,0.16004242,817.5458,796.1905,803.8461,813.5165,603.5897,0.1922607421875,0.08770751953125,0.98541259765625,-0.725250244140625,-12.08251953125,-2.684173583984375,1,1.0,1.0,1.0,1.0,10.00
2024-10-11 20:22:14.304,0.9587098,1.07932,0.81797206,0.7333324,0.7744683,0.529106,0.29398093,0.2535235,0.956902,0.3605599,0.17475593,0.59103715,0.36838442,0.3800068,-0.003236773,0.22638728,0.2579035,-0.10272219,-0.32155728,0.16004242,821.1722,796.1905,796.99634,816.337,952.1245,0.1922607421875,0.08770751953125,0.98541259765625,-0.725250244140625,-12.08251953125,-2.684173583984375,1,1.0,1.0,1.0,1.0,10.00
2024-10-11 20:22:14.304,0.9587098,1.07932,0.81797206,0.7333324,0.7744683,0.529106,0.29398093,0.2535235,0.956902,0.3605599,0.17475593,0.59103715,0.36838442,0.3800068,-0.003236773,0.22638728,0.2579035,-0.10272219,-0.32155728,0.16004242,824.3956,794.17584,799.41394,827.619,1185.8242,0.1922607421875,0.08770751953125,0.98541259765625,-0.725250244140625,-12.08251953125,-2.684173583984375,1,1.0,1.0,1.0,1.0,10.00
2024-10-11 20:22:14.305,0.9587098,1.07932,0.81797206,0.7333324,0.7744683,0.529106,0.29398093,0.2535235,0.956902,0.3605599,0.17475593,0.59103715,0.36838442,0.3800068,-0.003236773,0.22638728,0.2579035,-0.10272219,-0.32155728,0.16004242,820.3663,780.07324,802.23444,826.8132,848.1685,0.1922607421875,0.08770751953125,0.98541259765625,-0.725250244140625,-12.08251953125,-2.684173583984375,1,1.0,1.0,1.0,1.0,10.00
2024-10-11 20:22:14.306,0.9587098,1.07932,0.81797206,0.7333324,0.7744683,0.529106,0.29398093,0.2535235,0.956902,0.3605599,0.17475593,0.59103715,0.36838442,0.3800068,-0.003236773,0.22638728,0.2579035,-0.10272219,-0.32155728,0.16004242,821.5751,775.2381,800.2198,823.9927,633.4066,0.1922607421875,0.08770751953125,0.98541259765625,-0.725250244140625,-12.08251953125,-2.684173583984375,1,1.0,1.0,1.0,1.0,10.00
2024-10-11 20:22:14.306,0.9587098,1.07932,0.81797206,0.7333324,0.7744683,0.529106,0.29398093,0.2535235,0.956902,0.3605599,0.17475593,0.59103715,0.36838442,0.3800068,-0.003236773,0.22638728,0.2579035,-0.10272219,-0.32155728,0.16004242,832.8571,786.1172,802.23444,830.84247,913.0403,0.1922607421875,0.08770751953125,0.98541259765625,-0.725250244140625,-12.08251953125,-2.684173583984375,1,1.0,1.0,1.0,1.0,10.00
2024-10-11 20:22:14.307,0.9587098,1.07932,0.81797206,0.7333324,0.7744683,0.529106,0.29398093,0.2535235,0.956902,0.3605599,0.17475593,0.59103715,0.36838442,0.3800068,-0.003236773,0.22638728,0.2579035,-0.10272219,-0.32155728,0.16004242,834.87177,786.52014,803.8461,828.022,982.3443,0.1922607421875,0.08770751953125,0.98541259765625,-0.725250244140625,-12.08251953125,-2.684173583984375,1,1.0,1.0,1.0,1.0,10.00
2024-10-11 20:22:14.308,0.91549903,1.0375001,0.84603316,0.7333324,0.792711,0.51094645,0.41889396,0.2535235,0.956902,0.36411333,0.2539079,0.59103715,0.36030322,0.38661706,-0.015174947,0.22638728,0.21082753,-0.08097366,-0.32180214,0.16004242,826.8132,792.1612,803.0403,812.3077,664.0293,0.1922607421875,0.08770751953125,0.98541259765625,-0.725250244140625,-12.08251953125,-2.684173583984375,1,1.0,1.0,1.0,1.0,10.00
2024-10-11 20:22:14.385,0.91549903,1.0375001,0.84603316,0.7333324,0.792711,0.51094645,0.41889396,0.2535235,0.956902,0.36411333,0.2539079,0.59103715,0.36030322,0.38661706,-0.015174947,0.22638728,0.21082753,-0.08097366,-0.32180214,0.16004242,832.4542,791.3553,799.011,811.9048,577.8022,0.21221923828125,0.0850830078125,0.976806640625,-1.039276123046875,-12.553558349609375,-3.60382080078125,1,1.0,1.0,1.0,1.0,10.00
2024-10-11 20:22:14.386,0.91549903,1.0375001,0.84603316,0.7333324,0.792711,0.51094645,0.41889396,0.2535235,0.956902,0.36411333,0.2539079,0.59103715,0.36030322,0.38661706,-0.015174947,0.22638728,0.21082753,-0.08097366,-0.32180214,0.16004242,844.1392,784.90845,800.6227,825.6044,669.67035,0.21221923828125,0.0850830078125,0.976806640625,-1.039276123046875,-12.553558349609375,-3.60382080078125,1,1.0,1.0,1.0,1.0,10.00
2024-10-11 20:22:14.387,0.91549903,1.0375001,0.84603316,0.7333324,0.792711,0.51094645,0.41889396,0.2535235,0.956902,0.36411333,0.2539079,0.59103715,0.36030322,0.38661706,-0.015174947,0.22638728,0.21082753,-0.08097366,-0.32180214,0.16004242,841.7216,801.4286,805.4579,834.4689,773.22345,0.21221923828125,0.0850830078125,0.976806640625,-1.039276123046875,-12.553558349609375,-3.60382080078125,1,1.0,1.0,1.0,1.0,10.00
2024-10-11 20:22:14.388,0.91549903,1.0375001,0.84603316,0.7333324,0.792711,0.51094645,0.41889396,0.2535235,0.956902,0.36411333,0.2539079,0.59103715,0.36030322,0.38661706,-0.015174947,0.22638728,0.21082753,-0.08097366,-0.32180214,0.16004242,828.8278,810.696,803.8461,825.6044,670.07324,0.21221923828125,0.0850830078125,0.976806640625,-1.039276123046875,-12.553558349609375,-3.60382080078125,1,1.0,1.0,1.0,1.0,10.00
2024-10-11 20:22:14.389,0.91549903,1.0375001,0.84603316,0.7333324,0.792711,0.51094645,0.41889396,0.2535235,0.956902,0.36411333,0.2539079,0.59103715,0.36030322,0.38661706,-0.015174947,0.22638728,0.21082753,-0.08097366,-0.32180214,0.16004242,828.4249,805.4579,799.81683,818.7546,669.2674,0.21221923828125,0.0850830078125,0.976806640625,-1.039276123046875,-12.553558349609375,-3.60382080078125,1,1.0,1.0,1.0,1.0,10.00
2024-10-11 20:22:14.389,0.91549903,1.0375001,0.84603316,0.7333324,0.792711,0.51094645,0.41889396,0.2535235,0.956902,0.36411333,0.2539079,0.59103715,0.36030322,0.38661706,-0.015174947,0.22638728,0.21082753,-0.08097366,-0.32180214,0.16004242,831.2454,795.78754,801.8315,831.2454,939.2308,0.21221923828125,0.0850830078125,0.976806640625,-1.039276123046875,-12.553558349609375,-3.60382080078125,1,1.0,1.0,1.0,1.0,10.00
2024-10-11 20:22:14.390,0.91549903,1.0375001,0.84603316,0.7333324,0.792711,0.51094645,0.41889396,0.2535235,0.956902,0.36411333,0.2539079,0.59103715,0.36030322,0.38661706,-0.015174947,0.22638728,0.21082753,-0.08097366,-0.32180214,0.16004242,823.5897,795.78754,809.89014,843.73627,987.5824,0.21221923828125,0.0850830078125,0.976806640625,-1.039276123046875,-12.553558349609375,-3.60382080078125,1,1.0,1.0,1.0,1.0,10.00
2024-10-11 20:22:14.391,0.91549903,1.0375001,0.84603316,0.7333324,0.792711,0.51094645,0.41889396,0.2535235,0.956902,0.36411333,0.2539079,0.59103715,0.36030322,0.38661706,-0.015174947,0.22638728,0.21082753,-0.08097366,-0.32180214,0.16004242,826.8132,794.57874,811.50183,842.9304,755.09155,0.21221923828125,0.0850830078125,0.976806640625,-1.039276123046875,-12.553558349609375,-3.60382080078125,1,1.0,1.0,1.0,1.0,10.00
2024-10-11 20:22:14.391,0.91549903,1.0375001,0.84603316,0.7333324,0.792711,0.51094645,0.41889396,0.2535235,0.956902,0.36411333,0.2539079,0.59103715,0.36030322,0.38661706,-0.015174947,0.22638728,0.21082753,-0.08097366,-0.32180214,0.16004242,825.2015,790.14655,807.47253,835.6777,789.7436,0.21221923828125,0.0850830078125,0.976806640625,-1.039276123046875,-12.553558349609375,-3.60382080078125,1,1.0,1.0,1.0,1.0,10.00
2024-10-11 20:22:14.392,0.91549903,1.0375001,0.84603316,0.7333324,0.792711,0.51094645,0.41889396,0.2535235,0.956902,0.36411333,0.2539079,0.59103715,0.36030322,0.38661706,-0.015174947,0.22638728,0.21082753,-0.08097366,-0.32180214,0.16004242,814.7253,788.5348,807.47253,834.87177,896.9231,0.21221923828125,0.0850830078125,0.976806640625,-1.039276123046875,-12.553558349609375,-3.60382080078125,1,1.0,1.0,1.0,1.0,10.00
2024-10-11 20:22:14.393,0.91549903,1.0375001,0.84603316,0.7333324,0.792711,0.51094645,0.41889396,0.2535235,0.956902,0.36411333,0.2539079,0.59103715,0.36030322,0.38661706,-0.015174947,0.22638728,0.21082753,-0.08097366,-0.32180214,0.16004242,823.5897,788.5348,807.0696,844.5421,748.24176,0.21221923828125,0.0850830078125,0.976806640625,-1.039276123046875,-12.553558349609375,-3.60382080078125,1,1.0,1.0,1.0,1.0,10.00
2024-10-11 20:22:14.393,0.91549903,1.0375001,0.84603316,0.7333324,0.792711,0.51094645,0.41889396,0.2535235,0.956902,0.36411333,0.2539079,0.59103715,0.36030322,0.38661706,-0.015174947,0.22638728,0.21082753,-0.08097366,-0.32180214,0.16004242,834.87177,785.7143,799.81683,844.1392,699.0842,0.21221923828125,0.0850830078125,0.976806640625,-1.039276123046875,-12.553558349609375,-3.60382080078125,1,1.0,1.0,1.0,1.0,10.00
2024-10-11 20:22:14.425,0.91549903,1.0375001,0.84603316,0.7333324,0.792711,0.51094645,0.41889396,0.2535235,0.956902,0.36411333,0.2539079,0.59103715,0.36030322,0.38661706,-0.015174947,0.22638728,0.21082753,-0.08097366,-0.32180214,0.16004242,832.4542,788.1319,803.8461,842.9304,843.73627,0.23876953125,0.08734130859375,0.984375,-0.381317138671875,-8.755340576171875,-3.06549072265625,1,1.0,1.0,1.0,1.0,10.00
2024-10-11 20:22:14.426,0.91549903,1.0375001,0.84603316,0.7333324,0.792711,0.51094645,0.41889396,0.2535235,0.956902,0.36411333,0.2539079,0.59103715,0.36030322,0.38661706,-0.015174947,0.22638728,0.21082753,-0.08097366,-0.32180214,0.16004242,827.619,790.54944,804.2491,837.6923,888.0586,0.23876953125,0.08734130859375,0.984375,-0.381317138671875,-8.755340576171875,-3.06549072265625,1,1.0,1.0,1.0,1.0,10.00
2024-10-11 20:22:14.427,0.91549903,1.0375001,0.84603316,0.7333324,0.792711,0.51094645,0.41889396,0.2535235,0.956902,0.36411333,0.2539079,0.59103715,0.36030322,0.38661706,-0.015174947,0.22638728,0.21082753,-0.08097366,-0.32180214,0.16004242,827.2161,787.72894,797.8022,828.022,727.28937,0.23876953125,0.08734130859375,0.984375,-0.381317138671875,-8.755340576171875,-3.06549072265625,1,1.0,1.0,1.0,1.0,10.00
2024-10-11 20:22:14.428,0.91549903,1.0375001,0.84603316,0.7333324,0.792711,0.51094645,0.41889396,0.2535235,0.956902,0.36411333,0.2539079,0.59103715,0.36030322,0.38661706,-0.015174947,0.22638728,0.21082753,-0.08097366,-0.32180214,0.16004242,825.2015,786.52014,801.8315,832.0513,711.978,0.23876953125,0.08734130859375,0.984375,-0.381317138671875,-8.755340576171875,-3.06549072265625,1,1.0,1.0,1.0,1.0,10.00
2024-10-11 20:22:14.428,0.91549903,1.0375001,0.84603316,0.7333324,0.792711,0.51094645,0.41889396,0.2535235,0.956902,0.36411333,0.2539079,0.59103715,0.36030322,0.38661706,-0.015174947,0.22638728,0.21082753,-0.08097366,-0.32180214,0.16004242,816.337,788.93774,803.0403,833.2601,876.77655,0.23876953125,0.08734130859375,0.984375,-0.381317138671875,-8.755340576171875,-3.06549072265625,1,1.0,1.0,1.0,1.0,10.00
2024-10-11 20:22:14.429,0.91549903,1.0375001,0.84603316,0.7333324,0.792711,0.51094645,0.41889396,0.2535235,0.956902,0.36411333,0.2539079,0.59103715,0.36030322,0.38661706,-0.015174947,0.22638728,0.21082753,-0.08097366,-0.32180214,0.16004242,814.3223,789.34064,798.60803,827.619,923.1135,0.23876953125,0.08734130859375,0.984375,-0.381317138671875,-8.755340576171875,-3.06549072265625,1,1.0,1.0,1.0,1.0,10.00
2024-10-11 20:22:14.430,0.91549903,1.0375001,0.84603316,0.7333324,0.792711,0.51094645,0.41889396,0.2535235,0.956902,0.36411333,0.2539079,0.59103715,0.36030322,0.38661706,-0.015174947,0.22638728,0.21082753,-0.08097366,-0.32180214,0.16004242,822.7839,785.7143,803.0403,834.4689,821.1722,0.23876953125,0.08734130859375,0.984375,-0.381317138671875,-8.755340576171875,-3.06549072265625,1,1.0,1.0,1.0,1.0,10.00
2024-10-11 20:22:14.430,0.91549903,1.0375001,0.84603316,0.7333324,0.792711,0.51094645,0.41889396,0.2535235,0.956902,0.36411333,0.2539079,0.59103715,0.36030322,0.38661706,-0.015174947,0.22638728,0.21082753,-0.08097366,-0.32180214,0.16004242,813.91943,790.14655,804.65204,830.4396,774.0293,0.23876953125,0.08734130859375,0.984375,-0.381317138671875,-8.755340576171875,-3.06549072265625,1,1.0,1.0,1.0,1.0,10.00
2024-10-11 20:22:14.431,0.91549903,1.0375001,0.84603316,0.7333324,0.792711,0.51094645,0.41889396,0.2535235,0.956902,0.36411333,0.2539079,0.59103715,0.36030322,0.38661706,-0.015174947,0.22638728,0.21082753,-0.08097366,-0.32180214,0.16004242,809.0842,792.5641,800.2198,820.3663,906.1905,0.23876953125,0.08734130859375,0.984375,-0.381317138671875,-8.755340576171875,-3.06549072265625,1,1.0,1.0,1.0,1.0,10.00
2024-10-11 20:22:14.433,0.91549903,1.0375001,0.84603316,0.7333324,0.792711,0.51094645,0.41889396,0.2535235,0.956902,0.36411333,0.2539079,0.59103715,0.36030322,0.38661706,-0.015174947,0.22638728,0.21082753,-0.08097366,-0.32180214,0.16004242,814.7253,787.326,800.2198,823.5897,842.52747,0.23876953125,0.08734130859375,0.984375,-0.381317138671875,-8.755340576171875,-3.06549072265625,1,1.0,1.0,1.0,1.0,10.00
2024-10-11 20:22:14.434,0.91549903,1.0375001,0.84603316,0.7333324,0.792711,0.51094645,0.41889396,0.2535235,0.956902,0.36411333,0.2539079,0.59103715,0.36030322,0.38661706,-0.015174947,0.22638728,0.21082753,-0.08097366,-0.32180214,0.16004242,814.3223,790.54944,798.20514,819.15753,651.13556,0.23876953125,0.08734130859375,0.984375,-0.381317138671875,-8.755340576171875,-3.06549072265625,1,1.0,1.0,1.0,1.0,10.00
2024-10-11 20:22:14.435,0.91549903,1.0375001,0.84603316,0.7333324,0.792711,0.51094645,0.41889396,0.2535235,0.956902,0.36411333,0.2539079,0.59103715,0.36030322,0.38661706,-0.015174947,0.22638728,0.21082753,-0.08097366,-0.32180214,0.16004242,814.7253,797.3993,801.8315,817.9487,700.696,0.23876953125,0.08734130859375,0.984375,-0.381317138671875,-8.755340576171875,-3.06549072265625,1,1.0,1.0,1.0,1.0,10.00
2024-10-11 20:22:14.506,0.91549903,1.0375001,0.84603316,0.7333324,0.792711,0.51094645,0.41889396,0.2535235,0.956902,0.36411333,0.2539079,0.59103715,0.36030322,0.38661706,-0.015174947,0.22638728,0.21082753,-0.08097366,-0.32180214,0.16004242,805.05493,795.38464,808.2784,818.3516,869.5238,0.23876953125,0.08734130859375,0.984375,-0.381317138671875,-8.755340576171875,-3.06549072265625,1,1.0,1.0,1.0,1.0,10.00
2024-10-11 20:22:14.511,0.92725486,1.0040731,0.9015334,0.7333324,0.8657744,0.49580273,0.5298579,0.2535235,0.956902,0.368463,0.27864516,0.59103715,0.35440052,0.40372175,-0.023126177,0.22638728,0.15563865,-0.060107585,-0.3033996,0.16004242,807.47253,790.54944,805.4579,808.68134,884.43225,0.23876953125,0.08734130859375,0.984375,-0.381317138671875,-8.755340576171875,-3.06549072265625,1,1.0,1.0,1.0,1.0,10.00
2024-10-11 20:22:14.518,0.92725486,1.0040731,0.9015334,0.7333324,0.8657744,0.49580273,0.5298579,0.2535235,0.956902,0.368463,0.27864516,0.59103715,0.35440052,0.40372175,-0.023126177,0.22638728,0.15563865,-0.060107585,-0.3033996,0.16004242,807.8755,792.1612,797.3993,808.2784,696.6667,0.23876953125,0.08734130859375,0.984375,-0.381317138671875,-8.755340576171875,-3.06549072265625,1,1.0,1.0,1.0,1.0,10.00
2024-10-11 20:22:14.519,0.92725486,1.0040731,0.9015334,0.7333324,0.8657744,0.49580273,0.5298579,0.2535235,0.956902,0.368463,0.27864516,0.59103715,0.35440052,0.40372175,-0.023126177,0.22638728,0.15563865,-0.060107585,-0.3033996,0.16004242,805.4579,795.78754,805.05493,815.12823,755.09155,0.23876953125,0.08734130859375,0.984375,-0.381317138671875,-8.755340576171875,-3.06549072265625,1,1.0,1.0,1.0,1.0,10.00
2024-10-11 20:22:14.520,0.92725486,1.0040731,0.9015334,0.7333324,0.8657744,0.49580273,0.5298579,0.2535235,0.956902,0.368463,0.27864516,0.59103715,0.35440052,0.40372175,-0.023126177,0.22638728,0.15563865,-0.060107585,-0.3033996,0.16004242,809.4872,786.52014,807.8755,819.15753,886.8498,0.23876953125,0.08734130859375,0.984375,-0.381317138671875,-8.755340576171875,-3.06549072265625,1,1.0,1.0,1.0,1.0,10.00
2024-10-11 20:22:14.520,0.92725486,1.0040731,0.9015334,0.7333324,0.8657744,0.49580273,0.5298579,0.2535235,0.956902,0.368463,0.27864516,0.59103715,0.35440052,0.40372175,-0.023126177,0.22638728,0.15563865,-0.060107585,-0.3033996,0.16004242,809.89014,779.67035,801.4286,817.1429,828.022,0.23876953125,0.08734130859375,0.984375,-0.381317138671875,-8.755340576171875,-3.06549072265625,1,1.0,1.0,1.0,1.0,10.00
2024-10-11 20:22:14.521,0.92725486,1.0040731,0.9015334,0.7333324,0.8657744,0.49580273,0.5298579,0.2535235,0.956902,0.368463,0.27864516,0.59103715,0.35440052,0.40372175,-0.023126177,0.22638728,0.15563865,-0.060107585,-0.3033996,0.16004242,809.0842,791.75824,801.4286,809.89014,680.54944,0.23876953125,0.08734130859375,0.984375,-0.381317138671875,-8.755340576171875,-3.06549072265625,1,1.0,1.0,1.0,1.0,10.00
2024-10-11 20:22:14.522,0.92725486,1.0040731,0.9015334,0.7333324,0.8657744,0.49580273,0.5298579,0.2535235,0.956902,0.368463,0.27864516,0.59103715,0.35440052,0.40372175,-0.023126177,0.22638728,0.15563865,-0.060107585,-0.3033996,0.16004242,809.0842,799.41394,805.8608,809.0842,680.14655,0.23876953125,0.08734130859375,0.984375,-0.381317138671875,-8.755340576171875,-3.06549072265625,1,1.0,1.0,1.0,1.0,10.00
2024-10-11 20:22:14.523,0.92725486,1.0040731,0.9015334,0.7333324,0.8657744,0.49580273,0.5298579,0.2535235,0.956902,0.368463,0.27864516,0.59103715,0.35440052,0.40372175,-0.023126177,0.22638728,0.15563865,-0.060107585,-0.3033996,0.16004242,813.91943,799.011,811.0989,810.293,792.5641,0.23876953125,0.08734130859375,0.984375,-0.381317138671875,-8.755340576171875,-3.06549072265625,1,1.0,1.0,1.0,1.0,10.00
2024-10-11 20:22:14.523,0.92725486,1.0040731,0.9015334,0.7333324,0.8657744,0.49580273,0.5298579,0.2535235,0.956902,0.368463,0.27864516,0.59103715,0.35440052,0.40372175,-0.023126177,0.22638728,0.15563865,-0.060107585,-0.3033996,0.16004242,811.9048,801.8315,809.0842,812.71063,758.315,0.23876953125,0.08734130859375,0.984375,-0.381317138671875,-8.755340576171875,-3.06549072265625,1,1.0,1.0,1.0,1.0,10.00
2024-10-11 20:22:14.524,0.92725486,1.0040731,0.9015334,0.7333324,0.8657744,0.49580273,0.5298579,0.2535235,0.956902,0.368463,0.27864516,0.59103715,0.35440052,0.40372175,-0.023126177,0.22638728,0.15563865,-0.060107585,-0.3033996,0.16004242,809.89014,797.3993,805.4579,813.91943,610.0366,0.23876953125,0.08734130859375,0.984375,-0.381317138671875,-8.755340576171875,-3.06549072265625,1,1.0,1.0,1.0,1.0,10.00
2024-10-11 20:22:14.525,0.92725486,1.0040731,0.9015334,0.7333324,0.8657744,0.49580273,0.5298579,0.2535235,0.956902,0.368463,0.27864516,0.59103715,0.35440052,0.40372175,-0.023126177,0.22638728,0.15563865,-0.060107585,-0.3033996,0.16004242,815.9341,791.3553,804.65204,809.89014,767.98535,0.23876953125,0.08734130859375,0.984375,-0.381317138671875,-8.755340576171875,-3.06549072265625,1,1.0,1.0,1.0,1.0,10.00
2024-10-11 20:22:14.587,0.92725486,1.0040731,0.9015334,0.7333324,0.8657744,0.49580273,0.5298579,0.2535235,0.956902,0.368463,0.27864516,0.59103715,0.35440052,0.40372175,-0.023126177,0.22638728,0.15563865,-0.060107585,-0.3033996,0.16004242,822.381,793.7729,803.0403,810.293,940.4396,0.25128173828125,0.08856201171875,0.98345947265625,0.22430419921875,-3.2598876953125,-0.500946044921875,1,1.0,1.0,1.0,1.0,10.00
2024-10-11 20:22:14.588,0.92725486,1.0040731,0.9015334,0.7333324,0.8657744,0.49580273,0.5298579,0.2535235,0.956902,0.368463,0.27864516,0.59103715,0.35440052,0.40372175,-0.023126177,0.22638728,0.15563865,-0.060107585,-0.3033996,0.16004242,817.5458,792.96704,801.8315,814.3223,755.89746,0.25128173828125,0.08856201171875,0.98345947265625,0.22430419921875,-3.2598876953125,-0.500946044921875,1,1.0,1.0,1.0,1.0,10.00
2024-10-11 20:22:14.589,0.92725486,1.0040731,0.9015334,0.7333324,0.8657744,0.49580273,0.5298579,0.2535235,0.956902,0.368463,0.27864516,0.59103715,0.35440052,0.40372175,-0.023126177,0.22638728,0.15563865,-0.060107585,-0.3033996,0.16004242,806.6667,788.93774,801.8315,809.0842,678.5348,0.25128173828125,0.08856201171875,0.98345947265625,0.22430419921875,-3.2598876953125,-0.500946044921875,1,1.0,1.0,1.0,1.0,10.00
2024-10-11 20:22:14.590,0.92725486,1.0040731,0.9015334,0.7333324,0.8657744,0.49580273,0.5298579,0.2535235,0.956902,0.368463,0.27864516,0.59103715,0.35440052,0.40372175,-0.023126177,0.22638728,0.15563865,-0.060107585,-0.3033996,0.16004242,804.65204,794.17584,799.81683,815.12823,870.7326,0.25128173828125,0.08856201171875,0.98345947265625,0.22430419921875,-3.2598876953125,-0.500946044921875,1,1.0,1.0,1.0,1.0,10.00
2024-10-11 20:22:14.590,0.92725486,1.0040731,0.9015334,0.7333324,0.8657744,0.49580273,0.5298579,0.2535235,0.956902,0.368463,0.27864516,0.59103715,0.35440052,0.40372175,-0.023126177,0.22638728,0.15563865,-0.060107585,-0.3033996,0.16004242,804.65204,801.4286,798.20514,827.619,1005.31134,0.25128173828125,0.08856201171875,0.98345947265625,0.22430419921875,-3.2598876953125,-0.500946044921875,1,1.0,1.0,1.0,1.0,10.00
2024-10-11 20:22:14.591,0.92725486,1.0040731,0.9015334,0.7333324,0.8657744,0.49580273,0.5298579,0.2535235,0.956902,0.368463,0.27864516,0.59103715,0.35440052,0.40372175,-0.023126177,0.22638728,0.15563865,-0.060107585,-0.3033996,0.16004242,800.6227,799.011,793.36993,819.5604,936.4103,0.25128173828125,0.08856201171875,0.98345947265625,0.22430419921875,-3.2598876953125,-0.500946044921875,1,1.0,1.0,1.0,1.0,10.00
2024-10-11 20:22:14.592,0.92725486,1.0040731,0.9015334,0.7333324,0.8657744,0.49580273,0.5298579,0.2535235,0.956902,0.368463,0.27864516,0.59103715,0.35440052,0.40372175,-0.023126177,0.22638728,0.15563865,-0.060107585,-0.3033996,0.16004242,803.44324,794.57874,790.14655,813.5165,911.8315,0.25128173828125,0.08856201171875,0.98345947265625,0.22430419921875,-3.2598876953125,-0.500946044921875,1,1.0,1.0,1.0,1.0,10.00
2024-10-11 20:22:14.592,0.92725486,1.0040731,0.9015334,0.7333324,0.8657744,0.49580273,0.5298579,0.2535235,0.956902,0.368463,0.27864516,0.59103715,0.35440052,0.40372175,-0.023126177,0.22638728,0.15563865,-0.060107585,-0.3033996,0.16004242,807.0696,790.9524,791.75824,806.26373,1037.9487,0.25128173828125,0.08856201171875,0.98345947265625,0.22430419921875,-3.2598876953125,-0.500946044921875,1,1.0,1.0,1.0,1.0,10.00
2024-10-11 20:22:14.593,0.92725486,1.0040731,0.9015334,0.7333324,0.8657744,0.49580273,0.5298579,0.2535235,0.956902,0.368463,0.27864516,0.59103715,0.35440052,0.40372175,-0.023126177,0.22638728,0.15563865,-0.060107585,-0.3033996,0.16004242,807.0696,795.38464,798.20514,808.68134,1030.2931,0.25128173828125,0.08856201171875,0.98345947265625,0.22430419921875,-3.2598876953125,-0.500946044921875,1,1.0,1.0,1.0,1.0,10.00
2024-10-11 20:22:14.594,0.92725486,1.0040731,0.9015334,0.7333324,0.8657744,0.49580273,0.5298579,0.2535235,0.956902,0.368463,0.27864516,0.59103715,0.35440052,0.40372175,-0.023126177,0.22638728,0.15563865,-0.060107585,-0.3033996,0.16004242,808.2784,812.3077,798.60803,811.50183,793.7729,0.25128173828125,0.08856201171875,0.98345947265625,0.22430419921875,-3.2598876953125,-0.500946044921875,1,1.0,1.0,1.0,1.0,10.00
2024-10-11 20:22:14.594,0.92725486,1.0040731,0.9015334,0.7333324,0.8657744,0.49580273,0.5298579,0.2535235,0.956902,0.368463,0.27864516,0.59103715,0.35440052,0.40372175,-0.023126177,0.22638728,0.15563865,-0.060107585,-0.3033996,0.16004242,808.2784,809.4872,795.78754,801.8315,770.40295,0.25128173828125,0.08856201171875,0.98345947265625,0.22430419921875,-3.2598876953125,-0.500946044921875,1,1.0,1.0,1.0,1.0,10.00
2024-10-11 20:22:14.595,0.92725486,1.0040731,0.9015334,0.7333324,0.8657744,0.49580273,0.5298579,0.2535235,0.956902,0.368463,0.27864516,0.59103715,0.35440052,0.40372175,-0.023126177,0.22638728,0.15563865,-0.060107585,-0.3033996,0.16004242,798.60803,799.41394,794.9817,801.4286,941.2454,0.25128173828125,0.08856201171875,0.98345947265625,0.22430419921875,-3.2598876953125,-0.500946044921875,1,1.0,1.0,1.0,1.0,10.00
2024-10-11 20:22:14.654,0.92725486,1.0040731,0.9015334,0.7333324,0.8657744,0.49580273,0.5298579,0.2535235,0.956902,0.368463,0.27864516,0.59103715,0.35440052,0.40372175,-0.023126177,0.22638728,0.15563865,-0.060107585,-0.3033996,0.16004242,807.0696,806.26373,798.20514,809.0842,832.4542,0.2447509765625,0.08514404296875,0.97076416015625,0.35888671875,-2.325286865234375,0.34393310546875,1,1.0,1.0,1.0,1.0,10.00
2024-10-11 20:22:14.655,0.92725486,1.0040731,0.9015334,0.7333324,0.8657744,0.49580273,0.5298579,0.2535235,0.956902,0.368463,0.27864516,0.59103715,0.35440052,0.40372175,-0.023126177,0.22638728,0.15563865,-0.060107585,-0.3033996,0.16004242,814.7253,807.0696,803.8461,809.4872,706.337,0.2447509765625,0.08514404296875,0.97076416015625,0.35888671875,-2.325286865234375,0.34393310546875,1,1.0,1.0,1.0,1.0,10.00
2024-10-11 20:22:14.656,0.92725486,1.0040731,0.9015334,0.7333324,0.8657744,0.49580273,0.5298579,0.2535235,0.956902,0.368463,0.27864516,0.59103715,0.35440052,0.40372175,-0.023126177,0.22638728,0.15563865,-0.060107585,-0.3033996,0.16004242,804.2491,798.60803,796.99634,804.65204,760.32965,0.2447509765625,0.08514404296875,0.97076416015625,0.35888671875,-2.325286865234375,0.34393310546875,1,1.0,1.0,1.0,1.0,10.00
2024-10-11 20:22:14.657,0.96462834,0.97890466,0.9410645,0.7333324,0.93492323,0.47883722,0.5937421,0.2535235,0.9613224,0.37552688,0.28459886,0.59103715,0.3687465,0.4230916,-0.03651658,0.22638728,0.0886804,-0.040973518,-0.28636855,0.16004242,808.68134,798.60803,790.9524,806.6667,708.3516,0.2447509765625,0.08514404296875,0.97076416015625,0.35888671875,-2.325286865234375,0.34393310546875,1,1.0,1.0,1.0,1.0,10.00
2024-10-11 20:22:14.662,0.96462834,0.97890466,0.9410645,0.7333324,0.93492323,0.47883722,0.5937421,0.2535235,0.9613224,0.37552688,0.28459886,0.59103715,0.3687465,0.4230916,-0.03651658,0.22638728,0.0886804,-0.040973518,-0.28636855,0.16004242,817.5458,800.6227,796.5934,809.0842,650.7326,0.2447509765625,0.08514404296875,0.97076416015625,0.35888671875,-2.325286865234375,0.34393310546875,1,1.0,1.0,1.0,1.0,10.00
2024-10-11 20:22:14.663,0.96462834,0.97890466,0.9410645,0.7333324,0.93492323,0.47883722,0.5937421,0.2535235,0.9613224,0.37552688,0.28459886,0.59103715,0.3687465,0.4230916,-0.03651658,0.22638728,0.0886804,-0.040973518,-0.28636855,0.16004242,813.91943,800.6227,798.20514,811.9048,794.17584,0.2447509765625,0.08514404296875,0.97076416015625,0.35888671875,-2.325286865234375,0.34393310546875,1,1.0,1.0,1.0,1.0,10.00
2024-10-11 20:22:14.664,0.96462834,0.97890466,0.9410645,0.7333324,0.93492323,0.47883722,0.5937421,0.2535235,0.9613224,0.37552688,0.28459886,0.59103715,0.3687465,0.4230916,-0.03651658,0.22638728,0.0886804,-0.040973518,-0.28636855,0.16004242,812.71063,797.8022,799.81683,818.7546,832.0513,0.2447509765625,0.08514404296875,0.97076416015625,0.35888671875,-2.325286865234375,0.34393310546875,1,1.0,1.0,1.0,1.0,10.00
2024-10-11 20:22:14.664,0.96462834,0.97890466,0.9410645,0.7333324,0.93492323,0.47883722,0.5937421,0.2535235,0.9613224,0.37552688,0.28459886,0.59103715,0.3687465,0.4230916,-0.03651658,0.22638728,0.0886804,-0.040973518,-0.28636855,0.16004242,815.9341,800.2198,807.47253,820.3663,740.18317,0.2447509765625,0.08514404296875,0.97076416015625,0.35888671875,-2.325286865234375,0.34393310546875,1,1.0,1.0,1.0,1.0,10.00
2024-10-11 20:22:14.665,0.96462834,0.97890466,0.9410645,0.7333324,0.93492323,0.47883722,0.5937421,0.2535235,0.9613224,0.37552688,0.28459886,0.59103715,0.3687465,0.4230916,-0.03651658,0.22638728,0.0886804,-0.040973518,-0.28636855,0.16004242,809.4872,807.47253,811.0989,817.1429,792.5641,0.2447509765625,0.08514404296875,0.97076416015625,0.35888671875,-2.325286865234375,0.34393310546875,1,1.0,1.0,1.0,1.0,10.00
2024-10-11 20:22:14.666,0.96462834,0.97890466,0.9410645,0.7333324,0.93492323,0.47883722,0.5937421,0.2535235,0.9613224,0.37552688,0.28459886,0.59103715,0.3687465,0.4230916,-0.03651658,0.22638728,0.0886804,-0.040973518,-0.28636855,0.16004242,802.6374,811.0989,808.2784,818.3516,750.65936,0.2447509765625,0.08514404296875,0.97076416015625,0.35888671875,-2.325286865234375,0.34393310546875,1,1.0,1.0,1.0,1.0,10.00
2024-10-11 20:22:14.667,0.96462834,0.97890466,0.9410645,0.7333324,0.93492323,0.47883722,0.5937421,0.2535235,0.9613224,0.37552688,0.28459886,0.59103715,0.3687465,0.4230916,-0.03651658,0.22638728,0.0886804,-0.040973518,-0.28636855,0.16004242,801.02563,807.0696,802.6374,813.1135,771.6117,0.2447509765625,0.08514404296875,0.97076416015625,0.35888671875,-2.325286865234375,0.34393310546875,1,1.0,1.0,1.0,1.0,10.00
2024-10-11 20:22:14.667,0.96462834,0.97890466,0.9410645,0.7333324,0.93492323,0.47883722,0.5937421,0.2535235,0.9613224,0.37552688,0.28459886,0.59103715,0.3687465,0.4230916,-0.03651658,0.22638728,0.0886804,-0.040973518,-0.28636855,0.16004242,804.2491,802.23444,797.8022,809.89014,817.5458,0.2447509765625,0.08514404296875,0.97076416015625,0.35888671875,-2.325286865234375,0.34393310546875,1,1.0,1.0,1.0,1.0,10.00
2024-10-11 20:22:14.736,0.96462834,0.97890466,0.9410645,0.7333324,0.93492323,0.47883722,0.5937421,0.2535235,0.9613224,0.37552688,0.28459886,0.59103715,0.3687465,0.4230916,-0.03651658,0.22638728,0.0886804,-0.040973518,-0.28636855,0.16004242,801.8315,798.20514,799.41394,813.5165,569.34064,0.24456787109375,0.08740234375,0.97393798828125,1.136474609375,0.321502685546875,-1.996307373046875,1,1.0,1.0,1.0,1.0,10.00
2024-10-11 20:22:14.737,0.96462834,0.97890466,0.9410645,0.7333324,0.93492323,0.47883722,0.5937421,0.2535235,0.9613224,0.37552688,0.28459886,0.59103715,0.3687465,0.4230916,-0.03651658,0.22638728,0.0886804,-0.040973518,-0.28636855,0.16004242,801.02563,800.2198,805.05493,813.5165,500.8425,0.24456787109375,0.08740234375,0.97393798828125,1.136474609375,0.321502685546875,-1.996307373046875,1,1.0,1.0,1.0,1.0,10.00
2024-10-11 20:22:14.738,0.96462834,0.97890466,0.9410645,0.7333324,0.93492323,0.47883722,0.5937421,0.2535235,0.9613224,0.37552688,0.28459886,0.59103715,0.3687465,0.4230916,-0.03651658,0.22638728,0.0886804,-0.040973518,-0.28636855,0.16004242,809.4872,802.6374,806.6667,813.5165,797.8022,0.24456787109375,0.08740234375,0.97393798828125,1.136474609375,0.321502685546875,-1.996307373046875,1,1.0,1.0,1.0,1.0,10.00
2024-10-11 20:22:14.738,0.96462834,0.97890466,0.9410645,0.7333324,0.93492323,0.47883722,0.5937421,0.2535235,0.9613224,0.37552688,0.28459886,0.59103715,0.3687465,0.4230916,-0.03651658,0.22638728,0.0886804,-0.040973518,-0.28636855,0.16004242,812.3077,799.81683,803.0403,819.15753,804.65204,0.24456787109375,0.08740234375,0.97393798828125,1.136474609375,0.321502685546875,-1.996307373046875,1,1.0,1.0,1.0,1.0,10.00
2024-10-11 20:22:14.739,0.96462834,0.97890466,0.9410645,0.7333324,0.93492323,0.47883722,0.5937421,0.2535235,0.9613224,0.37552688,0.28459886,0.59103715,0.3687465,0.4230916,-0.03651658,0.22638728,0.0886804,-0.040973518,-0.28636855,0.16004242,802.23444,799.011,797.3993,817.9487,572.96704,0.24456787109375,0.08740234375,0.97393798828125,1.136474609375,0.321502685546875,-1.996307373046875,1,1.0,1.0,1.0,1.0,10.00
2024-10-11 20:22:14.740,0.96462834,0.97890466,0.9410645,0.7333324,0.93492323,0.47883722,0.5937421,0.2535235,0.9613224,0.37552688,0.28459886,0.59103715,0.3687465,0.4230916,-0.03651658,0.22638728,0.0886804,-0.040973518,-0.28636855,0.16004242,795.78754,796.99634,798.20514,811.0989,612.8571,0.24456787109375,0.08740234375,0.97393798828125,1.136474609375,0.321502685546875,-1.996307373046875,1,1.0,1.0,1.0,1.0,10.00
2024-10-11 20:22:14.740,0.96462834,0.97890466,0.9410645,0.7333324,0.93492323,0.47883722,0.5937421,0.2535235,0.9613224,0.37552688,0.28459886,0.59103715,0.3687465,0.4230916,-0.03651658,0.22638728,0.0886804,-0.040973518,-0.28636855,0.16004242,802.23444,799.011,803.0403,814.3223,1007.72894,0.24456787109375,0.08740234375,0.97393798828125,1.136474609375,0.321502685546875,-1.996307373046875,1,1.0,1.0,1.0,1.0,10.00
2024-10-11 20:22:14.741,0.96462834,0.97890466,0.9410645,0.7333324,0.93492323,0.47883722,0.5937421,0.2535235,0.9613224,0.37552688,0.28459886,0.59103715,0.3687465,0.4230916,-0.03651658,0.22638728,0.0886804,-0.040973518,-0.28636855,0.16004242,800.6227,794.17584,804.65204,808.2784,1059.7069,0.24456787109375,0.08740234375,0.97393798828125,1.136474609375,0.321502685546875,-1.996307373046875,1,1.0,1.0,1.0,1.0,10.00
2024-10-11 20:22:14.742,0.96462834,0.97890466,0.9410645,0.7333324,0.93492323,0.47883722,0.5937421,0.2535235,0.9613224,0.37552688,0.28459886,0.59103715,0.3687465,0.4230916,-0.03651658,0.22638728,0.0886804,-0.040973518,-0.28636855,0.16004242,796.1905,798.20514,800.2198,800.6227,662.4176,0.24456787109375,0.08740234375,0.97393798828125,1.136474609375,0.321502685546875,-1.996307373046875,1,1.0,1.0,1.0,1.0,10.00
2024-10-11 20:22:14.742,0.96462834,0.97890466,0.9410645,0.7333324,0.93492323,0.47883722,0.5937421,0.2535235,0.9613224,0.37552688,0.28459886,0.59103715,0.3687465,0.4230916,-0.03651658,0.22638728,0.0886804,-0.040973518,-0.28636855,0.16004242,805.05493,801.02563,799.41394,807.0696,625.34796,0.24456787109375,0.08740234375,0.97393798828125,1.136474609375,0.321502685546875,-1.996307373046875,1,1.0,1.0,1.0,1.0,10.00
2024-10-11 20:22:14.743,0.96462834,0.97890466,0.9410645,0.7333324,0.93492323,0.47883722,0.5937421,0.2535235,0.9613224,0.37552688,0.28459886,0.59103715,0.3687465,0.4230916,-0.03651658,0.22638728,0.0886804,-0.040973518,-0.28636855,0.16004242,813.91943,793.36993,796.99634,810.696,910.2198,0.24456787109375,0.08740234375,0.97393798828125,1.136474609375,0.321502685546875,-1.996307373046875,1,1.0,1.0,1.0,1.0,10.00
2024-10-11 20:22:14.744,0.96462834,0.97890466,0.9410645,0.7333324,0.93492323,0.47883722,0.5937421,0.2535235,0.9613224,0.37552688,0.28459886,0.59103715,0.3687465,0.4230916,-0.03651658,0.22638728,0.0886804,-0.040973518,-0.28636855,0.16004242,809.4872,797.3993,792.96704,805.8608,1064.9451,0.24456787109375,0.08740234375,0.97393798828125,1.136474609375,0.321502685546875,-1.996307373046875,1,1.0,1.0,1.0,1.0,10.00
2024-10-11 20:22:14.802,0.96462834,0.97890466,0.9410645,0.7333324,0.93492323,0.47883722,0.5937421,0.2535235,0.9613224,0.37552688,0.28459886,0.59103715,0.3687465,0.4230916,-0.03651658,0.22638728,0.0886804,-0.040973518,-0.28636855,0.16004242,800.2198,801.4286,800.2198,797.8022,780.07324,0.24688720703125,0.09271240234375,0.9801025390625,1.786956787109375,3.641204833984375,-2.848663330078125,1,1.0,1.0,1.0,1.0,10.00
2024-10-11 20:22:14.803,0.96462834,0.97890466,0.9410645,0.7333324,0.93492323,0.47883722,0.5937421,0.2535235,0.9613224,0.37552688,0.28459886,0.59103715,0.3687465,0.4230916,-0.03651658,0.22638728,0.0886804,-0.040973518,-0.28636855,0.16004242,796.1905,794.57874,802.23444,796.1905,657.98535,0.24688720703125,0.09271240234375,0.9801025390625,1.786956787109375,3.641204833984375,-2.848663330078125,1,1.0,1.0,1.0,1.0,10.00
2024-10-11 20:22:14.803,0.96462834,0.97890466,0.9410645,0.7333324,0.93492323,0.47883722,0.5937421,0.2535235,0.9613224,0.37552688,0.28459886,0.59103715,0.3687465,0.4230916,-0.03651658,0.22638728,0.0886804,-0.040973518,-0.28636855,0.16004242,802.6374,793.36993,799.011,799.41394,812.71063,0.24688720703125,0.09271240234375,0.9801025390625,1.786956787109375,3.641204833984375,-2.848663330078125,1,1.0,1.0,1.0,1.0,10.00
2024-10-11 20:22:14.804,0.96462834,0.97890466,0.9410645,0.7333324,0.93492323,0.47883722,0.5937421,0.2535235,0.9613224,0.37552688,0.28459886,0.59103715,0.3687465,0.4230916,-0.03651658,0.22638728,0.0886804,-0.040973518,-0.28636855,0.16004242,798.60803,794.9817,805.4579,804.2491,840.9158,0.24688720703125,0.09271240234375,0.9801025390625,1.786956787109375,3.641204833984375,-2.848663330078125,1,1.0,1.0,1.0,1.0,10.00
2024-10-11 20:22:14.805,0.96462834,0.97890466,0.9410645,0.7333324,0.93492323,0.47883722,0.5937421,0.2535235,0.9613224,0.37552688,0.28459886,0.59103715,0.3687465,0.4230916,-0.03651658,0.22638728,0.0886804,-0.040973518,-0.28636855,0.16004242,790.54944,789.34064,805.4579,807.0696,741.39197,0.24688720703125,0.09271240234375,0.9801025390625,1.786956787109375,3.641204833984375,-2.848663330078125,1,1.0,1.0,1.0,1.0,10.00
2024-10-11 20:22:14.806,1.0252942,0.9310468,0.95011836,0.7333324,0.97729856,0.43249598,0.6095667,0.2535235,0.96771836,0.3561108,0.2936051,0.59103715,0.39740732,0.44447523,-0.058786467,0.22638728,0.014216972,-0.021659747,-0.27867144,0.16004242,787.326,789.34064,803.44324,806.26373,755.89746,0.24688720703125,0.09271240234375,0.9801025390625,1.786956787109375,3.641204833984375,-2.848663330078125,1,1.0,1.0,1.0,1.0,10.00
2024-10-11 20:22:14.811,1.0252942,0.9310468,0.95011836,0.7333324,0.97729856,0.43249598,0.6095667,0.2535235,0.96771836,0.3561108,0.2936051,0.59103715,0.39740732,0.44447523,-0.058786467,0.22638728,0.014216972,-0.021659747,-0.27867144,0.16004242,786.9231,791.75824,802.6374,807.47253,968.6447,0.24688720703125,0.09271240234375,0.9801025390625,1.786956787109375,3.641204833984375,-2.848663330078125,1,1.0,1.0,1.0,1.0,10.00
2024-10-11 20:22:14.812,1.0252942,0.9310468,0.95011836,0.7333324,0.97729856,0.43249598,0.6095667,0.2535235,0.96771836,0.3561108,0.2936051,0.59103715,0.39740732,0.44447523,-0.058786467,0.22638728,0.014216972,-0.021659747,-0.27867144,0.16004242,793.7729,792.96704,801.02563,806.26373,923.91943,0.24688720703125,0.09271240234375,0.9801025390625,1.786956787109375,3.641204833984375,-2.848663330078125,1,1.0,1.0,1.0,1.0,10.00
2024-10-11 20:22:14.813,1.0252942,0.9310468,0.95011836,0.7333324,0.97729856,0.43249598,0.6095667,0.2535235,0.96771836,0.3561108,0.2936051,0.59103715,0.39740732,0.44447523,-0.058786467,0.22638728,0.014216972,-0.021659747,-0.27867144,0.16004242,784.10254,793.36993,802.23444,800.6227,680.54944,0.24688720703125,0.09271240234375,0.9801025390625,1.786956787109375,3.641204833984375,-2.848663330078125,1,1.0,1.0,1.0,1.0,10.00
2024-10-11 20:22:14.813,1.0252942,0.9310468,0.95011836,0.7333324,0.97729856,0.43249598,0.6095667,0.2535235,0.96771836,0.3561108,0.2936051,0.59103715,0.39740732,0.44447523,-0.058786467,0.22638728,0.014216972,-0.021659747,-0.27867144,0.16004242,785.31134,780.4762,797.3993,801.4286,665.2381,0.24688720703125,0.09271240234375,0.9801025390625,1.786956787109375,3.641204833984375,-2.848663330078125,1,1.0,1.0,1.0,1.0,10.00
2024-10-11 20:22:14.814,1.0252942,0.9310468,0.95011836,0.7333324,0.97729856,0.43249598,0.6095667,0.2535235,0.96771836,0.3561108,0.2936051,0.59103715,0.39740732,0.44447523,-0.058786467,0.22638728,0.014216972,-0.021659747,-0.27867144,0.16004242,796.5934,776.04395,792.1612,807.0696,810.696,0.24688720703125,0.09271240234375,0.9801025390625,1.786956787109375,3.641204833984375,-2.848663330078125,1,1.0,1.0,1.0,1.0,10.00
2024-10-11 20:22:14.815,1.0252942,0.9310468,0.95011836,0.7333324,0.97729856,0.43249598,0.6095667,0.2535235,0.96771836,0.3561108,0.2936051,0.59103715,0.39740732,0.44447523,-0.058786467,0.22638728,0.014216972,-0.021659747,-0.27867144,0.16004242,800.6227,796.1905,792.96704,801.4286,764.35895,0.24688720703125,0.09271240234375,0.9801025390625,1.786956787109375,3.641204833984375,-2.848663330078125,1,1.0,1.0,1.0,1.0,10.00
2024-10-11 20:22:14.847,1.0252942,0.9310468,0.95011836,0.7333324,0.97729856,0.43249598,0.6095667,0.2535235,0.96771836,0.3561108,0.2936051,0.59103715,0.39740732,0.44447523,-0.058786467,0.22638728,0.014216972,-0.021659747,-0.27867144,0.16004242,796.99634,801.4286,798.20514,796.1905,640.2564,0.23419189453125,0.08831787109375,0.9776611328125,1.36077880859375,6.452484130859375,-0.770111083984375,1,1.0,1.0,1.0,1.0,10.00
2024-10-11 20:22:14.848,1.0252942,0.9310468,0.95011836,0.7333324,0.97729856,0.43249598,0.6095667,0.2535235,0.96771836,0.3561108,0.2936051,0.59103715,0.39740732,0.44447523,-0.058786467,0.22638728,0.014216972,-0.021659747,-0.27867144,0.16004242,796.1905,794.17584,796.99634,801.4286,842.52747,0.23419189453125,0.08831787109375,0.9776611328125,1.36077880859375,6.452484130859375,-0.770111083984375,1,1.0,1.0,1.0,1.0,10.00
2024-10-11 20:22:14.849,1.0252942,0.9310468,0.95011836,0.7333324,0.97729856,0.43249598,0.6095667,0.2535235,0.96771836,0.3561108,0.2936051,0.59103715,0.39740732,0.44447523,-0.058786467,0.22638728,0.014216972,-0.021659747,-0.27867144,0.16004242,801.8315,794.57874,798.60803,810.696,950.5128,0.23419189453125,0.08831787109375,0.9776611328125,1.36077880859375,6.452484130859375,-0.770111083984375,1,1.0,1.0,1.0,1.0,10.00
2024-10-11 20:22:14.850,1.0252942,0.9310468,0.95011836,0.7333324,0.97729856,0.43249598,0.6095667,0.2535235,0.96771836,0.3561108,0.2936051,0.59103715,0.39740732,0.44447523,-0.058786467,0.22638728,0.014216972,-0.021659747,-0.27867144,0.16004242,801.02563,795.78754,803.8461,807.8755,689.81683,0.23419189453125,0.08831787109375,0.9776611328125,1.36077880859375,6.452484130859375,-0.770111083984375,1,1.0,1.0,1.0,1.0,10.00
2024-10-11 20:22:14.850,1.0252942,0.9310468,0.95011836,0.7333324,0.97729856,0.43249598,0.6095667,0.2535235,0.96771836,0.3561108,0.2936051,0.59103715,0.39740732,0.44447523,-0.058786467,0.22638728,0.014216972,-0.021659747,-0.27867144,0.16004242,799.011,791.75824,801.4286,807.0696,688.20514,0.23419189453125,0.08831787109375,0.9776611328125,1.36077880859375,6.452484130859375,-0.770111083984375,1,1.0,1.0,1.0,1.0,10.00
2024-10-11 20:22:14.851,1.0252942,0.9310468,0.95011836,0.7333324,0.97729856,0.43249598,0.6095667,0.2535235,0.96771836,0.3561108,0.2936051,0.59103715,0.39740732,0.44447523,-0.058786467,0.22638728,0.014216972,-0.021659747,-0.27867144,0.16004242,800.2198,795.78754,795.78754,807.47253,954.1392,0.23419189453125,0.08831787109375,0.9776611328125,1.36077880859375,6.452484130859375,-0.770111083984375,1,1.0,1.0,1.0,1.0,10.00
2024-10-11 20:22:14.852,1.0252942,0.9310468,0.95011836,0.7333324,0.97729856,0.43249598,0.6095667,0.2535235,0.96771836,0.3561108,0.2936051,0.59103715,0.39740732,0.44447523,-0.058786467,0.22638728,0.014216972,-0.021659747,-0.27867144,0.16004242,802.6374,803.8461,800.6227,801.4286,977.9121,0.23419189453125,0.08831787109375,0.9776611328125,1.36077880859375,6.452484130859375,-0.770111083984375,1,1.0,1.0,1.0,1.0,10.00
2024-10-11 20:22:14.852,1.0252942,0.9310468,0.95011836,0.7333324,0.97729856,0.43249598,0.6095667,0.2535235,0.96771836,0.3561108,0.2936051,0.59103715,0.39740732,0.44447523,-0.058786467,0.22638728,0.014216972,-0.021659747,-0.27867144,0.16004242,805.4579,807.8755,805.05493,803.8461,761.53845,0.23419189453125,0.08831787109375,0.9776611328125,1.36077880859375,6.452484130859375,-0.770111083984375,1,1.0,1.0,1.0,1.0,10.00
2024-10-11 20:22:14.853,1.0252942,0.9310468,0.95011836,0.7333324,0.97729856,0.43249598,0.6095667,0.2535235,0.96771836,0.3561108,0.2936051,0.59103715,0.39740732,0.44447523,-0.058786467,0.22638728,0.014216972,-0.021659747,-0.27867144,0.16004242,807.47253,803.44324,799.81683,800.6227,693.44324,0.23419189453125,0.08831787109375,0.9776611328125,1.36077880859375,6.452484130859375,-0.770111083984375,1,1.0,1.0,1.0,1.0,10.00
2024-10-11 20:22:14.854,1.0252942,0.9310468,0.95011836,0.7333324,0.97729856,0.43249598,0.6095667,0.2535235,0.96771836,0.3561108,0.2936051,0.59103715,0.39740732,0.44447523,-0.058786467,0.22638728,0.014216972,-0.021659747,-0.27867144,0.16004242,806.6667,797.3993,797.8022,801.02563,827.2161,0.23419189453125,0.08831787109375,0.9776611328125,1.36077880859375,6.452484130859375,-0.770111083984375,1,1.0,1.0,1.0,1.0,10.00
2024-10-11 20:22:14.854,1.0252942,0.9310468,0.95011836,0.7333324,0.97729856,0.43249598,0.6095667,0.2535235,0.96771836,0.3561108,0.2936051,0.59103715,0.39740732,0.44447523,-0.058786467,0.22638728,0.014216972,-0.021659747,-0.27867144,0.16004242,801.4286,796.5934,802.6374,797.8022,813.1135,0.23419189453125,0.08831787109375,0.9776611328125,1.36077880859375,6.452484130859375,-0.770111083984375,1,1.0,1.0,1.0,1.0,10.00
2024-10-11 20:22:14.855,1.0252942,0.9310468,0.95011836,0.7333324,0.97729856,0.43249598,0.6095667,0.2535235,0.96771836,0.3561108,0.2936051,0.59103715,0.39740732,0.44447523,-0.058786467,0.22638728,0.014216972,-0.021659747,-0.27867144,0.16004242,799.41394,794.9817,802.23444,797.3993,655.16486,0.23419189453125,0.08831787109375,0.9776611328125,1.36077880859375,6.452484130859375,-0.770111083984375,1,1.0,1.0,1.0,1.0,10.00
2024-10-11 20:22:14.891,1.0252942,0.9310468,0.95011836,0.7333324,0.97729856,0.43249598,0.6095667,0.2535235,0.96771836,0.3561108,0.2936051,0.59103715,0.39740732,0.44447523,-0.058786467,0.22638728,0.014216972,-0.021659747,-0.27867144,0.16004242,800.6227,787.326,801.4286,803.44324,740.989,0.23419189453125,0.08831787109375,0.9776611328125,1.36077880859375,6.452484130859375,-0.770111083984375,1,1.0,1.0,1.0,1.0,10.00
2024-10-11 20:22:14.892,1.0252942,0.9310468,0.95011836,0.7333324,0.97729856,0.43249598,0.6095667,0.2535235,0.96771836,0.3561108,0.2936051,0.59103715,0.39740732,0.44447523,-0.058786467,0.22638728,0.014216972,-0.021659747,-0.27867144,0.16004242,797.3993,790.14655,803.8461,804.2491,885.2381,0.23419189453125,0.08831787109375,0.9776611328125,1.36077880859375,6.452484130859375,-0.770111083984375,1,1.0,1.0,1.0,1.0,10.00
2024-10-11 20:22:14.893,1.0252942,0.9310468,0.95011836,0.7333324,0.97729856,0.43249598,0.6095667,0.2535235,0.96771836,0.3561108,0.2936051,0.59103715,0.39740732,0.44447523,-0.058786467,0.22638728,0.014216972,-0.021659747,-0.27867144,0.16004242,792.96704,796.1905,797.3993,802.6374,825.6044,0.23419189453125,0.08831787109375,0.9776611328125,1.36077880859375,6.452484130859375,-0.770111083984375,1,1.0,1.0,1.0,1.0,10.00
2024-10-11 20:22:14.893,1.0252942,0.9310468,0.95011836,0.7333324,0.97729856,0.43249598,0.6095667,0.2535235,0.96771836,0.3561108,0.2936051,0.59103715,0.39740732,0.44447523,-0.058786467,0.22638728,0.014216972,-0.021659747,-0.27867144,0.16004242,792.1612,796.99634,799.41394,801.8315,665.2381,0.23419189453125,0.08831787109375,0.9776611328125,1.36077880859375,6.452484130859375,-0.770111083984375,1,1.0,1.0,1.0,1.0,10.00
2024-10-11 20:22:14.894,1.0252942,0.9310468,0.95011836,0.7333324,0.97729856,0.43249598,0.6095667,0.2535235,0.96771836,0.3561108,0.2936051,0.59103715,0.39740732,0.44447523,-0.058786467,0.22638728,0.014216972,-0.021659747,-0.27867144,0.16004242,796.5934,794.17584,797.3993,803.0403,808.2784,0.23419189453125,0.08831787109375,0.9776611328125,1.36077880859375,6.452484130859375,-0.770111083984375,1,1.0,1.0,1.0,1.0,10.00
2024-10-11 20:22:14.895,1.0252942,0.9310468,0.95011836,0.7333324,0.97729856,0.43249598,0.6095667,0.2535235,0.96771836,0.3561108,0.2936051,0.59103715,0.39740732,0.44447523,-0.058786467,0.22638728,0.014216972,-0.021659747,-0.27867144,0.16004242,793.7729,783.2967,795.38464,801.8315,1021.4286,0.23419189453125,0.08831787109375,0.9776611328125,1.36077880859375,6.452484130859375,-0.770111083984375,1,1.0,1.0,1.0,1.0,10.00
2024-10-11 20:22:14.896,1.0252942,0.9310468,0.95011836,0.7333324,0.97729856,0.43249598,0.6095667,0.2535235,0.96771836,0.3561108,0.2936051,0.59103715,0.39740732,0.44447523,-0.058786467,0.22638728,0.014216972,-0.021659747,-0.27867144,0.16004242,797.3993,789.34064,795.38464,808.68134,890.4762,0.23419189453125,0.08831787109375,0.9776611328125,1.36077880859375,6.452484130859375,-0.770111083984375,1,1.0,1.0,1.0,1.0,10.00
2024-10-11 20:22:14.897,1.0994784,0.91240054,0.9339677,1.3812271,0.9810024,0.40838957,0.5907513,0.9675973,0.96771836,0.35881335,0.29979846,0.71807086,0.40938133,0.45436755,-0.08475339,0.24980658,0.011407766,-0.013632846,-0.27807954,0.21493345,795.38464,797.8022,791.75824,805.05493,682.5641,0.23419189453125,0.08831787109375,0.9776611328125,1.36077880859375,6.452484130859375,-0.770111083984375,1,1.0,1.0,1.0,1.0,10.00
2024-10-11 20:22:14.903,1.0994784,0.91240054,0.9339677,1.3812271,0.9810024,0.40838957,0.5907513,0.9675973,0.96771836,0.35881335,0.29979846,0.71807086,0.40938133,0.45436755,-0.08475339,0.24980658,0.011407766,-0.013632846,-0.27807954,0.21493345,789.34064,791.3553,794.9817,797.3993,830.4396,0.23419189453125,0.08831787109375,0.9776611328125,1.36077880859375,6.452484130859375,-0.770111083984375,1,1.0,1.0,1.0,1.0,10.00
2024-10-11 20:22:14.904,1.0994784,0.91240054,0.9339677,1.3812271,0.9810024,0.40838957,0.5907513,0.9675973,0.96771836,0.35881335,0.29979846,0.71807086,0.40938133,0.45436755,-0.08475339,0.24980658,0.011407766,-0.013632846,-0.27807954,0.21493345,799.011,794.17584,799.011,801.02563,925.9341,0.23419189453125,0.08831787109375,0.9776611328125,1.36077880859375,6.452484130859375,-0.770111083984375,1,1.0,1.0,1.0,1.0,10.00
2024-10-11 20:22:14.905,1.0994784,0.91240054,0.9339677,1.3812271,0.9810024,0.40838957,0.5907513,0.9675973,0.96771836,0.35881335,0.29979846,0.71807086,0.40938133,0.45436755,-0.08475339,0.24980658,0.011407766,-0.013632846,-0.27807954,0.21493345,805.4579,802.6374,801.8315,800.6227,708.3516,0.23419189453125,0.08831787109375,0.9776611328125,1.36077880859375,6.452484130859375,-0.770111083984375,1,1.0,1.0,1.0,1.0,10.00
2024-10-11 20:22:14.905,1.0994784,0.91240054,0.9339677,1.3812271,0.9810024,0.40838957,0.5907513,0.9675973,0.96771836,0.35881335,0.29979846,0.71807086,0.40938133,0.45436755,-0.08475339,0.24980658,0.011407766,-0.013632846,-0.27807954,0.21493345,802.6374,800.6227,796.5934,788.5348,549.19415,0.23419189453125,0.08831787109375,0.9776611328125,1.36077880859375,6.452484130859375,-0.770111083984375,1,1.0,1.0,1.0,1.0,10.00
2024-10-11 20:22:14.906,1.0994784,0.91240054,0.9339677,1.3812271,0.9810024,0.40838957,0.5907513,0.9675973,0.96771836,0.35881335,0.29979846,0.71807086,0.40938133,0.45436755,-0.08475339,0.24980658,0.011407766,-0.013632846,-0.27807954,0.21493345,814.3223,788.5348,794.9817,792.96704,749.45056,0.225830078125,0.0989990234375,0.98345947265625,1.45050048828125,12.501220703125,1.188812255859375,1,1.0,1.0,1.0,1.0,10.00
2024-10-11 20:22:14.907,1.0994784,0.91240054,0.9339677,1.3812271,0.9810024,0.40838957,0.5907513,0.9675973,0.96771836,0.35881335,0.29979846,0.71807086,0.40938133,0.45436755,-0.08475339,0.24980658,0.011407766,-0.013632846,-0.27807954,0.21493345,810.696,786.9231,803.8461,805.05493,968.24176,0.225830078125,0.0989990234375,0.98345947265625,1.45050048828125,12.501220703125,1.188812255859375,1,1.0,1.0,1.0,1.0,10.00
2024-10-11 20:22:14.908,1.0994784,0.91240054,0.9339677,1.3812271,0.9810024,0.40838957,0.5907513,0.9675973,0.96771836,0.35881335,0.29979846,0.71807086,0.40938133,0.45436755,-0.08475339,0.24980658,0.011407766,-0.013632846,-0.27807954,0.21493345,784.5055,798.60803,807.47253,799.81683,799.41394,0.225830078125,0.0989990234375,0.98345947265625,1.45050048828125,12.501220703125,1.188812255859375,1,1.0,1.0,1.0,1.0,10.00
2024-10-11 20:22:14.908,1.0994784,0.91240054,0.9339677,1.3812271,0.9810024,0.40838957,0.5907513,0.9675973,0.96771836,0.35881335,0.29979846,0.71807086,0.40938133,0.45436755,-0.08475339,0.24980658,0.011407766,-0.013632846,-0.27807954,0.21493345,784.10254,796.5934,809.4872,796.99634,618.0952,0.225830078125,0.0989990234375,0.98345947265625,1.45050048828125,12.501220703125,1.188812255859375,1,1.0,1.0,1.0,1.0,10.00
2024-10-11 20:22:14.909,1.0994784,0.91240054,0.9339677,1.3812271,0.9810024,0.40838957,0.5907513,0.9675973,0.96771836,0.35881335,0.29979846,0.71807086,0.40938133,0.45436755,-0.08475339,0.24980658,0.011407766,-0.013632846,-0.27807954,0.21493345,792.1612,788.5348,807.0696,803.44324,771.6117,0.225830078125,0.0989990234375,0.98345947265625,1.45050048828125,12.501220703125,1.188812255859375,1,1.0,1.0,1.0,1.0,10.00
2024-10-11 20:22:14.910,1.0994784,0.91240054,0.9339677,1.3812271,0.9810024,0.40838957,0.5907513,0.9675973,0.96771836,0.35881335,0.29979846,0.71807086,0.40938133,0.45436755,-0.08475339,0.24980658,0.011407766,-0.013632846,-0.27807954,0.21493345,787.72894,781.685,807.8755,809.0842,1058.0952,0.225830078125,0.0989990234375,0.98345947265625,1.45050048828125,12.501220703125,1.188812255859375,1,1.0,1.0,1.0,1.0,10.00
2024-10-11 20:22:14.911,1.0994784,0.91240054,0.9339677,1.3812271,0.9810024,0.40838957,0.5907513,0.9675973,0.96771836,0.35881335,0.29979846,0.71807086,0.40938133,0.45436755,-0.08475339,0.24980658,0.011407766,-0.013632846,-0.27807954,0.21493345,786.1172,788.5348,812.71063,807.0696,939.6337,0.225830078125,0.0989990234375,0.98345947265625,1.45050048828125,12.501220703125,1.188812255859375,1,1.0,1.0,1.0,1.0,10.00
2024-10-11 20:22:14.912,1.0994784,0.91240054,0.9339677,1.3812271,0.9810024,0.40838957,0.5907513,0.9675973,0.96771836,0.35881335,0.29979846,0.71807086,0.40938133,0.45436755,-0.08475339,0.24980658,0.011407766,-0.013632846,-0.27807954,0.21493345,782.49084,792.96704,813.91943,797.3993,804.2491,0.225830078125,0.0989990234375,0.98345947265625,1.45050048828125,12.501220703125,1.188812255859375,1,1.0,1.0,1.0,1.0,10.00
2024-10-11 20:22:14.912,1.0994784,0.91240054,0.9339677,1.3812271,0.9810024,0.40838957,0.5907513,0.9675973,0.96771836,0.35881335,0.29979846,0.71807086,0.40938133,0.45436755,-0.08475339,0.24980658,0.011407766,-0.013632846,-0.27807954,0.21493345,771.6117,784.90845,815.5311,794.57874,858.6447,0.225830078125,0.0989990234375,0.98345947265625,1.45050048828125,12.501220703125,1.188812255859375,1,1.0,1.0,1.0,1.0,10.00
2024-10-11 20:22:14.913,1.0994784,0.91240054,0.9339677,1.3812271,0.9810024,0.40838957,0.5907513,0.9675973,0.96771836,0.35881335,0.29979846,0.71807086,0.40938133,0.45436755,-0.08475339,0.24980658,0.011407766,-0.013632846,-0.27807954,0.21493345,780.4762,785.31134,818.7546,805.4579,893.2967,0.225830078125,0.0989990234375,0.98345947265625,1.45050048828125,12.501220703125,1.188812255859375,1,1.0,1.0,1.0,1.0,10.00
2024-10-11 20:22:14.914,1.0994784,0.91240054,0.9339677,1.3812271,0.9810024,0.40838957,0.5907513,0.9675973,0.96771836,0.35881335,0.29979846,0.71807086,0.40938133,0.45436755,-0.08475339,0.24980658,0.011407766,-0.013632846,-0.27807954,0.21493345,798.20514,786.52014,810.293,813.5165,764.7619,0.225830078125,0.0989990234375,0.98345947265625,1.45050048828125,12.501220703125,1.188812255859375,1,1.0,1.0,1.0,1.0,10.00
2024-10-11 20:22:14.915,1.0994784,0.91240054,0.9339677,1.3812271,0.9810024,0.40838957,0.5907513,0.9675973,0.96771836,0.35881335,0.29979846,0.71807086,0.40938133,0.45436755,-0.08475339,0.24980658,0.011407766,-0.013632846,-0.27807954,0.21493345,797.8022,786.9231,806.26373,809.4872,724.0659,0.225830078125,0.0989990234375,0.98345947265625,1.45050048828125,12.501220703125,1.188812255859375,1,1.0,1.0,1.0,1.0,10.00
2024-10-11 20:22:14.916,1.0994784,0.91240054,0.9339677,1.3812271,0.9810024,0.40838957,0.5907513,0.9675973,0.96771836,0.35881335,0.29979846,0.71807086,0.40938133,0.45436755,-0.08475339,0.24980658,0.011407766,-0.013632846,-0.27807954,0.21493345,794.9817,785.7143,803.8461,804.2491,730.9158,0.20672607421875,0.09912109375,0.98895263671875,-0.201873779296875,19.93316650390625,2.0635986328125,1,1.0,1.0,1.0,1.0,10.00
2024-10-11 20:22:14.917,1.0994784,0.91240054,0.9339677,1.3812271,0.9810024,0.40838957,0.5907513,0.9675973,0.96771836,0.35881335,0.29979846,0.71807086,0.40938133,0.45436755,-0.08475339,0.24980658,0.011407766,-0.013632846,-0.27807954,0.21493345,794.9817,785.7143,803.0403,805.05493,741.39197,0.20672607421875,0.09912109375,0.98895263671875,-0.201873779296875,19.93316650390625,2.0635986328125,1,1.0,1.0,1.0,1.0,10.00
2024-10-11 20:22:14.918,1.0994784,0.91240054,0.9339677,1.3812271,0.9810024,0.40838957,0.5907513,0.9675973,0.96771836,0.35881335,0.29979846,0.71807086,0.40938133,0.45436755,-0.08475339,0.24980658,0.011407766,-0.013632846,-0.27807954,0.21493345,794.17584,789.7436,799.81683,801.4286,705.9341,0.20672607421875,0.09912109375,0.98895263671875,-0.201873779296875,19.93316650390625,2.0635986328125,1,1.0,1.0,1.0,1.0,10.00
2024-10-11 20:22:14.919,1.0994784,0.91240054,0.9339677,1.3812271,0.9810024,0.40838957,0.5907513,0.9675973,0.96771836,0.35881335,0.29979846,0.71807086,0.40938133,0.45436755,-0.08475339,0.24980658,0.011407766,-0.013632846,-0.27807954,0.21493345,796.1905,775.2381,800.2198,800.6227,571.75824,0.20672607421875,0.09912109375,0.98895263671875,-0.201873779296875,19.93316650390625,2.0635986328125,1,1.0,1.0,1.0,1.0,10.00
2024-10-11 20:22:14.919,1.0994784,0.91240054,0.9339677,1.3812271,0.9810024,0.40838957,0.5907513,0.9675973,0.96771836,0.35881335,0.29979846,0.71807086,0.40938133,0.45436755,-0.08475339,0.24980658,0.011407766,-0.013632846,-0.27807954,0.21493345,799.011,772.01465,803.44324,800.2198,678.5348,0.20672607421875,0.09912109375,0.98895263671875,-0.201873779296875,19.93316650390625,2.0635986328125,1,1.0,1.0,1.0,1.0,10.00
2024-10-11 20:22:14.920,1.0994784,0.91240054,0.9339677,1.3812271,0.9810024,0.40838957,0.5907513,0.9675973,0.96771836,0.35881335,0.29979846,0.71807086,0.40938133,0.45436755,-0.08475339,0.24980658,0.011407766,-0.013632846,-0.27807954,0.21493345,801.8315,788.1319,805.4579,796.99634,893.69965,0.20672607421875,0.09912109375,0.98895263671875,-0.201873779296875,19.93316650390625,2.0635986328125,1,1.0,1.0,1.0,1.0,10.00
2024-10-11 20:22:14.921,1.0994784,0.91240054,0.9339677,1.3812271,0.9810024,0.40838957,0.5907513,0.9675973,0.96771836,0.35881335,0.29979846,0.71807086,0.40938133,0.45436755,-0.08475339,0.24980658,0.011407766,-0.013632846,-0.27807954,0.21493345,798.60803,796.99634,804.2491,798.60803,890.07324,0.20672607421875,0.09912109375,0.98895263671875,-0.201873779296875,19.93316650390625,2.0635986328125,1,1.0,1.0,1.0,1.0,10.00
2024-10-11 20:22:14.921,1.0994784,0.91240054,0.9339677,1.3812271,0.9810024,0.40838957,0.5907513,0.9675973,0.96771836,0.35881335,0.29979846,0.71807086,0.40938133,0.45436755,-0.08475339,0.24980658,0.011407766,-0.013632846,-0.27807954,0.21493345,803.44324,804.2491,805.4579,796.5934,842.9304,0.20672607421875,0.09912109375,0.98895263671875,-0.201873779296875,19.93316650390625,2.0635986328125,1,1.0,1.0,1.0,1.0,10.00
2024-10-11 20:22:14.922,1.0994784,0.91240054,0.9339677,1.3812271,0.9810024,0.40838957,0.5907513,0.9675973,0.96771836,0.35881335,0.29979846,0.71807086,0.40938133,0.45436755,-0.08475339,0.24980658,0.011407766,-0.013632846,-0.27807954,0.21493345,815.5311,803.8461,805.8608,798.60803,880.0,0.20672607421875,0.09912109375,0.98895263671875,-0.201873779296875,19.93316650390625,2.0635986328125,1,1.0,1.0,1.0,1.0,10.00
2024-10-11 20:22:14.923,1.1496203,0.8927188,0.9028799,1.3944569,0.9602635,0.38673487,0.5563581,0.94272673,0.96771836,0.35881335,0.3060023,0.7189672,0.41569507,0.45752317,-0.10559976,0.21724378,0.006233008,-0.0107596,-0.27868897,0.23392297,816.337,801.8315,804.2491,799.41394,748.24176,0.20672607421875,0.09912109375,0.98895263671875,-0.201873779296875,19.93316650390625,2.0635986328125,1,1.0,1.0,1.0,1.0,10.00
2024-10-11 20:22:14.929,1.1496203,0.8927188,0.9028799,1.3944569,0.9602635,0.38673487,0.5563581,0.94272673,0.96771836,0.35881335,0.3060023,0.7189672,0.41569507,0.45752317,-0.10559976,0.21724378,0.006233008,-0.0107596,-0.27868897,0.23392297,813.5165,798.60803,799.41394,794.57874,711.1722,0.20672607421875,0.09912109375,0.98895263671875,-0.201873779296875,19.93316650390625,2.0635986328125,1,1.0,1.0,1.0,1.0,10.00
2024-10-11 20:22:14.930,1.1496203,0.8927188,0.9028799,1.3944569,0.9602635,0.38673487,0.5563581,0.94272673,0.96771836,0.35881335,0.3060023,0.7189672,0.41569507,0.45752317,-0.10559976,0.21724378,0.006233008,-0.0107596,-0.27868897,0.23392297,809.4872,796.1905,803.44324,797.8022,839.707,0.20672607421875,0.09912109375,0.98895263671875,-0.201873779296875,19.93316650390625,2.0635986328125,1,1.0,1.0,1.0,1.0,10.00
2024-10-11 20:22:14.931,1.1496203,0.8927188,0.9028799,1.3944569,0.9602635,0.38673487,0.5563581,0.94272673,0.96771836,0.35881335,0.3060023,0.7189672,0.41569507,0.45752317,-0.10559976,0.21724378,0.006233008,-0.0107596,-0.27868897,0.23392297,806.26373,799.41394,808.2784,801.4286,861.4652,0.16717529296875,0.094482421875,0.99493408203125,-1.09161376953125,27.701568603515625,3.45428466796875,1,1.0,1.0,1.0,1.0,10.00
2024-10-11 20:22:14.932,1.1496203,0.8927188,0.9028799,1.3944569,0.9602635,0.38673487,0.5563581,0.94272673,0.96771836,0.35881335,0.3060023,0.7189672,0.41569507,0.45752317,-0.10559976,0.21724378,0.006233008,-0.0107596,-0.27868897,0.23392297,805.05493,801.8315,801.8315,801.8315,676.52014,0.16717529296875,0.094482421875,0.99493408203125,-1.09161376953125,27.701568603515625,3.45428466796875,1,1.0,1.0,1.0,1.0,10.00
2024-10-11 20:22:14.933,1.1496203,0.8927188,0.9028799,1.3944569,0.9602635,0.38673487,0.5563581,0.94272673,0.96771836,0.35881335,0.3060023,0.7189672,0.41569507,0.45752317,-0.10559976,0.21724378,0.006233008,-0.0107596,-0.27868897,0.23392297,802.23444,799.81683,795.78754,802.23444,547.1795,0.16717529296875,0.094482421875,0.99493408203125,-1.09161376953125,27.701568603515625,3.45428466796875,1,1.0,1.0,1.0,1.0,10.00
2024-10-11 20:22:14.934,1.1496203,0.8927188,0.9028799,1.3944569,0.9602635,0.38673487,0.5563581,0.94272673,0.96771836,0.35881335,0.3060023,0.7189672,0.41569507,0.45752317,-0.10559976,0.21724378,0.006233008,-0.0107596,-0.27868897,0.23392297,799.81683,793.7729,787.72894,808.68134,744.21246,0.16717529296875,0.094482421875,0.99493408203125,-1.09161376953125,27.701568603515625,3.45428466796875,1,1.0,1.0,1.0,1.0,10.00
2024-10-11 20:22:14.934,1.1496203,0.8927188,0.9028799,1.3944569,0.9602635,0.38673487,0.5563581,0.94272673,0.96771836,0.35881335,0.3060023,0.7189672,0.41569507,0.45752317,-0.10559976,0.21724378,0.006233008,-0.0107596,-0.27868897,0.23392297,799.81683,793.36993,792.96704,807.8755,851.39197,0.16717529296875,0.094482421875,0.99493408203125,-1.09161376953125,27.701568603515625,3.45428466796875,1,1.0,1.0,1.0,1.0,10.00
2024-10-11 20:22:14.935,1.1496203,0.8927188,0.9028799,1.3944569,0.9602635,0.38673487,0.5563581,0.94272673,0.96771836,0.35881335,0.3060023,0.7189672,0.41569507,0.45752317,-0.10559976,0.21724378,0.006233008,-0.0107596,-0.27868897,0.23392297,803.0403,789.34064,797.3993,801.02563,693.44324,0.16717529296875,0.094482421875,0.99493408203125,-1.09161376953125,27.701568603515625,3.45428466796875,1,1.0,1.0,1.0,1.0,10.00
2024-10-11 20:22:14.936,1.1496203,0.8927188,0.9028799,1.3944569,0.9602635,0.38673487,0.5563581,0.94272673,0.96771836,0.35881335,0.3060023,0.7189672,0.41569507,0.45752317,-0.10559976,0.21724378,0.006233008,-0.0107596,-0.27868897,0.23392297,807.0696,792.5641,798.20514,799.81683,808.68134,0.16717529296875,0.094482421875,0.99493408203125,-1.09161376953125,27.701568603515625,3.45428466796875,1,1.0,1.0,1.0,1.0,10.00
2024-10-11 20:22:14.936,1.1496203,0.8927188,0.9028799,1.3944569,0.9602635,0.38673487,0.5563581,0.94272673,0.96771836,0.35881335,0.3060023,0.7189672,0.41569507,0.45752317,-0.10559976,0.21724378,0.006233008,-0.0107596,-0.27868897,0.23392297,790.54944,796.5934,797.8022,801.4286,985.16486,0.16717529296875,0.094482421875,0.99493408203125,-1.09161376953125,27.701568603515625,3.45428466796875,1,1.0,1.0,1.0,1.0,10.00
2024-10-11 20:22:14.937,1.1496203,0.8927188,0.9028799,1.3944569,0.9602635,0.38673487,0.5563581,0.94272673,0.96771836,0.35881335,0.3060023,0.7189672,0.41569507,0.45752317,-0.10559976,0.21724378,0.006233008,-0.0107596,-0.27868897,0.23392297,778.46155,794.57874,801.02563,793.36993,887.25275,0.16717529296875,0.094482421875,0.99493408203125,-1.09161376953125,27.701568603515625,3.45428466796875,1,1.0,1.0,1.0,1.0,10.00
2024-10-11 20:22:14.938,1.1496203,0.8927188,0.9028799,1.3944569,0.9602635,0.38673487,0.5563581,0.94272673,0.96771836,0.35881335,0.3060023,0.7189672,0.41569507,0.45752317,-0.10559976,0.21724378,0.006233008,-0.0107596,-0.27868897,0.23392297,783.2967,790.54944,805.8608,790.54944,638.24176,0.16717529296875,0.094482421875,0.99493408203125,-1.09161376953125,27.701568603515625,3.45428466796875,1,1.0,1.0,1.0,1.0,10.00
2024-10-11 20:22:14.939,1.1496203,0.8927188,0.9028799,1.3944569,0.9602635,0.38673487,0.5563581,0.94272673,0.96771836,0.35881335,0.3060023,0.7189672,0.41569507,0.45752317,-0.10559976,0.21724378,0.006233008,-0.0107596,-0.27868897,0.23392297,780.07324,786.52014,805.05493,795.38464,662.8205,0.16717529296875,0.094482421875,0.99493408203125,-1.09161376953125,27.701568603515625,3.45428466796875,1,1.0,1.0,1.0,1.0,10.00
2024-10-11 20:22:14.939,1.1496203,0.8927188,0.9028799,1.3944569,0.9602635,0.38673487,0.5563581,0.94272673,0.96771836,0.35881335,0.3060023,0.7189672,0.41569507,0.45752317,-0.10559976,0.21724378,0.006233008,-0.0107596,-0.27868897,0.23392297,777.25275,790.54944,802.23444,791.75824,859.45056,0.16717529296875,0.094482421875,0.99493408203125,-1.09161376953125,27.701568603515625,3.45428466796875,1,1.0,1.0,1.0,1.0,10.00
2024-10-11 20:22:14.940,1.1496203,0.8927188,0.9028799,1.3944569,0.9602635,0.38673487,0.5563581,0.94272673,0.96771836,0.35881335,0.3060023,0.7189672,0.41569507,0.45752317,-0.10559976,0.21724378,0.006233008,-0.0107596,-0.27868897,0.23392297,780.07324,NaN,802.6374,792.5641,NaN,0.1207275390625,0.0963134765625,0.99615478515625,-0.5682373046875,30.04180908203125,5.33843994140625,1,1.0,1.0,1.0,1.0,10.00
2024-10-11 20:22:14.941,1.1496203,0.8927188,0.9028799,1.3944569,0.9602635,0.38673487,0.5563581,0.94272673,0.96771836,0.35881335,0.3060023,0.7189672,0.41569507,0.45752317,-0.10559976,0.21724378,0.006233008,-0.0107596,-0.27868897,0.23392297,788.5348,NaN,798.60803,790.14655,NaN,0.1207275390625,0.0963134765625,0.99615478515625,-0.5682373046875,30.04180908203125,5.33843994140625,1,1.0,1.0,1.0,1.0,10.00
2024-10-11 20:22:14.942,1.1496203,0.8927188,0.9028799,1.3944569,0.9602635,0.38673487,0.5563581,0.94272673,0.96771836,0.35881335,0.3060023,0.7189672,0.41569507,0.45752317,-0.10559976,0.21724378,0.006233008,-0.0107596,-0.27868897,0.23392297,794.57874,NaN,799.41394,792.1612,NaN,0.1207275390625,0.0963134765625,0.99615478515625,-0.5682373046875,30.04180908203125,5.33843994140625,1,1.0,1.0,1.0,1.0,10.00
2024-10-11 20:22:14.943,1.1496203,0.8927188,0.9028799,1.3944569,0.9602635,0.38673487,0.5563581,0.94272673,0.96771836,0.35881335,0.3060023,0.7189672,0.41569507,0.45752317,-0.10559976,0.21724378,0.006233008,-0.0107596,-0.27868897,0.23392297,792.96704,NaN,805.05493,797.3993,NaN,0.1207275390625,0.0963134765625,0.99615478515625,-0.5682373046875,30.04180908203125,5.33843994140625,1,1.0,1.0,1.0,1.0,10.00
2024-10-11 20:22:14.943,1.1496203,0.8927188,0.9028799,1.3944569,0.9602635,0.38673487,0.5563581,0.94272673,0.96771836,0.35881335,0.3060023,0.7189672,0.41569507,0.45752317,-0.10559976,0.21724378,0.006233008,-0.0107596,-0.27868897,0.23392297,787.72894,NaN,802.23444,791.3553,NaN,0.1207275390625,0.0963134765625,0.99615478515625,-0.5682373046875,30.04180908203125,5.33843994140625,1,1.0,1.0,1.0,1.0,10.00
2024-10-11 20:22:14.944,1.1496203,0.8927188,0.9028799,1.3944569,0.9602635,0.38673487,0.5563581,0.94272673,0.96771836,0.35881335,0.3060023,0.7189672,0.41569507,0.45752317,-0.10559976,0.21724378,0.006233008,-0.0107596,-0.27868897,0.23392297,784.10254,NaN,804.65204,786.52014,NaN,0.1207275390625,0.0963134765625,0.99615478515625,-0.5682373046875,30.04180908203125,5.33843994140625,1,1.0,1.0,1.0,1.0,10.00
2024-10-11 20:22:14.944,1.1496203,0.8927188,0.9028799,1.3944569,0.9602635,0.38673487,0.5563581,0.94272673,0.96771836,0.35881335,0.3060023,0.7189672,0.41569507,0.45752317,-0.10559976,0.21724378,0.006233008,-0.0107596,-0.27868897,0.23392297,785.7143,NaN,801.8315,790.9524,NaN,0.1207275390625,0.0963134765625,0.99615478515625,-0.5682373046875,30.04180908203125,5.33843994140625,1,1.0,1.0,1.0,1.0,10.00
2024-10-11 20:22:14.945,1.1496203,0.8927188,0.9028799,1.3944569,0.9602635,0.38673487,0.5563581,0.94272673,0.96771836,0.35881335,0.3060023,0.7189672,0.41569507,0.45752317,-0.10559976,0.21724378,0.006233008,-0.0107596,-0.27868897,0.23392297,783.69965,NaN,802.23444,798.20514,NaN,0.1207275390625,0.0963134765625,0.99615478515625,-0.5682373046875,30.04180908203125,5.33843994140625,1,1.0,1.0,1.0,1.0,10.00
2024-10-11 20:22:14.946,1.1496203,0.8927188,0.9028799,1.3944569,0.9602635,0.38673487,0.5563581,0.94272673,0.96771836,0.35881335,0.3060023,0.7189672,0.41569507,0.45752317,-0.10559976,0.21724378,0.006233008,-0.0107596,-0.27868897,0.23392297,780.4762,NaN,810.293,799.81683,NaN,0.1207275390625,0.0963134765625,0.99615478515625,-0.5682373046875,30.04180908203125,5.33843994140625,1,1.0,1.0,1.0,1.0,10.00
2024-10-11 20:22:14.946,1.1496203,0.8927188,0.9028799,1.3944569,0.9602635,0.38673487,0.5563581,0.94272673,0.96771836,0.35881335,0.3060023,0.7189672,0.41569507,0.45752317,-0.10559976,0.21724378,0.006233008,-0.0107596,-0.27868897,0.23392297,780.07324,NaN,805.8608,788.1319,NaN,0.1207275390625,0.0963134765625,0.99615478515625,-0.5682373046875,30.04180908203125,5.33843994140625,1,1.0,1.0,1.0,1.0,10.00
2024-10-11 20:22:14.947,1.1496203,0.8927188,0.9028799,1.3944569,0.9602635,0.38673487,0.5563581,0.94272673,0.96771836,0.35881335,0.3060023,0.7189672,0.41569507,0.45752317,-0.10559976,0.21724378,0.006233008,-0.0107596,-0.27868897,0.23392297,770.80585,NaN,801.8315,781.28204,NaN,0.1207275390625,0.0963134765625,0.99615478515625,-0.5682373046875,30.04180908203125,5.33843994140625,1,1.0,1.0,1.0,1.0,10.00
2024-10-11 20:22:14.948,1.1496203,1.146858,0.86816305,1.3858031,0.9602635,0.671993,0.52079284,0.9050306,0.96771836,1.4186158,0.30962217,0.72294295,0.41569507,0.53591156,-0.113644265,0.19397612,0.006233008,0.08438541,-0.27772397,0.2237695,772.4176,NaN,799.41394,798.20514,NaN,0.1207275390625,0.0963134765625,0.99615478515625,-0.5682373046875,30.04180908203125,5.33843994140625,1,1.0,1.0,1.0,1.0,10.00
2024-10-11 20:22:14.988,1.1496203,1.146858,0.86816305,1.3858031,0.9602635,0.671993,0.52079284,0.9050306,0.96771836,1.4186158,0.30962217,0.72294295,0.41569507,0.53591156,-0.113644265,0.19397612,0.006233008,0.08438541,-0.27772397,0.2237695,778.86444,796.99634,799.81683,NaN,983.5531,0.0697021484375,0.097412109375,0.99603271484375,-0.919647216796875,31.881103515625,6.81884765625,1,1.0,1.0,1.0,1.0,10.00
2024-10-11 20:22:14.989,1.1496203,1.146858,0.86816305,1.3858031,0.9602635,0.671993,0.52079284,0.9050306,0.96771836,1.4186158,0.30962217,0.72294295,0.41569507,0.53591156,-0.113644265,0.19397612,0.006233008,0.08438541,-0.27772397,0.2237695,774.83514,795.78754,801.4286,NaN,791.75824,0.0697021484375,0.097412109375,0.99603271484375,-0.919647216796875,31.881103515625,6.81884765625,1,1.0,1.0,1.0,1.0,10.00
2024-10-11 20:22:14.990,1.1496203,1.146858,0.86816305,1.3858031,0.9602635,0.671993,0.52079284,0.9050306,0.96771836,1.4186158,0.30962217,0.72294295,0.41569507,0.53591156,-0.113644265,0.19397612,0.006233008,0.08438541,-0.27772397,0.2237695,770.0,794.9817,801.4286,NaN,786.1172,0.0697021484375,0.097412109375,0.99603271484375,-0.919647216796875,31.881103515625,6.81884765625,1,1.0,1.0,1.0,1.0,10.00
2024-10-11 20:22:14.991,1.1496203,1.146858,0.86816305,1.3858031,0.9602635,0.671993,0.52079284,0.9050306,0.96771836,1.4186158,0.30962217,0.72294295,0.41569507,0.53591156,-0.113644265,0.19397612,0.006233008,0.08438541,-0.27772397,0.2237695,776.8498,794.17584,802.6374,NaN,877.5824,0.0697021484375,0.097412109375,0.99603271484375,-0.919647216796875,31.881103515625,6.81884765625,1,1.0,1.0,1.0,1.0,10.00
2024-10-11 20:22:14.991,1.1496203,1.146858,0.86816305,1.3858031,0.9602635,0.671993,0.52079284,0.9050306,0.96771836,1.4186158,0.30962217,0.72294295,0.41569507,0.53591156,-0.113644265,0.19397612,0.006233008,0.08438541,-0.27772397,0.2237695,788.1319,796.1905,800.6227,NaN,863.8828,0.0697021484375,0.097412109375,0.99603271484375,-0.919647216796875,31.881103515625,6.81884765625,1,1.0,1.0,1.0,1.0,10.00
2024-10-11 20:22:14.992,1.1496203,1.146858,0.86816305,1.3858031,0.9602635,0.671993,0.52079284,0.9050306,0.96771836,1.4186158,0.30962217,0.72294295,0.41569507,0.53591156,-0.113644265,0.19397612,0.006233008,0.08438541,-0.27772397,0.2237695,782.0879,790.54944,796.5934,NaN,834.87177,0.0697021484375,0.097412109375,0.99603271484375,-0.919647216796875,31.881103515625,6.81884765625,1,1.0,1.0,1.0,1.0,10.00
2024-10-11 20:22:14.992,1.1496203,1.146858,0.86816305,1.3858031,0.9602635,0.671993,0.52079284,0.9050306,0.96771836,1.4186158,0.30962217,0.72294295,0.41569507,0.53591156,-0.113644265,0.19397612,0.006233008,0.08438541,-0.27772397,0.2237695,775.2381,786.1172,792.1612,NaN,953.3333,0.0697021484375,0.097412109375,0.99603271484375,-0.919647216796875,31.881103515625,6.81884765625,1,1.0,1.0,1.0,1.0,10.00
2024-10-11 20:22:14.993,1.1496203,1.146858,0.86816305,1.3858031,0.9602635,0.671993,0.52079284,0.9050306,0.96771836,1.4186158,0.30962217,0.72294295,0.41569507,0.53591156,-0.113644265,0.19397612,0.006233008,0.08438541,-0.27772397,0.2237695,777.6557,794.17584,790.14655,NaN,960.18317,0.0697021484375,0.097412109375,0.99603271484375,-0.919647216796875,31.881103515625,6.81884765625,1,1.0,1.0,1.0,1.0,10.00
2024-10-11 20:22:14.994,1.1496203,1.146858,0.86816305,1.3858031,0.9602635,0.671993,0.52079284,0.9050306,0.96771836,1.4186158,0.30962217,0.72294295,0.41569507,0.53591156,-0.113644265,0.19397612,0.006233008,0.08438541,-0.27772397,0.2237695,779.67035,794.9817,794.57874,NaN,820.3663,0.0697021484375,0.097412109375,0.99603271484375,-0.919647216796875,31.881103515625,6.81884765625,1,1.0,1.0,1.0,1.0,10.00
2024-10-11 20:22:14.994,1.1496203,1.146858,0.86816305,1.3858031,0.9602635,0.671993,0.52079284,0.9050306,0.96771836,1.4186158,0.30962217,0.72294295,0.41569507,0.53591156,-0.113644265,0.19397612,0.006233008,0.08438541,-0.27772397,0.2237695,783.69965,793.7729,801.4286,NaN,771.6117,0.0697021484375,0.097412109375,0.99603271484375,-0.919647216796875,31.881103515625,6.81884765625,1,1.0,1.0,1.0,1.0,10.00
2024-10-11 20:22:14.995,1.1496203,1.146858,0.86816305,1.3858031,0.9602635,0.671993,0.52079284,0.9050306,0.96771836,1.4186158,0.30962217,0.72294295,0.41569507,0.53591156,-0.113644265,0.19397612,0.006233008,0.08438541,-0.27772397,0.2237695,788.93774,801.02563,800.2198,NaN,888.0586,0.0697021484375,0.097412109375,0.99603271484375,-0.919647216796875,31.881103515625,6.81884765625,1,1.0,1.0,1.0,1.0,10.00
2024-10-11 20:22:14.996,1.1496203,1.146858,0.86816305,1.3858031,0.9602635,0.671993,0.52079284,0.9050306,0.96771836,1.4186158,0.30962217,0.72294295,0.41569507,0.53591156,-0.113644265,0.19397612,0.006233008,0.08438541,-0.27772397,0.2237695,789.7436,805.05493,799.011,NaN,902.1612,0.0697021484375,0.097412109375,0.99603271484375,-0.919647216796875,31.881103515625,6.81884765625,1,1.0,1.0,1.0,1.0,10.00
2024-10-11 20:22:14.997,1.1496203,1.146858,0.86816305,1.3858031,0.9602635,0.671993,0.52079284,0.9050306,0.96771836,1.4186158,0.30962217,0.72294295,0.41569507,0.53591156,-0.113644265,0.19397612,0.006233008,0.08438541,-0.27772397,0.2237695,792.5641,806.26373,797.8022,794.17584,805.8608,0.0697021484375,0.097412109375,0.99603271484375,-0.919647216796875,31.881103515625,6.81884765625,1,1.0,1.0,1.0,1.0,10.00
2024-10-11 20:22:14.997,1.1496203,1.146858,0.86816305,1.3858031,0.9602635,0.671993,0.52079284,0.9050306,0.96771836,1.4186158,0.30962217,0.72294295,0.41569507,0.53591156,-0.113644265,0.19397612,0.006233008,0.08438541,-0.27772397,0.2237695,794.9817,787.326,803.8461,797.8022,848.5714,0.0697021484375,0.097412109375,0.99603271484375,-0.919647216796875,31.881103515625,6.81884765625,1,1.0,1.0,1.0,1.0,10.00
2024-10-11 20:22:14.998,1.1496203,1.146858,0.86816305,1.3858031,0.9602635,0.671993,0.52079284,0.9050306,0.96771836,1.4186158,0.30962217,0.72294295,0.41569507,0.53591156,-0.113644265,0.19397612,0.006233008,0.08438541,-0.27772397,0.2237695,791.3553,779.2674,801.4286,805.4579,894.10254,0.0697021484375,0.097412109375,0.99603271484375,-0.919647216796875,31.881103515625,6.81884765625,1,1.0,1.0,1.0,1.0,10.00
2024-10-11 20:22:14.999,1.1496203,1.146858,0.86816305,1.3858031,0.9602635,0.671993,0.52079284,0.9050306,0.96771836,1.4186158,0.30962217,0.72294295,0.41569507,0.53591156,-0.113644265,0.19397612,0.006233008,0.08438541,-0.27772397,0.2237695,779.67035,813.5165,790.14655,798.60803,770.0,0.0697021484375,0.097412109375,0.99603271484375,-0.919647216796875,31.881103515625,6.81884765625,1,1.0,1.0,1.0,1.0,10.00
2024-10-11 20:22:15.000,1.1496203,1.146858,0.86816305,1.3858031,0.9602635,0.671993,0.52079284,0.9050306,0.96771836,1.4186158,0.30962217,0.72294295,0.41569507,0.53591156,-0.113644265,0.19397612,0.006233008,0.08438541,-0.27772397,0.2237695,777.25275,805.4579,794.17584,789.7436,601.5751,0.0697021484375,0.097412109375,0.99603271484375,-0.919647216796875,31.881103515625,6.81884765625,1,1.0,1.0,1.0,1.0,10.00
2024-10-11 20:22:15.000,1.1496203,1.146858,0.86816305,1.3858031,0.9602635,0.671993,0.52079284,0.9050306,0.96771836,1.4186158,0.30962217,0.72294295,0.41569507,0.53591156,-0.113644265,0.19397612,0.006233008,0.08438541,-0.27772397,0.2237695,786.52014,771.2088,794.57874,798.20514,713.5897,0.0697021484375,0.097412109375,0.99603271484375,-0.919647216796875,31.881103515625,6.81884765625,1,1.0,1.0,1.0,1.0,10.00
2024-10-11 20:22:15.001,1.1496203,1.146858,0.86816305,1.3858031,0.9602635,0.671993,0.52079284,0.9050306,0.96771836,1.4186158,0.30962217,0.72294295,0.41569507,0.53591156,-0.113644265,0.19397612,0.006233008,0.08438541,-0.27772397,0.2237695,781.685,793.7729,793.36993,801.02563,790.14655,0.0697021484375,0.097412109375,0.99603271484375,-0.919647216796875,31.881103515625,6.81884765625,1,1.0,1.0,1.0,1.0,10.00
2024-10-11 20:22:15.002,1.1496203,1.146858,0.86816305,1.3858031,0.9602635,0.671993,0.52079284,0.9050306,0.96771836,1.4186158,0.30962217,0.72294295,0.41569507,0.53591156,-0.113644265,0.19397612,0.006233008,0.08438541,-0.27772397,0.2237695,782.8938,807.0696,802.23444,794.9817,715.2015,0.0697021484375,0.097412109375,0.99603271484375,-0.919647216796875,31.881103515625,6.81884765625,1,1.0,1.0,1.0,1.0,10.00
2024-10-11 20:22:15.002,1.1496203,1.146858,0.86816305,1.3858031,0.9602635,0.671993,0.52079284,0.9050306,0.96771836,1.4186158,0.30962217,0.72294295,0.41569507,0.53591156,-0.113644265,0.19397612,0.006233008,0.08438541,-0.27772397,0.2237695,788.5348,805.05493,809.0842,793.36993,607.619,0.0697021484375,0.097412109375,0.99603271484375,-0.919647216796875,31.881103515625,6.81884765625,1,1.0,1.0,1.0,1.0,10.00
2024-10-11 20:22:15.003,1.1496203,1.146858,0.86816305,1.3858031,0.9602635,0.671993,0.52079284,0.9050306,0.96771836,1.4186158,0.30962217,0.72294295,0.41569507,0.53591156,-0.113644265,0.19397612,0.006233008,0.08438541,-0.27772397,0.2237695,786.52014,813.91943,806.26373,798.60803,718.4249,0.0697021484375,0.097412109375,0.99603271484375,-0.919647216796875,31.881103515625,6.81884765625,1,1.0,1.0,1.0,1.0,10.00
2024-10-11 20:22:15.003,1.1496203,1.146858,0.86816305,1.3858031,0.9602635,0.671993,0.52079284,0.9050306,0.96771836,1.4186158,0.30962217,0.72294295,0.41569507,0.53591156,-0.113644265,0.19397612,0.006233008,0.08438541,-0.27772397,0.2237695,783.69965,811.0989,805.8608,796.5934,871.9414,0.0697021484375,0.097412109375,0.99603271484375,-0.919647216796875,31.881103515625,6.81884765625,1,1.0,1.0,1.0,1.0,10.00
2024-10-11 20:22:15.004,1.1496203,1.146858,0.86816305,1.3858031,0.9602635,0.671993,0.52079284,0.9050306,0.96771836,1.4186158,0.30962217,0.72294295,0.41569507,0.53591156,-0.113644265,0.19397612,0.006233008,0.08438541,-0.27772397,0.2237695,780.4762,807.47253,796.5934,790.14655,700.293,0.0697021484375,0.097412109375,0.99603271484375,-0.919647216796875,31.881103515625,6.81884765625,1,1.0,1.0,1.0,1.0,10.00
2024-10-11 20:22:15.005,1.1496203,1.146858,0.86816305,1.3858031,0.9602635,0.671993,0.52079284,0.9050306,0.96771836,1.4186158,0.30962217,0.72294295,0.41569507,0.53591156,-0.113644265,0.19397612,0.006233008,0.08438541,-0.27772397,0.2237695,781.685,NaN,788.1319,NaN,NaN,-0.00872802734375,0.0943603515625,0.99798583984375,-0.919647216796875,31.881103515625,6.81884765625,1,1.0,1.0,1.0,1.0,10.00
2024-10-11 20:22:15.006,1.1165797,1.1155596,0.8326523,1.3665774,0.95713395,0.6533078,0.48978326,0.87087387,0.8953763,1.4186158,0.32582453,0.7888685,0.41861957,0.5690601,-0.10520181,0.32470816,-0.106115125,0.15950902,-0.2766121,0.29892033,792.5641,NaN,792.1612,NaN,NaN,-0.00872802734375,0.0943603515625,0.99798583984375,-0.919647216796875,31.881103515625,6.81884765625,1,1.0,1.0,1.0,1.0,10.00
2024-10-11 20:22:15.012,1.1165797,1.1155596,0.8326523,1.3665774,0.95713395,0.6533078,0.48978326,0.87087387,0.8953763,1.4186158,0.32582453,0.7888685,0.41861957,0.5690601,-0.10520181,0.32470816,-0.106115125,0.15950902,-0.2766121,0.29892033,805.4579,NaN,796.1905,NaN,NaN,-0.00872802734375,0.0943603515625,0.99798583984375,-0.919647216796875,31.881103515625,6.81884765625,1,1.0,1.0,1.0,1.0,10.00
2024-10-11 20:22:15.013,1.1165797,1.1155596,0.8326523,1.3665774,0.95713395,0.6533078,0.48978326,0.87087387,0.8953763,1.4186158,0.32582453,0.7888685,0.41861957,0.5690601,-0.10520181,0.32470816,-0.106115125,0.15950902,-0.2766121,0.29892033,791.3553,NaN,808.68134,NaN,NaN,-0.00872802734375,0.0943603515625,0.99798583984375,-0.919647216796875,31.881103515625,6.81884765625,1,1.0,1.0,1.0,1.0,10.00
2024-10-11 20:22:15.014,1.1165797,1.1155596,0.8326523,1.3665774,0.95713395,0.6533078,0.48978326,0.87087387,0.8953763,1.4186158,0.32582453,0.7888685,0.41861957,0.5690601,-0.10520181,0.32470816,-0.106115125,0.15950902,-0.2766121,0.29892033,765.9707,NaN,794.57874,NaN,NaN,-0.00872802734375,0.0943603515625,0.99798583984375,-0.919647216796875,31.881103515625,6.81884765625,1,1.0,1.0,1.0,1.0,10.00
2024-10-11 20:22:15.015,1.1165797,1.1155596,0.8326523,1.3665774,0.95713395,0.6533078,0.48978326,0.87087387,0.8953763,1.4186158,0.32582453,0.7888685,0.41861957,0.5690601,-0.10520181,0.32470816,-0.106115125,0.15950902,-0.2766121,0.29892033,770.80585,NaN,772.8205,NaN,NaN,-0.00872802734375,0.0943603515625,0.99798583984375,-0.919647216796875,31.881103515625,6.81884765625,1,1.0,1.0,1.0,1.0,10.00
2024-10-11 20:22:15.015,1.1165797,1.1155596,0.8326523,1.3665774,0.95713395,0.6533078,0.48978326,0.87087387,0.8953763,1.4186158,0.32582453,0.7888685,0.41861957,0.5690601,-0.10520181,0.32470816,-0.106115125,0.15950902,-0.2766121,0.29892033,787.326,NaN,784.90845,NaN,NaN,-0.00872802734375,0.0943603515625,0.99798583984375,-0.919647216796875,31.881103515625,6.81884765625,1,1.0,1.0,1.0,1.0,10.00
2024-10-11 20:22:15.016,1.1165797,1.1155596,0.8326523,1.3665774,0.95713395,0.6533078,0.48978326,0.87087387,0.8953763,1.4186158,0.32582453,0.7888685,0.41861957,0.5690601,-0.10520181,0.32470816,-0.106115125,0.15950902,-0.2766121,0.29892033,776.8498,NaN,782.8938,NaN,NaN,-0.00872802734375,0.0943603515625,0.99798583984375,-0.919647216796875,31.881103515625,6.81884765625,1,1.0,1.0,1.0,1.0,10.00
2024-10-11 20:22:15.016,1.1165797,1.1155596,0.8326523,1.3665774,0.95713395,0.6533078,0.48978326,0.87087387,0.8953763,1.4186158,0.32582453,0.7888685,0.41861957,0.5690601,-0.10520181,0.32470816,-0.106115125,0.15950902,-0.2766121,0.29892033,766.77655,NaN,782.49084,NaN,NaN,-0.00872802734375,0.0943603515625,0.99798583984375,-0.919647216796875,31.881103515625,6.81884765625,1,1.0,1.0,1.0,1.0,10.00
2024-10-11 20:22:15.017,1.1165797,1.1155596,0.8326523,1.3665774,0.95713395,0.6533078,0.48978326,0.87087387,0.8953763,1.4186158,0.32582453,0.7888685,0.41861957,0.5690601,-0.10520181,0.32470816,-0.106115125,0.15950902,-0.2766121,0.29892033,761.53845,NaN,801.8315,NaN,NaN,-0.00872802734375,0.0943603515625,0.99798583984375,-0.919647216796875,31.881103515625,6.81884765625,1,1.0,1.0,1.0,1.0,10.00
2024-10-11 20:22:15.018,1.1165797,1.1155596,0.8326523,1.3665774,0.95713395,0.6533078,0.48978326,0.87087387,0.8953763,1.4186158,0.32582453,0.7888685,0.41861957,0.5690601,-0.10520181,0.32470816,-0.106115125,0.15950902,-0.2766121,0.29892033,761.13556,NaN,820.3663,NaN,NaN,-0.00872802734375,0.0943603515625,0.99798583984375,-0.919647216796875,31.881103515625,6.81884765625,1,1.0,1.0,1.0,1.0,10.00
2024-10-11 20:22:15.019,1.1165797,1.1155596,0.8326523,1.3665774,0.95713395,0.6533078,0.48978326,0.87087387,0.8953763,1.4186158,0.32582453,0.7888685,0.41861957,0.5690601,-0.10520181,0.32470816,-0.106115125,0.15950902,-0.2766121,0.29892033,763.1502,NaN,834.87177,NaN,NaN,-0.00872802734375,0.0943603515625,0.99798583984375,-0.919647216796875,31.881103515625,6.81884765625,1,1.0,1.0,1.0,1.0,10.00
2024-10-11 20:22:15.019,1.1165797,1.1155596,0.8326523,1.3665774,0.95713395,0.6533078,0.48978326,0.87087387,0.8953763,1.4186158,0.32582453,0.7888685,0.41861957,0.5690601,-0.10520181,0.32470816,-0.106115125,0.15950902,-0.2766121,0.29892033,772.01465,801.02563,828.4249,780.87915,718.4249,-0.00872802734375,0.0943603515625,0.99798583984375,-0.919647216796875,31.881103515625,6.81884765625,1,1.0,1.0,1.0,1.0,10.00
2024-10-11 20:22:15.020,1.1165797,1.1155596,0.8326523,1.3665774,0.95713395,0.6533078,0.48978326,0.87087387,0.8953763,1.4186158,0.32582453,0.7888685,0.41861957,0.5690601,-0.10520181,0.32470816,-0.106115125,0.15950902,-0.2766121,0.29892033,777.6557,803.44324,818.3516,780.87915,792.1612,-0.00872802734375,0.0943603515625,0.99798583984375,-0.919647216796875,31.881103515625,6.81884765625,1,1.0,1.0,1.0,1.0,10.00
2024-10-11 20:22:15.021,1.1165797,1.1155596,0.8326523,1.3665774,0.95713395,0.6533078,0.48978326,0.87087387,0.8953763,1.4186158,0.32582453,0.7888685,0.41861957,0.5690601,-0.10520181,0.32470816,-0.106115125,0.15950902,-0.2766121,0.29892033,780.4762,798.20514,812.71063,785.7143,940.84247,-0.00872802734375,0.0943603515625,0.99798583984375,-0.919647216796875,31.881103515625,6.81884765625,1,1.0,1.0,1.0,1.0,10.00
2024-10-11 20:22:15.021,1.1165797,1.1155596,0.8326523,1.3665774,0.95713395,0.6533078,0.48978326,0.87087387,0.8953763,1.4186158,0.32582453,0.7888685,0.41861957,0.5690601,-0.10520181,0.32470816,-0.106115125,0.15950902,-0.2766121,0.29892033,774.83514,794.57874,801.4286,783.69965,877.1795,-0.00872802734375,0.0943603515625,0.99798583984375,-0.919647216796875,31.881103515625,6.81884765625,1,1.0,1.0,1.0,1.0,10.00
2024-10-11 20:22:15.022,1.1165797,1.1155596,0.8326523,1.3665774,0.95713395,0.6533078,0.48978326,0.87087387,0.8953763,1.4186158,0.32582453,0.7888685,0.41861957,0.5690601,-0.10520181,0.32470816,-0.106115125,0.15950902,-0.2766121,0.29892033,759.12085,796.5934,789.7436,781.28204,698.2784,-0.00872802734375,0.0943603515625,0.99798583984375,-0.919647216796875,31.881103515625,6.81884765625,1,1.0,1.0,1.0,1.0,10.00
2024-10-11 20:22:15.023,1.1165797,1.1155596,0.8326523,1.3665774,0.95713395,0.6533078,0.48978326,0.87087387,0.8953763,1.4186158,0.32582453,0.7888685,0.41861957,0.5690601,-0.10520181,0.32470816,-0.106115125,0.15950902,-0.2766121,0.29892033,758.71796,797.3993,802.23444,781.685,740.58606,-0.00872802734375,0.0943603515625,0.99798583984375,-0.919647216796875,31.881103515625,6.81884765625,1,1.0,1.0,1.0,1.0,10.00
2024-10-11 20:22:15.023,1.1165797,1.1155596,0.8326523,1.3665774,0.95713395,0.6533078,0.48978326,0.87087387,0.8953763,1.4186158,0.32582453,0.7888685,0.41861957,0.5690601,-0.10520181,0.32470816,-0.106115125,0.15950902,-0.2766121,0.29892033,762.3443,796.99634,811.0989,784.90845,887.6557,-0.00872802734375,0.0943603515625,0.99798583984375,-0.919647216796875,31.881103515625,6.81884765625,1,1.0,1.0,1.0,1.0,10.00
2024-10-11 20:22:15.024,1.1165797,1.1155596,0.8326523,1.3665774,0.95713395,0.6533078,0.48978326,0.87087387,0.8953763,1.4186158,0.32582453,0.7888685,0.41861957,0.5690601,-0.10520181,0.32470816,-0.106115125,0.15950902,-0.2766121,0.29892033,765.9707,792.96704,803.8461,787.72894,760.32965,-0.00872802734375,0.0943603515625,0.99798583984375,-0.919647216796875,31.881103515625,6.81884765625,1,1.0,1.0,1.0,1.0,10.00
2024-10-11 20:22:15.025,1.1165797,1.1155596,0.8326523,1.3665774,0.95713395,0.6533078,0.48978326,0.87087387,0.8953763,1.4186158,0.32582453,0.7888685,0.41861957,0.5690601,-0.10520181,0.32470816,-0.106115125,0.15950902,-0.2766121,0.29892033,771.6117,797.3993,808.68134,784.90845,708.7546,-0.00872802734375,0.0943603515625,0.99798583984375,-0.919647216796875,31.881103515625,6.81884765625,1,1.0,1.0,1.0,1.0,10.00
2024-10-11 20:22:15.025,1.1165797,1.1155596,0.8326523,1.3665774,0.95713395,0.6533078,0.48978326,0.87087387,0.8953763,1.4186158,0.32582453,0.7888685,0.41861957,0.5690601,-0.10520181,0.32470816,-0.106115125,0.15950902,-0.2766121,0.29892033,771.2088,799.81683,807.0696,783.69965,799.81683,-0.00872802734375,0.0943603515625,0.99798583984375,-0.919647216796875,31.881103515625,6.81884765625,1,1.0,1.0,1.0,1.0,10.00
2024-10-11 20:22:15.026,1.1165797,1.1155596,0.8326523,1.3665774,0.95713395,0.6533078,0.48978326,0.87087387,0.8953763,1.4186158,0.32582453,0.7888685,0.41861957,0.5690601,-0.10520181,0.32470816,-0.106115125,0.15950902,-0.2766121,0.29892033,769.59705,797.3993,796.5934,783.69965,758.315,-0.00872802734375,0.0943603515625,0.99798583984375,-0.919647216796875,31.881103515625,6.81884765625,1,1.0,1.0,1.0,1.0,10.00
2024-10-11 20:22:15.027,1.1165797,1.1155596,0.8326523,1.3665774,0.95713395,0.6533078,0.48978326,0.87087387,0.8953763,1.4186158,0.32582453,0.7888685,0.41861957,0.5690601,-0.10520181,0.32470816,-0.106115125,0.15950902,-0.2766121,0.29892033,773.6264,806.26373,790.14655,787.72894,643.47986,-0.00872802734375,0.0943603515625,0.99798583984375,-0.919647216796875,31.881103515625,6.81884765625,1,1.0,1.0,1.0,1.0,10.00
2024-10-11 20:22:15.028,1.1165797,1.1155596,0.8326523,1.3665774,0.95713395,0.6533078,0.48978326,0.87087387,0.8953763,1.4186158,0.32582453,0.7888685,0.41861957,0.5690601,-0.10520181,0.32470816,-0.106115125,0.15950902,-0.2766121,0.29892033,778.0586,NaN,794.57874,793.7729,NaN,-0.04656982421875,0.0830078125,1.00244140625,-0.919647216796875,31.881103515625,6.81884765625,1,1.0,1.0,1.0,1.0,10.00
2024-10-11 20:22:15.028,1.1165797,1.1155596,0.8326523,1.3665774,0.95713395,0.6533078,0.48978326,0.87087387,0.8953763,1.4186158,0.32582453,0.7888685,0.41861957,0.5690601,-0.10520181,0.32470816,-0.106115125,0.15950902,-0.2766121,0.29892033,774.43225,NaN,805.8608,789.7436,NaN,-0.04656982421875,0.0830078125,1.00244140625,-0.919647216796875,31.881103515625,6.81884765625,1,1.0,1.0,1.0,1.0,10.00
2024-10-11 20:22:15.029,1.1165797,1.1155596,0.8326523,1.3665774,0.95713395,0.6533078,0.48978326,0.87087387,0.8953763,1.4186158,0.32582453,0.7888685,0.41861957,0.5690601,-0.10520181,0.32470816,-0.106115125,0.15950902,-0.2766121,0.29892033,772.4176,NaN,814.3223,782.8938,NaN,-0.04656982421875,0.0830078125,1.00244140625,-0.919647216796875,31.881103515625,6.81884765625,1,1.0,1.0,1.0,1.0,10.00
2024-10-11 20:22:15.030,1.1165797,1.0893626,0.8004038,1.3665774,0.95713395,0.65618074,0.4650418,0.87087387,0.8953763,1.4218303,0.34268123,0.7888685,0.41861957,0.64596677,-0.08088104,0.32470816,-0.106115125,0.25521842,-0.2734537,0.29892033,781.685,NaN,807.0696,782.0879,NaN,-0.04656982421875,0.0830078125,1.00244140625,-0.919647216796875,31.881103515625,6.81884765625,1,1.0,1.0,1.0,1.0,10.00
