TimeStamp,Delta_TP9,Delta_AF7,Delta_AF8,Delta_TP10,Theta_TP9,Theta_AF7,Theta_AF8,Theta_TP10,Alpha_TP9,Alpha_AF7,Alpha_AF8,Alpha_TP10,Beta_TP9,Beta_AF7,Beta_AF8,Beta_TP10,Gamma_TP9,Gamma_AF7,Gamma_AF8,Gamma_TP10,RAW_TP9,RAW_AF7,RAW_AF8,RAW_TP10,AUX_RIGHT,Accelerometer_X,Accelerometer_Y,Accelerometer_Z,Gyro_X,Gyro_Y,Gyro_Z,HeadBandOn,HSI_TP9,HSI_AF7,HSI_AF8,HSI_TP10,Battery,Elements
2024-10-11 20:08:47.479,0.7297978,0.07851263,0.35548523,0.8392991,0.22468379,-0.17803197,0.27772394,0.34885564,0.8204212,0.30885303,0.28013474,0.46627945,0.26741147,-0.19170392,-0.19248553,0.17167175,-0.15476513,-0.6124947,-0.5158397,0.048340246,803.8461,796.1905,799.81683,812.71063,576.1905,-0.228515625,0.083251953125,0.980224609375,0.01495361328125,-1.15142822265625,-0.007476806640625,1,1.0,1.0,1.0,1.0,15.00
2024-10-11 20:08:47.480,0.7297978,0.07851263,0.35548523,0.8392991,0.22468379,-0.17803197,0.27772394,0.34885564,0.8204212,0.30885303,0.28013474,0.46627945,0.26741147,-0.19170392,-0.19248553,0.17167175,-0.15476513,-0.6124947,-0.5158397,0.048340246,799.81683,797.8022,799.41394,814.3223,657.1795,-0.228515625,0.083251953125,0.980224609375,0.01495361328125,-1.15142822265625,-0.007476806640625,1,1.0,1.0,1.0,1.0,15.00
2024-10-11 20:08:47.482,0.7297978,0.07851263,0.35548523,0.8392991,0.22468379,-0.17803197,0.27772394,0.34885564,0.8204212,0.30885303,0.28013474,0.46627945,0.26741147,-0.19170392,-0.19248553,0.17167175,-0.15476513,-0.6124947,-0.5158397,0.048340246,804.65204,801.02563,803.0403,811.9048,740.989,-0.228515625,0.083251953125,0.980224609375,0.01495361328125,-1.15142822265625,-0.007476806640625,1,1.0,1.0,1.0,1.0,15.00
2024-10-11 20:08:47.483,0.7297978,0.07851263,0.35548523,0.8392991,0.22468379,-0.17803197,0.27772394,0.34885564,0.8204212,0.30885303,0.28013474,0.46627945,0.26741147,-0.19170392,-0.19248553,0.17167175,-0.15476513,-0.6124947,-0.5158397,0.048340246,811.9048,804.2491,805.05493,811.9048,797.3993,-0.228515625,0.083251953125,0.980224609375,0.01495361328125,-1.15142822265625,-0.007476806640625,1,1.0,1.0,1.0,1.0,15.00
2024-10-11 20:08:47.484,0.7297978,0.07851263,0.35548523,0.8392991,0.22468379,-0.17803197,0.27772394,0.34885564,0.8204212,0.30885303,0.28013474,0.46627945,0.26741147,-0.19170392,-0.19248553,0.17167175,-0.15476513,-0.6124947,-0.5158397,0.048340246,810.696,803.0403,807.47253,813.91943,588.68134,-0.228515625,0.083251953125,0.980224609375,0.01495361328125,-1.15142822265625,-0.007476806640625,1,1.0,1.0,1.0,1.0,15.00
2024-10-11 20:08:47.485,0.7297978,0.07851263,0.35548523,0.8392991,0.22468379,-0.17803197,0.27772394,0.34885564,0.8204212,0.30885303,0.28013474,0.46627945,0.26741147,-0.19170392,-0.19248553,0.17167175,-0.15476513,-0.6124947,-0.5158397,0.048340246,811.50183,799.41394,806.26373,813.91943,670.4762,-0.228515625,0.083251953125,0.980224609375,0.01495361328125,-1.15142822265625,-0.007476806640625,1,1.0,1.0,1.0,1.0,15.00
2024-10-11 20:08:47.485,0.7297978,0.07851263,0.35548523,0.8392991,0.22468379,-0.17803197,0.27772394,0.34885564,0.8204212,0.30885303,0.28013474,0.46627945,0.26741147,-0.19170392,-0.19248553,0.17167175,-0.15476513,-0.6124947,-0.5158397,0.048340246,815.9341,797.3993,800.6227,813.91943,849.7802,-0.228515625,0.083251953125,0.980224609375,0.01495361328125,-1.15142822265625,-0.007476806640625,1,1.0,1.0,1.0,1.0,15.00
2024-10-11 20:08:47.486,0.7297978,0.07851263,0.35548523,0.8392991,0.22468379,-0.17803197,0.27772394,0.34885564,0.8204212,0.30885303,0.28013474,0.46627945,0.26741147,-0.19170392,-0.19248553,0.17167175,-0.15476513,-0.6124947,-0.5158397,0.048340246,823.1868,802.23444,801.4286,823.5897,648.71796,-0.228515625,0.083251953125,0.980224609375,0.01495361328125,-1.15142822265625,-0.007476806640625,1,1.0,1.0,1.0,1.0,15.00
2024-10-11 20:08:47.486,0.7297978,0.07851263,0.35548523,0.8392991,0.22468379,-0.17803197,0.27772394,0.34885564,0.8204212,0.30885303,0.28013474,0.46627945,0.26741147,-0.19170392,-0.19248553,0.17167175,-0.15476513,-0.6124947,-0.5158397,0.048340246,817.5458,801.8315,804.2491,816.337,441.2088,-0.228515625,0.083251953125,0.980224609375,0.01495361328125,-1.15142822265625,-0.007476806640625,1,1.0,1.0,1.0,1.0,15.00
2024-10-11 20:08:47.487,0.7297978,0.07851263,0.35548523,0.8392991,0.22468379,-0.17803197,0.27772394,0.34885564,0.8204212,0.30885303,0.28013474,0.46627945,0.26741147,-0.19170392,-0.19248553,0.17167175,-0.15476513,-0.6124947,-0.5158397,0.048340246,807.0696,799.81683,805.05493,814.7253,635.42126,-0.228515625,0.083251953125,0.980224609375,0.01495361328125,-1.15142822265625,-0.007476806640625,1,1.0,1.0,1.0,1.0,15.00
2024-10-11 20:08:47.487,0.7297978,0.07851263,0.35548523,0.8392991,0.22468379,-0.17803197,0.27772394,0.34885564,0.8204212,0.30885303,0.28013474,0.46627945,0.26741147,-0.19170392,-0.19248553,0.17167175,-0.15476513,-0.6124947,-0.5158397,0.048340246,809.4872,800.6227,800.2198,823.9927,956.9597,-0.228515625,0.083251953125,0.980224609375,0.01495361328125,-1.15142822265625,-0.007476806640625,1,1.0,1.0,1.0,1.0,15.00
2024-10-11 20:08:47.488,0.7297978,0.07851263,0.35548523,0.8392991,0.22468379,-0.17803197,0.27772394,0.34885564,0.8204212,0.30885303,0.28013474,0.46627945,0.26741147,-0.19170392,-0.19248553,0.17167175,-0.15476513,-0.6124947,-0.5158397,0.048340246,803.0403,798.20514,798.60803,809.89014,717.619,-0.228515625,0.083251953125,0.980224609375,0.01495361328125,-1.15142822265625,-0.007476806640625,1,1.0,1.0,1.0,1.0,15.00
2024-10-11 20:08:47.489,0.7297978,0.07851263,0.35548523,0.8392991,0.22468379,-0.17803197,0.27772394,0.34885564,0.8204212,0.30885303,0.28013474,0.46627945,0.26741147,-0.19170392,-0.19248553,0.17167175,-0.15476513,-0.6124947,-0.5158397,0.048340246,801.02563,798.60803,802.23444,799.41394,598.3516,-0.2301025390625,0.0828857421875,0.9827880859375,-0.037384033203125,-1.33087158203125,-0.5084228515625,1,1.0,1.0,1.0,1.0,15.00
2024-10-11 20:08:47.489,0.7297978,0.07851263,0.35548523,0.8392991,0.22468379,-0.17803197,0.27772394,0.34885564,0.8204212,0.30885303,0.28013474,0.46627945,0.26741147,-0.19170392,-0.19248553,0.17167175,-0.15476513,-0.6124947,-0.5158397,0.048340246,801.02563,793.36993,803.44324,799.41394,747.4359,-0.2301025390625,0.0828857421875,0.9827880859375,-0.037384033203125,-1.33087158203125,-0.5084228515625,1,1.0,1.0,1.0,1.0,15.00
2024-10-11 20:08:47.490,0.7297978,0.07851263,0.35548523,0.8392991,0.22468379,-0.17803197,0.27772394,0.34885564,0.8204212,0.30885303,0.28013474,0.46627945,0.26741147,-0.19170392,-0.19248553,0.17167175,-0.15476513,-0.6124947,-0.5158397,0.048340246,801.8315,795.38464,803.8461,804.65204,813.1135,-0.2301025390625,0.0828857421875,0.9827880859375,-0.037384033203125,-1.33087158203125,-0.5084228515625,1,1.0,1.0,1.0,1.0,15.00
2024-10-11 20:08:47.490,0.7297978,0.07851263,0.35548523,0.8392991,0.22468379,-0.17803197,0.27772394,0.34885564,0.8204212,0.30885303,0.28013474,0.46627945,0.26741147,-0.19170392,-0.19248553,0.17167175,-0.15476513,-0.6124947,-0.5158397,0.048340246,801.4286,803.0403,804.65204,807.47253,775.2381,-0.2301025390625,0.0828857421875,0.9827880859375,-0.037384033203125,-1.33087158203125,-0.5084228515625,1,1.0,1.0,1.0,1.0,15.00
2024-10-11 20:08:47.491,0.7297978,0.07851263,0.35548523,0.8392991,0.22468379,-0.17803197,0.27772394,0.34885564,0.8204212,0.30885303,0.28013474,0.46627945,0.26741147,-0.19170392,-0.19248553,0.17167175,-0.15476513,-0.6124947,-0.5158397,0.048340246,794.57874,801.4286,801.02563,801.8315,757.50916,-0.2301025390625,0.0828857421875,0.9827880859375,-0.037384033203125,-1.33087158203125,-0.5084228515625,1,1.0,1.0,1.0,1.0,15.00
2024-10-11 20:08:47.491,0.63134825,0.10312736,0.3702317,0.874454,0.2174736,-0.19096911,0.30048725,0.29697198,0.81989217,0.2912881,0.2806111,0.41112146,0.21881919,-0.1797375,-0.18976827,0.11306113,-0.15234378,-0.62132996,-0.5131033,0.08762027,791.3553,799.81683,800.6227,800.6227,877.1795,-0.2301025390625,0.0828857421875,0.9827880859375,-0.037384033203125,-1.33087158203125,-0.5084228515625,1,1.0,1.0,1.0,1.0,15.00
2024-10-11 20:08:47.496,0.63134825,0.10312736,0.3702317,0.874454,0.2174736,-0.19096911,0.30048725,0.29697198,0.81989217,0.2912881,0.2806111,0.41112146,0.21881919,-0.1797375,-0.18976827,0.11306113,-0.15234378,-0.62132996,-0.5131033,0.08762027,792.5641,801.02563,800.2198,797.3993,911.02563,-0.2301025390625,0.0828857421875,0.9827880859375,-0.037384033203125,-1.33087158203125,-0.5084228515625,1,1.0,1.0,1.0,1.0,15.00
2024-10-11 20:08:47.497,0.63134825,0.10312736,0.3702317,0.874454,0.2174736,-0.19096911,0.30048725,0.29697198,0.81989217,0.2912881,0.2806111,0.41112146,0.21881919,-0.1797375,-0.18976827,0.11306113,-0.15234378,-0.62132996,-0.5131033,0.08762027,798.20514,803.0403,800.6227,802.6374,818.7546,-0.2301025390625,0.0828857421875,0.9827880859375,-0.037384033203125,-1.33087158203125,-0.5084228515625,1,1.0,1.0,1.0,1.0,15.00
2024-10-11 20:08:47.498,0.63134825,0.10312736,0.3702317,0.874454,0.2174736,-0.19096911,0.30048725,0.29697198,0.81989217,0.2912881,0.2806111,0.41112146,0.21881919,-0.1797375,-0.18976827,0.11306113,-0.15234378,-0.62132996,-0.5131033,0.08762027,799.81683,802.23444,805.05493,807.0696,756.30035,-0.2301025390625,0.0828857421875,0.9827880859375,-0.037384033203125,-1.33087158203125,-0.5084228515625,1,1.0,1.0,1.0,1.0,15.00
2024-10-11 20:08:47.498,0.63134825,0.10312736,0.3702317,0.874454,0.2174736,-0.19096911,0.30048725,0.29697198,0.81989217,0.2912881,0.2806111,0.41112146,0.21881919,-0.1797375,-0.18976827,0.11306113,-0.15234378,-0.62132996,-0.5131033,0.08762027,797.3993,799.81683,806.26373,806.26373,812.71063,-0.2301025390625,0.0828857421875,0.9827880859375,-0.037384033203125,-1.33087158203125,-0.5084228515625,1,1.0,1.0,1.0,1.0,15.00
2024-10-11 20:08:47.499,0.63134825,0.10312736,0.3702317,0.874454,0.2174736,-0.19096911,0.30048725,0.29697198,0.81989217,0.2912881,0.2806111,0.41112146,0.21881919,-0.1797375,-0.18976827,0.11306113,-0.15234378,-0.62132996,-0.5131033,0.08762027,801.8315,803.44324,804.2491,815.12823,805.8608,-0.2301025390625,0.0828857421875,0.9827880859375,-0.037384033203125,-1.33087158203125,-0.5084228515625,1,1.0,1.0,1.0,1.0,15.00
2024-10-11 20:08:47.499,0.63134825,0.10312736,0.3702317,0.874454,0.2174736,-0.19096911,0.30048725,0.29697198,0.81989217,0.2912881,0.2806111,0.41112146,0.21881919,-0.1797375,-0.18976827,0.11306113,-0.15234378,-0.62132996,-0.5131033,0.08762027,803.44324,803.44324,803.8461,817.5458,732.52747,-0.2301025390625,0.0828857421875,0.9827880859375,-0.037384033203125,-1.33087158203125,-0.5084228515625,1,1.0,1.0,1.0,1.0,15.00
2024-10-11 20:08:47.522,0.63134825,0.10312736,0.3702317,0.874454,0.2174736,-0.19096911,0.30048725,0.29697198,0.81989217,0.2912881,0.2806111,0.41112146,0.21881919,-0.1797375,-0.18976827,0.11306113,-0.15234378,-0.62132996,-0.5131033,0.08762027,810.696,802.6374,807.0696,818.3516,769.19415,-0.2222900390625,0.08544921875,0.97900390625,0.179443359375,-1.54022216796875,-0.037384033203125,1,1.0,1.0,1.0,1.0,15.00
2024-10-11 20:08:47.523,0.63134825,0.10312736,0.3702317,0.874454,0.2174736,-0.19096911,0.30048725,0.29697198,0.81989217,0.2912881,0.2806111,0.41112146,0.21881919,-0.1797375,-0.18976827,0.11306113,-0.15234378,-0.62132996,-0.5131033,0.08762027,810.293,802.6374,806.6667,821.978,926.337,-0.2222900390625,0.08544921875,0.97900390625,0.179443359375,-1.54022216796875,-0.037384033203125,1,1.0,1.0,1.0,1.0,15.00
2024-10-11 20:08:47.523,0.63134825,0.10312736,0.3702317,0.874454,0.2174736,-0.19096911,0.30048725,0.29697198,0.81989217,0.2912881,0.2806111,0.41112146,0.21881919,-0.1797375,-0.18976827,0.11306113,-0.15234378,-0.62132996,-0.5131033,0.08762027,799.41394,801.8315,801.4286,823.1868,815.5311,-0.2222900390625,0.08544921875,0.97900390625,0.179443359375,-1.54022216796875,-0.037384033203125,1,1.0,1.0,1.0,1.0,15.00
2024-10-11 20:08:47.524,0.63134825,0.10312736,0.3702317,0.874454,0.2174736,-0.19096911,0.30048725,0.29697198,0.81989217,0.2912881,0.2806111,0.41112146,0.21881919,-0.1797375,-0.18976827,0.11306113,-0.15234378,-0.62132996,-0.5131033,0.08762027,794.57874,799.81683,801.8315,824.3956,680.54944,-0.2222900390625,0.08544921875,0.97900390625,0.179443359375,-1.54022216796875,-0.037384033203125,1,1.0,1.0,1.0,1.0,15.00
2024-10-11 20:08:47.524,0.63134825,0.10312736,0.3702317,0.874454,0.2174736,-0.19096911,0.30048725,0.29697198,0.81989217,0.2912881,0.2806111,0.41112146,0.21881919,-0.1797375,-0.18976827,0.11306113,-0.15234378,-0.62132996,-0.5131033,0.08762027,793.7729,799.81683,801.4286,820.3663,855.82416,-0.2222900390625,0.08544921875,0.97900390625,0.179443359375,-1.54022216796875,-0.037384033203125,1,1.0,1.0,1.0,1.0,15.00
2024-10-11 20:08:47.525,0.63134825,0.10312736,0.3702317,0.874454,0.2174736,-0.19096911,0.30048725,0.29697198,0.81989217,0.2912881,0.2806111,0.41112146,0.21881919,-0.1797375,-0.18976827,0.11306113,-0.15234378,-0.62132996,-0.5131033,0.08762027,793.7729,796.5934,801.02563,815.5311,1174.5421,-0.2222900390625,0.08544921875,0.97900390625,0.179443359375,-1.54022216796875,-0.037384033203125,1,1.0,1.0,1.0,1.0,15.00
2024-10-11 20:08:47.525,0.63134825,0.10312736,0.3702317,0.874454,0.2174736,-0.19096911,0.30048725,0.29697198,0.81989217,0.2912881,0.2806111,0.41112146,0.21881919,-0.1797375,-0.18976827,0.11306113,-0.15234378,-0.62132996,-0.5131033,0.08762027,794.17584,800.2198,802.6374,816.7399,942.0513,-0.2222900390625,0.08544921875,0.97900390625,0.179443359375,-1.54022216796875,-0.037384033203125,1,1.0,1.0,1.0,1.0,15.00
2024-10-11 20:08:47.526,0.63134825,0.10312736,0.3702317,0.874454,0.2174736,-0.19096911,0.30048725,0.29697198,0.81989217,0.2912881,0.2806111,0.41112146,0.21881919,-0.1797375,-0.18976827,0.11306113,-0.15234378,-0.62132996,-0.5131033,0.08762027,796.5934,806.26373,801.4286,813.91943,683.7729,-0.2222900390625,0.08544921875,0.97900390625,0.179443359375,-1.54022216796875,-0.037384033203125,1,1.0,1.0,1.0,1.0,15.00
2024-10-11 20:08:47.526,0.63134825,0.10312736,0.3702317,0.874454,0.2174736,-0.19096911,0.30048725,0.29697198,0.81989217,0.2912881,0.2806111,0.41112146,0.21881919,-0.1797375,-0.18976827,0.11306113,-0.15234378,-0.62132996,-0.5131033,0.08762027,796.99634,802.6374,800.2198,814.3223,931.5751,-0.2222900390625,0.08544921875,0.97900390625,0.179443359375,-1.54022216796875,-0.037384033203125,1,1.0,1.0,1.0,1.0,15.00
2024-10-11 20:08:47.527,0.63134825,0.10312736,0.3702317,0.874454,0.2174736,-0.19096911,0.30048725,0.29697198,0.81989217,0.2912881,0.2806111,0.41112146,0.21881919,-0.1797375,-0.18976827,0.11306113,-0.15234378,-0.62132996,-0.5131033,0.08762027,801.02563,799.011,801.4286,822.7839,1317.1794,-0.2222900390625,0.08544921875,0.97900390625,0.179443359375,-1.54022216796875,-0.037384033203125,1,1.0,1.0,1.0,1.0,15.00
2024-10-11 20:08:47.528,0.63134825,0.10312736,0.3702317,0.874454,0.2174736,-0.19096911,0.30048725,0.29697198,0.81989217,0.2912881,0.2806111,0.41112146,0.21881919,-0.1797375,-0.18976827,0.11306113,-0.15234378,-0.62132996,-0.5131033,0.08762027,806.26373,801.02563,802.23444,818.7546,1053.2601,-0.2222900390625,0.08544921875,0.97900390625,0.179443359375,-1.54022216796875,-0.037384033203125,1,1.0,1.0,1.0,1.0,15.00
2024-10-11 20:08:47.528,0.63134825,0.10312736,0.3702317,0.874454,0.2174736,-0.19096911,0.30048725,0.29697198,0.81989217,0.2912881,0.2806111,0.41112146,0.21881919,-0.1797375,-0.18976827,0.11306113,-0.15234378,-0.62132996,-0.5131033,0.08762027,805.05493,800.6227,800.6227,815.12823,822.381,-0.2222900390625,0.08544921875,0.97900390625,0.179443359375,-1.54022216796875,-0.037384033203125,1,1.0,1.0,1.0,1.0,15.00
2024-10-11 20:08:47.550,0.63134825,0.10312736,0.3702317,0.874454,0.2174736,-0.19096911,0.30048725,0.29697198,0.81989217,0.2912881,0.2806111,0.41112146,0.21881919,-0.1797375,-0.18976827,0.11306113,-0.15234378,-0.62132996,-0.5131033,0.08762027,809.4872,802.23444,799.41394,814.7253,909.011,-0.22930908203125,0.08233642578125,0.9854736328125,-0.01495361328125,-1.801910400390625,0.381317138671875,1,1.0,1.0,1.0,1.0,15.00
2024-10-11 20:08:47.551,0.63134825,0.10312736,0.3702317,0.874454,0.2174736,-0.19096911,0.30048725,0.29697198,0.81989217,0.2912881,0.2806111,0.41112146,0.21881919,-0.1797375,-0.18976827,0.11306113,-0.15234378,-0.62132996,-0.5131033,0.08762027,801.8315,803.0403,799.81683,807.47253,806.6667,-0.22930908203125,0.08233642578125,0.9854736328125,-0.01495361328125,-1.801910400390625,0.381317138671875,1,1.0,1.0,1.0,1.0,15.00
2024-10-11 20:08:47.552,0.63134825,0.10312736,0.3702317,0.874454,0.2174736,-0.19096911,0.30048725,0.29697198,0.81989217,0.2912881,0.2806111,0.41112146,0.21881919,-0.1797375,-0.18976827,0.11306113,-0.15234378,-0.62132996,-0.5131033,0.08762027,788.1319,798.20514,803.44324,805.05493,692.6374,-0.22930908203125,0.08233642578125,0.9854736328125,-0.01495361328125,-1.801910400390625,0.381317138671875,1,1.0,1.0,1.0,1.0,15.00
2024-10-11 20:08:47.552,0.63134825,0.10312736,0.3702317,0.874454,0.2174736,-0.19096911,0.30048725,0.29697198,0.81989217,0.2912881,0.2806111,0.41112146,0.21881919,-0.1797375,-0.18976827,0.11306113,-0.15234378,-0.62132996,-0.5131033,0.08762027,793.36993,797.3993,802.23444,807.8755,663.6264,-0.22930908203125,0.08233642578125,0.9854736328125,-0.01495361328125,-1.801910400390625,0.381317138671875,1,1.0,1.0,1.0,1.0,15.00
2024-10-11 20:08:47.553,0.63134825,0.10312736,0.3702317,0.874454,0.2174736,-0.19096911,0.30048725,0.29697198,0.81989217,0.2912881,0.2806111,0.41112146,0.21881919,-0.1797375,-0.18976827,0.11306113,-0.15234378,-0.62132996,-0.5131033,0.08762027,796.5934,796.99634,799.011,808.68134,740.58606,-0.22930908203125,0.08233642578125,0.9854736328125,-0.01495361328125,-1.801910400390625,0.381317138671875,1,1.0,1.0,1.0,1.0,15.00
2024-10-11 20:08:47.553,0.63134825,0.10312736,0.3702317,0.874454,0.2174736,-0.19096911,0.30048725,0.29697198,0.81989217,0.2912881,0.2806111,0.41112146,0.21881919,-0.1797375,-0.18976827,0.11306113,-0.15234378,-0.62132996,-0.5131033,0.08762027,794.9817,801.02563,802.23444,805.8608,858.6447,-0.22930908203125,0.08233642578125,0.9854736328125,-0.01495361328125,-1.801910400390625,0.381317138671875,1,1.0,1.0,1.0,1.0,15.00
2024-10-11 20:08:47.554,0.63134825,0.10312736,0.3702317,0.874454,0.2174736,-0.19096911,0.30048725,0.29697198,0.81989217,0.2912881,0.2806111,0.41112146,0.21881919,-0.1797375,-0.18976827,0.11306113,-0.15234378,-0.62132996,-0.5131033,0.08762027,797.8022,800.6227,802.6374,802.23444,889.2674,-0.22930908203125,0.08233642578125,0.9854736328125,-0.01495361328125,-1.801910400390625,0.381317138671875,1,1.0,1.0,1.0,1.0,15.00
2024-10-11 20:08:47.554,0.5432646,0.11691489,0.37549096,0.91159415,0.1994112,-0.19787446,0.30855727,0.23688008,0.7948363,0.2632841,0.2806111,0.32243833,0.1565919,-0.16546583,-0.20109761,0.064589,-0.14475177,-0.63569534,-0.5106681,0.1174116,796.5934,796.1905,798.60803,802.23444,858.24176,-0.22930908203125,0.08233642578125,0.9854736328125,-0.01495361328125,-1.801910400390625,0.381317138671875,1,1.0,1.0,1.0,1.0,15.00
2024-10-11 20:08:47.559,0.5432646,0.11691489,0.37549096,0.91159415,0.1994112,-0.19787446,0.30855727,0.23688008,0.7948363,0.2632841,0.2806111,0.32243833,0.1565919,-0.16546583,-0.20109761,0.064589,-0.14475177,-0.63569534,-0.5106681,0.1174116,796.1905,798.60803,799.011,807.47253,920.696,-0.22930908203125,0.08233642578125,0.9854736328125,-0.01495361328125,-1.801910400390625,0.381317138671875,1,1.0,1.0,1.0,1.0,15.00
2024-10-11 20:08:47.560,0.5432646,0.11691489,0.37549096,0.91159415,0.1994112,-0.19787446,0.30855727,0.23688008,0.7948363,0.2632841,0.2806111,0.32243833,0.1565919,-0.16546583,-0.20109761,0.064589,-0.14475177,-0.63569534,-0.5106681,0.1174116,799.41394,800.2198,803.44324,809.0842,803.44324,-0.22930908203125,0.08233642578125,0.9854736328125,-0.01495361328125,-1.801910400390625,0.381317138671875,1,1.0,1.0,1.0,1.0,15.00
2024-10-11 20:08:47.560,0.5432646,0.11691489,0.37549096,0.91159415,0.1994112,-0.19787446,0.30855727,0.23688008,0.7948363,0.2632841,0.2806111,0.32243833,0.1565919,-0.16546583,-0.20109761,0.064589,-0.14475177,-0.63569534,-0.5106681,0.1174116,801.4286,794.57874,803.44324,808.68134,655.56775,-0.22930908203125,0.08233642578125,0.9854736328125,-0.01495361328125,-1.801910400390625,0.381317138671875,1,1.0,1.0,1.0,1.0,15.00
2024-10-11 20:08:47.561,0.5432646,0.11691489,0.37549096,0.91159415,0.1994112,-0.19787446,0.30855727,0.23688008,0.7948363,0.2632841,0.2806111,0.32243833,0.1565919,-0.16546583,-0.20109761,0.064589,-0.14475177,-0.63569534,-0.5106681,0.1174116,806.26373,794.17584,801.8315,809.4872,762.3443,-0.22930908203125,0.08233642578125,0.9854736328125,-0.01495361328125,-1.801910400390625,0.381317138671875,1,1.0,1.0,1.0,1.0,15.00
2024-10-11 20:08:47.649,0.5432646,0.11691489,0.37549096,0.91159415,0.1994112,-0.19787446,0.30855727,0.23688008,0.7948363,0.2632841,0.2806111,0.32243833,0.1565919,-0.16546583,-0.20109761,0.064589,-0.14475177,-0.63569534,-0.5106681,0.1174116,806.6667,790.9524,805.8608,820.3663,1079.0476,-0.225341796875,0.082275390625,0.97442626953125,0.112152099609375,-1.338348388671875,-0.2392578125,1,1.0,1.0,1.0,1.0,15.00
2024-10-11 20:08:47.650,0.5432646,0.11691489,0.37549096,0.91159415,0.1994112,-0.19787446,0.30855727,0.23688008,0.7948363,0.2632841,0.2806111,0.32243833,0.1565919,-0.16546583,-0.20109761,0.064589,-0.14475177,-0.63569534,-0.5106681,0.1174116,799.81683,793.36993,804.2491,818.3516,973.0769,-0.225341796875,0.082275390625,0.97442626953125,0.112152099609375,-1.338348388671875,-0.2392578125,1,1.0,1.0,1.0,1.0,15.00
2024-10-11 20:08:47.651,0.5432646,0.11691489,0.37549096,0.91159415,0.1994112,-0.19787446,0.30855727,0.23688008,0.7948363,0.2632841,0.2806111,0.32243833,0.1565919,-0.16546583,-0.20109761,0.064589,-0.14475177,-0.63569534,-0.5106681,0.1174116,802.6374,796.5934,801.02563,815.5311,727.6923,-0.225341796875,0.082275390625,0.97442626953125,0.112152099609375,-1.338348388671875,-0.2392578125,1,1.0,1.0,1.0,1.0,15.00
2024-10-11 20:08:47.652,0.5432646,0.11691489,0.37549096,0.91159415,0.1994112,-0.19787446,0.30855727,0.23688008,0.7948363,0.2632841,0.2806111,0.32243833,0.1565919,-0.16546583,-0.20109761,0.064589,-0.14475177,-0.63569534,-0.5106681,0.1174116,812.3077,795.78754,800.2198,816.7399,636.63007,-0.225341796875,0.082275390625,0.97442626953125,0.112152099609375,-1.338348388671875,-0.2392578125,1,1.0,1.0,1.0,1.0,15.00
2024-10-11 20:08:47.652,0.5432646,0.11691489,0.37549096,0.91159415,0.1994112,-0.19787446,0.30855727,0.23688008,0.7948363,0.2632841,0.2806111,0.32243833,0.1565919,-0.16546583,-0.20109761,0.064589,-0.14475177,-0.63569534,-0.5106681,0.1174116,811.9048,795.78754,800.6227,813.5165,670.87915,-0.225341796875,0.082275390625,0.97442626953125,0.112152099609375,-1.338348388671875,-0.2392578125,1,1.0,1.0,1.0,1.0,15.00
2024-10-11 20:08:47.653,0.5432646,0.11691489,0.37549096,0.91159415,0.1994112,-0.19787446,0.30855727,0.23688008,0.7948363,0.2632841,0.2806111,0.32243833,0.1565919,-0.16546583,-0.20109761,0.064589,-0.14475177,-0.63569534,-0.5106681,0.1174116,807.0696,795.38464,803.8461,817.5458,874.35895,-0.225341796875,0.082275390625,0.97442626953125,0.112152099609375,-1.338348388671875,-0.2392578125,1,1.0,1.0,1.0,1.0,15.00
2024-10-11 20:08:47.653,0.5432646,0.11691489,0.37549096,0.91159415,0.1994112,-0.19787446,0.30855727,0.23688008,0.7948363,0.2632841,0.2806111,0.32243833,0.1565919,-0.16546583,-0.20109761,0.064589,-0.14475177,-0.63569534,-0.5106681,0.1174116,806.6667,794.17584,799.81683,817.1429,861.8681,-0.225341796875,0.082275390625,0.97442626953125,0.112152099609375,-1.338348388671875,-0.2392578125,1,1.0,1.0,1.0,1.0,15.00
2024-10-11 20:08:47.654,0.5432646,0.11691489,0.37549096,0.91159415,0.1994112,-0.19787446,0.30855727,0.23688008,0.7948363,0.2632841,0.2806111,0.32243833,0.1565919,-0.16546583,-0.20109761,0.064589,-0.14475177,-0.63569534,-0.5106681,0.1174116,809.0842,795.38464,796.5934,808.2784,838.0952,-0.225341796875,0.082275390625,0.97442626953125,0.112152099609375,-1.338348388671875,-0.2392578125,1,1.0,1.0,1.0,1.0,15.00
2024-10-11 20:08:47.655,0.5432646,0.11691489,0.37549096,0.91159415,0.1994112,-0.19787446,0.30855727,0.23688008,0.7948363,0.2632841,0.2806111,0.32243833,0.1565919,-0.16546583,-0.20109761,0.064589,-0.14475177,-0.63569534,-0.5106681,0.1174116,805.4579,797.8022,799.41394,810.696,1010.9524,-0.225341796875,0.082275390625,0.97442626953125,0.112152099609375,-1.338348388671875,-0.2392578125,1,1.0,1.0,1.0,1.0,15.00
2024-10-11 20:08:47.655,0.5432646,0.11691489,0.37549096,0.91159415,0.1994112,-0.19787446,0.30855727,0.23688008,0.7948363,0.2632841,0.2806111,0.32243833,0.1565919,-0.16546583,-0.20109761,0.064589,-0.14475177,-0.63569534,-0.5106681,0.1174116,806.26373,798.60803,803.44324,811.0989,793.36993,-0.225341796875,0.082275390625,0.97442626953125,0.112152099609375,-1.338348388671875,-0.2392578125,1,1.0,1.0,1.0,1.0,15.00
2024-10-11 20:08:47.656,0.5432646,0.11691489,0.37549096,0.91159415,0.1994112,-0.19787446,0.30855727,0.23688008,0.7948363,0.2632841,0.2806111,0.32243833,0.1565919,-0.16546583,-0.20109761,0.064589,-0.14475177,-0.63569534,-0.5106681,0.1174116,812.3077,800.2198,805.4579,816.7399,660.40295,-0.225341796875,0.082275390625,0.97442626953125,0.112152099609375,-1.338348388671875,-0.2392578125,1,1.0,1.0,1.0,1.0,15.00
2024-10-11 20:08:47.656,0.5432646,0.11691489,0.37549096,0.91159415,0.1994112,-0.19787446,0.30855727,0.23688008,0.7948363,0.2632841,0.2806111,0.32243833,0.1565919,-0.16546583,-0.20109761,0.064589,-0.14475177,-0.63569534,-0.5106681,0.1174116,813.5165,797.3993,802.6374,818.7546,721.6484,-0.225341796875,0.082275390625,0.97442626953125,0.112152099609375,-1.338348388671875,-0.2392578125,1,1.0,1.0,1.0,1.0,15.00
2024-10-11 20:08:47.657,0.5432646,0.11691489,0.37549096,0.91159415,0.1994112,-0.19787446,0.30855727,0.23688008,0.7948363,0.2632841,0.2806111,0.32243833,0.1565919,-0.16546583,-0.20109761,0.064589,-0.14475177,-0.63569534,-0.5106681,0.1174116,810.696,794.17584,801.8315,813.1135,679.7436,-0.225341796875,0.082275390625,0.97442626953125,0.112152099609375,-1.338348388671875,-0.2392578125,1,1.0,1.0,1.0,1.0,15.00
2024-10-11 20:08:47.658,0.5432646,0.11691489,0.37549096,0.91159415,0.1994112,-0.19787446,0.30855727,0.23688008,0.7948363,0.2632841,0.2806111,0.32243833,0.1565919,-0.16546583,-0.20109761,0.064589,-0.14475177,-0.63569534,-0.5106681,0.1174116,805.05493,798.60803,798.20514,809.89014,676.9231,-0.225341796875,0.082275390625,0.97442626953125,0.112152099609375,-1.338348388671875,-0.2392578125,1,1.0,1.0,1.0,1.0,15.00
2024-10-11 20:08:47.658,0.5432646,0.11691489,0.37549096,0.91159415,0.1994112,-0.19787446,0.30855727,0.23688008,0.7948363,0.2632841,0.2806111,0.32243833,0.1565919,-0.16546583,-0.20109761,0.064589,-0.14475177,-0.63569534,-0.5106681,0.1174116,804.2491,801.8315,797.8022,815.9341,860.65936,-0.225341796875,0.082275390625,0.97442626953125,0.112152099609375,-1.338348388671875,-0.2392578125,1,1.0,1.0,1.0,1.0,15.00
2024-10-11 20:08:47.659,0.5432646,0.11691489,0.37549096,0.91159415,0.1994112,-0.19787446,0.30855727,0.23688008,0.7948363,0.2632841,0.2806111,0.32243833,0.1565919,-0.16546583,-0.20109761,0.064589,-0.14475177,-0.63569534,-0.5106681,0.1174116,806.26373,800.6227,804.2491,823.5897,1031.9048,-0.225341796875,0.082275390625,0.97442626953125,0.112152099609375,-1.338348388671875,-0.2392578125,1,1.0,1.0,1.0,1.0,15.00
2024-10-11 20:08:47.659,0.5432646,0.11691489,0.37549096,0.91159415,0.1994112,-0.19787446,0.30855727,0.23688008,0.7948363,0.2632841,0.2806111,0.32243833,0.1565919,-0.16546583,-0.20109761,0.064589,-0.14475177,-0.63569534,-0.5106681,0.1174116,803.8461,803.44324,804.2491,818.7546,840.5128,-0.225341796875,0.082275390625,0.97442626953125,0.112152099609375,-1.338348388671875,-0.2392578125,1,1.0,1.0,1.0,1.0,15.00
2024-10-11 20:08:47.660,0.5432646,0.11691489,0.37549096,0.91159415,0.1994112,-0.19787446,0.30855727,0.23688008,0.7948363,0.2632841,0.2806111,0.32243833,0.1565919,-0.16546583,-0.20109761,0.064589,-0.14475177,-0.63569534,-0.5106681,0.1174116,806.26373,803.8461,799.41394,813.5165,795.78754,-0.225341796875,0.082275390625,0.97442626953125,0.112152099609375,-1.338348388671875,-0.2392578125,1,1.0,1.0,1.0,1.0,15.00
2024-10-11 20:08:47.661,0.5432646,0.11691489,0.37549096,0.91159415,0.1994112,-0.19787446,0.30855727,0.23688008,0.7948363,0.2632841,0.2806111,0.32243833,0.1565919,-0.16546583,-0.20109761,0.064589,-0.14475177,-0.63569534,-0.5106681,0.1174116,813.1135,801.02563,799.41394,817.9487,1032.3077,-0.225341796875,0.082275390625,0.97442626953125,0.112152099609375,-1.338348388671875,-0.2392578125,1,1.0,1.0,1.0,1.0,15.00
2024-10-11 20:08:47.661,0.5432646,0.11691489,0.37549096,0.91159415,0.1994112,-0.19787446,0.30855727,0.23688008,0.7948363,0.2632841,0.2806111,0.32243833,0.1565919,-0.16546583,-0.20109761,0.064589,-0.14475177,-0.63569534,-0.5106681,0.1174116,812.71063,795.78754,805.8608,827.2161,1171.3187,-0.225341796875,0.082275390625,0.97442626953125,0.112152099609375,-1.338348388671875,-0.2392578125,1,1.0,1.0,1.0,1.0,15.00
2024-10-11 20:08:47.662,0.5432646,0.11691489,0.37549096,0.91159415,0.1994112,-0.19787446,0.30855727,0.23688008,0.7948363,0.2632841,0.2806111,0.32243833,0.1565919,-0.16546583,-0.20109761,0.064589,-0.14475177,-0.63569534,-0.5106681,0.1174116,813.5165,797.3993,801.8315,826.4103,903.7729,-0.225341796875,0.082275390625,0.97442626953125,0.112152099609375,-1.338348388671875,-0.2392578125,1,1.0,1.0,1.0,1.0,15.00
2024-10-11 20:08:47.662,0.5432646,0.12624855,0.37184492,0.91159415,0.1994112,-0.19455793,0.3093217,0.23688008,0.7948363,0.25150913,0.2806111,0.32243833,0.1565919,-0.15236685,-0.21990488,0.064589,-0.14475177,-0.6534297,-0.50953007,0.1174116,817.5458,801.4286,798.60803,824.3956,669.67035,-0.225341796875,0.082275390625,0.97442626953125,0.112152099609375,-1.338348388671875,-0.2392578125,1,1.0,1.0,1.0,1.0,15.00
2024-10-11 20:08:47.667,0.5432646,0.12624855,0.37184492,0.91159415,0.1994112,-0.19455793,0.3093217,0.23688008,0.7948363,0.25150913,0.2806111,0.32243833,0.1565919,-0.15236685,-0.21990488,0.064589,-0.14475177,-0.6534297,-0.50953007,0.1174116,819.15753,800.6227,801.8315,821.5751,789.34064,-0.225341796875,0.082275390625,0.97442626953125,0.112152099609375,-1.338348388671875,-0.2392578125,1,1.0,1.0,1.0,1.0,15.00
2024-10-11 20:08:47.668,0.5432646,0.12624855,0.37184492,0.91159415,0.1994112,-0.19455793,0.3093217,0.23688008,0.7948363,0.25150913,0.2806111,0.32243833,0.1565919,-0.15236685,-0.21990488,0.064589,-0.14475177,-0.6534297,-0.50953007,0.1174116,817.5458,802.6374,803.8461,818.3516,879.19415,-0.225341796875,0.082275390625,0.97442626953125,0.112152099609375,-1.338348388671875,-0.2392578125,1,1.0,1.0,1.0,1.0,15.00
2024-10-11 20:08:47.702,0.5432646,0.12624855,0.37184492,0.91159415,0.1994112,-0.19455793,0.3093217,0.23688008,0.7948363,0.25150913,0.2806111,0.32243833,0.1565919,-0.15236685,-0.21990488,0.064589,-0.14475177,-0.6534297,-0.50953007,0.1174116,813.1135,803.44324,805.4579,816.7399,722.0513,-0.220703125,0.082275390625,0.98138427734375,0.28411865234375,-2.160797119140625,-0.418701171875,1,1.0,1.0,1.0,1.0,15.00
2024-10-11 20:08:47.703,0.5432646,0.12624855,0.37184492,0.91159415,0.1994112,-0.19455793,0.3093217,0.23688008,0.7948363,0.25150913,0.2806111,0.32243833,0.1565919,-0.15236685,-0.21990488,0.064589,-0.14475177,-0.6534297,-0.50953007,0.1174116,808.2784,799.81683,804.2491,812.71063,632.1978,-0.220703125,0.082275390625,0.98138427734375,0.28411865234375,-2.160797119140625,-0.418701171875,1,1.0,1.0,1.0,1.0,15.00
2024-10-11 20:08:47.705,0.5432646,0.12624855,0.37184492,0.91159415,0.1994112,-0.19455793,0.3093217,0.23688008,0.7948363,0.25150913,0.2806111,0.32243833,0.1565919,-0.15236685,-0.21990488,0.064589,-0.14475177,-0.6534297,-0.50953007,0.1174116,814.7253,799.81683,805.8608,815.9341,737.76556,-0.220703125,0.082275390625,0.98138427734375,0.28411865234375,-2.160797119140625,-0.418701171875,1,1.0,1.0,1.0,1.0,15.00
2024-10-11 20:08:47.706,0.5432646,0.12624855,0.37184492,0.91159415,0.1994112,-0.19455793,0.3093217,0.23688008,0.7948363,0.25150913,0.2806111,0.32243833,0.1565919,-0.15236685,-0.21990488,0.064589,-0.14475177,-0.6534297,-0.50953007,0.1174116,810.696,803.44324,805.05493,812.3077,910.6227,-0.220703125,0.082275390625,0.98138427734375,0.28411865234375,-2.160797119140625,-0.418701171875,1,1.0,1.0,1.0,1.0,15.00
2024-10-11 20:08:47.706,0.5432646,0.12624855,0.37184492,0.91159415,0.1994112,-0.19455793,0.3093217,0.23688008,0.7948363,0.25150913,0.2806111,0.32243833,0.1565919,-0.15236685,-0.21990488,0.064589,-0.14475177,-0.6534297,-0.50953007,0.1174116,802.23444,801.4286,800.6227,805.8608,822.381,-0.220703125,0.082275390625,0.98138427734375,0.28411865234375,-2.160797119140625,-0.418701171875,1,1.0,1.0,1.0,1.0,15.00
2024-10-11 20:08:47.707,0.5432646,0.12624855,0.37184492,0.91159415,0.1994112,-0.19455793,0.3093217,0.23688008,0.7948363,0.25150913,0.2806111,0.32243833,0.1565919,-0.15236685,-0.21990488,0.064589,-0.14475177,-0.6534297,-0.50953007,0.1174116,798.20514,798.60803,798.20514,806.6667,844.1392,-0.220703125,0.082275390625,0.98138427734375,0.28411865234375,-2.160797119140625,-0.418701171875,1,1.0,1.0,1.0,1.0,15.00
2024-10-11 20:08:47.708,0.5432646,0.12624855,0.37184492,0.91159415,0.1994112,-0.19455793,0.3093217,0.23688008,0.7948363,0.25150913,0.2806111,0.32243833,0.1565919,-0.15236685,-0.21990488,0.064589,-0.14475177,-0.6534297,-0.50953007,0.1174116,799.011,796.1905,794.9817,807.47253,1089.9268,-0.220703125,0.082275390625,0.98138427734375,0.28411865234375,-2.160797119140625,-0.418701171875,1,1.0,1.0,1.0,1.0,15.00
2024-10-11 20:08:47.708,0.5432646,0.12624855,0.37184492,0.91159415,0.1994112,-0.19455793,0.3093217,0.23688008,0.7948363,0.25150913,0.2806111,0.32243833,0.1565919,-0.15236685,-0.21990488,0.064589,-0.14475177,-0.6534297,-0.50953007,0.1174116,804.65204,791.75824,799.41394,817.5458,1393.3334,-0.220703125,0.082275390625,0.98138427734375,0.28411865234375,-2.160797119140625,-0.418701171875,1,1.0,1.0,1.0,1.0,15.00
2024-10-11 20:08:47.709,0.5432646,0.12624855,0.37184492,0.91159415,0.1994112,-0.19455793,0.3093217,0.23688008,0.7948363,0.25150913,0.2806111,0.32243833,0.1565919,-0.15236685,-0.21990488,0.064589,-0.14475177,-0.6534297,-0.50953007,0.1174116,805.05493,799.41394,798.20514,812.3077,1143.1135,-0.220703125,0.082275390625,0.98138427734375,0.28411865234375,-2.160797119140625,-0.418701171875,1,1.0,1.0,1.0,1.0,15.00
2024-10-11 20:08:47.709,0.5432646,0.12624855,0.37184492,0.91159415,0.1994112,-0.19455793,0.3093217,0.23688008,0.7948363,0.25150913,0.2806111,0.32243833,0.1565919,-0.15236685,-0.21990488,0.064589,-0.14475177,-0.6534297,-0.50953007,0.1174116,804.65204,801.02563,797.3993,803.0403,734.94507,-0.220703125,0.082275390625,0.98138427734375,0.28411865234375,-2.160797119140625,-0.418701171875,1,1.0,1.0,1.0,1.0,15.00
2024-10-11 20:08:47.710,0.5432646,0.12624855,0.37184492,0.91159415,0.1994112,-0.19455793,0.3093217,0.23688008,0.7948363,0.25150913,0.2806111,0.32243833,0.1565919,-0.15236685,-0.21990488,0.064589,-0.14475177,-0.6534297,-0.50953007,0.1174116,811.50183,794.17584,800.6227,808.2784,771.2088,-0.220703125,0.082275390625,0.98138427734375,0.28411865234375,-2.160797119140625,-0.418701171875,1,1.0,1.0,1.0,1.0,15.00
2024-10-11 20:08:47.710,0.5432646,0.12624855,0.37184492,0.91159415,0.1994112,-0.19455793,0.3093217,0.23688008,0.7948363,0.25150913,0.2806111,0.32243833,0.1565919,-0.15236685,-0.21990488,0.064589,-0.14475177,-0.6534297,-0.50953007,0.1174116,811.9048,798.20514,797.3993,804.2491,731.31866,-0.220703125,0.082275390625,0.98138427734375,0.28411865234375,-2.160797119140625,-0.418701171875,1,1.0,1.0,1.0,1.0,15.00
2024-10-11 20:08:47.750,0.5432646,0.12624855,0.37184492,0.91159415,0.1994112,-0.19455793,0.3093217,0.23688008,0.7948363,0.25150913,0.2806111,0.32243833,0.1565919,-0.15236685,-0.21990488,0.064589,-0.14475177,-0.6534297,-0.50953007,0.1174116,806.6667,803.0403,796.1905,798.20514,676.9231,-0.2244873046875,0.08319091796875,0.97845458984375,0.11962890625,-1.757049560546875,-0.201873779296875,1,1.0,1.0,1.0,1.0,15.00
2024-10-11 20:08:47.751,0.5432646,0.12624855,0.37184492,0.91159415,0.1994112,-0.19455793,0.3093217,0.23688008,0.7948363,0.25150913,0.2806111,0.32243833,0.1565919,-0.15236685,-0.21990488,0.064589,-0.14475177,-0.6534297,-0.50953007,0.1174116,810.696,801.02563,799.011,803.44324,710.7692,-0.2244873046875,0.08319091796875,0.97845458984375,0.11962890625,-1.757049560546875,-0.201873779296875,1,1.0,1.0,1.0,1.0,15.00
2024-10-11 20:08:47.751,0.5432646,0.12624855,0.37184492,0.91159415,0.1994112,-0.19455793,0.3093217,0.23688008,0.7948363,0.25150913,0.2806111,0.32243833,0.1565919,-0.15236685,-0.21990488,0.064589,-0.14475177,-0.6534297,-0.50953007,0.1174116,813.1135,799.81683,800.2198,800.6227,759.92676,-0.2244873046875,0.08319091796875,0.97845458984375,0.11962890625,-1.757049560546875,-0.201873779296875,1,1.0,1.0,1.0,1.0,15.00
2024-10-11 20:08:47.752,0.5432646,0.12624855,0.37184492,0.91159415,0.1994112,-0.19455793,0.3093217,0.23688008,0.7948363,0.25150913,0.2806111,0.32243833,0.1565919,-0.15236685,-0.21990488,0.064589,-0.14475177,-0.6534297,-0.50953007,0.1174116,807.47253,801.4286,801.02563,798.60803,790.9524,-0.2244873046875,0.08319091796875,0.97845458984375,0.11962890625,-1.757049560546875,-0.201873779296875,1,1.0,1.0,1.0,1.0,15.00
2024-10-11 20:08:47.753,0.5432646,0.12624855,0.37184492,0.91159415,0.1994112,-0.19455793,0.3093217,0.23688008,0.7948363,0.25150913,0.2806111,0.32243833,0.1565919,-0.15236685,-0.21990488,0.064589,-0.14475177,-0.6534297,-0.50953007,0.1174116,805.05493,802.23444,802.23444,799.81683,711.1722,-0.2244873046875,0.08319091796875,0.97845458984375,0.11962890625,-1.757049560546875,-0.201873779296875,1,1.0,1.0,1.0,1.0,15.00
2024-10-11 20:08:47.753,0.5432646,0.12624855,0.37184492,0.91159415,0.1994112,-0.19455793,0.3093217,0.23688008,0.7948363,0.25150913,0.2806111,0.32243833,0.1565919,-0.15236685,-0.21990488,0.064589,-0.14475177,-0.6534297,-0.50953007,0.1174116,806.6667,797.3993,797.3993,797.8022,735.34796,-0.2244873046875,0.08319091796875,0.97845458984375,0.11962890625,-1.757049560546875,-0.201873779296875,1,1.0,1.0,1.0,1.0,15.00
2024-10-11 20:08:47.754,0.5432646,0.12624855,0.37184492,0.91159415,0.1994112,-0.19455793,0.3093217,0.23688008,0.7948363,0.25150913,0.2806111,0.32243833,0.1565919,-0.15236685,-0.21990488,0.064589,-0.14475177,-0.6534297,-0.50953007,0.1174116,806.26373,795.38464,796.5934,803.8461,1124.5787,-0.2244873046875,0.08319091796875,0.97845458984375,0.11962890625,-1.757049560546875,-0.201873779296875,1,1.0,1.0,1.0,1.0,15.00
2024-10-11 20:08:47.754,0.5432646,0.12624855,0.37184492,0.91159415,0.1994112,-0.19455793,0.3093217,0.23688008,0.7948363,0.25150913,0.2806111,0.32243833,0.1565919,-0.15236685,-0.21990488,0.064589,-0.14475177,-0.6534297,-0.50953007,0.1174116,803.44324,796.5934,799.011,799.011,955.7509,-0.2244873046875,0.08319091796875,0.97845458984375,0.11962890625,-1.757049560546875,-0.201873779296875,1,1.0,1.0,1.0,1.0,15.00
2024-10-11 20:08:47.755,0.5432646,0.12624855,0.37184492,0.91159415,0.1994112,-0.19455793,0.3093217,0.23688008,0.7948363,0.25150913,0.2806111,0.32243833,0.1565919,-0.15236685,-0.21990488,0.064589,-0.14475177,-0.6534297,-0.50953007,0.1174116,803.0403,794.9817,798.60803,793.7729,762.74725,-0.2244873046875,0.08319091796875,0.97845458984375,0.11962890625,-1.757049560546875,-0.201873779296875,1,1.0,1.0,1.0,1.0,15.00
2024-10-11 20:08:47.755,0.5432646,0.12624855,0.37184492,0.91159415,0.1994112,-0.19455793,0.3093217,0.23688008,0.7948363,0.25150913,0.2806111,0.32243833,0.1565919,-0.15236685,-0.21990488,0.064589,-0.14475177,-0.6534297,-0.50953007,0.1174116,803.0403,792.1612,801.8315,801.8315,842.1245,-0.2244873046875,0.08319091796875,0.97845458984375,0.11962890625,-1.757049560546875,-0.201873779296875,1,1.0,1.0,1.0,1.0,15.00
2024-10-11 20:08:47.756,0.5432646,0.12624855,0.37184492,0.91159415,0.1994112,-0.19455793,0.3093217,0.23688008,0.7948363,0.25150913,0.2806111,0.32243833,0.1565919,-0.15236685,-0.21990488,0.064589,-0.14475177,-0.6534297,-0.50953007,0.1174116,804.2491,795.38464,801.8315,807.47253,850.989,-0.2244873046875,0.08319091796875,0.97845458984375,0.11962890625,-1.757049560546875,-0.201873779296875,1,1.0,1.0,1.0,1.0,15.00
2024-10-11 20:08:47.757,0.5432646,0.1312305,0.36391848,0.91159415,0.1994112,-0.18443392,0.30873996,0.23688008,0.7948363,0.24683188,0.2806111,0.32243833,0.1565919,-0.14405558,-0.23542994,0.064589,-0.14475177,-0.6678639,-0.5099312,0.1174116,808.68134,801.8315,800.2198,803.8461,728.49817,-0.2244873046875,0.08319091796875,0.97845458984375,0.11962890625,-1.757049560546875,-0.201873779296875,1,1.0,1.0,1.0,1.0,15.00
2024-10-11 20:08:47.782,0.5432646,0.1312305,0.36391848,0.91159415,0.1994112,-0.18443392,0.30873996,0.23688008,0.7948363,0.24683188,0.2806111,0.32243833,0.1565919,-0.14405558,-0.23542994,0.064589,-0.14475177,-0.6678639,-0.5099312,0.1174116,810.293,801.4286,805.4579,799.41394,658.7912,-0.22406005859375,0.080078125,0.98040771484375,0.201873779296875,-1.293487548828125,-0.291595458984375,1,1.0,1.0,1.0,1.0,15.00
2024-10-11 20:08:47.783,0.5432646,0.1312305,0.36391848,0.91159415,0.1994112,-0.18443392,0.30873996,0.23688008,0.7948363,0.24683188,0.2806111,0.32243833,0.1565919,-0.14405558,-0.23542994,0.064589,-0.14475177,-0.6678639,-0.5099312,0.1174116,811.50183,799.011,801.8315,797.3993,759.12085,-0.22406005859375,0.080078125,0.98040771484375,0.201873779296875,-1.293487548828125,-0.291595458984375,1,1.0,1.0,1.0,1.0,15.00
2024-10-11 20:08:47.784,0.5432646,0.1312305,0.36391848,0.91159415,0.1994112,-0.18443392,0.30873996,0.23688008,0.7948363,0.24683188,0.2806111,0.32243833,0.1565919,-0.14405558,-0.23542994,0.064589,-0.14475177,-0.6678639,-0.5099312,0.1174116,815.12823,798.60803,799.011,808.2784,975.09155,-0.22406005859375,0.080078125,0.98040771484375,0.201873779296875,-1.293487548828125,-0.291595458984375,1,1.0,1.0,1.0,1.0,15.00
2024-10-11 20:08:47.784,0.5432646,0.1312305,0.36391848,0.91159415,0.1994112,-0.18443392,0.30873996,0.23688008,0.7948363,0.24683188,0.2806111,0.32243833,0.1565919,-0.14405558,-0.23542994,0.064589,-0.14475177,-0.6678639,-0.5099312,0.1174116,811.50183,799.011,802.6374,808.2784,870.32965,-0.22406005859375,0.080078125,0.98040771484375,0.201873779296875,-1.293487548828125,-0.291595458984375,1,1.0,1.0,1.0,1.0,15.00
2024-10-11 20:08:47.785,0.5432646,0.1312305,0.36391848,0.91159415,0.1994112,-0.18443392,0.30873996,0.23688008,0.7948363,0.24683188,0.2806111,0.32243833,0.1565919,-0.14405558,-0.23542994,0.064589,-0.14475177,-0.6678639,-0.5099312,0.1174116,813.1135,800.2198,801.02563,803.0403,747.03296,-0.22406005859375,0.080078125,0.98040771484375,0.201873779296875,-1.293487548828125,-0.291595458984375,1,1.0,1.0,1.0,1.0,15.00
2024-10-11 20:08:47.785,0.5432646,0.1312305,0.36391848,0.91159415,0.1994112,-0.18443392,0.30873996,0.23688008,0.7948363,0.24683188,0.2806111,0.32243833,0.1565919,-0.14405558,-0.23542994,0.064589,-0.14475177,-0.6678639,-0.5099312,0.1174116,814.7253,802.23444,800.6227,810.293,904.57874,-0.22406005859375,0.080078125,0.98040771484375,0.201873779296875,-1.293487548828125,-0.291595458984375,1,1.0,1.0,1.0,1.0,15.00
2024-10-11 20:08:47.786,0.5432646,0.1312305,0.36391848,0.91159415,0.1994112,-0.18443392,0.30873996,0.23688008,0.7948363,0.24683188,0.2806111,0.32243833,0.1565919,-0.14405558,-0.23542994,0.064589,-0.14475177,-0.6678639,-0.5099312,0.1174116,809.89014,802.6374,802.23444,809.4872,938.4249,-0.22406005859375,0.080078125,0.98040771484375,0.201873779296875,-1.293487548828125,-0.291595458984375,1,1.0,1.0,1.0,1.0,15.00
2024-10-11 20:08:47.786,0.5432646,0.1312305,0.36391848,0.91159415,0.1994112,-0.18443392,0.30873996,0.23688008,0.7948363,0.24683188,0.2806111,0.32243833,0.1565919,-0.14405558,-0.23542994,0.064589,-0.14475177,-0.6678639,-0.5099312,0.1174116,813.5165,800.2198,803.0403,807.47253,720.4396,-0.22406005859375,0.080078125,0.98040771484375,0.201873779296875,-1.293487548828125,-0.291595458984375,1,1.0,1.0,1.0,1.0,15.00
2024-10-11 20:08:47.787,0.5432646,0.1312305,0.36391848,0.91159415,0.1994112,-0.18443392,0.30873996,0.23688008,0.7948363,0.24683188,0.2806111,0.32243833,0.1565919,-0.14405558,-0.23542994,0.064589,-0.14475177,-0.6678639,-0.5099312,0.1174116,819.15753,801.02563,801.4286,812.3077,683.36993,-0.22406005859375,0.080078125,0.98040771484375,0.201873779296875,-1.293487548828125,-0.291595458984375,1,1.0,1.0,1.0,1.0,15.00
2024-10-11 20:08:47.788,0.5432646,0.1312305,0.36391848,0.91159415,0.1994112,-0.18443392,0.30873996,0.23688008,0.7948363,0.24683188,0.2806111,0.32243833,0.1565919,-0.14405558,-0.23542994,0.064589,-0.14475177,-0.6678639,-0.5099312,0.1174116,815.5311,802.23444,801.02563,812.3077,907.8022,-0.22406005859375,0.080078125,0.98040771484375,0.201873779296875,-1.293487548828125,-0.291595458984375,1,1.0,1.0,1.0,1.0,15.00
2024-10-11 20:08:47.788,0.5432646,0.1312305,0.36391848,0.91159415,0.1994112,-0.18443392,0.30873996,0.23688008,0.7948363,0.24683188,0.2806111,0.32243833,0.1565919,-0.14405558,-0.23542994,0.064589,-0.14475177,-0.6678639,-0.5099312,0.1174116,813.1135,793.7729,799.81683,811.50183,1063.3334,-0.22406005859375,0.080078125,0.98040771484375,0.201873779296875,-1.293487548828125,-0.291595458984375,1,1.0,1.0,1.0,1.0,15.00
2024-10-11 20:08:47.789,0.5432646,0.1312305,0.36391848,0.91159415,0.1994112,-0.18443392,0.30873996,0.23688008,0.7948363,0.24683188,0.2806111,0.32243833,0.1565919,-0.14405558,-0.23542994,0.064589,-0.14475177,-0.6678639,-0.5099312,0.1174116,813.5165,790.9524,800.6227,815.9341,962.6007,-0.22406005859375,0.080078125,0.98040771484375,0.201873779296875,-1.293487548828125,-0.291595458984375,1,1.0,1.0,1.0,1.0,15.00
2024-10-11 20:08:47.817,0.5432646,0.1312305,0.36391848,0.91159415,0.1994112,-0.18443392,0.30873996,0.23688008,0.7948363,0.24683188,0.2806111,0.32243833,0.1565919,-0.14405558,-0.23542994,0.064589,-0.14475177,-0.6678639,-0.5099312,0.1174116,811.50183,799.41394,801.4286,813.5165,721.2454,-0.228271484375,0.08135986328125,0.98480224609375,0.059814453125,-2.2430419921875,-0.127105712890625,1,1.0,1.0,1.0,1.0,15.00
2024-10-11 20:08:47.818,0.5432646,0.1312305,0.36391848,0.91159415,0.1994112,-0.18443392,0.30873996,0.23688008,0.7948363,0.24683188,0.2806111,0.32243833,0.1565919,-0.14405558,-0.23542994,0.064589,-0.14475177,-0.6678639,-0.5099312,0.1174116,819.15753,799.011,803.44324,820.7692,786.1172,-0.228271484375,0.08135986328125,0.98480224609375,0.059814453125,-2.2430419921875,-0.127105712890625,1,1.0,1.0,1.0,1.0,15.00
2024-10-11 20:08:47.819,0.5432646,0.1312305,0.36391848,0.91159415,0.1994112,-0.18443392,0.30873996,0.23688008,0.7948363,0.24683188,0.2806111,0.32243833,0.1565919,-0.14405558,-0.23542994,0.064589,-0.14475177,-0.6678639,-0.5099312,0.1174116,815.12823,801.4286,805.8608,815.5311,815.12823,-0.228271484375,0.08135986328125,0.98480224609375,0.059814453125,-2.2430419921875,-0.127105712890625,1,1.0,1.0,1.0,1.0,15.00
2024-10-11 20:08:47.819,0.5432646,0.1312305,0.36391848,0.91159415,0.1994112,-0.18443392,0.30873996,0.23688008,0.7948363,0.24683188,0.2806111,0.32243833,0.1565919,-0.14405558,-0.23542994,0.064589,-0.14475177,-0.6678639,-0.5099312,0.1174116,819.5604,807.8755,803.8461,817.5458,679.34064,-0.228271484375,0.08135986328125,0.98480224609375,0.059814453125,-2.2430419921875,-0.127105712890625,1,1.0,1.0,1.0,1.0,15.00
2024-10-11 20:08:47.820,0.5432646,0.1312305,0.36391848,0.91159415,0.1994112,-0.18443392,0.30873996,0.23688008,0.7948363,0.24683188,0.2806111,0.32243833,0.1565919,-0.14405558,-0.23542994,0.064589,-0.14475177,-0.6678639,-0.5099312,0.1174116,823.9927,808.2784,809.4872,823.5897,735.34796,-0.228271484375,0.08135986328125,0.98480224609375,0.059814453125,-2.2430419921875,-0.127105712890625,1,1.0,1.0,1.0,1.0,15.00
2024-10-11 20:08:47.820,0.5432646,0.1312305,0.36391848,0.91159415,0.1994112,-0.18443392,0.30873996,0.23688008,0.7948363,0.24683188,0.2806111,0.32243833,0.1565919,-0.14405558,-0.23542994,0.064589,-0.14475177,-0.6678639,-0.5099312,0.1174116,810.696,804.65204,812.71063,813.5165,1000.87915,-0.228271484375,0.08135986328125,0.98480224609375,0.059814453125,-2.2430419921875,-0.127105712890625,1,1.0,1.0,1.0,1.0,15.00
2024-10-11 20:08:47.821,0.5432646,0.1312305,0.36391848,0.91159415,0.1994112,-0.18443392,0.30873996,0.23688008,0.7948363,0.24683188,0.2806111,0.32243833,0.1565919,-0.14405558,-0.23542994,0.064589,-0.14475177,-0.6678639,-0.5099312,0.1174116,812.71063,803.8461,813.1135,817.9487,967.8388,-0.228271484375,0.08135986328125,0.98480224609375,0.059814453125,-2.2430419921875,-0.127105712890625,1,1.0,1.0,1.0,1.0,15.00
2024-10-11 20:08:47.821,0.5432646,0.1312305,0.36391848,0.91159415,0.1994112,-0.18443392,0.30873996,0.23688008,0.7948363,0.24683188,0.2806111,0.32243833,0.1565919,-0.14405558,-0.23542994,0.064589,-0.14475177,-0.6678639,-0.5099312,0.1174116,813.1135,804.65204,808.68134,821.1722,693.8461,-0.228271484375,0.08135986328125,0.98480224609375,0.059814453125,-2.2430419921875,-0.127105712890625,1,1.0,1.0,1.0,1.0,15.00
2024-10-11 20:08:47.822,0.5432646,0.1312305,0.36391848,0.91159415,0.1994112,-0.18443392,0.30873996,0.23688008,0.7948363,0.24683188,0.2806111,0.32243833,0.1565919,-0.14405558,-0.23542994,0.064589,-0.14475177,-0.6678639,-0.5099312,0.1174116,817.5458,807.47253,807.47253,819.9634,722.4542,-0.228271484375,0.08135986328125,0.98480224609375,0.059814453125,-2.2430419921875,-0.127105712890625,1,1.0,1.0,1.0,1.0,15.00
2024-10-11 20:08:47.823,0.5432646,0.1312305,0.36391848,0.91159415,0.1994112,-0.18443392,0.30873996,0.23688008,0.7948363,0.24683188,0.2806111,0.32243833,0.1565919,-0.14405558,-0.23542994,0.064589,-0.14475177,-0.6678639,-0.5099312,0.1174116,819.9634,806.26373,810.293,821.978,939.2308,-0.228271484375,0.08135986328125,0.98480224609375,0.059814453125,-2.2430419921875,-0.127105712890625,1,1.0,1.0,1.0,1.0,15.00
2024-10-11 20:08:47.823,0.5432646,0.1312305,0.36391848,0.91159415,0.1994112,-0.18443392,0.30873996,0.23688008,0.7948363,0.24683188,0.2806111,0.32243833,0.1565919,-0.14405558,-0.23542994,0.064589,-0.14475177,-0.6678639,-0.5099312,0.1174116,800.6227,805.8608,811.0989,809.0842,806.26373,-0.228271484375,0.08135986328125,0.98480224609375,0.059814453125,-2.2430419921875,-0.127105712890625,1,1.0,1.0,1.0,1.0,15.00
2024-10-11 20:08:47.824,0.5432646,0.1312305,0.36391848,0.91159415,0.1994112,-0.18443392,0.30873996,0.23688008,0.7948363,0.24683188,0.2806111,0.32243833,0.1565919,-0.14405558,-0.23542994,0.064589,-0.14475177,-0.6678639,-0.5099312,0.1174116,782.0879,805.8608,812.71063,795.78754,609.6337,-0.228271484375,0.08135986328125,0.98480224609375,0.059814453125,-2.2430419921875,-0.127105712890625,1,1.0,1.0,1.0,1.0,15.00
2024-10-11 20:08:47.885,0.5432646,0.1312305,0.36391848,0.91159415,0.1994112,-0.18443392,0.30873996,0.23688008,0.7948363,0.24683188,0.2806111,0.32243833,0.1565919,-0.14405558,-0.23542994,0.064589,-0.14475177,-0.6678639,-0.5099312,0.1174116,795.38464,801.8315,811.9048,801.4286,670.87915,-0.21807861328125,0.08245849609375,0.98388671875,0.3887939453125,-2.654266357421875,0.171966552734375,1,1.0,1.0,1.0,1.0,15.00
2024-10-11 20:08:47.886,0.5432646,0.13219035,0.3501447,0.91159415,0.1994112,-0.1711956,0.30887175,0.23688008,0.7948363,0.24653918,0.28080872,0.32243833,0.1565919,-0.14119333,-0.24222599,0.064589,-0.14475177,-0.67248315,-0.51335275,0.1174116,796.5934,796.5934,809.4872,802.23444,938.4249,-0.21807861328125,0.08245849609375,0.98388671875,0.3887939453125,-2.654266357421875,0.171966552734375,1,1.0,1.0,1.0,1.0,15.00
2024-10-11 20:08:47.890,0.5432646,0.13219035,0.3501447,0.91159415,0.1994112,-0.1711956,0.30887175,0.23688008,0.7948363,0.24653918,0.28080872,0.32243833,0.1565919,-0.14119333,-0.24222599,0.064589,-0.14475177,-0.67248315,-0.51335275,0.1174116,792.1612,801.8315,811.50183,800.6227,877.5824,-0.21807861328125,0.08245849609375,0.98388671875,0.3887939453125,-2.654266357421875,0.171966552734375,1,1.0,1.0,1.0,1.0,15.00
2024-10-11 20:08:47.891,0.5432646,0.13219035,0.3501447,0.91159415,0.1994112,-0.1711956,0.30887175,0.23688008,0.7948363,0.24653918,0.28080872,0.32243833,0.1565919,-0.14119333,-0.24222599,0.064589,-0.14475177,-0.67248315,-0.51335275,0.1174116,807.8755,810.696,813.91943,809.4872,657.98535,-0.21807861328125,0.08245849609375,0.98388671875,0.3887939453125,-2.654266357421875,0.171966552734375,1,1.0,1.0,1.0,1.0,15.00
2024-10-11 20:08:47.891,0.5432646,0.13219035,0.3501447,0.91159415,0.1994112,-0.1711956,0.30887175,0.23688008,0.7948363,0.24653918,0.28080872,0.32243833,0.1565919,-0.14119333,-0.24222599,0.064589,-0.14475177,-0.67248315,-0.51335275,0.1174116,800.2198,810.696,809.89014,799.81683,736.55676,-0.21807861328125,0.08245849609375,0.98388671875,0.3887939453125,-2.654266357421875,0.171966552734375,1,1.0,1.0,1.0,1.0,15.00
2024-10-11 20:08:47.892,0.5432646,0.13219035,0.3501447,0.91159415,0.1994112,-0.1711956,0.30887175,0.23688008,0.7948363,0.24653918,0.28080872,0.32243833,0.1565919,-0.14119333,-0.24222599,0.064589,-0.14475177,-0.67248315,-0.51335275,0.1174116,791.3553,811.9048,806.26373,788.1319,1055.6776,-0.21807861328125,0.08245849609375,0.98388671875,0.3887939453125,-2.654266357421875,0.171966552734375,1,1.0,1.0,1.0,1.0,15.00
2024-10-11 20:08:47.893,0.5432646,0.13219035,0.3501447,0.91159415,0.1994112,-0.1711956,0.30887175,0.23688008,0.7948363,0.24653918,0.28080872,0.32243833,0.1565919,-0.14119333,-0.24222599,0.064589,-0.14475177,-0.67248315,-0.51335275,0.1174116,787.326,812.71063,812.3077,790.9524,986.77655,-0.21807861328125,0.08245849609375,0.98388671875,0.3887939453125,-2.654266357421875,0.171966552734375,1,1.0,1.0,1.0,1.0,15.00
2024-10-11 20:08:47.893,0.5432646,0.13219035,0.3501447,0.91159415,0.1994112,-0.1711956,0.30887175,0.23688008,0.7948363,0.24653918,0.28080872,0.32243833,0.1565919,-0.14119333,-0.24222599,0.064589,-0.14475177,-0.67248315,-0.51335275,0.1174116,770.40295,807.0696,819.5604,791.75824,707.9487,-0.21807861328125,0.08245849609375,0.98388671875,0.3887939453125,-2.654266357421875,0.171966552734375,1,1.0,1.0,1.0,1.0,15.00
2024-10-11 20:08:47.894,0.5432646,0.13219035,0.3501447,0.91159415,0.1994112,-0.1711956,0.30887175,0.23688008,0.7948363,0.24653918,0.28080872,0.32243833,0.1565919,-0.14119333,-0.24222599,0.064589,-0.14475177,-0.67248315,-0.51335275,0.1174116,779.67035,801.8315,816.7399,793.36993,786.9231,-0.21807861328125,0.08245849609375,0.98388671875,0.3887939453125,-2.654266357421875,0.171966552734375,1,1.0,1.0,1.0,1.0,15.00
2024-10-11 20:08:47.894,0.5432646,0.13219035,0.3501447,0.91159415,0.1994112,-0.1711956,0.30887175,0.23688008,0.7948363,0.24653918,0.28080872,0.32243833,0.1565919,-0.14119333,-0.24222599,0.064589,-0.14475177,-0.67248315,-0.51335275,0.1174116,802.6374,807.8755,812.3077,810.293,1123.37,-0.21807861328125,0.08245849609375,0.98388671875,0.3887939453125,-2.654266357421875,0.171966552734375,1,1.0,1.0,1.0,1.0,15.00
2024-10-11 20:08:47.895,0.5432646,0.13219035,0.3501447,0.91159415,0.1994112,-0.1711956,0.30887175,0.23688008,0.7948363,0.24653918,0.28080872,0.32243833,0.1565919,-0.14119333,-0.24222599,0.064589,-0.14475177,-0.67248315,-0.51335275,0.1174116,797.8022,814.3223,813.1135,804.65204,872.74725,-0.21807861328125,0.08245849609375,0.98388671875,0.3887939453125,-2.654266357421875,0.171966552734375,1,1.0,1.0,1.0,1.0,15.00
2024-10-11 20:08:47.896,0.5432646,0.13219035,0.3501447,0.91159415,0.1994112,-0.1711956,0.30887175,0.23688008,0.7948363,0.24653918,0.28080872,0.32243833,0.1565919,-0.14119333,-0.24222599,0.064589,-0.14475177,-0.67248315,-0.51335275,0.1174116,794.9817,808.2784,812.3077,799.81683,595.9341,-0.21807861328125,0.08245849609375,0.98388671875,0.3887939453125,-2.654266357421875,0.171966552734375,1,1.0,1.0,1.0,1.0,15.00
2024-10-11 20:08:47.984,0.5432646,0.13219035,0.3501447,0.91159415,0.1994112,-0.1711956,0.30887175,0.23688008,0.7948363,0.24653918,0.28080872,0.32243833,0.1565919,-0.14119333,-0.24222599,0.064589,-0.14475177,-0.67248315,-0.51335275,0.1174116,808.2784,804.2491,809.89014,815.12823,677.326,-0.21807861328125,0.08245849609375,0.98388671875,0.3887939453125,-2.654266357421875,0.171966552734375,1,1.0,1.0,1.0,1.0,15.00
2024-10-11 20:08:47.985,0.5432646,0.13219035,0.3501447,0.91159415,0.1994112,-0.1711956,0.30887175,0.23688008,0.7948363,0.24653918,0.28080872,0.32243833,0.1565919,-0.14119333,-0.24222599,0.064589,-0.14475177,-0.67248315,-0.51335275,0.1174116,815.9341,807.8755,808.68134,821.5751,712.381,-0.21807861328125,0.08245849609375,0.98388671875,0.3887939453125,-2.654266357421875,0.171966552734375,1,1.0,1.0,1.0,1.0,15.00
2024-10-11 20:08:47.986,0.5432646,0.13219035,0.3501447,0.91159415,0.1994112,-0.1711956,0.30887175,0.23688008,0.7948363,0.24653918,0.28080872,0.32243833,0.1565919,-0.14119333,-0.24222599,0.064589,-0.14475177,-0.67248315,-0.51335275,0.1174116,810.696,804.65204,807.8755,818.3516,691.8315,-0.21807861328125,0.08245849609375,0.98388671875,0.3887939453125,-2.654266357421875,0.171966552734375,1,1.0,1.0,1.0,1.0,15.00
2024-10-11 20:08:47.987,0.5432646,0.13219035,0.3501447,0.91159415,0.1994112,-0.1711956,0.30887175,0.23688008,0.7948363,0.24653918,0.28080872,0.32243833,0.1565919,-0.14119333,-0.24222599,0.064589,-0.14475177,-0.67248315,-0.51335275,0.1174116,813.91943,799.011,809.4872,825.2015,770.0,-0.21807861328125,0.08245849609375,0.98388671875,0.3887939453125,-2.654266357421875,0.171966552734375,1,1.0,1.0,1.0,1.0,15.00
2024-10-11 20:08:47.987,0.5432646,0.13219035,0.3501447,0.91159415,0.1994112,-0.1711956,0.30887175,0.23688008,0.7948363,0.24653918,0.28080872,0.32243833,0.1565919,-0.14119333,-0.24222599,0.064589,-0.14475177,-0.67248315,-0.51335275,0.1174116,836.08057,805.8608,806.26373,838.0952,911.02563,-0.21807861328125,0.08245849609375,0.98388671875,0.3887939453125,-2.654266357421875,0.171966552734375,1,1.0,1.0,1.0,1.0,15.00
2024-10-11 20:08:47.988,0.5432646,0.13219035,0.3501447,0.91159415,0.1994112,-0.1711956,0.30887175,0.23688008,0.7948363,0.24653918,0.28080872,0.32243833,0.1565919,-0.14119333,-0.24222599,0.064589,-0.14475177,-0.67248315,-0.51335275,0.1174116,836.08057,811.0989,799.41394,831.6484,884.83514,-0.21807861328125,0.08245849609375,0.98388671875,0.3887939453125,-2.654266357421875,0.171966552734375,1,1.0,1.0,1.0,1.0,15.00
2024-10-11 20:08:47.989,0.5432646,0.13219035,0.3501447,0.91159415,0.1994112,-0.1711956,0.30887175,0.23688008,0.7948363,0.24653918,0.28080872,0.32243833,0.1565919,-0.14119333,-0.24222599,0.064589,-0.14475177,-0.67248315,-0.51335275,0.1174116,827.2161,805.05493,799.81683,822.381,832.8571,-0.21807861328125,0.08245849609375,0.98388671875,0.3887939453125,-2.654266357421875,0.171966552734375,1,1.0,1.0,1.0,1.0,15.00
2024-10-11 20:08:47.989,0.5432646,0.13219035,0.3501447,0.91159415,0.1994112,-0.1711956,0.30887175,0.23688008,0.7948363,0.24653918,0.28080872,0.32243833,0.1565919,-0.14119333,-0.24222599,0.064589,-0.14475177,-0.67248315,-0.51335275,0.1174116,843.73627,806.26373,794.17584,823.9927,811.0989,-0.21807861328125,0.08245849609375,0.98388671875,0.3887939453125,-2.654266357421875,0.171966552734375,1,1.0,1.0,1.0,1.0,15.00
2024-10-11 20:08:47.990,0.5432646,0.13219035,0.3501447,0.91159415,0.1994112,-0.1711956,0.30887175,0.23688008,0.7948363,0.24653918,0.28080872,0.32243833,0.1565919,-0.14119333,-0.24222599,0.064589,-0.14475177,-0.67248315,-0.51335275,0.1174116,844.5421,801.8315,792.1612,837.6923,875.56775,-0.21807861328125,0.08245849609375,0.98388671875,0.3887939453125,-2.654266357421875,0.171966552734375,1,1.0,1.0,1.0,1.0,15.00
2024-10-11 20:08:47.990,0.5432646,0.13219035,0.3501447,0.91159415,0.1994112,-0.1711956,0.30887175,0.23688008,0.7948363,0.24653918,0.28080872,0.32243833,0.1565919,-0.14119333,-0.24222599,0.064589,-0.14475177,-0.67248315,-0.51335275,0.1174116,838.0952,794.9817,794.17584,843.3333,801.8315,-0.21807861328125,0.08245849609375,0.98388671875,0.3887939453125,-2.654266357421875,0.171966552734375,1,1.0,1.0,1.0,1.0,15.00
2024-10-11 20:08:47.991,0.5432646,0.13219035,0.3501447,0.91159415,0.1994112,-0.1711956,0.30887175,0.23688008,0.7948363,0.24653918,0.28080872,0.32243833,0.1565919,-0.14119333,-0.24222599,0.064589,-0.14475177,-0.67248315,-0.51335275,0.1174116,840.9158,799.81683,792.96704,839.304,745.0183,-0.21807861328125,0.08245849609375,0.98388671875,0.3887939453125,-2.654266357421875,0.171966552734375,1,1.0,1.0,1.0,1.0,15.00
2024-10-11 20:08:47.991,0.5432646,0.13219035,0.3501447,0.91159415,0.1994112,-0.1711956,0.30887175,0.23688008,0.7948363,0.24653918,0.28080872,0.32243833,0.1565919,-0.14119333,-0.24222599,0.064589,-0.14475177,-0.67248315,-0.51335275,0.1174116,848.1685,807.47253,792.1612,846.9597,875.16486,-0.21807861328125,0.08245849609375,0.98388671875,0.3887939453125,-2.654266357421875,0.171966552734375,1,1.0,1.0,1.0,1.0,15.00
2024-10-11 20:08:48.017,0.5432646,0.13219035,0.3501447,0.91159415,0.1994112,-0.1711956,0.30887175,0.23688008,0.7948363,0.24653918,0.28080872,0.32243833,0.1565919,-0.14119333,-0.24222599,0.064589,-0.14475177,-0.67248315,-0.51335275,0.1174116,859.45056,797.8022,788.1319,862.674,1183.4066,-0.2186279296875,0.07891845703125,0.982177734375,0.037384033203125,-1.7047119140625,-0.13458251953125,1,1.0,1.0,1.0,1.0,15.00
2024-10-11 20:08:48.018,0.5432646,0.13219035,0.3501447,0.91159415,0.1994112,-0.1711956,0.30887175,0.23688008,0.7948363,0.24653918,0.28080872,0.32243833,0.1565919,-0.14119333,-0.24222599,0.064589,-0.14475177,-0.67248315,-0.51335275,0.1174116,855.82416,793.36993,794.17584,865.09155,997.25275,-0.2186279296875,0.07891845703125,0.982177734375,0.037384033203125,-1.7047119140625,-0.13458251953125,1,1.0,1.0,1.0,1.0,15.00
2024-10-11 20:08:48.019,0.5432646,0.13219035,0.3501447,0.91159415,0.1994112,-0.1711956,0.30887175,0.23688008,0.7948363,0.24653918,0.28080872,0.32243833,0.1565919,-0.14119333,-0.24222599,0.064589,-0.14475177,-0.67248315,-0.51335275,0.1174116,863.47986,802.6374,798.20514,864.68866,697.47253,-0.2186279296875,0.07891845703125,0.982177734375,0.037384033203125,-1.7047119140625,-0.13458251953125,1,1.0,1.0,1.0,1.0,15.00
2024-10-11 20:08:48.019,0.5432646,0.12806734,0.33240986,0.91159415,0.1994112,-0.1559287,0.31018707,0.23688008,0.7948363,0.24653918,0.2787742,0.32243833,0.1565919,-0.14185423,-0.24328254,0.064589,-0.14475177,-0.6643432,-0.52043843,0.1174116,863.47986,798.60803,790.14655,854.61536,817.5458,-0.2186279296875,0.07891845703125,0.982177734375,0.037384033203125,-1.7047119140625,-0.13458251953125,1,1.0,1.0,1.0,1.0,15.00
2024-10-11 20:08:48.024,0.5432646,0.12806734,0.33240986,0.91159415,0.1994112,-0.1559287,0.31018707,0.23688008,0.7948363,0.24653918,0.2787742,0.32243833,0.1565919,-0.14185423,-0.24328254,0.064589,-0.14475177,-0.6643432,-0.52043843,0.1174116,862.674,797.3993,786.9231,854.21246,746.63007,-0.2186279296875,0.07891845703125,0.982177734375,0.037384033203125,-1.7047119140625,-0.13458251953125,1,1.0,1.0,1.0,1.0,15.00
2024-10-11 20:08:48.024,0.5432646,0.12806734,0.33240986,0.91159415,0.1994112,-0.1559287,0.31018707,0.23688008,0.7948363,0.24653918,0.2787742,0.32243833,0.1565919,-0.14185423,-0.24328254,0.064589,-0.14475177,-0.6643432,-0.52043843,0.1174116,865.89746,792.96704,786.52014,858.6447,669.2674,-0.2186279296875,0.07891845703125,0.982177734375,0.037384033203125,-1.7047119140625,-0.13458251953125,1,1.0,1.0,1.0,1.0,15.00
2024-10-11 20:08:48.025,0.5432646,0.12806734,0.33240986,0.91159415,0.1994112,-0.1559287,0.31018707,0.23688008,0.7948363,0.24653918,0.2787742,0.32243833,0.1565919,-0.14185423,-0.24328254,0.064589,-0.14475177,-0.6643432,-0.52043843,0.1174116,867.9121,788.1319,786.9231,860.65936,774.83514,-0.2186279296875,0.07891845703125,0.982177734375,0.037384033203125,-1.7047119140625,-0.13458251953125,1,1.0,1.0,1.0,1.0,15.00
2024-10-11 20:08:48.025,0.5432646,0.12806734,0.33240986,0.91159415,0.1994112,-0.1559287,0.31018707,0.23688008,0.7948363,0.24653918,0.2787742,0.32243833,0.1565919,-0.14185423,-0.24328254,0.064589,-0.14475177,-0.6643432,-0.52043843,0.1174116,875.9707,796.5934,785.31134,867.50916,848.97437,-0.2186279296875,0.07891845703125,0.982177734375,0.037384033203125,-1.7047119140625,-0.13458251953125,1,1.0,1.0,1.0,1.0,15.00
2024-10-11 20:08:48.026,0.5432646,0.12806734,0.33240986,0.91159415,0.1994112,-0.1559287,0.31018707,0.23688008,0.7948363,0.24653918,0.2787742,0.32243833,0.1565919,-0.14185423,-0.24328254,0.064589,-0.14475177,-0.6643432,-0.52043843,0.1174116,876.3736,794.9817,788.1319,858.6447,812.71063,-0.2186279296875,0.07891845703125,0.982177734375,0.037384033203125,-1.7047119140625,-0.13458251953125,1,1.0,1.0,1.0,1.0,15.00
2024-10-11 20:08:48.026,0.5432646,0.12806734,0.33240986,0.91159415,0.1994112,-0.1559287,0.31018707,0.23688008,0.7948363,0.24653918,0.2787742,0.32243833,0.1565919,-0.14185423,-0.24328254,0.064589,-0.14475177,-0.6643432,-0.52043843,0.1174116,877.98535,794.9817,786.9231,853.4066,654.35895,-0.2186279296875,0.07891845703125,0.982177734375,0.037384033203125,-1.7047119140625,-0.13458251953125,1,1.0,1.0,1.0,1.0,15.00
2024-10-11 20:08:48.027,0.5432646,0.12806734,0.33240986,0.91159415,0.1994112,-0.1559287,0.31018707,0.23688008,0.7948363,0.24653918,0.2787742,0.32243833,0.1565919,-0.14185423,-0.24328254,0.064589,-0.14475177,-0.6643432,-0.52043843,0.1174116,890.07324,797.3993,784.10254,868.315,672.8938,-0.2186279296875,0.07891845703125,0.982177734375,0.037384033203125,-1.7047119140625,-0.13458251953125,1,1.0,1.0,1.0,1.0,15.00
2024-10-11 20:08:48.028,0.5432646,0.12806734,0.33240986,0.91159415,0.1994112,-0.1559287,0.31018707,0.23688008,0.7948363,0.24653918,0.2787742,0.32243833,0.1565919,-0.14185423,-0.24328254,0.064589,-0.14475177,-0.6643432,-0.52043843,0.1174116,886.8498,788.1319,792.1612,875.16486,898.93774,-0.2186279296875,0.07891845703125,0.982177734375,0.037384033203125,-1.7047119140625,-0.13458251953125,1,1.0,1.0,1.0,1.0,15.00
2024-10-11 20:08:48.029,0.5432646,0.12806734,0.33240986,0.91159415,0.1994112,-0.1559287,0.31018707,0.23688008,0.7948363,0.24653918,0.2787742,0.32243833,0.1565919,-0.14185423,-0.24328254,0.064589,-0.14475177,-0.6643432,-0.52043843,0.1174116,875.9707,791.75824,792.5641,872.3443,859.85345,-0.227294921875,0.08343505859375,0.98663330078125,0.61309814453125,-0.919647216796875,0.0897216796875,1,1.0,1.0,1.0,1.0,15.00
2024-10-11 20:08:48.029,0.5432646,0.12806734,0.33240986,0.91159415,0.1994112,-0.1559287,0.31018707,0.23688008,0.7948363,0.24653918,0.2787742,0.32243833,0.1565919,-0.14185423,-0.24328254,0.064589,-0.14475177,-0.6643432,-0.52043843,0.1174116,876.3736,799.81683,787.72894,867.1062,665.64105,-0.227294921875,0.08343505859375,0.98663330078125,0.61309814453125,-0.919647216796875,0.0897216796875,1,1.0,1.0,1.0,1.0,15.00
2024-10-11 20:08:48.030,0.5432646,0.12806734,0.33240986,0.91159415,0.1994112,-0.1559287,0.31018707,0.23688008,0.7948363,0.24653918,0.2787742,0.32243833,0.1565919,-0.14185423,-0.24328254,0.064589,-0.14475177,-0.6643432,-0.52043843,0.1174116,873.1502,795.38464,789.7436,860.2564,671.28204,-0.227294921875,0.08343505859375,0.98663330078125,0.61309814453125,-0.919647216796875,0.0897216796875,1,1.0,1.0,1.0,1.0,15.00
2024-10-11 20:08:48.030,0.5432646,0.12806734,0.33240986,0.91159415,0.1994112,-0.1559287,0.31018707,0.23688008,0.7948363,0.24653918,0.2787742,0.32243833,0.1565919,-0.14185423,-0.24328254,0.064589,-0.14475177,-0.6643432,-0.52043843,0.1174116,873.1502,792.5641,789.34064,864.2857,898.5348,-0.227294921875,0.08343505859375,0.98663330078125,0.61309814453125,-0.919647216796875,0.0897216796875,1,1.0,1.0,1.0,1.0,15.00
2024-10-11 20:08:48.031,0.5432646,0.12806734,0.33240986,0.91159415,0.1994112,-0.1559287,0.31018707,0.23688008,0.7948363,0.24653918,0.2787742,0.32243833,0.1565919,-0.14185423,-0.24328254,0.064589,-0.14475177,-0.6643432,-0.52043843,0.1174116,872.3443,796.99634,786.9231,865.4945,921.9048,-0.227294921875,0.08343505859375,0.98663330078125,0.61309814453125,-0.919647216796875,0.0897216796875,1,1.0,1.0,1.0,1.0,15.00
2024-10-11 20:08:48.031,0.5432646,0.12806734,0.33240986,0.91159415,0.1994112,-0.1559287,0.31018707,0.23688008,0.7948363,0.24653918,0.2787742,0.32243833,0.1565919,-0.14185423,-0.24328254,0.064589,-0.14475177,-0.6643432,-0.52043843,0.1174116,867.1062,798.60803,788.5348,863.47986,784.10254,-0.227294921875,0.08343505859375,0.98663330078125,0.61309814453125,-0.919647216796875,0.0897216796875,1,1.0,1.0,1.0,1.0,15.00
2024-10-11 20:08:48.032,0.5432646,0.12806734,0.33240986,0.91159415,0.1994112,-0.1559287,0.31018707,0.23688008,0.7948363,0.24653918,0.2787742,0.32243833,0.1565919,-0.14185423,-0.24328254,0.064589,-0.14475177,-0.6643432,-0.52043843,0.1174116,869.92676,793.36993,790.14655,864.68866,882.4176,-0.227294921875,0.08343505859375,0.98663330078125,0.61309814453125,-0.919647216796875,0.0897216796875,1,1.0,1.0,1.0,1.0,15.00
2024-10-11 20:08:48.032,0.5432646,0.12806734,0.33240986,0.91159415,0.1994112,-0.1559287,0.31018707,0.23688008,0.7948363,0.24653918,0.2787742,0.32243833,0.1565919,-0.14185423,-0.24328254,0.064589,-0.14475177,-0.6643432,-0.52043843,0.1174116,878.3883,790.9524,790.9524,871.13556,1085.0916,-0.227294921875,0.08343505859375,0.98663330078125,0.61309814453125,-0.919647216796875,0.0897216796875,1,1.0,1.0,1.0,1.0,15.00
2024-10-11 20:08:48.033,0.5432646,0.12806734,0.33240986,0.91159415,0.1994112,-0.1559287,0.31018707,0.23688008,0.7948363,0.24653918,0.2787742,0.32243833,0.1565919,-0.14185423,-0.24328254,0.064589,-0.14475177,-0.6643432,-0.52043843,0.1174116,880.0,796.99634,794.17584,874.35895,888.0586,-0.227294921875,0.08343505859375,0.98663330078125,0.61309814453125,-0.919647216796875,0.0897216796875,1,1.0,1.0,1.0,1.0,15.00
2024-10-11 20:08:48.033,0.5432646,0.12806734,0.33240986,0.91159415,0.1994112,-0.1559287,0.31018707,0.23688008,0.7948363,0.24653918,0.2787742,0.32243833,0.1565919,-0.14185423,-0.24328254,0.064589,-0.14475177,-0.6643432,-0.52043843,0.1174116,867.1062,801.8315,790.14655,862.27106,716.8132,-0.227294921875,0.08343505859375,0.98663330078125,0.61309814453125,-0.919647216796875,0.0897216796875,1,1.0,1.0,1.0,1.0,15.00
2024-10-11 20:08:48.034,0.5432646,0.12806734,0.33240986,0.91159415,0.1994112,-0.1559287,0.31018707,0.23688008,0.7948363,0.24653918,0.2787742,0.32243833,0.1565919,-0.14185423,-0.24328254,0.064589,-0.14475177,-0.6643432,-0.52043843,0.1174116,855.82416,792.96704,789.7436,848.97437,825.2015,-0.227294921875,0.08343505859375,0.98663330078125,0.61309814453125,-0.919647216796875,0.0897216796875,1,1.0,1.0,1.0,1.0,15.00
2024-10-11 20:08:48.035,0.5432646,0.12806734,0.33240986,0.91159415,0.1994112,-0.1559287,0.31018707,0.23688008,0.7948363,0.24653918,0.2787742,0.32243833,0.1565919,-0.14185423,-0.24328254,0.064589,-0.14475177,-0.6643432,-0.52043843,0.1174116,858.6447,791.75824,789.7436,858.24176,1035.9341,-0.227294921875,0.08343505859375,0.98663330078125,0.61309814453125,-0.919647216796875,0.0897216796875,1,1.0,1.0,1.0,1.0,15.00
2024-10-11 20:08:48.087,0.5432646,0.12806734,0.33240986,0.91159415,0.1994112,-0.1559287,0.31018707,0.23688008,0.7948363,0.24653918,0.2787742,0.32243833,0.1565919,-0.14185423,-0.24328254,0.064589,-0.14475177,-0.6643432,-0.52043843,0.1174116,863.47986,791.75824,793.36993,861.8681,805.8608,-0.2247314453125,0.0799560546875,0.978515625,0.785064697265625,-2.624359130859375,-3.12530517578125,1,1.0,1.0,1.0,1.0,15.00
2024-10-11 20:08:48.088,0.5432646,0.12806734,0.33240986,0.91159415,0.1994112,-0.1559287,0.31018707,0.23688008,0.7948363,0.24653918,0.2787742,0.32243833,0.1565919,-0.14185423,-0.24328254,0.064589,-0.14475177,-0.6643432,-0.52043843,0.1174116,861.06226,782.0879,799.011,862.27106,580.2198,-0.2247314453125,0.0799560546875,0.978515625,0.785064697265625,-2.624359130859375,-3.12530517578125,1,1.0,1.0,1.0,1.0,15.00
2024-10-11 20:08:48.089,0.5432646,0.12806734,0.33240986,0.91159415,0.1994112,-0.1559287,0.31018707,0.23688008,0.7948363,0.24653918,0.2787742,0.32243833,0.1565919,-0.14185423,-0.24328254,0.064589,-0.14475177,-0.6643432,-0.52043843,0.1174116,859.45056,790.14655,793.36993,863.0769,668.86444,-0.2247314453125,0.0799560546875,0.978515625,0.785064697265625,-2.624359130859375,-3.12530517578125,1,1.0,1.0,1.0,1.0,15.00
2024-10-11 20:08:48.089,0.5432646,0.12806734,0.33240986,0.91159415,0.1994112,-0.1559287,0.31018707,0.23688008,0.7948363,0.24653918,0.2787742,0.32243833,0.1565919,-0.14185423,-0.24328254,0.064589,-0.14475177,-0.6643432,-0.52043843,0.1174116,855.82416,796.1905,791.3553,849.3773,695.8608,-0.2247314453125,0.0799560546875,0.978515625,0.785064697265625,-2.624359130859375,-3.12530517578125,1,1.0,1.0,1.0,1.0,15.00
2024-10-11 20:08:48.090,0.5432646,0.12806734,0.33240986,0.91159415,0.1994112,-0.1559287,0.31018707,0.23688008,0.7948363,0.24653918,0.2787742,0.32243833,0.1565919,-0.14185423,-0.24328254,0.064589,-0.14475177,-0.6643432,-0.52043843,0.1174116,853.00366,794.17584,794.9817,846.9597,634.21246,-0.2247314453125,0.0799560546875,0.978515625,0.785064697265625,-2.624359130859375,-3.12530517578125,1,1.0,1.0,1.0,1.0,15.00
2024-10-11 20:08:48.091,0.5432646,0.12428893,0.32083932,0.91159415,0.1994112,-0.13673563,0.31555787,0.23688008,0.7948363,0.24653918,0.2787742,0.32243833,0.1565919,-0.14214823,-0.24501164,0.064589,-0.14475177,-0.64321864,-0.5311896,0.1174116,856.63007,795.38464,794.57874,852.6007,693.8461,-0.2247314453125,0.0799560546875,0.978515625,0.785064697265625,-2.624359130859375,-3.12530517578125,1,1.0,1.0,1.0,1.0,15.00
2024-10-11 20:08:48.095,0.5432646,0.12428893,0.32083932,0.91159415,0.1994112,-0.13673563,0.31555787,0.23688008,0.7948363,0.24653918,0.2787742,0.32243833,0.1565919,-0.14214823,-0.24501164,0.064589,-0.14475177,-0.64321864,-0.5311896,0.1174116,858.6447,794.57874,797.3993,850.18317,882.01465,-0.2247314453125,0.0799560546875,0.978515625,0.785064697265625,-2.624359130859375,-3.12530517578125,1,1.0,1.0,1.0,1.0,15.00
2024-10-11 20:08:48.096,0.5432646,0.12428893,0.32083932,0.91159415,0.1994112,-0.13673563,0.31555787,0.23688008,0.7948363,0.24653918,0.2787742,0.32243833,0.1565919,-0.14214823,-0.24501164,0.064589,-0.14475177,-0.64321864,-0.5311896,0.1174116,853.8095,786.9231,799.81683,856.2271,1187.4359,-0.2247314453125,0.0799560546875,0.978515625,0.785064697265625,-2.624359130859375,-3.12530517578125,1,1.0,1.0,1.0,1.0,15.00
2024-10-11 20:08:48.096,0.5432646,0.12428893,0.32083932,0.91159415,0.1994112,-0.13673563,0.31555787,0.23688008,0.7948363,0.24653918,0.2787742,0.32243833,0.1565919,-0.14214823,-0.24501164,0.064589,-0.14475177,-0.64321864,-0.5311896,0.1174116,851.39197,788.5348,796.1905,855.0183,1141.5018,-0.2247314453125,0.0799560546875,0.978515625,0.785064697265625,-2.624359130859375,-3.12530517578125,1,1.0,1.0,1.0,1.0,15.00
2024-10-11 20:08:48.097,0.5432646,0.12428893,0.32083932,0.91159415,0.1994112,-0.13673563,0.31555787,0.23688008,0.7948363,0.24653918,0.2787742,0.32243833,0.1565919,-0.14214823,-0.24501164,0.064589,-0.14475177,-0.64321864,-0.5311896,0.1174116,849.7802,798.60803,793.36993,840.5128,794.17584,-0.2247314453125,0.0799560546875,0.978515625,0.785064697265625,-2.624359130859375,-3.12530517578125,1,1.0,1.0,1.0,1.0,15.00
2024-10-11 20:08:48.098,0.5432646,0.12428893,0.32083932,0.91159415,0.1994112,-0.13673563,0.31555787,0.23688008,0.7948363,0.24653918,0.2787742,0.32243833,0.1565919,-0.14214823,-0.24501164,0.064589,-0.14475177,-0.64321864,-0.5311896,0.1174116,839.707,794.57874,792.5641,836.8865,761.13556,-0.2247314453125,0.0799560546875,0.978515625,0.785064697265625,-2.624359130859375,-3.12530517578125,1,1.0,1.0,1.0,1.0,15.00
2024-10-11 20:08:48.098,0.5432646,0.12428893,0.32083932,0.91159415,0.1994112,-0.13673563,0.31555787,0.23688008,0.7948363,0.24653918,0.2787742,0.32243833,0.1565919,-0.14214823,-0.24501164,0.064589,-0.14475177,-0.64321864,-0.5311896,0.1174116,837.6923,792.5641,795.38464,839.707,719.6337,-0.2247314453125,0.0799560546875,0.978515625,0.785064697265625,-2.624359130859375,-3.12530517578125,1,1.0,1.0,1.0,1.0,15.00
2024-10-11 20:08:48.121,0.5432646,0.12428893,0.32083932,0.91159415,0.1994112,-0.13673563,0.31555787,0.23688008,0.7948363,0.24653918,0.2787742,0.32243833,0.1565919,-0.14214823,-0.24501164,0.064589,-0.14475177,-0.64321864,-0.5311896,0.1174116,845.34796,798.20514,797.3993,842.52747,660.0,-0.21380615234375,0.08428955078125,0.986328125,0.59814453125,-1.906585693359375,-4.134674072265625,1,1.0,1.0,1.0,1.0,15.00
2024-10-11 20:08:48.121,0.5432646,0.12428893,0.32083932,0.91159415,0.1994112,-0.13673563,0.31555787,0.23688008,0.7948363,0.24653918,0.2787742,0.32243833,0.1565919,-0.14214823,-0.24501164,0.064589,-0.14475177,-0.64321864,-0.5311896,0.1174116,844.5421,801.4286,795.78754,838.9011,697.47253,-0.21380615234375,0.08428955078125,0.986328125,0.59814453125,-1.906585693359375,-4.134674072265625,1,1.0,1.0,1.0,1.0,15.00
2024-10-11 20:08:48.122,0.5432646,0.12428893,0.32083932,0.91159415,0.1994112,-0.13673563,0.31555787,0.23688008,0.7948363,0.24653918,0.2787742,0.32243833,0.1565919,-0.14214823,-0.24501164,0.064589,-0.14475177,-0.64321864,-0.5311896,0.1174116,835.6777,796.5934,797.8022,832.0513,841.7216,-0.21380615234375,0.08428955078125,0.986328125,0.59814453125,-1.906585693359375,-4.134674072265625,1,1.0,1.0,1.0,1.0,15.00
2024-10-11 20:08:48.123,0.5432646,0.12428893,0.32083932,0.91159415,0.1994112,-0.13673563,0.31555787,0.23688008,0.7948363,0.24653918,0.2787742,0.32243833,0.1565919,-0.14214823,-0.24501164,0.064589,-0.14475177,-0.64321864,-0.5311896,0.1174116,836.4835,794.9817,798.20514,826.0073,819.15753,-0.21380615234375,0.08428955078125,0.986328125,0.59814453125,-1.906585693359375,-4.134674072265625,1,1.0,1.0,1.0,1.0,15.00
2024-10-11 20:08:48.123,0.5432646,0.12428893,0.32083932,0.91159415,0.1994112,-0.13673563,0.31555787,0.23688008,0.7948363,0.24653918,0.2787742,0.32243833,0.1565919,-0.14214823,-0.24501164,0.064589,-0.14475177,-0.64321864,-0.5311896,0.1174116,841.31866,799.41394,796.5934,821.978,683.7729,-0.21380615234375,0.08428955078125,0.986328125,0.59814453125,-1.906585693359375,-4.134674072265625,1,1.0,1.0,1.0,1.0,15.00
2024-10-11 20:08:48.124,0.5432646,0.12428893,0.32083932,0.91159415,0.1994112,-0.13673563,0.31555787,0.23688008,0.7948363,0.24653918,0.2787742,0.32243833,0.1565919,-0.14214823,-0.24501164,0.064589,-0.14475177,-0.64321864,-0.5311896,0.1174116,834.4689,799.81683,797.8022,823.9927,816.337,-0.21380615234375,0.08428955078125,0.986328125,0.59814453125,-1.906585693359375,-4.134674072265625,1,1.0,1.0,1.0,1.0,15.00
2024-10-11 20:08:48.124,0.5432646,0.12428893,0.32083932,0.91159415,0.1994112,-0.13673563,0.31555787,0.23688008,0.7948363,0.24653918,0.2787742,0.32243833,0.1565919,-0.14214823,-0.24501164,0.064589,-0.14475177,-0.64321864,-0.5311896,0.1174116,828.022,797.8022,795.38464,821.5751,1152.7839,-0.21380615234375,0.08428955078125,0.986328125,0.59814453125,-1.906585693359375,-4.134674072265625,1,1.0,1.0,1.0,1.0,15.00
2024-10-11 20:08:48.125,0.5432646,0.12428893,0.32083932,0.91159415,0.1994112,-0.13673563,0.31555787,0.23688008,0.7948363,0.24653918,0.2787742,0.32243833,0.1565919,-0.14214823,-0.24501164,0.064589,-0.14475177,-0.64321864,-0.5311896,0.1174116,828.022,797.3993,799.011,820.3663,813.1135,-0.21380615234375,0.08428955078125,0.986328125,0.59814453125,-1.906585693359375,-4.134674072265625,1,1.0,1.0,1.0,1.0,15.00
2024-10-11 20:08:48.125,0.5432646,0.12428893,0.32083932,0.91159415,0.1994112,-0.13673563,0.31555787,0.23688008,0.7948363,0.24653918,0.2787742,0.32243833,0.1565919,-0.14214823,-0.24501164,0.064589,-0.14475177,-0.64321864,-0.5311896,0.1174116,828.022,799.011,802.6374,827.2161,487.94873,-0.21380615234375,0.08428955078125,0.986328125,0.59814453125,-1.906585693359375,-4.134674072265625,1,1.0,1.0,1.0,1.0,15.00
2024-10-11 20:08:48.126,0.5432646,0.12428893,0.32083932,0.91159415,0.1994112,-0.13673563,0.31555787,0.23688008,0.7948363,0.24653918,0.2787742,0.32243833,0.1565919,-0.14214823,-0.24501164,0.064589,-0.14475177,-0.64321864,-0.5311896,0.1174116,824.3956,799.81683,800.2198,832.0513,635.0183,-0.21380615234375,0.08428955078125,0.986328125,0.59814453125,-1.906585693359375,-4.134674072265625,1,1.0,1.0,1.0,1.0,15.00
2024-10-11 20:08:48.126,0.5432646,0.12428893,0.32083932,0.91159415,0.1994112,-0.13673563,0.31555787,0.23688008,0.7948363,0.24653918,0.2787742,0.32243833,0.1565919,-0.14214823,-0.24501164,0.064589,-0.14475177,-0.64321864,-0.5311896,0.1174116,830.0366,796.99634,802.6374,829.2308,743.8095,-0.21380615234375,0.08428955078125,0.986328125,0.59814453125,-1.906585693359375,-4.134674072265625,1,1.0,1.0,1.0,1.0,15.00
2024-10-11 20:08:48.127,0.5432646,0.12428893,0.32083932,0.91159415,0.1994112,-0.13673563,0.31555787,0.23688008,0.7948363,0.24653918,0.2787742,0.32243833,0.1565919,-0.14214823,-0.24501164,0.064589,-0.14475177,-0.64321864,-0.5311896,0.1174116,831.2454,793.7729,798.60803,821.5751,682.5641,-0.21380615234375,0.08428955078125,0.986328125,0.59814453125,-1.906585693359375,-4.134674072265625,1,1.0,1.0,1.0,1.0,15.00
2024-10-11 20:08:48.151,0.5432646,0.12428893,0.32083932,0.91159415,0.1994112,-0.13673563,0.31555787,0.23688008,0.7948363,0.24653918,0.2787742,0.32243833,0.1565919,-0.14214823,-0.24501164,0.064589,-0.14475177,-0.64321864,-0.5311896,0.1174116,832.4542,795.78754,799.011,820.7692,593.5165,-0.21380615234375,0.08428955078125,0.986328125,0.59814453125,-1.906585693359375,-4.134674072265625,1,1.0,1.0,1.0,1.0,15.00
2024-10-11 20:08:48.152,0.5432646,0.12428893,0.32083932,0.91159415,0.1994112,-0.13673563,0.31555787,0.23688008,0.7948363,0.24653918,0.2787742,0.32243833,0.1565919,-0.14214823,-0.24501164,0.064589,-0.14475177,-0.64321864,-0.5311896,0.1174116,831.2454,797.8022,800.2198,820.3663,818.7546,-0.21380615234375,0.08428955078125,0.986328125,0.59814453125,-1.906585693359375,-4.134674072265625,1,1.0,1.0,1.0,1.0,15.00
2024-10-11 20:08:48.152,0.5432646,0.12428893,0.32083932,0.91159415,0.1994112,-0.13673563,0.31555787,0.23688008,0.7948363,0.24653918,0.2787742,0.32243833,0.1565919,-0.14214823,-0.24501164,0.064589,-0.14475177,-0.64321864,-0.5311896,0.1174116,825.2015,797.3993,797.3993,830.0366,1165.6776,-0.21380615234375,0.08428955078125,0.986328125,0.59814453125,-1.906585693359375,-4.134674072265625,1,1.0,1.0,1.0,1.0,15.00
2024-10-11 20:08:48.153,0.5432646,0.12428893,0.32083932,0.91159415,0.1994112,-0.13673563,0.31555787,0.23688008,0.7948363,0.24653918,0.2787742,0.32243833,0.1565919,-0.14214823,-0.24501164,0.064589,-0.14475177,-0.64321864,-0.5311896,0.1174116,829.6337,798.20514,800.6227,830.0366,1051.6483,-0.21380615234375,0.08428955078125,0.986328125,0.59814453125,-1.906585693359375,-4.134674072265625,1,1.0,1.0,1.0,1.0,15.00
2024-10-11 20:08:48.154,0.5432646,0.12428893,0.32083932,0.91159415,0.1994112,-0.13673563,0.31555787,0.23688008,0.7948363,0.24653918,0.2787742,0.32243833,0.1565919,-0.14214823,-0.24501164,0.064589,-0.14475177,-0.64321864,-0.5311896,0.1174116,834.87177,801.4286,803.0403,821.978,831.6484,-0.21380615234375,0.08428955078125,0.986328125,0.59814453125,-1.906585693359375,-4.134674072265625,1,1.0,1.0,1.0,1.0,15.00
2024-10-11 20:08:48.154,0.5432646,0.12428893,0.32083932,0.91159415,0.1994112,-0.13673563,0.31555787,0.23688008,0.7948363,0.24653918,0.2787742,0.32243833,0.1565919,-0.14214823,-0.24501164,0.064589,-0.14475177,-0.64321864,-0.5311896,0.1174116,829.2308,802.6374,802.23444,826.4103,890.07324,-0.21380615234375,0.08428955078125,0.986328125,0.59814453125,-1.906585693359375,-4.134674072265625,1,1.0,1.0,1.0,1.0,15.00
2024-10-11 20:08:48.155,0.5432646,0.12428893,0.32083932,0.91159415,0.1994112,-0.13673563,0.31555787,0.23688008,0.7948363,0.24653918,0.2787742,0.32243833,0.1565919,-0.14214823,-0.24501164,0.064589,-0.14475177,-0.64321864,-0.5311896,0.1174116,817.9487,799.41394,802.6374,830.4396,1242.6373,-0.21380615234375,0.08428955078125,0.986328125,0.59814453125,-1.906585693359375,-4.134674072265625,1,1.0,1.0,1.0,1.0,15.00
2024-10-11 20:08:48.155,0.5432646,0.13458589,0.33086005,0.91159415,0.1994112,-0.11372355,0.33195636,0.23688008,0.7948363,0.24653918,0.2787742,0.32243833,0.1565919,-0.14052162,-0.25108,0.064589,-0.14475177,-0.6082128,-0.5442728,0.1174116,819.9634,803.44324,807.8755,823.9927,998.0586,-0.21380615234375,0.08428955078125,0.986328125,0.59814453125,-1.906585693359375,-4.134674072265625,1,1.0,1.0,1.0,1.0,15.00
2024-10-11 20:08:48.159,0.5432646,0.13458589,0.33086005,0.91159415,0.1994112,-0.11372355,0.33195636,0.23688008,0.7948363,0.24653918,0.2787742,0.32243833,0.1565919,-0.14052162,-0.25108,0.064589,-0.14475177,-0.6082128,-0.5442728,0.1174116,818.7546,803.44324,807.8755,818.7546,569.7436,-0.21380615234375,0.08428955078125,0.986328125,0.59814453125,-1.906585693359375,-4.134674072265625,1,1.0,1.0,1.0,1.0,15.00
2024-10-11 20:08:48.160,0.5432646,0.13458589,0.33086005,0.91159415,0.1994112,-0.11372355,0.33195636,0.23688008,0.7948363,0.24653918,0.2787742,0.32243833,0.1565919,-0.14052162,-0.25108,0.064589,-0.14475177,-0.6082128,-0.5442728,0.1174116,809.4872,797.3993,803.8461,819.15753,699.4872,-0.21380615234375,0.08428955078125,0.986328125,0.59814453125,-1.906585693359375,-4.134674072265625,1,1.0,1.0,1.0,1.0,15.00
2024-10-11 20:08:48.160,0.5432646,0.13458589,0.33086005,0.91159415,0.1994112,-0.11372355,0.33195636,0.23688008,0.7948363,0.24653918,0.2787742,0.32243833,0.1565919,-0.14052162,-0.25108,0.064589,-0.14475177,-0.6082128,-0.5442728,0.1174116,810.293,798.60803,804.65204,817.9487,757.1062,-0.21380615234375,0.08428955078125,0.986328125,0.59814453125,-1.906585693359375,-4.134674072265625,1,1.0,1.0,1.0,1.0,15.00
2024-10-11 20:08:48.161,0.5432646,0.13458589,0.33086005,0.91159415,0.1994112,-0.11372355,0.33195636,0.23688008,0.7948363,0.24653918,0.2787742,0.32243833,0.1565919,-0.14052162,-0.25108,0.064589,-0.14475177,-0.6082128,-0.5442728,0.1174116,813.1135,800.6227,803.8461,814.3223,647.1062,-0.21380615234375,0.08428955078125,0.986328125,0.59814453125,-1.906585693359375,-4.134674072265625,1,1.0,1.0,1.0,1.0,15.00
2024-10-11 20:08:48.218,0.5432646,0.13458589,0.33086005,0.91159415,0.1994112,-0.11372355,0.33195636,0.23688008,0.7948363,0.24653918,0.2787742,0.32243833,0.1565919,-0.14052162,-0.25108,0.064589,-0.14475177,-0.6082128,-0.5442728,0.1174116,809.0842,799.81683,805.05493,813.91943,637.8388,-0.21502685546875,0.08050537109375,0.98016357421875,-0.186920166015625,-1.15142822265625,-2.504730224609375,1,1.0,1.0,1.0,1.0,15.00
2024-10-11 20:08:48.219,0.5432646,0.13458589,0.33086005,0.91159415,0.1994112,-0.11372355,0.33195636,0.23688008,0.7948363,0.24653918,0.2787742,0.32243833,0.1565919,-0.14052162,-0.25108,0.064589,-0.14475177,-0.6082128,-0.5442728,0.1174116,811.0989,787.72894,812.3077,816.7399,627.76556,-0.21502685546875,0.08050537109375,0.98016357421875,-0.186920166015625,-1.15142822265625,-2.504730224609375,1,1.0,1.0,1.0,1.0,15.00
2024-10-11 20:08:48.220,0.5432646,0.13458589,0.33086005,0.91159415,0.1994112,-0.11372355,0.33195636,0.23688008,0.7948363,0.24653918,0.2787742,0.32243833,0.1565919,-0.14052162,-0.25108,0.064589,-0.14475177,-0.6082128,-0.5442728,0.1174116,819.15753,788.93774,806.6667,819.15753,635.0183,-0.21502685546875,0.08050537109375,0.98016357421875,-0.186920166015625,-1.15142822265625,-2.504730224609375,1,1.0,1.0,1.0,1.0,15.00
2024-10-11 20:08:48.220,0.5432646,0.13458589,0.33086005,0.91159415,0.1994112,-0.11372355,0.33195636,0.23688008,0.7948363,0.24653918,0.2787742,0.32243833,0.1565919,-0.14052162,-0.25108,0.064589,-0.14475177,-0.6082128,-0.5442728,0.1174116,820.7692,806.26373,803.0403,823.5897,700.293,-0.21502685546875,0.08050537109375,0.98016357421875,-0.186920166015625,-1.15142822265625,-2.504730224609375,1,1.0,1.0,1.0,1.0,15.00
2024-10-11 20:08:48.221,0.5432646,0.13458589,0.33086005,0.91159415,0.1994112,-0.11372355,0.33195636,0.23688008,0.7948363,0.24653918,0.2787742,0.32243833,0.1565919,-0.14052162,-0.25108,0.064589,-0.14475177,-0.6082128,-0.5442728,0.1174116,821.5751,807.0696,807.8755,826.4103,761.13556,-0.21502685546875,0.08050537109375,0.98016357421875,-0.186920166015625,-1.15142822265625,-2.504730224609375,1,1.0,1.0,1.0,1.0,15.00
2024-10-11 20:08:48.221,0.5432646,0.13458589,0.33086005,0.91159415,0.1994112,-0.11372355,0.33195636,0.23688008,0.7948363,0.24653918,0.2787742,0.32243833,0.1565919,-0.14052162,-0.25108,0.064589,-0.14475177,-0.6082128,-0.5442728,0.1174116,822.7839,803.0403,808.2784,823.5897,983.95605,-0.21502685546875,0.08050537109375,0.98016357421875,-0.186920166015625,-1.15142822265625,-2.504730224609375,1,1.0,1.0,1.0,1.0,15.00
2024-10-11 20:08:48.222,0.5432646,0.13458589,0.33086005,0.91159415,0.1994112,-0.11372355,0.33195636,0.23688008,0.7948363,0.24653918,0.2787742,0.32243833,0.1565919,-0.14052162,-0.25108,0.064589,-0.14475177,-0.6082128,-0.5442728,0.1174116,826.8132,806.6667,811.9048,826.0073,1020.6227,-0.21502685546875,0.08050537109375,0.98016357421875,-0.186920166015625,-1.15142822265625,-2.504730224609375,1,1.0,1.0,1.0,1.0,15.00
2024-10-11 20:08:48.222,0.5432646,0.13458589,0.33086005,0.91159415,0.1994112,-0.11372355,0.33195636,0.23688008,0.7948363,0.24653918,0.2787742,0.32243833,0.1565919,-0.14052162,-0.25108,0.064589,-0.14475177,-0.6082128,-0.5442728,0.1174116,824.3956,807.8755,816.7399,830.0366,925.5311,-0.21502685546875,0.08050537109375,0.98016357421875,-0.186920166015625,-1.15142822265625,-2.504730224609375,1,1.0,1.0,1.0,1.0,15.00
2024-10-11 20:08:48.223,0.5432646,0.13458589,0.33086005,0.91159415,0.1994112,-0.11372355,0.33195636,0.23688008,0.7948363,0.24653918,0.2787742,0.32243833,0.1565919,-0.14052162,-0.25108,0.064589,-0.14475177,-0.6082128,-0.5442728,0.1174116,824.3956,801.8315,811.50183,830.84247,827.619,-0.21502685546875,0.08050537109375,0.98016357421875,-0.186920166015625,-1.15142822265625,-2.504730224609375,1,1.0,1.0,1.0,1.0,15.00
2024-10-11 20:08:48.223,0.5432646,0.13458589,0.33086005,0.91159415,0.1994112,-0.11372355,0.33195636,0.23688008,0.7948363,0.24653918,0.2787742,0.32243833,0.1565919,-0.14052162,-0.25108,0.064589,-0.14475177,-0.6082128,-0.5442728,0.1174116,826.8132,800.2198,809.0842,832.8571,962.6007,-0.21502685546875,0.08050537109375,0.98016357421875,-0.186920166015625,-1.15142822265625,-2.504730224609375,1,1.0,1.0,1.0,1.0,15.00
2024-10-11 20:08:48.224,0.5432646,0.13458589,0.33086005,0.91159415,0.1994112,-0.11372355,0.33195636,0.23688008,0.7948363,0.24653918,0.2787742,0.32243833,0.1565919,-0.14052162,-0.25108,0.064589,-0.14475177,-0.6082128,-0.5442728,0.1174116,827.619,803.0403,813.5165,834.4689,907.8022,-0.21502685546875,0.08050537109375,0.98016357421875,-0.186920166015625,-1.15142822265625,-2.504730224609375,1,1.0,1.0,1.0,1.0,15.00
2024-10-11 20:08:48.224,0.5432646,0.13458589,0.33086005,0.91159415,0.1994112,-0.11372355,0.33195636,0.23688008,0.7948363,0.24653918,0.2787742,0.32243833,0.1565919,-0.14052162,-0.25108,0.064589,-0.14475177,-0.6082128,-0.5442728,0.1174116,828.022,803.44324,810.293,829.6337,694.65204,-0.21502685546875,0.08050537109375,0.98016357421875,-0.186920166015625,-1.15142822265625,-2.504730224609375,1,1.0,1.0,1.0,1.0,15.00
2024-10-11 20:08:48.286,0.5432646,0.13458589,0.33086005,0.91159415,0.1994112,-0.11372355,0.33195636,0.23688008,0.7948363,0.24653918,0.2787742,0.32243833,0.1565919,-0.14052162,-0.25108,0.064589,-0.14475177,-0.6082128,-0.5442728,0.1174116,821.978,803.8461,807.0696,826.0073,757.50916,-0.21502685546875,0.08026123046875,0.98187255859375,0.246734619140625,-1.6748046875,-1.09161376953125,1,1.0,1.0,1.0,1.0,15.00
2024-10-11 20:08:48.287,0.5432646,0.13458589,0.33086005,0.91159415,0.1994112,-0.11372355,0.33195636,0.23688008,0.7948363,0.24653918,0.2787742,0.32243833,0.1565919,-0.14052162,-0.25108,0.064589,-0.14475177,-0.6082128,-0.5442728,0.1174116,821.5751,799.41394,806.26373,820.7692,771.6117,-0.21502685546875,0.08026123046875,0.98187255859375,0.246734619140625,-1.6748046875,-1.09161376953125,1,1.0,1.0,1.0,1.0,15.00
2024-10-11 20:08:48.287,0.5432646,0.13458589,0.33086005,0.91159415,0.1994112,-0.11372355,0.33195636,0.23688008,0.7948363,0.24653918,0.2787742,0.32243833,0.1565919,-0.14052162,-0.25108,0.064589,-0.14475177,-0.6082128,-0.5442728,0.1174116,816.7399,798.20514,806.26373,817.5458,700.696,-0.21502685546875,0.08026123046875,0.98187255859375,0.246734619140625,-1.6748046875,-1.09161376953125,1,1.0,1.0,1.0,1.0,15.00
2024-10-11 20:08:48.288,0.5432646,0.13458589,0.33086005,0.91159415,0.1994112,-0.11372355,0.33195636,0.23688008,0.7948363,0.24653918,0.2787742,0.32243833,0.1565919,-0.14052162,-0.25108,0.064589,-0.14475177,-0.6082128,-0.5442728,0.1174116,815.9341,799.011,804.2491,818.7546,711.5751,-0.21502685546875,0.08026123046875,0.98187255859375,0.246734619140625,-1.6748046875,-1.09161376953125,1,1.0,1.0,1.0,1.0,15.00
2024-10-11 20:08:48.288,0.5432646,0.13458589,0.33086005,0.91159415,0.1994112,-0.11372355,0.33195636,0.23688008,0.7948363,0.24653918,0.2787742,0.32243833,0.1565919,-0.14052162,-0.25108,0.064589,-0.14475177,-0.6082128,-0.5442728,0.1174116,816.337,797.8022,803.44324,822.381,859.0476,-0.21502685546875,0.08026123046875,0.98187255859375,0.246734619140625,-1.6748046875,-1.09161376953125,1,1.0,1.0,1.0,1.0,15.00
2024-10-11 20:08:48.289,0.5432646,0.13458589,0.33086005,0.91159415,0.1994112,-0.11372355,0.33195636,0.23688008,0.7948363,0.24653918,0.2787742,0.32243833,0.1565919,-0.14052162,-0.25108,0.064589,-0.14475177,-0.6082128,-0.5442728,0.1174116,812.3077,800.2198,800.2198,821.978,972.27106,-0.21502685546875,0.08026123046875,0.98187255859375,0.246734619140625,-1.6748046875,-1.09161376953125,1,1.0,1.0,1.0,1.0,15.00
2024-10-11 20:08:48.289,0.5432646,0.13458589,0.33086005,0.91159415,0.1994112,-0.11372355,0.33195636,0.23688008,0.7948363,0.24653918,0.2787742,0.32243833,0.1565919,-0.14052162,-0.25108,0.064589,-0.14475177,-0.6082128,-0.5442728,0.1174116,811.9048,802.6374,797.8022,817.9487,827.619,-0.21502685546875,0.08026123046875,0.98187255859375,0.246734619140625,-1.6748046875,-1.09161376953125,1,1.0,1.0,1.0,1.0,15.00
2024-10-11 20:08:48.290,0.5432646,0.13458589,0.33086005,0.91159415,0.1994112,-0.11372355,0.33195636,0.23688008,0.7948363,0.24653918,0.2787742,0.32243833,0.1565919,-0.14052162,-0.25108,0.064589,-0.14475177,-0.6082128,-0.5442728,0.1174116,817.1429,805.8608,805.8608,823.9927,754.68866,-0.21502685546875,0.08026123046875,0.98187255859375,0.246734619140625,-1.6748046875,-1.09161376953125,1,1.0,1.0,1.0,1.0,15.00
2024-10-11 20:08:48.290,0.5432646,0.13458589,0.33086005,0.91159415,0.1994112,-0.11372355,0.33195636,0.23688008,0.7948363,0.24653918,0.2787742,0.32243833,0.1565919,-0.14052162,-0.25108,0.064589,-0.14475177,-0.6082128,-0.5442728,0.1174116,821.5751,802.6374,805.05493,829.2308,925.12823,-0.21502685546875,0.08026123046875,0.98187255859375,0.246734619140625,-1.6748046875,-1.09161376953125,1,1.0,1.0,1.0,1.0,15.00
2024-10-11 20:08:48.291,0.5432646,0.16626848,0.37023437,0.91159415,0.1994112,-0.094294064,0.35935256,0.23688008,0.7948363,0.24653918,0.2787742,0.32243833,0.1565919,-0.14017431,-0.26251015,0.064589,-0.14475177,-0.56104374,-0.5580359,0.1174116,817.9487,796.1905,803.8461,830.0366,1229.7435,-0.21502685546875,0.08026123046875,0.98187255859375,0.246734619140625,-1.6748046875,-1.09161376953125,1,1.0,1.0,1.0,1.0,15.00
2024-10-11 20:08:48.295,0.5432646,0.16626848,0.37023437,0.91159415,0.1994112,-0.094294064,0.35935256,0.23688008,0.7948363,0.24653918,0.2787742,0.32243833,0.1565919,-0.14017431,-0.26251015,0.064589,-0.14475177,-0.56104374,-0.5580359,0.1174116,821.978,801.02563,805.8608,827.619,811.9048,-0.21502685546875,0.08026123046875,0.98187255859375,0.246734619140625,-1.6748046875,-1.09161376953125,1,1.0,1.0,1.0,1.0,15.00
2024-10-11 20:08:48.296,0.5432646,0.16626848,0.37023437,0.91159415,0.1994112,-0.094294064,0.35935256,0.23688008,0.7948363,0.24653918,0.2787742,0.32243833,0.1565919,-0.14017431,-0.26251015,0.064589,-0.14475177,-0.56104374,-0.5580359,0.1174116,826.8132,804.2491,802.23444,826.4103,572.1612,-0.21502685546875,0.08026123046875,0.98187255859375,0.246734619140625,-1.6748046875,-1.09161376953125,1,1.0,1.0,1.0,1.0,15.00
2024-10-11 20:08:48.296,0.5432646,0.16626848,0.37023437,0.91159415,0.1994112,-0.094294064,0.35935256,0.23688008,0.7948363,0.24653918,0.2787742,0.32243833,0.1565919,-0.14017431,-0.26251015,0.064589,-0.14475177,-0.56104374,-0.5580359,0.1174116,821.978,802.6374,803.0403,832.8571,849.3773,-0.20843505859375,0.078125,0.98663330078125,0.710296630859375,-1.74957275390625,-0.515899658203125,1,1.0,1.0,1.0,1.0,15.00
2024-10-11 20:08:48.297,0.5432646,0.16626848,0.37023437,0.91159415,0.1994112,-0.094294064,0.35935256,0.23688008,0.7948363,0.24653918,0.2787742,0.32243833,0.1565919,-0.14017431,-0.26251015,0.064589,-0.14475177,-0.56104374,-0.5580359,0.1174116,822.381,807.0696,805.8608,834.87177,877.1795,-0.20843505859375,0.078125,0.98663330078125,0.710296630859375,-1.74957275390625,-0.515899658203125,1,1.0,1.0,1.0,1.0,15.00
2024-10-11 20:08:48.297,0.5432646,0.16626848,0.37023437,0.91159415,0.1994112,-0.094294064,0.35935256,0.23688008,0.7948363,0.24653918,0.2787742,0.32243833,0.1565919,-0.14017431,-0.26251015,0.064589,-0.14475177,-0.56104374,-0.5580359,0.1174116,826.4103,810.293,805.8608,828.8278,722.0513,-0.20843505859375,0.078125,0.98663330078125,0.710296630859375,-1.74957275390625,-0.515899658203125,1,1.0,1.0,1.0,1.0,15.00
2024-10-11 20:08:48.298,0.5432646,0.16626848,0.37023437,0.91159415,0.1994112,-0.094294064,0.35935256,0.23688008,0.7948363,0.24653918,0.2787742,0.32243833,0.1565919,-0.14017431,-0.26251015,0.064589,-0.14475177,-0.56104374,-0.5580359,0.1174116,821.978,805.05493,805.4579,826.0073,775.2381,-0.20843505859375,0.078125,0.98663330078125,0.710296630859375,-1.74957275390625,-0.515899658203125,1,1.0,1.0,1.0,1.0,15.00
2024-10-11 20:08:48.299,0.5432646,0.16626848,0.37023437,0.91159415,0.1994112,-0.094294064,0.35935256,0.23688008,0.7948363,0.24653918,0.2787742,0.32243833,0.1565919,-0.14017431,-0.26251015,0.064589,-0.14475177,-0.56104374,-0.5580359,0.1174116,817.5458,805.4579,810.293,827.619,923.1135,-0.20843505859375,0.078125,0.98663330078125,0.710296630859375,-1.74957275390625,-0.515899658203125,1,1.0,1.0,1.0,1.0,15.00
2024-10-11 20:08:48.299,0.5432646,0.16626848,0.37023437,0.91159415,0.1994112,-0.094294064,0.35935256,0.23688008,0.7948363,0.24653918,0.2787742,0.32243833,0.1565919,-0.14017431,-0.26251015,0.064589,-0.14475177,-0.56104374,-0.5580359,0.1174116,815.9341,806.26373,808.2784,826.8132,964.61536,-0.20843505859375,0.078125,0.98663330078125,0.710296630859375,-1.74957275390625,-0.515899658203125,1,1.0,1.0,1.0,1.0,15.00
2024-10-11 20:08:48.299,0.5432646,0.16626848,0.37023437,0.91159415,0.1994112,-0.094294064,0.35935256,0.23688008,0.7948363,0.24653918,0.2787742,0.32243833,0.1565919,-0.14017431,-0.26251015,0.064589,-0.14475177,-0.56104374,-0.5580359,0.1174116,815.12823,803.44324,803.0403,820.3663,764.7619,-0.20843505859375,0.078125,0.98663330078125,0.710296630859375,-1.74957275390625,-0.515899658203125,1,1.0,1.0,1.0,1.0,15.00
2024-10-11 20:08:48.300,0.5432646,0.16626848,0.37023437,0.91159415,0.1994112,-0.094294064,0.35935256,0.23688008,0.7948363,0.24653918,0.2787742,0.32243833,0.1565919,-0.14017431,-0.26251015,0.064589,-0.14475177,-0.56104374,-0.5580359,0.1174116,819.5604,805.4579,803.44324,813.91943,638.6447,-0.20843505859375,0.078125,0.98663330078125,0.710296630859375,-1.74957275390625,-0.515899658203125,1,1.0,1.0,1.0,1.0,15.00
2024-10-11 20:08:48.301,0.5432646,0.16626848,0.37023437,0.91159415,0.1994112,-0.094294064,0.35935256,0.23688008,0.7948363,0.24653918,0.2787742,0.32243833,0.1565919,-0.14017431,-0.26251015,0.064589,-0.14475177,-0.56104374,-0.5580359,0.1174116,822.381,807.47253,802.23444,816.337,870.7326,-0.20843505859375,0.078125,0.98663330078125,0.710296630859375,-1.74957275390625,-0.515899658203125,1,1.0,1.0,1.0,1.0,15.00
2024-10-11 20:08:48.301,0.5432646,0.16626848,0.37023437,0.91159415,0.1994112,-0.094294064,0.35935256,0.23688008,0.7948363,0.24653918,0.2787742,0.32243833,0.1565919,-0.14017431,-0.26251015,0.064589,-0.14475177,-0.56104374,-0.5580359,0.1174116,826.0073,807.47253,799.41394,815.9341,853.4066,-0.20843505859375,0.078125,0.98663330078125,0.710296630859375,-1.74957275390625,-0.515899658203125,1,1.0,1.0,1.0,1.0,15.00
2024-10-11 20:08:48.302,0.5432646,0.16626848,0.37023437,0.91159415,0.1994112,-0.094294064,0.35935256,0.23688008,0.7948363,0.24653918,0.2787742,0.32243833,0.1565919,-0.14017431,-0.26251015,0.064589,-0.14475177,-0.56104374,-0.5580359,0.1174116,822.7839,805.05493,802.23444,811.0989,686.5934,-0.20843505859375,0.078125,0.98663330078125,0.710296630859375,-1.74957275390625,-0.515899658203125,1,1.0,1.0,1.0,1.0,15.00
2024-10-11 20:08:48.302,0.5432646,0.16626848,0.37023437,0.91159415,0.1994112,-0.094294064,0.35935256,0.23688008,0.7948363,0.24653918,0.2787742,0.32243833,0.1565919,-0.14017431,-0.26251015,0.064589,-0.14475177,-0.56104374,-0.5580359,0.1174116,827.2161,805.4579,803.44324,814.7253,758.71796,-0.20843505859375,0.078125,0.98663330078125,0.710296630859375,-1.74957275390625,-0.515899658203125,1,1.0,1.0,1.0,1.0,15.00
2024-10-11 20:08:48.353,0.5432646,0.16626848,0.37023437,0.91159415,0.1994112,-0.094294064,0.35935256,0.23688008,0.7948363,0.24653918,0.2787742,0.32243833,0.1565919,-0.14017431,-0.26251015,0.064589,-0.14475177,-0.56104374,-0.5580359,0.1174116,832.0513,809.0842,798.20514,817.9487,892.8938,-0.21697998046875,0.08050537109375,0.9879150390625,0.88226318359375,0.246734619140625,-0.059814453125,1,1.0,1.0,1.0,1.0,15.00
2024-10-11 20:08:48.353,0.5432646,0.16626848,0.37023437,0.91159415,0.1994112,-0.094294064,0.35935256,0.23688008,0.7948363,0.24653918,0.2787742,0.32243833,0.1565919,-0.14017431,-0.26251015,0.064589,-0.14475177,-0.56104374,-0.5580359,0.1174116,818.7546,808.2784,797.8022,815.5311,772.01465,-0.21697998046875,0.08050537109375,0.9879150390625,0.88226318359375,0.246734619140625,-0.059814453125,1,1.0,1.0,1.0,1.0,15.00
2024-10-11 20:08:48.354,0.5432646,0.16626848,0.37023437,0.91159415,0.1994112,-0.094294064,0.35935256,0.23688008,0.7948363,0.24653918,0.2787742,0.32243833,0.1565919,-0.14017431,-0.26251015,0.064589,-0.14475177,-0.56104374,-0.5580359,0.1174116,814.7253,804.2491,799.41394,818.3516,657.5824,-0.21697998046875,0.08050537109375,0.9879150390625,0.88226318359375,0.246734619140625,-0.059814453125,1,1.0,1.0,1.0,1.0,15.00
2024-10-11 20:08:48.355,0.5432646,0.16626848,0.37023437,0.91159415,0.1994112,-0.094294064,0.35935256,0.23688008,0.7948363,0.24653918,0.2787742,0.32243833,0.1565919,-0.14017431,-0.26251015,0.064589,-0.14475177,-0.56104374,-0.5580359,0.1174116,820.3663,801.02563,803.0403,819.9634,710.7692,-0.21697998046875,0.08050537109375,0.9879150390625,0.88226318359375,0.246734619140625,-0.059814453125,1,1.0,1.0,1.0,1.0,15.00
2024-10-11 20:08:48.355,0.5432646,0.16626848,0.37023437,0.91159415,0.1994112,-0.094294064,0.35935256,0.23688008,0.7948363,0.24653918,0.2787742,0.32243833,0.1565919,-0.14017431,-0.26251015,0.064589,-0.14475177,-0.56104374,-0.5580359,0.1174116,821.1722,799.011,802.6374,815.5311,821.978,-0.21697998046875,0.08050537109375,0.9879150390625,0.88226318359375,0.246734619140625,-0.059814453125,1,1.0,1.0,1.0,1.0,15.00
2024-10-11 20:08:48.356,0.5432646,0.16626848,0.37023437,0.91159415,0.1994112,-0.094294064,0.35935256,0.23688008,0.7948363,0.24653918,0.2787742,0.32243833,0.1565919,-0.14017431,-0.26251015,0.064589,-0.14475177,-0.56104374,-0.5580359,0.1174116,815.5311,802.6374,801.8315,815.5311,741.79486,-0.21697998046875,0.08050537109375,0.9879150390625,0.88226318359375,0.246734619140625,-0.059814453125,1,1.0,1.0,1.0,1.0,15.00
2024-10-11 20:08:48.356,0.5432646,0.16626848,0.37023437,0.91159415,0.1994112,-0.094294064,0.35935256,0.23688008,0.7948363,0.24653918,0.2787742,0.32243833,0.1565919,-0.14017431,-0.26251015,0.064589,-0.14475177,-0.56104374,-0.5580359,0.1174116,817.9487,804.2491,809.4872,816.7399,736.55676,-0.21697998046875,0.08050537109375,0.9879150390625,0.88226318359375,0.246734619140625,-0.059814453125,1,1.0,1.0,1.0,1.0,15.00
2024-10-11 20:08:48.357,0.5432646,0.16626848,0.37023437,0.91159415,0.1994112,-0.094294064,0.35935256,0.23688008,0.7948363,0.24653918,0.2787742,0.32243833,0.1565919,-0.14017431,-0.26251015,0.064589,-0.14475177,-0.56104374,-0.5580359,0.1174116,817.9487,798.60803,809.89014,817.5458,823.1868,-0.21697998046875,0.08050537109375,0.9879150390625,0.88226318359375,0.246734619140625,-0.059814453125,1,1.0,1.0,1.0,1.0,15.00
2024-10-11 20:08:48.357,0.5432646,0.16626848,0.37023437,0.91159415,0.1994112,-0.094294064,0.35935256,0.23688008,0.7948363,0.24653918,0.2787742,0.32243833,0.1565919,-0.14017431,-0.26251015,0.064589,-0.14475177,-0.56104374,-0.5580359,0.1174116,817.9487,796.5934,805.4579,828.4249,1171.7216,-0.21697998046875,0.08050537109375,0.9879150390625,0.88226318359375,0.246734619140625,-0.059814453125,1,1.0,1.0,1.0,1.0,15.00
2024-10-11 20:08:48.358,0.5432646,0.16626848,0.37023437,0.91159415,0.1994112,-0.094294064,0.35935256,0.23688008,0.7948363,0.24653918,0.2787742,0.32243833,0.1565919,-0.14017431,-0.26251015,0.064589,-0.14475177,-0.56104374,-0.5580359,0.1174116,821.5751,800.2198,803.0403,826.4103,979.92676,-0.21697998046875,0.08050537109375,0.9879150390625,0.88226318359375,0.246734619140625,-0.059814453125,1,1.0,1.0,1.0,1.0,15.00
2024-10-11 20:08:48.358,0.5432646,0.16626848,0.37023437,0.91159415,0.1994112,-0.094294064,0.35935256,0.23688008,0.7948363,0.24653918,0.2787742,0.32243833,0.1565919,-0.14017431,-0.26251015,0.064589,-0.14475177,-0.56104374,-0.5580359,0.1174116,814.7253,795.78754,803.44324,821.5751,740.18317,-0.21697998046875,0.08050537109375,0.9879150390625,0.88226318359375,0.246734619140625,-0.059814453125,1,1.0,1.0,1.0,1.0,15.00
2024-10-11 20:08:48.359,0.5432646,0.2077633,0.42862868,0.91159415,0.1994112,-0.09426875,0.3814184,0.23688008,0.7948363,0.24653918,0.2787742,0.32243833,0.1565919,-0.14544255,-0.27751422,0.064589,-0.14475177,-0.510308,-0.5704051,0.1174116,812.3077,794.9817,801.8315,819.9634,908.20514,-0.21697998046875,0.08050537109375,0.9879150390625,0.88226318359375,0.246734619140625,-0.059814453125,1,1.0,1.0,1.0,1.0,15.00
2024-10-11 20:08:48.386,0.5432646,0.2077633,0.42862868,0.91159415,0.1994112,-0.09426875,0.3814184,0.23688008,0.7948363,0.24653918,0.2787742,0.32243833,0.1565919,-0.14544255,-0.27751422,0.064589,-0.14475177,-0.510308,-0.5704051,0.1174116,814.3223,799.41394,799.81683,818.3516,773.6264,-0.21697998046875,0.08050537109375,0.9879150390625,0.88226318359375,0.246734619140625,-0.059814453125,1,1.0,1.0,1.0,1.0,15.00
2024-10-11 20:08:48.387,0.5432646,0.2077633,0.42862868,0.91159415,0.1994112,-0.09426875,0.3814184,0.23688008,0.7948363,0.24653918,0.2787742,0.32243833,0.1565919,-0.14544255,-0.27751422,0.064589,-0.14475177,-0.510308,-0.5704051,0.1174116,813.5165,797.3993,801.4286,813.5165,667.6557,-0.21697998046875,0.08050537109375,0.9879150390625,0.88226318359375,0.246734619140625,-0.059814453125,1,1.0,1.0,1.0,1.0,15.00
2024-10-11 20:08:48.388,0.5432646,0.2077633,0.42862868,0.91159415,0.1994112,-0.09426875,0.3814184,0.23688008,0.7948363,0.24653918,0.2787742,0.32243833,0.1565919,-0.14544255,-0.27751422,0.064589,-0.14475177,-0.510308,-0.5704051,0.1174116,817.9487,792.1612,804.65204,809.89014,736.9597,-0.21697998046875,0.08050537109375,0.9879150390625,0.88226318359375,0.246734619140625,-0.059814453125,1,1.0,1.0,1.0,1.0,15.00
2024-10-11 20:08:48.388,0.5432646,0.2077633,0.42862868,0.91159415,0.1994112,-0.09426875,0.3814184,0.23688008,0.7948363,0.24653918,0.2787742,0.32243833,0.1565919,-0.14544255,-0.27751422,0.064589,-0.14475177,-0.510308,-0.5704051,0.1174116,811.0989,793.36993,799.011,810.696,846.55676,-0.21697998046875,0.08050537109375,0.9879150390625,0.88226318359375,0.246734619140625,-0.059814453125,1,1.0,1.0,1.0,1.0,15.00
2024-10-11 20:08:48.389,0.5432646,0.2077633,0.42862868,0.91159415,0.1994112,-0.09426875,0.3814184,0.23688008,0.7948363,0.24653918,0.2787742,0.32243833,0.1565919,-0.14544255,-0.27751422,0.064589,-0.14475177,-0.510308,-0.5704051,0.1174116,803.0403,796.99634,798.20514,812.71063,745.82416,-0.21697998046875,0.08050537109375,0.9879150390625,0.88226318359375,0.246734619140625,-0.059814453125,1,1.0,1.0,1.0,1.0,15.00
2024-10-11 20:08:48.390,0.5432646,0.2077633,0.42862868,0.91159415,0.1994112,-0.09426875,0.3814184,0.23688008,0.7948363,0.24653918,0.2787742,0.32243833,0.1565919,-0.14544255,-0.27751422,0.064589,-0.14475177,-0.510308,-0.5704051,0.1174116,803.0403,795.38464,800.6227,811.0989,736.55676,-0.21697998046875,0.08050537109375,0.9879150390625,0.88226318359375,0.246734619140625,-0.059814453125,1,1.0,1.0,1.0,1.0,15.00
2024-10-11 20:08:48.390,0.5432646,0.2077633,0.42862868,0.91159415,0.1994112,-0.09426875,0.3814184,0.23688008,0.7948363,0.24653918,0.2787742,0.32243833,0.1565919,-0.14544255,-0.27751422,0.064589,-0.14475177,-0.510308,-0.5704051,0.1174116,804.65204,796.99634,801.8315,810.696,862.27106,-0.21697998046875,0.08050537109375,0.9879150390625,0.88226318359375,0.246734619140625,-0.059814453125,1,1.0,1.0,1.0,1.0,15.00
2024-10-11 20:08:48.391,0.5432646,0.2077633,0.42862868,0.91159415,0.1994112,-0.09426875,0.3814184,0.23688008,0.7948363,0.24653918,0.2787742,0.32243833,0.1565919,-0.14544255,-0.27751422,0.064589,-0.14475177,-0.510308,-0.5704051,0.1174116,805.05493,793.36993,802.6374,811.0989,936.8132,-0.21697998046875,0.08050537109375,0.9879150390625,0.88226318359375,0.246734619140625,-0.059814453125,1,1.0,1.0,1.0,1.0,15.00
2024-10-11 20:08:48.391,0.5432646,0.2077633,0.42862868,0.91159415,0.1994112,-0.09426875,0.3814184,0.23688008,0.7948363,0.24653918,0.2787742,0.32243833,0.1565919,-0.14544255,-0.27751422,0.064589,-0.14475177,-0.510308,-0.5704051,0.1174116,810.293,793.36993,800.6227,811.50183,790.9524,-0.21697998046875,0.08050537109375,0.9879150390625,0.88226318359375,0.246734619140625,-0.059814453125,1,1.0,1.0,1.0,1.0,15.00
2024-10-11 20:08:48.392,0.5432646,0.2077633,0.42862868,0.91159415,0.1994112,-0.09426875,0.3814184,0.23688008,0.7948363,0.24653918,0.2787742,0.32243833,0.1565919,-0.14544255,-0.27751422,0.064589,-0.14475177,-0.510308,-0.5704051,0.1174116,815.12823,796.99634,801.02563,811.50183,743.00366,-0.21697998046875,0.08050537109375,0.9879150390625,0.88226318359375,0.246734619140625,-0.059814453125,1,1.0,1.0,1.0,1.0,15.00
2024-10-11 20:08:48.392,0.5432646,0.2077633,0.42862868,0.91159415,0.1994112,-0.09426875,0.3814184,0.23688008,0.7948363,0.24653918,0.2787742,0.32243833,0.1565919,-0.14544255,-0.27751422,0.064589,-0.14475177,-0.510308,-0.5704051,0.1174116,818.3516,797.8022,803.8461,810.293,833.663,-0.21697998046875,0.08050537109375,0.9879150390625,0.88226318359375,0.246734619140625,-0.059814453125,1,1.0,1.0,1.0,1.0,15.00
2024-10-11 20:08:48.393,0.5432646,0.2077633,0.42862868,0.91159415,0.1994112,-0.09426875,0.3814184,0.23688008,0.7948363,0.24653918,0.2787742,0.32243833,0.1565919,-0.14544255,-0.27751422,0.064589,-0.14475177,-0.510308,-0.5704051,0.1174116,813.5165,794.17584,802.6374,814.7253,1056.8865,-0.21697998046875,0.08050537109375,0.9879150390625,0.88226318359375,0.246734619140625,-0.059814453125,1,1.0,1.0,1.0,1.0,15.00
2024-10-11 20:08:48.455,0.5432646,0.2077633,0.42862868,0.91159415,0.1994112,-0.09426875,0.3814184,0.23688008,0.7948363,0.24653918,0.2787742,0.32243833,0.1565919,-0.14544255,-0.27751422,0.064589,-0.14475177,-0.510308,-0.5704051,0.1174116,814.3223,794.57874,801.4286,809.89014,890.07324,-0.223388671875,0.08001708984375,0.98516845703125,1.30096435546875,1.547698974609375,-0.515899658203125,1,1.0,1.0,1.0,1.0,15.00
2024-10-11 20:08:48.456,0.5432646,0.2077633,0.42862868,0.91159415,0.1994112,-0.09426875,0.3814184,0.23688008,0.7948363,0.24653918,0.2787742,0.32243833,0.1565919,-0.14544255,-0.27751422,0.064589,-0.14475177,-0.510308,-0.5704051,0.1174116,819.5604,800.6227,803.0403,809.89014,747.03296,-0.223388671875,0.08001708984375,0.98516845703125,1.30096435546875,1.547698974609375,-0.515899658203125,1,1.0,1.0,1.0,1.0,15.00
2024-10-11 20:08:48.456,0.5432646,0.2077633,0.42862868,0.91159415,0.1994112,-0.09426875,0.3814184,0.23688008,0.7948363,0.24653918,0.2787742,0.32243833,0.1565919,-0.14544255,-0.27751422,0.064589,-0.14475177,-0.510308,-0.5704051,0.1174116,817.5458,802.23444,804.2491,814.3223,846.1539,-0.223388671875,0.08001708984375,0.98516845703125,1.30096435546875,1.547698974609375,-0.515899658203125,1,1.0,1.0,1.0,1.0,15.00
2024-10-11 20:08:48.457,0.5432646,0.2077633,0.42862868,0.91159415,0.1994112,-0.09426875,0.3814184,0.23688008,0.7948363,0.24653918,0.2787742,0.32243833,0.1565919,-0.14544255,-0.27751422,0.064589,-0.14475177,-0.510308,-0.5704051,0.1174116,821.978,801.4286,803.8461,807.47253,846.1539,-0.223388671875,0.08001708984375,0.98516845703125,1.30096435546875,1.547698974609375,-0.515899658203125,1,1.0,1.0,1.0,1.0,15.00
2024-10-11 20:08:48.458,0.5432646,0.2077633,0.42862868,0.91159415,0.1994112,-0.09426875,0.3814184,0.23688008,0.7948363,0.24653918,0.2787742,0.32243833,0.1565919,-0.14544255,-0.27751422,0.064589,-0.14475177,-0.510308,-0.5704051,0.1174116,821.5751,800.2198,803.44324,804.65204,786.9231,-0.223388671875,0.08001708984375,0.98516845703125,1.30096435546875,1.547698974609375,-0.515899658203125,1,1.0,1.0,1.0,1.0,15.00
2024-10-11 20:08:48.458,0.5432646,0.2077633,0.42862868,0.91159415,0.1994112,-0.09426875,0.3814184,0.23688008,0.7948363,0.24653918,0.2787742,0.32243833,0.1565919,-0.14544255,-0.27751422,0.064589,-0.14475177,-0.510308,-0.5704051,0.1174116,820.3663,806.6667,803.44324,809.89014,762.74725,-0.223388671875,0.08001708984375,0.98516845703125,1.30096435546875,1.547698974609375,-0.515899658203125,1,1.0,1.0,1.0,1.0,15.00
2024-10-11 20:08:48.459,0.5432646,0.2077633,0.42862868,0.91159415,0.1994112,-0.09426875,0.3814184,0.23688008,0.7948363,0.24653918,0.2787742,0.32243833,0.1565919,-0.14544255,-0.27751422,0.064589,-0.14475177,-0.510308,-0.5704051,0.1174116,821.1722,805.05493,805.8608,816.337,1066.5568,-0.223388671875,0.08001708984375,0.98516845703125,1.30096435546875,1.547698974609375,-0.515899658203125,1,1.0,1.0,1.0,1.0,15.00
2024-10-11 20:08:48.459,0.5432646,0.2077633,0.42862868,0.91159415,0.1994112,-0.09426875,0.3814184,0.23688008,0.7948363,0.24653918,0.2787742,0.32243833,0.1565919,-0.14544255,-0.27751422,0.064589,-0.14475177,-0.510308,-0.5704051,0.1174116,815.9341,801.02563,802.6374,819.9634,1442.4908,-0.223388671875,0.08001708984375,0.98516845703125,1.30096435546875,1.547698974609375,-0.515899658203125,1,1.0,1.0,1.0,1.0,15.00
2024-10-11 20:08:48.460,0.5432646,0.2077633,0.42862868,0.91159415,0.1994112,-0.09426875,0.3814184,0.23688008,0.7948363,0.24653918,0.2787742,0.32243833,0.1565919,-0.14544255,-0.27751422,0.064589,-0.14475177,-0.510308,-0.5704051,0.1174116,814.3223,807.0696,802.23444,810.696,997.6557,-0.223388671875,0.08001708984375,0.98516845703125,1.30096435546875,1.547698974609375,-0.515899658203125,1,1.0,1.0,1.0,1.0,15.00
2024-10-11 20:08:48.460,0.5432646,0.2077633,0.42862868,0.91159415,0.1994112,-0.09426875,0.3814184,0.23688008,0.7948363,0.24653918,0.2787742,0.32243833,0.1565919,-0.14544255,-0.27751422,0.064589,-0.14475177,-0.510308,-0.5704051,0.1174116,814.7253,807.0696,808.2784,806.6667,733.73627,-0.223388671875,0.08001708984375,0.98516845703125,1.30096435546875,1.547698974609375,-0.515899658203125,1,1.0,1.0,1.0,1.0,15.00
2024-10-11 20:08:48.461,0.5432646,0.2077633,0.42862868,0.91159415,0.1994112,-0.09426875,0.3814184,0.23688008,0.7948363,0.24653918,0.2787742,0.32243833,0.1565919,-0.14544255,-0.27751422,0.064589,-0.14475177,-0.510308,-0.5704051,0.1174116,809.89014,801.8315,796.5934,808.2784,946.8865,-0.223388671875,0.08001708984375,0.98516845703125,1.30096435546875,1.547698974609375,-0.515899658203125,1,1.0,1.0,1.0,1.0,15.00
2024-10-11 20:08:48.461,0.5432646,0.2077633,0.42862868,0.91159415,0.1994112,-0.09426875,0.3814184,0.23688008,0.7948363,0.24653918,0.2787742,0.32243833,0.1565919,-0.14544255,-0.27751422,0.064589,-0.14475177,-0.510308,-0.5704051,0.1174116,808.2784,804.65204,790.54944,807.0696,889.67035,-0.223388671875,0.08001708984375,0.98516845703125,1.30096435546875,1.547698974609375,-0.515899658203125,1,1.0,1.0,1.0,1.0,15.00
2024-10-11 20:08:48.487,0.5432646,0.2077633,0.42862868,0.91159415,0.1994112,-0.09426875,0.3814184,0.23688008,0.7948363,0.24653918,0.2787742,0.32243833,0.1565919,-0.14544255,-0.27751422,0.064589,-0.14475177,-0.510308,-0.5704051,0.1174116,815.5311,805.8608,795.78754,806.26373,736.1539,-0.22607421875,0.08050537109375,0.974609375,0.261688232421875,0.8673095703125,-0.5084228515625,1,1.0,1.0,1.0,1.0,15.00
2024-10-11 20:08:48.488,0.5432646,0.2407656,0.48705134,0.91159415,0.1994112,-0.12523878,0.37481296,0.23688008,0.7948363,0.24635015,0.27789176,0.32243833,0.1565919,-0.15608515,-0.2920016,0.064589,-0.14475177,-0.46485394,-0.5787147,0.1174116,813.91943,799.81683,796.5934,801.8315,717.2161,-0.22607421875,0.08050537109375,0.974609375,0.261688232421875,0.8673095703125,-0.5084228515625,1,1.0,1.0,1.0,1.0,15.00
2024-10-11 20:08:48.492,0.5432646,0.2407656,0.48705134,0.91159415,0.1994112,-0.12523878,0.37481296,0.23688008,0.7948363,0.24635015,0.27789176,0.32243833,0.1565919,-0.15608515,-0.2920016,0.064589,-0.14475177,-0.46485394,-0.5787147,0.1174116,810.293,797.3993,796.5934,798.60803,865.4945,-0.22607421875,0.08050537109375,0.974609375,0.261688232421875,0.8673095703125,-0.5084228515625,1,1.0,1.0,1.0,1.0,15.00
2024-10-11 20:08:48.493,0.5432646,0.2407656,0.48705134,0.91159415,0.1994112,-0.12523878,0.37481296,0.23688008,0.7948363,0.24635015,0.27789176,0.32243833,0.1565919,-0.15608515,-0.2920016,0.064589,-0.14475177,-0.46485394,-0.5787147,0.1174116,808.68134,801.8315,799.41394,801.02563,836.8865,-0.22607421875,0.08050537109375,0.974609375,0.261688232421875,0.8673095703125,-0.5084228515625,1,1.0,1.0,1.0,1.0,15.00
2024-10-11 20:08:48.494,0.5432646,0.2407656,0.48705134,0.91159415,0.1994112,-0.12523878,0.37481296,0.23688008,0.7948363,0.24635015,0.27789176,0.32243833,0.1565919,-0.15608515,-0.2920016,0.064589,-0.14475177,-0.46485394,-0.5787147,0.1174116,803.44324,802.6374,800.2198,807.0696,702.3077,-0.22607421875,0.08050537109375,0.974609375,0.261688232421875,0.8673095703125,-0.5084228515625,1,1.0,1.0,1.0,1.0,15.00
2024-10-11 20:08:48.494,0.5432646,0.2407656,0.48705134,0.91159415,0.1994112,-0.12523878,0.37481296,0.23688008,0.7948363,0.24635015,0.27789176,0.32243833,0.1565919,-0.15608515,-0.2920016,0.064589,-0.14475177,-0.46485394,-0.5787147,0.1174116,799.81683,786.1172,799.011,803.44324,893.69965,-0.22607421875,0.08050537109375,0.974609375,0.261688232421875,0.8673095703125,-0.5084228515625,1,1.0,1.0,1.0,1.0,15.00
2024-10-11 20:08:48.495,0.5432646,0.2407656,0.48705134,0.91159415,0.1994112,-0.12523878,0.37481296,0.23688008,0.7948363,0.24635015,0.27789176,0.32243833,0.1565919,-0.15608515,-0.2920016,0.064589,-0.14475177,-0.46485394,-0.5787147,0.1174116,801.8315,795.78754,800.2198,807.47253,1103.6263,-0.22607421875,0.08050537109375,0.974609375,0.261688232421875,0.8673095703125,-0.5084228515625,1,1.0,1.0,1.0,1.0,15.00
2024-10-11 20:08:48.495,0.5432646,0.2407656,0.48705134,0.91159415,0.1994112,-0.12523878,0.37481296,0.23688008,0.7948363,0.24635015,0.27789176,0.32243833,0.1565919,-0.15608515,-0.2920016,0.064589,-0.14475177,-0.46485394,-0.5787147,0.1174116,799.011,808.2784,802.23444,807.8755,848.1685,-0.22607421875,0.08050537109375,0.974609375,0.261688232421875,0.8673095703125,-0.5084228515625,1,1.0,1.0,1.0,1.0,15.00
2024-10-11 20:08:48.496,0.5432646,0.2407656,0.48705134,0.91159415,0.1994112,-0.12523878,0.37481296,0.23688008,0.7948363,0.24635015,0.27789176,0.32243833,0.1565919,-0.15608515,-0.2920016,0.064589,-0.14475177,-0.46485394,-0.5787147,0.1174116,799.81683,805.05493,800.2198,804.2491,751.8681,-0.22607421875,0.08050537109375,0.974609375,0.261688232421875,0.8673095703125,-0.5084228515625,1,1.0,1.0,1.0,1.0,15.00
2024-10-11 20:08:48.496,0.5432646,0.2407656,0.48705134,0.91159415,0.1994112,-0.12523878,0.37481296,0.23688008,0.7948363,0.24635015,0.27789176,0.32243833,0.1565919,-0.15608515,-0.2920016,0.064589,-0.14475177,-0.46485394,-0.5787147,0.1174116,803.44324,804.65204,800.2198,809.4872,877.1795,-0.22607421875,0.08050537109375,0.974609375,0.261688232421875,0.8673095703125,-0.5084228515625,1,1.0,1.0,1.0,1.0,15.00
2024-10-11 20:08:48.497,0.5432646,0.2407656,0.48705134,0.91159415,0.1994112,-0.12523878,0.37481296,0.23688008,0.7948363,0.24635015,0.27789176,0.32243833,0.1565919,-0.15608515,-0.2920016,0.064589,-0.14475177,-0.46485394,-0.5787147,0.1174116,795.38464,793.36993,797.8022,819.9634,1097.1794,-0.22607421875,0.08050537109375,0.974609375,0.261688232421875,0.8673095703125,-0.5084228515625,1,1.0,1.0,1.0,1.0,15.00
2024-10-11 20:08:48.497,0.5432646,0.2407656,0.48705134,0.91159415,0.1994112,-0.12523878,0.37481296,0.23688008,0.7948363,0.24635015,0.27789176,0.32243833,0.1565919,-0.15608515,-0.2920016,0.064589,-0.14475177,-0.46485394,-0.5787147,0.1174116,810.293,796.5934,796.5934,834.0659,1008.93774,-0.22607421875,0.08050537109375,0.974609375,0.261688232421875,0.8673095703125,-0.5084228515625,1,1.0,1.0,1.0,1.0,15.00
2024-10-11 20:08:48.555,0.5432646,0.2407656,0.48705134,0.91159415,0.1994112,-0.12523878,0.37481296,0.23688008,0.7948363,0.24635015,0.27789176,0.32243833,0.1565919,-0.15608515,-0.2920016,0.064589,-0.14475177,-0.46485394,-0.5787147,0.1174116,820.7692,811.50183,801.02563,824.7985,893.2967,-0.22802734375,0.073974609375,0.9793701171875,-0.1495361328125,2.295379638671875,-0.785064697265625,1,1.0,1.0,1.0,1.0,15.00
2024-10-11 20:08:48.556,0.5432646,0.2407656,0.48705134,0.91159415,0.1994112,-0.12523878,0.37481296,0.23688008,0.7948363,0.24635015,0.27789176,0.32243833,0.1565919,-0.15608515,-0.2920016,0.064589,-0.14475177,-0.46485394,-0.5787147,0.1174116,809.4872,811.0989,799.41394,805.8608,896.1172,-0.22802734375,0.073974609375,0.9793701171875,-0.1495361328125,2.295379638671875,-0.785064697265625,1,1.0,1.0,1.0,1.0,15.00
