TimeStamp,Delta_TP9,Delta_AF7,Delta_AF8,Delta_TP10,Theta_TP9,Theta_AF7,Theta_AF8,Theta_TP10,Alpha_TP9,Alpha_AF7,Alpha_AF8,Alpha_TP10,Beta_TP9,Beta_AF7,Beta_AF8,Beta_TP10,Gamma_TP9,Gamma_AF7,Gamma_AF8,Gamma_TP10,RAW_TP9,RAW_AF7,RAW_AF8,RAW_TP10,AUX_RIGHT,Accelerometer_X,Accelerometer_Y,Accelerometer_Z,Gyro_X,Gyro_Y,Gyro_Z,HeadBandOn,HSI_TP9,HSI_AF7,HSI_AF8,HSI_TP10,Battery,Elements
2024-10-11 20:26:50.213,1.0202019,0.27962124,0.4353298,1.2223788,0.6057613,0.04307868,-0.15848948,0.9577918,0.8531469,0.30351955,0.34379438,0.9588488,0.3760256,-0.18854819,-0.24812804,0.42252713,0.10190494,-0.6426448,-0.62019396,-0.07512777,801.02563,801.8315,810.696,789.34064,813.1135,0.292236328125,0.08880615234375,0.96270751953125,-3.431854248046875,-37.959747314453125,-16.157379150390625,1,1.0,1.0,1.0,1.0,10.00
2024-10-11 20:26:50.215,1.0202019,0.27962124,0.4353298,1.2223788,0.6057613,0.04307868,-0.15848948,0.9577918,0.8531469,0.30351955,0.34379438,0.9588488,0.3760256,-0.18854819,-0.24812804,0.42252713,0.10190494,-0.6426448,-0.62019396,-0.07512777,800.6227,799.41394,814.3223,792.1612,637.03296,0.292236328125,0.08880615234375,0.96270751953125,-3.431854248046875,-37.959747314453125,-16.157379150390625,1,1.0,1.0,1.0,1.0,10.00
2024-10-11 20:26:50.216,1.0202019,0.27962124,0.4353298,1.2223788,0.6057613,0.04307868,-0.15848948,0.9577918,0.8531469,0.30351955,0.34379438,0.9588488,0.3760256,-0.18854819,-0.24812804,0.42252713,0.10190494,-0.6426448,-0.62019396,-0.07512777,791.3553,798.60803,813.91943,792.5641,693.0403,0.292236328125,0.08880615234375,0.96270751953125,-3.431854248046875,-37.959747314453125,-16.157379150390625,1,1.0,1.0,1.0,1.0,10.00
2024-10-11 20:26:50.218,1.0202019,0.27962124,0.4353298,1.2223788,0.6057613,0.04307868,-0.15848948,0.9577918,0.8531469,0.30351955,0.34379438,0.9588488,0.3760256,-0.18854819,-0.24812804,0.42252713,0.10190494,-0.6426448,-0.62019396,-0.07512777,778.0586,799.81683,811.50183,789.7436,723.2601,0.292236328125,0.08880615234375,0.96270751953125,-3.431854248046875,-37.959747314453125,-16.157379150390625,1,1.0,1.0,1.0,1.0,10.00
2024-10-11 20:26:50.219,1.0202019,0.27962124,0.4353298,1.2223788,0.6057613,0.04307868,-0.15848948,0.9577918,0.8531469,0.30351955,0.34379438,0.9588488,0.3760256,-0.18854819,-0.24812804,0.42252713,0.10190494,-0.6426448,-0.62019396,-0.07512777,774.83514,798.20514,817.9487,789.34064,829.2308,0.292236328125,0.08880615234375,0.96270751953125,-3.431854248046875,-37.959747314453125,-16.157379150390625,1,1.0,1.0,1.0,1.0,10.00
2024-10-11 20:26:50.220,1.0202019,0.27962124,0.4353298,1.2223788,0.6057613,0.04307868,-0.15848948,0.9577918,0.8531469,0.30351955,0.34379438,0.9588488,0.3760256,-0.18854819,-0.24812804,0.42252713,0.10190494,-0.6426448,-0.62019396,-0.07512777,787.326,800.2198,821.5751,798.20514,1005.31134,0.292236328125,0.08880615234375,0.96270751953125,-3.431854248046875,-37.959747314453125,-16.157379150390625,1,1.0,1.0,1.0,1.0,10.00
2024-10-11 20:26:50.221,1.0202019,0.27962124,0.4353298,1.2223788,0.6057613,0.04307868,-0.15848948,0.9577918,0.8531469,0.30351955,0.34379438,0.9588488,0.3760256,-0.18854819,-0.24812804,0.42252713,0.10190494,-0.6426448,-0.62019396,-0.07512777,778.46155,801.8315,817.5458,785.31134,1145.1282,0.292236328125,0.08880615234375,0.96270751953125,-3.431854248046875,-37.959747314453125,-16.157379150390625,1,1.0,1.0,1.0,1.0,10.00
2024-10-11 20:26:50.222,1.0202019,0.27962124,0.4353298,1.2223788,0.6057613,0.04307868,-0.15848948,0.9577918,0.8531469,0.30351955,0.34379438,0.9588488,0.3760256,-0.18854819,-0.24812804,0.42252713,0.10190494,-0.6426448,-0.62019396,-0.07512777,781.28204,802.23444,814.7253,785.31134,1091.5385,0.292236328125,0.08880615234375,0.96270751953125,-3.431854248046875,-37.959747314453125,-16.157379150390625,1,1.0,1.0,1.0,1.0,10.00
2024-10-11 20:26:50.223,1.0202019,0.27962124,0.4353298,1.2223788,0.6057613,0.04307868,-0.15848948,0.9577918,0.8531469,0.30351955,0.34379438,0.9588488,0.3760256,-0.18854819,-0.24812804,0.42252713,0.10190494,-0.6426448,-0.62019396,-0.07512777,795.78754,799.41394,819.9634,805.05493,813.5165,0.292236328125,0.08880615234375,0.96270751953125,-3.431854248046875,-37.959747314453125,-16.157379150390625,1,1.0,1.0,1.0,1.0,10.00
2024-10-11 20:26:50.224,1.0202019,0.27962124,0.4353298,1.2223788,0.6057613,0.04307868,-0.15848948,0.9577918,0.8531469,0.30351955,0.34379438,0.9588488,0.3760256,-0.18854819,-0.24812804,0.42252713,0.10190494,-0.6426448,-0.62019396,-0.07512777,782.8938,799.41394,822.7839,801.8315,731.7216,0.292236328125,0.08880615234375,0.96270751953125,-3.431854248046875,-37.959747314453125,-16.157379150390625,1,1.0,1.0,1.0,1.0,10.00
2024-10-11 20:26:50.225,1.0202019,0.27962124,0.4353298,1.2223788,0.6057613,0.04307868,-0.15848948,0.9577918,0.8531469,0.30351955,0.34379438,0.9588488,0.3760256,-0.18854819,-0.24812804,0.42252713,0.10190494,-0.6426448,-0.62019396,-0.07512777,771.6117,801.8315,813.91943,786.52014,918.68134,0.292236328125,0.08880615234375,0.96270751953125,-3.431854248046875,-37.959747314453125,-16.157379150390625,1,1.0,1.0,1.0,1.0,10.00
2024-10-11 20:26:50.226,1.0202019,0.27962124,0.4353298,1.2223788,0.6057613,0.04307868,-0.15848948,0.9577918,0.8531469,0.30351955,0.34379438,0.9588488,0.3760256,-0.18854819,-0.24812804,0.42252713,0.10190494,-0.6426448,-0.62019396,-0.07512777,776.4469,801.4286,808.68134,779.67035,957.76556,0.292236328125,0.08880615234375,0.96270751953125,-3.431854248046875,-37.959747314453125,-16.157379150390625,1,1.0,1.0,1.0,1.0,10.00
2024-10-11 20:26:50.282,1.0202019,0.27962124,0.4353298,1.2223788,0.6057613,0.04307868,-0.15848948,0.9577918,0.8531469,0.30351955,0.34379438,0.9588488,0.3760256,-0.18854819,-0.24812804,0.42252713,0.10190494,-0.6426448,-0.62019396,-0.07512777,776.04395,801.02563,809.89014,776.8498,722.4542,0.37969970703125,0.08404541015625,0.9813232421875,-5.286102294921875,-26.0791015625,-8.516082763671875,1,1.0,1.0,1.0,1.0,10.00
2024-10-11 20:26:50.283,1.0202019,0.27962124,0.4353298,1.2223788,0.6057613,0.04307868,-0.15848948,0.9577918,0.8531469,0.30351955,0.34379438,0.9588488,0.3760256,-0.18854819,-0.24812804,0.42252713,0.10190494,-0.6426448,-0.62019396,-0.07512777,774.0293,802.23444,805.05493,778.0586,748.24176,0.37969970703125,0.08404541015625,0.9813232421875,-5.286102294921875,-26.0791015625,-8.516082763671875,1,1.0,1.0,1.0,1.0,10.00
2024-10-11 20:26:50.284,1.0202019,0.27962124,0.4353298,1.2223788,0.6057613,0.04307868,-0.15848948,0.9577918,0.8531469,0.30351955,0.34379438,0.9588488,0.3760256,-0.18854819,-0.24812804,0.42252713,0.10190494,-0.6426448,-0.62019396,-0.07512777,774.0293,799.81683,801.4286,771.6117,964.61536,0.37969970703125,0.08404541015625,0.9813232421875,-5.286102294921875,-26.0791015625,-8.516082763671875,1,1.0,1.0,1.0,1.0,10.00
2024-10-11 20:26:50.285,1.0202019,0.27962124,0.4353298,1.2223788,0.6057613,0.04307868,-0.15848948,0.9577918,0.8531469,0.30351955,0.34379438,0.9588488,0.3760256,-0.18854819,-0.24812804,0.42252713,0.10190494,-0.6426448,-0.62019396,-0.07512777,774.43225,796.5934,807.8755,767.98535,870.32965,0.37969970703125,0.08404541015625,0.9813232421875,-5.286102294921875,-26.0791015625,-8.516082763671875,1,1.0,1.0,1.0,1.0,10.00
2024-10-11 20:26:50.286,1.0202019,0.27962124,0.4353298,1.2223788,0.6057613,0.04307868,-0.15848948,0.9577918,0.8531469,0.30351955,0.34379438,0.9588488,0.3760256,-0.18854819,-0.24812804,0.42252713,0.10190494,-0.6426448,-0.62019396,-0.07512777,777.6557,799.41394,812.3077,776.8498,740.18317,0.37969970703125,0.08404541015625,0.9813232421875,-5.286102294921875,-26.0791015625,-8.516082763671875,1,1.0,1.0,1.0,1.0,10.00
2024-10-11 20:26:50.287,1.0202019,0.27962124,0.4353298,1.2223788,0.6057613,0.04307868,-0.15848948,0.9577918,0.8531469,0.30351955,0.34379438,0.9588488,0.3760256,-0.18854819,-0.24812804,0.42252713,0.10190494,-0.6426448,-0.62019396,-0.07512777,779.2674,797.3993,804.65204,781.28204,990.80585,0.37969970703125,0.08404541015625,0.9813232421875,-5.286102294921875,-26.0791015625,-8.516082763671875,1,1.0,1.0,1.0,1.0,10.00
2024-10-11 20:26:50.288,1.0202019,0.27962124,0.4353298,1.2223788,0.6057613,0.04307868,-0.15848948,0.9577918,0.8531469,0.30351955,0.34379438,0.9588488,0.3760256,-0.18854819,-0.24812804,0.42252713,0.10190494,-0.6426448,-0.62019396,-0.07512777,779.2674,796.1905,803.0403,780.07324,1169.3041,0.37969970703125,0.08404541015625,0.9813232421875,-5.286102294921875,-26.0791015625,-8.516082763671875,1,1.0,1.0,1.0,1.0,10.00
2024-10-11 20:26:50.289,1.0202019,0.27962124,0.4353298,1.2223788,0.6057613,0.04307868,-0.15848948,0.9577918,0.8531469,0.30351955,0.34379438,0.9588488,0.3760256,-0.18854819,-0.24812804,0.42252713,0.10190494,-0.6426448,-0.62019396,-0.07512777,781.685,799.41394,806.6667,778.46155,827.619,0.37969970703125,0.08404541015625,0.9813232421875,-5.286102294921875,-26.0791015625,-8.516082763671875,1,1.0,1.0,1.0,1.0,10.00
2024-10-11 20:26:50.290,1.0202019,0.27962124,0.4353298,1.2223788,0.6057613,0.04307868,-0.15848948,0.9577918,0.8531469,0.30351955,0.34379438,0.9588488,0.3760256,-0.18854819,-0.24812804,0.42252713,0.10190494,-0.6426448,-0.62019396,-0.07512777,782.49084,801.4286,807.8755,777.6557,623.3333,0.37969970703125,0.08404541015625,0.9813232421875,-5.286102294921875,-26.0791015625,-8.516082763671875,1,1.0,1.0,1.0,1.0,10.00
2024-10-11 20:26:50.291,1.0202019,0.27962124,0.4353298,1.2223788,0.6057613,0.04307868,-0.15848948,0.9577918,0.8531469,0.30351955,0.34379438,0.9588488,0.3760256,-0.18854819,-0.24812804,0.42252713,0.10190494,-0.6426448,-0.62019396,-0.07512777,786.9231,803.44324,805.8608,776.4469,762.74725,0.37969970703125,0.08404541015625,0.9813232421875,-5.286102294921875,-26.0791015625,-8.516082763671875,1,1.0,1.0,1.0,1.0,10.00
2024-10-11 20:26:50.292,1.0202019,0.27962124,0.4353298,1.2223788,0.6057613,0.04307868,-0.15848948,0.9577918,0.8531469,0.30351955,0.34379438,0.9588488,0.3760256,-0.18854819,-0.24812804,0.42252713,0.10190494,-0.6426448,-0.62019396,-0.07512777,784.10254,801.4286,805.8608,781.28204,1075.0183,0.37969970703125,0.08404541015625,0.9813232421875,-5.286102294921875,-26.0791015625,-8.516082763671875,1,1.0,1.0,1.0,1.0,10.00
2024-10-11 20:26:50.293,1.0202019,0.27962124,0.4353298,1.2223788,0.6057613,0.04307868,-0.15848948,0.9577918,0.8531469,0.30351955,0.34379438,0.9588488,0.3760256,-0.18854819,-0.24812804,0.42252713,0.10190494,-0.6426448,-0.62019396,-0.07512777,779.2674,796.1905,804.2491,777.25275,913.0403,0.37969970703125,0.08404541015625,0.9813232421875,-5.286102294921875,-26.0791015625,-8.516082763671875,1,1.0,1.0,1.0,1.0,10.00
2024-10-11 20:26:50.350,1.0202019,0.27962124,0.4353298,1.2223788,0.6057613,0.04307868,-0.15848948,0.9577918,0.8531469,0.30351955,0.34379438,0.9588488,0.3760256,-0.18854819,-0.24812804,0.42252713,0.10190494,-0.6426448,-0.62019396,-0.07512777,774.83514,796.99634,802.6374,771.2088,657.1795,0.3731689453125,0.0693359375,0.96832275390625,-5.510406494140625,-6.437530517578125,-1.712188720703125,1,1.0,1.0,1.0,1.0,10.00
2024-10-11 20:26:50.351,0.9898223,0.4335851,0.66235864,1.1979657,0.67052203,0.081616476,-0.0076908134,0.94317967,0.8786235,0.3247412,0.44827482,0.9588488,0.3805747,-0.19772741,-0.24192749,0.43418786,0.083957076,-0.64615166,-0.6231826,-0.071182646,776.04395,798.20514,805.05493,777.6557,759.5238,0.3731689453125,0.0693359375,0.96832275390625,-5.510406494140625,-6.437530517578125,-1.712188720703125,1,1.0,1.0,1.0,1.0,10.00
2024-10-11 20:26:50.355,0.9898223,0.4335851,0.66235864,1.1979657,0.67052203,0.081616476,-0.0076908134,0.94317967,0.8786235,0.3247412,0.44827482,0.9588488,0.3805747,-0.19772741,-0.24192749,0.43418786,0.083957076,-0.64615166,-0.6231826,-0.071182646,781.685,797.3993,805.4579,780.4762,915.8608,0.3731689453125,0.0693359375,0.96832275390625,-5.510406494140625,-6.437530517578125,-1.712188720703125,1,1.0,1.0,1.0,1.0,10.00
2024-10-11 20:26:50.356,0.9898223,0.4335851,0.66235864,1.1979657,0.67052203,0.081616476,-0.0076908134,0.94317967,0.8786235,0.3247412,0.44827482,0.9588488,0.3805747,-0.19772741,-0.24192749,0.43418786,0.083957076,-0.64615166,-0.6231826,-0.071182646,779.2674,801.8315,803.44324,779.2674,760.7326,0.3731689453125,0.0693359375,0.96832275390625,-5.510406494140625,-6.437530517578125,-1.712188720703125,1,1.0,1.0,1.0,1.0,10.00
2024-10-11 20:26:50.357,0.9898223,0.4335851,0.66235864,1.1979657,0.67052203,0.081616476,-0.0076908134,0.94317967,0.8786235,0.3247412,0.44827482,0.9588488,0.3805747,-0.19772741,-0.24192749,0.43418786,0.083957076,-0.64615166,-0.6231826,-0.071182646,777.6557,801.02563,808.2784,782.8938,624.94507,0.3731689453125,0.0693359375,0.96832275390625,-5.510406494140625,-6.437530517578125,-1.712188720703125,1,1.0,1.0,1.0,1.0,10.00
2024-10-11 20:26:50.357,0.9898223,0.4335851,0.66235864,1.1979657,0.67052203,0.081616476,-0.0076908134,0.94317967,0.8786235,0.3247412,0.44827482,0.9588488,0.3805747,-0.19772741,-0.24192749,0.43418786,0.083957076,-0.64615166,-0.6231826,-0.071182646,785.31134,795.78754,805.05493,788.93774,815.9341,0.3731689453125,0.0693359375,0.96832275390625,-5.510406494140625,-6.437530517578125,-1.712188720703125,1,1.0,1.0,1.0,1.0,10.00
2024-10-11 20:26:50.358,0.9898223,0.4335851,0.66235864,1.1979657,0.67052203,0.081616476,-0.0076908134,0.94317967,0.8786235,0.3247412,0.44827482,0.9588488,0.3805747,-0.19772741,-0.24192749,0.43418786,0.083957076,-0.64615166,-0.6231826,-0.071182646,783.69965,794.9817,797.8022,790.14655,871.13556,0.3731689453125,0.0693359375,0.96832275390625,-5.510406494140625,-6.437530517578125,-1.712188720703125,1,1.0,1.0,1.0,1.0,10.00
2024-10-11 20:26:50.359,0.9898223,0.4335851,0.66235864,1.1979657,0.67052203,0.081616476,-0.0076908134,0.94317967,0.8786235,0.3247412,0.44827482,0.9588488,0.3805747,-0.19772741,-0.24192749,0.43418786,0.083957076,-0.64615166,-0.6231826,-0.071182646,778.46155,801.02563,803.0403,784.10254,651.53845,0.3731689453125,0.0693359375,0.96832275390625,-5.510406494140625,-6.437530517578125,-1.712188720703125,1,1.0,1.0,1.0,1.0,10.00
2024-10-11 20:26:50.359,0.9898223,0.4335851,0.66235864,1.1979657,0.67052203,0.081616476,-0.0076908134,0.94317967,0.8786235,0.3247412,0.44827482,0.9588488,0.3805747,-0.19772741,-0.24192749,0.43418786,0.083957076,-0.64615166,-0.6231826,-0.071182646,775.64105,799.011,803.8461,774.43225,580.6227,0.3731689453125,0.0693359375,0.96832275390625,-5.510406494140625,-6.437530517578125,-1.712188720703125,1,1.0,1.0,1.0,1.0,10.00
2024-10-11 20:26:50.360,0.9898223,0.4335851,0.66235864,1.1979657,0.67052203,0.081616476,-0.0076908134,0.94317967,0.8786235,0.3247412,0.44827482,0.9588488,0.3805747,-0.19772741,-0.24192749,0.43418786,0.083957076,-0.64615166,-0.6231826,-0.071182646,772.4176,788.93774,806.6667,774.43225,785.7143,0.3731689453125,0.0693359375,0.96832275390625,-5.510406494140625,-6.437530517578125,-1.712188720703125,1,1.0,1.0,1.0,1.0,10.00
2024-10-11 20:26:50.360,0.9898223,0.4335851,0.66235864,1.1979657,0.67052203,0.081616476,-0.0076908134,0.94317967,0.8786235,0.3247412,0.44827482,0.9588488,0.3805747,-0.19772741,-0.24192749,0.43418786,0.083957076,-0.64615166,-0.6231826,-0.071182646,777.25275,792.1612,808.2784,781.28204,994.43225,0.3731689453125,0.0693359375,0.96832275390625,-5.510406494140625,-6.437530517578125,-1.712188720703125,1,1.0,1.0,1.0,1.0,10.00
2024-10-11 20:26:50.361,0.9898223,0.4335851,0.66235864,1.1979657,0.67052203,0.081616476,-0.0076908134,0.94317967,0.8786235,0.3247412,0.44827482,0.9588488,0.3805747,-0.19772741,-0.24192749,0.43418786,0.083957076,-0.64615166,-0.6231826,-0.071182646,782.0879,801.4286,813.1135,782.0879,768.3883,0.3731689453125,0.0693359375,0.96832275390625,-5.510406494140625,-6.437530517578125,-1.712188720703125,1,1.0,1.0,1.0,1.0,10.00
2024-10-11 20:26:50.400,0.9898223,0.4335851,0.66235864,1.1979657,0.67052203,0.081616476,-0.0076908134,0.94317967,0.8786235,0.3247412,0.44827482,0.9588488,0.3805747,-0.19772741,-0.24192749,0.43418786,0.083957076,-0.64615166,-0.6231826,-0.071182646,782.49084,797.8022,808.68134,777.6557,620.5128,0.3394775390625,0.064453125,0.9486083984375,-2.684173583984375,5.390777587890625,1.293487548828125,1,1.0,1.0,1.0,1.0,10.00
2024-10-11 20:26:50.402,0.9898223,0.4335851,0.66235864,1.1979657,0.67052203,0.081616476,-0.0076908134,0.94317967,0.8786235,0.3247412,0.44827482,0.9588488,0.3805747,-0.19772741,-0.24192749,0.43418786,0.083957076,-0.64615166,-0.6231826,-0.071182646,778.46155,790.9524,808.2784,776.4469,803.44324,0.3394775390625,0.064453125,0.9486083984375,-2.684173583984375,5.390777587890625,1.293487548828125,1,1.0,1.0,1.0,1.0,10.00
2024-10-11 20:26:50.403,0.9898223,0.4335851,0.66235864,1.1979657,0.67052203,0.081616476,-0.0076908134,0.94317967,0.8786235,0.3247412,0.44827482,0.9588488,0.3805747,-0.19772741,-0.24192749,0.43418786,0.083957076,-0.64615166,-0.6231826,-0.071182646,777.25275,792.96704,810.293,776.4469,812.71063,0.3394775390625,0.064453125,0.9486083984375,-2.684173583984375,5.390777587890625,1.293487548828125,1,1.0,1.0,1.0,1.0,10.00
2024-10-11 20:26:50.404,0.9898223,0.4335851,0.66235864,1.1979657,0.67052203,0.081616476,-0.0076908134,0.94317967,0.8786235,0.3247412,0.44827482,0.9588488,0.3805747,-0.19772741,-0.24192749,0.43418786,0.083957076,-0.64615166,-0.6231826,-0.071182646,784.90845,795.78754,804.2491,776.04395,640.2564,0.3394775390625,0.064453125,0.9486083984375,-2.684173583984375,5.390777587890625,1.293487548828125,1,1.0,1.0,1.0,1.0,10.00
2024-10-11 20:26:50.404,0.9898223,0.4335851,0.66235864,1.1979657,0.67052203,0.081616476,-0.0076908134,0.94317967,0.8786235,0.3247412,0.44827482,0.9588488,0.3805747,-0.19772741,-0.24192749,0.43418786,0.083957076,-0.64615166,-0.6231826,-0.071182646,788.93774,796.1905,802.6374,781.685,669.2674,0.3394775390625,0.064453125,0.9486083984375,-2.684173583984375,5.390777587890625,1.293487548828125,1,1.0,1.0,1.0,1.0,10.00
2024-10-11 20:26:50.405,0.9898223,0.4335851,0.66235864,1.1979657,0.67052203,0.081616476,-0.0076908134,0.94317967,0.8786235,0.3247412,0.44827482,0.9588488,0.3805747,-0.19772741,-0.24192749,0.43418786,0.083957076,-0.64615166,-0.6231826,-0.071182646,790.9524,799.41394,807.0696,787.326,973.47986,0.3394775390625,0.064453125,0.9486083984375,-2.684173583984375,5.390777587890625,1.293487548828125,1,1.0,1.0,1.0,1.0,10.00
2024-10-11 20:26:50.405,0.9898223,0.4335851,0.66235864,1.1979657,0.67052203,0.081616476,-0.0076908134,0.94317967,0.8786235,0.3247412,0.44827482,0.9588488,0.3805747,-0.19772741,-0.24192749,0.43418786,0.083957076,-0.64615166,-0.6231826,-0.071182646,786.52014,794.17584,807.8755,783.2967,1045.2014,0.3394775390625,0.064453125,0.9486083984375,-2.684173583984375,5.390777587890625,1.293487548828125,1,1.0,1.0,1.0,1.0,10.00
2024-10-11 20:26:50.406,0.9898223,0.4335851,0.66235864,1.1979657,0.67052203,0.081616476,-0.0076908134,0.94317967,0.8786235,0.3247412,0.44827482,0.9588488,0.3805747,-0.19772741,-0.24192749,0.43418786,0.083957076,-0.64615166,-0.6231826,-0.071182646,788.5348,797.8022,802.6374,790.9524,715.2015,0.3394775390625,0.064453125,0.9486083984375,-2.684173583984375,5.390777587890625,1.293487548828125,1,1.0,1.0,1.0,1.0,10.00
2024-10-11 20:26:50.406,0.9898223,0.4335851,0.66235864,1.1979657,0.67052203,0.081616476,-0.0076908134,0.94317967,0.8786235,0.3247412,0.44827482,0.9588488,0.3805747,-0.19772741,-0.24192749,0.43418786,0.083957076,-0.64615166,-0.6231826,-0.071182646,800.6227,804.2491,806.6667,794.57874,614.0659,0.3394775390625,0.064453125,0.9486083984375,-2.684173583984375,5.390777587890625,1.293487548828125,1,1.0,1.0,1.0,1.0,10.00
2024-10-11 20:26:50.407,0.9898223,0.4335851,0.66235864,1.1979657,0.67052203,0.081616476,-0.0076908134,0.94317967,0.8786235,0.3247412,0.44827482,0.9588488,0.3805747,-0.19772741,-0.24192749,0.43418786,0.083957076,-0.64615166,-0.6231826,-0.071182646,794.17584,797.3993,810.293,786.52014,869.92676,0.3394775390625,0.064453125,0.9486083984375,-2.684173583984375,5.390777587890625,1.293487548828125,1,1.0,1.0,1.0,1.0,10.00
2024-10-11 20:26:50.408,0.9898223,0.4335851,0.66235864,1.1979657,0.67052203,0.081616476,-0.0076908134,0.94317967,0.8786235,0.3247412,0.44827482,0.9588488,0.3805747,-0.19772741,-0.24192749,0.43418786,0.083957076,-0.64615166,-0.6231826,-0.071182646,785.31134,800.2198,807.0696,783.69965,761.53845,0.3394775390625,0.064453125,0.9486083984375,-2.684173583984375,5.390777587890625,1.293487548828125,1,1.0,1.0,1.0,1.0,10.00
2024-10-11 20:26:50.408,0.9898223,0.4335851,0.66235864,1.1979657,0.67052203,0.081616476,-0.0076908134,0.94317967,0.8786235,0.3247412,0.44827482,0.9588488,0.3805747,-0.19772741,-0.24192749,0.43418786,0.083957076,-0.64615166,-0.6231826,-0.071182646,772.01465,804.2491,804.2491,784.5055,587.8755,0.3394775390625,0.064453125,0.9486083984375,-2.684173583984375,5.390777587890625,1.293487548828125,1,1.0,1.0,1.0,1.0,10.00
2024-10-11 20:26:50.444,0.9898223,0.4335851,0.66235864,1.1979657,0.67052203,0.081616476,-0.0076908134,0.94317967,0.8786235,0.3247412,0.44827482,0.9588488,0.3805747,-0.19772741,-0.24192749,0.43418786,0.083957076,-0.64615166,-0.6231826,-0.071182646,763.95605,798.60803,801.02563,789.7436,689.41394,0.31732177734375,0.0706787109375,0.96612548828125,-1.338348388671875,10.9759521484375,2.265472412109375,1,1.0,1.0,1.0,1.0,10.00
2024-10-11 20:26:50.445,0.9898223,0.4335851,0.66235864,1.1979657,0.67052203,0.081616476,-0.0076908134,0.94317967,0.8786235,0.3247412,0.44827482,0.9588488,0.3805747,-0.19772741,-0.24192749,0.43418786,0.083957076,-0.64615166,-0.6231826,-0.071182646,776.04395,798.20514,801.8315,796.99634,848.5714,0.31732177734375,0.0706787109375,0.96612548828125,-1.338348388671875,10.9759521484375,2.265472412109375,1,1.0,1.0,1.0,1.0,10.00
2024-10-11 20:26:50.446,0.9898223,0.4335851,0.66235864,1.1979657,0.67052203,0.081616476,-0.0076908134,0.94317967,0.8786235,0.3247412,0.44827482,0.9588488,0.3805747,-0.19772741,-0.24192749,0.43418786,0.083957076,-0.64615166,-0.6231826,-0.071182646,776.04395,801.02563,801.4286,792.5641,664.83514,0.31732177734375,0.0706787109375,0.96612548828125,-1.338348388671875,10.9759521484375,2.265472412109375,1,1.0,1.0,1.0,1.0,10.00
2024-10-11 20:26:50.447,0.86164796,0.5775696,0.8683884,1.1668608,0.6587944,0.13431399,0.11760005,0.90340453,0.9480369,0.35072002,0.52975863,0.9282176,0.3825518,-0.2139404,-0.2383903,0.4345686,0.095632024,-0.6360269,-0.63102233,-0.061889406,772.8205,805.4579,785.7143,786.52014,625.7509,0.31732177734375,0.0706787109375,0.96612548828125,-1.338348388671875,10.9759521484375,2.265472412109375,1,1.0,1.0,1.0,1.0,10.00
2024-10-11 20:26:50.451,0.86164796,0.5775696,0.8683884,1.1668608,0.6587944,0.13431399,0.11760005,0.90340453,0.9480369,0.35072002,0.52975863,0.9282176,0.3825518,-0.2139404,-0.2383903,0.4345686,0.095632024,-0.6360269,-0.63102233,-0.061889406,784.10254,803.0403,793.7729,796.5934,799.011,0.31732177734375,0.0706787109375,0.96612548828125,-1.338348388671875,10.9759521484375,2.265472412109375,1,1.0,1.0,1.0,1.0,10.00
2024-10-11 20:26:50.451,0.86164796,0.5775696,0.8683884,1.1668608,0.6587944,0.13431399,0.11760005,0.90340453,0.9480369,0.35072002,0.52975863,0.9282176,0.3825518,-0.2139404,-0.2383903,0.4345686,0.095632024,-0.6360269,-0.63102233,-0.061889406,790.14655,801.4286,809.4872,801.02563,907.3993,0.31732177734375,0.0706787109375,0.96612548828125,-1.338348388671875,10.9759521484375,2.265472412109375,1,1.0,1.0,1.0,1.0,10.00
2024-10-11 20:26:50.452,0.86164796,0.5775696,0.8683884,1.1668608,0.6587944,0.13431399,0.11760005,0.90340453,0.9480369,0.35072002,0.52975863,0.9282176,0.3825518,-0.2139404,-0.2383903,0.4345686,0.095632024,-0.6360269,-0.63102233,-0.061889406,794.17584,801.4286,804.2491,795.78754,790.14655,0.31732177734375,0.0706787109375,0.96612548828125,-1.338348388671875,10.9759521484375,2.265472412109375,1,1.0,1.0,1.0,1.0,10.00
2024-10-11 20:26:50.452,0.86164796,0.5775696,0.8683884,1.1668608,0.6587944,0.13431399,0.11760005,0.90340453,0.9480369,0.35072002,0.52975863,0.9282176,0.3825518,-0.2139404,-0.2383903,0.4345686,0.095632024,-0.6360269,-0.63102233,-0.061889406,794.17584,803.0403,789.34064,799.41394,782.0879,0.31732177734375,0.0706787109375,0.96612548828125,-1.338348388671875,10.9759521484375,2.265472412109375,1,1.0,1.0,1.0,1.0,10.00
2024-10-11 20:26:50.453,0.86164796,0.5775696,0.8683884,1.1668608,0.6587944,0.13431399,0.11760005,0.90340453,0.9480369,0.35072002,0.52975863,0.9282176,0.3825518,-0.2139404,-0.2383903,0.4345686,0.095632024,-0.6360269,-0.63102233,-0.061889406,783.69965,805.05493,796.1905,803.0403,905.78754,0.31732177734375,0.0706787109375,0.96612548828125,-1.338348388671875,10.9759521484375,2.265472412109375,1,1.0,1.0,1.0,1.0,10.00
2024-10-11 20:26:50.453,0.86164796,0.5775696,0.8683884,1.1668608,0.6587944,0.13431399,0.11760005,0.90340453,0.9480369,0.35072002,0.52975863,0.9282176,0.3825518,-0.2139404,-0.2383903,0.4345686,0.095632024,-0.6360269,-0.63102233,-0.061889406,783.69965,804.2491,799.011,799.81683,880.40295,0.31732177734375,0.0706787109375,0.96612548828125,-1.338348388671875,10.9759521484375,2.265472412109375,1,1.0,1.0,1.0,1.0,10.00
2024-10-11 20:26:50.454,0.86164796,0.5775696,0.8683884,1.1668608,0.6587944,0.13431399,0.11760005,0.90340453,0.9480369,0.35072002,0.52975863,0.9282176,0.3825518,-0.2139404,-0.2383903,0.4345686,0.095632024,-0.6360269,-0.63102233,-0.061889406,792.96704,802.23444,799.011,799.81683,730.5128,0.31732177734375,0.0706787109375,0.96612548828125,-1.338348388671875,10.9759521484375,2.265472412109375,1,1.0,1.0,1.0,1.0,10.00
2024-10-11 20:26:50.455,0.86164796,0.5775696,0.8683884,1.1668608,0.6587944,0.13431399,0.11760005,0.90340453,0.9480369,0.35072002,0.52975863,0.9282176,0.3825518,-0.2139404,-0.2383903,0.4345686,0.095632024,-0.6360269,-0.63102233,-0.061889406,799.81683,799.011,802.23444,801.4286,648.71796,0.31732177734375,0.0706787109375,0.96612548828125,-1.338348388671875,10.9759521484375,2.265472412109375,1,1.0,1.0,1.0,1.0,10.00
2024-10-11 20:26:50.455,0.86164796,0.5775696,0.8683884,1.1668608,0.6587944,0.13431399,0.11760005,0.90340453,0.9480369,0.35072002,0.52975863,0.9282176,0.3825518,-0.2139404,-0.2383903,0.4345686,0.095632024,-0.6360269,-0.63102233,-0.061889406,797.8022,796.1905,802.6374,804.2491,794.57874,0.31732177734375,0.0706787109375,0.96612548828125,-1.338348388671875,10.9759521484375,2.265472412109375,1,1.0,1.0,1.0,1.0,10.00
2024-10-11 20:26:50.456,0.86164796,0.5775696,0.8683884,1.1668608,0.6587944,0.13431399,0.11760005,0.90340453,0.9480369,0.35072002,0.52975863,0.9282176,0.3825518,-0.2139404,-0.2383903,0.4345686,0.095632024,-0.6360269,-0.63102233,-0.061889406,796.5934,794.9817,806.26373,803.44324,809.89014,0.31732177734375,0.0706787109375,0.96612548828125,-1.338348388671875,10.9759521484375,2.265472412109375,1,1.0,1.0,1.0,1.0,10.00
2024-10-11 20:26:50.456,0.86164796,0.5775696,0.8683884,1.1668608,0.6587944,0.13431399,0.11760005,0.90340453,0.9480369,0.35072002,0.52975863,0.9282176,0.3825518,-0.2139404,-0.2383903,0.4345686,0.095632024,-0.6360269,-0.63102233,-0.061889406,788.1319,795.78754,795.38464,795.38464,645.09155,0.31732177734375,0.0706787109375,0.96612548828125,-1.338348388671875,10.9759521484375,2.265472412109375,1,1.0,1.0,1.0,1.0,10.00
2024-10-11 20:26:50.457,0.86164796,0.5775696,0.8683884,1.1668608,0.6587944,0.13431399,0.11760005,0.90340453,0.9480369,0.35072002,0.52975863,0.9282176,0.3825518,-0.2139404,-0.2383903,0.4345686,0.095632024,-0.6360269,-0.63102233,-0.061889406,783.2967,793.36993,801.8315,794.17584,772.4176,0.31732177734375,0.0706787109375,0.96612548828125,-1.338348388671875,10.9759521484375,2.265472412109375,1,1.0,1.0,1.0,1.0,10.00
2024-10-11 20:26:50.458,0.86164796,0.5775696,0.8683884,1.1668608,0.6587944,0.13431399,0.11760005,0.90340453,0.9480369,0.35072002,0.52975863,0.9282176,0.3825518,-0.2139404,-0.2383903,0.4345686,0.095632024,-0.6360269,-0.63102233,-0.061889406,789.34064,792.1612,804.65204,800.6227,1133.4432,0.31732177734375,0.0706787109375,0.96612548828125,-1.338348388671875,10.9759521484375,2.265472412109375,1,1.0,1.0,1.0,1.0,10.00
2024-10-11 20:26:50.458,0.86164796,0.5775696,0.8683884,1.1668608,0.6587944,0.13431399,0.11760005,0.90340453,0.9480369,0.35072002,0.52975863,0.9282176,0.3825518,-0.2139404,-0.2383903,0.4345686,0.095632024,-0.6360269,-0.63102233,-0.061889406,792.96704,796.1905,803.0403,803.0403,1141.9048,0.31732177734375,0.0706787109375,0.96612548828125,-1.338348388671875,10.9759521484375,2.265472412109375,1,1.0,1.0,1.0,1.0,10.00
2024-10-11 20:26:50.459,0.86164796,0.5775696,0.8683884,1.1668608,0.6587944,0.13431399,0.11760005,0.90340453,0.9480369,0.35072002,0.52975863,0.9282176,0.3825518,-0.2139404,-0.2383903,0.4345686,0.095632024,-0.6360269,-0.63102233,-0.061889406,793.36993,798.20514,811.0989,800.2198,951.7216,0.31732177734375,0.0706787109375,0.96612548828125,-1.338348388671875,10.9759521484375,2.265472412109375,1,1.0,1.0,1.0,1.0,10.00
2024-10-11 20:26:50.460,0.86164796,0.5775696,0.8683884,1.1668608,0.6587944,0.13431399,0.11760005,0.90340453,0.9480369,0.35072002,0.52975863,0.9282176,0.3825518,-0.2139404,-0.2383903,0.4345686,0.095632024,-0.6360269,-0.63102233,-0.061889406,794.9817,798.60803,811.9048,798.60803,980.7326,0.31732177734375,0.0706787109375,0.96612548828125,-1.338348388671875,10.9759521484375,2.265472412109375,1,1.0,1.0,1.0,1.0,10.00
2024-10-11 20:26:50.461,0.86164796,0.5775696,0.8683884,1.1668608,0.6587944,0.13431399,0.11760005,0.90340453,0.9480369,0.35072002,0.52975863,0.9282176,0.3825518,-0.2139404,-0.2383903,0.4345686,0.095632024,-0.6360269,-0.63102233,-0.061889406,789.7436,796.1905,796.99634,801.4286,1101.2087,0.31732177734375,0.0706787109375,0.96612548828125,-1.338348388671875,10.9759521484375,2.265472412109375,1,1.0,1.0,1.0,1.0,10.00
2024-10-11 20:26:50.462,0.86164796,0.5775696,0.8683884,1.1668608,0.6587944,0.13431399,0.11760005,0.90340453,0.9480369,0.35072002,0.52975863,0.9282176,0.3825518,-0.2139404,-0.2383903,0.4345686,0.095632024,-0.6360269,-0.63102233,-0.061889406,788.5348,796.1905,797.3993,801.8315,906.1905,0.31732177734375,0.0706787109375,0.96612548828125,-1.338348388671875,10.9759521484375,2.265472412109375,1,1.0,1.0,1.0,1.0,10.00
2024-10-11 20:26:50.463,0.86164796,0.5775696,0.8683884,1.1668608,0.6587944,0.13431399,0.11760005,0.90340453,0.9480369,0.35072002,0.52975863,0.9282176,0.3825518,-0.2139404,-0.2383903,0.4345686,0.095632024,-0.6360269,-0.63102233,-0.061889406,793.7729,796.99634,803.44324,797.3993,713.5897,0.31732177734375,0.0706787109375,0.96612548828125,-1.338348388671875,10.9759521484375,2.265472412109375,1,1.0,1.0,1.0,1.0,10.00
2024-10-11 20:26:50.464,0.86164796,0.5775696,0.8683884,1.1668608,0.6587944,0.13431399,0.11760005,0.90340453,0.9480369,0.35072002,0.52975863,0.9282176,0.3825518,-0.2139404,-0.2383903,0.4345686,0.095632024,-0.6360269,-0.63102233,-0.061889406,790.54944,796.99634,800.6227,797.3993,783.69965,0.31732177734375,0.0706787109375,0.96612548828125,-1.338348388671875,10.9759521484375,2.265472412109375,1,1.0,1.0,1.0,1.0,10.00
2024-10-11 20:26:50.465,0.86164796,0.5775696,0.8683884,1.1668608,0.6587944,0.13431399,0.11760005,0.90340453,0.9480369,0.35072002,0.52975863,0.9282176,0.3825518,-0.2139404,-0.2383903,0.4345686,0.095632024,-0.6360269,-0.63102233,-0.061889406,790.14655,792.5641,796.5934,799.81683,958.5714,0.2755126953125,0.0634765625,0.97174072265625,-3.237457275390625,16.187286376953125,4.015045166015625,1,1.0,1.0,1.0,1.0,10.00
2024-10-11 20:26:50.465,0.86164796,0.5775696,0.8683884,1.1668608,0.6587944,0.13431399,0.11760005,0.90340453,0.9480369,0.35072002,0.52975863,0.9282176,0.3825518,-0.2139404,-0.2383903,0.4345686,0.095632024,-0.6360269,-0.63102233,-0.061889406,795.38464,793.36993,776.8498,800.2198,805.4579,0.2755126953125,0.0634765625,0.97174072265625,-3.237457275390625,16.187286376953125,4.015045166015625,1,1.0,1.0,1.0,1.0,10.00
2024-10-11 20:26:50.466,0.86164796,0.5775696,0.8683884,1.1668608,0.6587944,0.13431399,0.11760005,0.90340453,0.9480369,0.35072002,0.52975863,0.9282176,0.3825518,-0.2139404,-0.2383903,0.4345686,0.095632024,-0.6360269,-0.63102233,-0.061889406,799.41394,796.5934,780.4762,797.8022,650.32965,0.2755126953125,0.0634765625,0.97174072265625,-3.237457275390625,16.187286376953125,4.015045166015625,1,1.0,1.0,1.0,1.0,10.00
2024-10-11 20:26:50.466,0.86164796,0.5775696,0.8683884,1.1668608,0.6587944,0.13431399,0.11760005,0.90340453,0.9480369,0.35072002,0.52975863,0.9282176,0.3825518,-0.2139404,-0.2383903,0.4345686,0.095632024,-0.6360269,-0.63102233,-0.061889406,801.4286,796.1905,802.6374,799.41394,726.4835,0.2755126953125,0.0634765625,0.97174072265625,-3.237457275390625,16.187286376953125,4.015045166015625,1,1.0,1.0,1.0,1.0,10.00
2024-10-11 20:26:50.467,0.86164796,0.5775696,0.8683884,1.1668608,0.6587944,0.13431399,0.11760005,0.90340453,0.9480369,0.35072002,0.52975863,0.9282176,0.3825518,-0.2139404,-0.2383903,0.4345686,0.095632024,-0.6360269,-0.63102233,-0.061889406,804.2491,794.9817,802.6374,804.65204,894.10254,0.2755126953125,0.0634765625,0.97174072265625,-3.237457275390625,16.187286376953125,4.015045166015625,1,1.0,1.0,1.0,1.0,10.00
2024-10-11 20:26:50.467,0.8542576,0.6810225,1.018172,1.1171485,0.7479783,0.18741935,0.20553038,0.850177,1.0261917,0.38093978,0.54840267,0.8967976,0.4043634,-0.22722343,-0.21603689,0.43741038,0.105068445,-0.6175575,-0.6278141,-0.0486815,802.6374,795.78754,794.17584,806.26373,968.24176,0.2755126953125,0.0634765625,0.97174072265625,-3.237457275390625,16.187286376953125,4.015045166015625,1,1.0,1.0,1.0,1.0,10.00
2024-10-11 20:26:50.472,0.8542576,0.6810225,1.018172,1.1171485,0.7479783,0.18741935,0.20553038,0.850177,1.0261917,0.38093978,0.54840267,0.8967976,0.4043634,-0.22722343,-0.21603689,0.43741038,0.105068445,-0.6175575,-0.6278141,-0.0486815,793.7729,794.9817,799.81683,800.2198,826.4103,0.2755126953125,0.0634765625,0.97174072265625,-3.237457275390625,16.187286376953125,4.015045166015625,1,1.0,1.0,1.0,1.0,10.00
2024-10-11 20:26:50.472,0.8542576,0.6810225,1.018172,1.1171485,0.7479783,0.18741935,0.20553038,0.850177,1.0261917,0.38093978,0.54840267,0.8967976,0.4043634,-0.22722343,-0.21603689,0.43741038,0.105068445,-0.6175575,-0.6278141,-0.0486815,789.7436,790.14655,808.2784,796.1905,854.61536,0.2755126953125,0.0634765625,0.97174072265625,-3.237457275390625,16.187286376953125,4.015045166015625,1,1.0,1.0,1.0,1.0,10.00
2024-10-11 20:26:50.473,0.8542576,0.6810225,1.018172,1.1171485,0.7479783,0.18741935,0.20553038,0.850177,1.0261917,0.38093978,0.54840267,0.8967976,0.4043634,-0.22722343,-0.21603689,0.43741038,0.105068445,-0.6175575,-0.6278141,-0.0486815,806.6667,792.1612,805.05493,816.337,913.8461,0.2755126953125,0.0634765625,0.97174072265625,-3.237457275390625,16.187286376953125,4.015045166015625,1,1.0,1.0,1.0,1.0,10.00
2024-10-11 20:26:50.473,0.8542576,0.6810225,1.018172,1.1171485,0.7479783,0.18741935,0.20553038,0.850177,1.0261917,0.38093978,0.54840267,0.8967976,0.4043634,-0.22722343,-0.21603689,0.43741038,0.105068445,-0.6175575,-0.6278141,-0.0486815,829.6337,796.99634,812.3077,839.304,780.87915,0.2755126953125,0.0634765625,0.97174072265625,-3.237457275390625,16.187286376953125,4.015045166015625,1,1.0,1.0,1.0,1.0,10.00
2024-10-11 20:26:50.474,0.8542576,0.6810225,1.018172,1.1171485,0.7479783,0.18741935,0.20553038,0.850177,1.0261917,0.38093978,0.54840267,0.8967976,0.4043634,-0.22722343,-0.21603689,0.43741038,0.105068445,-0.6175575,-0.6278141,-0.0486815,779.2674,798.20514,813.5165,796.5934,716.0073,0.2755126953125,0.0634765625,0.97174072265625,-3.237457275390625,16.187286376953125,4.015045166015625,1,1.0,1.0,1.0,1.0,10.00
2024-10-11 20:26:50.475,0.8542576,0.6810225,1.018172,1.1171485,0.7479783,0.18741935,0.20553038,0.850177,1.0261917,0.38093978,0.54840267,0.8967976,0.4043634,-0.22722343,-0.21603689,0.43741038,0.105068445,-0.6175575,-0.6278141,-0.0486815,745.42126,794.9817,807.47253,762.74725,809.0842,0.2755126953125,0.0634765625,0.97174072265625,-3.237457275390625,16.187286376953125,4.015045166015625,1,1.0,1.0,1.0,1.0,10.00
2024-10-11 20:26:50.512,0.8542576,0.6810225,1.018172,1.1171485,0.7479783,0.18741935,0.20553038,0.850177,1.0261917,0.38093978,0.54840267,0.8967976,0.4043634,-0.22722343,-0.21603689,0.43741038,0.105068445,-0.6175575,-0.6278141,-0.0486815,753.8828,796.5934,799.81683,761.13556,855.0183,0.235107421875,0.05706787109375,0.97198486328125,-3.51409912109375,18.819122314453125,5.24871826171875,1,1.0,1.0,1.0,1.0,10.00
2024-10-11 20:26:50.514,0.8542576,0.6810225,1.018172,1.1171485,0.7479783,0.18741935,0.20553038,0.850177,1.0261917,0.38093978,0.54840267,0.8967976,0.4043634,-0.22722343,-0.21603689,0.43741038,0.105068445,-0.6175575,-0.6278141,-0.0486815,742.6007,797.8022,799.011,753.0769,725.2747,0.235107421875,0.05706787109375,0.97198486328125,-3.51409912109375,18.819122314453125,5.24871826171875,1,1.0,1.0,1.0,1.0,10.00
2024-10-11 20:26:50.515,0.8542576,0.6810225,1.018172,1.1171485,0.7479783,0.18741935,0.20553038,0.850177,1.0261917,0.38093978,0.54840267,0.8967976,0.4043634,-0.22722343,-0.21603689,0.43741038,0.105068445,-0.6175575,-0.6278141,-0.0486815,721.6484,796.1905,800.2198,737.76556,697.47253,0.235107421875,0.05706787109375,0.97198486328125,-3.51409912109375,18.819122314453125,5.24871826171875,1,1.0,1.0,1.0,1.0,10.00
2024-10-11 20:26:50.516,0.8542576,0.6810225,1.018172,1.1171485,0.7479783,0.18741935,0.20553038,0.850177,1.0261917,0.38093978,0.54840267,0.8967976,0.4043634,-0.22722343,-0.21603689,0.43741038,0.105068445,-0.6175575,-0.6278141,-0.0486815,715.2015,797.3993,798.60803,730.9158,877.1795,0.235107421875,0.05706787109375,0.97198486328125,-3.51409912109375,18.819122314453125,5.24871826171875,1,1.0,1.0,1.0,1.0,10.00
2024-10-11 20:26:50.517,0.8542576,0.6810225,1.018172,1.1171485,0.7479783,0.18741935,0.20553038,0.850177,1.0261917,0.38093978,0.54840267,0.8967976,0.4043634,-0.22722343,-0.21603689,0.43741038,0.105068445,-0.6175575,-0.6278141,-0.0486815,697.8755,793.7729,803.44324,720.0366,845.34796,0.235107421875,0.05706787109375,0.97198486328125,-3.51409912109375,18.819122314453125,5.24871826171875,1,1.0,1.0,1.0,1.0,10.00
2024-10-11 20:26:50.517,0.8542576,0.6810225,1.018172,1.1171485,0.7479783,0.18741935,0.20553038,0.850177,1.0261917,0.38093978,0.54840267,0.8967976,0.4043634,-0.22722343,-0.21603689,0.43741038,0.105068445,-0.6175575,-0.6278141,-0.0486815,677.72894,790.54944,798.20514,697.47253,773.22345,0.235107421875,0.05706787109375,0.97198486328125,-3.51409912109375,18.819122314453125,5.24871826171875,1,1.0,1.0,1.0,1.0,10.00
2024-10-11 20:26:50.518,0.8542576,0.6810225,1.018172,1.1171485,0.7479783,0.18741935,0.20553038,0.850177,1.0261917,0.38093978,0.54840267,0.8967976,0.4043634,-0.22722343,-0.21603689,0.43741038,0.105068445,-0.6175575,-0.6278141,-0.0486815,688.60803,792.96704,800.6227,700.293,917.47253,0.235107421875,0.05706787109375,0.97198486328125,-3.51409912109375,18.819122314453125,5.24871826171875,1,1.0,1.0,1.0,1.0,10.00
2024-10-11 20:26:50.518,0.8542576,0.6810225,1.018172,1.1171485,0.7479783,0.18741935,0.20553038,0.850177,1.0261917,0.38093978,0.54840267,0.8967976,0.4043634,-0.22722343,-0.21603689,0.43741038,0.105068445,-0.6175575,-0.6278141,-0.0486815,691.02563,791.75824,803.8461,703.5165,985.16486,0.235107421875,0.05706787109375,0.97198486328125,-3.51409912109375,18.819122314453125,5.24871826171875,1,1.0,1.0,1.0,1.0,10.00
2024-10-11 20:26:50.519,0.8542576,0.6810225,1.018172,1.1171485,0.7479783,0.18741935,0.20553038,0.850177,1.0261917,0.38093978,0.54840267,0.8967976,0.4043634,-0.22722343,-0.21603689,0.43741038,0.105068445,-0.6175575,-0.6278141,-0.0486815,677.72894,790.14655,803.44324,697.8755,751.4652,0.235107421875,0.05706787109375,0.97198486328125,-3.51409912109375,18.819122314453125,5.24871826171875,1,1.0,1.0,1.0,1.0,10.00
2024-10-11 20:26:50.519,0.8542576,0.6810225,1.018172,1.1171485,0.7479783,0.18741935,0.20553038,0.850177,1.0261917,0.38093978,0.54840267,0.8967976,0.4043634,-0.22722343,-0.21603689,0.43741038,0.105068445,-0.6175575,-0.6278141,-0.0486815,672.8938,785.31134,806.26373,700.293,658.7912,0.235107421875,0.05706787109375,0.97198486328125,-3.51409912109375,18.819122314453125,5.24871826171875,1,1.0,1.0,1.0,1.0,10.00
2024-10-11 20:26:50.520,0.8542576,0.6810225,1.018172,1.1171485,0.7479783,0.18741935,0.20553038,0.850177,1.0261917,0.38093978,0.54840267,0.8967976,0.4043634,-0.22722343,-0.21603689,0.43741038,0.105068445,-0.6175575,-0.6278141,-0.0486815,663.22345,789.7436,807.0696,690.6227,780.4762,0.235107421875,0.05706787109375,0.97198486328125,-3.51409912109375,18.819122314453125,5.24871826171875,1,1.0,1.0,1.0,1.0,10.00
2024-10-11 20:26:50.520,0.8542576,0.6810225,1.018172,1.1171485,0.7479783,0.18741935,0.20553038,0.850177,1.0261917,0.38093978,0.54840267,0.8967976,0.4043634,-0.22722343,-0.21603689,0.43741038,0.105068445,-0.6175575,-0.6278141,-0.0486815,664.43225,790.14655,805.05493,693.8461,928.7546,0.235107421875,0.05706787109375,0.97198486328125,-3.51409912109375,18.819122314453125,5.24871826171875,1,1.0,1.0,1.0,1.0,10.00
2024-10-11 20:26:50.561,0.8542576,0.6810225,1.018172,1.1171485,0.7479783,0.18741935,0.20553038,0.850177,1.0261917,0.38093978,0.54840267,0.8967976,0.4043634,-0.22722343,-0.21603689,0.43741038,0.105068445,-0.6175575,-0.6278141,-0.0486815,672.0879,785.31134,803.8461,699.4872,769.59705,0.1927490234375,0.04412841796875,0.9698486328125,-3.57391357421875,16.725616455078125,5.689849853515625,1,1.0,1.0,1.0,1.0,10.00
2024-10-11 20:26:50.562,0.8542576,0.6810225,1.018172,1.1171485,0.7479783,0.18741935,0.20553038,0.850177,1.0261917,0.38093978,0.54840267,0.8967976,0.4043634,-0.22722343,-0.21603689,0.43741038,0.105068445,-0.6175575,-0.6278141,-0.0486815,671.28204,793.36993,805.4579,688.60803,579.41394,0.1927490234375,0.04412841796875,0.9698486328125,-3.57391357421875,16.725616455078125,5.689849853515625,1,1.0,1.0,1.0,1.0,10.00
2024-10-11 20:26:50.562,0.8542576,0.6810225,1.018172,1.1171485,0.7479783,0.18741935,0.20553038,0.850177,1.0261917,0.38093978,0.54840267,0.8967976,0.4043634,-0.22722343,-0.21603689,0.43741038,0.105068445,-0.6175575,-0.6278141,-0.0486815,672.8938,795.78754,801.4286,687.8022,749.0476,0.1927490234375,0.04412841796875,0.9698486328125,-3.57391357421875,16.725616455078125,5.689849853515625,1,1.0,1.0,1.0,1.0,10.00
2024-10-11 20:26:50.563,0.8542576,0.6810225,1.018172,1.1171485,0.7479783,0.18741935,0.20553038,0.850177,1.0261917,0.38093978,0.54840267,0.8967976,0.4043634,-0.22722343,-0.21603689,0.43741038,0.105068445,-0.6175575,-0.6278141,-0.0486815,662.8205,789.34064,797.3993,684.57874,911.4286,0.1927490234375,0.04412841796875,0.9698486328125,-3.57391357421875,16.725616455078125,5.689849853515625,1,1.0,1.0,1.0,1.0,10.00
2024-10-11 20:26:50.563,0.8542576,0.6810225,1.018172,1.1171485,0.7479783,0.18741935,0.20553038,0.850177,1.0261917,0.38093978,0.54840267,0.8967976,0.4043634,-0.22722343,-0.21603689,0.43741038,0.105068445,-0.6175575,-0.6278141,-0.0486815,664.0293,794.17584,802.6374,688.20514,682.5641,0.1927490234375,0.04412841796875,0.9698486328125,-3.57391357421875,16.725616455078125,5.689849853515625,1,1.0,1.0,1.0,1.0,10.00
2024-10-11 20:26:50.564,0.8542576,0.6810225,1.018172,1.1171485,0.7479783,0.18741935,0.20553038,0.850177,1.0261917,0.38093978,0.54840267,0.8967976,0.4043634,-0.22722343,-0.21603689,0.43741038,0.105068445,-0.6175575,-0.6278141,-0.0486815,679.7436,800.2198,802.23444,701.9048,725.6777,0.1927490234375,0.04412841796875,0.9698486328125,-3.57391357421875,16.725616455078125,5.689849853515625,1,1.0,1.0,1.0,1.0,10.00
2024-10-11 20:26:50.564,0.8542576,0.6810225,1.018172,1.1171485,0.7479783,0.18741935,0.20553038,0.850177,1.0261917,0.38093978,0.54840267,0.8967976,0.4043634,-0.22722343,-0.21603689,0.43741038,0.105068445,-0.6175575,-0.6278141,-0.0486815,684.9817,799.41394,801.4286,701.0989,1016.5934,0.1927490234375,0.04412841796875,0.9698486328125,-3.57391357421875,16.725616455078125,5.689849853515625,1,1.0,1.0,1.0,1.0,10.00
2024-10-11 20:26:50.565,0.8542576,0.73972803,1.1103671,1.048284,0.7479783,0.22888584,0.2511358,0.78198093,1.0261917,0.38901338,0.54183286,0.8848373,0.4043634,-0.23410434,-0.17843354,0.44181803,0.105068445,-0.59757435,-0.61329466,-0.037229173,686.1905,792.5641,802.6374,706.7399,896.9231,0.1927490234375,0.04412841796875,0.9698486328125,-3.57391357421875,16.725616455078125,5.689849853515625,1,1.0,1.0,1.0,1.0,10.00
2024-10-11 20:26:50.569,0.8542576,0.73972803,1.1103671,1.048284,0.7479783,0.22888584,0.2511358,0.78198093,1.0261917,0.38901338,0.54183286,0.8848373,0.4043634,-0.23410434,-0.17843354,0.44181803,0.105068445,-0.59757435,-0.61329466,-0.037229173,691.4286,797.3993,795.78754,716.4103,678.93774,0.1927490234375,0.04412841796875,0.9698486328125,-3.57391357421875,16.725616455078125,5.689849853515625,1,1.0,1.0,1.0,1.0,10.00
2024-10-11 20:26:50.570,0.8542576,0.73972803,1.1103671,1.048284,0.7479783,0.22888584,0.2511358,0.78198093,1.0261917,0.38901338,0.54183286,0.8848373,0.4043634,-0.23410434,-0.17843354,0.44181803,0.105068445,-0.59757435,-0.61329466,-0.037229173,691.02563,804.2491,800.2198,709.5604,636.2271,0.1927490234375,0.04412841796875,0.9698486328125,-3.57391357421875,16.725616455078125,5.689849853515625,1,1.0,1.0,1.0,1.0,10.00
2024-10-11 20:26:50.570,0.8542576,0.73972803,1.1103671,1.048284,0.7479783,0.22888584,0.2511358,0.78198093,1.0261917,0.38901338,0.54183286,0.8848373,0.4043634,-0.23410434,-0.17843354,0.44181803,0.105068445,-0.59757435,-0.61329466,-0.037229173,694.2491,800.6227,806.6667,713.9927,726.4835,0.1927490234375,0.04412841796875,0.9698486328125,-3.57391357421875,16.725616455078125,5.689849853515625,1,1.0,1.0,1.0,1.0,10.00
2024-10-11 20:26:50.571,0.8542576,0.73972803,1.1103671,1.048284,0.7479783,0.22888584,0.2511358,0.78198093,1.0261917,0.38901338,0.54183286,0.8848373,0.4043634,-0.23410434,-0.17843354,0.44181803,0.105068445,-0.59757435,-0.61329466,-0.037229173,706.337,805.4579,796.1905,726.08057,855.42126,0.1927490234375,0.04412841796875,0.9698486328125,-3.57391357421875,16.725616455078125,5.689849853515625,1,1.0,1.0,1.0,1.0,10.00
2024-10-11 20:26:50.571,0.8542576,0.73972803,1.1103671,1.048284,0.7479783,0.22888584,0.2511358,0.78198093,1.0261917,0.38901338,0.54183286,0.8848373,0.4043634,-0.23410434,-0.17843354,0.44181803,0.105068445,-0.59757435,-0.61329466,-0.037229173,707.9487,805.8608,791.75824,726.08057,828.4249,0.16595458984375,0.03875732421875,0.9716796875,-1.981353759765625,14.60968017578125,6.220703125,1,1.0,1.0,1.0,1.0,10.00
2024-10-11 20:26:50.572,0.8542576,0.73972803,1.1103671,1.048284,0.7479783,0.22888584,0.2511358,0.78198093,1.0261917,0.38901338,0.54183286,0.8848373,0.4043634,-0.23410434,-0.17843354,0.44181803,0.105068445,-0.59757435,-0.61329466,-0.037229173,701.9048,801.4286,805.05493,726.08057,708.3516,0.16595458984375,0.03875732421875,0.9716796875,-1.981353759765625,14.60968017578125,6.220703125,1,1.0,1.0,1.0,1.0,10.00
2024-10-11 20:26:50.572,0.8542576,0.73972803,1.1103671,1.048284,0.7479783,0.22888584,0.2511358,0.78198093,1.0261917,0.38901338,0.54183286,0.8848373,0.4043634,-0.23410434,-0.17843354,0.44181803,0.105068445,-0.59757435,-0.61329466,-0.037229173,713.1868,802.6374,807.0696,734.94507,934.7985,0.16595458984375,0.03875732421875,0.9716796875,-1.981353759765625,14.60968017578125,6.220703125,1,1.0,1.0,1.0,1.0,10.00
2024-10-11 20:26:50.573,0.8542576,0.73972803,1.1103671,1.048284,0.7479783,0.22888584,0.2511358,0.78198093,1.0261917,0.38901338,0.54183286,0.8848373,0.4043634,-0.23410434,-0.17843354,0.44181803,0.105068445,-0.59757435,-0.61329466,-0.037229173,729.707,801.8315,797.8022,746.63007,1276.4835,0.16595458984375,0.03875732421875,0.9716796875,-1.981353759765625,14.60968017578125,6.220703125,1,1.0,1.0,1.0,1.0,10.00
2024-10-11 20:26:50.573,0.8542576,0.73972803,1.1103671,1.048284,0.7479783,0.22888584,0.2511358,0.78198093,1.0261917,0.38901338,0.54183286,0.8848373,0.4043634,-0.23410434,-0.17843354,0.44181803,0.105068445,-0.59757435,-0.61329466,-0.037229173,731.31866,807.0696,796.1905,748.24176,1334.1025,0.16595458984375,0.03875732421875,0.9716796875,-1.981353759765625,14.60968017578125,6.220703125,1,1.0,1.0,1.0,1.0,10.00
2024-10-11 20:26:50.574,0.8542576,0.73972803,1.1103671,1.048284,0.7479783,0.22888584,0.2511358,0.78198093,1.0261917,0.38901338,0.54183286,0.8848373,0.4043634,-0.23410434,-0.17843354,0.44181803,0.105068445,-0.59757435,-0.61329466,-0.037229173,721.6484,812.3077,797.8022,737.3626,1237.3993,0.16595458984375,0.03875732421875,0.9716796875,-1.981353759765625,14.60968017578125,6.220703125,1,1.0,1.0,1.0,1.0,10.00
2024-10-11 20:26:50.575,0.8542576,0.73972803,1.1103671,1.048284,0.7479783,0.22888584,0.2511358,0.78198093,1.0261917,0.38901338,0.54183286,0.8848373,0.4043634,-0.23410434,-0.17843354,0.44181803,0.105068445,-0.59757435,-0.61329466,-0.037229173,716.4103,806.6667,801.8315,736.55676,1163.663,0.16595458984375,0.03875732421875,0.9716796875,-1.981353759765625,14.60968017578125,6.220703125,1,1.0,1.0,1.0,1.0,10.00
2024-10-11 20:26:50.575,0.8542576,0.73972803,1.1103671,1.048284,0.7479783,0.22888584,0.2511358,0.78198093,1.0261917,0.38901338,0.54183286,0.8848373,0.4043634,-0.23410434,-0.17843354,0.44181803,0.105068445,-0.59757435,-0.61329466,-0.037229173,732.9304,807.8755,805.4579,749.0476,777.25275,0.16595458984375,0.03875732421875,0.9716796875,-1.981353759765625,14.60968017578125,6.220703125,1,1.0,1.0,1.0,1.0,10.00
2024-10-11 20:26:50.576,0.8542576,0.73972803,1.1103671,1.048284,0.7479783,0.22888584,0.2511358,0.78198093,1.0261917,0.38901338,0.54183286,0.8848373,0.4043634,-0.23410434,-0.17843354,0.44181803,0.105068445,-0.59757435,-0.61329466,-0.037229173,738.1685,813.91943,802.6374,747.4359,413.4066,0.16595458984375,0.03875732421875,0.9716796875,-1.981353759765625,14.60968017578125,6.220703125,1,1.0,1.0,1.0,1.0,10.00
2024-10-11 20:26:50.576,0.8542576,0.73972803,1.1103671,1.048284,0.7479783,0.22888584,0.2511358,0.78198093,1.0261917,0.38901338,0.54183286,0.8848373,0.4043634,-0.23410434,-0.17843354,0.44181803,0.105068445,-0.59757435,-0.61329466,-0.037229173,726.8865,810.696,796.99634,740.58606,447.65567,0.16595458984375,0.03875732421875,0.9716796875,-1.981353759765625,14.60968017578125,6.220703125,1,1.0,1.0,1.0,1.0,10.00
2024-10-11 20:26:50.577,0.8542576,0.73972803,1.1103671,1.048284,0.7479783,0.22888584,0.2511358,0.78198093,1.0261917,0.38901338,0.54183286,0.8848373,0.4043634,-0.23410434,-0.17843354,0.44181803,0.105068445,-0.59757435,-0.61329466,-0.037229173,741.79486,809.89014,794.9817,754.68866,638.24176,0.16595458984375,0.03875732421875,0.9716796875,-1.981353759765625,14.60968017578125,6.220703125,1,1.0,1.0,1.0,1.0,10.00
2024-10-11 20:26:50.578,0.8542576,0.73972803,1.1103671,1.048284,0.7479783,0.22888584,0.2511358,0.78198093,1.0261917,0.38901338,0.54183286,0.8848373,0.4043634,-0.23410434,-0.17843354,0.44181803,0.105068445,-0.59757435,-0.61329466,-0.037229173,749.85345,816.337,797.8022,759.12085,741.39197,0.16595458984375,0.03875732421875,0.9716796875,-1.981353759765625,14.60968017578125,6.220703125,1,1.0,1.0,1.0,1.0,10.00
2024-10-11 20:26:50.598,0.8542576,0.73972803,1.1103671,1.048284,0.7479783,0.22888584,0.2511358,0.78198093,1.0261917,0.38901338,0.54183286,0.8848373,0.4043634,-0.23410434,-0.17843354,0.44181803,0.105068445,-0.59757435,-0.61329466,-0.037229173,738.5714,811.9048,799.81683,749.85345,619.304,0.16595458984375,0.03875732421875,0.9716796875,-1.981353759765625,14.60968017578125,6.220703125,1,1.0,1.0,1.0,1.0,10.00
2024-10-11 20:26:50.599,0.8542576,0.73972803,1.1103671,1.048284,0.7479783,0.22888584,0.2511358,0.78198093,1.0261917,0.38901338,0.54183286,0.8848373,0.4043634,-0.23410434,-0.17843354,0.44181803,0.105068445,-0.59757435,-0.61329466,-0.037229173,746.2271,807.0696,798.60803,759.5238,593.5165,0.16595458984375,0.03875732421875,0.9716796875,-1.981353759765625,14.60968017578125,6.220703125,1,1.0,1.0,1.0,1.0,10.00
2024-10-11 20:26:50.599,0.8542576,0.73972803,1.1103671,1.048284,0.7479783,0.22888584,0.2511358,0.78198093,1.0261917,0.38901338,0.54183286,0.8848373,0.4043634,-0.23410434,-0.17843354,0.44181803,0.105068445,-0.59757435,-0.61329466,-0.037229173,760.32965,803.44324,798.20514,778.46155,745.42126,0.16595458984375,0.03875732421875,0.9716796875,-1.981353759765625,14.60968017578125,6.220703125,1,1.0,1.0,1.0,1.0,10.00
2024-10-11 20:26:50.600,0.8542576,0.73972803,1.1103671,1.048284,0.7479783,0.22888584,0.2511358,0.78198093,1.0261917,0.38901338,0.54183286,0.8848373,0.4043634,-0.23410434,-0.17843354,0.44181803,0.105068445,-0.59757435,-0.61329466,-0.037229173,761.13556,800.2198,796.5934,779.2674,729.304,0.16595458984375,0.03875732421875,0.9716796875,-1.981353759765625,14.60968017578125,6.220703125,1,1.0,1.0,1.0,1.0,10.00
2024-10-11 20:26:50.600,0.8542576,0.73972803,1.1103671,1.048284,0.7479783,0.22888584,0.2511358,0.78198093,1.0261917,0.38901338,0.54183286,0.8848373,0.4043634,-0.23410434,-0.17843354,0.44181803,0.105068445,-0.59757435,-0.61329466,-0.037229173,770.80585,803.44324,794.9817,782.0879,581.8315,0.16595458984375,0.03875732421875,0.9716796875,-1.981353759765625,14.60968017578125,6.220703125,1,1.0,1.0,1.0,1.0,10.00
2024-10-11 20:26:50.601,0.8542576,0.73972803,1.1103671,1.048284,0.7479783,0.22888584,0.2511358,0.78198093,1.0261917,0.38901338,0.54183286,0.8848373,0.4043634,-0.23410434,-0.17843354,0.44181803,0.105068445,-0.59757435,-0.61329466,-0.037229173,770.80585,801.8315,796.99634,787.326,705.5311,0.16595458984375,0.03875732421875,0.9716796875,-1.981353759765625,14.60968017578125,6.220703125,1,1.0,1.0,1.0,1.0,10.00
2024-10-11 20:26:50.601,0.8542576,0.73972803,1.1103671,1.048284,0.7479783,0.22888584,0.2511358,0.78198093,1.0261917,0.38901338,0.54183286,0.8848373,0.4043634,-0.23410434,-0.17843354,0.44181803,0.105068445,-0.59757435,-0.61329466,-0.037229173,767.1795,801.02563,799.41394,789.7436,944.4689,0.16595458984375,0.03875732421875,0.9716796875,-1.981353759765625,14.60968017578125,6.220703125,1,1.0,1.0,1.0,1.0,10.00
2024-10-11 20:26:50.602,0.8542576,0.73972803,1.1103671,1.048284,0.7479783,0.22888584,0.2511358,0.78198093,1.0261917,0.38901338,0.54183286,0.8848373,0.4043634,-0.23410434,-0.17843354,0.44181803,0.105068445,-0.59757435,-0.61329466,-0.037229173,774.43225,802.6374,801.8315,793.7729,745.82416,0.16595458984375,0.03875732421875,0.9716796875,-1.981353759765625,14.60968017578125,6.220703125,1,1.0,1.0,1.0,1.0,10.00
2024-10-11 20:26:50.602,0.8542576,0.73972803,1.1103671,1.048284,0.7479783,0.22888584,0.2511358,0.78198093,1.0261917,0.38901338,0.54183286,0.8848373,0.4043634,-0.23410434,-0.17843354,0.44181803,0.105068445,-0.59757435,-0.61329466,-0.037229173,776.8498,801.02563,799.41394,795.38464,668.46155,0.16595458984375,0.03875732421875,0.9716796875,-1.981353759765625,14.60968017578125,6.220703125,1,1.0,1.0,1.0,1.0,10.00
2024-10-11 20:26:50.603,0.8542576,0.76355547,1.1577212,0.9625341,0.7479783,0.2533331,0.26817495,0.7082981,1.0261917,0.3861331,0.5379369,0.8848373,0.4043634,-0.23723088,-0.13498607,0.4488608,0.105068445,-0.58394676,-0.59052694,-0.026979672,788.93774,800.2198,801.4286,799.011,867.50916,0.16595458984375,0.03875732421875,0.9716796875,-1.981353759765625,14.60968017578125,6.220703125,1,1.0,1.0,1.0,1.0,10.00
2024-10-11 20:26:50.607,0.8542576,0.76355547,1.1577212,0.9625341,0.7479783,0.2533331,0.26817495,0.7082981,1.0261917,0.3861331,0.5379369,0.8848373,0.4043634,-0.23723088,-0.13498607,0.4488608,0.105068445,-0.58394676,-0.59052694,-0.026979672,796.1905,797.8022,803.0403,805.05493,1095.5677,0.16595458984375,0.03875732421875,0.9716796875,-1.981353759765625,14.60968017578125,6.220703125,1,1.0,1.0,1.0,1.0,10.00
2024-10-11 20:26:50.608,0.8542576,0.76355547,1.1577212,0.9625341,0.7479783,0.2533331,0.26817495,0.7082981,1.0261917,0.3861331,0.5379369,0.8848373,0.4043634,-0.23723088,-0.13498607,0.4488608,0.105068445,-0.58394676,-0.59052694,-0.026979672,790.9524,799.41394,803.44324,804.65204,764.35895,0.16595458984375,0.03875732421875,0.9716796875,-1.981353759765625,14.60968017578125,6.220703125,1,1.0,1.0,1.0,1.0,10.00
2024-10-11 20:26:50.628,0.8542576,0.76355547,1.1577212,0.9625341,0.7479783,0.2533331,0.26817495,0.7082981,1.0261917,0.3861331,0.5379369,0.8848373,0.4043634,-0.23723088,-0.13498607,0.4488608,0.105068445,-0.58394676,-0.59052694,-0.026979672,790.9524,802.23444,801.8315,798.20514,519.7802,0.139892578125,0.037353515625,0.99261474609375,-0.052337646484375,11.357269287109375,7.828216552734375,1,1.0,1.0,1.0,1.0,10.00
2024-10-11 20:26:50.629,0.8542576,0.76355547,1.1577212,0.9625341,0.7479783,0.2533331,0.26817495,0.7082981,1.0261917,0.3861331,0.5379369,0.8848373,0.4043634,-0.23723088,-0.13498607,0.4488608,0.105068445,-0.58394676,-0.59052694,-0.026979672,792.5641,795.38464,798.20514,797.8022,826.4103,0.139892578125,0.037353515625,0.99261474609375,-0.052337646484375,11.357269287109375,7.828216552734375,1,1.0,1.0,1.0,1.0,10.00
2024-10-11 20:26:50.629,0.8542576,0.76355547,1.1577212,0.9625341,0.7479783,0.2533331,0.26817495,0.7082981,1.0261917,0.3861331,0.5379369,0.8848373,0.4043634,-0.23723088,-0.13498607,0.4488608,0.105068445,-0.58394676,-0.59052694,-0.026979672,795.78754,791.3553,795.38464,809.4872,1161.2454,0.139892578125,0.037353515625,0.99261474609375,-0.052337646484375,11.357269287109375,7.828216552734375,1,1.0,1.0,1.0,1.0,10.00
2024-10-11 20:26:50.630,0.8542576,0.76355547,1.1577212,0.9625341,0.7479783,0.2533331,0.26817495,0.7082981,1.0261917,0.3861331,0.5379369,0.8848373,0.4043634,-0.23723088,-0.13498607,0.4488608,0.105068445,-0.58394676,-0.59052694,-0.026979672,803.44324,804.65204,795.78754,816.337,868.315,0.139892578125,0.037353515625,0.99261474609375,-0.052337646484375,11.357269287109375,7.828216552734375,1,1.0,1.0,1.0,1.0,10.00
2024-10-11 20:26:50.630,0.8542576,0.76355547,1.1577212,0.9625341,0.7479783,0.2533331,0.26817495,0.7082981,1.0261917,0.3861331,0.5379369,0.8848373,0.4043634,-0.23723088,-0.13498607,0.4488608,0.105068445,-0.58394676,-0.59052694,-0.026979672,807.0696,803.8461,802.6374,817.1429,720.84247,0.139892578125,0.037353515625,0.99261474609375,-0.052337646484375,11.357269287109375,7.828216552734375,1,1.0,1.0,1.0,1.0,10.00
2024-10-11 20:26:50.631,0.8542576,0.76355547,1.1577212,0.9625341,0.7479783,0.2533331,0.26817495,0.7082981,1.0261917,0.3861331,0.5379369,0.8848373,0.4043634,-0.23723088,-0.13498607,0.4488608,0.105068445,-0.58394676,-0.59052694,-0.026979672,807.8755,800.2198,806.26373,819.5604,825.6044,0.139892578125,0.037353515625,0.99261474609375,-0.052337646484375,11.357269287109375,7.828216552734375,1,1.0,1.0,1.0,1.0,10.00
2024-10-11 20:26:50.631,0.8542576,0.76355547,1.1577212,0.9625341,0.7479783,0.2533331,0.26817495,0.7082981,1.0261917,0.3861331,0.5379369,0.8848373,0.4043634,-0.23723088,-0.13498607,0.4488608,0.105068445,-0.58394676,-0.59052694,-0.026979672,808.68134,803.8461,807.47253,818.7546,749.0476,0.139892578125,0.037353515625,0.99261474609375,-0.052337646484375,11.357269287109375,7.828216552734375,1,1.0,1.0,1.0,1.0,10.00
2024-10-11 20:26:50.632,0.8542576,0.76355547,1.1577212,0.9625341,0.7479783,0.2533331,0.26817495,0.7082981,1.0261917,0.3861331,0.5379369,0.8848373,0.4043634,-0.23723088,-0.13498607,0.4488608,0.105068445,-0.58394676,-0.59052694,-0.026979672,810.696,803.44324,807.0696,815.5311,713.9927,0.139892578125,0.037353515625,0.99261474609375,-0.052337646484375,11.357269287109375,7.828216552734375,1,1.0,1.0,1.0,1.0,10.00
2024-10-11 20:26:50.632,0.8542576,0.76355547,1.1577212,0.9625341,0.7479783,0.2533331,0.26817495,0.7082981,1.0261917,0.3861331,0.5379369,0.8848373,0.4043634,-0.23723088,-0.13498607,0.4488608,0.105068445,-0.58394676,-0.59052694,-0.026979672,805.4579,797.8022,802.23444,809.4872,675.31134,0.139892578125,0.037353515625,0.99261474609375,-0.052337646484375,11.357269287109375,7.828216552734375,1,1.0,1.0,1.0,1.0,10.00
2024-10-11 20:26:50.633,0.8542576,0.76355547,1.1577212,0.9625341,0.7479783,0.2533331,0.26817495,0.7082981,1.0261917,0.3861331,0.5379369,0.8848373,0.4043634,-0.23723088,-0.13498607,0.4488608,0.105068445,-0.58394676,-0.59052694,-0.026979672,804.2491,794.9817,802.23444,807.47253,824.7985,0.139892578125,0.037353515625,0.99261474609375,-0.052337646484375,11.357269287109375,7.828216552734375,1,1.0,1.0,1.0,1.0,10.00
2024-10-11 20:26:50.633,0.8542576,0.76355547,1.1577212,0.9625341,0.7479783,0.2533331,0.26817495,0.7082981,1.0261917,0.3861331,0.5379369,0.8848373,0.4043634,-0.23723088,-0.13498607,0.4488608,0.105068445,-0.58394676,-0.59052694,-0.026979672,804.2491,799.011,801.02563,811.9048,767.5824,0.139892578125,0.037353515625,0.99261474609375,-0.052337646484375,11.357269287109375,7.828216552734375,1,1.0,1.0,1.0,1.0,10.00
2024-10-11 20:26:50.634,0.8542576,0.76355547,1.1577212,0.9625341,0.7479783,0.2533331,0.26817495,0.7082981,1.0261917,0.3861331,0.5379369,0.8848373,0.4043634,-0.23723088,-0.13498607,0.4488608,0.105068445,-0.58394676,-0.59052694,-0.026979672,792.1612,799.011,799.41394,805.8608,567.326,0.139892578125,0.037353515625,0.99261474609375,-0.052337646484375,11.357269287109375,7.828216552734375,1,1.0,1.0,1.0,1.0,10.00
2024-10-11 20:26:50.666,0.8542576,0.76355547,1.1577212,0.9625341,0.7479783,0.2533331,0.26817495,0.7082981,1.0261917,0.3861331,0.5379369,0.8848373,0.4043634,-0.23723088,-0.13498607,0.4488608,0.105068445,-0.58394676,-0.59052694,-0.026979672,786.52014,794.57874,799.011,797.8022,693.44324,0.12353515625,0.03546142578125,1.0076904296875,-0.88226318359375,5.689849853515625,8.62823486328125,1,1.0,1.0,1.0,1.0,10.00
2024-10-11 20:26:50.667,0.8542576,0.76355547,1.1577212,0.9625341,0.7479783,0.2533331,0.26817495,0.7082981,1.0261917,0.3861331,0.5379369,0.8848373,0.4043634,-0.23723088,-0.13498607,0.4488608,0.105068445,-0.58394676,-0.59052694,-0.026979672,785.31134,786.9231,794.9817,804.2491,1076.63,0.12353515625,0.03546142578125,1.0076904296875,-0.88226318359375,5.689849853515625,8.62823486328125,1,1.0,1.0,1.0,1.0,10.00
2024-10-11 20:26:50.668,0.8542576,0.76355547,1.1577212,0.9625341,0.7479783,0.2533331,0.26817495,0.7082981,1.0261917,0.3861331,0.5379369,0.8848373,0.4043634,-0.23723088,-0.13498607,0.4488608,0.105068445,-0.58394676,-0.59052694,-0.026979672,786.9231,788.93774,801.8315,806.26373,871.9414,0.12353515625,0.03546142578125,1.0076904296875,-0.88226318359375,5.689849853515625,8.62823486328125,1,1.0,1.0,1.0,1.0,10.00
2024-10-11 20:26:50.669,0.8542576,0.76355547,1.1577212,0.9625341,0.7479783,0.2533331,0.26817495,0.7082981,1.0261917,0.3861331,0.5379369,0.8848373,0.4043634,-0.23723088,-0.13498607,0.4488608,0.105068445,-0.58394676,-0.59052694,-0.026979672,793.7729,795.38464,800.6227,802.6374,515.34796,0.12353515625,0.03546142578125,1.0076904296875,-0.88226318359375,5.689849853515625,8.62823486328125,1,1.0,1.0,1.0,1.0,10.00
2024-10-11 20:26:50.670,0.8542576,0.76355547,1.1577212,0.9625341,0.7479783,0.2533331,0.26817495,0.7082981,1.0261917,0.3861331,0.5379369,0.8848373,0.4043634,-0.23723088,-0.13498607,0.4488608,0.105068445,-0.58394676,-0.59052694,-0.026979672,795.38464,794.57874,794.17584,805.4579,621.31866,0.12353515625,0.03546142578125,1.0076904296875,-0.88226318359375,5.689849853515625,8.62823486328125,1,1.0,1.0,1.0,1.0,10.00
2024-10-11 20:26:50.671,0.8542576,0.76355547,1.1577212,0.9625341,0.7479783,0.2533331,0.26817495,0.7082981,1.0261917,0.3861331,0.5379369,0.8848373,0.4043634,-0.23723088,-0.13498607,0.4488608,0.105068445,-0.58394676,-0.59052694,-0.026979672,796.99634,788.93774,799.81683,808.2784,797.3993,0.12353515625,0.03546142578125,1.0076904296875,-0.88226318359375,5.689849853515625,8.62823486328125,1,1.0,1.0,1.0,1.0,10.00
2024-10-11 20:26:50.672,0.8542576,0.76355547,1.1577212,0.9625341,0.7479783,0.2533331,0.26817495,0.7082981,1.0261917,0.3861331,0.5379369,0.8848373,0.4043634,-0.23723088,-0.13498607,0.4488608,0.105068445,-0.58394676,-0.59052694,-0.026979672,796.1905,790.54944,797.8022,806.6667,845.7509,0.12353515625,0.03546142578125,1.0076904296875,-0.88226318359375,5.689849853515625,8.62823486328125,1,1.0,1.0,1.0,1.0,10.00
2024-10-11 20:26:50.673,0.8542576,0.76355547,1.1577212,0.9625341,0.7479783,0.2533331,0.26817495,0.7082981,1.0261917,0.3861331,0.5379369,0.8848373,0.4043634,-0.23723088,-0.13498607,0.4488608,0.105068445,-0.58394676,-0.59052694,-0.026979672,801.8315,796.5934,798.20514,802.6374,620.9158,0.12353515625,0.03546142578125,1.0076904296875,-0.88226318359375,5.689849853515625,8.62823486328125,1,1.0,1.0,1.0,1.0,10.00
2024-10-11 20:26:50.673,0.8542576,0.76355547,1.1577212,0.9625341,0.7479783,0.2533331,0.26817495,0.7082981,1.0261917,0.3861331,0.5379369,0.8848373,0.4043634,-0.23723088,-0.13498607,0.4488608,0.105068445,-0.58394676,-0.59052694,-0.026979672,806.6667,798.20514,800.6227,803.44324,688.20514,0.12353515625,0.03546142578125,1.0076904296875,-0.88226318359375,5.689849853515625,8.62823486328125,1,1.0,1.0,1.0,1.0,10.00
2024-10-11 20:26:50.678,0.8542576,0.76355547,1.1577212,0.9625341,0.7479783,0.2533331,0.26817495,0.7082981,1.0261917,0.3861331,0.5379369,0.8848373,0.4043634,-0.23723088,-0.13498607,0.4488608,0.105068445,-0.58394676,-0.59052694,-0.026979672,802.23444,792.96704,802.6374,813.5165,843.3333,0.12353515625,0.03546142578125,1.0076904296875,-0.88226318359375,5.689849853515625,8.62823486328125,1,1.0,1.0,1.0,1.0,10.00
2024-10-11 20:26:50.679,0.8542576,0.76355547,1.1577212,0.9625341,0.7479783,0.2533331,0.26817495,0.7082981,1.0261917,0.3861331,0.5379369,0.8848373,0.4043634,-0.23723088,-0.13498607,0.4488608,0.105068445,-0.58394676,-0.59052694,-0.026979672,801.4286,797.3993,803.8461,812.3077,643.0769,0.12353515625,0.03546142578125,1.0076904296875,-0.88226318359375,5.689849853515625,8.62823486328125,1,1.0,1.0,1.0,1.0,10.00
2024-10-11 20:26:50,,,,,,,,,,,,,,,,,,,,,,,,,,,,,,,,,,,,,,/muse/elements/blink
2024-10-11 20:26:50.680,0.8542576,0.76697564,1.1780874,0.88241935,0.7479783,0.26357362,0.2710068,0.65446633,1.0261917,0.38019088,0.53637636,0.8848373,0.4043634,-0.2380334,-0.08829466,0.45510525,0.105068445,-0.58321303,-0.564811,-0.019719524,808.68134,793.36993,805.4579,809.4872,561.685,0.12353515625,0.03546142578125,1.0076904296875,-0.88226318359375,5.689849853515625,8.62823486328125,1,1.0,1.0,1.0,1.0,10.00
2024-10-11 20:26:50.711,0.8542576,0.76697564,1.1780874,0.88241935,0.7479783,0.26357362,0.2710068,0.65446633,1.0261917,0.38019088,0.53637636,0.8848373,0.4043634,-0.2380334,-0.08829466,0.45510525,0.105068445,-0.58321303,-0.564811,-0.019719524,807.8755,782.49084,798.60803,810.696,807.0696,0.1220703125,0.02667236328125,1.004638671875,-0.770111083984375,2.534637451171875,8.605804443359375,1,1.0,1.0,1.0,1.0,10.00
2024-10-11 20:26:50.712,0.8542576,0.76697564,1.1780874,0.88241935,0.7479783,0.26357362,0.2710068,0.65446633,1.0261917,0.38019088,0.53637636,0.8848373,0.4043634,-0.2380334,-0.08829466,0.45510525,0.105068445,-0.58321303,-0.564811,-0.019719524,799.011,796.99634,793.7729,806.26373,944.4689,0.1220703125,0.02667236328125,1.004638671875,-0.770111083984375,2.534637451171875,8.605804443359375,1,1.0,1.0,1.0,1.0,10.00
2024-10-11 20:26:50.713,0.8542576,0.76697564,1.1780874,0.88241935,0.7479783,0.26357362,0.2710068,0.65446633,1.0261917,0.38019088,0.53637636,0.8848373,0.4043634,-0.2380334,-0.08829466,0.45510525,0.105068445,-0.58321303,-0.564811,-0.019719524,794.9817,803.44324,800.6227,799.011,715.6044,0.1220703125,0.02667236328125,1.004638671875,-0.770111083984375,2.534637451171875,8.605804443359375,1,1.0,1.0,1.0,1.0,10.00
2024-10-11 20:26:50.714,0.8542576,0.76697564,1.1780874,0.88241935,0.7479783,0.26357362,0.2710068,0.65446633,1.0261917,0.38019088,0.53637636,0.8848373,0.4043634,-0.2380334,-0.08829466,0.45510525,0.105068445,-0.58321303,-0.564811,-0.019719524,795.38464,794.57874,799.81683,797.3993,609.2308,0.1220703125,0.02667236328125,1.004638671875,-0.770111083984375,2.534637451171875,8.605804443359375,1,1.0,1.0,1.0,1.0,10.00
2024-10-11 20:26:50.714,0.8542576,0.76697564,1.1780874,0.88241935,0.7479783,0.26357362,0.2710068,0.65446633,1.0261917,0.38019088,0.53637636,0.8848373,0.4043634,-0.2380334,-0.08829466,0.45510525,0.105068445,-0.58321303,-0.564811,-0.019719524,800.6227,791.3553,799.81683,799.41394,812.3077,0.1220703125,0.02667236328125,1.004638671875,-0.770111083984375,2.534637451171875,8.605804443359375,1,1.0,1.0,1.0,1.0,10.00
2024-10-11 20:26:50.715,0.8542576,0.76697564,1.1780874,0.88241935,0.7479783,0.26357362,0.2710068,0.65446633,1.0261917,0.38019088,0.53637636,0.8848373,0.4043634,-0.2380334,-0.08829466,0.45510525,0.105068445,-0.58321303,-0.564811,-0.019719524,806.6667,793.36993,800.2198,802.6374,1006.9231,0.1220703125,0.02667236328125,1.004638671875,-0.770111083984375,2.534637451171875,8.605804443359375,1,1.0,1.0,1.0,1.0,10.00
2024-10-11 20:26:50.715,0.8542576,0.76697564,1.1780874,0.88241935,0.7479783,0.26357362,0.2710068,0.65446633,1.0261917,0.38019088,0.53637636,0.8848373,0.4043634,-0.2380334,-0.08829466,0.45510525,0.105068445,-0.58321303,-0.564811,-0.019719524,804.65204,794.57874,794.57874,805.4579,861.06226,0.1220703125,0.02667236328125,1.004638671875,-0.770111083984375,2.534637451171875,8.605804443359375,1,1.0,1.0,1.0,1.0,10.00
2024-10-11 20:26:50.716,0.8542576,0.76697564,1.1780874,0.88241935,0.7479783,0.26357362,0.2710068,0.65446633,1.0261917,0.38019088,0.53637636,0.8848373,0.4043634,-0.2380334,-0.08829466,0.45510525,0.105068445,-0.58321303,-0.564811,-0.019719524,795.38464,790.14655,794.17584,803.0403,752.27106,0.1220703125,0.02667236328125,1.004638671875,-0.770111083984375,2.534637451171875,8.605804443359375,1,1.0,1.0,1.0,1.0,10.00
2024-10-11 20:26:50.717,0.8542576,0.76697564,1.1780874,0.88241935,0.7479783,0.26357362,0.2710068,0.65446633,1.0261917,0.38019088,0.53637636,0.8848373,0.4043634,-0.2380334,-0.08829466,0.45510525,0.105068445,-0.58321303,-0.564811,-0.019719524,794.57874,790.14655,796.99634,806.6667,930.3663,0.1220703125,0.02667236328125,1.004638671875,-0.770111083984375,2.534637451171875,8.605804443359375,1,1.0,1.0,1.0,1.0,10.00
2024-10-11 20:26:50.717,0.8542576,0.76697564,1.1780874,0.88241935,0.7479783,0.26357362,0.2710068,0.65446633,1.0261917,0.38019088,0.53637636,0.8848373,0.4043634,-0.2380334,-0.08829466,0.45510525,0.105068445,-0.58321303,-0.564811,-0.019719524,803.0403,794.9817,800.2198,818.3516,803.0403,0.1220703125,0.02667236328125,1.004638671875,-0.770111083984375,2.534637451171875,8.605804443359375,1,1.0,1.0,1.0,1.0,10.00
2024-10-11 20:26:50.718,0.8542576,0.76697564,1.1780874,0.88241935,0.7479783,0.26357362,0.2710068,0.65446633,1.0261917,0.38019088,0.53637636,0.8848373,0.4043634,-0.2380334,-0.08829466,0.45510525,0.105068445,-0.58321303,-0.564811,-0.019719524,810.293,792.1612,803.0403,821.1722,585.8608,0.1220703125,0.02667236328125,1.004638671875,-0.770111083984375,2.534637451171875,8.605804443359375,1,1.0,1.0,1.0,1.0,10.00
2024-10-11 20:26:50.719,0.8542576,0.76697564,1.1780874,0.88241935,0.7479783,0.26357362,0.2710068,0.65446633,1.0261917,0.38019088,0.53637636,0.8848373,0.4043634,-0.2380334,-0.08829466,0.45510525,0.105068445,-0.58321303,-0.564811,-0.019719524,806.26373,786.52014,802.23444,817.9487,775.2381,0.1220703125,0.02667236328125,1.004638671875,-0.770111083984375,2.534637451171875,8.605804443359375,1,1.0,1.0,1.0,1.0,10.00
2024-10-11 20:26:50.750,0.8542576,0.76697564,1.1780874,0.88241935,0.7479783,0.26357362,0.2710068,0.65446633,1.0261917,0.38019088,0.53637636,0.8848373,0.4043634,-0.2380334,-0.08829466,0.45510525,0.105068445,-0.58321303,-0.564811,-0.019719524,804.65204,786.52014,795.78754,813.1135,1072.6007,0.1197509765625,0.029541015625,0.99835205078125,0.112152099609375,2.5421142578125,8.553466796875,1,1.0,1.0,1.0,1.0,10.00
2024-10-11 20:26:50.751,0.8542576,0.76697564,1.1780874,0.88241935,0.7479783,0.26357362,0.2710068,0.65446633,1.0261917,0.38019088,0.53637636,0.8848373,0.4043634,-0.2380334,-0.08829466,0.45510525,0.105068445,-0.58321303,-0.564811,-0.019719524,815.5311,787.72894,795.38464,811.9048,900.14655,0.1197509765625,0.029541015625,0.99835205078125,0.112152099609375,2.5421142578125,8.553466796875,1,1.0,1.0,1.0,1.0,10.00
2024-10-11 20:26:50.752,0.8542576,0.76697564,1.1780874,0.88241935,0.7479783,0.26357362,0.2710068,0.65446633,1.0261917,0.38019088,0.53637636,0.8848373,0.4043634,-0.2380334,-0.08829466,0.45510525,0.105068445,-0.58321303,-0.564811,-0.019719524,820.3663,795.78754,801.4286,820.7692,651.53845,0.1197509765625,0.029541015625,0.99835205078125,0.112152099609375,2.5421142578125,8.553466796875,1,1.0,1.0,1.0,1.0,10.00
2024-10-11 20:26:50.752,0.8542576,0.76697564,1.1780874,0.88241935,0.7479783,0.26357362,0.2710068,0.65446633,1.0261917,0.38019088,0.53637636,0.8848373,0.4043634,-0.2380334,-0.08829466,0.45510525,0.105068445,-0.58321303,-0.564811,-0.019719524,792.1612,797.3993,805.05493,799.81683,698.68134,0.1197509765625,0.029541015625,0.99835205078125,0.112152099609375,2.5421142578125,8.553466796875,1,1.0,1.0,1.0,1.0,10.00
2024-10-11 20:26:50.753,0.8542576,0.76697564,1.1780874,0.88241935,0.7479783,0.26357362,0.2710068,0.65446633,1.0261917,0.38019088,0.53637636,0.8848373,0.4043634,-0.2380334,-0.08829466,0.45510525,0.105068445,-0.58321303,-0.564811,-0.019719524,773.6264,793.7729,796.99634,786.9231,663.6264,0.1197509765625,0.029541015625,0.99835205078125,0.112152099609375,2.5421142578125,8.553466796875,1,1.0,1.0,1.0,1.0,10.00
2024-10-11 20:26:50.753,0.8542576,0.76697564,1.1780874,0.88241935,0.7479783,0.26357362,0.2710068,0.65446633,1.0261917,0.38019088,0.53637636,0.8848373,0.4043634,-0.2380334,-0.08829466,0.45510525,0.105068445,-0.58321303,-0.564811,-0.019719524,767.5824,790.9524,795.78754,787.326,691.02563,0.1197509765625,0.029541015625,0.99835205078125,0.112152099609375,2.5421142578125,8.553466796875,1,1.0,1.0,1.0,1.0,10.00
2024-10-11 20:26:50.753,0.8542576,0.76697564,1.1780874,0.88241935,0.7479783,0.26357362,0.2710068,0.65446633,1.0261917,0.38019088,0.53637636,0.8848373,0.4043634,-0.2380334,-0.08829466,0.45510525,0.105068445,-0.58321303,-0.564811,-0.019719524,768.3883,787.326,804.65204,788.5348,727.28937,0.1197509765625,0.029541015625,0.99835205078125,0.112152099609375,2.5421142578125,8.553466796875,1,1.0,1.0,1.0,1.0,10.00
2024-10-11 20:26:50.754,0.8542576,0.76697564,1.1780874,0.88241935,0.7479783,0.26357362,0.2710068,0.65446633,1.0261917,0.38019088,0.53637636,0.8848373,0.4043634,-0.2380334,-0.08829466,0.45510525,0.105068445,-0.58321303,-0.564811,-0.019719524,776.8498,790.54944,809.4872,796.1905,921.0989,0.1197509765625,0.029541015625,0.99835205078125,0.112152099609375,2.5421142578125,8.553466796875,1,1.0,1.0,1.0,1.0,10.00
2024-10-11 20:26:50.754,0.8542576,0.76697564,1.1780874,0.88241935,0.7479783,0.26357362,0.2710068,0.65446633,1.0261917,0.38019088,0.53637636,0.8848373,0.4043634,-0.2380334,-0.08829466,0.45510525,0.105068445,-0.58321303,-0.564811,-0.019719524,772.01465,796.99634,808.2784,799.011,1144.3224,0.1197509765625,0.029541015625,0.99835205078125,0.112152099609375,2.5421142578125,8.553466796875,1,1.0,1.0,1.0,1.0,10.00
2024-10-11 20:26:50.755,0.8542576,0.76697564,1.1780874,0.88241935,0.7479783,0.26357362,0.2710068,0.65446633,1.0261917,0.38019088,0.53637636,0.8848373,0.4043634,-0.2380334,-0.08829466,0.45510525,0.105068445,-0.58321303,-0.564811,-0.019719524,772.8205,794.57874,804.65204,790.14655,770.0,0.1197509765625,0.029541015625,0.99835205078125,0.112152099609375,2.5421142578125,8.553466796875,1,1.0,1.0,1.0,1.0,10.00
2024-10-11 20:26:50.755,0.8542576,0.76697564,1.1780874,0.88241935,0.7479783,0.26357362,0.2710068,0.65446633,1.0261917,0.38019088,0.53637636,0.8848373,0.4043634,-0.2380334,-0.08829466,0.45510525,0.105068445,-0.58321303,-0.564811,-0.019719524,783.69965,792.96704,804.2491,791.75824,578.20514,0.1197509765625,0.029541015625,0.99835205078125,0.112152099609375,2.5421142578125,8.553466796875,1,1.0,1.0,1.0,1.0,10.00
2024-10-11 20:26:50.756,0.8542576,0.76697564,1.1780874,0.88241935,0.7479783,0.26357362,0.2710068,0.65446633,1.0261917,0.38019088,0.53637636,0.8848373,0.4043634,-0.2380334,-0.08829466,0.45510525,0.105068445,-0.58321303,-0.564811,-0.019719524,784.5055,792.96704,805.4579,792.5641,797.3993,0.1197509765625,0.029541015625,0.99835205078125,0.112152099609375,2.5421142578125,8.553466796875,1,1.0,1.0,1.0,1.0,10.00
2024-10-11 20:26:50.782,0.8542576,0.76697564,1.1780874,0.88241935,0.7479783,0.26357362,0.2710068,0.65446633,1.0261917,0.38019088,0.53637636,0.8848373,0.4043634,-0.2380334,-0.08829466,0.45510525,0.105068445,-0.58321303,-0.564811,-0.019719524,790.54944,797.8022,805.4579,794.9817,802.6374,0.1239013671875,0.02362060546875,0.99212646484375,0.336456298828125,-0.082244873046875,8.291778564453125,1,1.0,1.0,1.0,1.0,10.00
2024-10-11 20:26:50.783,0.8542576,0.7623206,1.1842195,0.819356,0.7479783,0.2693907,0.2685055,0.62716234,1.0261917,0.37357,0.5396317,0.8848373,0.4043634,-0.23472667,-0.038243778,0.4618677,0.105068445,-0.59453756,-0.5428865,-0.014510261,794.9817,800.6227,801.4286,795.78754,671.28204,0.1239013671875,0.02362060546875,0.99212646484375,0.336456298828125,-0.082244873046875,8.291778564453125,1,1.0,1.0,1.0,1.0,10.00
2024-10-11 20:26:50.788,0.8542576,0.7623206,1.1842195,0.819356,0.7479783,0.2693907,0.2685055,0.62716234,1.0261917,0.37357,0.5396317,0.8848373,0.4043634,-0.23472667,-0.038243778,0.4618677,0.105068445,-0.59453756,-0.5428865,-0.014510261,790.14655,794.57874,801.02563,791.75824,711.5751,0.1239013671875,0.02362060546875,0.99212646484375,0.336456298828125,-0.082244873046875,8.291778564453125,1,1.0,1.0,1.0,1.0,10.00
2024-10-11 20:26:50.788,0.8542576,0.7623206,1.1842195,0.819356,0.7479783,0.2693907,0.2685055,0.62716234,1.0261917,0.37357,0.5396317,0.8848373,0.4043634,-0.23472667,-0.038243778,0.4618677,0.105068445,-0.59453756,-0.5428865,-0.014510261,792.5641,794.17584,798.20514,798.60803,953.3333,0.1239013671875,0.02362060546875,0.99212646484375,0.336456298828125,-0.082244873046875,8.291778564453125,1,1.0,1.0,1.0,1.0,10.00
2024-10-11 20:26:50.789,0.8542576,0.7623206,1.1842195,0.819356,0.7479783,0.2693907,0.2685055,0.62716234,1.0261917,0.37357,0.5396317,0.8848373,0.4043634,-0.23472667,-0.038243778,0.4618677,0.105068445,-0.59453756,-0.5428865,-0.014510261,798.60803,795.38464,798.20514,804.65204,912.6374,0.1239013671875,0.02362060546875,0.99212646484375,0.336456298828125,-0.082244873046875,8.291778564453125,1,1.0,1.0,1.0,1.0,10.00
2024-10-11 20:26:50.789,0.8542576,0.7623206,1.1842195,0.819356,0.7479783,0.2693907,0.2685055,0.62716234,1.0261917,0.37357,0.5396317,0.8848373,0.4043634,-0.23472667,-0.038243778,0.4618677,0.105068445,-0.59453756,-0.5428865,-0.014510261,798.20514,791.75824,793.7729,801.8315,830.4396,0.1239013671875,0.02362060546875,0.99212646484375,0.336456298828125,-0.082244873046875,8.291778564453125,1,1.0,1.0,1.0,1.0,10.00
2024-10-11 20:26:50.790,0.8542576,0.7623206,1.1842195,0.819356,0.7479783,0.2693907,0.2685055,0.62716234,1.0261917,0.37357,0.5396317,0.8848373,0.4043634,-0.23472667,-0.038243778,0.4618677,0.105068445,-0.59453756,-0.5428865,-0.014510261,800.6227,794.17584,790.9524,805.4579,869.92676,0.1239013671875,0.02362060546875,0.99212646484375,0.336456298828125,-0.082244873046875,8.291778564453125,1,1.0,1.0,1.0,1.0,10.00
2024-10-11 20:26:50.790,0.8542576,0.7623206,1.1842195,0.819356,0.7479783,0.2693907,0.2685055,0.62716234,1.0261917,0.37357,0.5396317,0.8848373,0.4043634,-0.23472667,-0.038243778,0.4618677,0.105068445,-0.59453756,-0.5428865,-0.014510261,803.44324,799.81683,799.011,810.696,987.98535,0.1239013671875,0.02362060546875,0.99212646484375,0.336456298828125,-0.082244873046875,8.291778564453125,1,1.0,1.0,1.0,1.0,10.00
2024-10-11 20:26:50.791,0.8542576,0.7623206,1.1842195,0.819356,0.7479783,0.2693907,0.2685055,0.62716234,1.0261917,0.37357,0.5396317,0.8848373,0.4043634,-0.23472667,-0.038243778,0.4618677,0.105068445,-0.59453756,-0.5428865,-0.014510261,797.3993,792.96704,803.44324,807.8755,859.0476,0.1239013671875,0.02362060546875,0.99212646484375,0.336456298828125,-0.082244873046875,8.291778564453125,1,1.0,1.0,1.0,1.0,10.00
2024-10-11 20:26:50.792,0.8542576,0.7623206,1.1842195,0.819356,0.7479783,0.2693907,0.2685055,0.62716234,1.0261917,0.37357,0.5396317,0.8848373,0.4043634,-0.23472667,-0.038243778,0.4618677,0.105068445,-0.59453756,-0.5428865,-0.014510261,794.9817,795.78754,804.2491,807.0696,714.3956,0.1239013671875,0.02362060546875,0.99212646484375,0.336456298828125,-0.082244873046875,8.291778564453125,1,1.0,1.0,1.0,1.0,10.00
2024-10-11 20:26:50.792,0.8542576,0.7623206,1.1842195,0.819356,0.7479783,0.2693907,0.2685055,0.62716234,1.0261917,0.37357,0.5396317,0.8848373,0.4043634,-0.23472667,-0.038243778,0.4618677,0.105068445,-0.59453756,-0.5428865,-0.014510261,788.5348,796.99634,801.02563,801.02563,749.45056,0.1239013671875,0.02362060546875,0.99212646484375,0.336456298828125,-0.082244873046875,8.291778564453125,1,1.0,1.0,1.0,1.0,10.00
2024-10-11 20:26:50.793,0.8542576,0.7623206,1.1842195,0.819356,0.7479783,0.2693907,0.2685055,0.62716234,1.0261917,0.37357,0.5396317,0.8848373,0.4043634,-0.23472667,-0.038243778,0.4618677,0.105068445,-0.59453756,-0.5428865,-0.014510261,787.326,790.54944,797.3993,803.8461,1031.0989,0.1239013671875,0.02362060546875,0.99212646484375,0.336456298828125,-0.082244873046875,8.291778564453125,1,1.0,1.0,1.0,1.0,10.00
2024-10-11 20:26:50.851,0.8542576,0.7623206,1.1842195,0.819356,0.7479783,0.2693907,0.2685055,0.62716234,1.0261917,0.37357,0.5396317,0.8848373,0.4043634,-0.23472667,-0.038243778,0.4618677,0.105068445,-0.59453756,-0.5428865,-0.014510261,792.1612,792.96704,801.02563,805.05493,932.7839,0.1239013671875,0.02362060546875,0.99212646484375,0.336456298828125,-0.082244873046875,8.291778564453125,1,1.0,1.0,1.0,1.0,10.00
2024-10-11 20:26:50.852,0.8542576,0.7623206,1.1842195,0.819356,0.7479783,0.2693907,0.2685055,0.62716234,1.0261917,0.37357,0.5396317,0.8848373,0.4043634,-0.23472667,-0.038243778,0.4618677,0.105068445,-0.59453756,-0.5428865,-0.014510261,790.54944,794.57874,801.4286,798.20514,549.19415,0.1239013671875,0.02362060546875,0.99212646484375,0.336456298828125,-0.082244873046875,8.291778564453125,1,1.0,1.0,1.0,1.0,10.00
2024-10-11 20:26:50.853,0.8542576,0.7623206,1.1842195,0.819356,0.7479783,0.2693907,0.2685055,0.62716234,1.0261917,0.37357,0.5396317,0.8848373,0.4043634,-0.23472667,-0.038243778,0.4618677,0.105068445,-0.59453756,-0.5428865,-0.014510261,790.14655,789.7436,795.78754,805.05493,569.34064,0.1239013671875,0.02362060546875,0.99212646484375,0.336456298828125,-0.082244873046875,8.291778564453125,1,1.0,1.0,1.0,1.0,10.00
2024-10-11 20:26:50.853,0.8542576,0.7623206,1.1842195,0.819356,0.7479783,0.2693907,0.2685055,0.62716234,1.0261917,0.37357,0.5396317,0.8848373,0.4043634,-0.23472667,-0.038243778,0.4618677,0.105068445,-0.59453756,-0.5428865,-0.014510261,788.93774,790.9524,796.99634,808.68134,624.5421,0.1239013671875,0.02362060546875,0.99212646484375,0.336456298828125,-0.082244873046875,8.291778564453125,1,1.0,1.0,1.0,1.0,10.00
2024-10-11 20:26:50.854,0.8542576,0.7623206,1.1842195,0.819356,0.7479783,0.2693907,0.2685055,0.62716234,1.0261917,0.37357,0.5396317,0.8848373,0.4043634,-0.23472667,-0.038243778,0.4618677,0.105068445,-0.59453756,-0.5428865,-0.014510261,790.54944,789.34064,808.2784,806.6667,680.14655,0.1239013671875,0.02362060546875,0.99212646484375,0.336456298828125,-0.082244873046875,8.291778564453125,1,1.0,1.0,1.0,1.0,10.00
2024-10-11 20:26:50.855,0.8542576,0.7623206,1.1842195,0.819356,0.7479783,0.2693907,0.2685055,0.62716234,1.0261917,0.37357,0.5396317,0.8848373,0.4043634,-0.23472667,-0.038243778,0.4618677,0.105068445,-0.59453756,-0.5428865,-0.014510261,795.38464,789.7436,806.6667,803.44324,806.26373,0.1239013671875,0.02362060546875,0.99212646484375,0.336456298828125,-0.082244873046875,8.291778564453125,1,1.0,1.0,1.0,1.0,10.00
2024-10-11 20:26:50.855,0.8542576,0.7623206,1.1842195,0.819356,0.7479783,0.2693907,0.2685055,0.62716234,1.0261917,0.37357,0.5396317,0.8848373,0.4043634,-0.23472667,-0.038243778,0.4618677,0.105068445,-0.59453756,-0.5428865,-0.014510261,799.41394,790.9524,803.44324,805.8608,946.08057,0.1239013671875,0.02362060546875,0.99212646484375,0.336456298828125,-0.082244873046875,8.291778564453125,1,1.0,1.0,1.0,1.0,10.00
2024-10-11 20:26:50.856,0.8542576,0.7623206,1.1842195,0.819356,0.7479783,0.2693907,0.2685055,0.62716234,1.0261917,0.37357,0.5396317,0.8848373,0.4043634,-0.23472667,-0.038243778,0.4618677,0.105068445,-0.59453756,-0.5428865,-0.014510261,796.99634,792.5641,805.4579,807.8755,1203.956,0.1239013671875,0.02362060546875,0.99212646484375,0.336456298828125,-0.082244873046875,8.291778564453125,1,1.0,1.0,1.0,1.0,10.00
2024-10-11 20:26:50.856,0.8542576,0.7623206,1.1842195,0.819356,0.7479783,0.2693907,0.2685055,0.62716234,1.0261917,0.37357,0.5396317,0.8848373,0.4043634,-0.23472667,-0.038243778,0.4618677,0.105068445,-0.59453756,-0.5428865,-0.014510261,794.57874,793.7729,801.4286,796.1905,903.7729,0.1239013671875,0.02362060546875,0.99212646484375,0.336456298828125,-0.082244873046875,8.291778564453125,1,1.0,1.0,1.0,1.0,10.00
2024-10-11 20:26:50.857,0.8542576,0.7623206,1.1842195,0.819356,0.7479783,0.2693907,0.2685055,0.62716234,1.0261917,0.37357,0.5396317,0.8848373,0.4043634,-0.23472667,-0.038243778,0.4618677,0.105068445,-0.59453756,-0.5428865,-0.014510261,798.60803,796.99634,799.81683,793.7729,612.0513,0.1239013671875,0.02362060546875,0.99212646484375,0.336456298828125,-0.082244873046875,8.291778564453125,1,1.0,1.0,1.0,1.0,10.00
2024-10-11 20:26:50.858,0.8542576,0.7623206,1.1842195,0.819356,0.7479783,0.2693907,0.2685055,0.62716234,1.0261917,0.37357,0.5396317,0.8848373,0.4043634,-0.23472667,-0.038243778,0.4618677,0.105068445,-0.59453756,-0.5428865,-0.014510261,801.8315,797.8022,803.0403,791.3553,682.96704,0.1239013671875,0.02362060546875,0.99212646484375,0.336456298828125,-0.082244873046875,8.291778564453125,1,1.0,1.0,1.0,1.0,10.00
2024-10-11 20:26:50.858,0.8542576,0.7623206,1.1842195,0.819356,0.7479783,0.2693907,0.2685055,0.62716234,1.0261917,0.37357,0.5396317,0.8848373,0.4043634,-0.23472667,-0.038243778,0.4618677,0.105068445,-0.59453756,-0.5428865,-0.014510261,803.8461,796.99634,799.81683,792.5641,638.6447,0.1239013671875,0.02362060546875,0.99212646484375,0.336456298828125,-0.082244873046875,8.291778564453125,1,1.0,1.0,1.0,1.0,10.00
2024-10-11 20:26:50.885,0.8542576,0.7623206,1.1842195,0.819356,0.7479783,0.2693907,0.2685055,0.62716234,1.0261917,0.37357,0.5396317,0.8848373,0.4043634,-0.23472667,-0.038243778,0.4618677,0.105068445,-0.59453756,-0.5428865,-0.014510261,807.47253,801.8315,799.41394,802.6374,562.8938,0.124755859375,0.02069091796875,0.98150634765625,0.9271240234375,-1.51031494140625,9.0020751953125,1,1.0,1.0,1.0,1.0,10.00
2024-10-11 20:26:50.886,0.8542576,0.7623206,1.1842195,0.819356,0.7479783,0.2693907,0.2685055,0.62716234,1.0261917,0.37357,0.5396317,0.8848373,0.4043634,-0.23472667,-0.038243778,0.4618677,0.105068445,-0.59453756,-0.5428865,-0.014510261,806.6667,805.05493,802.23444,805.4579,586.6667,0.124755859375,0.02069091796875,0.98150634765625,0.9271240234375,-1.51031494140625,9.0020751953125,1,1.0,1.0,1.0,1.0,10.00
2024-10-11 20:26:50.886,0.8542576,0.7623206,1.1842195,0.819356,0.7479783,0.2693907,0.2685055,0.62716234,1.0261917,0.37357,0.5396317,0.8848373,0.4043634,-0.23472667,-0.038243778,0.4618677,0.105068445,-0.59453756,-0.5428865,-0.014510261,805.05493,799.81683,799.41394,803.44324,780.07324,0.124755859375,0.02069091796875,0.98150634765625,0.9271240234375,-1.51031494140625,9.0020751953125,1,1.0,1.0,1.0,1.0,10.00
2024-10-11 20:26:50.887,0.7597714,0.75933033,1.1860688,0.76396006,0.7744611,0.28020093,0.2662177,0.6086873,1.0261917,0.35866818,0.5404827,0.8692653,0.41308752,-0.22639215,0.008699508,0.47175407,0.08994857,-0.61162204,-0.5295525,-0.008491251,807.8755,796.5934,798.60803,805.8608,732.52747,0.124755859375,0.02069091796875,0.98150634765625,0.9271240234375,-1.51031494140625,9.0020751953125,1,1.0,1.0,1.0,1.0,10.00
2024-10-11 20:26:50.892,0.7597714,0.75933033,1.1860688,0.76396006,0.7744611,0.28020093,0.2662177,0.6086873,1.0261917,0.35866818,0.5404827,0.8692653,0.41308752,-0.22639215,0.008699508,0.47175407,0.08994857,-0.61162204,-0.5295525,-0.008491251,810.293,799.81683,804.2491,815.9341,641.06226,0.124755859375,0.02069091796875,0.98150634765625,0.9271240234375,-1.51031494140625,9.0020751953125,1,1.0,1.0,1.0,1.0,10.00
2024-10-11 20:26:50.893,0.7597714,0.75933033,1.1860688,0.76396006,0.7744611,0.28020093,0.2662177,0.6086873,1.0261917,0.35866818,0.5404827,0.8692653,0.41308752,-0.22639215,0.008699508,0.47175407,0.08994857,-0.61162204,-0.5295525,-0.008491251,812.3077,800.2198,807.0696,818.7546,910.6227,0.124755859375,0.02069091796875,0.98150634765625,0.9271240234375,-1.51031494140625,9.0020751953125,1,1.0,1.0,1.0,1.0,10.00
2024-10-11 20:26:50.893,0.7597714,0.75933033,1.1860688,0.76396006,0.7744611,0.28020093,0.2662177,0.6086873,1.0261917,0.35866818,0.5404827,0.8692653,0.41308752,-0.22639215,0.008699508,0.47175407,0.08994857,-0.61162204,-0.5295525,-0.008491251,810.293,796.99634,798.60803,815.5311,1118.1318,0.124755859375,0.02069091796875,0.98150634765625,0.9271240234375,-1.51031494140625,9.0020751953125,1,1.0,1.0,1.0,1.0,10.00
2024-10-11 20:26:50.894,0.7597714,0.75933033,1.1860688,0.76396006,0.7744611,0.28020093,0.2662177,0.6086873,1.0261917,0.35866818,0.5404827,0.8692653,0.41308752,-0.22639215,0.008699508,0.47175407,0.08994857,-0.61162204,-0.5295525,-0.008491251,804.65204,794.57874,793.7729,806.26373,884.83514,0.124755859375,0.02069091796875,0.98150634765625,0.9271240234375,-1.51031494140625,9.0020751953125,1,1.0,1.0,1.0,1.0,10.00
2024-10-11 20:26:50.895,0.7597714,0.75933033,1.1860688,0.76396006,0.7744611,0.28020093,0.2662177,0.6086873,1.0261917,0.35866818,0.5404827,0.8692653,0.41308752,-0.22639215,0.008699508,0.47175407,0.08994857,-0.61162204,-0.5295525,-0.008491251,801.02563,790.9524,795.78754,803.44324,747.03296,0.124755859375,0.02069091796875,0.98150634765625,0.9271240234375,-1.51031494140625,9.0020751953125,1,1.0,1.0,1.0,1.0,10.00
2024-10-11 20:26:50.895,0.7597714,0.75933033,1.1860688,0.76396006,0.7744611,0.28020093,0.2662177,0.6086873,1.0261917,0.35866818,0.5404827,0.8692653,0.41308752,-0.22639215,0.008699508,0.47175407,0.08994857,-0.61162204,-0.5295525,-0.008491251,798.60803,791.3553,803.44324,813.5165,792.96704,0.124755859375,0.02069091796875,0.98150634765625,0.9271240234375,-1.51031494140625,9.0020751953125,1,1.0,1.0,1.0,1.0,10.00
2024-10-11 20:26:50.896,0.7597714,0.75933033,1.1860688,0.76396006,0.7744611,0.28020093,0.2662177,0.6086873,1.0261917,0.35866818,0.5404827,0.8692653,0.41308752,-0.22639215,0.008699508,0.47175407,0.08994857,-0.61162204,-0.5295525,-0.008491251,796.1905,792.96704,800.6227,819.15753,1049.6337,0.124755859375,0.02069091796875,0.98150634765625,0.9271240234375,-1.51031494140625,9.0020751953125,1,1.0,1.0,1.0,1.0,10.00
2024-10-11 20:26:50.896,0.7597714,0.75933033,1.1860688,0.76396006,0.7744611,0.28020093,0.2662177,0.6086873,1.0261917,0.35866818,0.5404827,0.8692653,0.41308752,-0.22639215,0.008699508,0.47175407,0.08994857,-0.61162204,-0.5295525,-0.008491251,796.5934,794.57874,798.60803,815.12823,880.0,0.124755859375,0.02069091796875,0.98150634765625,0.9271240234375,-1.51031494140625,9.0020751953125,1,1.0,1.0,1.0,1.0,10.00
2024-10-11 20:26:50.952,0.7597714,0.75933033,1.1860688,0.76396006,0.7744611,0.28020093,0.2662177,0.6086873,1.0261917,0.35866818,0.5404827,0.8692653,0.41308752,-0.22639215,0.008699508,0.47175407,0.08994857,-0.61162204,-0.5295525,-0.008491251,798.60803,800.6227,803.8461,804.65204,616.4835,0.13031005859375,0.0234375,0.99615478515625,1.188812255859375,-3.895416259765625,8.97216796875,1,1.0,1.0,1.0,1.0,10.00
2024-10-11 20:26:50.953,0.7597714,0.75933033,1.1860688,0.76396006,0.7744611,0.28020093,0.2662177,0.6086873,1.0261917,0.35866818,0.5404827,0.8692653,0.41308752,-0.22639215,0.008699508,0.47175407,0.08994857,-0.61162204,-0.5295525,-0.008491251,800.2198,799.41394,804.2491,799.011,686.5934,0.13031005859375,0.0234375,0.99615478515625,1.188812255859375,-3.895416259765625,8.97216796875,1,1.0,1.0,1.0,1.0,10.00
2024-10-11 20:26:50.954,0.7597714,0.75933033,1.1860688,0.76396006,0.7744611,0.28020093,0.2662177,0.6086873,1.0261917,0.35866818,0.5404827,0.8692653,0.41308752,-0.22639215,0.008699508,0.47175407,0.08994857,-0.61162204,-0.5295525,-0.008491251,803.8461,797.3993,800.6227,796.99634,734.1392,0.13031005859375,0.0234375,0.99615478515625,1.188812255859375,-3.895416259765625,8.97216796875,1,1.0,1.0,1.0,1.0,10.00
2024-10-11 20:26:50.954,0.7597714,0.75933033,1.1860688,0.76396006,0.7744611,0.28020093,0.2662177,0.6086873,1.0261917,0.35866818,0.5404827,0.8692653,0.41308752,-0.22639215,0.008699508,0.47175407,0.08994857,-0.61162204,-0.5295525,-0.008491251,805.4579,801.4286,799.81683,801.8315,756.30035,0.13031005859375,0.0234375,0.99615478515625,1.188812255859375,-3.895416259765625,8.97216796875,1,1.0,1.0,1.0,1.0,10.00
2024-10-11 20:26:50.955,0.7597714,0.75933033,1.1860688,0.76396006,0.7744611,0.28020093,0.2662177,0.6086873,1.0261917,0.35866818,0.5404827,0.8692653,0.41308752,-0.22639215,0.008699508,0.47175407,0.08994857,-0.61162204,-0.5295525,-0.008491251,800.2198,803.44324,800.6227,799.41394,768.7912,0.13031005859375,0.0234375,0.99615478515625,1.188812255859375,-3.895416259765625,8.97216796875,1,1.0,1.0,1.0,1.0,10.00
2024-10-11 20:26:50.955,0.7597714,0.75933033,1.1860688,0.76396006,0.7744611,0.28020093,0.2662177,0.6086873,1.0261917,0.35866818,0.5404827,0.8692653,0.41308752,-0.22639215,0.008699508,0.47175407,0.08994857,-0.61162204,-0.5295525,-0.008491251,807.0696,803.0403,800.6227,797.8022,900.9524,0.13031005859375,0.0234375,0.99615478515625,1.188812255859375,-3.895416259765625,8.97216796875,1,1.0,1.0,1.0,1.0,10.00
2024-10-11 20:26:50.956,0.7597714,0.75933033,1.1860688,0.76396006,0.7744611,0.28020093,0.2662177,0.6086873,1.0261917,0.35866818,0.5404827,0.8692653,0.41308752,-0.22639215,0.008699508,0.47175407,0.08994857,-0.61162204,-0.5295525,-0.008491251,818.3516,796.1905,799.81683,805.05493,947.28937,0.13031005859375,0.0234375,0.99615478515625,1.188812255859375,-3.895416259765625,8.97216796875,1,1.0,1.0,1.0,1.0,10.00
2024-10-11 20:26:50.957,0.7597714,0.75933033,1.1860688,0.76396006,0.7744611,0.28020093,0.2662177,0.6086873,1.0261917,0.35866818,0.5404827,0.8692653,0.41308752,-0.22639215,0.008699508,0.47175407,0.08994857,-0.61162204,-0.5295525,-0.008491251,811.50183,795.38464,799.81683,804.65204,720.84247,0.13031005859375,0.0234375,0.99615478515625,1.188812255859375,-3.895416259765625,8.97216796875,1,1.0,1.0,1.0,1.0,10.00
2024-10-11 20:26:50.957,0.7597714,0.75933033,1.1860688,0.76396006,0.7744611,0.28020093,0.2662177,0.6086873,1.0261917,0.35866818,0.5404827,0.8692653,0.41308752,-0.22639215,0.008699508,0.47175407,0.08994857,-0.61162204,-0.5295525,-0.008491251,805.05493,802.6374,804.2491,806.26373,642.27106,0.13031005859375,0.0234375,0.99615478515625,1.188812255859375,-3.895416259765625,8.97216796875,1,1.0,1.0,1.0,1.0,10.00
2024-10-11 20:26:50.958,0.7597714,0.75933033,1.1860688,0.76396006,0.7744611,0.28020093,0.2662177,0.6086873,1.0261917,0.35866818,0.5404827,0.8692653,0.41308752,-0.22639215,0.008699508,0.47175407,0.08994857,-0.61162204,-0.5295525,-0.008491251,802.6374,801.4286,804.65204,808.2784,830.0366,0.13031005859375,0.0234375,0.99615478515625,1.188812255859375,-3.895416259765625,8.97216796875,1,1.0,1.0,1.0,1.0,10.00
2024-10-11 20:26:50.958,0.7597714,0.75933033,1.1860688,0.76396006,0.7744611,0.28020093,0.2662177,0.6086873,1.0261917,0.35866818,0.5404827,0.8692653,0.41308752,-0.22639215,0.008699508,0.47175407,0.08994857,-0.61162204,-0.5295525,-0.008491251,798.60803,795.38464,803.8461,802.6374,954.94507,0.13031005859375,0.0234375,0.99615478515625,1.188812255859375,-3.895416259765625,8.97216796875,1,1.0,1.0,1.0,1.0,10.00
2024-10-11 20:26:50.959,0.7597714,0.75933033,1.1860688,0.76396006,0.7744611,0.28020093,0.2662177,0.6086873,1.0261917,0.35866818,0.5404827,0.8692653,0.41308752,-0.22639215,0.008699508,0.47175407,0.08994857,-0.61162204,-0.5295525,-0.008491251,793.7729,795.38464,805.05493,795.78754,887.25275,0.13031005859375,0.0234375,0.99615478515625,1.188812255859375,-3.895416259765625,8.97216796875,1,1.0,1.0,1.0,1.0,10.00
2024-10-11 20:26:50.985,0.7597714,0.75933033,1.1860688,0.76396006,0.7744611,0.28020093,0.2662177,0.6086873,1.0261917,0.35866818,0.5404827,0.8692653,0.41308752,-0.22639215,0.008699508,0.47175407,0.08994857,-0.61162204,-0.5295525,-0.008491251,786.52014,794.17584,803.44324,792.5641,595.9341,0.140869140625,0.0185546875,1.00823974609375,0.7476806640625,-4.822540283203125,7.902984619140625,1,1.0,1.0,1.0,1.0,10.00
2024-10-11 20:26:50.986,0.7597714,0.75933033,1.1860688,0.76396006,0.7744611,0.28020093,0.2662177,0.6086873,1.0261917,0.35866818,0.5404827,0.8692653,0.41308752,-0.22639215,0.008699508,0.47175407,0.08994857,-0.61162204,-0.5295525,-0.008491251,786.52014,791.3553,799.81683,800.2198,773.6264,0.140869140625,0.0185546875,1.00823974609375,0.7476806640625,-4.822540283203125,7.902984619140625,1,1.0,1.0,1.0,1.0,10.00
2024-10-11 20:26:50.987,0.7597714,0.75933033,1.1860688,0.76396006,0.7744611,0.28020093,0.2662177,0.6086873,1.0261917,0.35866818,0.5404827,0.8692653,0.41308752,-0.22639215,0.008699508,0.47175407,0.08994857,-0.61162204,-0.5295525,-0.008491251,783.69965,785.7143,796.99634,803.44324,1114.1025,0.140869140625,0.0185546875,1.00823974609375,0.7476806640625,-4.822540283203125,7.902984619140625,1,1.0,1.0,1.0,1.0,10.00
2024-10-11 20:26:50.988,0.7597714,0.75933033,1.1860688,0.76396006,0.7744611,0.28020093,0.2662177,0.6086873,1.0261917,0.35866818,0.5404827,0.8692653,0.41308752,-0.22639215,0.008699508,0.47175407,0.08994857,-0.61162204,-0.5295525,-0.008491251,784.10254,788.1319,797.8022,799.011,780.4762,0.140869140625,0.0185546875,1.00823974609375,0.7476806640625,-4.822540283203125,7.902984619140625,1,1.0,1.0,1.0,1.0,10.00
2024-10-11 20:26:50.988,0.7597714,0.75933033,1.1860688,0.76396006,0.7744611,0.28020093,0.2662177,0.6086873,1.0261917,0.35866818,0.5404827,0.8692653,0.41308752,-0.22639215,0.008699508,0.47175407,0.08994857,-0.61162204,-0.5295525,-0.008491251,790.9524,791.75824,807.0696,797.3993,694.65204,0.140869140625,0.0185546875,1.00823974609375,0.7476806640625,-4.822540283203125,7.902984619140625,1,1.0,1.0,1.0,1.0,10.00
2024-10-11 20:26:50.989,0.67906547,0.76413536,1.1862125,0.7085444,0.8059233,0.2952703,0.26718736,0.5913031,1.0261917,0.33943713,0.5404827,0.82014745,0.42582446,-0.216318,0.04440577,0.48625806,0.06959753,-0.6255431,-0.52304155,-0.0013630739,792.5641,790.54944,805.05493,798.20514,882.01465,0.140869140625,0.0185546875,1.00823974609375,0.7476806640625,-4.822540283203125,7.902984619140625,1,1.0,1.0,1.0,1.0,10.00
2024-10-11 20:26:50.994,0.67906547,0.76413536,1.1862125,0.7085444,0.8059233,0.2952703,0.26718736,0.5913031,1.0261917,0.33943713,0.5404827,0.82014745,0.42582446,-0.216318,0.04440577,0.48625806,0.06959753,-0.6255431,-0.52304155,-0.0013630739,792.5641,793.7729,800.2198,796.5934,834.87177,0.140869140625,0.0185546875,1.00823974609375,0.7476806640625,-4.822540283203125,7.902984619140625,1,1.0,1.0,1.0,1.0,10.00
2024-10-11 20:26:50.994,0.67906547,0.76413536,1.1862125,0.7085444,0.8059233,0.2952703,0.26718736,0.5913031,1.0261917,0.33943713,0.5404827,0.82014745,0.42582446,-0.216318,0.04440577,0.48625806,0.06959753,-0.6255431,-0.52304155,-0.0013630739,797.8022,794.57874,802.6374,791.75824,717.619,0.140869140625,0.0185546875,1.00823974609375,0.7476806640625,-4.822540283203125,7.902984619140625,1,1.0,1.0,1.0,1.0,10.00
2024-10-11 20:26:50.995,0.67906547,0.76413536,1.1862125,0.7085444,0.8059233,0.2952703,0.26718736,0.5913031,1.0261917,0.33943713,0.5404827,0.82014745,0.42582446,-0.216318,0.04440577,0.48625806,0.06959753,-0.6255431,-0.52304155,-0.0013630739,795.78754,793.7729,804.65204,792.5641,692.23444,0.140869140625,0.0185546875,1.00823974609375,0.7476806640625,-4.822540283203125,7.902984619140625,1,1.0,1.0,1.0,1.0,10.00
2024-10-11 20:26:50.996,0.67906547,0.76413536,1.1862125,0.7085444,0.8059233,0.2952703,0.26718736,0.5913031,1.0261917,0.33943713,0.5404827,0.82014745,0.42582446,-0.216318,0.04440577,0.48625806,0.06959753,-0.6255431,-0.52304155,-0.0013630739,790.54944,789.34064,799.011,789.34064,848.5714,0.140869140625,0.0185546875,1.00823974609375,0.7476806640625,-4.822540283203125,7.902984619140625,1,1.0,1.0,1.0,1.0,10.00
2024-10-11 20:26:50.996,0.67906547,0.76413536,1.1862125,0.7085444,0.8059233,0.2952703,0.26718736,0.5913031,1.0261917,0.33943713,0.5404827,0.82014745,0.42582446,-0.216318,0.04440577,0.48625806,0.06959753,-0.6255431,-0.52304155,-0.0013630739,790.14655,791.3553,796.99634,781.685,772.4176,0.140869140625,0.0185546875,1.00823974609375,0.7476806640625,-4.822540283203125,7.902984619140625,1,1.0,1.0,1.0,1.0,10.00
2024-10-11 20:26:50.997,0.67906547,0.76413536,1.1862125,0.7085444,0.8059233,0.2952703,0.26718736,0.5913031,1.0261917,0.33943713,0.5404827,0.82014745,0.42582446,-0.216318,0.04440577,0.48625806,0.06959753,-0.6255431,-0.52304155,-0.0013630739,790.54944,795.38464,798.20514,783.2967,663.22345,0.140869140625,0.0185546875,1.00823974609375,0.7476806640625,-4.822540283203125,7.902984619140625,1,1.0,1.0,1.0,1.0,10.00
2024-10-11 20:26:51.022,0.67906547,0.76413536,1.1862125,0.7085444,0.8059233,0.2952703,0.26718736,0.5913031,1.0261917,0.33943713,0.5404827,0.82014745,0.42582446,-0.216318,0.04440577,0.48625806,0.06959753,-0.6255431,-0.52304155,-0.0013630739,792.5641,790.14655,795.78754,786.9231,857.03296,0.15557861328125,0.01812744140625,1.00146484375,0.8074951171875,-5.09918212890625,6.69921875,1,1.0,1.0,1.0,1.0,10.00
2024-10-11 20:26:51.022,0.67906547,0.76413536,1.1862125,0.7085444,0.8059233,0.2952703,0.26718736,0.5913031,1.0261917,0.33943713,0.5404827,0.82014745,0.42582446,-0.216318,0.04440577,0.48625806,0.06959753,-0.6255431,-0.52304155,-0.0013630739,791.3553,793.7729,793.36993,784.10254,1014.17584,0.15557861328125,0.01812744140625,1.00146484375,0.8074951171875,-5.09918212890625,6.69921875,1,1.0,1.0,1.0,1.0,10.00
2024-10-11 20:26:51.023,0.67906547,0.76413536,1.1862125,0.7085444,0.8059233,0.2952703,0.26718736,0.5913031,1.0261917,0.33943713,0.5404827,0.82014745,0.42582446,-0.216318,0.04440577,0.48625806,0.06959753,-0.6255431,-0.52304155,-0.0013630739,793.7729,802.23444,794.9817,784.5055,796.1905,0.15557861328125,0.01812744140625,1.00146484375,0.8074951171875,-5.09918212890625,6.69921875,1,1.0,1.0,1.0,1.0,10.00
2024-10-11 20:26:51.024,0.67906547,0.76413536,1.1862125,0.7085444,0.8059233,0.2952703,0.26718736,0.5913031,1.0261917,0.33943713,0.5404827,0.82014745,0.42582446,-0.216318,0.04440577,0.48625806,0.06959753,-0.6255431,-0.52304155,-0.0013630739,799.81683,803.8461,796.99634,790.54944,640.2564,0.15557861328125,0.01812744140625,1.00146484375,0.8074951171875,-5.09918212890625,6.69921875,1,1.0,1.0,1.0,1.0,10.00
2024-10-11 20:26:51.024,0.67906547,0.76413536,1.1862125,0.7085444,0.8059233,0.2952703,0.26718736,0.5913031,1.0261917,0.33943713,0.5404827,0.82014745,0.42582446,-0.216318,0.04440577,0.48625806,0.06959753,-0.6255431,-0.52304155,-0.0013630739,798.20514,802.23444,797.3993,801.02563,695.4579,0.15557861328125,0.01812744140625,1.00146484375,0.8074951171875,-5.09918212890625,6.69921875,1,1.0,1.0,1.0,1.0,10.00
2024-10-11 20:26:51.025,0.67906547,0.76413536,1.1862125,0.7085444,0.8059233,0.2952703,0.26718736,0.5913031,1.0261917,0.33943713,0.5404827,0.82014745,0.42582446,-0.216318,0.04440577,0.48625806,0.06959753,-0.6255431,-0.52304155,-0.0013630739,792.96704,797.3993,793.7729,802.6374,1224.1025,0.15557861328125,0.01812744140625,1.00146484375,0.8074951171875,-5.09918212890625,6.69921875,1,1.0,1.0,1.0,1.0,10.00
2024-10-11 20:26:51.025,0.67906547,0.76413536,1.1862125,0.7085444,0.8059233,0.2952703,0.26718736,0.5913031,1.0261917,0.33943713,0.5404827,0.82014745,0.42582446,-0.216318,0.04440577,0.48625806,0.06959753,-0.6255431,-0.52304155,-0.0013630739,792.96704,795.78754,793.36993,797.3993,1133.4432,0.15557861328125,0.01812744140625,1.00146484375,0.8074951171875,-5.09918212890625,6.69921875,1,1.0,1.0,1.0,1.0,10.00
2024-10-11 20:26:51.026,0.67906547,0.76413536,1.1862125,0.7085444,0.8059233,0.2952703,0.26718736,0.5913031,1.0261917,0.33943713,0.5404827,0.82014745,0.42582446,-0.216318,0.04440577,0.48625806,0.06959753,-0.6255431,-0.52304155,-0.0013630739,788.1319,799.011,792.1612,795.38464,712.381,0.15557861328125,0.01812744140625,1.00146484375,0.8074951171875,-5.09918212890625,6.69921875,1,1.0,1.0,1.0,1.0,10.00
2024-10-11 20:26:51.026,0.67906547,0.76413536,1.1862125,0.7085444,0.8059233,0.2952703,0.26718736,0.5913031,1.0261917,0.33943713,0.5404827,0.82014745,0.42582446,-0.216318,0.04440577,0.48625806,0.06959753,-0.6255431,-0.52304155,-0.0013630739,785.31134,798.20514,788.93774,798.20514,805.8608,0.15557861328125,0.01812744140625,1.00146484375,0.8074951171875,-5.09918212890625,6.69921875,1,1.0,1.0,1.0,1.0,10.00
2024-10-11 20:26:51.027,0.67906547,0.76413536,1.1862125,0.7085444,0.8059233,0.2952703,0.26718736,0.5913031,1.0261917,0.33943713,0.5404827,0.82014745,0.42582446,-0.216318,0.04440577,0.48625806,0.06959753,-0.6255431,-0.52304155,-0.0013630739,786.9231,795.78754,795.78754,796.5934,786.1172,0.15557861328125,0.01812744140625,1.00146484375,0.8074951171875,-5.09918212890625,6.69921875,1,1.0,1.0,1.0,1.0,10.00
2024-10-11 20:26:51.028,0.67906547,0.76413536,1.1862125,0.7085444,0.8059233,0.2952703,0.26718736,0.5913031,1.0261917,0.33943713,0.5404827,0.82014745,0.42582446,-0.216318,0.04440577,0.48625806,0.06959753,-0.6255431,-0.52304155,-0.0013630739,787.72894,795.78754,801.02563,795.38464,680.9524,0.15557861328125,0.01812744140625,1.00146484375,0.8074951171875,-5.09918212890625,6.69921875,1,1.0,1.0,1.0,1.0,10.00
2024-10-11 20:26:51.028,0.67906547,0.76413536,1.1862125,0.7085444,0.8059233,0.2952703,0.26718736,0.5913031,1.0261917,0.33943713,0.5404827,0.82014745,0.42582446,-0.216318,0.04440577,0.48625806,0.06959753,-0.6255431,-0.52304155,-0.0013630739,790.54944,798.60803,803.0403,802.6374,770.0,0.15557861328125,0.01812744140625,1.00146484375,0.8074951171875,-5.09918212890625,6.69921875,1,1.0,1.0,1.0,1.0,10.00
2024-10-11 20:26:51.086,0.67906547,0.76413536,1.1862125,0.7085444,0.8059233,0.2952703,0.26718736,0.5913031,1.0261917,0.33943713,0.5404827,0.82014745,0.42582446,-0.216318,0.04440577,0.48625806,0.06959753,-0.6255431,-0.52304155,-0.0013630739,792.1612,796.5934,802.6374,801.8315,850.989,0.15557861328125,0.01812744140625,1.00146484375,0.8074951171875,-5.09918212890625,6.69921875,1,1.0,1.0,1.0,1.0,10.00
2024-10-11 20:26:51.087,0.67906547,0.76413536,1.1862125,0.7085444,0.8059233,0.2952703,0.26718736,0.5913031,1.0261917,0.33943713,0.5404827,0.82014745,0.42582446,-0.216318,0.04440577,0.48625806,0.06959753,-0.6255431,-0.52304155,-0.0013630739,790.54944,798.20514,804.65204,796.99634,727.28937,0.15557861328125,0.01812744140625,1.00146484375,0.8074951171875,-5.09918212890625,6.69921875,1,1.0,1.0,1.0,1.0,10.00
2024-10-11 20:26:51.088,0.67906547,0.76413536,1.1862125,0.7085444,0.8059233,0.2952703,0.26718736,0.5913031,1.0261917,0.33943713,0.5404827,0.82014745,0.42582446,-0.216318,0.04440577,0.48625806,0.06959753,-0.6255431,-0.52304155,-0.0013630739,789.34064,800.2198,801.8315,798.60803,694.65204,0.15557861328125,0.01812744140625,1.00146484375,0.8074951171875,-5.09918212890625,6.69921875,1,1.0,1.0,1.0,1.0,10.00
2024-10-11 20:26:51.088,0.67906547,0.76413536,1.1862125,0.7085444,0.8059233,0.2952703,0.26718736,0.5913031,1.0261917,0.33943713,0.5404827,0.82014745,0.42582446,-0.216318,0.04440577,0.48625806,0.06959753,-0.6255431,-0.52304155,-0.0013630739,790.9524,801.8315,801.8315,805.05493,837.28937,0.15557861328125,0.01812744140625,1.00146484375,0.8074951171875,-5.09918212890625,6.69921875,1,1.0,1.0,1.0,1.0,10.00
2024-10-11 20:26:51.089,0.67906547,0.76413536,1.1862125,0.7085444,0.8059233,0.2952703,0.26718736,0.5913031,1.0261917,0.33943713,0.5404827,0.82014745,0.42582446,-0.216318,0.04440577,0.48625806,0.06959753,-0.6255431,-0.52304155,-0.0013630739,790.54944,799.41394,805.05493,804.65204,914.65204,0.15557861328125,0.01812744140625,1.00146484375,0.8074951171875,-5.09918212890625,6.69921875,1,1.0,1.0,1.0,1.0,10.00
2024-10-11 20:26:51.089,0.67906547,0.76413536,1.1862125,0.7085444,0.8059233,0.2952703,0.26718736,0.5913031,1.0261917,0.33943713,0.5404827,0.82014745,0.42582446,-0.216318,0.04440577,0.48625806,0.06959753,-0.6255431,-0.52304155,-0.0013630739,788.5348,794.9817,801.02563,795.38464,867.1062,0.15557861328125,0.01812744140625,1.00146484375,0.8074951171875,-5.09918212890625,6.69921875,1,1.0,1.0,1.0,1.0,10.00
2024-10-11 20:26:51.090,0.67906547,0.76413536,1.1862125,0.7085444,0.8059233,0.2952703,0.26718736,0.5913031,1.0261917,0.33943713,0.5404827,0.82014745,0.42582446,-0.216318,0.04440577,0.48625806,0.06959753,-0.6255431,-0.52304155,-0.0013630739,790.54944,794.57874,796.99634,791.75824,783.2967,0.15557861328125,0.01812744140625,1.00146484375,0.8074951171875,-5.09918212890625,6.69921875,1,1.0,1.0,1.0,1.0,10.00
2024-10-11 20:26:51.091,0.59229755,0.7752437,1.1847682,0.65460426,0.84219426,0.30735302,0.26977643,0.58505154,1.0261917,0.33540127,0.5404827,0.7719789,0.44014493,-0.21028136,0.06697099,0.50432354,0.043719478,-0.6329288,-0.51723963,3.4678524E-4,788.1319,796.1905,799.011,792.1612,691.4286,0.15557861328125,0.01812744140625,1.00146484375,0.8074951171875,-5.09918212890625,6.69921875,1,1.0,1.0,1.0,1.0,10.00
2024-10-11 20:26:51.095,0.59229755,0.7752437,1.1847682,0.65460426,0.84219426,0.30735302,0.26977643,0.58505154,1.0261917,0.33540127,0.5404827,0.7719789,0.44014493,-0.21028136,0.06697099,0.50432354,0.043719478,-0.6329288,-0.51723963,3.4678524E-4,792.96704,797.3993,803.44324,799.81683,1008.93774,0.15557861328125,0.01812744140625,1.00146484375,0.8074951171875,-5.09918212890625,6.69921875,1,1.0,1.0,1.0,1.0,10.00
2024-10-11 20:26:51.096,0.59229755,0.7752437,1.1847682,0.65460426,0.84219426,0.30735302,0.26977643,0.58505154,1.0261917,0.33540127,0.5404827,0.7719789,0.44014493,-0.21028136,0.06697099,0.50432354,0.043719478,-0.6329288,-0.51723963,3.4678524E-4,793.7729,797.8022,803.44324,796.5934,1082.2711,0.15557861328125,0.01812744140625,1.00146484375,0.8074951171875,-5.09918212890625,6.69921875,1,1.0,1.0,1.0,1.0,10.00
2024-10-11 20:26:51.097,0.59229755,0.7752437,1.1847682,0.65460426,0.84219426,0.30735302,0.26977643,0.58505154,1.0261917,0.33540127,0.5404827,0.7719789,0.44014493,-0.21028136,0.06697099,0.50432354,0.043719478,-0.6329288,-0.51723963,3.4678524E-4,784.90845,799.011,799.011,780.4762,642.674,0.15557861328125,0.01812744140625,1.00146484375,0.8074951171875,-5.09918212890625,6.69921875,1,1.0,1.0,1.0,1.0,10.00
2024-10-11 20:26:51.097,0.59229755,0.7752437,1.1847682,0.65460426,0.84219426,0.30735302,0.26977643,0.58505154,1.0261917,0.33540127,0.5404827,0.7719789,0.44014493,-0.21028136,0.06697099,0.50432354,0.043719478,-0.6329288,-0.51723963,3.4678524E-4,785.31134,797.3993,796.5934,782.0879,562.0879,0.15557861328125,0.01812744140625,1.00146484375,0.8074951171875,-5.09918212890625,6.69921875,1,1.0,1.0,1.0,1.0,10.00
2024-10-11 20:26:51.122,0.59229755,0.7752437,1.1847682,0.65460426,0.84219426,0.30735302,0.26977643,0.58505154,1.0261917,0.33540127,0.5404827,0.7719789,0.44014493,-0.21028136,0.06697099,0.50432354,0.043719478,-0.6329288,-0.51723963,3.4678524E-4,784.90845,796.1905,797.8022,788.5348,670.07324,0.15911865234375,0.01629638671875,0.99432373046875,0.5682373046875,-3.551483154296875,4.598236083984375,1,1.0,1.0,1.0,1.0,10.00
2024-10-11 20:26:51.123,0.59229755,0.7752437,1.1847682,0.65460426,0.84219426,0.30735302,0.26977643,0.58505154,1.0261917,0.33540127,0.5404827,0.7719789,0.44014493,-0.21028136,0.06697099,0.50432354,0.043719478,-0.6329288,-0.51723963,3.4678524E-4,794.9817,797.3993,800.2198,794.17584,627.76556,0.15911865234375,0.01629638671875,0.99432373046875,0.5682373046875,-3.551483154296875,4.598236083984375,1,1.0,1.0,1.0,1.0,10.00
2024-10-11 20:26:51.124,0.59229755,0.7752437,1.1847682,0.65460426,0.84219426,0.30735302,0.26977643,0.58505154,1.0261917,0.33540127,0.5404827,0.7719789,0.44014493,-0.21028136,0.06697099,0.50432354,0.043719478,-0.6329288,-0.51723963,3.4678524E-4,800.2198,802.6374,798.60803,789.34064,541.13556,0.15911865234375,0.01629638671875,0.99432373046875,0.5682373046875,-3.551483154296875,4.598236083984375,1,1.0,1.0,1.0,1.0,10.00
2024-10-11 20:26:51.124,0.59229755,0.7752437,1.1847682,0.65460426,0.84219426,0.30735302,0.26977643,0.58505154,1.0261917,0.33540127,0.5404827,0.7719789,0.44014493,-0.21028136,0.06697099,0.50432354,0.043719478,-0.6329288,-0.51723963,3.4678524E-4,795.38464,801.4286,797.3993,784.90845,591.0989,0.15911865234375,0.01629638671875,0.99432373046875,0.5682373046875,-3.551483154296875,4.598236083984375,1,1.0,1.0,1.0,1.0,10.00
2024-10-11 20:26:51.125,0.59229755,0.7752437,1.1847682,0.65460426,0.84219426,0.30735302,0.26977643,0.58505154,1.0261917,0.33540127,0.5404827,0.7719789,0.44014493,-0.21028136,0.06697099,0.50432354,0.043719478,-0.6329288,-0.51723963,3.4678524E-4,796.5934,795.38464,799.81683,790.9524,736.1539,0.15911865234375,0.01629638671875,0.99432373046875,0.5682373046875,-3.551483154296875,4.598236083984375,1,1.0,1.0,1.0,1.0,10.00
2024-10-11 20:26:51.126,0.59229755,0.7752437,1.1847682,0.65460426,0.84219426,0.30735302,0.26977643,0.58505154,1.0261917,0.33540127,0.5404827,0.7719789,0.44014493,-0.21028136,0.06697099,0.50432354,0.043719478,-0.6329288,-0.51723963,3.4678524E-4,792.96704,794.57874,798.60803,793.36993,919.4872,0.15911865234375,0.01629638671875,0.99432373046875,0.5682373046875,-3.551483154296875,4.598236083984375,1,1.0,1.0,1.0,1.0,10.00
2024-10-11 20:26:51.126,0.59229755,0.7752437,1.1847682,0.65460426,0.84219426,0.30735302,0.26977643,0.58505154,1.0261917,0.33540127,0.5404827,0.7719789,0.44014493,-0.21028136,0.06697099,0.50432354,0.043719478,-0.6329288,-0.51723963,3.4678524E-4,793.7729,794.57874,799.011,793.7729,930.7692,0.15911865234375,0.01629638671875,0.99432373046875,0.5682373046875,-3.551483154296875,4.598236083984375,1,1.0,1.0,1.0,1.0,10.00
2024-10-11 20:26:51.127,0.59229755,0.7752437,1.1847682,0.65460426,0.84219426,0.30735302,0.26977643,0.58505154,1.0261917,0.33540127,0.5404827,0.7719789,0.44014493,-0.21028136,0.06697099,0.50432354,0.043719478,-0.6329288,-0.51723963,3.4678524E-4,796.5934,797.3993,800.2198,796.1905,876.77655,0.15911865234375,0.01629638671875,0.99432373046875,0.5682373046875,-3.551483154296875,4.598236083984375,1,1.0,1.0,1.0,1.0,10.00
2024-10-11 20:26:51.127,0.59229755,0.7752437,1.1847682,0.65460426,0.84219426,0.30735302,0.26977643,0.58505154,1.0261917,0.33540127,0.5404827,0.7719789,0.44014493,-0.21028136,0.06697099,0.50432354,0.043719478,-0.6329288,-0.51723963,3.4678524E-4,786.52014,795.38464,802.23444,797.8022,934.7985,0.15911865234375,0.01629638671875,0.99432373046875,0.5682373046875,-3.551483154296875,4.598236083984375,1,1.0,1.0,1.0,1.0,10.00
2024-10-11 20:26:51.128,0.59229755,0.7752437,1.1847682,0.65460426,0.84219426,0.30735302,0.26977643,0.58505154,1.0261917,0.33540127,0.5404827,0.7719789,0.44014493,-0.21028136,0.06697099,0.50432354,0.043719478,-0.6329288,-0.51723963,3.4678524E-4,781.685,793.7729,802.23444,797.8022,802.6374,0.15911865234375,0.01629638671875,0.99432373046875,0.5682373046875,-3.551483154296875,4.598236083984375,1,1.0,1.0,1.0,1.0,10.00
2024-10-11 20:26:51.128,0.59229755,0.7752437,1.1847682,0.65460426,0.84219426,0.30735302,0.26977643,0.58505154,1.0261917,0.33540127,0.5404827,0.7719789,0.44014493,-0.21028136,0.06697099,0.50432354,0.043719478,-0.6329288,-0.51723963,3.4678524E-4,785.31134,795.38464,800.2198,802.23444,632.6007,0.15911865234375,0.01629638671875,0.99432373046875,0.5682373046875,-3.551483154296875,4.598236083984375,1,1.0,1.0,1.0,1.0,10.00
2024-10-11 20:26:51.129,0.59229755,0.7752437,1.1847682,0.65460426,0.84219426,0.30735302,0.26977643,0.58505154,1.0261917,0.33540127,0.5404827,0.7719789,0.44014493,-0.21028136,0.06697099,0.50432354,0.043719478,-0.6329288,-0.51723963,3.4678524E-4,787.326,797.3993,793.7729,802.6374,865.89746,0.15911865234375,0.01629638671875,0.99432373046875,0.5682373046875,-3.551483154296875,4.598236083984375,1,1.0,1.0,1.0,1.0,10.00
2024-10-11 20:26:51.186,0.59229755,0.7752437,1.1847682,0.65460426,0.84219426,0.30735302,0.26977643,0.58505154,1.0261917,0.33540127,0.5404827,0.7719789,0.44014493,-0.21028136,0.06697099,0.50432354,0.043719478,-0.6329288,-0.51723963,3.4678524E-4,790.9524,799.41394,795.78754,807.47253,1117.326,0.1697998046875,0.01824951171875,0.98809814453125,-0.127105712890625,-3.102874755859375,3.581390380859375,1,1.0,1.0,1.0,1.0,10.00
2024-10-11 20:26:51.187,0.59229755,0.7752437,1.1847682,0.65460426,0.84219426,0.30735302,0.26977643,0.58505154,1.0261917,0.33540127,0.5404827,0.7719789,0.44014493,-0.21028136,0.06697099,0.50432354,0.043719478,-0.6329288,-0.51723963,3.4678524E-4,790.54944,797.8022,805.8608,806.26373,787.72894,0.1697998046875,0.01824951171875,0.98809814453125,-0.127105712890625,-3.102874755859375,3.581390380859375,1,1.0,1.0,1.0,1.0,10.00
2024-10-11 20:26:51.188,0.59229755,0.7752437,1.1847682,0.65460426,0.84219426,0.30735302,0.26977643,0.58505154,1.0261917,0.33540127,0.5404827,0.7719789,0.44014493,-0.21028136,0.06697099,0.50432354,0.043719478,-0.6329288,-0.51723963,3.4678524E-4,796.5934,802.23444,805.05493,794.57874,680.54944,0.1697998046875,0.01824951171875,0.98809814453125,-0.127105712890625,-3.102874755859375,3.581390380859375,1,1.0,1.0,1.0,1.0,10.00
2024-10-11 20:26:51.188,0.59229755,0.7752437,1.1847682,0.65460426,0.84219426,0.30735302,0.26977643,0.58505154,1.0261917,0.33540127,0.5404827,0.7719789,0.44014493,-0.21028136,0.06697099,0.50432354,0.043719478,-0.6329288,-0.51723963,3.4678524E-4,802.23444,802.6374,799.81683,789.34064,770.0,0.1697998046875,0.01824951171875,0.98809814453125,-0.127105712890625,-3.102874755859375,3.581390380859375,1,1.0,1.0,1.0,1.0,10.00
2024-10-11 20:26:51.189,0.59229755,0.7752437,1.1847682,0.65460426,0.84219426,0.30735302,0.26977643,0.58505154,1.0261917,0.33540127,0.5404827,0.7719789,0.44014493,-0.21028136,0.06697099,0.50432354,0.043719478,-0.6329288,-0.51723963,3.4678524E-4,803.44324,797.3993,794.9817,796.5934,691.02563,0.1697998046875,0.01824951171875,0.98809814453125,-0.127105712890625,-3.102874755859375,3.581390380859375,1,1.0,1.0,1.0,1.0,10.00
2024-10-11 20:26:51.190,0.59229755,0.7752437,1.1847682,0.65460426,0.84219426,0.30735302,0.26977643,0.58505154,1.0261917,0.33540127,0.5404827,0.7719789,0.44014493,-0.21028136,0.06697099,0.50432354,0.043719478,-0.6329288,-0.51723963,3.4678524E-4,814.3223,798.60803,795.38464,804.65204,689.011,0.1697998046875,0.01824951171875,0.98809814453125,-0.127105712890625,-3.102874755859375,3.581390380859375,1,1.0,1.0,1.0,1.0,10.00
2024-10-11 20:26:51.190,0.59229755,0.7752437,1.1847682,0.65460426,0.84219426,0.30735302,0.26977643,0.58505154,1.0261917,0.33540127,0.5404827,0.7719789,0.44014493,-0.21028136,0.06697099,0.50432354,0.043719478,-0.6329288,-0.51723963,3.4678524E-4,817.1429,799.81683,796.99634,798.20514,862.674,0.1697998046875,0.01824951171875,0.98809814453125,-0.127105712890625,-3.102874755859375,3.581390380859375,1,1.0,1.0,1.0,1.0,10.00
2024-10-11 20:26:51.191,0.59229755,0.7752437,1.1847682,0.65460426,0.84219426,0.30735302,0.26977643,0.58505154,1.0261917,0.33540127,0.5404827,0.7719789,0.44014493,-0.21028136,0.06697099,0.50432354,0.043719478,-0.6329288,-0.51723963,3.4678524E-4,817.1429,800.6227,796.5934,801.02563,1176.9597,0.1697998046875,0.01824951171875,0.98809814453125,-0.127105712890625,-3.102874755859375,3.581390380859375,1,1.0,1.0,1.0,1.0,10.00
2024-10-11 20:26:51.191,0.59229755,0.7752437,1.1847682,0.65460426,0.84219426,0.30735302,0.26977643,0.58505154,1.0261917,0.33540127,0.5404827,0.7719789,0.44014493,-0.21028136,0.06697099,0.50432354,0.043719478,-0.6329288,-0.51723963,3.4678524E-4,820.7692,802.23444,797.3993,803.0403,1033.1135,0.1697998046875,0.01824951171875,0.98809814453125,-0.127105712890625,-3.102874755859375,3.581390380859375,1,1.0,1.0,1.0,1.0,10.00
2024-10-11 20:26:51.192,0.54684854,0.78687495,1.1816548,0.6447869,0.88488173,0.3112145,0.27139875,0.6007357,1.0232308,0.34794036,0.5420871,0.7614186,0.45358822,-0.20876783,0.08048935,0.52402496,0.013946574,-0.63464344,-0.5081807,-0.007572659,816.7399,801.8315,796.5934,799.41394,718.4249,0.1697998046875,0.01824951171875,0.98809814453125,-0.127105712890625,-3.102874755859375,3.581390380859375,1,1.0,1.0,1.0,1.0,10.00
2024-10-11 20:26:51.197,0.54684854,0.78687495,1.1816548,0.6447869,0.88488173,0.3112145,0.27139875,0.6007357,1.0232308,0.34794036,0.5420871,0.7614186,0.45358822,-0.20876783,0.08048935,0.52402496,0.013946574,-0.63464344,-0.5081807,-0.007572659,809.89014,801.8315,796.99634,799.81683,836.4835,0.1697998046875,0.01824951171875,0.98809814453125,-0.127105712890625,-3.102874755859375,3.581390380859375,1,1.0,1.0,1.0,1.0,10.00
2024-10-11 20:26:51.198,0.54684854,0.78687495,1.1816548,0.6447869,0.88488173,0.3112145,0.27139875,0.6007357,1.0232308,0.34794036,0.5420871,0.7614186,0.45358822,-0.20876783,0.08048935,0.52402496,0.013946574,-0.63464344,-0.5081807,-0.007572659,812.3077,803.8461,801.4286,798.20514,951.31866,0.1697998046875,0.01824951171875,0.98809814453125,-0.127105712890625,-3.102874755859375,3.581390380859375,1,1.0,1.0,1.0,1.0,10.00
2024-10-11 20:26:51.222,0.54684854,0.78687495,1.1816548,0.6447869,0.88488173,0.3112145,0.27139875,0.6007357,1.0232308,0.34794036,0.5420871,0.7614186,0.45358822,-0.20876783,0.08048935,0.52402496,0.013946574,-0.63464344,-0.5081807,-0.007572659,809.89014,802.23444,800.6227,799.011,731.31866,0.16595458984375,0.0133056640625,0.99945068359375,-0.381317138671875,-1.5850830078125,2.429962158203125,1,1.0,1.0,1.0,1.0,10.00
