TimeStamp,Delta_TP9,Delta_AF7,Delta_AF8,Delta_TP10,Theta_TP9,Theta_AF7,Theta_AF8,Theta_TP10,Alpha_TP9,Alpha_AF7,Alpha_AF8,Alpha_TP10,Beta_TP9,Beta_AF7,Beta_AF8,Beta_TP10,Gamma_TP9,Gamma_AF7,Gamma_AF8,Gamma_TP10,RAW_TP9,RAW_AF7,RAW_AF8,RAW_TP10,AUX_RIGHT,Accelerometer_X,Accelerometer_Y,Accelerometer_Z,Gyro_X,Gyro_Y,Gyro_Z,HeadBandOn,HSI_TP9,HSI_AF7,HSI_AF8,HSI_TP10,Battery,Elements
2024-10-11 20:11:08.198,0.73628277,0.42799878,0.9819176,1.0390208,0.20028003,0.049804814,0.47766513,0.6573254,0.69508106,-0.2121028,0.49480867,0.63164407,0.694104,-0.2147055,-0.040878184,0.47376293,-0.12291207,-0.42321855,-0.5284184,-0.18395072,798.60803,804.65204,805.8608,797.8022,805.8608,-0.07708740234375,0.0975341796875,1.01171875,-0.19439697265625,-3.461761474609375,-7.394561767578125,1,1.0,1.0,1.0,1.0,15.00
2024-10-11 20:11:08.199,0.73628277,0.42799878,0.9819176,1.0390208,0.20028003,0.049804814,0.47766513,0.6573254,0.69508106,-0.2121028,0.49480867,0.63164407,0.694104,-0.2147055,-0.040878184,0.47376293,-0.12291207,-0.42321855,-0.5284184,-0.18395072,800.6227,802.23444,806.6667,804.2491,601.978,-0.07708740234375,0.0975341796875,1.01171875,-0.19439697265625,-3.461761474609375,-7.394561767578125,1,1.0,1.0,1.0,1.0,15.00
2024-10-11 20:11:08.200,0.73628277,0.42799878,0.9819176,1.0390208,0.20028003,0.049804814,0.47766513,0.6573254,0.69508106,-0.2121028,0.49480867,0.63164407,0.694104,-0.2147055,-0.040878184,0.47376293,-0.12291207,-0.42321855,-0.5284184,-0.18395072,803.8461,795.38464,803.8461,809.0842,816.337,-0.07708740234375,0.0975341796875,1.01171875,-0.19439697265625,-3.461761474609375,-7.394561767578125,1,1.0,1.0,1.0,1.0,15.00
2024-10-11 20:11:08.200,0.73628277,0.42799878,0.9819176,1.0390208,0.20028003,0.049804814,0.47766513,0.6573254,0.69508106,-0.2121028,0.49480867,0.63164407,0.694104,-0.2147055,-0.040878184,0.47376293,-0.12291207,-0.42321855,-0.5284184,-0.18395072,798.20514,797.3993,803.0403,808.2784,777.25275,-0.07708740234375,0.0975341796875,1.01171875,-0.19439697265625,-3.461761474609375,-7.394561767578125,1,1.0,1.0,1.0,1.0,15.00
2024-10-11 20:11:08.201,0.73628277,0.42799878,0.9819176,1.0390208,0.20028003,0.049804814,0.47766513,0.6573254,0.69508106,-0.2121028,0.49480867,0.63164407,0.694104,-0.2147055,-0.040878184,0.47376293,-0.12291207,-0.42321855,-0.5284184,-0.18395072,803.44324,803.8461,809.0842,806.6667,593.1135,-0.07708740234375,0.0975341796875,1.01171875,-0.19439697265625,-3.461761474609375,-7.394561767578125,1,1.0,1.0,1.0,1.0,15.00
2024-10-11 20:11:08.202,0.73628277,0.42799878,0.9819176,1.0390208,0.20028003,0.049804814,0.47766513,0.6573254,0.69508106,-0.2121028,0.49480867,0.63164407,0.694104,-0.2147055,-0.040878184,0.47376293,-0.12291207,-0.42321855,-0.5284184,-0.18395072,807.47253,799.81683,803.8461,801.02563,742.6007,-0.07708740234375,0.0975341796875,1.01171875,-0.19439697265625,-3.461761474609375,-7.394561767578125,1,1.0,1.0,1.0,1.0,15.00
2024-10-11 20:11:08.202,0.73628277,0.42799878,0.9819176,1.0390208,0.20028003,0.049804814,0.47766513,0.6573254,0.69508106,-0.2121028,0.49480867,0.63164407,0.694104,-0.2147055,-0.040878184,0.47376293,-0.12291207,-0.42321855,-0.5284184,-0.18395072,806.26373,797.8022,801.4286,802.6374,956.1539,-0.07708740234375,0.0975341796875,1.01171875,-0.19439697265625,-3.461761474609375,-7.394561767578125,1,1.0,1.0,1.0,1.0,15.00
2024-10-11 20:11:08.203,0.73628277,0.42799878,0.9819176,1.0390208,0.20028003,0.049804814,0.47766513,0.6573254,0.69508106,-0.2121028,0.49480867,0.63164407,0.694104,-0.2147055,-0.040878184,0.47376293,-0.12291207,-0.42321855,-0.5284184,-0.18395072,805.4579,803.0403,805.05493,804.65204,699.89014,-0.07708740234375,0.0975341796875,1.01171875,-0.19439697265625,-3.461761474609375,-7.394561767578125,1,1.0,1.0,1.0,1.0,15.00
2024-10-11 20:11:08.203,0.73628277,0.42799878,0.9819176,1.0390208,0.20028003,0.049804814,0.47766513,0.6573254,0.69508106,-0.2121028,0.49480867,0.63164407,0.694104,-0.2147055,-0.040878184,0.47376293,-0.12291207,-0.42321855,-0.5284184,-0.18395072,797.3993,803.44324,804.2491,800.6227,503.663,-0.07708740234375,0.0975341796875,1.01171875,-0.19439697265625,-3.461761474609375,-7.394561767578125,1,1.0,1.0,1.0,1.0,15.00
2024-10-11 20:11:08.204,0.73628277,0.42799878,0.9819176,1.0390208,0.20028003,0.049804814,0.47766513,0.6573254,0.69508106,-0.2121028,0.49480867,0.63164407,0.694104,-0.2147055,-0.040878184,0.47376293,-0.12291207,-0.42321855,-0.5284184,-0.18395072,802.23444,803.0403,801.4286,798.20514,726.8865,-0.07708740234375,0.0975341796875,1.01171875,-0.19439697265625,-3.461761474609375,-7.394561767578125,1,1.0,1.0,1.0,1.0,15.00
2024-10-11 20:11:08.204,0.73628277,0.42799878,0.9819176,1.0390208,0.20028003,0.049804814,0.47766513,0.6573254,0.69508106,-0.2121028,0.49480867,0.63164407,0.694104,-0.2147055,-0.040878184,0.47376293,-0.12291207,-0.42321855,-0.5284184,-0.18395072,804.2491,804.65204,796.99634,797.3993,1040.7693,-0.07708740234375,0.0975341796875,1.01171875,-0.19439697265625,-3.461761474609375,-7.394561767578125,1,1.0,1.0,1.0,1.0,15.00
2024-10-11 20:11:08.205,0.73628277,0.42799878,0.9819176,1.0390208,0.20028003,0.049804814,0.47766513,0.6573254,0.69508106,-0.2121028,0.49480867,0.63164407,0.694104,-0.2147055,-0.040878184,0.47376293,-0.12291207,-0.42321855,-0.5284184,-0.18395072,801.8315,809.89014,803.0403,799.81683,801.8315,-0.07708740234375,0.0975341796875,1.01171875,-0.19439697265625,-3.461761474609375,-7.394561767578125,1,1.0,1.0,1.0,1.0,15.00
2024-10-11 20:11:08.301,0.73628277,0.42799878,0.9819176,1.0390208,0.20028003,0.049804814,0.47766513,0.6573254,0.69508106,-0.2121028,0.49480867,0.63164407,0.694104,-0.2147055,-0.040878184,0.47376293,-0.12291207,-0.42321855,-0.5284184,-0.18395072,802.6374,810.696,807.47253,797.8022,653.1502,-0.07708740234375,0.0975341796875,1.01171875,-0.19439697265625,-3.461761474609375,-7.394561767578125,1,1.0,1.0,1.0,1.0,15.00
2024-10-11 20:11:08.301,0.73628277,0.42799878,0.9819176,1.0390208,0.20028003,0.049804814,0.47766513,0.6573254,0.69508106,-0.2121028,0.49480867,0.63164407,0.694104,-0.2147055,-0.040878184,0.47376293,-0.12291207,-0.42321855,-0.5284184,-0.18395072,793.7729,801.02563,809.4872,797.8022,743.8095,-0.07708740234375,0.0975341796875,1.01171875,-0.19439697265625,-3.461761474609375,-7.394561767578125,1,1.0,1.0,1.0,1.0,15.00
2024-10-11 20:11:08.302,0.73628277,0.42799878,0.9819176,1.0390208,0.20028003,0.049804814,0.47766513,0.6573254,0.69508106,-0.2121028,0.49480867,0.63164407,0.694104,-0.2147055,-0.040878184,0.47376293,-0.12291207,-0.42321855,-0.5284184,-0.18395072,798.20514,792.1612,814.3223,809.0842,753.0769,-0.07708740234375,0.0975341796875,1.01171875,-0.19439697265625,-3.461761474609375,-7.394561767578125,1,1.0,1.0,1.0,1.0,15.00
2024-10-11 20:11:08.303,0.73628277,0.42799878,0.9819176,1.0390208,0.20028003,0.049804814,0.47766513,0.6573254,0.69508106,-0.2121028,0.49480867,0.63164407,0.694104,-0.2147055,-0.040878184,0.47376293,-0.12291207,-0.42321855,-0.5284184,-0.18395072,810.293,808.68134,803.44324,812.71063,617.6923,-0.07708740234375,0.0975341796875,1.01171875,-0.19439697265625,-3.461761474609375,-7.394561767578125,1,1.0,1.0,1.0,1.0,15.00
2024-10-11 20:11:08.303,0.73628277,0.42799878,0.9819176,1.0390208,0.20028003,0.049804814,0.47766513,0.6573254,0.69508106,-0.2121028,0.49480867,0.63164407,0.694104,-0.2147055,-0.040878184,0.47376293,-0.12291207,-0.42321855,-0.5284184,-0.18395072,795.78754,816.7399,795.38464,787.72894,569.34064,-0.07708740234375,0.0975341796875,1.01171875,-0.19439697265625,-3.461761474609375,-7.394561767578125,1,1.0,1.0,1.0,1.0,15.00
2024-10-11 20:11:08.303,0.73628277,0.4432445,0.9902652,1.0318743,0.20028003,0.06789512,0.4701211,0.6769883,0.69508106,-0.20994346,0.49480867,0.63164407,0.694104,-0.24951772,-0.051043544,0.47335246,-0.12291207,-0.4451101,-0.5306372,-0.21581955,789.34064,806.26373,798.60803,778.86444,993.22345,-0.07708740234375,0.0975341796875,1.01171875,-0.19439697265625,-3.461761474609375,-7.394561767578125,1,1.0,1.0,1.0,1.0,15.00
2024-10-11 20:11:08.308,0.73628277,0.4432445,0.9902652,1.0318743,0.20028003,0.06789512,0.4701211,0.6769883,0.69508106,-0.20994346,0.49480867,0.63164407,0.694104,-0.24951772,-0.051043544,0.47335246,-0.12291207,-0.4451101,-0.5306372,-0.21581955,793.7729,809.4872,796.5934,788.5348,1222.0879,-0.07708740234375,0.0975341796875,1.01171875,-0.19439697265625,-3.461761474609375,-7.394561767578125,1,1.0,1.0,1.0,1.0,15.00
2024-10-11 20:11:08.308,0.73628277,0.4432445,0.9902652,1.0318743,0.20028003,0.06789512,0.4701211,0.6769883,0.69508106,-0.20994346,0.49480867,0.63164407,0.694104,-0.24951772,-0.051043544,0.47335246,-0.12291207,-0.4451101,-0.5306372,-0.21581955,790.14655,825.2015,791.3553,774.0293,879.59705,-0.07708740234375,0.0975341796875,1.01171875,-0.19439697265625,-3.461761474609375,-7.394561767578125,1,1.0,1.0,1.0,1.0,15.00
2024-10-11 20:11:08.309,0.73628277,0.4432445,0.9902652,1.0318743,0.20028003,0.06789512,0.4701211,0.6769883,0.69508106,-0.20994346,0.49480867,0.63164407,0.694104,-0.24951772,-0.051043544,0.47335246,-0.12291207,-0.4451101,-0.5306372,-0.21581955,779.2674,830.4396,790.9524,764.7619,727.6923,-0.07708740234375,0.0975341796875,1.01171875,-0.19439697265625,-3.461761474609375,-7.394561767578125,1,1.0,1.0,1.0,1.0,15.00
2024-10-11 20:11:08.309,0.73628277,0.4432445,0.9902652,1.0318743,0.20028003,0.06789512,0.4701211,0.6769883,0.69508106,-0.20994346,0.49480867,0.63164407,0.694104,-0.24951772,-0.051043544,0.47335246,-0.12291207,-0.4451101,-0.5306372,-0.21581955,769.19415,826.8132,793.36993,767.98535,951.31866,-0.07708740234375,0.0975341796875,1.01171875,-0.19439697265625,-3.461761474609375,-7.394561767578125,1,1.0,1.0,1.0,1.0,15.00
2024-10-11 20:11:08.310,0.73628277,0.4432445,0.9902652,1.0318743,0.20028003,0.06789512,0.4701211,0.6769883,0.69508106,-0.20994346,0.49480867,0.63164407,0.694104,-0.24951772,-0.051043544,0.47335246,-0.12291207,-0.4451101,-0.5306372,-0.21581955,767.98535,832.4542,788.1319,760.32965,925.9341,-0.07708740234375,0.0975341796875,1.01171875,-0.19439697265625,-3.461761474609375,-7.394561767578125,1,1.0,1.0,1.0,1.0,15.00
2024-10-11 20:11:08.310,0.73628277,0.4432445,0.9902652,1.0318743,0.20028003,0.06789512,0.4701211,0.6769883,0.69508106,-0.20994346,0.49480867,0.63164407,0.694104,-0.24951772,-0.051043544,0.47335246,-0.12291207,-0.4451101,-0.5306372,-0.21581955,760.7326,837.28937,783.2967,754.2857,663.22345,-0.07708740234375,0.0975341796875,1.01171875,-0.19439697265625,-3.461761474609375,-7.394561767578125,1,1.0,1.0,1.0,1.0,15.00
2024-10-11 20:11:08.336,0.73628277,0.4432445,0.9902652,1.0318743,0.20028003,0.06789512,0.4701211,0.6769883,0.69508106,-0.20994346,0.49480867,0.63164407,0.694104,-0.24951772,-0.051043544,0.47335246,-0.12291207,-0.4451101,-0.5306372,-0.21581955,756.7033,844.1392,783.2967,752.674,587.8755,-0.086669921875,0.09716796875,1.015625,-2.788848876953125,-3.96270751953125,-14.78912353515625,1,1.0,1.0,1.0,1.0,15.00
2024-10-11 20:11:08.337,0.73628277,0.4432445,0.9902652,1.0318743,0.20028003,0.06789512,0.4701211,0.6769883,0.69508106,-0.20994346,0.49480867,0.63164407,0.694104,-0.24951772,-0.051043544,0.47335246,-0.12291207,-0.4451101,-0.5306372,-0.21581955,755.09155,844.5421,776.4469,739.7802,727.28937,-0.086669921875,0.09716796875,1.015625,-2.788848876953125,-3.96270751953125,-14.78912353515625,1,1.0,1.0,1.0,1.0,15.00
2024-10-11 20:11:08.338,0.73628277,0.4432445,0.9902652,1.0318743,0.20028003,0.06789512,0.4701211,0.6769883,0.69508106,-0.20994346,0.49480867,0.63164407,0.694104,-0.24951772,-0.051043544,0.47335246,-0.12291207,-0.4451101,-0.5306372,-0.21581955,756.30035,843.3333,774.0293,739.3773,786.52014,-0.086669921875,0.09716796875,1.015625,-2.788848876953125,-3.96270751953125,-14.78912353515625,1,1.0,1.0,1.0,1.0,15.00
2024-10-11 20:11:08.339,0.73628277,0.4432445,0.9902652,1.0318743,0.20028003,0.06789512,0.4701211,0.6769883,0.69508106,-0.20994346,0.49480867,0.63164407,0.694104,-0.24951772,-0.051043544,0.47335246,-0.12291207,-0.4451101,-0.5306372,-0.21581955,763.1502,851.79486,772.8205,742.1978,631.39197,-0.086669921875,0.09716796875,1.015625,-2.788848876953125,-3.96270751953125,-14.78912353515625,1,1.0,1.0,1.0,1.0,15.00
2024-10-11 20:11:08.339,0.73628277,0.4432445,0.9902652,1.0318743,0.20028003,0.06789512,0.4701211,0.6769883,0.69508106,-0.20994346,0.49480867,0.63164407,0.694104,-0.24951772,-0.051043544,0.47335246,-0.12291207,-0.4451101,-0.5306372,-0.21581955,765.9707,852.1978,769.19415,732.1245,594.3223,-0.086669921875,0.09716796875,1.015625,-2.788848876953125,-3.96270751953125,-14.78912353515625,1,1.0,1.0,1.0,1.0,15.00
2024-10-11 20:11:08.340,0.73628277,0.4432445,0.9902652,1.0318743,0.20028003,0.06789512,0.4701211,0.6769883,0.69508106,-0.20994346,0.49480867,0.63164407,0.694104,-0.24951772,-0.051043544,0.47335246,-0.12291207,-0.4451101,-0.5306372,-0.21581955,772.01465,851.79486,765.9707,736.9597,755.89746,-0.086669921875,0.09716796875,1.015625,-2.788848876953125,-3.96270751953125,-14.78912353515625,1,1.0,1.0,1.0,1.0,15.00
2024-10-11 20:11:08.341,0.73628277,0.4432445,0.9902652,1.0318743,0.20028003,0.06789512,0.4701211,0.6769883,0.69508106,-0.20994346,0.49480867,0.63164407,0.694104,-0.24951772,-0.051043544,0.47335246,-0.12291207,-0.4451101,-0.5306372,-0.21581955,785.31134,859.0476,759.12085,747.03296,880.80585,-0.086669921875,0.09716796875,1.015625,-2.788848876953125,-3.96270751953125,-14.78912353515625,1,1.0,1.0,1.0,1.0,15.00
2024-10-11 20:11:08.341,0.73628277,0.4432445,0.9902652,1.0318743,0.20028003,0.06789512,0.4701211,0.6769883,0.69508106,-0.20994346,0.49480867,0.63164407,0.694104,-0.24951772,-0.051043544,0.47335246,-0.12291207,-0.4451101,-0.5306372,-0.21581955,786.52014,863.0769,761.13556,743.4066,793.36993,-0.086669921875,0.09716796875,1.015625,-2.788848876953125,-3.96270751953125,-14.78912353515625,1,1.0,1.0,1.0,1.0,15.00
2024-10-11 20:11:08.342,0.73628277,0.4432445,0.9902652,1.0318743,0.20028003,0.06789512,0.4701211,0.6769883,0.69508106,-0.20994346,0.49480867,0.63164407,0.694104,-0.24951772,-0.051043544,0.47335246,-0.12291207,-0.4451101,-0.5306372,-0.21581955,787.326,859.0476,756.7033,737.76556,733.73627,-0.086669921875,0.09716796875,1.015625,-2.788848876953125,-3.96270751953125,-14.78912353515625,1,1.0,1.0,1.0,1.0,15.00
2024-10-11 20:11:08.342,0.73628277,0.4432445,0.9902652,1.0318743,0.20028003,0.06789512,0.4701211,0.6769883,0.69508106,-0.20994346,0.49480867,0.63164407,0.694104,-0.24951772,-0.051043544,0.47335246,-0.12291207,-0.4451101,-0.5306372,-0.21581955,798.60803,859.0476,748.24176,745.82416,872.74725,-0.086669921875,0.09716796875,1.015625,-2.788848876953125,-3.96270751953125,-14.78912353515625,1,1.0,1.0,1.0,1.0,15.00
2024-10-11 20:11:08.343,0.73628277,0.4432445,0.9902652,1.0318743,0.20028003,0.06789512,0.4701211,0.6769883,0.69508106,-0.20994346,0.49480867,0.63164407,0.694104,-0.24951772,-0.051043544,0.47335246,-0.12291207,-0.4451101,-0.5306372,-0.21581955,793.7729,859.85345,750.65936,748.24176,819.9634,-0.086669921875,0.09716796875,1.015625,-2.788848876953125,-3.96270751953125,-14.78912353515625,1,1.0,1.0,1.0,1.0,15.00
2024-10-11 20:11:08.343,0.73628277,0.4432445,0.9902652,1.0318743,0.20028003,0.06789512,0.4701211,0.6769883,0.69508106,-0.20994346,0.49480867,0.63164407,0.694104,-0.24951772,-0.051043544,0.47335246,-0.12291207,-0.4451101,-0.5306372,-0.21581955,784.5055,853.8095,746.2271,747.4359,683.7729,-0.086669921875,0.09716796875,1.015625,-2.788848876953125,-3.96270751953125,-14.78912353515625,1,1.0,1.0,1.0,1.0,15.00
2024-10-11 20:11:08.344,0.73628277,0.4432445,0.9902652,1.0318743,0.20028003,0.06789512,0.4701211,0.6769883,0.69508106,-0.20994346,0.49480867,0.63164407,0.694104,-0.24951772,-0.051043544,0.47335246,-0.12291207,-0.4451101,-0.5306372,-0.21581955,791.3553,851.39197,742.6007,752.674,735.7509,-0.0887451171875,0.0770263671875,0.98663330078125,-4.074859619140625,-4.83001708984375,-23.529510498046875,1,1.0,1.0,1.0,1.0,15.00
2024-10-11 20:11:08.345,0.73628277,0.4432445,0.9902652,1.0318743,0.20028003,0.06789512,0.4701211,0.6769883,0.69508106,-0.20994346,0.49480867,0.63164407,0.694104,-0.24951772,-0.051043544,0.47335246,-0.12291207,-0.4451101,-0.5306372,-0.21581955,798.20514,853.8095,743.4066,754.2857,869.12085,-0.0887451171875,0.0770263671875,0.98663330078125,-4.074859619140625,-4.83001708984375,-23.529510498046875,1,1.0,1.0,1.0,1.0,15.00
2024-10-11 20:11:08.345,0.73628277,0.4432445,0.9902652,1.0318743,0.20028003,0.06789512,0.4701211,0.6769883,0.69508106,-0.20994346,0.49480867,0.63164407,0.694104,-0.24951772,-0.051043544,0.47335246,-0.12291207,-0.4451101,-0.5306372,-0.21581955,799.41394,853.8095,741.39197,757.1062,855.42126,-0.0887451171875,0.0770263671875,0.98663330078125,-4.074859619140625,-4.83001708984375,-23.529510498046875,1,1.0,1.0,1.0,1.0,15.00
2024-10-11 20:11:08.346,0.73628277,0.4432445,0.9902652,1.0318743,0.20028003,0.06789512,0.4701211,0.6769883,0.69508106,-0.20994346,0.49480867,0.63164407,0.694104,-0.24951772,-0.051043544,0.47335246,-0.12291207,-0.4451101,-0.5306372,-0.21581955,799.41394,847.76556,742.1978,768.3883,736.1539,-0.0887451171875,0.0770263671875,0.98663330078125,-4.074859619140625,-4.83001708984375,-23.529510498046875,1,1.0,1.0,1.0,1.0,15.00
2024-10-11 20:11:08.347,0.73628277,0.4432445,0.9902652,1.0318743,0.20028003,0.06789512,0.4701211,0.6769883,0.69508106,-0.20994346,0.49480867,0.63164407,0.694104,-0.24951772,-0.051043544,0.47335246,-0.12291207,-0.4451101,-0.5306372,-0.21581955,800.2198,842.1245,742.6007,784.10254,825.6044,-0.0887451171875,0.0770263671875,0.98663330078125,-4.074859619140625,-4.83001708984375,-23.529510498046875,1,1.0,1.0,1.0,1.0,15.00
2024-10-11 20:11:08.347,0.73628277,0.4432445,0.9902652,1.0318743,0.20028003,0.06789512,0.4701211,0.6769883,0.69508106,-0.20994346,0.49480867,0.63164407,0.694104,-0.24951772,-0.051043544,0.47335246,-0.12291207,-0.4451101,-0.5306372,-0.21581955,807.0696,839.707,745.42126,792.5641,1116.1172,-0.0887451171875,0.0770263671875,0.98663330078125,-4.074859619140625,-4.83001708984375,-23.529510498046875,1,1.0,1.0,1.0,1.0,15.00
2024-10-11 20:11:08.348,0.73628277,0.4432445,0.9902652,1.0318743,0.20028003,0.06789512,0.4701211,0.6769883,0.69508106,-0.20994346,0.49480867,0.63164407,0.694104,-0.24951772,-0.051043544,0.47335246,-0.12291207,-0.4451101,-0.5306372,-0.21581955,807.0696,838.0952,744.61536,783.2967,1001.28204,-0.0887451171875,0.0770263671875,0.98663330078125,-4.074859619140625,-4.83001708984375,-23.529510498046875,1,1.0,1.0,1.0,1.0,15.00
2024-10-11 20:11:08.348,0.73628277,0.45800695,1.0093601,1.0318743,0.20028003,0.07669979,0.47507638,0.6769883,0.69508106,-0.13459216,0.49480867,0.63164407,0.694104,-0.251619,-0.04900311,0.47335246,-0.12291207,-0.46111315,-0.52750385,-0.21581955,806.6667,834.0659,741.79486,776.4469,853.4066,-0.0887451171875,0.0770263671875,0.98663330078125,-4.074859619140625,-4.83001708984375,-23.529510498046875,1,1.0,1.0,1.0,1.0,15.00
2024-10-11 20:11:08.354,0.73628277,0.45800695,1.0093601,1.0318743,0.20028003,0.07669979,0.47507638,0.6769883,0.69508106,-0.13459216,0.49480867,0.63164407,0.694104,-0.251619,-0.04900311,0.47335246,-0.12291207,-0.46111315,-0.52750385,-0.21581955,818.3516,832.0513,745.82416,791.75824,976.30035,-0.0887451171875,0.0770263671875,0.98663330078125,-4.074859619140625,-4.83001708984375,-23.529510498046875,1,1.0,1.0,1.0,1.0,15.00
2024-10-11 20:11:08.354,0.73628277,0.45800695,1.0093601,1.0318743,0.20028003,0.07669979,0.47507638,0.6769883,0.69508106,-0.13459216,0.49480867,0.63164407,0.694104,-0.251619,-0.04900311,0.47335246,-0.12291207,-0.46111315,-0.52750385,-0.21581955,823.5897,835.6777,745.82416,799.81683,815.5311,-0.0887451171875,0.0770263671875,0.98663330078125,-4.074859619140625,-4.83001708984375,-23.529510498046875,1,1.0,1.0,1.0,1.0,15.00
2024-10-11 20:11:08.355,0.73628277,0.45800695,1.0093601,1.0318743,0.20028003,0.07669979,0.47507638,0.6769883,0.69508106,-0.13459216,0.49480867,0.63164407,0.694104,-0.251619,-0.04900311,0.47335246,-0.12291207,-0.46111315,-0.52750385,-0.21581955,829.2308,832.8571,745.82416,797.8022,618.0952,-0.0887451171875,0.0770263671875,0.98663330078125,-4.074859619140625,-4.83001708984375,-23.529510498046875,1,1.0,1.0,1.0,1.0,15.00
2024-10-11 20:11:08.356,0.73628277,0.45800695,1.0093601,1.0318743,0.20028003,0.07669979,0.47507638,0.6769883,0.69508106,-0.13459216,0.49480867,0.63164407,0.694104,-0.251619,-0.04900311,0.47335246,-0.12291207,-0.46111315,-0.52750385,-0.21581955,830.4396,832.4542,748.24176,799.81683,730.10986,-0.0887451171875,0.0770263671875,0.98663330078125,-4.074859619140625,-4.83001708984375,-23.529510498046875,1,1.0,1.0,1.0,1.0,15.00
2024-10-11 20:11:08.382,0.73628277,0.45800695,1.0093601,1.0318743,0.20028003,0.07669979,0.47507638,0.6769883,0.69508106,-0.13459216,0.49480867,0.63164407,0.694104,-0.251619,-0.04900311,0.47335246,-0.12291207,-0.46111315,-0.52750385,-0.21581955,822.381,826.4103,748.6447,790.14655,811.9048,-0.0965576171875,0.0712890625,1.0130615234375,-0.441131591796875,-8.8525390625,-31.529693603515625,1,1.0,1.0,1.0,1.0,15.00
2024-10-11 20:11:08.383,0.73628277,0.45800695,1.0093601,1.0318743,0.20028003,0.07669979,0.47507638,0.6769883,0.69508106,-0.13459216,0.49480867,0.63164407,0.694104,-0.251619,-0.04900311,0.47335246,-0.12291207,-0.46111315,-0.52750385,-0.21581955,836.08057,824.3956,745.0183,792.96704,684.9817,-0.0965576171875,0.0712890625,1.0130615234375,-0.441131591796875,-8.8525390625,-31.529693603515625,1,1.0,1.0,1.0,1.0,15.00
2024-10-11 20:11:08.384,0.73628277,0.45800695,1.0093601,1.0318743,0.20028003,0.07669979,0.47507638,0.6769883,0.69508106,-0.13459216,0.49480867,0.63164407,0.694104,-0.251619,-0.04900311,0.47335246,-0.12291207,-0.46111315,-0.52750385,-0.21581955,849.3773,828.022,739.7802,802.23444,645.09155,-0.0965576171875,0.0712890625,1.0130615234375,-0.441131591796875,-8.8525390625,-31.529693603515625,1,1.0,1.0,1.0,1.0,15.00
2024-10-11 20:11:08.384,0.73628277,0.45800695,1.0093601,1.0318743,0.20028003,0.07669979,0.47507638,0.6769883,0.69508106,-0.13459216,0.49480867,0.63164407,0.694104,-0.251619,-0.04900311,0.47335246,-0.12291207,-0.46111315,-0.52750385,-0.21581955,848.5714,826.0073,737.3626,807.0696,693.0403,-0.0965576171875,0.0712890625,1.0130615234375,-0.441131591796875,-8.8525390625,-31.529693603515625,1,1.0,1.0,1.0,1.0,15.00
2024-10-11 20:11:08.385,0.73628277,0.45800695,1.0093601,1.0318743,0.20028003,0.07669979,0.47507638,0.6769883,0.69508106,-0.13459216,0.49480867,0.63164407,0.694104,-0.251619,-0.04900311,0.47335246,-0.12291207,-0.46111315,-0.52750385,-0.21581955,841.31866,825.6044,739.3773,812.3077,1014.17584,-0.0965576171875,0.0712890625,1.0130615234375,-0.441131591796875,-8.8525390625,-31.529693603515625,1,1.0,1.0,1.0,1.0,15.00
2024-10-11 20:11:08.385,0.73628277,0.45800695,1.0093601,1.0318743,0.20028003,0.07669979,0.47507638,0.6769883,0.69508106,-0.13459216,0.49480867,0.63164407,0.694104,-0.251619,-0.04900311,0.47335246,-0.12291207,-0.46111315,-0.52750385,-0.21581955,844.1392,826.8132,744.21246,813.91943,1140.6959,-0.0965576171875,0.0712890625,1.0130615234375,-0.441131591796875,-8.8525390625,-31.529693603515625,1,1.0,1.0,1.0,1.0,15.00
2024-10-11 20:11:08.386,0.73628277,0.45800695,1.0093601,1.0318743,0.20028003,0.07669979,0.47507638,0.6769883,0.69508106,-0.13459216,0.49480867,0.63164407,0.694104,-0.251619,-0.04900311,0.47335246,-0.12291207,-0.46111315,-0.52750385,-0.21581955,852.6007,826.4103,745.42126,816.337,804.2491,-0.0965576171875,0.0712890625,1.0130615234375,-0.441131591796875,-8.8525390625,-31.529693603515625,1,1.0,1.0,1.0,1.0,15.00
2024-10-11 20:11:08.387,0.73628277,0.45800695,1.0093601,1.0318743,0.20028003,0.07669979,0.47507638,0.6769883,0.69508106,-0.13459216,0.49480867,0.63164407,0.694104,-0.251619,-0.04900311,0.47335246,-0.12291207,-0.46111315,-0.52750385,-0.21581955,855.0183,826.4103,747.4359,825.6044,815.5311,-0.0965576171875,0.0712890625,1.0130615234375,-0.441131591796875,-8.8525390625,-31.529693603515625,1,1.0,1.0,1.0,1.0,15.00
2024-10-11 20:11:08.388,0.73628277,0.45800695,1.0093601,1.0318743,0.20028003,0.07669979,0.47507638,0.6769883,0.69508106,-0.13459216,0.49480867,0.63164407,0.694104,-0.251619,-0.04900311,0.47335246,-0.12291207,-0.46111315,-0.52750385,-0.21581955,848.1685,820.7692,745.0183,832.4542,1154.3956,-0.0965576171875,0.0712890625,1.0130615234375,-0.441131591796875,-8.8525390625,-31.529693603515625,1,1.0,1.0,1.0,1.0,15.00
2024-10-11 20:11:08.389,0.73628277,0.45800695,1.0093601,1.0318743,0.20028003,0.07669979,0.47507638,0.6769883,0.69508106,-0.13459216,0.49480867,0.63164407,0.694104,-0.251619,-0.04900311,0.47335246,-0.12291207,-0.46111315,-0.52750385,-0.21581955,855.42126,824.7985,747.8388,829.6337,978.315,-0.0965576171875,0.0712890625,1.0130615234375,-0.441131591796875,-8.8525390625,-31.529693603515625,1,1.0,1.0,1.0,1.0,15.00
2024-10-11 20:11:08.390,0.73628277,0.45800695,1.0093601,1.0318743,0.20028003,0.07669979,0.47507638,0.6769883,0.69508106,-0.13459216,0.49480867,0.63164407,0.694104,-0.251619,-0.04900311,0.47335246,-0.12291207,-0.46111315,-0.52750385,-0.21581955,863.0769,828.4249,749.45056,819.9634,671.685,-0.0965576171875,0.0712890625,1.0130615234375,-0.441131591796875,-8.8525390625,-31.529693603515625,1,1.0,1.0,1.0,1.0,15.00
2024-10-11 20:11:08.390,0.73628277,0.45800695,1.0093601,1.0318743,0.20028003,0.07669979,0.47507638,0.6769883,0.69508106,-0.13459216,0.49480867,0.63164407,0.694104,-0.251619,-0.04900311,0.47335246,-0.12291207,-0.46111315,-0.52750385,-0.21581955,861.06226,823.1868,745.0183,819.5604,799.81683,-0.0965576171875,0.0712890625,1.0130615234375,-0.441131591796875,-8.8525390625,-31.529693603515625,1,1.0,1.0,1.0,1.0,15.00
2024-10-11 20:11:08.425,0.73628277,0.45800695,1.0093601,1.0318743,0.20028003,0.07669979,0.47507638,0.6769883,0.69508106,-0.13459216,0.49480867,0.63164407,0.694104,-0.251619,-0.04900311,0.47335246,-0.12291207,-0.46111315,-0.52750385,-0.21581955,866.7033,822.7839,750.2564,832.0513,899.34064,-0.07373046875,0.07830810546875,0.995361328125,0.478515625,-12.4713134765625,-38.47564697265625,1,1.0,1.0,1.0,1.0,15.00
2024-10-11 20:11:08.426,0.73628277,0.45800695,1.0093601,1.0318743,0.20028003,0.07669979,0.47507638,0.6769883,0.69508106,-0.13459216,0.49480867,0.63164407,0.694104,-0.251619,-0.04900311,0.47335246,-0.12291207,-0.46111315,-0.52750385,-0.21581955,866.30035,823.1868,752.674,830.4396,787.72894,-0.07373046875,0.07830810546875,0.995361328125,0.478515625,-12.4713134765625,-38.47564697265625,1,1.0,1.0,1.0,1.0,15.00
2024-10-11 20:11:08.427,0.73628277,0.45800695,1.0093601,1.0318743,0.20028003,0.07669979,0.47507638,0.6769883,0.69508106,-0.13459216,0.49480867,0.63164407,0.694104,-0.251619,-0.04900311,0.47335246,-0.12291207,-0.46111315,-0.52750385,-0.21581955,874.35895,821.1722,749.85345,821.978,677.326,-0.07373046875,0.07830810546875,0.995361328125,0.478515625,-12.4713134765625,-38.47564697265625,1,1.0,1.0,1.0,1.0,15.00
2024-10-11 20:11:08.428,0.73628277,0.45800695,1.0093601,1.0318743,0.20028003,0.07669979,0.47507638,0.6769883,0.69508106,-0.13459216,0.49480867,0.63164407,0.694104,-0.251619,-0.04900311,0.47335246,-0.12291207,-0.46111315,-0.52750385,-0.21581955,875.56775,819.15753,750.65936,830.0366,711.978,-0.07373046875,0.07830810546875,0.995361328125,0.478515625,-12.4713134765625,-38.47564697265625,1,1.0,1.0,1.0,1.0,15.00
2024-10-11 20:11:08.429,0.73628277,0.45800695,1.0093601,1.0318743,0.20028003,0.07669979,0.47507638,0.6769883,0.69508106,-0.13459216,0.49480867,0.63164407,0.694104,-0.251619,-0.04900311,0.47335246,-0.12291207,-0.46111315,-0.52750385,-0.21581955,867.1062,819.15753,751.06226,838.9011,789.34064,-0.07373046875,0.07830810546875,0.995361328125,0.478515625,-12.4713134765625,-38.47564697265625,1,1.0,1.0,1.0,1.0,15.00
2024-10-11 20:11:08.429,0.73628277,0.45800695,1.0093601,1.0318743,0.20028003,0.07669979,0.47507638,0.6769883,0.69508106,-0.13459216,0.49480867,0.63164407,0.694104,-0.251619,-0.04900311,0.47335246,-0.12291207,-0.46111315,-0.52750385,-0.21581955,865.4945,819.5604,754.68866,836.8865,868.71796,-0.07373046875,0.07830810546875,0.995361328125,0.478515625,-12.4713134765625,-38.47564697265625,1,1.0,1.0,1.0,1.0,15.00
2024-10-11 20:11:08.430,0.73628277,0.45800695,1.0093601,1.0318743,0.20028003,0.07669979,0.47507638,0.6769883,0.69508106,-0.13459216,0.49480867,0.63164407,0.694104,-0.251619,-0.04900311,0.47335246,-0.12291207,-0.46111315,-0.52750385,-0.21581955,859.85345,819.5604,758.315,833.2601,850.989,-0.07373046875,0.07830810546875,0.995361328125,0.478515625,-12.4713134765625,-38.47564697265625,1,1.0,1.0,1.0,1.0,15.00
2024-10-11 20:11:08.431,0.73628277,0.45800695,1.0093601,1.0318743,0.20028003,0.07669979,0.47507638,0.6769883,0.69508106,-0.13459216,0.49480867,0.63164407,0.694104,-0.251619,-0.04900311,0.47335246,-0.12291207,-0.46111315,-0.52750385,-0.21581955,856.63007,819.9634,753.47986,828.022,894.90845,-0.07373046875,0.07830810546875,0.995361328125,0.478515625,-12.4713134765625,-38.47564697265625,1,1.0,1.0,1.0,1.0,15.00
2024-10-11 20:11:08.431,0.73628277,0.45800695,1.0093601,1.0318743,0.20028003,0.07669979,0.47507638,0.6769883,0.69508106,-0.13459216,0.49480867,0.63164407,0.694104,-0.251619,-0.04900311,0.47335246,-0.12291207,-0.46111315,-0.52750385,-0.21581955,850.18317,822.381,749.45056,828.8278,1058.0952,-0.07373046875,0.07830810546875,0.995361328125,0.478515625,-12.4713134765625,-38.47564697265625,1,1.0,1.0,1.0,1.0,15.00
2024-10-11 20:11:08,,,,,,,,,,,,,,,,,,,,,,,,,,,,,,,,,,,,,,/muse/elements/blink
2024-10-11 20:11:08.432,0.7025815,0.47912967,1.038276,1.0318743,0.31050947,0.091342784,0.5004158,0.6769883,0.72092557,-0.13459216,0.49480867,0.63164407,0.68125284,-0.24877319,-0.04074692,0.47335246,-0.014861445,-0.48017868,-0.5340908,-0.21581955,839.707,822.381,749.45056,827.619,722.8571,-0.07373046875,0.07830810546875,0.995361328125,0.478515625,-12.4713134765625,-38.47564697265625,1,1.0,1.0,1.0,1.0,15.00
2024-10-11 20:11:08.438,0.7025815,0.47912967,1.038276,1.0318743,0.31050947,0.091342784,0.5004158,0.6769883,0.72092557,-0.13459216,0.49480867,0.63164407,0.68125284,-0.24877319,-0.04074692,0.47335246,-0.014861445,-0.48017868,-0.5340908,-0.21581955,838.0952,817.1429,753.47986,818.3516,559.67035,-0.07373046875,0.07830810546875,0.995361328125,0.478515625,-12.4713134765625,-38.47564697265625,1,1.0,1.0,1.0,1.0,15.00
2024-10-11 20:11:08.439,0.7025815,0.47912967,1.038276,1.0318743,0.31050947,0.091342784,0.5004158,0.6769883,0.72092557,-0.13459216,0.49480867,0.63164407,0.68125284,-0.24877319,-0.04074692,0.47335246,-0.014861445,-0.48017868,-0.5340908,-0.21581955,847.3626,816.7399,757.9121,814.7253,775.2381,-0.07373046875,0.07830810546875,0.995361328125,0.478515625,-12.4713134765625,-38.47564697265625,1,1.0,1.0,1.0,1.0,15.00
2024-10-11 20:11:08.469,0.7025815,0.47912967,1.038276,1.0318743,0.31050947,0.091342784,0.5004158,0.6769883,0.72092557,-0.13459216,0.49480867,0.63164407,0.68125284,-0.24877319,-0.04074692,0.47335246,-0.014861445,-0.48017868,-0.5340908,-0.21581955,848.5714,819.15753,757.1062,812.3077,843.3333,-0.0484619140625,0.084228515625,1.00714111328125,1.891632080078125,-15.589141845703125,-40.31494140625,1,1.0,1.0,1.0,1.0,15.00
2024-10-11 20:11:08.470,0.7025815,0.47912967,1.038276,1.0318743,0.31050947,0.091342784,0.5004158,0.6769883,0.72092557,-0.13459216,0.49480867,0.63164407,0.68125284,-0.24877319,-0.04074692,0.47335246,-0.014861445,-0.48017868,-0.5340908,-0.21581955,846.55676,817.5458,760.32965,813.91943,801.02563,-0.0484619140625,0.084228515625,1.00714111328125,1.891632080078125,-15.589141845703125,-40.31494140625,1,1.0,1.0,1.0,1.0,15.00
2024-10-11 20:11:08.470,0.7025815,0.47912967,1.038276,1.0318743,0.31050947,0.091342784,0.5004158,0.6769883,0.72092557,-0.13459216,0.49480867,0.63164407,0.68125284,-0.24877319,-0.04074692,0.47335246,-0.014861445,-0.48017868,-0.5340908,-0.21581955,848.1685,810.696,762.74725,818.3516,848.1685,-0.0484619140625,0.084228515625,1.00714111328125,1.891632080078125,-15.589141845703125,-40.31494140625,1,1.0,1.0,1.0,1.0,15.00
2024-10-11 20:11:08.471,0.7025815,0.47912967,1.038276,1.0318743,0.31050947,0.091342784,0.5004158,0.6769883,0.72092557,-0.13459216,0.49480867,0.63164407,0.68125284,-0.24877319,-0.04074692,0.47335246,-0.014861445,-0.48017868,-0.5340908,-0.21581955,856.63007,809.0842,761.53845,816.7399,888.86444,-0.0484619140625,0.084228515625,1.00714111328125,1.891632080078125,-15.589141845703125,-40.31494140625,1,1.0,1.0,1.0,1.0,15.00
2024-10-11 20:11:08.472,0.7025815,0.47912967,1.038276,1.0318743,0.31050947,0.091342784,0.5004158,0.6769883,0.72092557,-0.13459216,0.49480867,0.63164407,0.68125284,-0.24877319,-0.04074692,0.47335246,-0.014861445,-0.48017868,-0.5340908,-0.21581955,847.3626,810.696,764.7619,813.5165,759.5238,-0.0484619140625,0.084228515625,1.00714111328125,1.891632080078125,-15.589141845703125,-40.31494140625,1,1.0,1.0,1.0,1.0,15.00
2024-10-11 20:11:08.472,0.7025815,0.47912967,1.038276,1.0318743,0.31050947,0.091342784,0.5004158,0.6769883,0.72092557,-0.13459216,0.49480867,0.63164407,0.68125284,-0.24877319,-0.04074692,0.47335246,-0.014861445,-0.48017868,-0.5340908,-0.21581955,845.7509,808.68134,768.7912,824.3956,832.4542,-0.0484619140625,0.084228515625,1.00714111328125,1.891632080078125,-15.589141845703125,-40.31494140625,1,1.0,1.0,1.0,1.0,15.00
2024-10-11 20:11:08.473,0.7025815,0.47912967,1.038276,1.0318743,0.31050947,0.091342784,0.5004158,0.6769883,0.72092557,-0.13459216,0.49480867,0.63164407,0.68125284,-0.24877319,-0.04074692,0.47335246,-0.014861445,-0.48017868,-0.5340908,-0.21581955,851.39197,805.8608,769.19415,830.84247,1010.54944,-0.0484619140625,0.084228515625,1.00714111328125,1.891632080078125,-15.589141845703125,-40.31494140625,1,1.0,1.0,1.0,1.0,15.00
2024-10-11 20:11:08.473,0.7025815,0.47912967,1.038276,1.0318743,0.31050947,0.091342784,0.5004158,0.6769883,0.72092557,-0.13459216,0.49480867,0.63164407,0.68125284,-0.24877319,-0.04074692,0.47335246,-0.014861445,-0.48017868,-0.5340908,-0.21581955,843.3333,801.4286,770.80585,823.9927,999.67035,-0.0484619140625,0.084228515625,1.00714111328125,1.891632080078125,-15.589141845703125,-40.31494140625,1,1.0,1.0,1.0,1.0,15.00
2024-10-11 20:11:08.474,0.7025815,0.47912967,1.038276,1.0318743,0.31050947,0.091342784,0.5004158,0.6769883,0.72092557,-0.13459216,0.49480867,0.63164407,0.68125284,-0.24877319,-0.04074692,0.47335246,-0.014861445,-0.48017868,-0.5340908,-0.21581955,849.3773,803.8461,776.4469,822.381,810.696,-0.0484619140625,0.084228515625,1.00714111328125,1.891632080078125,-15.589141845703125,-40.31494140625,1,1.0,1.0,1.0,1.0,15.00
2024-10-11 20:11:08.474,0.7025815,0.47912967,1.038276,1.0318743,0.31050947,0.091342784,0.5004158,0.6769883,0.72092557,-0.13459216,0.49480867,0.63164407,0.68125284,-0.24877319,-0.04074692,0.47335246,-0.014861445,-0.48017868,-0.5340908,-0.21581955,847.76556,801.4286,777.25275,827.619,732.9304,-0.0484619140625,0.084228515625,1.00714111328125,1.891632080078125,-15.589141845703125,-40.31494140625,1,1.0,1.0,1.0,1.0,15.00
2024-10-11 20:11:08.475,0.7025815,0.47912967,1.038276,1.0318743,0.31050947,0.091342784,0.5004158,0.6769883,0.72092557,-0.13459216,0.49480867,0.63164407,0.68125284,-0.24877319,-0.04074692,0.47335246,-0.014861445,-0.48017868,-0.5340908,-0.21581955,830.4396,791.75824,778.46155,828.022,811.9048,-0.0484619140625,0.084228515625,1.00714111328125,1.891632080078125,-15.589141845703125,-40.31494140625,1,1.0,1.0,1.0,1.0,15.00
2024-10-11 20:11:08.475,0.7025815,0.47912967,1.038276,1.0318743,0.31050947,0.091342784,0.5004158,0.6769883,0.72092557,-0.13459216,0.49480867,0.63164407,0.68125284,-0.24877319,-0.04074692,0.47335246,-0.014861445,-0.48017868,-0.5340908,-0.21581955,822.381,790.9524,780.07324,827.619,950.5128,-0.0484619140625,0.084228515625,1.00714111328125,1.891632080078125,-15.589141845703125,-40.31494140625,1,1.0,1.0,1.0,1.0,15.00
2024-10-11 20:11:08.509,0.7025815,0.47912967,1.038276,1.0318743,0.31050947,0.091342784,0.5004158,0.6769883,0.72092557,-0.13459216,0.49480867,0.63164407,0.68125284,-0.24877319,-0.04074692,0.47335246,-0.014861445,-0.48017868,-0.5340908,-0.21581955,822.7839,794.9817,779.2674,819.5604,740.989,-0.0484619140625,0.084228515625,1.00714111328125,1.891632080078125,-15.589141845703125,-40.31494140625,1,1.0,1.0,1.0,1.0,15.00
2024-10-11 20:11:08.510,0.7025815,0.47912967,1.038276,1.0318743,0.31050947,0.091342784,0.5004158,0.6769883,0.72092557,-0.13459216,0.49480867,0.63164407,0.68125284,-0.24877319,-0.04074692,0.47335246,-0.014861445,-0.48017868,-0.5340908,-0.21581955,834.87177,796.1905,782.8938,822.7839,653.1502,-0.0484619140625,0.084228515625,1.00714111328125,1.891632080078125,-15.589141845703125,-40.31494140625,1,1.0,1.0,1.0,1.0,15.00
2024-10-11 20:11:08.511,0.7025815,0.47912967,1.038276,1.0318743,0.31050947,0.091342784,0.5004158,0.6769883,0.72092557,-0.13459216,0.49480867,0.63164407,0.68125284,-0.24877319,-0.04074692,0.47335246,-0.014861445,-0.48017868,-0.5340908,-0.21581955,842.52747,796.5934,786.52014,827.2161,720.4396,-0.0484619140625,0.084228515625,1.00714111328125,1.891632080078125,-15.589141845703125,-40.31494140625,1,1.0,1.0,1.0,1.0,15.00
2024-10-11 20:11:08.511,0.7025815,0.47912967,1.038276,1.0318743,0.31050947,0.091342784,0.5004158,0.6769883,0.72092557,-0.13459216,0.49480867,0.63164407,0.68125284,-0.24877319,-0.04074692,0.47335246,-0.014861445,-0.48017868,-0.5340908,-0.21581955,821.1722,796.99634,785.31134,820.7692,660.0,-0.0484619140625,0.084228515625,1.00714111328125,1.891632080078125,-15.589141845703125,-40.31494140625,1,1.0,1.0,1.0,1.0,15.00
2024-10-11 20:11:08.512,0.7025815,0.47912967,1.038276,1.0318743,0.31050947,0.091342784,0.5004158,0.6769883,0.72092557,-0.13459216,0.49480867,0.63164407,0.68125284,-0.24877319,-0.04074692,0.47335246,-0.014861445,-0.48017868,-0.5340908,-0.21581955,801.4286,793.36993,782.0879,810.293,726.08057,-0.0484619140625,0.084228515625,1.00714111328125,1.891632080078125,-15.589141845703125,-40.31494140625,1,1.0,1.0,1.0,1.0,15.00
2024-10-11 20:11:08.512,0.7025815,0.47912967,1.038276,1.0318743,0.31050947,0.091342784,0.5004158,0.6769883,0.72092557,-0.13459216,0.49480867,0.63164407,0.68125284,-0.24877319,-0.04074692,0.47335246,-0.014861445,-0.48017868,-0.5340908,-0.21581955,797.8022,790.14655,780.07324,802.23444,774.43225,-0.0484619140625,0.084228515625,1.00714111328125,1.891632080078125,-15.589141845703125,-40.31494140625,1,1.0,1.0,1.0,1.0,15.00
2024-10-11 20:11:08.513,0.7025815,0.47912967,1.038276,1.0318743,0.31050947,0.091342784,0.5004158,0.6769883,0.72092557,-0.13459216,0.49480867,0.63164407,0.68125284,-0.24877319,-0.04074692,0.47335246,-0.014861445,-0.48017868,-0.5340908,-0.21581955,801.8315,792.96704,784.10254,813.1135,1031.9048,-0.0484619140625,0.084228515625,1.00714111328125,1.891632080078125,-15.589141845703125,-40.31494140625,1,1.0,1.0,1.0,1.0,15.00
2024-10-11 20:11:08.513,0.7025815,0.47912967,1.038276,1.0318743,0.31050947,0.091342784,0.5004158,0.6769883,0.72092557,-0.13459216,0.49480867,0.63164407,0.68125284,-0.24877319,-0.04074692,0.47335246,-0.014861445,-0.48017868,-0.5340908,-0.21581955,809.4872,795.78754,789.34064,827.2161,1295.0183,-0.0484619140625,0.084228515625,1.00714111328125,1.891632080078125,-15.589141845703125,-40.31494140625,1,1.0,1.0,1.0,1.0,15.00
2024-10-11 20:11:08.514,0.7025815,0.47912967,1.038276,1.0318743,0.31050947,0.091342784,0.5004158,0.6769883,0.72092557,-0.13459216,0.49480867,0.63164407,0.68125284,-0.24877319,-0.04074692,0.47335246,-0.014861445,-0.48017868,-0.5340908,-0.21581955,813.5165,795.78754,788.1319,813.5165,796.99634,-0.0484619140625,0.084228515625,1.00714111328125,1.891632080078125,-15.589141845703125,-40.31494140625,1,1.0,1.0,1.0,1.0,15.00
2024-10-11 20:11:08.515,0.7025815,0.47912967,1.038276,1.0318743,0.31050947,0.091342784,0.5004158,0.6769883,0.72092557,-0.13459216,0.49480867,0.63164407,0.68125284,-0.24877319,-0.04074692,0.47335246,-0.014861445,-0.48017868,-0.5340908,-0.21581955,813.1135,795.78754,785.7143,799.41394,599.5604,-0.0484619140625,0.084228515625,1.00714111328125,1.891632080078125,-15.589141845703125,-40.31494140625,1,1.0,1.0,1.0,1.0,15.00
2024-10-11 20:11:08.515,0.7025815,0.47912967,1.038276,1.0318743,0.31050947,0.091342784,0.5004158,0.6769883,0.72092557,-0.13459216,0.49480867,0.63164407,0.68125284,-0.24877319,-0.04074692,0.47335246,-0.014861445,-0.48017868,-0.5340908,-0.21581955,818.3516,795.78754,788.5348,801.4286,833.2601,-0.0484619140625,0.084228515625,1.00714111328125,1.891632080078125,-15.589141845703125,-40.31494140625,1,1.0,1.0,1.0,1.0,15.00
2024-10-11 20:11:08.516,0.6973058,0.50491184,1.069307,1.0318743,0.3544737,0.104165174,0.52804023,0.6769883,0.7183145,-0.13459216,0.49480867,0.63164407,0.6976659,-0.23971997,-0.03463113,0.47335246,-0.01610339,-0.49618068,-0.5376217,-0.21581955,830.0366,793.7729,790.54944,808.2784,785.7143,-0.0484619140625,0.084228515625,1.00714111328125,1.891632080078125,-15.589141845703125,-40.31494140625,1,1.0,1.0,1.0,1.0,15.00
2024-10-11 20:11:08.576,0.6973058,0.50491184,1.069307,1.0318743,0.3544737,0.104165174,0.52804023,0.6769883,0.7183145,-0.13459216,0.49480867,0.63164407,0.6976659,-0.23971997,-0.03463113,0.47335246,-0.01610339,-0.49618068,-0.5376217,-0.21581955,831.2454,792.96704,790.9524,814.7253,644.2857,-0.0250244140625,0.0909423828125,1.001220703125,1.323394775390625,-13.600311279296875,-41.040191650390625,1,1.0,1.0,1.0,1.0,15.00
2024-10-11 20:11:08.577,0.6973058,0.50491184,1.069307,1.0318743,0.3544737,0.104165174,0.52804023,0.6769883,0.7183145,-0.13459216,0.49480867,0.63164407,0.6976659,-0.23971997,-0.03463113,0.47335246,-0.01610339,-0.49618068,-0.5376217,-0.21581955,837.6923,794.57874,793.7729,820.3663,685.78754,-0.0250244140625,0.0909423828125,1.001220703125,1.323394775390625,-13.600311279296875,-41.040191650390625,1,1.0,1.0,1.0,1.0,15.00
2024-10-11 20:11:08.578,0.6973058,0.50491184,1.069307,1.0318743,0.3544737,0.104165174,0.52804023,0.6769883,0.7183145,-0.13459216,0.49480867,0.63164407,0.6976659,-0.23971997,-0.03463113,0.47335246,-0.01610339,-0.49618068,-0.5376217,-0.21581955,843.3333,794.57874,793.7729,817.1429,887.25275,-0.0250244140625,0.0909423828125,1.001220703125,1.323394775390625,-13.600311279296875,-41.040191650390625,1,1.0,1.0,1.0,1.0,15.00
2024-10-11 20:11:08.579,0.6973058,0.50491184,1.069307,1.0318743,0.3544737,0.104165174,0.52804023,0.6769883,0.7183145,-0.13459216,0.49480867,0.63164407,0.6976659,-0.23971997,-0.03463113,0.47335246,-0.01610339,-0.49618068,-0.5376217,-0.21581955,829.6337,794.57874,794.57874,815.12823,791.3553,-0.0250244140625,0.0909423828125,1.001220703125,1.323394775390625,-13.600311279296875,-41.040191650390625,1,1.0,1.0,1.0,1.0,15.00
2024-10-11 20:11:08.579,0.6973058,0.50491184,1.069307,1.0318743,0.3544737,0.104165174,0.52804023,0.6769883,0.7183145,-0.13459216,0.49480867,0.63164407,0.6976659,-0.23971997,-0.03463113,0.47335246,-0.01610339,-0.49618068,-0.5376217,-0.21581955,811.9048,792.1612,800.2198,808.68134,602.381,-0.0250244140625,0.0909423828125,1.001220703125,1.323394775390625,-13.600311279296875,-41.040191650390625,1,1.0,1.0,1.0,1.0,15.00
2024-10-11 20:11:08.580,0.6973058,0.50491184,1.069307,1.0318743,0.3544737,0.104165174,0.52804023,0.6769883,0.7183145,-0.13459216,0.49480867,0.63164407,0.6976659,-0.23971997,-0.03463113,0.47335246,-0.01610339,-0.49618068,-0.5376217,-0.21581955,798.20514,788.5348,803.0403,806.26373,727.6923,-0.0250244140625,0.0909423828125,1.001220703125,1.323394775390625,-13.600311279296875,-41.040191650390625,1,1.0,1.0,1.0,1.0,15.00
2024-10-11 20:11:08.580,0.6973058,0.50491184,1.069307,1.0318743,0.3544737,0.104165174,0.52804023,0.6769883,0.7183145,-0.13459216,0.49480867,0.63164407,0.6976659,-0.23971997,-0.03463113,0.47335246,-0.01610339,-0.49618068,-0.5376217,-0.21581955,796.1905,787.326,799.011,808.68134,1056.0806,-0.0250244140625,0.0909423828125,1.001220703125,1.323394775390625,-13.600311279296875,-41.040191650390625,1,1.0,1.0,1.0,1.0,15.00
2024-10-11 20:11:08.581,0.6973058,0.50491184,1.069307,1.0318743,0.3544737,0.104165174,0.52804023,0.6769883,0.7183145,-0.13459216,0.49480867,0.63164407,0.6976659,-0.23971997,-0.03463113,0.47335246,-0.01610339,-0.49618068,-0.5376217,-0.21581955,799.81683,790.14655,798.20514,807.47253,1004.90845,-0.0250244140625,0.0909423828125,1.001220703125,1.323394775390625,-13.600311279296875,-41.040191650390625,1,1.0,1.0,1.0,1.0,15.00
2024-10-11 20:11:08.582,0.6973058,0.50491184,1.069307,1.0318743,0.3544737,0.104165174,0.52804023,0.6769883,0.7183145,-0.13459216,0.49480867,0.63164407,0.6976659,-0.23971997,-0.03463113,0.47335246,-0.01610339,-0.49618068,-0.5376217,-0.21581955,804.65204,790.9524,801.4286,804.65204,695.8608,-0.0250244140625,0.0909423828125,1.001220703125,1.323394775390625,-13.600311279296875,-41.040191650390625,1,1.0,1.0,1.0,1.0,15.00
2024-10-11 20:11:08.582,0.6973058,0.50491184,1.069307,1.0318743,0.3544737,0.104165174,0.52804023,0.6769883,0.7183145,-0.13459216,0.49480867,0.63164407,0.6976659,-0.23971997,-0.03463113,0.47335246,-0.01610339,-0.49618068,-0.5376217,-0.21581955,796.1905,788.1319,800.6227,799.81683,674.10254,-0.0250244140625,0.0909423828125,1.001220703125,1.323394775390625,-13.600311279296875,-41.040191650390625,1,1.0,1.0,1.0,1.0,15.00
2024-10-11 20:11:08.583,0.6973058,0.50491184,1.069307,1.0318743,0.3544737,0.104165174,0.52804023,0.6769883,0.7183145,-0.13459216,0.49480867,0.63164407,0.6976659,-0.23971997,-0.03463113,0.47335246,-0.01610339,-0.49618068,-0.5376217,-0.21581955,786.9231,784.10254,802.23444,809.4872,980.7326,-0.0250244140625,0.0909423828125,1.001220703125,1.323394775390625,-13.600311279296875,-41.040191650390625,1,1.0,1.0,1.0,1.0,15.00
2024-10-11 20:11:08.583,0.6973058,0.50491184,1.069307,1.0318743,0.3544737,0.104165174,0.52804023,0.6769883,0.7183145,-0.13459216,0.49480867,0.63164407,0.6976659,-0.23971997,-0.03463113,0.47335246,-0.01610339,-0.49618068,-0.5376217,-0.21581955,787.326,784.10254,802.6374,803.44324,794.57874,-0.0250244140625,0.0909423828125,1.001220703125,1.323394775390625,-13.600311279296875,-41.040191650390625,1,1.0,1.0,1.0,1.0,15.00
2024-10-11 20:11:08.640,0.6973058,0.50491184,1.069307,1.0318743,0.3544737,0.104165174,0.52804023,0.6769883,0.7183145,-0.13459216,0.49480867,0.63164407,0.6976659,-0.23971997,-0.03463113,0.47335246,-0.01610339,-0.49618068,-0.5376217,-0.21581955,792.5641,789.34064,799.81683,798.60803,518.1685,-0.01934814453125,0.0849609375,1.0025634765625,0.381317138671875,-10.93109130859375,-41.88507080078125,1,1.0,1.0,1.0,1.0,15.00
2024-10-11 20:11:08.641,0.6973058,0.50491184,1.069307,1.0318743,0.3544737,0.104165174,0.52804023,0.6769883,0.7183145,-0.13459216,0.49480867,0.63164407,0.6976659,-0.23971997,-0.03463113,0.47335246,-0.01610339,-0.49618068,-0.5376217,-0.21581955,804.65204,791.75824,804.2491,805.8608,521.79486,-0.01934814453125,0.0849609375,1.0025634765625,0.381317138671875,-10.93109130859375,-41.88507080078125,1,1.0,1.0,1.0,1.0,15.00
2024-10-11 20:11:08.642,0.6973058,0.50491184,1.069307,1.0318743,0.3544737,0.104165174,0.52804023,0.6769883,0.7183145,-0.13459216,0.49480867,0.63164407,0.6976659,-0.23971997,-0.03463113,0.47335246,-0.01610339,-0.49618068,-0.5376217,-0.21581955,809.89014,793.36993,806.6667,805.4579,522.1978,-0.01934814453125,0.0849609375,1.0025634765625,0.381317138671875,-10.93109130859375,-41.88507080078125,1,1.0,1.0,1.0,1.0,15.00
2024-10-11 20:11:08.643,0.6973058,0.50491184,1.069307,1.0318743,0.3544737,0.104165174,0.52804023,0.6769883,0.7183145,-0.13459216,0.49480867,0.63164407,0.6976659,-0.23971997,-0.03463113,0.47335246,-0.01610339,-0.49618068,-0.5376217,-0.21581955,813.1135,794.9817,804.65204,805.8608,643.47986,-0.01934814453125,0.0849609375,1.0025634765625,0.381317138671875,-10.93109130859375,-41.88507080078125,1,1.0,1.0,1.0,1.0,15.00
2024-10-11 20:11:08.643,0.6973058,0.50491184,1.069307,1.0318743,0.3544737,0.104165174,0.52804023,0.6769883,0.7183145,-0.13459216,0.49480867,0.63164407,0.6976659,-0.23971997,-0.03463113,0.47335246,-0.01610339,-0.49618068,-0.5376217,-0.21581955,821.978,799.011,806.6667,806.26373,636.2271,-0.01934814453125,0.0849609375,1.0025634765625,0.381317138671875,-10.93109130859375,-41.88507080078125,1,1.0,1.0,1.0,1.0,15.00
2024-10-11 20:11:08.644,0.6973058,0.50491184,1.069307,1.0318743,0.3544737,0.104165174,0.52804023,0.6769883,0.7183145,-0.13459216,0.49480867,0.63164407,0.6976659,-0.23971997,-0.03463113,0.47335246,-0.01610339,-0.49618068,-0.5376217,-0.21581955,817.1429,799.81683,808.2784,812.71063,727.28937,-0.01934814453125,0.0849609375,1.0025634765625,0.381317138671875,-10.93109130859375,-41.88507080078125,1,1.0,1.0,1.0,1.0,15.00
2024-10-11 20:11:08.644,0.6973058,0.50491184,1.069307,1.0318743,0.3544737,0.104165174,0.52804023,0.6769883,0.7183145,-0.13459216,0.49480867,0.63164407,0.6976659,-0.23971997,-0.03463113,0.47335246,-0.01610339,-0.49618068,-0.5376217,-0.21581955,812.3077,790.54944,807.0696,818.7546,814.7253,-0.01934814453125,0.0849609375,1.0025634765625,0.381317138671875,-10.93109130859375,-41.88507080078125,1,1.0,1.0,1.0,1.0,15.00
2024-10-11 20:11:08.645,0.6973058,0.50491184,1.069307,1.0318743,0.3544737,0.104165174,0.52804023,0.6769883,0.7183145,-0.13459216,0.49480867,0.63164407,0.6976659,-0.23971997,-0.03463113,0.47335246,-0.01610339,-0.49618068,-0.5376217,-0.21581955,817.9487,792.5641,807.47253,823.5897,698.68134,-0.01934814453125,0.0849609375,1.0025634765625,0.381317138671875,-10.93109130859375,-41.88507080078125,1,1.0,1.0,1.0,1.0,15.00
2024-10-11 20:11:08.645,0.6973058,0.50491184,1.069307,1.0318743,0.3544737,0.104165174,0.52804023,0.6769883,0.7183145,-0.13459216,0.49480867,0.63164407,0.6976659,-0.23971997,-0.03463113,0.47335246,-0.01610339,-0.49618068,-0.5376217,-0.21581955,813.1135,801.4286,805.4579,804.2491,726.4835,-0.01934814453125,0.0849609375,1.0025634765625,0.381317138671875,-10.93109130859375,-41.88507080078125,1,1.0,1.0,1.0,1.0,15.00
2024-10-11 20:11:08.646,0.6973058,0.50491184,1.069307,1.0318743,0.3544737,0.104165174,0.52804023,0.6769883,0.7183145,-0.13459216,0.49480867,0.63164407,0.6976659,-0.23971997,-0.03463113,0.47335246,-0.01610339,-0.49618068,-0.5376217,-0.21581955,811.9048,801.02563,803.44324,792.1612,871.9414,-0.01934814453125,0.0849609375,1.0025634765625,0.381317138671875,-10.93109130859375,-41.88507080078125,1,1.0,1.0,1.0,1.0,15.00
2024-10-11 20:11:08.647,0.6973058,0.50491184,1.069307,1.0318743,0.3544737,0.104165174,0.52804023,0.6769883,0.7183145,-0.13459216,0.49480867,0.63164407,0.6976659,-0.23971997,-0.03463113,0.47335246,-0.01610339,-0.49618068,-0.5376217,-0.21581955,807.0696,797.3993,805.05493,798.20514,864.68866,-0.01934814453125,0.0849609375,1.0025634765625,0.381317138671875,-10.93109130859375,-41.88507080078125,1,1.0,1.0,1.0,1.0,15.00
2024-10-11 20:11:08.647,0.6973058,0.50491184,1.069307,1.0318743,0.3544737,0.104165174,0.52804023,0.6769883,0.7183145,-0.13459216,0.49480867,0.63164407,0.6976659,-0.23971997,-0.03463113,0.47335246,-0.01610339,-0.49618068,-0.5376217,-0.21581955,809.89014,797.3993,801.4286,811.0989,730.10986,-0.01934814453125,0.0849609375,1.0025634765625,0.381317138671875,-10.93109130859375,-41.88507080078125,1,1.0,1.0,1.0,1.0,15.00
2024-10-11 20:11:08.674,0.6973058,0.50491184,1.069307,1.0318743,0.3544737,0.104165174,0.52804023,0.6769883,0.7183145,-0.13459216,0.49480867,0.63164407,0.6976659,-0.23971997,-0.03463113,0.47335246,-0.01610339,-0.49618068,-0.5376217,-0.21581955,809.4872,793.36993,798.20514,813.1135,692.23444,-0.01788330078125,0.08544921875,1.001708984375,-1.92901611328125,-9.45068359375,-46.288909912109375,1,1.0,1.0,1.0,1.0,15.00
2024-10-11 20:11:08.675,0.7515421,0.53533846,1.1029593,1.0318743,0.40434933,0.11487723,0.5582676,0.6769883,0.7149234,-0.13984312,0.49480867,0.63164407,0.70109665,-0.23063077,-0.030671028,0.47335246,4.41002E-4,-0.5021343,-0.5365355,-0.21581955,817.5458,790.9524,797.8022,810.696,887.25275,-0.01788330078125,0.08544921875,1.001708984375,-1.92901611328125,-9.45068359375,-46.288909912109375,1,1.0,1.0,1.0,1.0,15.00
2024-10-11 20:11:08.680,0.7515421,0.53533846,1.1029593,1.0318743,0.40434933,0.11487723,0.5582676,0.6769883,0.7149234,-0.13984312,0.49480867,0.63164407,0.70109665,-0.23063077,-0.030671028,0.47335246,4.41002E-4,-0.5021343,-0.5365355,-0.21581955,821.978,797.8022,794.17584,811.9048,842.52747,-0.01788330078125,0.08544921875,1.001708984375,-1.92901611328125,-9.45068359375,-46.288909912109375,1,1.0,1.0,1.0,1.0,15.00
2024-10-11 20:11:08.680,0.7515421,0.53533846,1.1029593,1.0318743,0.40434933,0.11487723,0.5582676,0.6769883,0.7149234,-0.13984312,0.49480867,0.63164407,0.70109665,-0.23063077,-0.030671028,0.47335246,4.41002E-4,-0.5021343,-0.5365355,-0.21581955,801.4286,800.6227,792.1612,809.89014,642.674,-0.01788330078125,0.08544921875,1.001708984375,-1.92901611328125,-9.45068359375,-46.288909912109375,1,1.0,1.0,1.0,1.0,15.00
2024-10-11 20:11:08.681,0.7515421,0.53533846,1.1029593,1.0318743,0.40434933,0.11487723,0.5582676,0.6769883,0.7149234,-0.13984312,0.49480867,0.63164407,0.70109665,-0.23063077,-0.030671028,0.47335246,4.41002E-4,-0.5021343,-0.5365355,-0.21581955,795.38464,799.41394,792.1612,813.1135,689.81683,-0.01788330078125,0.08544921875,1.001708984375,-1.92901611328125,-9.45068359375,-46.288909912109375,1,1.0,1.0,1.0,1.0,15.00
2024-10-11 20:11:08.682,0.7515421,0.53533846,1.1029593,1.0318743,0.40434933,0.11487723,0.5582676,0.6769883,0.7149234,-0.13984312,0.49480867,0.63164407,0.70109665,-0.23063077,-0.030671028,0.47335246,4.41002E-4,-0.5021343,-0.5365355,-0.21581955,796.1905,798.60803,791.3553,805.8608,892.0879,-0.01788330078125,0.08544921875,1.001708984375,-1.92901611328125,-9.45068359375,-46.288909912109375,1,1.0,1.0,1.0,1.0,15.00
2024-10-11 20:11:08.682,0.7515421,0.53533846,1.1029593,1.0318743,0.40434933,0.11487723,0.5582676,0.6769883,0.7149234,-0.13984312,0.49480867,0.63164407,0.70109665,-0.23063077,-0.030671028,0.47335246,4.41002E-4,-0.5021343,-0.5365355,-0.21581955,795.38464,801.02563,786.52014,799.011,863.0769,-0.01788330078125,0.08544921875,1.001708984375,-1.92901611328125,-9.45068359375,-46.288909912109375,1,1.0,1.0,1.0,1.0,15.00
2024-10-11 20:11:08.683,0.7515421,0.53533846,1.1029593,1.0318743,0.40434933,0.11487723,0.5582676,0.6769883,0.7149234,-0.13984312,0.49480867,0.63164407,0.70109665,-0.23063077,-0.030671028,0.47335246,4.41002E-4,-0.5021343,-0.5365355,-0.21581955,800.6227,803.0403,783.2967,810.293,701.9048,-0.01788330078125,0.08544921875,1.001708984375,-1.92901611328125,-9.45068359375,-46.288909912109375,1,1.0,1.0,1.0,1.0,15.00
2024-10-11 20:11:08.683,0.7515421,0.53533846,1.1029593,1.0318743,0.40434933,0.11487723,0.5582676,0.6769883,0.7149234,-0.13984312,0.49480867,0.63164407,0.70109665,-0.23063077,-0.030671028,0.47335246,4.41002E-4,-0.5021343,-0.5365355,-0.21581955,799.011,803.0403,786.52014,811.9048,781.685,-0.01788330078125,0.08544921875,1.001708984375,-1.92901611328125,-9.45068359375,-46.288909912109375,1,1.0,1.0,1.0,1.0,15.00
2024-10-11 20:11:08.684,0.7515421,0.53533846,1.1029593,1.0318743,0.40434933,0.11487723,0.5582676,0.6769883,0.7149234,-0.13984312,0.49480867,0.63164407,0.70109665,-0.23063077,-0.030671028,0.47335246,4.41002E-4,-0.5021343,-0.5365355,-0.21581955,806.26373,804.2491,790.9524,806.6667,790.54944,-0.01788330078125,0.08544921875,1.001708984375,-1.92901611328125,-9.45068359375,-46.288909912109375,1,1.0,1.0,1.0,1.0,15.00
2024-10-11 20:11:08.684,0.7515421,0.53533846,1.1029593,1.0318743,0.40434933,0.11487723,0.5582676,0.6769883,0.7149234,-0.13984312,0.49480867,0.63164407,0.70109665,-0.23063077,-0.030671028,0.47335246,4.41002E-4,-0.5021343,-0.5365355,-0.21581955,809.4872,801.02563,790.9524,801.8315,607.2161,-0.01788330078125,0.08544921875,1.001708984375,-1.92901611328125,-9.45068359375,-46.288909912109375,1,1.0,1.0,1.0,1.0,15.00
2024-10-11 20:11:08.685,0.7515421,0.53533846,1.1029593,1.0318743,0.40434933,0.11487723,0.5582676,0.6769883,0.7149234,-0.13984312,0.49480867,0.63164407,0.70109665,-0.23063077,-0.030671028,0.47335246,4.41002E-4,-0.5021343,-0.5365355,-0.21581955,813.5165,801.4286,791.75824,806.6667,598.7546,-0.01788330078125,0.08544921875,1.001708984375,-1.92901611328125,-9.45068359375,-46.288909912109375,1,1.0,1.0,1.0,1.0,15.00
2024-10-11 20:11:08.709,0.7515421,0.53533846,1.1029593,1.0318743,0.40434933,0.11487723,0.5582676,0.6769883,0.7149234,-0.13984312,0.49480867,0.63164407,0.70109665,-0.23063077,-0.030671028,0.47335246,4.41002E-4,-0.5021343,-0.5365355,-0.21581955,824.3956,803.44324,795.38464,819.5604,870.7326,-0.01861572265625,0.07666015625,1.01220703125,-1.577606201171875,-5.21881103515625,-47.410430908203125,1,1.0,1.0,1.0,1.0,15.00
2024-10-11 20:11:08.710,0.7515421,0.53533846,1.1029593,1.0318743,0.40434933,0.11487723,0.5582676,0.6769883,0.7149234,-0.13984312,0.49480867,0.63164407,0.70109665,-0.23063077,-0.030671028,0.47335246,4.41002E-4,-0.5021343,-0.5365355,-0.21581955,834.0659,801.02563,795.78754,811.50183,1116.1172,-0.01861572265625,0.07666015625,1.01220703125,-1.577606201171875,-5.21881103515625,-47.410430908203125,1,1.0,1.0,1.0,1.0,15.00
2024-10-11 20:11:08.711,0.7515421,0.53533846,1.1029593,1.0318743,0.40434933,0.11487723,0.5582676,0.6769883,0.7149234,-0.13984312,0.49480867,0.63164407,0.70109665,-0.23063077,-0.030671028,0.47335246,4.41002E-4,-0.5021343,-0.5365355,-0.21581955,853.00366,798.60803,793.7729,793.7729,962.6007,-0.01861572265625,0.07666015625,1.01220703125,-1.577606201171875,-5.21881103515625,-47.410430908203125,1,1.0,1.0,1.0,1.0,15.00
2024-10-11 20:11:08.711,0.7515421,0.53533846,1.1029593,1.0318743,0.40434933,0.11487723,0.5582676,0.6769883,0.7149234,-0.13984312,0.49480867,0.63164407,0.70109665,-0.23063077,-0.030671028,0.47335246,4.41002E-4,-0.5021343,-0.5365355,-0.21581955,850.989,801.02563,796.5934,796.99634,776.8498,-0.01861572265625,0.07666015625,1.01220703125,-1.577606201171875,-5.21881103515625,-47.410430908203125,1,1.0,1.0,1.0,1.0,15.00
2024-10-11 20:11:08.712,0.7515421,0.53533846,1.1029593,1.0318743,0.40434933,0.11487723,0.5582676,0.6769883,0.7149234,-0.13984312,0.49480867,0.63164407,0.70109665,-0.23063077,-0.030671028,0.47335246,4.41002E-4,-0.5021343,-0.5365355,-0.21581955,820.7692,800.6227,797.3993,808.68134,920.696,-0.01861572265625,0.07666015625,1.01220703125,-1.577606201171875,-5.21881103515625,-47.410430908203125,1,1.0,1.0,1.0,1.0,15.00
2024-10-11 20:11:08.713,0.7515421,0.53533846,1.1029593,1.0318743,0.40434933,0.11487723,0.5582676,0.6769883,0.7149234,-0.13984312,0.49480867,0.63164407,0.70109665,-0.23063077,-0.030671028,0.47335246,4.41002E-4,-0.5021343,-0.5365355,-0.21581955,815.5311,793.7729,795.78754,816.337,1267.2161,-0.01861572265625,0.07666015625,1.01220703125,-1.577606201171875,-5.21881103515625,-47.410430908203125,1,1.0,1.0,1.0,1.0,15.00
2024-10-11 20:11:08.713,0.7515421,0.53533846,1.1029593,1.0318743,0.40434933,0.11487723,0.5582676,0.6769883,0.7149234,-0.13984312,0.49480867,0.63164407,0.70109665,-0.23063077,-0.030671028,0.47335246,4.41002E-4,-0.5021343,-0.5365355,-0.21581955,822.7839,796.1905,792.1612,807.47253,1007.326,-0.01861572265625,0.07666015625,1.01220703125,-1.577606201171875,-5.21881103515625,-47.410430908203125,1,1.0,1.0,1.0,1.0,15.00
2024-10-11 20:11:08.714,0.7515421,0.53533846,1.1029593,1.0318743,0.40434933,0.11487723,0.5582676,0.6769883,0.7149234,-0.13984312,0.49480867,0.63164407,0.70109665,-0.23063077,-0.030671028,0.47335246,4.41002E-4,-0.5021343,-0.5365355,-0.21581955,808.68134,792.5641,791.3553,793.7729,625.34796,-0.01861572265625,0.07666015625,1.01220703125,-1.577606201171875,-5.21881103515625,-47.410430908203125,1,1.0,1.0,1.0,1.0,15.00
2024-10-11 20:11:08.714,0.7515421,0.53533846,1.1029593,1.0318743,0.40434933,0.11487723,0.5582676,0.6769883,0.7149234,-0.13984312,0.49480867,0.63164407,0.70109665,-0.23063077,-0.030671028,0.47335246,4.41002E-4,-0.5021343,-0.5365355,-0.21581955,776.04395,783.69965,795.38464,803.44324,772.4176,-0.01861572265625,0.07666015625,1.01220703125,-1.577606201171875,-5.21881103515625,-47.410430908203125,1,1.0,1.0,1.0,1.0,15.00
2024-10-11 20:11:08.715,0.7515421,0.53533846,1.1029593,1.0318743,0.40434933,0.11487723,0.5582676,0.6769883,0.7149234,-0.13984312,0.49480867,0.63164407,0.70109665,-0.23063077,-0.030671028,0.47335246,4.41002E-4,-0.5021343,-0.5365355,-0.21581955,753.47986,786.9231,798.60803,811.0989,930.7692,-0.01861572265625,0.07666015625,1.01220703125,-1.577606201171875,-5.21881103515625,-47.410430908203125,1,1.0,1.0,1.0,1.0,15.00
2024-10-11 20:11:08.715,0.7515421,0.53533846,1.1029593,1.0318743,0.40434933,0.11487723,0.5582676,0.6769883,0.7149234,-0.13984312,0.49480867,0.63164407,0.70109665,-0.23063077,-0.030671028,0.47335246,4.41002E-4,-0.5021343,-0.5365355,-0.21581955,767.5824,792.1612,797.8022,798.20514,844.1392,-0.01861572265625,0.07666015625,1.01220703125,-1.577606201171875,-5.21881103515625,-47.410430908203125,1,1.0,1.0,1.0,1.0,15.00
2024-10-11 20:11:08.716,0.7515421,0.53533846,1.1029593,1.0318743,0.40434933,0.11487723,0.5582676,0.6769883,0.7149234,-0.13984312,0.49480867,0.63164407,0.70109665,-0.23063077,-0.030671028,0.47335246,4.41002E-4,-0.5021343,-0.5365355,-0.21581955,780.87915,794.17584,798.60803,792.5641,726.8865,-0.01861572265625,0.07666015625,1.01220703125,-1.577606201171875,-5.21881103515625,-47.410430908203125,1,1.0,1.0,1.0,1.0,15.00
2024-10-11 20:11:08.774,0.7515421,0.53533846,1.1029593,1.0318743,0.40434933,0.11487723,0.5582676,0.6769883,0.7149234,-0.13984312,0.49480867,0.63164407,0.70109665,-0.23063077,-0.030671028,0.47335246,4.41002E-4,-0.5021343,-0.5365355,-0.21581955,788.93774,790.9524,799.81683,800.6227,947.28937,-0.01861572265625,0.07666015625,1.01220703125,-1.577606201171875,-5.21881103515625,-47.410430908203125,1,1.0,1.0,1.0,1.0,15.00
2024-10-11 20:11:08.775,0.7515421,0.53533846,1.1029593,1.0318743,0.40434933,0.11487723,0.5582676,0.6769883,0.7149234,-0.13984312,0.49480867,0.63164407,0.70109665,-0.23063077,-0.030671028,0.47335246,4.41002E-4,-0.5021343,-0.5365355,-0.21581955,798.60803,790.54944,798.60803,803.0403,929.9634,-0.01861572265625,0.07666015625,1.01220703125,-1.577606201171875,-5.21881103515625,-47.410430908203125,1,1.0,1.0,1.0,1.0,15.00
2024-10-11 20:11:08.776,0.7515421,0.53533846,1.1029593,1.0318743,0.40434933,0.11487723,0.5582676,0.6769883,0.7149234,-0.13984312,0.49480867,0.63164407,0.70109665,-0.23063077,-0.030671028,0.47335246,4.41002E-4,-0.5021343,-0.5365355,-0.21581955,809.4872,793.7729,799.81683,802.23444,627.3626,-0.01861572265625,0.07666015625,1.01220703125,-1.577606201171875,-5.21881103515625,-47.410430908203125,1,1.0,1.0,1.0,1.0,15.00
2024-10-11 20:11:08.776,0.7515421,0.56753594,1.1380059,1.0318743,0.40434933,0.12827435,0.5902618,0.6769883,0.7149234,-0.17255005,0.49480867,0.63164407,0.70109665,-0.22272134,-0.027748588,0.47335246,4.41002E-4,-0.4966181,-0.5331201,-0.21581955,809.4872,791.75824,802.23444,807.8755,707.5458,-0.01861572265625,0.07666015625,1.01220703125,-1.577606201171875,-5.21881103515625,-47.410430908203125,1,1.0,1.0,1.0,1.0,15.00
2024-10-11 20:11:08.781,0.7515421,0.56753594,1.1380059,1.0318743,0.40434933,0.12827435,0.5902618,0.6769883,0.7149234,-0.17255005,0.49480867,0.63164407,0.70109665,-0.22272134,-0.027748588,0.47335246,4.41002E-4,-0.4966181,-0.5331201,-0.21581955,810.293,790.54944,798.60803,818.7546,863.47986,-0.01861572265625,0.07666015625,1.01220703125,-1.577606201171875,-5.21881103515625,-47.410430908203125,1,1.0,1.0,1.0,1.0,15.00
2024-10-11 20:11:08.782,0.7515421,0.56753594,1.1380059,1.0318743,0.40434933,0.12827435,0.5902618,0.6769883,0.7149234,-0.17255005,0.49480867,0.63164407,0.70109665,-0.22272134,-0.027748588,0.47335246,4.41002E-4,-0.4966181,-0.5331201,-0.21581955,817.1429,792.1612,802.23444,813.5165,887.25275,-0.01861572265625,0.07666015625,1.01220703125,-1.577606201171875,-5.21881103515625,-47.410430908203125,1,1.0,1.0,1.0,1.0,15.00
2024-10-11 20:11:08.782,0.7515421,0.56753594,1.1380059,1.0318743,0.40434933,0.12827435,0.5902618,0.6769883,0.7149234,-0.17255005,0.49480867,0.63164407,0.70109665,-0.22272134,-0.027748588,0.47335246,4.41002E-4,-0.4966181,-0.5331201,-0.21581955,811.50183,789.7436,801.8315,800.2198,843.73627,-0.01861572265625,0.07666015625,1.01220703125,-1.577606201171875,-5.21881103515625,-47.410430908203125,1,1.0,1.0,1.0,1.0,15.00
2024-10-11 20:11:08.783,0.7515421,0.56753594,1.1380059,1.0318743,0.40434933,0.12827435,0.5902618,0.6769883,0.7149234,-0.17255005,0.49480867,0.63164407,0.70109665,-0.22272134,-0.027748588,0.47335246,4.41002E-4,-0.4966181,-0.5331201,-0.21581955,811.9048,788.93774,799.81683,797.3993,738.97437,-0.01861572265625,0.07666015625,1.01220703125,-1.577606201171875,-5.21881103515625,-47.410430908203125,1,1.0,1.0,1.0,1.0,15.00
2024-10-11 20:11:08.783,0.7515421,0.56753594,1.1380059,1.0318743,0.40434933,0.12827435,0.5902618,0.6769883,0.7149234,-0.17255005,0.49480867,0.63164407,0.70109665,-0.22272134,-0.027748588,0.47335246,4.41002E-4,-0.4966181,-0.5331201,-0.21581955,823.1868,791.3553,806.26373,799.81683,903.36993,-0.01861572265625,0.07666015625,1.01220703125,-1.577606201171875,-5.21881103515625,-47.410430908203125,1,1.0,1.0,1.0,1.0,15.00
2024-10-11 20:11:08.784,0.7515421,0.56753594,1.1380059,1.0318743,0.40434933,0.12827435,0.5902618,0.6769883,0.7149234,-0.17255005,0.49480867,0.63164407,0.70109665,-0.22272134,-0.027748588,0.47335246,4.41002E-4,-0.4966181,-0.5331201,-0.21581955,812.3077,798.20514,808.2784,800.6227,845.34796,-0.01861572265625,0.07666015625,1.01220703125,-1.577606201171875,-5.21881103515625,-47.410430908203125,1,1.0,1.0,1.0,1.0,15.00
2024-10-11 20:11:08.784,0.7515421,0.56753594,1.1380059,1.0318743,0.40434933,0.12827435,0.5902618,0.6769883,0.7149234,-0.17255005,0.49480867,0.63164407,0.70109665,-0.22272134,-0.027748588,0.47335246,4.41002E-4,-0.4966181,-0.5331201,-0.21581955,805.8608,797.8022,809.89014,792.96704,603.5897,-0.01861572265625,0.07666015625,1.01220703125,-1.577606201171875,-5.21881103515625,-47.410430908203125,1,1.0,1.0,1.0,1.0,15.00
2024-10-11 20:11:08.785,0.7515421,0.56753594,1.1380059,1.0318743,0.40434933,0.12827435,0.5902618,0.6769883,0.7149234,-0.17255005,0.49480867,0.63164407,0.70109665,-0.22272134,-0.027748588,0.47335246,4.41002E-4,-0.4966181,-0.5331201,-0.21581955,816.7399,795.38464,805.05493,788.93774,595.9341,-0.01861572265625,0.07666015625,1.01220703125,-1.577606201171875,-5.21881103515625,-47.410430908203125,1,1.0,1.0,1.0,1.0,15.00
2024-10-11 20:11:08.810,0.7515421,0.56753594,1.1380059,1.0318743,0.40434933,0.12827435,0.5902618,0.6769883,0.7149234,-0.17255005,0.49480867,0.63164407,0.70109665,-0.22272134,-0.027748588,0.47335246,4.41002E-4,-0.4966181,-0.5331201,-0.21581955,819.5604,795.78754,805.4579,794.57874,620.5128,-0.02117919921875,0.0732421875,0.996826171875,-0.426177978515625,-3.69354248046875,-45.83282470703125,1,1.0,1.0,1.0,1.0,15.00
2024-10-11 20:11:08.811,0.7515421,0.56753594,1.1380059,1.0318743,0.40434933,0.12827435,0.5902618,0.6769883,0.7149234,-0.17255005,0.49480867,0.63164407,0.70109665,-0.22272134,-0.027748588,0.47335246,4.41002E-4,-0.4966181,-0.5331201,-0.21581955,811.50183,793.36993,809.0842,807.0696,633.00366,-0.02117919921875,0.0732421875,0.996826171875,-0.426177978515625,-3.69354248046875,-45.83282470703125,1,1.0,1.0,1.0,1.0,15.00
2024-10-11 20:11:08.811,0.7515421,0.56753594,1.1380059,1.0318743,0.40434933,0.12827435,0.5902618,0.6769883,0.7149234,-0.17255005,0.49480867,0.63164407,0.70109665,-0.22272134,-0.027748588,0.47335246,4.41002E-4,-0.4966181,-0.5331201,-0.21581955,795.38464,791.75824,809.0842,809.4872,682.96704,-0.02117919921875,0.0732421875,0.996826171875,-0.426177978515625,-3.69354248046875,-45.83282470703125,1,1.0,1.0,1.0,1.0,15.00
2024-10-11 20:11:08.812,0.7515421,0.56753594,1.1380059,1.0318743,0.40434933,0.12827435,0.5902618,0.6769883,0.7149234,-0.17255005,0.49480867,0.63164407,0.70109665,-0.22272134,-0.027748588,0.47335246,4.41002E-4,-0.4966181,-0.5331201,-0.21581955,796.5934,790.9524,811.9048,797.8022,793.36993,-0.02117919921875,0.0732421875,0.996826171875,-0.426177978515625,-3.69354248046875,-45.83282470703125,1,1.0,1.0,1.0,1.0,15.00
2024-10-11 20:11:08.812,0.7515421,0.56753594,1.1380059,1.0318743,0.40434933,0.12827435,0.5902618,0.6769883,0.7149234,-0.17255005,0.49480867,0.63164407,0.70109665,-0.22272134,-0.027748588,0.47335246,4.41002E-4,-0.4966181,-0.5331201,-0.21581955,785.7143,794.17584,809.4872,788.1319,736.9597,-0.02117919921875,0.0732421875,0.996826171875,-0.426177978515625,-3.69354248046875,-45.83282470703125,1,1.0,1.0,1.0,1.0,15.00
2024-10-11 20:11:08.813,0.7515421,0.56753594,1.1380059,1.0318743,0.40434933,0.12827435,0.5902618,0.6769883,0.7149234,-0.17255005,0.49480867,0.63164407,0.70109665,-0.22272134,-0.027748588,0.47335246,4.41002E-4,-0.4966181,-0.5331201,-0.21581955,763.95605,794.17584,807.0696,792.1612,671.685,-0.02117919921875,0.0732421875,0.996826171875,-0.426177978515625,-3.69354248046875,-45.83282470703125,1,1.0,1.0,1.0,1.0,15.00
2024-10-11 20:11:08.813,0.7515421,0.56753594,1.1380059,1.0318743,0.40434933,0.12827435,0.5902618,0.6769883,0.7149234,-0.17255005,0.49480867,0.63164407,0.70109665,-0.22272134,-0.027748588,0.47335246,4.41002E-4,-0.4966181,-0.5331201,-0.21581955,761.9414,794.17584,809.4872,799.011,829.2308,-0.02117919921875,0.0732421875,0.996826171875,-0.426177978515625,-3.69354248046875,-45.83282470703125,1,1.0,1.0,1.0,1.0,15.00
2024-10-11 20:11:08.814,0.7515421,0.56753594,1.1380059,1.0318743,0.40434933,0.12827435,0.5902618,0.6769883,0.7149234,-0.17255005,0.49480867,0.63164407,0.70109665,-0.22272134,-0.027748588,0.47335246,4.41002E-4,-0.4966181,-0.5331201,-0.21581955,777.25275,791.3553,809.0842,798.20514,1006.1172,-0.02117919921875,0.0732421875,0.996826171875,-0.426177978515625,-3.69354248046875,-45.83282470703125,1,1.0,1.0,1.0,1.0,15.00
2024-10-11 20:11:08.815,0.7515421,0.56753594,1.1380059,1.0318743,0.40434933,0.12827435,0.5902618,0.6769883,0.7149234,-0.17255005,0.49480867,0.63164407,0.70109665,-0.22272134,-0.027748588,0.47335246,4.41002E-4,-0.4966181,-0.5331201,-0.21581955,786.52014,787.72894,806.6667,794.17584,946.4835,-0.02117919921875,0.0732421875,0.996826171875,-0.426177978515625,-3.69354248046875,-45.83282470703125,1,1.0,1.0,1.0,1.0,15.00
2024-10-11 20:11:08.815,0.7515421,0.56753594,1.1380059,1.0318743,0.40434933,0.12827435,0.5902618,0.6769883,0.7149234,-0.17255005,0.49480867,0.63164407,0.70109665,-0.22272134,-0.027748588,0.47335246,4.41002E-4,-0.4966181,-0.5331201,-0.21581955,794.17584,803.8461,806.6667,791.75824,710.3663,-0.02117919921875,0.0732421875,0.996826171875,-0.426177978515625,-3.69354248046875,-45.83282470703125,1,1.0,1.0,1.0,1.0,15.00
2024-10-11 20:11:08.816,0.7515421,0.56753594,1.1380059,1.0318743,0.40434933,0.12827435,0.5902618,0.6769883,0.7149234,-0.17255005,0.49480867,0.63164407,0.70109665,-0.22272134,-0.027748588,0.47335246,4.41002E-4,-0.4966181,-0.5331201,-0.21581955,806.26373,809.89014,806.6667,800.2198,792.5641,-0.02117919921875,0.0732421875,0.996826171875,-0.426177978515625,-3.69354248046875,-45.83282470703125,1,1.0,1.0,1.0,1.0,15.00
2024-10-11 20:11:08.816,0.7515421,0.56753594,1.1380059,1.0318743,0.40434933,0.12827435,0.5902618,0.6769883,0.7149234,-0.17255005,0.49480867,0.63164407,0.70109665,-0.22272134,-0.027748588,0.47335246,4.41002E-4,-0.4966181,-0.5331201,-0.21581955,804.2491,799.011,805.4579,803.8461,987.1795,-0.02117919921875,0.0732421875,0.996826171875,-0.426177978515625,-3.69354248046875,-45.83282470703125,1,1.0,1.0,1.0,1.0,15.00
2024-10-11 20:11:08.841,0.7515421,0.56753594,1.1380059,1.0318743,0.40434933,0.12827435,0.5902618,0.6769883,0.7149234,-0.17255005,0.49480867,0.63164407,0.70109665,-0.22272134,-0.027748588,0.47335246,4.41002E-4,-0.4966181,-0.5331201,-0.21581955,804.2491,799.011,807.8755,807.8755,818.3516,-0.03558349609375,0.08062744140625,0.9951171875,1.00189208984375,-2.37762451171875,-46.303863525390625,1,1.0,1.0,1.0,1.0,15.00
2024-10-11 20:11:08.842,0.7515421,0.56753594,1.1380059,1.0318743,0.40434933,0.12827435,0.5902618,0.6769883,0.7149234,-0.17255005,0.49480867,0.63164407,0.70109665,-0.22272134,-0.027748588,0.47335246,4.41002E-4,-0.4966181,-0.5331201,-0.21581955,810.293,803.0403,810.696,817.1429,651.9414,-0.03558349609375,0.08062744140625,0.9951171875,1.00189208984375,-2.37762451171875,-46.303863525390625,1,1.0,1.0,1.0,1.0,15.00
2024-10-11 20:11:08.843,0.7515421,0.56753594,1.1380059,1.0318743,0.40434933,0.12827435,0.5902618,0.6769883,0.7149234,-0.17255005,0.49480867,0.63164407,0.70109665,-0.22272134,-0.027748588,0.47335246,4.41002E-4,-0.4966181,-0.5331201,-0.21581955,792.1612,800.2198,817.1429,818.3516,697.8755,-0.03558349609375,0.08062744140625,0.9951171875,1.00189208984375,-2.37762451171875,-46.303863525390625,1,1.0,1.0,1.0,1.0,15.00
2024-10-11 20:11:08.843,0.7515421,0.56753594,1.1380059,1.0318743,0.40434933,0.12827435,0.5902618,0.6769883,0.7149234,-0.17255005,0.49480867,0.63164407,0.70109665,-0.22272134,-0.027748588,0.47335246,4.41002E-4,-0.4966181,-0.5331201,-0.21581955,782.0879,797.8022,815.5311,807.8755,929.15753,-0.03558349609375,0.08062744140625,0.9951171875,1.00189208984375,-2.37762451171875,-46.303863525390625,1,1.0,1.0,1.0,1.0,15.00
2024-10-11 20:11:08.844,0.7515421,0.56753594,1.1380059,1.0318743,0.40434933,0.12827435,0.5902618,0.6769883,0.7149234,-0.17255005,0.49480867,0.63164407,0.70109665,-0.22272134,-0.027748588,0.47335246,4.41002E-4,-0.4966181,-0.5331201,-0.21581955,787.326,798.60803,811.0989,796.99634,919.4872,-0.03558349609375,0.08062744140625,0.9951171875,1.00189208984375,-2.37762451171875,-46.303863525390625,1,1.0,1.0,1.0,1.0,15.00
2024-10-11 20:11:08.844,0.7515421,0.60041064,1.1733129,1.0318743,0.40434933,0.1499584,0.6208549,0.6769883,0.7149234,-0.17255005,0.49480867,0.63164407,0.70109665,-0.21516748,-0.02868531,0.47335246,4.41002E-4,-0.4864368,-0.529055,-0.21581955,796.5934,800.6227,812.71063,796.5934,755.09155,-0.03558349609375,0.08062744140625,0.9951171875,1.00189208984375,-2.37762451171875,-46.303863525390625,1,1.0,1.0,1.0,1.0,15.00
2024-10-11 20:11:08.849,0.7515421,0.60041064,1.1733129,1.0318743,0.40434933,0.1499584,0.6208549,0.6769883,0.7149234,-0.17255005,0.49480867,0.63164407,0.70109665,-0.21516748,-0.02868531,0.47335246,4.41002E-4,-0.4864368,-0.529055,-0.21581955,817.1429,801.02563,813.1135,803.0403,928.7546,-0.03558349609375,0.08062744140625,0.9951171875,1.00189208984375,-2.37762451171875,-46.303863525390625,1,1.0,1.0,1.0,1.0,15.00
2024-10-11 20:11:08.850,0.7515421,0.60041064,1.1733129,1.0318743,0.40434933,0.1499584,0.6208549,0.6769883,0.7149234,-0.17255005,0.49480867,0.63164407,0.70109665,-0.21516748,-0.02868531,0.47335246,4.41002E-4,-0.4864368,-0.529055,-0.21581955,828.8278,798.20514,807.47253,799.41394,1087.9121,-0.03558349609375,0.08062744140625,0.9951171875,1.00189208984375,-2.37762451171875,-46.303863525390625,1,1.0,1.0,1.0,1.0,15.00
2024-10-11 20:11:08.850,0.7515421,0.60041064,1.1733129,1.0318743,0.40434933,0.1499584,0.6208549,0.6769883,0.7149234,-0.17255005,0.49480867,0.63164407,0.70109665,-0.21516748,-0.02868531,0.47335246,4.41002E-4,-0.4864368,-0.529055,-0.21581955,839.304,799.011,810.293,798.60803,868.71796,-0.03558349609375,0.08062744140625,0.9951171875,1.00189208984375,-2.37762451171875,-46.303863525390625,1,1.0,1.0,1.0,1.0,15.00
2024-10-11 20:11:08.851,0.7515421,0.60041064,1.1733129,1.0318743,0.40434933,0.1499584,0.6208549,0.6769883,0.7149234,-0.17255005,0.49480867,0.63164407,0.70109665,-0.21516748,-0.02868531,0.47335246,4.41002E-4,-0.4864368,-0.529055,-0.21581955,812.71063,798.20514,817.5458,805.4579,675.31134,-0.03558349609375,0.08062744140625,0.9951171875,1.00189208984375,-2.37762451171875,-46.303863525390625,1,1.0,1.0,1.0,1.0,15.00
2024-10-11 20:11:08.851,0.7515421,0.60041064,1.1733129,1.0318743,0.40434933,0.1499584,0.6208549,0.6769883,0.7149234,-0.17255005,0.49480867,0.63164407,0.70109665,-0.21516748,-0.02868531,0.47335246,4.41002E-4,-0.4864368,-0.529055,-0.21581955,770.40295,792.5641,815.12823,807.8755,695.8608,-0.03558349609375,0.08062744140625,0.9951171875,1.00189208984375,-2.37762451171875,-46.303863525390625,1,1.0,1.0,1.0,1.0,15.00
2024-10-11 20:11:08.852,0.7515421,0.60041064,1.1733129,1.0318743,0.40434933,0.1499584,0.6208549,0.6769883,0.7149234,-0.17255005,0.49480867,0.63164407,0.70109665,-0.21516748,-0.02868531,0.47335246,4.41002E-4,-0.4864368,-0.529055,-0.21581955,765.56775,790.14655,811.9048,816.337,1076.63,-0.03558349609375,0.08062744140625,0.9951171875,1.00189208984375,-2.37762451171875,-46.303863525390625,1,1.0,1.0,1.0,1.0,15.00
2024-10-11 20:11:08.876,0.7515421,0.60041064,1.1733129,1.0318743,0.40434933,0.1499584,0.6208549,0.6769883,0.7149234,-0.17255005,0.49480867,0.63164407,0.70109665,-0.21516748,-0.02868531,0.47335246,4.41002E-4,-0.4864368,-0.529055,-0.21581955,789.34064,794.9817,813.5165,803.8461,1021.4286,-0.04766845703125,0.0885009765625,1.0159912109375,-0.246734619140625,-2.654266357421875,-50.834808349609375,1,1.0,1.0,1.0,1.0,15.00
2024-10-11 20:11:08.877,0.7515421,0.60041064,1.1733129,1.0318743,0.40434933,0.1499584,0.6208549,0.6769883,0.7149234,-0.17255005,0.49480867,0.63164407,0.70109665,-0.21516748,-0.02868531,0.47335246,4.41002E-4,-0.4864368,-0.529055,-0.21581955,807.47253,801.02563,819.9634,792.1612,659.59705,-0.04766845703125,0.0885009765625,1.0159912109375,-0.246734619140625,-2.654266357421875,-50.834808349609375,1,1.0,1.0,1.0,1.0,15.00
2024-10-11 20:11:08.878,0.7515421,0.60041064,1.1733129,1.0318743,0.40434933,0.1499584,0.6208549,0.6769883,0.7149234,-0.17255005,0.49480867,0.63164407,0.70109665,-0.21516748,-0.02868531,0.47335246,4.41002E-4,-0.4864368,-0.529055,-0.21581955,800.6227,800.6227,820.3663,803.44324,685.78754,-0.04766845703125,0.0885009765625,1.0159912109375,-0.246734619140625,-2.654266357421875,-50.834808349609375,1,1.0,1.0,1.0,1.0,15.00
2024-10-11 20:11:08.879,0.7515421,0.60041064,1.1733129,1.0318743,0.40434933,0.1499584,0.6208549,0.6769883,0.7149234,-0.17255005,0.49480867,0.63164407,0.70109665,-0.21516748,-0.02868531,0.47335246,4.41002E-4,-0.4864368,-0.529055,-0.21581955,774.83514,792.5641,819.15753,808.2784,902.1612,-0.04766845703125,0.0885009765625,1.0159912109375,-0.246734619140625,-2.654266357421875,-50.834808349609375,1,1.0,1.0,1.0,1.0,15.00
2024-10-11 20:11:08.879,0.7515421,0.60041064,1.1733129,1.0318743,0.40434933,0.1499584,0.6208549,0.6769883,0.7149234,-0.17255005,0.49480867,0.63164407,0.70109665,-0.21516748,-0.02868531,0.47335246,4.41002E-4,-0.4864368,-0.529055,-0.21581955,768.3883,788.5348,822.381,807.0696,897.72894,-0.04766845703125,0.0885009765625,1.0159912109375,-0.246734619140625,-2.654266357421875,-50.834808349609375,1,1.0,1.0,1.0,1.0,15.00
2024-10-11 20:11:08.880,0.7515421,0.60041064,1.1733129,1.0318743,0.40434933,0.1499584,0.6208549,0.6769883,0.7149234,-0.17255005,0.49480867,0.63164407,0.70109665,-0.21516748,-0.02868531,0.47335246,4.41002E-4,-0.4864368,-0.529055,-0.21581955,787.326,795.38464,818.7546,798.60803,766.3736,-0.04766845703125,0.0885009765625,1.0159912109375,-0.246734619140625,-2.654266357421875,-50.834808349609375,1,1.0,1.0,1.0,1.0,15.00
2024-10-11 20:11:08.880,0.7515421,0.60041064,1.1733129,1.0318743,0.40434933,0.1499584,0.6208549,0.6769883,0.7149234,-0.17255005,0.49480867,0.63164407,0.70109665,-0.21516748,-0.02868531,0.47335246,4.41002E-4,-0.4864368,-0.529055,-0.21581955,781.685,797.8022,813.1135,787.326,866.30035,-0.04766845703125,0.0885009765625,1.0159912109375,-0.246734619140625,-2.654266357421875,-50.834808349609375,1,1.0,1.0,1.0,1.0,15.00
2024-10-11 20:11:08.881,0.7515421,0.60041064,1.1733129,1.0318743,0.40434933,0.1499584,0.6208549,0.6769883,0.7149234,-0.17255005,0.49480867,0.63164407,0.70109665,-0.21516748,-0.02868531,0.47335246,4.41002E-4,-0.4864368,-0.529055,-0.21581955,780.4762,800.2198,814.3223,801.4286,1017.8022,-0.04766845703125,0.0885009765625,1.0159912109375,-0.246734619140625,-2.654266357421875,-50.834808349609375,1,1.0,1.0,1.0,1.0,15.00
2024-10-11 20:11:08.881,0.7515421,0.60041064,1.1733129,1.0318743,0.40434933,0.1499584,0.6208549,0.6769883,0.7149234,-0.17255005,0.49480867,0.63164407,0.70109665,-0.21516748,-0.02868531,0.47335246,4.41002E-4,-0.4864368,-0.529055,-0.21581955,794.17584,798.20514,812.3077,814.3223,850.18317,-0.04766845703125,0.0885009765625,1.0159912109375,-0.246734619140625,-2.654266357421875,-50.834808349609375,1,1.0,1.0,1.0,1.0,15.00
2024-10-11 20:11:08.882,0.7515421,0.60041064,1.1733129,1.0318743,0.40434933,0.1499584,0.6208549,0.6769883,0.7149234,-0.17255005,0.49480867,0.63164407,0.70109665,-0.21516748,-0.02868531,0.47335246,4.41002E-4,-0.4864368,-0.529055,-0.21581955,799.41394,786.1172,812.71063,816.337,741.39197,-0.04766845703125,0.0885009765625,1.0159912109375,-0.246734619140625,-2.654266357421875,-50.834808349609375,1,1.0,1.0,1.0,1.0,15.00
2024-10-11 20:11:08.883,0.7515421,0.60041064,1.1733129,1.0318743,0.40434933,0.1499584,0.6208549,0.6769883,0.7149234,-0.17255005,0.49480867,0.63164407,0.70109665,-0.21516748,-0.02868531,0.47335246,4.41002E-4,-0.4864368,-0.529055,-0.21581955,800.6227,799.41394,812.71063,815.12823,829.2308,-0.04766845703125,0.0885009765625,1.0159912109375,-0.246734619140625,-2.654266357421875,-50.834808349609375,1,1.0,1.0,1.0,1.0,15.00
2024-10-11 20:11:08.883,0.7515421,0.60041064,1.1733129,1.0318743,0.40434933,0.1499584,0.6208549,0.6769883,0.7149234,-0.17255005,0.49480867,0.63164407,0.70109665,-0.21516748,-0.02868531,0.47335246,4.41002E-4,-0.4864368,-0.529055,-0.21581955,788.93774,810.696,809.4872,799.41394,851.79486,-0.04766845703125,0.0885009765625,1.0159912109375,-0.246734619140625,-2.654266357421875,-50.834808349609375,1,1.0,1.0,1.0,1.0,15.00
2024-10-11 20:11:08.942,0.7515421,0.60041064,1.1733129,1.0318743,0.40434933,0.1499584,0.6208549,0.6769883,0.7149234,-0.17255005,0.49480867,0.63164407,0.70109665,-0.21516748,-0.02868531,0.47335246,4.41002E-4,-0.4864368,-0.529055,-0.21581955,786.52014,808.2784,805.4579,804.2491,822.381,-0.04296875,0.0791015625,1.00225830078125,-0.8074951171875,-3.416900634765625,-53.47412109375,1,1.0,1.0,1.0,1.0,15.00
2024-10-11 20:11:08.943,0.7515421,0.60041064,1.1733129,1.0318743,0.40434933,0.1499584,0.6208549,0.6769883,0.7149234,-0.17255005,0.49480867,0.63164407,0.70109665,-0.21516748,-0.02868531,0.47335246,4.41002E-4,-0.4864368,-0.529055,-0.21581955,792.96704,807.8755,800.6227,805.05493,815.12823,-0.04296875,0.0791015625,1.00225830078125,-0.8074951171875,-3.416900634765625,-53.47412109375,1,1.0,1.0,1.0,1.0,15.00
2024-10-11 20:11:08.944,0.7515421,0.60041064,1.1733129,1.0318743,0.40434933,0.1499584,0.6208549,0.6769883,0.7149234,-0.17255005,0.49480867,0.63164407,0.70109665,-0.21516748,-0.02868531,0.47335246,4.41002E-4,-0.4864368,-0.529055,-0.21581955,813.5165,805.05493,801.02563,805.8608,837.6923,-0.04296875,0.0791015625,1.00225830078125,-0.8074951171875,-3.416900634765625,-53.47412109375,1,1.0,1.0,1.0,1.0,15.00
2024-10-11 20:11:08.944,0.7515421,0.60041064,1.1733129,1.0318743,0.40434933,0.1499584,0.6208549,0.6769883,0.7149234,-0.17255005,0.49480867,0.63164407,0.70109665,-0.21516748,-0.02868531,0.47335246,4.41002E-4,-0.4864368,-0.529055,-0.21581955,818.7546,803.8461,799.011,803.0403,725.2747,-0.04296875,0.0791015625,1.00225830078125,-0.8074951171875,-3.416900634765625,-53.47412109375,1,1.0,1.0,1.0,1.0,15.00
2024-10-11 20:11:08.945,0.7515421,0.60041064,1.1733129,1.0318743,0.40434933,0.1499584,0.6208549,0.6769883,0.7149234,-0.17255005,0.49480867,0.63164407,0.70109665,-0.21516748,-0.02868531,0.47335246,4.41002E-4,-0.4864368,-0.529055,-0.21581955,827.2161,803.44324,791.3553,797.8022,713.9927,-0.04296875,0.0791015625,1.00225830078125,-0.8074951171875,-3.416900634765625,-53.47412109375,1,1.0,1.0,1.0,1.0,15.00
2024-10-11 20:11:08.945,0.7515421,0.60041064,1.1733129,1.0318743,0.40434933,0.1499584,0.6208549,0.6769883,0.7149234,-0.17255005,0.49480867,0.63164407,0.70109665,-0.21516748,-0.02868531,0.47335246,4.41002E-4,-0.4864368,-0.529055,-0.21581955,841.31866,803.8461,785.7143,787.326,936.4103,-0.04296875,0.0791015625,1.00225830078125,-0.8074951171875,-3.416900634765625,-53.47412109375,1,1.0,1.0,1.0,1.0,15.00
2024-10-11 20:11:08.946,0.7515421,0.60041064,1.1733129,1.0318743,0.40434933,0.1499584,0.6208549,0.6769883,0.7149234,-0.17255005,0.49480867,0.63164407,0.70109665,-0.21516748,-0.02868531,0.47335246,4.41002E-4,-0.4864368,-0.529055,-0.21581955,823.1868,801.4286,785.31134,788.5348,991.2088,-0.04296875,0.0791015625,1.00225830078125,-0.8074951171875,-3.416900634765625,-53.47412109375,1,1.0,1.0,1.0,1.0,15.00
2024-10-11 20:11:08.946,0.7515421,0.6297995,1.2043407,1.0719613,0.40434933,0.18042149,0.6409119,0.74374413,0.7149234,-0.17255005,0.49480867,0.625013,0.70109665,-0.21165186,-0.043451175,0.48525512,4.41002E-4,-0.47970134,-0.52405614,-0.23467863,815.5311,799.011,787.72894,809.89014,786.1172,-0.04296875,0.0791015625,1.00225830078125,-0.8074951171875,-3.416900634765625,-53.47412109375,1,1.0,1.0,1.0,1.0,15.00
2024-10-11 20:11:08.951,0.7515421,0.6297995,1.2043407,1.0719613,0.40434933,0.18042149,0.6409119,0.74374413,0.7149234,-0.17255005,0.49480867,0.625013,0.70109665,-0.21165186,-0.043451175,0.48525512,4.41002E-4,-0.47970134,-0.52405614,-0.23467863,834.4689,806.6667,788.93774,808.68134,763.5531,-0.04296875,0.0791015625,1.00225830078125,-0.8074951171875,-3.416900634765625,-53.47412109375,1,1.0,1.0,1.0,1.0,15.00
2024-10-11 20:11:08.952,0.7515421,0.6297995,1.2043407,1.0719613,0.40434933,0.18042149,0.6409119,0.74374413,0.7149234,-0.17255005,0.49480867,0.625013,0.70109665,-0.21165186,-0.043451175,0.48525512,4.41002E-4,-0.47970134,-0.52405614,-0.23467863,838.9011,812.3077,787.326,797.3993,849.3773,-0.04296875,0.0791015625,1.00225830078125,-0.8074951171875,-3.416900634765625,-53.47412109375,1,1.0,1.0,1.0,1.0,15.00
2024-10-11 20:11:08.953,0.7515421,0.6297995,1.2043407,1.0719613,0.40434933,0.18042149,0.6409119,0.74374413,0.7149234,-0.17255005,0.49480867,0.625013,0.70109665,-0.21165186,-0.043451175,0.48525512,4.41002E-4,-0.47970134,-0.52405614,-0.23467863,848.1685,808.2784,782.49084,809.4872,1148.7546,-0.04296875,0.0791015625,1.00225830078125,-0.8074951171875,-3.416900634765625,-53.47412109375,1,1.0,1.0,1.0,1.0,15.00
2024-10-11 20:11:08.953,0.7515421,0.6297995,1.2043407,1.0719613,0.40434933,0.18042149,0.6409119,0.74374413,0.7149234,-0.17255005,0.49480867,0.625013,0.70109665,-0.21165186,-0.043451175,0.48525512,4.41002E-4,-0.47970134,-0.52405614,-0.23467863,846.55676,809.4872,780.87915,808.68134,976.30035,-0.04296875,0.0791015625,1.00225830078125,-0.8074951171875,-3.416900634765625,-53.47412109375,1,1.0,1.0,1.0,1.0,15.00
2024-10-11 20:11:08.981,0.7515421,0.6297995,1.2043407,1.0719613,0.40434933,0.18042149,0.6409119,0.74374413,0.7149234,-0.17255005,0.49480867,0.625013,0.70109665,-0.21165186,-0.043451175,0.48525512,4.41002E-4,-0.47970134,-0.52405614,-0.23467863,845.34796,813.91943,781.28204,804.65204,602.7839,-0.04296875,0.0791015625,1.00225830078125,-0.8074951171875,-3.416900634765625,-53.47412109375,1,1.0,1.0,1.0,1.0,15.00
2024-10-11 20:11:08.982,0.7515421,0.6297995,1.2043407,1.0719613,0.40434933,0.18042149,0.6409119,0.74374413,0.7149234,-0.17255005,0.49480867,0.625013,0.70109665,-0.21165186,-0.043451175,0.48525512,4.41002E-4,-0.47970134,-0.52405614,-0.23467863,835.2747,813.1135,780.07324,815.5311,676.1172,-0.04296875,0.0791015625,1.00225830078125,-0.8074951171875,-3.416900634765625,-53.47412109375,1,1.0,1.0,1.0,1.0,15.00
2024-10-11 20:11:08.982,0.7515421,0.6297995,1.2043407,1.0719613,0.40434933,0.18042149,0.6409119,0.74374413,0.7149234,-0.17255005,0.49480867,0.625013,0.70109665,-0.21165186,-0.043451175,0.48525512,4.41002E-4,-0.47970134,-0.52405614,-0.23467863,807.0696,803.8461,780.07324,811.50183,737.76556,-0.04296875,0.0791015625,1.00225830078125,-0.8074951171875,-3.416900634765625,-53.47412109375,1,1.0,1.0,1.0,1.0,15.00
2024-10-11 20:11:08.983,0.7515421,0.6297995,1.2043407,1.0719613,0.40434933,0.18042149,0.6409119,0.74374413,0.7149234,-0.17255005,0.49480867,0.625013,0.70109665,-0.21165186,-0.043451175,0.48525512,4.41002E-4,-0.47970134,-0.52405614,-0.23467863,806.6667,802.6374,778.86444,811.50183,644.2857,-0.04296875,0.0791015625,1.00225830078125,-0.8074951171875,-3.416900634765625,-53.47412109375,1,1.0,1.0,1.0,1.0,15.00
2024-10-11 20:11:08.984,0.7515421,0.6297995,1.2043407,1.0719613,0.40434933,0.18042149,0.6409119,0.74374413,0.7149234,-0.17255005,0.49480867,0.625013,0.70109665,-0.21165186,-0.043451175,0.48525512,4.41002E-4,-0.47970134,-0.52405614,-0.23467863,827.2161,807.8755,779.2674,823.1868,555.64105,-0.04296875,0.0791015625,1.00225830078125,-0.8074951171875,-3.416900634765625,-53.47412109375,1,1.0,1.0,1.0,1.0,15.00
2024-10-11 20:11:08.984,0.7515421,0.6297995,1.2043407,1.0719613,0.40434933,0.18042149,0.6409119,0.74374413,0.7149234,-0.17255005,0.49480867,0.625013,0.70109665,-0.21165186,-0.043451175,0.48525512,4.41002E-4,-0.47970134,-0.52405614,-0.23467863,840.5128,807.0696,783.69965,821.5751,856.2271,-0.04296875,0.0791015625,1.00225830078125,-0.8074951171875,-3.416900634765625,-53.47412109375,1,1.0,1.0,1.0,1.0,15.00
2024-10-11 20:11:08.985,0.7515421,0.6297995,1.2043407,1.0719613,0.40434933,0.18042149,0.6409119,0.74374413,0.7149234,-0.17255005,0.49480867,0.625013,0.70109665,-0.21165186,-0.043451175,0.48525512,4.41002E-4,-0.47970134,-0.52405614,-0.23467863,836.8865,804.65204,786.1172,817.5458,992.01465,-0.04296875,0.0791015625,1.00225830078125,-0.8074951171875,-3.416900634765625,-53.47412109375,1,1.0,1.0,1.0,1.0,15.00
2024-10-11 20:11:08.985,0.7515421,0.6297995,1.2043407,1.0719613,0.40434933,0.18042149,0.6409119,0.74374413,0.7149234,-0.17255005,0.49480867,0.625013,0.70109665,-0.21165186,-0.043451175,0.48525512,4.41002E-4,-0.47970134,-0.52405614,-0.23467863,813.5165,803.44324,786.1172,817.1429,747.4359,-0.04296875,0.0791015625,1.00225830078125,-0.8074951171875,-3.416900634765625,-53.47412109375,1,1.0,1.0,1.0,1.0,15.00
2024-10-11 20:11:08.986,0.7515421,0.6297995,1.2043407,1.0719613,0.40434933,0.18042149,0.6409119,0.74374413,0.7149234,-0.17255005,0.49480867,0.625013,0.70109665,-0.21165186,-0.043451175,0.48525512,4.41002E-4,-0.47970134,-0.52405614,-0.23467863,787.72894,803.8461,785.31134,823.1868,643.0769,-0.04296875,0.0791015625,1.00225830078125,-0.8074951171875,-3.416900634765625,-53.47412109375,1,1.0,1.0,1.0,1.0,15.00
2024-10-11 20:11:08.986,0.7515421,0.6297995,1.2043407,1.0719613,0.40434933,0.18042149,0.6409119,0.74374413,0.7149234,-0.17255005,0.49480867,0.625013,0.70109665,-0.21165186,-0.043451175,0.48525512,4.41002E-4,-0.47970134,-0.52405614,-0.23467863,786.9231,799.81683,782.49084,818.3516,895.31134,-0.04296875,0.0791015625,1.00225830078125,-0.8074951171875,-3.416900634765625,-53.47412109375,1,1.0,1.0,1.0,1.0,15.00
2024-10-11 20:11:08.987,0.7515421,0.6297995,1.2043407,1.0719613,0.40434933,0.18042149,0.6409119,0.74374413,0.7149234,-0.17255005,0.49480867,0.625013,0.70109665,-0.21165186,-0.043451175,0.48525512,4.41002E-4,-0.47970134,-0.52405614,-0.23467863,797.3993,800.2198,782.0879,810.696,935.6044,-0.04296875,0.0791015625,1.00225830078125,-0.8074951171875,-3.416900634765625,-53.47412109375,1,1.0,1.0,1.0,1.0,15.00
2024-10-11 20:11:08.988,0.7515421,0.6297995,1.2043407,1.0719613,0.40434933,0.18042149,0.6409119,0.74374413,0.7149234,-0.17255005,0.49480867,0.625013,0.70109665,-0.21165186,-0.043451175,0.48525512,4.41002E-4,-0.47970134,-0.52405614,-0.23467863,785.7143,805.8608,783.69965,816.337,693.44324,-0.04296875,0.0791015625,1.00225830078125,-0.8074951171875,-3.416900634765625,-53.47412109375,1,1.0,1.0,1.0,1.0,15.00
2024-10-11 20:11:09.077,0.7515421,0.6297995,1.2043407,1.0719613,0.40434933,0.18042149,0.6409119,0.74374413,0.7149234,-0.17255005,0.49480867,0.625013,0.70109665,-0.21165186,-0.043451175,0.48525512,4.41002E-4,-0.47970134,-0.52405614,-0.23467863,789.7436,807.47253,780.07324,817.1429,621.7216,-0.027587890625,0.07720947265625,0.9952392578125,-1.31591796875,-4.164581298828125,-51.941375732421875,1,1.0,1.0,1.0,1.0,15.00
2024-10-11 20:11:09.078,0.7515421,0.6297995,1.2043407,1.0719613,0.40434933,0.18042149,0.6409119,0.74374413,0.7149234,-0.17255005,0.49480867,0.625013,0.70109665,-0.21165186,-0.043451175,0.48525512,4.41002E-4,-0.47970134,-0.52405614,-0.23467863,809.4872,805.05493,772.01465,803.8461,1012.1612,-0.027587890625,0.07720947265625,0.9952392578125,-1.31591796875,-4.164581298828125,-51.941375732421875,1,1.0,1.0,1.0,1.0,15.00
2024-10-11 20:11:09.078,0.7515421,0.6297995,1.2043407,1.0719613,0.40434933,0.18042149,0.6409119,0.74374413,0.7149234,-0.17255005,0.49480867,0.625013,0.70109665,-0.21165186,-0.043451175,0.48525512,4.41002E-4,-0.47970134,-0.52405614,-0.23467863,822.381,806.26373,772.8205,793.36993,1185.0183,-0.027587890625,0.07720947265625,0.9952392578125,-1.31591796875,-4.164581298828125,-51.941375732421875,1,1.0,1.0,1.0,1.0,15.00
2024-10-11 20:11:09.079,0.7515421,0.6297995,1.2043407,1.0719613,0.40434933,0.18042149,0.6409119,0.74374413,0.7149234,-0.17255005,0.49480867,0.625013,0.70109665,-0.21165186,-0.043451175,0.48525512,4.41002E-4,-0.47970134,-0.52405614,-0.23467863,837.28937,816.337,775.64105,788.1319,831.6484,-0.027587890625,0.07720947265625,0.9952392578125,-1.31591796875,-4.164581298828125,-51.941375732421875,1,1.0,1.0,1.0,1.0,15.00
2024-10-11 20:11:09.080,0.7515421,0.6297995,1.2043407,1.0719613,0.40434933,0.18042149,0.6409119,0.74374413,0.7149234,-0.17255005,0.49480867,0.625013,0.70109665,-0.21165186,-0.043451175,0.48525512,4.41002E-4,-0.47970134,-0.52405614,-0.23467863,841.31866,814.7253,777.6557,768.7912,651.53845,-0.027587890625,0.07720947265625,0.9952392578125,-1.31591796875,-4.164581298828125,-51.941375732421875,1,1.0,1.0,1.0,1.0,15.00
2024-10-11 20:11:09.080,0.7515421,0.6297995,1.2043407,1.0719613,0.40434933,0.18042149,0.6409119,0.74374413,0.7149234,-0.17255005,0.49480867,0.625013,0.70109665,-0.21165186,-0.043451175,0.48525512,4.41002E-4,-0.47970134,-0.52405614,-0.23467863,833.663,798.60803,777.6557,758.315,759.92676,-0.027587890625,0.07720947265625,0.9952392578125,-1.31591796875,-4.164581298828125,-51.941375732421875,1,1.0,1.0,1.0,1.0,15.00
2024-10-11 20:11:09.081,0.7515421,0.6297995,1.2043407,1.0719613,0.40434933,0.18042149,0.6409119,0.74374413,0.7149234,-0.17255005,0.49480867,0.625013,0.70109665,-0.21165186,-0.043451175,0.48525512,4.41002E-4,-0.47970134,-0.52405614,-0.23467863,831.2454,807.0696,777.25275,765.56775,896.52014,-0.027587890625,0.07720947265625,0.9952392578125,-1.31591796875,-4.164581298828125,-51.941375732421875,1,1.0,1.0,1.0,1.0,15.00
2024-10-11 20:11:09.081,0.7515421,0.6297995,1.2043407,1.0719613,0.40434933,0.18042149,0.6409119,0.74374413,0.7149234,-0.17255005,0.49480867,0.625013,0.70109665,-0.21165186,-0.043451175,0.48525512,4.41002E-4,-0.47970134,-0.52405614,-0.23467863,836.4835,824.3956,776.04395,764.35895,754.2857,-0.027587890625,0.07720947265625,0.9952392578125,-1.31591796875,-4.164581298828125,-51.941375732421875,1,1.0,1.0,1.0,1.0,15.00
2024-10-11 20:11:09.082,0.7515421,0.6297995,1.2043407,1.0719613,0.40434933,0.18042149,0.6409119,0.74374413,0.7149234,-0.17255005,0.49480867,0.625013,0.70109665,-0.21165186,-0.043451175,0.48525512,4.41002E-4,-0.47970134,-0.52405614,-0.23467863,830.4396,821.978,778.0586,773.22345,554.43225,-0.027587890625,0.07720947265625,0.9952392578125,-1.31591796875,-4.164581298828125,-51.941375732421875,1,1.0,1.0,1.0,1.0,15.00
2024-10-11 20:11:09.082,0.7515421,0.6530249,1.2246934,1.1222413,0.40434933,0.21567656,0.6415121,0.83165026,0.7149234,-0.17325135,0.48989865,0.612554,0.70109665,-0.22134615,-0.0816761,0.4926361,4.41002E-4,-0.4814258,-0.5172865,-0.21840343,822.381,814.7253,785.7143,791.3553,902.1612,-0.027587890625,0.07720947265625,0.9952392578125,-1.31591796875,-4.164581298828125,-51.941375732421875,1,1.0,1.0,1.0,1.0,15.00
2024-10-11 20:11:09.087,0.7515421,0.6530249,1.2246934,1.1222413,0.40434933,0.21567656,0.6415121,0.83165026,0.7149234,-0.17325135,0.48989865,0.612554,0.70109665,-0.22134615,-0.0816761,0.4926361,4.41002E-4,-0.4814258,-0.5172865,-0.21840343,807.8755,813.5165,784.10254,791.3553,1008.1319,-0.027587890625,0.07720947265625,0.9952392578125,-1.31591796875,-4.164581298828125,-51.941375732421875,1,1.0,1.0,1.0,1.0,15.00
2024-10-11 20:11:09.088,0.7515421,0.6530249,1.2246934,1.1222413,0.40434933,0.21567656,0.6415121,0.83165026,0.7149234,-0.17325135,0.48989865,0.612554,0.70109665,-0.22134615,-0.0816761,0.4926361,4.41002E-4,-0.4814258,-0.5172865,-0.21840343,795.78754,811.50183,784.10254,790.54944,720.0366,-0.027587890625,0.07720947265625,0.9952392578125,-1.31591796875,-4.164581298828125,-51.941375732421875,1,1.0,1.0,1.0,1.0,15.00
2024-10-11 20:11:09.089,0.7515421,0.6530249,1.2246934,1.1222413,0.40434933,0.21567656,0.6415121,0.83165026,0.7149234,-0.17325135,0.48989865,0.612554,0.70109665,-0.22134615,-0.0816761,0.4926361,4.41002E-4,-0.4814258,-0.5172865,-0.21840343,790.9524,807.8755,792.5641,799.81683,724.0659,-0.0216064453125,0.06768798828125,1.00714111328125,0.112152099609375,-3.5589599609375,-46.81976318359375,1,1.0,1.0,1.0,1.0,15.00
2024-10-11 20:11:09.089,0.7515421,0.6530249,1.2246934,1.1222413,0.40434933,0.21567656,0.6415121,0.83165026,0.7149234,-0.17325135,0.48989865,0.612554,0.70109665,-0.22134615,-0.0816761,0.4926361,4.41002E-4,-0.4814258,-0.5172865,-0.21840343,785.7143,806.6667,791.75824,788.1319,692.23444,-0.0216064453125,0.06768798828125,1.00714111328125,0.112152099609375,-3.5589599609375,-46.81976318359375,1,1.0,1.0,1.0,1.0,15.00
2024-10-11 20:11:09.090,0.7515421,0.6530249,1.2246934,1.1222413,0.40434933,0.21567656,0.6415121,0.83165026,0.7149234,-0.17325135,0.48989865,0.612554,0.70109665,-0.22134615,-0.0816761,0.4926361,4.41002E-4,-0.4814258,-0.5172865,-0.21840343,784.10254,809.0842,789.7436,786.52014,603.1868,-0.0216064453125,0.06768798828125,1.00714111328125,0.112152099609375,-3.5589599609375,-46.81976318359375,1,1.0,1.0,1.0,1.0,15.00
2024-10-11 20:11:09.091,0.7515421,0.6530249,1.2246934,1.1222413,0.40434933,0.21567656,0.6415121,0.83165026,0.7149234,-0.17325135,0.48989865,0.612554,0.70109665,-0.22134615,-0.0816761,0.4926361,4.41002E-4,-0.4814258,-0.5172865,-0.21840343,784.90845,803.0403,799.011,799.011,625.7509,-0.0216064453125,0.06768798828125,1.00714111328125,0.112152099609375,-3.5589599609375,-46.81976318359375,1,1.0,1.0,1.0,1.0,15.00
2024-10-11 20:11:09.091,0.7515421,0.6530249,1.2246934,1.1222413,0.40434933,0.21567656,0.6415121,0.83165026,0.7149234,-0.17325135,0.48989865,0.612554,0.70109665,-0.22134615,-0.0816761,0.4926361,4.41002E-4,-0.4814258,-0.5172865,-0.21840343,793.7729,796.99634,799.81683,802.6374,666.8498,-0.0216064453125,0.06768798828125,1.00714111328125,0.112152099609375,-3.5589599609375,-46.81976318359375,1,1.0,1.0,1.0,1.0,15.00
2024-10-11 20:11:09.092,0.7515421,0.6530249,1.2246934,1.1222413,0.40434933,0.21567656,0.6415121,0.83165026,0.7149234,-0.17325135,0.48989865,0.612554,0.70109665,-0.22134615,-0.0816761,0.4926361,4.41002E-4,-0.4814258,-0.5172865,-0.21840343,785.31134,794.9817,792.5641,800.6227,737.76556,-0.0216064453125,0.06768798828125,1.00714111328125,0.112152099609375,-3.5589599609375,-46.81976318359375,1,1.0,1.0,1.0,1.0,15.00
2024-10-11 20:11:09.092,0.7515421,0.6530249,1.2246934,1.1222413,0.40434933,0.21567656,0.6415121,0.83165026,0.7149234,-0.17325135,0.48989865,0.612554,0.70109665,-0.22134615,-0.0816761,0.4926361,4.41002E-4,-0.4814258,-0.5172865,-0.21840343,781.685,788.5348,791.75824,788.1319,832.8571,-0.0216064453125,0.06768798828125,1.00714111328125,0.112152099609375,-3.5589599609375,-46.81976318359375,1,1.0,1.0,1.0,1.0,15.00
2024-10-11 20:11:09.093,0.7515421,0.6530249,1.2246934,1.1222413,0.40434933,0.21567656,0.6415121,0.83165026,0.7149234,-0.17325135,0.48989865,0.612554,0.70109665,-0.22134615,-0.0816761,0.4926361,4.41002E-4,-0.4814258,-0.5172865,-0.21840343,777.25275,790.14655,794.57874,796.5934,820.7692,-0.0216064453125,0.06768798828125,1.00714111328125,0.112152099609375,-3.5589599609375,-46.81976318359375,1,1.0,1.0,1.0,1.0,15.00
2024-10-11 20:11:09.093,0.7515421,0.6530249,1.2246934,1.1222413,0.40434933,0.21567656,0.6415121,0.83165026,0.7149234,-0.17325135,0.48989865,0.612554,0.70109665,-0.22134615,-0.0816761,0.4926361,4.41002E-4,-0.4814258,-0.5172865,-0.21840343,768.3883,790.9524,798.60803,795.38464,946.8865,-0.0216064453125,0.06768798828125,1.00714111328125,0.112152099609375,-3.5589599609375,-46.81976318359375,1,1.0,1.0,1.0,1.0,15.00
2024-10-11 20:11:09.094,0.7515421,0.6530249,1.2246934,1.1222413,0.40434933,0.21567656,0.6415121,0.83165026,0.7149234,-0.17325135,0.48989865,0.612554,0.70109665,-0.22134615,-0.0816761,0.4926361,4.41002E-4,-0.4814258,-0.5172865,-0.21840343,779.67035,792.1612,803.44324,790.54944,857.03296,-0.0216064453125,0.06768798828125,1.00714111328125,0.112152099609375,-3.5589599609375,-46.81976318359375,1,1.0,1.0,1.0,1.0,15.00
2024-10-11 20:11:09.094,0.7515421,0.6530249,1.2246934,1.1222413,0.40434933,0.21567656,0.6415121,0.83165026,0.7149234,-0.17325135,0.48989865,0.612554,0.70109665,-0.22134615,-0.0816761,0.4926361,4.41002E-4,-0.4814258,-0.5172865,-0.21840343,790.9524,797.3993,809.4872,804.2491,780.87915,-0.0216064453125,0.06768798828125,1.00714111328125,0.112152099609375,-3.5589599609375,-46.81976318359375,1,1.0,1.0,1.0,1.0,15.00
2024-10-11 20:11:09.095,0.7515421,0.6530249,1.2246934,1.1222413,0.40434933,0.21567656,0.6415121,0.83165026,0.7149234,-0.17325135,0.48989865,0.612554,0.70109665,-0.22134615,-0.0816761,0.4926361,4.41002E-4,-0.4814258,-0.5172865,-0.21840343,801.02563,798.20514,809.89014,806.26373,1010.54944,-0.0216064453125,0.06768798828125,1.00714111328125,0.112152099609375,-3.5589599609375,-46.81976318359375,1,1.0,1.0,1.0,1.0,15.00
2024-10-11 20:11:09.119,0.7515421,0.6530249,1.2246934,1.1222413,0.40434933,0.21567656,0.6415121,0.83165026,0.7149234,-0.17325135,0.48989865,0.612554,0.70109665,-0.22134615,-0.0816761,0.4926361,4.41002E-4,-0.4814258,-0.5172865,-0.21840343,807.47253,794.57874,812.71063,803.0403,1139.8901,-0.01824951171875,0.06585693359375,1.0003662109375,0.829925537109375,-3.955230712890625,-40.98785400390625,1,1.0,1.0,1.0,1.0,15.00
2024-10-11 20:11:09.120,0.7515421,0.6530249,1.2246934,1.1222413,0.40434933,0.21567656,0.6415121,0.83165026,0.7149234,-0.17325135,0.48989865,0.612554,0.70109665,-0.22134615,-0.0816761,0.4926361,4.41002E-4,-0.4814258,-0.5172865,-0.21840343,819.5604,795.38464,813.1135,799.011,961.79486,-0.01824951171875,0.06585693359375,1.0003662109375,0.829925537109375,-3.955230712890625,-40.98785400390625,1,1.0,1.0,1.0,1.0,15.00
2024-10-11 20:11:09.121,0.7515421,0.6530249,1.2246934,1.1222413,0.40434933,0.21567656,0.6415121,0.83165026,0.7149234,-0.17325135,0.48989865,0.612554,0.70109665,-0.22134615,-0.0816761,0.4926361,4.41002E-4,-0.4814258,-0.5172865,-0.21840343,830.4396,799.011,806.6667,801.8315,730.10986,-0.01824951171875,0.06585693359375,1.0003662109375,0.829925537109375,-3.955230712890625,-40.98785400390625,1,1.0,1.0,1.0,1.0,15.00
2024-10-11 20:11:09.122,0.7515421,0.6530249,1.2246934,1.1222413,0.40434933,0.21567656,0.6415121,0.83165026,0.7149234,-0.17325135,0.48989865,0.612554,0.70109665,-0.22134615,-0.0816761,0.4926361,4.41002E-4,-0.4814258,-0.5172865,-0.21840343,827.2161,801.02563,805.4579,818.3516,836.8865,-0.01824951171875,0.06585693359375,1.0003662109375,0.829925537109375,-3.955230712890625,-40.98785400390625,1,1.0,1.0,1.0,1.0,15.00
2024-10-11 20:11:09.122,0.7515421,0.6530249,1.2246934,1.1222413,0.40434933,0.21567656,0.6415121,0.83165026,0.7149234,-0.17325135,0.48989865,0.612554,0.70109665,-0.22134615,-0.0816761,0.4926361,4.41002E-4,-0.4814258,-0.5172865,-0.21840343,811.0989,800.2198,804.2491,819.15753,1075.0183,-0.01824951171875,0.06585693359375,1.0003662109375,0.829925537109375,-3.955230712890625,-40.98785400390625,1,1.0,1.0,1.0,1.0,15.00
2024-10-11 20:11:09.123,0.7515421,0.6530249,1.2246934,1.1222413,0.40434933,0.21567656,0.6415121,0.83165026,0.7149234,-0.17325135,0.48989865,0.612554,0.70109665,-0.22134615,-0.0816761,0.4926361,4.41002E-4,-0.4814258,-0.5172865,-0.21840343,810.293,800.6227,801.02563,796.1905,935.2015,-0.01824951171875,0.06585693359375,1.0003662109375,0.829925537109375,-3.955230712890625,-40.98785400390625,1,1.0,1.0,1.0,1.0,15.00
2024-10-11 20:11:09.123,0.7515421,0.6530249,1.2246934,1.1222413,0.40434933,0.21567656,0.6415121,0.83165026,0.7149234,-0.17325135,0.48989865,0.612554,0.70109665,-0.22134615,-0.0816761,0.4926361,4.41002E-4,-0.4814258,-0.5172865,-0.21840343,817.1429,802.6374,799.011,791.3553,770.40295,-0.01824951171875,0.06585693359375,1.0003662109375,0.829925537109375,-3.955230712890625,-40.98785400390625,1,1.0,1.0,1.0,1.0,15.00
2024-10-11 20:11:09.124,0.7515421,0.6530249,1.2246934,1.1222413,0.40434933,0.21567656,0.6415121,0.83165026,0.7149234,-0.17325135,0.48989865,0.612554,0.70109665,-0.22134615,-0.0816761,0.4926361,4.41002E-4,-0.4814258,-0.5172865,-0.21840343,819.5604,805.05493,801.8315,810.696,833.2601,-0.01824951171875,0.06585693359375,1.0003662109375,0.829925537109375,-3.955230712890625,-40.98785400390625,1,1.0,1.0,1.0,1.0,15.00
2024-10-11 20:11:09.125,0.7515421,0.6530249,1.2246934,1.1222413,0.40434933,0.21567656,0.6415121,0.83165026,0.7149234,-0.17325135,0.48989865,0.612554,0.70109665,-0.22134615,-0.0816761,0.4926361,4.41002E-4,-0.4814258,-0.5172865,-0.21840343,809.0842,805.4579,803.8461,802.23444,1141.9048,-0.01824951171875,0.06585693359375,1.0003662109375,0.829925537109375,-3.955230712890625,-40.98785400390625,1,1.0,1.0,1.0,1.0,15.00
2024-10-11 20:11:09.125,0.7515421,0.6530249,1.2246934,1.1222413,0.40434933,0.21567656,0.6415121,0.83165026,0.7149234,-0.17325135,0.48989865,0.612554,0.70109665,-0.22134615,-0.0816761,0.4926361,4.41002E-4,-0.4814258,-0.5172865,-0.21840343,805.05493,804.65204,801.4286,785.31134,1184.2124,-0.01824951171875,0.06585693359375,1.0003662109375,0.829925537109375,-3.955230712890625,-40.98785400390625,1,1.0,1.0,1.0,1.0,15.00
2024-10-11 20:11:09.126,0.7515421,0.6530249,1.2246934,1.1222413,0.40434933,0.21567656,0.6415121,0.83165026,0.7149234,-0.17325135,0.48989865,0.612554,0.70109665,-0.22134615,-0.0816761,0.4926361,4.41002E-4,-0.4814258,-0.5172865,-0.21840343,819.9634,806.26373,805.05493,795.38464,699.4872,-0.01824951171875,0.06585693359375,1.0003662109375,0.829925537109375,-3.955230712890625,-40.98785400390625,1,1.0,1.0,1.0,1.0,15.00
2024-10-11 20:11:09.126,0.7515421,0.6650614,1.2257627,1.1222413,0.40434933,0.2515833,0.62216526,0.83165026,0.7149234,-0.17365906,0.46404442,0.612554,0.70109665,-0.24955244,-0.14023864,0.4926361,4.41002E-4,-0.49229756,-0.5106948,-0.21840343,820.3663,802.6374,805.05493,798.20514,783.2967,-0.01824951171875,0.06585693359375,1.0003662109375,0.829925537109375,-3.955230712890625,-40.98785400390625,1,1.0,1.0,1.0,1.0,15.00
2024-10-11 20:11:09.155,0.7515421,0.6650614,1.2257627,1.1222413,0.40434933,0.2515833,0.62216526,0.83165026,0.7149234,-0.17365906,0.46404442,0.612554,0.70109665,-0.24955244,-0.14023864,0.4926361,4.41002E-4,-0.49229756,-0.5106948,-0.21840343,811.50183,801.02563,801.02563,796.5934,1008.1319,-0.02850341796875,0.058837890625,0.99847412109375,1.891632080078125,-3.177642822265625,-36.613922119140625,1,1.0,1.0,1.0,1.0,15.00
2024-10-11 20:11:09.156,0.7515421,0.6650614,1.2257627,1.1222413,0.40434933,0.2515833,0.62216526,0.83165026,0.7149234,-0.17365906,0.46404442,0.612554,0.70109665,-0.24955244,-0.14023864,0.4926361,4.41002E-4,-0.49229756,-0.5106948,-0.21840343,807.8755,798.60803,807.8755,789.34064,753.0769,-0.02850341796875,0.058837890625,0.99847412109375,1.891632080078125,-3.177642822265625,-36.613922119140625,1,1.0,1.0,1.0,1.0,15.00
2024-10-11 20:11:09.157,0.7515421,0.6650614,1.2257627,1.1222413,0.40434933,0.2515833,0.62216526,0.83165026,0.7149234,-0.17365906,0.46404442,0.612554,0.70109665,-0.24955244,-0.14023864,0.4926361,4.41002E-4,-0.49229756,-0.5106948,-0.21840343,768.7912,797.8022,809.89014,774.43225,585.4579,-0.02850341796875,0.058837890625,0.99847412109375,1.891632080078125,-3.177642822265625,-36.613922119140625,1,1.0,1.0,1.0,1.0,15.00
2024-10-11 20:11:09.158,0.7515421,0.6650614,1.2257627,1.1222413,0.40434933,0.2515833,0.62216526,0.83165026,0.7149234,-0.17365906,0.46404442,0.612554,0.70109665,-0.24955244,-0.14023864,0.4926361,4.41002E-4,-0.49229756,-0.5106948,-0.21840343,758.315,799.81683,805.8608,767.5824,634.61536,-0.02850341796875,0.058837890625,0.99847412109375,1.891632080078125,-3.177642822265625,-36.613922119140625,1,1.0,1.0,1.0,1.0,15.00
2024-10-11 20:11:09.158,0.7515421,0.6650614,1.2257627,1.1222413,0.40434933,0.2515833,0.62216526,0.83165026,0.7149234,-0.17365906,0.46404442,0.612554,0.70109665,-0.24955244,-0.14023864,0.4926361,4.41002E-4,-0.49229756,-0.5106948,-0.21840343,774.0293,800.6227,806.26373,782.49084,743.00366,-0.02850341796875,0.058837890625,0.99847412109375,1.891632080078125,-3.177642822265625,-36.613922119140625,1,1.0,1.0,1.0,1.0,15.00
2024-10-11 20:11:09.159,0.7515421,0.6650614,1.2257627,1.1222413,0.40434933,0.2515833,0.62216526,0.83165026,0.7149234,-0.17365906,0.46404442,0.612554,0.70109665,-0.24955244,-0.14023864,0.4926361,4.41002E-4,-0.49229756,-0.5106948,-0.21840343,772.8205,794.57874,805.05493,798.20514,788.1319,-0.02850341796875,0.058837890625,0.99847412109375,1.891632080078125,-3.177642822265625,-36.613922119140625,1,1.0,1.0,1.0,1.0,15.00
2024-10-11 20:11:09.160,0.7515421,0.6650614,1.2257627,1.1222413,0.40434933,0.2515833,0.62216526,0.83165026,0.7149234,-0.17365906,0.46404442,0.612554,0.70109665,-0.24955244,-0.14023864,0.4926361,4.41002E-4,-0.49229756,-0.5106948,-0.21840343,779.2674,794.57874,803.44324,792.1612,639.0476,-0.02850341796875,0.058837890625,0.99847412109375,1.891632080078125,-3.177642822265625,-36.613922119140625,1,1.0,1.0,1.0,1.0,15.00
2024-10-11 20:11:09.160,0.7515421,0.6650614,1.2257627,1.1222413,0.40434933,0.2515833,0.62216526,0.83165026,0.7149234,-0.17365906,0.46404442,0.612554,0.70109665,-0.24955244,-0.14023864,0.4926361,4.41002E-4,-0.49229756,-0.5106948,-0.21840343,795.38464,796.5934,801.4286,772.8205,744.21246,-0.02850341796875,0.058837890625,0.99847412109375,1.891632080078125,-3.177642822265625,-36.613922119140625,1,1.0,1.0,1.0,1.0,15.00
2024-10-11 20:11:09.161,0.7515421,0.6650614,1.2257627,1.1222413,0.40434933,0.2515833,0.62216526,0.83165026,0.7149234,-0.17365906,0.46404442,0.612554,0.70109665,-0.24955244,-0.14023864,0.4926361,4.41002E-4,-0.49229756,-0.5106948,-0.21840343,803.8461,796.5934,799.011,768.7912,1019.81683,-0.02850341796875,0.058837890625,0.99847412109375,1.891632080078125,-3.177642822265625,-36.613922119140625,1,1.0,1.0,1.0,1.0,15.00
2024-10-11 20:11:09.161,0.7515421,0.6650614,1.2257627,1.1222413,0.40434933,0.2515833,0.62216526,0.83165026,0.7149234,-0.17365906,0.46404442,0.612554,0.70109665,-0.24955244,-0.14023864,0.4926361,4.41002E-4,-0.49229756,-0.5106948,-0.21840343,809.4872,796.99634,801.8315,778.46155,810.293,-0.02850341796875,0.058837890625,0.99847412109375,1.891632080078125,-3.177642822265625,-36.613922119140625,1,1.0,1.0,1.0,1.0,15.00
2024-10-11 20:11:09.162,0.7515421,0.6650614,1.2257627,1.1222413,0.40434933,0.2515833,0.62216526,0.83165026,0.7149234,-0.17365906,0.46404442,0.612554,0.70109665,-0.24955244,-0.14023864,0.4926361,4.41002E-4,-0.49229756,-0.5106948,-0.21840343,815.9341,787.326,805.8608,806.26373,657.5824,-0.02850341796875,0.058837890625,0.99847412109375,1.891632080078125,-3.177642822265625,-36.613922119140625,1,1.0,1.0,1.0,1.0,15.00
2024-10-11 20:11:09.162,0.7515421,0.6650614,1.2257627,1.1222413,0.40434933,0.2515833,0.62216526,0.83165026,0.7149234,-0.17365906,0.46404442,0.612554,0.70109665,-0.24955244,-0.14023864,0.4926361,4.41002E-4,-0.49229756,-0.5106948,-0.21840343,811.0989,784.5055,805.4579,813.1135,811.9048,-0.02850341796875,0.058837890625,0.99847412109375,1.891632080078125,-3.177642822265625,-36.613922119140625,1,1.0,1.0,1.0,1.0,15.00
2024-10-11 20:11:09.261,0.7515421,0.6650614,1.2257627,1.1222413,0.40434933,0.2515833,0.62216526,0.83165026,0.7149234,-0.17365906,0.46404442,0.612554,0.70109665,-0.24955244,-0.14023864,0.4926361,4.41002E-4,-0.49229756,-0.5106948,-0.21840343,785.31134,799.011,801.02563,785.31134,828.4249,-0.02349853515625,0.06640625,0.998291015625,4.127197265625,-2.0635986328125,-34.61761474609375,1,1.0,1.0,1.0,1.0,15.00
2024-10-11 20:11:09.262,0.7515421,0.6650614,1.2257627,1.1222413,0.40434933,0.2515833,0.62216526,0.83165026,0.7149234,-0.17365906,0.46404442,0.612554,0.70109665,-0.24955244,-0.14023864,0.4926361,4.41002E-4,-0.49229756,-0.5106948,-0.21840343,784.10254,803.0403,797.3993,764.35895,815.5311,-0.02349853515625,0.06640625,0.998291015625,4.127197265625,-2.0635986328125,-34.61761474609375,1,1.0,1.0,1.0,1.0,15.00
2024-10-11 20:11:09.263,0.7515421,0.6650614,1.2257627,1.1222413,0.40434933,0.2515833,0.62216526,0.83165026,0.7149234,-0.17365906,0.46404442,0.612554,0.70109665,-0.24955244,-0.14023864,0.4926361,4.41002E-4,-0.49229756,-0.5106948,-0.21840343,810.293,801.8315,793.36993,751.4652,855.0183,-0.02349853515625,0.06640625,0.998291015625,4.127197265625,-2.0635986328125,-34.61761474609375,1,1.0,1.0,1.0,1.0,15.00
2024-10-11 20:11:09.263,0.7515421,0.6650614,1.2257627,1.1222413,0.40434933,0.2515833,0.62216526,0.83165026,0.7149234,-0.17365906,0.46404442,0.612554,0.70109665,-0.24955244,-0.14023864,0.4926361,4.41002E-4,-0.49229756,-0.5106948,-0.21840343,824.3956,806.26373,787.326,765.16486,840.9158,-0.02349853515625,0.06640625,0.998291015625,4.127197265625,-2.0635986328125,-34.61761474609375,1,1.0,1.0,1.0,1.0,15.00
2024-10-11 20:11:09.264,0.7515421,0.6650614,1.2257627,1.1222413,0.40434933,0.2515833,0.62216526,0.83165026,0.7149234,-0.17365906,0.46404442,0.612554,0.70109665,-0.24955244,-0.14023864,0.4926361,4.41002E-4,-0.49229756,-0.5106948,-0.21840343,804.2491,808.68134,788.5348,777.25275,853.8095,-0.02349853515625,0.06640625,0.998291015625,4.127197265625,-2.0635986328125,-34.61761474609375,1,1.0,1.0,1.0,1.0,15.00
2024-10-11 20:11:09.264,0.7515421,0.6650614,1.2257627,1.1222413,0.40434933,0.2515833,0.62216526,0.83165026,0.7149234,-0.17365906,0.46404442,0.612554,0.70109665,-0.24955244,-0.14023864,0.4926361,4.41002E-4,-0.49229756,-0.5106948,-0.21840343,764.35895,803.0403,788.93774,794.17584,936.8132,-0.02349853515625,0.06640625,0.998291015625,4.127197265625,-2.0635986328125,-34.61761474609375,1,1.0,1.0,1.0,1.0,15.00
2024-10-11 20:11:09.265,0.7515421,0.6650614,1.2257627,1.1222413,0.40434933,0.2515833,0.62216526,0.83165026,0.7149234,-0.17365906,0.46404442,0.612554,0.70109665,-0.24955244,-0.14023864,0.4926361,4.41002E-4,-0.49229756,-0.5106948,-0.21840343,757.1062,804.65204,785.7143,799.011,1013.36993,-0.02349853515625,0.06640625,0.998291015625,4.127197265625,-2.0635986328125,-34.61761474609375,1,1.0,1.0,1.0,1.0,15.00
2024-10-11 20:11:09.265,0.7515421,0.6650614,1.2257627,1.1222413,0.40434933,0.2515833,0.62216526,0.83165026,0.7149234,-0.17365906,0.46404442,0.612554,0.70109665,-0.24955244,-0.14023864,0.4926361,4.41002E-4,-0.49229756,-0.5106948,-0.21840343,774.83514,809.0842,783.69965,774.0293,1063.7362,-0.02349853515625,0.06640625,0.998291015625,4.127197265625,-2.0635986328125,-34.61761474609375,1,1.0,1.0,1.0,1.0,15.00
2024-10-11 20:11:09.266,0.7515421,0.6650614,1.2257627,1.1222413,0.40434933,0.2515833,0.62216526,0.83165026,0.7149234,-0.17365906,0.46404442,0.612554,0.70109665,-0.24955244,-0.14023864,0.4926361,4.41002E-4,-0.49229756,-0.5106948,-0.21840343,808.68134,812.71063,780.87915,773.22345,938.8278,-0.02349853515625,0.06640625,0.998291015625,4.127197265625,-2.0635986328125,-34.61761474609375,1,1.0,1.0,1.0,1.0,15.00
2024-10-11 20:11:09.267,0.7515421,0.6650614,1.2257627,1.1222413,0.40434933,0.2515833,0.62216526,0.83165026,0.7149234,-0.17365906,0.46404442,0.612554,0.70109665,-0.24955244,-0.14023864,0.4926361,4.41002E-4,-0.49229756,-0.5106948,-0.21840343,813.1135,813.5165,776.04395,776.04395,775.64105,-0.02349853515625,0.06640625,0.998291015625,4.127197265625,-2.0635986328125,-34.61761474609375,1,1.0,1.0,1.0,1.0,15.00
2024-10-11 20:11:09.267,0.7515421,0.6650614,1.2257627,1.1222413,0.40434933,0.2515833,0.62216526,0.83165026,0.7149234,-0.17365906,0.46404442,0.612554,0.70109665,-0.24955244,-0.14023864,0.4926361,4.41002E-4,-0.49229756,-0.5106948,-0.21840343,784.90845,807.47253,780.87915,788.93774,771.2088,-0.02349853515625,0.06640625,0.998291015625,4.127197265625,-2.0635986328125,-34.61761474609375,1,1.0,1.0,1.0,1.0,15.00
2024-10-11 20:11:09.268,0.7515421,0.6650614,1.2257627,1.1222413,0.40434933,0.2515833,0.62216526,0.83165026,0.7149234,-0.17365906,0.46404442,0.612554,0.70109665,-0.24955244,-0.14023864,0.4926361,4.41002E-4,-0.49229756,-0.5106948,-0.21840343,776.8498,799.41394,788.1319,802.6374,686.99634,-0.02349853515625,0.06640625,0.998291015625,4.127197265625,-2.0635986328125,-34.61761474609375,1,1.0,1.0,1.0,1.0,15.00
2024-10-11 20:11:09.269,0.7515421,0.6650614,1.2257627,1.1222413,0.40434933,0.2515833,0.62216526,0.83165026,0.7149234,-0.17365906,0.46404442,0.612554,0.70109665,-0.24955244,-0.14023864,0.4926361,4.41002E-4,-0.49229756,-0.5106948,-0.21840343,792.96704,798.60803,788.1319,794.17584,650.7326,-0.02349853515625,0.06640625,0.998291015625,4.127197265625,-2.0635986328125,-34.61761474609375,1,1.0,1.0,1.0,1.0,15.00
2024-10-11 20:11:09.270,0.7515421,0.66875017,1.2111955,1.1222413,0.40434933,0.2835251,0.5932866,0.83165026,0.7149234,-0.1778771,0.42922476,0.612554,0.70109665,-0.28954667,-0.20004393,0.4926361,4.41002E-4,-0.5088717,-0.5096206,-0.21840343,800.6227,801.02563,790.54944,775.2381,772.4176,-0.02349853515625,0.06640625,0.998291015625,4.127197265625,-2.0635986328125,-34.61761474609375,1,1.0,1.0,1.0,1.0,15.00
2024-10-11 20:11:09.275,0.7515421,0.66875017,1.2111955,1.1222413,0.40434933,0.2835251,0.5932866,0.83165026,0.7149234,-0.1778771,0.42922476,0.612554,0.70109665,-0.28954667,-0.20004393,0.4926361,4.41002E-4,-0.5088717,-0.5096206,-0.21840343,807.0696,801.02563,793.7729,777.6557,756.7033,-0.02349853515625,0.06640625,0.998291015625,4.127197265625,-2.0635986328125,-34.61761474609375,1,1.0,1.0,1.0,1.0,15.00
2024-10-11 20:11:09.276,0.7515421,0.66875017,1.2111955,1.1222413,0.40434933,0.2835251,0.5932866,0.83165026,0.7149234,-0.1778771,0.42922476,0.612554,0.70109665,-0.28954667,-0.20004393,0.4926361,4.41002E-4,-0.5088717,-0.5096206,-0.21840343,820.7692,801.8315,787.326,791.3553,726.08057,-0.02349853515625,0.06640625,0.998291015625,4.127197265625,-2.0635986328125,-34.61761474609375,1,1.0,1.0,1.0,1.0,15.00
2024-10-11 20:11:09.277,0.7515421,0.66875017,1.2111955,1.1222413,0.40434933,0.2835251,0.5932866,0.83165026,0.7149234,-0.1778771,0.42922476,0.612554,0.70109665,-0.28954667,-0.20004393,0.4926361,4.41002E-4,-0.5088717,-0.5096206,-0.21840343,844.5421,802.23444,781.685,789.34064,709.15753,-0.02349853515625,0.06640625,0.998291015625,4.127197265625,-2.0635986328125,-34.61761474609375,1,1.0,1.0,1.0,1.0,15.00
2024-10-11 20:11:09.278,0.7515421,0.66875017,1.2111955,1.1222413,0.40434933,0.2835251,0.5932866,0.83165026,0.7149234,-0.1778771,0.42922476,0.612554,0.70109665,-0.28954667,-0.20004393,0.4926361,4.41002E-4,-0.5088717,-0.5096206,-0.21840343,861.4652,803.8461,786.9231,780.07324,692.6374,-0.02349853515625,0.06640625,0.998291015625,4.127197265625,-2.0635986328125,-34.61761474609375,1,1.0,1.0,1.0,1.0,15.00
2024-10-11 20:11:09.278,0.7515421,0.66875017,1.2111955,1.1222413,0.40434933,0.2835251,0.5932866,0.83165026,0.7149234,-0.1778771,0.42922476,0.612554,0.70109665,-0.28954667,-0.20004393,0.4926361,4.41002E-4,-0.5088717,-0.5096206,-0.21840343,817.5458,801.4286,789.34064,778.86444,916.26373,-0.02349853515625,0.06640625,0.998291015625,4.127197265625,-2.0635986328125,-34.61761474609375,1,1.0,1.0,1.0,1.0,15.00
2024-10-11 20:11:09.279,0.7515421,0.66875017,1.2111955,1.1222413,0.40434933,0.2835251,0.5932866,0.83165026,0.7149234,-0.1778771,0.42922476,0.612554,0.70109665,-0.28954667,-0.20004393,0.4926361,4.41002E-4,-0.5088717,-0.5096206,-0.21840343,772.4176,800.2198,790.14655,788.5348,950.10986,-0.02349853515625,0.06640625,0.998291015625,4.127197265625,-2.0635986328125,-34.61761474609375,1,1.0,1.0,1.0,1.0,15.00
2024-10-11 20:11:09.280,0.7515421,0.66875017,1.2111955,1.1222413,0.40434933,0.2835251,0.5932866,0.83165026,0.7149234,-0.1778771,0.42922476,0.612554,0.70109665,-0.28954667,-0.20004393,0.4926361,4.41002E-4,-0.5088717,-0.5096206,-0.21840343,779.67035,799.011,796.99634,799.41394,696.6667,-0.02349853515625,0.06640625,0.998291015625,4.127197265625,-2.0635986328125,-34.61761474609375,1,1.0,1.0,1.0,1.0,15.00
2024-10-11 20:11:09.280,0.7515421,0.66875017,1.2111955,1.1222413,0.40434933,0.2835251,0.5932866,0.83165026,0.7149234,-0.1778771,0.42922476,0.612554,0.70109665,-0.28954667,-0.20004393,0.4926361,4.41002E-4,-0.5088717,-0.5096206,-0.21840343,798.20514,797.3993,796.1905,791.75824,636.63007,-0.02349853515625,0.06640625,0.998291015625,4.127197265625,-2.0635986328125,-34.61761474609375,1,1.0,1.0,1.0,1.0,15.00
2024-10-11 20:11:09.281,0.7515421,0.66875017,1.2111955,1.1222413,0.40434933,0.2835251,0.5932866,0.83165026,0.7149234,-0.1778771,0.42922476,0.612554,0.70109665,-0.28954667,-0.20004393,0.4926361,4.41002E-4,-0.5088717,-0.5096206,-0.21840343,823.5897,798.60803,792.96704,776.4469,886.8498,-0.02349853515625,0.06640625,0.998291015625,4.127197265625,-2.0635986328125,-34.61761474609375,1,1.0,1.0,1.0,1.0,15.00
2024-10-11 20:11:09.282,0.7515421,0.66875017,1.2111955,1.1222413,0.40434933,0.2835251,0.5932866,0.83165026,0.7149234,-0.1778771,0.42922476,0.612554,0.70109665,-0.28954667,-0.20004393,0.4926361,4.41002E-4,-0.5088717,-0.5096206,-0.21840343,827.619,800.2198,796.99634,785.31134,980.7326,-0.02349853515625,0.06640625,0.998291015625,4.127197265625,-2.0635986328125,-34.61761474609375,1,1.0,1.0,1.0,1.0,15.00
