TimeStamp,Delta_TP9,Delta_AF7,Delta_AF8,Delta_TP10,Theta_TP9,Theta_AF7,Theta_AF8,Theta_TP10,Alpha_TP9,Alpha_AF7,Alpha_AF8,Alpha_TP10,Beta_TP9,Beta_AF7,Beta_AF8,Beta_TP10,Gamma_TP9,Gamma_AF7,Gamma_AF8,Gamma_TP10,RAW_TP9,RAW_AF7,RAW_AF8,RAW_TP10,AUX_RIGHT,Accelerometer_X,Accelerometer_Y,Accelerometer_Z,Gyro_X,Gyro_Y,Gyro_Z,HeadBandOn,HSI_TP9,HSI_AF7,HSI_AF8,HSI_TP10,Battery,Elements
2024-10-11 20:21:40.782,0.52418166,1.3754667,0.99323887,0.331203,0.5819769,1.0794389,0.16803782,0.90752286,0.2765978,0.4419274,0.20382115,0.45876932,0.32264465,0.17828532,0.08913221,0.26929384,0.08254098,0.022287069,0.0026200437,-0.24880232,807.47253,808.68134,805.05493,818.7546,1058.9011,-0.1156005859375,0.0557861328125,1.0009765625,0.40374755859375,2.968292236328125,1.00189208984375,1,1.0,1.0,1.0,1.0,10.00
2024-10-11 20:21:40.784,0.52418166,1.3754667,0.99323887,0.331203,0.5819769,1.0794389,0.16803782,0.90752286,0.2765978,0.4419274,0.20382115,0.45876932,0.32264465,0.17828532,0.08913221,0.26929384,0.08254098,0.022287069,0.0026200437,-0.24880232,809.4872,812.3077,810.293,815.9341,738.5714,-0.1156005859375,0.0557861328125,1.0009765625,0.40374755859375,2.968292236328125,1.00189208984375,1,1.0,1.0,1.0,1.0,10.00
2024-10-11 20:21:40.785,0.52418166,1.3754667,0.99323887,0.331203,0.5819769,1.0794389,0.16803782,0.90752286,0.2765978,0.4419274,0.20382115,0.45876932,0.32264465,0.17828532,0.08913221,0.26929384,0.08254098,0.022287069,0.0026200437,-0.24880232,806.6667,800.6227,801.02563,812.71063,691.02563,-0.1156005859375,0.0557861328125,1.0009765625,0.40374755859375,2.968292236328125,1.00189208984375,1,1.0,1.0,1.0,1.0,10.00
2024-10-11 20:21:40.786,0.52418166,1.3754667,0.99323887,0.331203,0.5819769,1.0794389,0.16803782,0.90752286,0.2765978,0.4419274,0.20382115,0.45876932,0.32264465,0.17828532,0.08913221,0.26929384,0.08254098,0.022287069,0.0026200437,-0.24880232,801.02563,794.9817,802.23444,809.0842,776.04395,-0.1156005859375,0.0557861328125,1.0009765625,0.40374755859375,2.968292236328125,1.00189208984375,1,1.0,1.0,1.0,1.0,10.00
2024-10-11 20:21:40.787,0.52418166,1.3754667,0.99323887,0.331203,0.5819769,1.0794389,0.16803782,0.90752286,0.2765978,0.4419274,0.20382115,0.45876932,0.32264465,0.17828532,0.08913221,0.26929384,0.08254098,0.022287069,0.0026200437,-0.24880232,799.81683,788.93774,803.0403,806.6667,730.5128,-0.1156005859375,0.0557861328125,1.0009765625,0.40374755859375,2.968292236328125,1.00189208984375,1,1.0,1.0,1.0,1.0,10.00
2024-10-11 20:21:40.788,0.52418166,1.3754667,0.99323887,0.331203,0.5819769,1.0794389,0.16803782,0.90752286,0.2765978,0.4419274,0.20382115,0.45876932,0.32264465,0.17828532,0.08913221,0.26929384,0.08254098,0.022287069,0.0026200437,-0.24880232,803.8461,785.31134,799.41394,809.0842,694.2491,-0.1156005859375,0.0557861328125,1.0009765625,0.40374755859375,2.968292236328125,1.00189208984375,1,1.0,1.0,1.0,1.0,10.00
2024-10-11 20:21:40.788,0.52418166,1.3754667,0.99323887,0.331203,0.5819769,1.0794389,0.16803782,0.90752286,0.2765978,0.4419274,0.20382115,0.45876932,0.32264465,0.17828532,0.08913221,0.26929384,0.08254098,0.022287069,0.0026200437,-0.24880232,801.4286,786.52014,799.81683,805.05493,754.68866,-0.1156005859375,0.0557861328125,1.0009765625,0.40374755859375,2.968292236328125,1.00189208984375,1,1.0,1.0,1.0,1.0,10.00
2024-10-11 20:21:40.789,0.52418166,1.3754667,0.99323887,0.331203,0.5819769,1.0794389,0.16803782,0.90752286,0.2765978,0.4419274,0.20382115,0.45876932,0.32264465,0.17828532,0.08913221,0.26929384,0.08254098,0.022287069,0.0026200437,-0.24880232,800.2198,793.36993,796.99634,801.8315,879.19415,-0.1156005859375,0.0557861328125,1.0009765625,0.40374755859375,2.968292236328125,1.00189208984375,1,1.0,1.0,1.0,1.0,10.00
2024-10-11 20:21:40.789,0.52418166,1.3754667,0.99323887,0.331203,0.5819769,1.0794389,0.16803782,0.90752286,0.2765978,0.4419274,0.20382115,0.45876932,0.32264465,0.17828532,0.08913221,0.26929384,0.08254098,0.022287069,0.0026200437,-0.24880232,808.2784,801.4286,795.38464,805.8608,811.9048,-0.1156005859375,0.0557861328125,1.0009765625,0.40374755859375,2.968292236328125,1.00189208984375,1,1.0,1.0,1.0,1.0,10.00
2024-10-11 20:21:40.790,0.52418166,1.3754667,0.99323887,0.331203,0.5819769,1.0794389,0.16803782,0.90752286,0.2765978,0.4419274,0.20382115,0.45876932,0.32264465,0.17828532,0.08913221,0.26929384,0.08254098,0.022287069,0.0026200437,-0.24880232,800.2198,794.17584,795.78754,803.8461,597.5458,-0.1156005859375,0.0557861328125,1.0009765625,0.40374755859375,2.968292236328125,1.00189208984375,1,1.0,1.0,1.0,1.0,10.00
2024-10-11 20:21:40.790,0.52418166,1.3754667,0.99323887,0.331203,0.5819769,1.0794389,0.16803782,0.90752286,0.2765978,0.4419274,0.20382115,0.45876932,0.32264465,0.17828532,0.08913221,0.26929384,0.08254098,0.022287069,0.0026200437,-0.24880232,801.4286,792.5641,801.4286,806.6667,670.87915,-0.1156005859375,0.0557861328125,1.0009765625,0.40374755859375,2.968292236328125,1.00189208984375,1,1.0,1.0,1.0,1.0,10.00
2024-10-11 20:21:40.791,0.52418166,1.3754667,0.99323887,0.331203,0.5819769,1.0794389,0.16803782,0.90752286,0.2765978,0.4419274,0.20382115,0.45876932,0.32264465,0.17828532,0.08913221,0.26929384,0.08254098,0.022287069,0.0026200437,-0.24880232,814.3223,800.2198,801.8315,810.696,841.7216,-0.1156005859375,0.0557861328125,1.0009765625,0.40374755859375,2.968292236328125,1.00189208984375,1,1.0,1.0,1.0,1.0,10.00
2024-10-11 20:21:40.848,0.52418166,1.3754667,0.99323887,0.331203,0.5819769,1.0794389,0.16803782,0.90752286,0.2765978,0.4419274,0.20382115,0.45876932,0.32264465,0.17828532,0.08913221,0.26929384,0.08254098,0.022287069,0.0026200437,-0.24880232,813.1135,804.2491,801.4286,813.91943,755.89746,-0.11651611328125,0.05755615234375,1.00115966796875,-0.11962890625,2.669219970703125,1.136474609375,1,1.0,1.0,1.0,1.0,10.00
2024-10-11 20:21:40.849,0.52418166,1.3754667,0.99323887,0.331203,0.5819769,1.0794389,0.16803782,0.90752286,0.2765978,0.4419274,0.20382115,0.45876932,0.32264465,0.17828532,0.08913221,0.26929384,0.08254098,0.022287069,0.0026200437,-0.24880232,811.50183,791.75824,807.0696,814.3223,682.5641,-0.11651611328125,0.05755615234375,1.00115966796875,-0.11962890625,2.669219970703125,1.136474609375,1,1.0,1.0,1.0,1.0,10.00
2024-10-11 20:21:40.849,0.52418166,1.3754667,0.99323887,0.331203,0.5819769,1.0794389,0.16803782,0.90752286,0.2765978,0.4419274,0.20382115,0.45876932,0.32264465,0.17828532,0.08913221,0.26929384,0.08254098,0.022287069,0.0026200437,-0.24880232,809.89014,780.87915,807.0696,809.89014,816.7399,-0.11651611328125,0.05755615234375,1.00115966796875,-0.11962890625,2.669219970703125,1.136474609375,1,1.0,1.0,1.0,1.0,10.00
2024-10-11 20:21:40.850,0.52418166,1.3754667,0.99323887,0.331203,0.5819769,1.0794389,0.16803782,0.90752286,0.2765978,0.4419274,0.20382115,0.45876932,0.32264465,0.17828532,0.08913221,0.26929384,0.08254098,0.022287069,0.0026200437,-0.24880232,805.4579,789.34064,803.8461,801.4286,929.15753,-0.11651611328125,0.05755615234375,1.00115966796875,-0.11962890625,2.669219970703125,1.136474609375,1,1.0,1.0,1.0,1.0,10.00
2024-10-11 20:21:40.850,0.52418166,1.3754667,0.99323887,0.331203,0.5819769,1.0794389,0.16803782,0.90752286,0.2765978,0.4419274,0.20382115,0.45876932,0.32264465,0.17828532,0.08913221,0.26929384,0.08254098,0.022287069,0.0026200437,-0.24880232,805.8608,799.41394,798.20514,798.20514,809.89014,-0.11651611328125,0.05755615234375,1.00115966796875,-0.11962890625,2.669219970703125,1.136474609375,1,1.0,1.0,1.0,1.0,10.00
2024-10-11 20:21:40.850,0.52418166,1.3754667,0.98540044,0.331203,0.5819769,1.0794389,0.14514193,0.90752286,0.2765978,0.4419274,0.20382115,0.45876932,0.32264465,0.17828532,0.059936337,0.26929384,0.08254098,0.022287069,-0.025801333,-0.24880232,795.78754,797.3993,794.17584,797.3993,780.07324,-0.11651611328125,0.05755615234375,1.00115966796875,-0.11962890625,2.669219970703125,1.136474609375,1,1.0,1.0,1.0,1.0,10.00
2024-10-11 20:21:40.854,0.52418166,1.3754667,0.98540044,0.331203,0.5819769,1.0794389,0.14514193,0.90752286,0.2765978,0.4419274,0.20382115,0.45876932,0.32264465,0.17828532,0.059936337,0.26929384,0.08254098,0.022287069,-0.025801333,-0.24880232,788.93774,794.57874,796.99634,803.8461,1055.6776,-0.11651611328125,0.05755615234375,1.00115966796875,-0.11962890625,2.669219970703125,1.136474609375,1,1.0,1.0,1.0,1.0,10.00
2024-10-11 20:21:40.855,0.52418166,1.3754667,0.98540044,0.331203,0.5819769,1.0794389,0.14514193,0.90752286,0.2765978,0.4419274,0.20382115,0.45876932,0.32264465,0.17828532,0.059936337,0.26929384,0.08254098,0.022287069,-0.025801333,-0.24880232,791.75824,795.38464,801.4286,805.8608,1138.6813,-0.11651611328125,0.05755615234375,1.00115966796875,-0.11962890625,2.669219970703125,1.136474609375,1,1.0,1.0,1.0,1.0,10.00
2024-10-11 20:21:40.855,0.52418166,1.3754667,0.98540044,0.331203,0.5819769,1.0794389,0.14514193,0.90752286,0.2765978,0.4419274,0.20382115,0.45876932,0.32264465,0.17828532,0.059936337,0.26929384,0.08254098,0.022287069,-0.025801333,-0.24880232,799.81683,798.60803,806.26373,802.6374,838.9011,-0.11651611328125,0.05755615234375,1.00115966796875,-0.11962890625,2.669219970703125,1.136474609375,1,1.0,1.0,1.0,1.0,10.00
2024-10-11 20:21:40.855,0.52418166,1.3754667,0.98540044,0.331203,0.5819769,1.0794389,0.14514193,0.90752286,0.2765978,0.4419274,0.20382115,0.45876932,0.32264465,0.17828532,0.059936337,0.26929384,0.08254098,0.022287069,-0.025801333,-0.24880232,807.8755,802.6374,804.2491,807.0696,776.04395,-0.11651611328125,0.05755615234375,1.00115966796875,-0.11962890625,2.669219970703125,1.136474609375,1,1.0,1.0,1.0,1.0,10.00
2024-10-11 20:21:40.856,0.52418166,1.3754667,0.98540044,0.331203,0.5819769,1.0794389,0.14514193,0.90752286,0.2765978,0.4419274,0.20382115,0.45876932,0.32264465,0.17828532,0.059936337,0.26929384,0.08254098,0.022287069,-0.025801333,-0.24880232,808.2784,794.9817,802.6374,809.89014,968.24176,-0.11651611328125,0.05755615234375,1.00115966796875,-0.11962890625,2.669219970703125,1.136474609375,1,1.0,1.0,1.0,1.0,10.00
2024-10-11 20:21:40.857,0.52418166,1.3754667,0.98540044,0.331203,0.5819769,1.0794389,0.14514193,0.90752286,0.2765978,0.4419274,0.20382115,0.45876932,0.32264465,0.17828532,0.059936337,0.26929384,0.08254098,0.022287069,-0.025801333,-0.24880232,801.8315,786.1172,792.96704,808.2784,1125.7876,-0.11651611328125,0.05755615234375,1.00115966796875,-0.11962890625,2.669219970703125,1.136474609375,1,1.0,1.0,1.0,1.0,10.00
2024-10-11 20:21:40.858,0.52418166,1.3754667,0.98540044,0.331203,0.5819769,1.0794389,0.14514193,0.90752286,0.2765978,0.4419274,0.20382115,0.45876932,0.32264465,0.17828532,0.059936337,0.26929384,0.08254098,0.022287069,-0.025801333,-0.24880232,791.3553,787.326,791.75824,802.23444,785.31134,-0.1236572265625,0.0533447265625,1.00286865234375,-0.79254150390625,2.370147705078125,0.979461669921875,1,1.0,1.0,1.0,1.0,10.00
2024-10-11 20:21:40.858,0.52418166,1.3754667,0.98540044,0.331203,0.5819769,1.0794389,0.14514193,0.90752286,0.2765978,0.4419274,0.20382115,0.45876932,0.32264465,0.17828532,0.059936337,0.26929384,0.08254098,0.022287069,-0.025801333,-0.24880232,790.14655,789.34064,798.20514,808.2784,714.7985,-0.1236572265625,0.0533447265625,1.00286865234375,-0.79254150390625,2.370147705078125,0.979461669921875,1,1.0,1.0,1.0,1.0,10.00
2024-10-11 20:21:40.859,0.52418166,1.3754667,0.98540044,0.331203,0.5819769,1.0794389,0.14514193,0.90752286,0.2765978,0.4419274,0.20382115,0.45876932,0.32264465,0.17828532,0.059936337,0.26929384,0.08254098,0.022287069,-0.025801333,-0.24880232,790.9524,800.6227,799.81683,815.12823,888.46155,-0.1236572265625,0.0533447265625,1.00286865234375,-0.79254150390625,2.370147705078125,0.979461669921875,1,1.0,1.0,1.0,1.0,10.00
2024-10-11 20:21:40.860,0.52418166,1.3754667,0.98540044,0.331203,0.5819769,1.0794389,0.14514193,0.90752286,0.2765978,0.4419274,0.20382115,0.45876932,0.32264465,0.17828532,0.059936337,0.26929384,0.08254098,0.022287069,-0.025801333,-0.24880232,791.3553,808.68134,800.2198,808.68134,814.3223,-0.1236572265625,0.0533447265625,1.00286865234375,-0.79254150390625,2.370147705078125,0.979461669921875,1,1.0,1.0,1.0,1.0,10.00
2024-10-11 20:21:40.860,0.52418166,1.3754667,0.98540044,0.331203,0.5819769,1.0794389,0.14514193,0.90752286,0.2765978,0.4419274,0.20382115,0.45876932,0.32264465,0.17828532,0.059936337,0.26929384,0.08254098,0.022287069,-0.025801333,-0.24880232,791.75824,803.0403,801.02563,803.0403,728.0952,-0.1236572265625,0.0533447265625,1.00286865234375,-0.79254150390625,2.370147705078125,0.979461669921875,1,1.0,1.0,1.0,1.0,10.00
2024-10-11 20:21:40.861,0.52418166,1.3754667,0.98540044,0.331203,0.5819769,1.0794389,0.14514193,0.90752286,0.2765978,0.4419274,0.20382115,0.45876932,0.32264465,0.17828532,0.059936337,0.26929384,0.08254098,0.022287069,-0.025801333,-0.24880232,799.011,794.9817,803.44324,809.4872,812.3077,-0.1236572265625,0.0533447265625,1.00286865234375,-0.79254150390625,2.370147705078125,0.979461669921875,1,1.0,1.0,1.0,1.0,10.00
2024-10-11 20:21:40.861,0.52418166,1.3754667,0.98540044,0.331203,0.5819769,1.0794389,0.14514193,0.90752286,0.2765978,0.4419274,0.20382115,0.45876932,0.32264465,0.17828532,0.059936337,0.26929384,0.08254098,0.022287069,-0.025801333,-0.24880232,799.81683,790.54944,800.2198,811.9048,1095.5677,-0.1236572265625,0.0533447265625,1.00286865234375,-0.79254150390625,2.370147705078125,0.979461669921875,1,1.0,1.0,1.0,1.0,10.00
2024-10-11 20:21:40.862,0.52418166,1.3754667,0.98540044,0.331203,0.5819769,1.0794389,0.14514193,0.90752286,0.2765978,0.4419274,0.20382115,0.45876932,0.32264465,0.17828532,0.059936337,0.26929384,0.08254098,0.022287069,-0.025801333,-0.24880232,799.81683,803.8461,800.2198,814.7253,981.9414,-0.1236572265625,0.0533447265625,1.00286865234375,-0.79254150390625,2.370147705078125,0.979461669921875,1,1.0,1.0,1.0,1.0,10.00
2024-10-11 20:21:40.863,0.52418166,1.3754667,0.98540044,0.331203,0.5819769,1.0794389,0.14514193,0.90752286,0.2765978,0.4419274,0.20382115,0.45876932,0.32264465,0.17828532,0.059936337,0.26929384,0.08254098,0.022287069,-0.025801333,-0.24880232,801.02563,800.6227,795.38464,811.50183,645.89746,-0.1236572265625,0.0533447265625,1.00286865234375,-0.79254150390625,2.370147705078125,0.979461669921875,1,1.0,1.0,1.0,1.0,10.00
2024-10-11 20:21:40.863,0.52418166,1.3754667,0.98540044,0.331203,0.5819769,1.0794389,0.14514193,0.90752286,0.2765978,0.4419274,0.20382115,0.45876932,0.32264465,0.17828532,0.059936337,0.26929384,0.08254098,0.022287069,-0.025801333,-0.24880232,803.0403,790.54944,795.38464,809.89014,799.81683,-0.1236572265625,0.0533447265625,1.00286865234375,-0.79254150390625,2.370147705078125,0.979461669921875,1,1.0,1.0,1.0,1.0,10.00
2024-10-11 20:21:40.864,0.52418166,1.3754667,0.98540044,0.331203,0.5819769,1.0794389,0.14514193,0.90752286,0.2765978,0.4419274,0.20382115,0.45876932,0.32264465,0.17828532,0.059936337,0.26929384,0.08254098,0.022287069,-0.025801333,-0.24880232,808.68134,787.326,802.6374,811.50183,933.5897,-0.1236572265625,0.0533447265625,1.00286865234375,-0.79254150390625,2.370147705078125,0.979461669921875,1,1.0,1.0,1.0,1.0,10.00
2024-10-11 20:21:40.864,0.52418166,1.3754667,0.98540044,0.331203,0.5819769,1.0794389,0.14514193,0.90752286,0.2765978,0.4419274,0.20382115,0.45876932,0.32264465,0.17828532,0.059936337,0.26929384,0.08254098,0.022287069,-0.025801333,-0.24880232,811.9048,788.93774,802.6374,811.0989,966.63007,-0.1236572265625,0.0533447265625,1.00286865234375,-0.79254150390625,2.370147705078125,0.979461669921875,1,1.0,1.0,1.0,1.0,10.00
2024-10-11 20:21:40.892,0.52418166,1.3754667,0.98540044,0.331203,0.5819769,1.0794389,0.14514193,0.90752286,0.2765978,0.4419274,0.20382115,0.45876932,0.32264465,0.17828532,0.059936337,0.26929384,0.08254098,0.022287069,-0.025801333,-0.24880232,810.293,804.65204,805.4579,806.26373,880.40295,-0.1287841796875,0.05023193359375,1.01043701171875,-0.800018310546875,2.19818115234375,0.73272705078125,1,1.0,1.0,1.0,1.0,10.00
2024-10-11 20:21:40.893,0.52418166,1.3754667,0.98540044,0.331203,0.5819769,1.0794389,0.14514193,0.90752286,0.2765978,0.4419274,0.20382115,0.45876932,0.32264465,0.17828532,0.059936337,0.26929384,0.08254098,0.022287069,-0.025801333,-0.24880232,809.4872,803.0403,809.89014,813.5165,913.8461,-0.1287841796875,0.05023193359375,1.01043701171875,-0.800018310546875,2.19818115234375,0.73272705078125,1,1.0,1.0,1.0,1.0,10.00
2024-10-11 20:21:40.894,0.52418166,1.3754667,0.98540044,0.331203,0.5819769,1.0794389,0.14514193,0.90752286,0.2765978,0.4419274,0.20382115,0.45876932,0.32264465,0.17828532,0.059936337,0.26929384,0.08254098,0.022287069,-0.025801333,-0.24880232,800.2198,798.60803,804.65204,815.12823,1095.1648,-0.1287841796875,0.05023193359375,1.01043701171875,-0.800018310546875,2.19818115234375,0.73272705078125,1,1.0,1.0,1.0,1.0,10.00
2024-10-11 20:21:40.895,0.52418166,1.3754667,0.98540044,0.331203,0.5819769,1.0794389,0.14514193,0.90752286,0.2765978,0.4419274,0.20382115,0.45876932,0.32264465,0.17828532,0.059936337,0.26929384,0.08254098,0.022287069,-0.025801333,-0.24880232,794.17584,803.44324,801.02563,807.8755,876.77655,-0.1287841796875,0.05023193359375,1.01043701171875,-0.800018310546875,2.19818115234375,0.73272705078125,1,1.0,1.0,1.0,1.0,10.00
2024-10-11 20:21:40.896,0.52418166,1.3754667,0.98540044,0.331203,0.5819769,1.0794389,0.14514193,0.90752286,0.2765978,0.4419274,0.20382115,0.45876932,0.32264465,0.17828532,0.059936337,0.26929384,0.08254098,0.022287069,-0.025801333,-0.24880232,800.2198,804.2491,805.05493,807.47253,634.21246,-0.1287841796875,0.05023193359375,1.01043701171875,-0.800018310546875,2.19818115234375,0.73272705078125,1,1.0,1.0,1.0,1.0,10.00
2024-10-11 20:21:40.897,0.52418166,1.3754667,0.98540044,0.331203,0.5819769,1.0794389,0.14514193,0.90752286,0.2765978,0.4419274,0.20382115,0.45876932,0.32264465,0.17828532,0.059936337,0.26929384,0.08254098,0.022287069,-0.025801333,-0.24880232,805.8608,798.60803,802.23444,807.8755,908.20514,-0.1287841796875,0.05023193359375,1.01043701171875,-0.800018310546875,2.19818115234375,0.73272705078125,1,1.0,1.0,1.0,1.0,10.00
2024-10-11 20:21:40.897,0.52418166,1.3754667,0.98540044,0.331203,0.5819769,1.0794389,0.14514193,0.90752286,0.2765978,0.4419274,0.20382115,0.45876932,0.32264465,0.17828532,0.059936337,0.26929384,0.08254098,0.022287069,-0.025801333,-0.24880232,801.02563,783.2967,802.6374,811.9048,1256.337,-0.1287841796875,0.05023193359375,1.01043701171875,-0.800018310546875,2.19818115234375,0.73272705078125,1,1.0,1.0,1.0,1.0,10.00
2024-10-11 20:21:40.898,0.52418166,1.3754667,0.96185994,0.331203,0.5819769,1.0794389,0.1188105,0.90752286,0.2765978,0.4419274,0.20382115,0.45876932,0.32264465,0.17828532,0.031652,0.26929384,0.08254098,0.022287069,-0.051461432,-0.24880232,803.44324,783.2967,803.0403,807.0696,895.7143,-0.1287841796875,0.05023193359375,1.01043701171875,-0.800018310546875,2.19818115234375,0.73272705078125,1,1.0,1.0,1.0,1.0,10.00
2024-10-11 20:21:40.901,0.52418166,1.3754667,0.96185994,0.331203,0.5819769,1.0794389,0.1188105,0.90752286,0.2765978,0.4419274,0.20382115,0.45876932,0.32264465,0.17828532,0.031652,0.26929384,0.08254098,0.022287069,-0.051461432,-0.24880232,803.8461,794.17584,795.78754,800.6227,612.0513,-0.1287841796875,0.05023193359375,1.01043701171875,-0.800018310546875,2.19818115234375,0.73272705078125,1,1.0,1.0,1.0,1.0,10.00
2024-10-11 20:21:40.902,0.52418166,1.3754667,0.96185994,0.331203,0.5819769,1.0794389,0.1188105,0.90752286,0.2765978,0.4419274,0.20382115,0.45876932,0.32264465,0.17828532,0.031652,0.26929384,0.08254098,0.022287069,-0.051461432,-0.24880232,796.99634,797.3993,796.99634,797.8022,689.81683,-0.1287841796875,0.05023193359375,1.01043701171875,-0.800018310546875,2.19818115234375,0.73272705078125,1,1.0,1.0,1.0,1.0,10.00
2024-10-11 20:21:40.902,0.52418166,1.3754667,0.96185994,0.331203,0.5819769,1.0794389,0.1188105,0.90752286,0.2765978,0.4419274,0.20382115,0.45876932,0.32264465,0.17828532,0.031652,0.26929384,0.08254098,0.022287069,-0.051461432,-0.24880232,796.5934,802.23444,795.38464,799.41394,752.674,-0.1287841796875,0.05023193359375,1.01043701171875,-0.800018310546875,2.19818115234375,0.73272705078125,1,1.0,1.0,1.0,1.0,10.00
2024-10-11 20:21:40.903,0.52418166,1.3754667,0.96185994,0.331203,0.5819769,1.0794389,0.1188105,0.90752286,0.2765978,0.4419274,0.20382115,0.45876932,0.32264465,0.17828532,0.031652,0.26929384,0.08254098,0.022287069,-0.051461432,-0.24880232,802.23444,796.99634,793.36993,797.3993,715.2015,-0.1287841796875,0.05023193359375,1.01043701171875,-0.800018310546875,2.19818115234375,0.73272705078125,1,1.0,1.0,1.0,1.0,10.00
2024-10-11 20:21:40.923,0.52418166,1.3754667,0.96185994,0.331203,0.5819769,1.0794389,0.1188105,0.90752286,0.2765978,0.4419274,0.20382115,0.45876932,0.32264465,0.17828532,0.031652,0.26929384,0.08254098,0.022287069,-0.051461432,-0.24880232,805.8608,796.1905,801.02563,800.2198,695.05493,-0.1287841796875,0.05023193359375,1.01043701171875,-0.800018310546875,2.19818115234375,0.73272705078125,1,1.0,1.0,1.0,1.0,10.00
2024-10-11 20:21:40.924,0.52418166,1.3754667,0.96185994,0.331203,0.5819769,1.0794389,0.1188105,0.90752286,0.2765978,0.4419274,0.20382115,0.45876932,0.32264465,0.17828532,0.031652,0.26929384,0.08254098,0.022287069,-0.051461432,-0.24880232,799.41394,798.20514,806.6667,805.05493,741.79486,-0.1287841796875,0.05023193359375,1.01043701171875,-0.800018310546875,2.19818115234375,0.73272705078125,1,1.0,1.0,1.0,1.0,10.00
2024-10-11 20:21:40.924,0.52418166,1.3754667,0.96185994,0.331203,0.5819769,1.0794389,0.1188105,0.90752286,0.2765978,0.4419274,0.20382115,0.45876932,0.32264465,0.17828532,0.031652,0.26929384,0.08254098,0.022287069,-0.051461432,-0.24880232,801.02563,791.75824,801.02563,796.99634,868.315,-0.1287841796875,0.05023193359375,1.01043701171875,-0.800018310546875,2.19818115234375,0.73272705078125,1,1.0,1.0,1.0,1.0,10.00
2024-10-11 20:21:40.925,0.52418166,1.3754667,0.96185994,0.331203,0.5819769,1.0794389,0.1188105,0.90752286,0.2765978,0.4419274,0.20382115,0.45876932,0.32264465,0.17828532,0.031652,0.26929384,0.08254098,0.022287069,-0.051461432,-0.24880232,801.8315,794.9817,791.3553,792.5641,756.30035,-0.1287841796875,0.05023193359375,1.01043701171875,-0.800018310546875,2.19818115234375,0.73272705078125,1,1.0,1.0,1.0,1.0,10.00
2024-10-11 20:21:40.925,0.52418166,1.3754667,0.96185994,0.331203,0.5819769,1.0794389,0.1188105,0.90752286,0.2765978,0.4419274,0.20382115,0.45876932,0.32264465,0.17828532,0.031652,0.26929384,0.08254098,0.022287069,-0.051461432,-0.24880232,800.2198,788.1319,793.7729,790.9524,658.3883,-0.1287841796875,0.05023193359375,1.01043701171875,-0.800018310546875,2.19818115234375,0.73272705078125,1,1.0,1.0,1.0,1.0,10.00
2024-10-11 20:21:40.926,0.52418166,1.3754667,0.96185994,0.331203,0.5819769,1.0794389,0.1188105,0.90752286,0.2765978,0.4419274,0.20382115,0.45876932,0.32264465,0.17828532,0.031652,0.26929384,0.08254098,0.022287069,-0.051461432,-0.24880232,790.9524,785.7143,789.7436,792.96704,1076.63,-0.1287841796875,0.05023193359375,1.01043701171875,-0.800018310546875,2.19818115234375,0.73272705078125,1,1.0,1.0,1.0,1.0,10.00
2024-10-11 20:21:40.927,0.52418166,1.3754667,0.96185994,0.331203,0.5819769,1.0794389,0.1188105,0.90752286,0.2765978,0.4419274,0.20382115,0.45876932,0.32264465,0.17828532,0.031652,0.26929384,0.08254098,0.022287069,-0.051461432,-0.24880232,790.14655,797.8022,792.5641,796.5934,1111.6849,-0.1287841796875,0.05023193359375,1.01043701171875,-0.800018310546875,2.19818115234375,0.73272705078125,1,1.0,1.0,1.0,1.0,10.00
2024-10-11 20:21:40.928,0.52418166,1.3754667,0.96185994,0.331203,0.5819769,1.0794389,0.1188105,0.90752286,0.2765978,0.4419274,0.20382115,0.45876932,0.32264465,0.17828532,0.031652,0.26929384,0.08254098,0.022287069,-0.051461432,-0.24880232,790.9524,797.8022,803.44324,790.9524,752.27106,-0.1287841796875,0.05023193359375,1.01043701171875,-0.800018310546875,2.19818115234375,0.73272705078125,1,1.0,1.0,1.0,1.0,10.00
2024-10-11 20:21:40.928,0.52418166,1.3754667,0.96185994,0.331203,0.5819769,1.0794389,0.1188105,0.90752286,0.2765978,0.4419274,0.20382115,0.45876932,0.32264465,0.17828532,0.031652,0.26929384,0.08254098,0.022287069,-0.051461432,-0.24880232,796.1905,790.14655,803.44324,796.99634,693.0403,-0.1287841796875,0.05023193359375,1.01043701171875,-0.800018310546875,2.19818115234375,0.73272705078125,1,1.0,1.0,1.0,1.0,10.00
2024-10-11 20:21:40.929,0.52418166,1.3754667,0.96185994,0.331203,0.5819769,1.0794389,0.1188105,0.90752286,0.2765978,0.4419274,0.20382115,0.45876932,0.32264465,0.17828532,0.031652,0.26929384,0.08254098,0.022287069,-0.051461432,-0.24880232,806.26373,794.17584,801.02563,809.89014,756.7033,-0.1287841796875,0.05023193359375,1.01043701171875,-0.800018310546875,2.19818115234375,0.73272705078125,1,1.0,1.0,1.0,1.0,10.00
2024-10-11 20:21:40.930,0.52418166,1.3754667,0.96185994,0.331203,0.5819769,1.0794389,0.1188105,0.90752286,0.2765978,0.4419274,0.20382115,0.45876932,0.32264465,0.17828532,0.031652,0.26929384,0.08254098,0.022287069,-0.051461432,-0.24880232,794.17584,803.0403,797.3993,802.23444,684.57874,-0.1287841796875,0.05023193359375,1.01043701171875,-0.800018310546875,2.19818115234375,0.73272705078125,1,1.0,1.0,1.0,1.0,10.00
2024-10-11 20:21:40.931,0.52418166,1.3754667,0.96185994,0.331203,0.5819769,1.0794389,0.1188105,0.90752286,0.2765978,0.4419274,0.20382115,0.45876932,0.32264465,0.17828532,0.031652,0.26929384,0.08254098,0.022287069,-0.051461432,-0.24880232,794.9817,803.44324,801.4286,794.17584,721.2454,-0.1287841796875,0.05023193359375,1.01043701171875,-0.800018310546875,2.19818115234375,0.73272705078125,1,1.0,1.0,1.0,1.0,10.00
2024-10-11 20:21:40.951,0.52418166,1.3754667,0.96185994,0.331203,0.5819769,1.0794389,0.1188105,0.90752286,0.2765978,0.4419274,0.20382115,0.45876932,0.32264465,0.17828532,0.031652,0.26929384,0.08254098,0.022287069,-0.051461432,-0.24880232,804.65204,792.5641,803.44324,792.96704,766.77655,-0.1322021484375,0.038818359375,0.994873046875,-0.142059326171875,2.788848876953125,0.58319091796875,1,1.0,1.0,1.0,1.0,10.00
2024-10-11 20:21:40.952,0.52418166,1.3754667,0.96185994,0.331203,0.5819769,1.0794389,0.1188105,0.90752286,0.2765978,0.4419274,0.20382115,0.45876932,0.32264465,0.17828532,0.031652,0.26929384,0.08254098,0.022287069,-0.051461432,-0.24880232,794.57874,788.93774,799.41394,792.5641,659.19415,-0.1322021484375,0.038818359375,0.994873046875,-0.142059326171875,2.788848876953125,0.58319091796875,1,1.0,1.0,1.0,1.0,10.00
2024-10-11 20:21:40.953,0.52418166,1.3754667,0.96185994,0.331203,0.5819769,1.0794389,0.1188105,0.90752286,0.2765978,0.4419274,0.20382115,0.45876932,0.32264465,0.17828532,0.031652,0.26929384,0.08254098,0.022287069,-0.051461432,-0.24880232,788.1319,792.5641,799.41394,791.3553,612.8571,-0.1322021484375,0.038818359375,0.994873046875,-0.142059326171875,2.788848876953125,0.58319091796875,1,1.0,1.0,1.0,1.0,10.00
2024-10-11 20:21:40.953,0.52418166,1.3754667,0.96185994,0.331203,0.5819769,1.0794389,0.1188105,0.90752286,0.2765978,0.4419274,0.20382115,0.45876932,0.32264465,0.17828532,0.031652,0.26929384,0.08254098,0.022287069,-0.051461432,-0.24880232,801.8315,796.99634,799.81683,800.2198,699.4872,-0.1322021484375,0.038818359375,0.994873046875,-0.142059326171875,2.788848876953125,0.58319091796875,1,1.0,1.0,1.0,1.0,10.00
2024-10-11 20:21:40.954,0.52418166,1.3754667,0.96185994,0.331203,0.5819769,1.0794389,0.1188105,0.90752286,0.2765978,0.4419274,0.20382115,0.45876932,0.32264465,0.17828532,0.031652,0.26929384,0.08254098,0.022287069,-0.051461432,-0.24880232,810.696,806.26373,799.41394,812.3077,856.2271,-0.1322021484375,0.038818359375,0.994873046875,-0.142059326171875,2.788848876953125,0.58319091796875,1,1.0,1.0,1.0,1.0,10.00
2024-10-11 20:21:40.954,0.52418166,1.3754667,0.96185994,0.331203,0.5819769,1.0794389,0.1188105,0.90752286,0.2765978,0.4419274,0.20382115,0.45876932,0.32264465,0.17828532,0.031652,0.26929384,0.08254098,0.022287069,-0.051461432,-0.24880232,806.6667,807.47253,797.3993,805.05493,1036.7399,-0.1322021484375,0.038818359375,0.994873046875,-0.142059326171875,2.788848876953125,0.58319091796875,1,1.0,1.0,1.0,1.0,10.00
2024-10-11 20:21:40.955,0.52418166,1.3754667,0.96185994,0.331203,0.5819769,1.0794389,0.1188105,0.90752286,0.2765978,0.4419274,0.20382115,0.45876932,0.32264465,0.17828532,0.031652,0.26929384,0.08254098,0.022287069,-0.051461432,-0.24880232,798.60803,808.68134,798.60803,801.8315,980.7326,-0.1322021484375,0.038818359375,0.994873046875,-0.142059326171875,2.788848876953125,0.58319091796875,1,1.0,1.0,1.0,1.0,10.00
2024-10-11 20:21:40.955,0.52418166,1.3754667,0.96185994,0.331203,0.5819769,1.0794389,0.1188105,0.90752286,0.2765978,0.4419274,0.20382115,0.45876932,0.32264465,0.17828532,0.031652,0.26929384,0.08254098,0.022287069,-0.051461432,-0.24880232,803.0403,799.81683,802.23444,810.696,854.61536,-0.1322021484375,0.038818359375,0.994873046875,-0.142059326171875,2.788848876953125,0.58319091796875,1,1.0,1.0,1.0,1.0,10.00
2024-10-11 20:21:40.956,0.52418166,1.3754667,0.96185994,0.331203,0.5819769,1.0794389,0.1188105,0.90752286,0.2765978,0.4419274,0.20382115,0.45876932,0.32264465,0.17828532,0.031652,0.26929384,0.08254098,0.022287069,-0.051461432,-0.24880232,807.0696,786.9231,794.9817,811.50183,990.40295,-0.1322021484375,0.038818359375,0.994873046875,-0.142059326171875,2.788848876953125,0.58319091796875,1,1.0,1.0,1.0,1.0,10.00
2024-10-11 20:21:40.956,0.52418166,1.3754667,0.9248945,0.331203,0.5819769,1.0794389,0.10330584,0.90752286,0.2765978,0.4419274,0.20382115,0.45876932,0.32264465,0.17828532,0.00503832,0.26929384,0.08254098,0.022287069,-0.073758535,-0.24880232,806.6667,790.54944,793.7729,807.0696,916.6667,-0.1322021484375,0.038818359375,0.994873046875,-0.142059326171875,2.788848876953125,0.58319091796875,1,1.0,1.0,1.0,1.0,10.00
2024-10-11 20:21:40.960,0.52418166,1.3754667,0.9248945,0.331203,0.5819769,1.0794389,0.10330584,0.90752286,0.2765978,0.4419274,0.20382115,0.45876932,0.32264465,0.17828532,0.00503832,0.26929384,0.08254098,0.022287069,-0.073758535,-0.24880232,817.9487,786.9231,795.38464,810.293,667.25275,-0.1322021484375,0.038818359375,0.994873046875,-0.142059326171875,2.788848876953125,0.58319091796875,1,1.0,1.0,1.0,1.0,10.00
2024-10-11 20:21:40.961,0.52418166,1.3754667,0.9248945,0.331203,0.5819769,1.0794389,0.10330584,0.90752286,0.2765978,0.4419274,0.20382115,0.45876932,0.32264465,0.17828532,0.00503832,0.26929384,0.08254098,0.022287069,-0.073758535,-0.24880232,820.7692,792.1612,797.3993,809.4872,625.34796,-0.1322021484375,0.038818359375,0.994873046875,-0.142059326171875,2.788848876953125,0.58319091796875,1,1.0,1.0,1.0,1.0,10.00
2024-10-11 20:21:41.045,0.52418166,1.3754667,0.9248945,0.331203,0.5819769,1.0794389,0.10330584,0.90752286,0.2765978,0.4419274,0.20382115,0.45876932,0.32264465,0.17828532,0.00503832,0.26929384,0.08254098,0.022287069,-0.073758535,-0.24880232,812.71063,802.6374,798.20514,807.0696,890.07324,-0.12890625,0.0521240234375,0.99969482421875,1.12152099609375,2.624359130859375,1.435546875,1,1.0,1.0,1.0,1.0,10.00
2024-10-11 20:21:41.046,0.52418166,1.3754667,0.9248945,0.331203,0.5819769,1.0794389,0.10330584,0.90752286,0.2765978,0.4419274,0.20382115,0.45876932,0.32264465,0.17828532,0.00503832,0.26929384,0.08254098,0.022287069,-0.073758535,-0.24880232,810.293,798.60803,795.38464,815.12823,999.67035,-0.12890625,0.0521240234375,0.99969482421875,1.12152099609375,2.624359130859375,1.435546875,1,1.0,1.0,1.0,1.0,10.00
2024-10-11 20:21:41.046,0.52418166,1.3754667,0.9248945,0.331203,0.5819769,1.0794389,0.10330584,0.90752286,0.2765978,0.4419274,0.20382115,0.45876932,0.32264465,0.17828532,0.00503832,0.26929384,0.08254098,0.022287069,-0.073758535,-0.24880232,812.71063,801.8315,803.44324,822.7839,608.4249,-0.12890625,0.0521240234375,0.99969482421875,1.12152099609375,2.624359130859375,1.435546875,1,1.0,1.0,1.0,1.0,10.00
2024-10-11 20:21:41.047,0.52418166,1.3754667,0.9248945,0.331203,0.5819769,1.0794389,0.10330584,0.90752286,0.2765978,0.4419274,0.20382115,0.45876932,0.32264465,0.17828532,0.00503832,0.26929384,0.08254098,0.022287069,-0.073758535,-0.24880232,817.1429,807.8755,808.68134,820.7692,608.4249,-0.12890625,0.0521240234375,0.99969482421875,1.12152099609375,2.624359130859375,1.435546875,1,1.0,1.0,1.0,1.0,10.00
2024-10-11 20:21:41.048,0.52418166,1.3754667,0.9248945,0.331203,0.5819769,1.0794389,0.10330584,0.90752286,0.2765978,0.4419274,0.20382115,0.45876932,0.32264465,0.17828532,0.00503832,0.26929384,0.08254098,0.022287069,-0.073758535,-0.24880232,816.337,809.4872,794.57874,812.3077,849.7802,-0.12890625,0.0521240234375,0.99969482421875,1.12152099609375,2.624359130859375,1.435546875,1,1.0,1.0,1.0,1.0,10.00
2024-10-11 20:21:41.048,0.52418166,1.3754667,0.9248945,0.331203,0.5819769,1.0794389,0.10330584,0.90752286,0.2765978,0.4419274,0.20382115,0.45876932,0.32264465,0.17828532,0.00503832,0.26929384,0.08254098,0.022287069,-0.073758535,-0.24880232,799.81683,796.99634,796.99634,807.8755,981.53845,-0.12890625,0.0521240234375,0.99969482421875,1.12152099609375,2.624359130859375,1.435546875,1,1.0,1.0,1.0,1.0,10.00
2024-10-11 20:21:41.049,0.52418166,1.3754667,0.9248945,0.331203,0.5819769,1.0794389,0.10330584,0.90752286,0.2765978,0.4419274,0.20382115,0.45876932,0.32264465,0.17828532,0.00503832,0.26929384,0.08254098,0.022287069,-0.073758535,-0.24880232,791.3553,788.93774,798.60803,801.4286,909.41394,-0.12890625,0.0521240234375,0.99969482421875,1.12152099609375,2.624359130859375,1.435546875,1,1.0,1.0,1.0,1.0,10.00
2024-10-11 20:21:41.049,0.52418166,1.3754667,0.9248945,0.331203,0.5819769,1.0794389,0.10330584,0.90752286,0.2765978,0.4419274,0.20382115,0.45876932,0.32264465,0.17828532,0.00503832,0.26929384,0.08254098,0.022287069,-0.073758535,-0.24880232,796.99634,800.6227,793.36993,803.0403,770.40295,-0.12890625,0.0521240234375,0.99969482421875,1.12152099609375,2.624359130859375,1.435546875,1,1.0,1.0,1.0,1.0,10.00
2024-10-11 20:21:41.050,0.52418166,1.3754667,0.9248945,0.331203,0.5819769,1.0794389,0.10330584,0.90752286,0.2765978,0.4419274,0.20382115,0.45876932,0.32264465,0.17828532,0.00503832,0.26929384,0.08254098,0.022287069,-0.073758535,-0.24880232,798.60803,800.2198,805.05493,814.3223,1180.586,-0.12890625,0.0521240234375,0.99969482421875,1.12152099609375,2.624359130859375,1.435546875,1,1.0,1.0,1.0,1.0,10.00
2024-10-11 20:21:41.051,0.52418166,1.3754667,0.9248945,0.331203,0.5819769,1.0794389,0.10330584,0.90752286,0.2765978,0.4419274,0.20382115,0.45876932,0.32264465,0.17828532,0.00503832,0.26929384,0.08254098,0.022287069,-0.073758535,-0.24880232,793.7729,796.99634,803.0403,805.4579,1170.5128,-0.12890625,0.0521240234375,0.99969482421875,1.12152099609375,2.624359130859375,1.435546875,1,1.0,1.0,1.0,1.0,10.00
2024-10-11 20:21:41.051,0.52418166,1.3754667,0.9248945,0.331203,0.5819769,1.0794389,0.10330584,0.90752286,0.2765978,0.4419274,0.20382115,0.45876932,0.32264465,0.17828532,0.00503832,0.26929384,0.08254098,0.022287069,-0.073758535,-0.24880232,794.57874,795.38464,801.4286,798.20514,642.674,-0.12890625,0.0521240234375,0.99969482421875,1.12152099609375,2.624359130859375,1.435546875,1,1.0,1.0,1.0,1.0,10.00
2024-10-11 20:21:41.052,0.52418166,1.3754667,0.9248945,0.331203,0.5819769,1.0794389,0.10330584,0.90752286,0.2765978,0.4419274,0.20382115,0.45876932,0.32264465,0.17828532,0.00503832,0.26929384,0.08254098,0.022287069,-0.073758535,-0.24880232,802.6374,792.96704,803.0403,805.8608,693.0403,-0.12890625,0.0521240234375,0.99969482421875,1.12152099609375,2.624359130859375,1.435546875,1,1.0,1.0,1.0,1.0,10.00
2024-10-11 20:21:41.079,0.52418166,1.3754667,0.9248945,0.331203,0.5819769,1.0794389,0.10330584,0.90752286,0.2765978,0.4419274,0.20382115,0.45876932,0.32264465,0.17828532,0.00503832,0.26929384,0.08254098,0.022287069,-0.073758535,-0.24880232,806.6667,805.05493,804.2491,802.6374,807.47253,-0.13470458984375,0.04815673828125,1.00048828125,-0.40374755859375,3.66363525390625,3.648681640625,1,1.0,1.0,1.0,1.0,10.00
2024-10-11 20:21:41.080,0.52418166,1.3754667,0.9248945,0.331203,0.5819769,1.0794389,0.10330584,0.90752286,0.2765978,0.4419274,0.20382115,0.45876932,0.32264465,0.17828532,0.00503832,0.26929384,0.08254098,0.022287069,-0.073758535,-0.24880232,799.011,805.05493,800.6227,803.44324,716.4103,-0.13470458984375,0.04815673828125,1.00048828125,-0.40374755859375,3.66363525390625,3.648681640625,1,1.0,1.0,1.0,1.0,10.00
2024-10-11 20:21:41.081,0.52418166,1.3754667,0.9248945,0.331203,0.5819769,1.0794389,0.10330584,0.90752286,0.2765978,0.4419274,0.20382115,0.45876932,0.32264465,0.17828532,0.00503832,0.26929384,0.08254098,0.022287069,-0.073758535,-0.24880232,792.1612,798.60803,797.8022,799.41394,693.44324,-0.13470458984375,0.04815673828125,1.00048828125,-0.40374755859375,3.66363525390625,3.648681640625,1,1.0,1.0,1.0,1.0,10.00
2024-10-11 20:21:41.081,0.52418166,1.3754667,0.9248945,0.331203,0.5819769,1.0794389,0.10330584,0.90752286,0.2765978,0.4419274,0.20382115,0.45876932,0.32264465,0.17828532,0.00503832,0.26929384,0.08254098,0.022287069,-0.073758535,-0.24880232,799.81683,794.9817,802.23444,802.6374,643.8828,-0.13470458984375,0.04815673828125,1.00048828125,-0.40374755859375,3.66363525390625,3.648681640625,1,1.0,1.0,1.0,1.0,10.00
2024-10-11 20:21:41.082,0.52418166,1.3754667,0.9248945,0.331203,0.5819769,1.0794389,0.10330584,0.90752286,0.2765978,0.4419274,0.20382115,0.45876932,0.32264465,0.17828532,0.00503832,0.26929384,0.08254098,0.022287069,-0.073758535,-0.24880232,800.6227,791.3553,805.8608,808.68134,652.3443,-0.13470458984375,0.04815673828125,1.00048828125,-0.40374755859375,3.66363525390625,3.648681640625,1,1.0,1.0,1.0,1.0,10.00
2024-10-11 20:21:41.083,0.52418166,1.3754667,0.9248945,0.331203,0.5819769,1.0794389,0.10330584,0.90752286,0.2765978,0.4419274,0.20382115,0.45876932,0.32264465,0.17828532,0.00503832,0.26929384,0.08254098,0.022287069,-0.073758535,-0.24880232,802.23444,793.7729,806.26373,803.0403,788.5348,-0.13470458984375,0.04815673828125,1.00048828125,-0.40374755859375,3.66363525390625,3.648681640625,1,1.0,1.0,1.0,1.0,10.00
2024-10-11 20:21:41.083,0.52418166,1.3754667,0.9248945,0.331203,0.5819769,1.0794389,0.10330584,0.90752286,0.2765978,0.4419274,0.20382115,0.45876932,0.32264465,0.17828532,0.00503832,0.26929384,0.08254098,0.022287069,-0.073758535,-0.24880232,805.05493,799.011,805.4579,805.8608,799.41394,-0.13470458984375,0.04815673828125,1.00048828125,-0.40374755859375,3.66363525390625,3.648681640625,1,1.0,1.0,1.0,1.0,10.00
2024-10-11 20:21:41.084,0.52418166,1.3754667,0.9248945,0.331203,0.5819769,1.0794389,0.10330584,0.90752286,0.2765978,0.4419274,0.20382115,0.45876932,0.32264465,0.17828532,0.00503832,0.26929384,0.08254098,0.022287069,-0.073758535,-0.24880232,800.6227,799.011,806.26373,806.26373,973.8828,-0.13470458984375,0.04815673828125,1.00048828125,-0.40374755859375,3.66363525390625,3.648681640625,1,1.0,1.0,1.0,1.0,10.00
2024-10-11 20:21:41.084,0.52418166,1.3754667,0.9248945,0.331203,0.5819769,1.0794389,0.10330584,0.90752286,0.2765978,0.4419274,0.20382115,0.45876932,0.32264465,0.17828532,0.00503832,0.26929384,0.08254098,0.022287069,-0.073758535,-0.24880232,798.60803,792.96704,809.4872,807.8755,964.61536,-0.13470458984375,0.04815673828125,1.00048828125,-0.40374755859375,3.66363525390625,3.648681640625,1,1.0,1.0,1.0,1.0,10.00
2024-10-11 20:21:41.085,0.52418166,1.3754667,0.9248945,0.331203,0.5819769,1.0794389,0.10330584,0.90752286,0.2765978,0.4419274,0.20382115,0.45876932,0.32264465,0.17828532,0.00503832,0.26929384,0.08254098,0.022287069,-0.073758535,-0.24880232,805.05493,794.17584,802.6374,812.71063,729.707,-0.13470458984375,0.04815673828125,1.00048828125,-0.40374755859375,3.66363525390625,3.648681640625,1,1.0,1.0,1.0,1.0,10.00
2024-10-11 20:21:41.085,0.52418166,1.3754667,0.9248945,0.331203,0.5819769,1.0794389,0.10330584,0.90752286,0.2765978,0.4419274,0.20382115,0.45876932,0.32264465,0.17828532,0.00503832,0.26929384,0.08254098,0.022287069,-0.073758535,-0.24880232,807.8755,799.41394,806.6667,815.9341,674.5055,-0.13470458984375,0.04815673828125,1.00048828125,-0.40374755859375,3.66363525390625,3.648681640625,1,1.0,1.0,1.0,1.0,10.00
2024-10-11 20:21:41.086,0.52418166,1.3754667,0.8816602,0.331203,0.5819769,1.0794389,0.09581474,0.90752286,0.2765978,0.4419274,0.20379637,0.45876932,0.32264465,0.17828532,-0.019850845,0.26929384,0.08254098,0.022287069,-0.09002184,-0.24880232,802.23444,804.2491,815.9341,823.9927,929.5604,-0.13470458984375,0.04815673828125,1.00048828125,-0.40374755859375,3.66363525390625,3.648681640625,1,1.0,1.0,1.0,1.0,10.00
2024-10-11 20:21:41.112,0.52418166,1.3754667,0.8816602,0.331203,0.5819769,1.0794389,0.09581474,0.90752286,0.2765978,0.4419274,0.20379637,0.45876932,0.32264465,0.17828532,-0.019850845,0.26929384,0.08254098,0.022287069,-0.09002184,-0.24880232,793.7729,799.81683,808.2784,826.4103,1070.586,-0.1495361328125,0.04296875,0.9970703125,0.231781005859375,2.833709716796875,4.14215087890625,1,1.0,1.0,1.0,1.0,10.00
2024-10-11 20:21:41.113,0.52418166,1.3754667,0.8816602,0.331203,0.5819769,1.0794389,0.09581474,0.90752286,0.2765978,0.4419274,0.20379637,0.45876932,0.32264465,0.17828532,-0.019850845,0.26929384,0.08254098,0.022287069,-0.09002184,-0.24880232,794.17584,798.60803,804.65204,815.5311,712.381,-0.1495361328125,0.04296875,0.9970703125,0.231781005859375,2.833709716796875,4.14215087890625,1,1.0,1.0,1.0,1.0,10.00
2024-10-11 20:21:41.114,0.52418166,1.3754667,0.8816602,0.331203,0.5819769,1.0794389,0.09581474,0.90752286,0.2765978,0.4419274,0.20379637,0.45876932,0.32264465,0.17828532,-0.019850845,0.26929384,0.08254098,0.022287069,-0.09002184,-0.24880232,798.20514,799.81683,802.23444,808.2784,596.337,-0.1495361328125,0.04296875,0.9970703125,0.231781005859375,2.833709716796875,4.14215087890625,1,1.0,1.0,1.0,1.0,10.00
2024-10-11 20:21:41.114,0.52418166,1.3754667,0.8816602,0.331203,0.5819769,1.0794389,0.09581474,0.90752286,0.2765978,0.4419274,0.20379637,0.45876932,0.32264465,0.17828532,-0.019850845,0.26929384,0.08254098,0.022287069,-0.09002184,-0.24880232,796.5934,796.5934,799.41394,807.47253,634.61536,-0.1495361328125,0.04296875,0.9970703125,0.231781005859375,2.833709716796875,4.14215087890625,1,1.0,1.0,1.0,1.0,10.00
2024-10-11 20:21:41.115,0.52418166,1.3754667,0.8816602,0.331203,0.5819769,1.0794389,0.09581474,0.90752286,0.2765978,0.4419274,0.20379637,0.45876932,0.32264465,0.17828532,-0.019850845,0.26929384,0.08254098,0.022287069,-0.09002184,-0.24880232,793.7729,802.23444,801.8315,800.2198,655.56775,-0.1495361328125,0.04296875,0.9970703125,0.231781005859375,2.833709716796875,4.14215087890625,1,1.0,1.0,1.0,1.0,10.00
2024-10-11 20:21:41.116,0.52418166,1.3754667,0.8816602,0.331203,0.5819769,1.0794389,0.09581474,0.90752286,0.2765978,0.4419274,0.20379637,0.45876932,0.32264465,0.17828532,-0.019850845,0.26929384,0.08254098,0.022287069,-0.09002184,-0.24880232,796.5934,805.8608,799.41394,798.20514,800.6227,-0.1495361328125,0.04296875,0.9970703125,0.231781005859375,2.833709716796875,4.14215087890625,1,1.0,1.0,1.0,1.0,10.00
2024-10-11 20:21:41.116,0.52418166,1.3754667,0.8816602,0.331203,0.5819769,1.0794389,0.09581474,0.90752286,0.2765978,0.4419274,0.20379637,0.45876932,0.32264465,0.17828532,-0.019850845,0.26929384,0.08254098,0.022287069,-0.09002184,-0.24880232,801.8315,797.8022,792.5641,804.2491,960.989,-0.1495361328125,0.04296875,0.9970703125,0.231781005859375,2.833709716796875,4.14215087890625,1,1.0,1.0,1.0,1.0,10.00
2024-10-11 20:21:41.117,0.52418166,1.3754667,0.8816602,0.331203,0.5819769,1.0794389,0.09581474,0.90752286,0.2765978,0.4419274,0.20379637,0.45876932,0.32264465,0.17828532,-0.019850845,0.26929384,0.08254098,0.022287069,-0.09002184,-0.24880232,793.7729,788.93774,797.3993,800.6227,890.87915,-0.1495361328125,0.04296875,0.9970703125,0.231781005859375,2.833709716796875,4.14215087890625,1,1.0,1.0,1.0,1.0,10.00
2024-10-11 20:21:41.117,0.52418166,1.3754667,0.8816602,0.331203,0.5819769,1.0794389,0.09581474,0.90752286,0.2765978,0.4419274,0.20379637,0.45876932,0.32264465,0.17828532,-0.019850845,0.26929384,0.08254098,0.022287069,-0.09002184,-0.24880232,791.3553,794.17584,805.4579,796.99634,653.1502,-0.1495361328125,0.04296875,0.9970703125,0.231781005859375,2.833709716796875,4.14215087890625,1,1.0,1.0,1.0,1.0,10.00
2024-10-11 20:21:41.118,0.52418166,1.3754667,0.8816602,0.331203,0.5819769,1.0794389,0.09581474,0.90752286,0.2765978,0.4419274,0.20379637,0.45876932,0.32264465,0.17828532,-0.019850845,0.26929384,0.08254098,0.022287069,-0.09002184,-0.24880232,799.81683,807.8755,809.0842,805.05493,675.31134,-0.1495361328125,0.04296875,0.9970703125,0.231781005859375,2.833709716796875,4.14215087890625,1,1.0,1.0,1.0,1.0,10.00
2024-10-11 20:21:41.118,0.52418166,1.3754667,0.8816602,0.331203,0.5819769,1.0794389,0.09581474,0.90752286,0.2765978,0.4419274,0.20379637,0.45876932,0.32264465,0.17828532,-0.019850845,0.26929384,0.08254098,0.022287069,-0.09002184,-0.24880232,798.60803,805.05493,805.8608,809.0842,852.6007,-0.1495361328125,0.04296875,0.9970703125,0.231781005859375,2.833709716796875,4.14215087890625,1,1.0,1.0,1.0,1.0,10.00
2024-10-11 20:21:41.119,0.52418166,1.3754667,0.8816602,0.331203,0.5819769,1.0794389,0.09581474,0.90752286,0.2765978,0.4419274,0.20379637,0.45876932,0.32264465,0.17828532,-0.019850845,0.26929384,0.08254098,0.022287069,-0.09002184,-0.24880232,790.54944,796.1905,800.6227,805.05493,879.59705,-0.1495361328125,0.04296875,0.9970703125,0.231781005859375,2.833709716796875,4.14215087890625,1,1.0,1.0,1.0,1.0,10.00
2024-10-11 20:21:41.220,0.52418166,1.3754667,0.8816602,0.331203,0.5819769,1.0794389,0.09581474,0.90752286,0.2765978,0.4419274,0.20379637,0.45876932,0.32264465,0.17828532,-0.019850845,0.26929384,0.08254098,0.022287069,-0.09002184,-0.24880232,793.36993,796.99634,803.0403,801.02563,720.4396,-0.15203857421875,0.04119873046875,1.00189208984375,1.30096435546875,0.5682373046875,2.70660400390625,1,1.0,1.0,1.0,1.0,10.00
2024-10-11 20:21:41.221,0.52418166,1.3754667,0.8816602,0.331203,0.5819769,1.0794389,0.09581474,0.90752286,0.2765978,0.4419274,0.20379637,0.45876932,0.32264465,0.17828532,-0.019850845,0.26929384,0.08254098,0.022287069,-0.09002184,-0.24880232,797.3993,794.9817,804.65204,803.0403,627.3626,-0.15203857421875,0.04119873046875,1.00189208984375,1.30096435546875,0.5682373046875,2.70660400390625,1,1.0,1.0,1.0,1.0,10.00
2024-10-11 20:21:41.222,0.52418166,1.3754667,0.8816602,0.331203,0.5819769,1.0794389,0.09581474,0.90752286,0.2765978,0.4419274,0.20379637,0.45876932,0.32264465,0.17828532,-0.019850845,0.26929384,0.08254098,0.022287069,-0.09002184,-0.24880232,801.02563,801.8315,805.05493,802.6374,838.0952,-0.15203857421875,0.04119873046875,1.00189208984375,1.30096435546875,0.5682373046875,2.70660400390625,1,1.0,1.0,1.0,1.0,10.00
2024-10-11 20:21:41.223,0.52418166,1.3754667,0.8816602,0.331203,0.5819769,1.0794389,0.09581474,0.90752286,0.2765978,0.4419274,0.20379637,0.45876932,0.32264465,0.17828532,-0.019850845,0.26929384,0.08254098,0.022287069,-0.09002184,-0.24880232,812.71063,802.23444,794.17584,812.71063,1120.9524,-0.15203857421875,0.04119873046875,1.00189208984375,1.30096435546875,0.5682373046875,2.70660400390625,1,1.0,1.0,1.0,1.0,10.00
2024-10-11 20:21:41.224,0.52418166,1.3754667,0.8816602,0.331203,0.5819769,1.0794389,0.09581474,0.90752286,0.2765978,0.4419274,0.20379637,0.45876932,0.32264465,0.17828532,-0.019850845,0.26929384,0.08254098,0.022287069,-0.09002184,-0.24880232,810.696,799.81683,799.41394,817.9487,845.34796,-0.15203857421875,0.04119873046875,1.00189208984375,1.30096435546875,0.5682373046875,2.70660400390625,1,1.0,1.0,1.0,1.0,10.00
2024-10-11 20:21:41.224,0.52418166,1.3754667,0.8816602,0.331203,0.5819769,1.0794389,0.09581474,0.90752286,0.2765978,0.4419274,0.20379637,0.45876932,0.32264465,0.17828532,-0.019850845,0.26929384,0.08254098,0.022287069,-0.09002184,-0.24880232,799.81683,796.1905,809.4872,808.68134,552.4176,-0.15203857421875,0.04119873046875,1.00189208984375,1.30096435546875,0.5682373046875,2.70660400390625,1,1.0,1.0,1.0,1.0,10.00
2024-10-11 20:21:41.225,0.52418166,1.3754667,0.8816602,0.331203,0.5819769,1.0794389,0.09581474,0.90752286,0.2765978,0.4419274,0.20379637,0.45876932,0.32264465,0.17828532,-0.019850845,0.26929384,0.08254098,0.022287069,-0.09002184,-0.24880232,801.8315,795.38464,805.4579,810.293,938.8278,-0.15203857421875,0.04119873046875,1.00189208984375,1.30096435546875,0.5682373046875,2.70660400390625,1,1.0,1.0,1.0,1.0,10.00
2024-10-11 20:21:41.226,0.52418166,1.3754667,0.8816602,0.331203,0.5819769,1.0794389,0.09581474,0.90752286,0.2765978,0.4419274,0.20379637,0.45876932,0.32264465,0.17828532,-0.019850845,0.26929384,0.08254098,0.022287069,-0.09002184,-0.24880232,810.696,801.02563,804.2491,809.4872,1148.3517,-0.15203857421875,0.04119873046875,1.00189208984375,1.30096435546875,0.5682373046875,2.70660400390625,1,1.0,1.0,1.0,1.0,10.00
2024-10-11 20:21:41.226,0.52418166,1.3754667,0.8816602,0.331203,0.5819769,1.0794389,0.09581474,0.90752286,0.2765978,0.4419274,0.20379637,0.45876932,0.32264465,0.17828532,-0.019850845,0.26929384,0.08254098,0.022287069,-0.09002184,-0.24880232,810.696,805.05493,803.8461,803.8461,707.5458,-0.15203857421875,0.04119873046875,1.00189208984375,1.30096435546875,0.5682373046875,2.70660400390625,1,1.0,1.0,1.0,1.0,10.00
2024-10-11 20:21:41.227,0.52418166,1.3754667,0.8816602,0.331203,0.5819769,1.0794389,0.09581474,0.90752286,0.2765978,0.4419274,0.20379637,0.45876932,0.32264465,0.17828532,-0.019850845,0.26929384,0.08254098,0.022287069,-0.09002184,-0.24880232,806.6667,800.6227,803.8461,799.81683,557.6557,-0.15203857421875,0.04119873046875,1.00189208984375,1.30096435546875,0.5682373046875,2.70660400390625,1,1.0,1.0,1.0,1.0,10.00
2024-10-11 20:21:41.228,0.52418166,1.3754667,0.8816602,0.331203,0.5819769,1.0794389,0.09581474,0.90752286,0.2765978,0.4419274,0.20379637,0.45876932,0.32264465,0.17828532,-0.019850845,0.26929384,0.08254098,0.022287069,-0.09002184,-0.24880232,809.0842,800.2198,802.6374,795.38464,706.337,-0.15203857421875,0.04119873046875,1.00189208984375,1.30096435546875,0.5682373046875,2.70660400390625,1,1.0,1.0,1.0,1.0,10.00
2024-10-11 20:21:41.229,0.52418166,1.3754667,0.8816602,0.331203,0.5819769,1.0794389,0.09581474,0.90752286,0.2765978,0.4419274,0.20379637,0.45876932,0.32264465,0.17828532,-0.019850845,0.26929384,0.08254098,0.022287069,-0.09002184,-0.24880232,809.4872,799.41394,799.011,797.3993,707.1429,-0.15203857421875,0.04119873046875,1.00189208984375,1.30096435546875,0.5682373046875,2.70660400390625,1,1.0,1.0,1.0,1.0,10.00
2024-10-11 20:21:41.229,0.52418166,1.3754667,0.8816602,0.331203,0.5819769,1.0794389,0.09581474,0.90752286,0.2765978,0.4419274,0.20379637,0.45876932,0.32264465,0.17828532,-0.019850845,0.26929384,0.08254098,0.022287069,-0.09002184,-0.24880232,812.71063,803.0403,792.1612,797.3993,610.4396,-0.15203857421875,0.04119873046875,1.00189208984375,1.30096435546875,0.5682373046875,2.70660400390625,1,1.0,1.0,1.0,1.0,10.00
2024-10-11 20:21:41.230,0.52418166,1.3754667,0.844095,0.331203,0.5819769,1.0794389,0.08459765,0.90752286,0.2765978,0.4419274,0.20295933,0.45876932,0.32264465,0.17828532,-0.040078513,0.26929384,0.08254098,0.022287069,-0.0986799,-0.24880232,816.337,804.2491,796.5934,797.8022,602.381,-0.15203857421875,0.04119873046875,1.00189208984375,1.30096435546875,0.5682373046875,2.70660400390625,1,1.0,1.0,1.0,1.0,10.00
2024-10-11 20:21:41.235,0.52418166,1.3754667,0.844095,0.331203,0.5819769,1.0794389,0.08459765,0.90752286,0.2765978,0.4419274,0.20295933,0.45876932,0.32264465,0.17828532,-0.040078513,0.26929384,0.08254098,0.022287069,-0.0986799,-0.24880232,809.4872,801.4286,800.6227,798.60803,684.17584,-0.15203857421875,0.04119873046875,1.00189208984375,1.30096435546875,0.5682373046875,2.70660400390625,1,1.0,1.0,1.0,1.0,10.00
2024-10-11 20:21:41.236,0.52418166,1.3754667,0.844095,0.331203,0.5819769,1.0794389,0.08459765,0.90752286,0.2765978,0.4419274,0.20295933,0.45876932,0.32264465,0.17828532,-0.040078513,0.26929384,0.08254098,0.022287069,-0.0986799,-0.24880232,803.8461,804.2491,795.78754,796.1905,753.47986,-0.15203857421875,0.04119873046875,1.00189208984375,1.30096435546875,0.5682373046875,2.70660400390625,1,1.0,1.0,1.0,1.0,10.00
2024-10-11 20:21:41.237,0.52418166,1.3754667,0.844095,0.331203,0.5819769,1.0794389,0.08459765,0.90752286,0.2765978,0.4419274,0.20295933,0.45876932,0.32264465,0.17828532,-0.040078513,0.26929384,0.08254098,0.022287069,-0.0986799,-0.24880232,802.6374,792.5641,801.4286,801.02563,788.93774,-0.15203857421875,0.04119873046875,1.00189208984375,1.30096435546875,0.5682373046875,2.70660400390625,1,1.0,1.0,1.0,1.0,10.00
2024-10-11 20:21:41.238,0.52418166,1.3754667,0.844095,0.331203,0.5819769,1.0794389,0.08459765,0.90752286,0.2765978,0.4419274,0.20295933,0.45876932,0.32264465,0.17828532,-0.040078513,0.26929384,0.08254098,0.022287069,-0.0986799,-0.24880232,804.2491,790.14655,808.68134,801.4286,871.53845,-0.15203857421875,0.04119873046875,1.00189208984375,1.30096435546875,0.5682373046875,2.70660400390625,1,1.0,1.0,1.0,1.0,10.00
2024-10-11 20:21:41.239,0.52418166,1.3754667,0.844095,0.331203,0.5819769,1.0794389,0.08459765,0.90752286,0.2765978,0.4419274,0.20295933,0.45876932,0.32264465,0.17828532,-0.040078513,0.26929384,0.08254098,0.022287069,-0.0986799,-0.24880232,797.3993,805.05493,801.4286,794.9817,907.8022,-0.15203857421875,0.04119873046875,1.00189208984375,1.30096435546875,0.5682373046875,2.70660400390625,1,1.0,1.0,1.0,1.0,10.00
2024-10-11 20:21:41.239,0.52418166,1.3754667,0.844095,0.331203,0.5819769,1.0794389,0.08459765,0.90752286,0.2765978,0.4419274,0.20295933,0.45876932,0.32264465,0.17828532,-0.040078513,0.26929384,0.08254098,0.022287069,-0.0986799,-0.24880232,796.5934,804.2491,803.0403,805.05493,848.5714,-0.15203857421875,0.04119873046875,1.00189208984375,1.30096435546875,0.5682373046875,2.70660400390625,1,1.0,1.0,1.0,1.0,10.00
2024-10-11 20:21:41.240,0.52418166,1.3754667,0.844095,0.331203,0.5819769,1.0794389,0.08459765,0.90752286,0.2765978,0.4419274,0.20295933,0.45876932,0.32264465,0.17828532,-0.040078513,0.26929384,0.08254098,0.022287069,-0.0986799,-0.24880232,810.293,794.9817,802.6374,804.65204,744.21246,-0.15203857421875,0.04119873046875,1.00189208984375,1.30096435546875,0.5682373046875,2.70660400390625,1,1.0,1.0,1.0,1.0,10.00
2024-10-11 20:21:41.241,0.52418166,1.3754667,0.844095,0.331203,0.5819769,1.0794389,0.08459765,0.90752286,0.2765978,0.4419274,0.20295933,0.45876932,0.32264465,0.17828532,-0.040078513,0.26929384,0.08254098,0.022287069,-0.0986799,-0.24880232,805.05493,792.1612,794.9817,797.8022,753.0769,-0.15203857421875,0.04119873046875,1.00189208984375,1.30096435546875,0.5682373046875,2.70660400390625,1,1.0,1.0,1.0,1.0,10.00
2024-10-11 20:21:41.241,0.52418166,1.3754667,0.844095,0.331203,0.5819769,1.0794389,0.08459765,0.90752286,0.2765978,0.4419274,0.20295933,0.45876932,0.32264465,0.17828532,-0.040078513,0.26929384,0.08254098,0.022287069,-0.0986799,-0.24880232,796.5934,799.011,805.05493,801.4286,887.6557,-0.15203857421875,0.04119873046875,1.00189208984375,1.30096435546875,0.5682373046875,2.70660400390625,1,1.0,1.0,1.0,1.0,10.00
2024-10-11 20:21:41.242,0.52418166,1.3754667,0.844095,0.331203,0.5819769,1.0794389,0.08459765,0.90752286,0.2765978,0.4419274,0.20295933,0.45876932,0.32264465,0.17828532,-0.040078513,0.26929384,0.08254098,0.022287069,-0.0986799,-0.24880232,803.44324,800.6227,807.8755,801.02563,791.75824,-0.15203857421875,0.04119873046875,1.00189208984375,1.30096435546875,0.5682373046875,2.70660400390625,1,1.0,1.0,1.0,1.0,10.00
2024-10-11 20:21:41.269,0.52418166,1.3754667,0.844095,0.331203,0.5819769,1.0794389,0.08459765,0.90752286,0.2765978,0.4419274,0.20295933,0.45876932,0.32264465,0.17828532,-0.040078513,0.26929384,0.08254098,0.022287069,-0.0986799,-0.24880232,810.293,803.8461,810.293,806.26373,688.60803,-0.155029296875,0.0350341796875,0.9881591796875,1.757049560546875,-0.37384033203125,-0.67291259765625,1,1.0,1.0,1.0,1.0,10.00
2024-10-11 20:21:41.270,0.52418166,1.3754667,0.844095,0.331203,0.5819769,1.0794389,0.08459765,0.90752286,0.2765978,0.4419274,0.20295933,0.45876932,0.32264465,0.17828532,-0.040078513,0.26929384,0.08254098,0.022287069,-0.0986799,-0.24880232,802.6374,807.0696,808.2784,813.5165,778.86444,-0.155029296875,0.0350341796875,0.9881591796875,1.757049560546875,-0.37384033203125,-0.67291259765625,1,1.0,1.0,1.0,1.0,10.00
2024-10-11 20:21:41.271,0.52418166,1.3754667,0.844095,0.331203,0.5819769,1.0794389,0.08459765,0.90752286,0.2765978,0.4419274,0.20295933,0.45876932,0.32264465,0.17828532,-0.040078513,0.26929384,0.08254098,0.022287069,-0.0986799,-0.24880232,794.9817,797.3993,802.23444,810.696,817.9487,-0.155029296875,0.0350341796875,0.9881591796875,1.757049560546875,-0.37384033203125,-0.67291259765625,1,1.0,1.0,1.0,1.0,10.00
2024-10-11 20:21:41.272,0.52418166,1.3754667,0.844095,0.331203,0.5819769,1.0794389,0.08459765,0.90752286,0.2765978,0.4419274,0.20295933,0.45876932,0.32264465,0.17828532,-0.040078513,0.26929384,0.08254098,0.022287069,-0.0986799,-0.24880232,797.8022,791.75824,805.4579,811.0989,774.43225,-0.155029296875,0.0350341796875,0.9881591796875,1.757049560546875,-0.37384033203125,-0.67291259765625,1,1.0,1.0,1.0,1.0,10.00
2024-10-11 20:21:41.272,0.52418166,1.3754667,0.844095,0.331203,0.5819769,1.0794389,0.08459765,0.90752286,0.2765978,0.4419274,0.20295933,0.45876932,0.32264465,0.17828532,-0.040078513,0.26929384,0.08254098,0.022287069,-0.0986799,-0.24880232,796.1905,788.93774,801.4286,809.89014,706.337,-0.155029296875,0.0350341796875,0.9881591796875,1.757049560546875,-0.37384033203125,-0.67291259765625,1,1.0,1.0,1.0,1.0,10.00
2024-10-11 20:21:41.273,0.52418166,1.3754667,0.844095,0.331203,0.5819769,1.0794389,0.08459765,0.90752286,0.2765978,0.4419274,0.20295933,0.45876932,0.32264465,0.17828532,-0.040078513,0.26929384,0.08254098,0.022287069,-0.0986799,-0.24880232,793.36993,791.75824,796.99634,807.47253,860.65936,-0.155029296875,0.0350341796875,0.9881591796875,1.757049560546875,-0.37384033203125,-0.67291259765625,1,1.0,1.0,1.0,1.0,10.00
2024-10-11 20:21:41.274,0.52418166,1.3754667,0.844095,0.331203,0.5819769,1.0794389,0.08459765,0.90752286,0.2765978,0.4419274,0.20295933,0.45876932,0.32264465,0.17828532,-0.040078513,0.26929384,0.08254098,0.022287069,-0.0986799,-0.24880232,799.81683,799.011,801.02563,805.05493,1043.9927,-0.155029296875,0.0350341796875,0.9881591796875,1.757049560546875,-0.37384033203125,-0.67291259765625,1,1.0,1.0,1.0,1.0,10.00
2024-10-11 20:21:41.275,0.52418166,1.3754667,0.844095,0.331203,0.5819769,1.0794389,0.08459765,0.90752286,0.2765978,0.4419274,0.20295933,0.45876932,0.32264465,0.17828532,-0.040078513,0.26929384,0.08254098,0.022287069,-0.0986799,-0.24880232,796.99634,800.6227,796.1905,796.99634,790.54944,-0.155029296875,0.0350341796875,0.9881591796875,1.757049560546875,-0.37384033203125,-0.67291259765625,1,1.0,1.0,1.0,1.0,10.00
2024-10-11 20:21:41.275,0.52418166,1.3754667,0.844095,0.331203,0.5819769,1.0794389,0.08459765,0.90752286,0.2765978,0.4419274,0.20295933,0.45876932,0.32264465,0.17828532,-0.040078513,0.26929384,0.08254098,0.022287069,-0.0986799,-0.24880232,793.7729,796.99634,794.57874,800.6227,658.3883,-0.155029296875,0.0350341796875,0.9881591796875,1.757049560546875,-0.37384033203125,-0.67291259765625,1,1.0,1.0,1.0,1.0,10.00
2024-10-11 20:21:41.276,0.52418166,1.3754667,0.844095,0.331203,0.5819769,1.0794389,0.08459765,0.90752286,0.2765978,0.4419274,0.20295933,0.45876932,0.32264465,0.17828532,-0.040078513,0.26929384,0.08254098,0.022287069,-0.0986799,-0.24880232,796.1905,798.20514,802.23444,804.65204,775.2381,-0.155029296875,0.0350341796875,0.9881591796875,1.757049560546875,-0.37384033203125,-0.67291259765625,1,1.0,1.0,1.0,1.0,10.00
2024-10-11 20:21:41.277,0.52418166,1.3754667,0.844095,0.331203,0.5819769,1.0794389,0.08459765,0.90752286,0.2765978,0.4419274,0.20295933,0.45876932,0.32264465,0.17828532,-0.040078513,0.26929384,0.08254098,0.022287069,-0.0986799,-0.24880232,790.54944,797.8022,804.65204,809.0842,1218.8645,-0.155029296875,0.0350341796875,0.9881591796875,1.757049560546875,-0.37384033203125,-0.67291259765625,1,1.0,1.0,1.0,1.0,10.00
2024-10-11 20:21:41.278,0.52418166,1.3754667,0.844095,0.331203,0.5819769,1.0794389,0.08459765,0.90752286,0.2765978,0.4419274,0.20295933,0.45876932,0.32264465,0.17828532,-0.040078513,0.26929384,0.08254098,0.022287069,-0.0986799,-0.24880232,791.3553,797.8022,804.65204,810.293,1238.2051,-0.155029296875,0.0350341796875,0.9881591796875,1.757049560546875,-0.37384033203125,-0.67291259765625,1,1.0,1.0,1.0,1.0,10.00
2024-10-11 20:21:41.304,0.52418166,1.3754667,0.844095,0.331203,0.5819769,1.0794389,0.08459765,0.90752286,0.2765978,0.4419274,0.20295933,0.45876932,0.32264465,0.17828532,-0.040078513,0.26929384,0.08254098,0.022287069,-0.0986799,-0.24880232,793.7729,804.2491,807.0696,804.65204,830.84247,-0.143798828125,0.04248046875,0.991455078125,4.3365478515625,-1.951446533203125,-2.714080810546875,1,1.0,1.0,1.0,1.0,10.00
2024-10-11 20:21:41.305,0.52418166,1.3754667,0.844095,0.331203,0.5819769,1.0794389,0.08459765,0.90752286,0.2765978,0.4419274,0.20295933,0.45876932,0.32264465,0.17828532,-0.040078513,0.26929384,0.08254098,0.022287069,-0.0986799,-0.24880232,794.17584,803.8461,809.0842,801.4286,771.6117,-0.143798828125,0.04248046875,0.991455078125,4.3365478515625,-1.951446533203125,-2.714080810546875,1,1.0,1.0,1.0,1.0,10.00
2024-10-11 20:21:41.306,0.52418166,1.3754667,0.844095,0.331203,0.5819769,1.0794389,0.08459765,0.90752286,0.2765978,0.4419274,0.20295933,0.45876932,0.32264465,0.17828532,-0.040078513,0.26929384,0.08254098,0.022287069,-0.0986799,-0.24880232,791.75824,798.60803,803.0403,792.5641,713.5897,-0.143798828125,0.04248046875,0.991455078125,4.3365478515625,-1.951446533203125,-2.714080810546875,1,1.0,1.0,1.0,1.0,10.00
2024-10-11 20:21:41.307,0.52418166,-0.19460008,0.8192399,0.331203,0.5819769,-0.06843669,0.067189686,0.90752286,0.2765978,-0.0063233017,0.20040815,0.45876932,0.32264465,0.38795486,-0.05304247,0.26929384,0.08254098,0.11702376,-0.10399375,-0.24880232,790.14655,799.81683,801.02563,784.5055,601.978,-0.143798828125,0.04248046875,0.991455078125,4.3365478515625,-1.951446533203125,-2.714080810546875,1,1.0,1.0,1.0,1.0,10.00
2024-10-11 20:21:41.312,0.52418166,-0.19460008,0.8192399,0.331203,0.5819769,-0.06843669,0.067189686,0.90752286,0.2765978,-0.0063233017,0.20040815,0.45876932,0.32264465,0.38795486,-0.05304247,0.26929384,0.08254098,0.11702376,-0.10399375,-0.24880232,801.8315,801.02563,805.8608,790.9524,679.7436,-0.143798828125,0.04248046875,0.991455078125,4.3365478515625,-1.951446533203125,-2.714080810546875,1,1.0,1.0,1.0,1.0,10.00
2024-10-11 20:21:41.313,0.52418166,-0.19460008,0.8192399,0.331203,0.5819769,-0.06843669,0.067189686,0.90752286,0.2765978,-0.0063233017,0.20040815,0.45876932,0.32264465,0.38795486,-0.05304247,0.26929384,0.08254098,0.11702376,-0.10399375,-0.24880232,792.1612,802.6374,808.2784,784.10254,878.3883,-0.143798828125,0.04248046875,0.991455078125,4.3365478515625,-1.951446533203125,-2.714080810546875,1,1.0,1.0,1.0,1.0,10.00
2024-10-11 20:21:41.314,0.52418166,-0.19460008,0.8192399,0.331203,0.5819769,-0.06843669,0.067189686,0.90752286,0.2765978,-0.0063233017,0.20040815,0.45876932,0.32264465,0.38795486,-0.05304247,0.26929384,0.08254098,0.11702376,-0.10399375,-0.24880232,786.1172,804.65204,805.8608,774.0293,840.9158,-0.143798828125,0.04248046875,0.991455078125,4.3365478515625,-1.951446533203125,-2.714080810546875,1,1.0,1.0,1.0,1.0,10.00
2024-10-11 20:21:41.314,0.52418166,-0.19460008,0.8192399,0.331203,0.5819769,-0.06843669,0.067189686,0.90752286,0.2765978,-0.0063233017,0.20040815,0.45876932,0.32264465,0.38795486,-0.05304247,0.26929384,0.08254098,0.11702376,-0.10399375,-0.24880232,783.69965,798.60803,796.5934,775.2381,658.7912,-0.143798828125,0.04248046875,0.991455078125,4.3365478515625,-1.951446533203125,-2.714080810546875,1,1.0,1.0,1.0,1.0,10.00
2024-10-11 20:21:41.315,0.52418166,-0.19460008,0.8192399,0.331203,0.5819769,-0.06843669,0.067189686,0.90752286,0.2765978,-0.0063233017,0.20040815,0.45876932,0.32264465,0.38795486,-0.05304247,0.26929384,0.08254098,0.11702376,-0.10399375,-0.24880232,770.40295,800.2198,791.75824,767.5824,623.3333,-0.143798828125,0.04248046875,0.991455078125,4.3365478515625,-1.951446533203125,-2.714080810546875,1,1.0,1.0,1.0,1.0,10.00
2024-10-11 20:21:41.316,0.52418166,-0.19460008,0.8192399,0.331203,0.5819769,-0.06843669,0.067189686,0.90752286,0.2765978,-0.0063233017,0.20040815,0.45876932,0.32264465,0.38795486,-0.05304247,0.26929384,0.08254098,0.11702376,-0.10399375,-0.24880232,763.95605,810.696,803.8461,779.67035,987.5824,-0.143798828125,0.04248046875,0.991455078125,4.3365478515625,-1.951446533203125,-2.714080810546875,1,1.0,1.0,1.0,1.0,10.00
2024-10-11 20:21:41.316,0.52418166,-0.19460008,0.8192399,0.331203,0.5819769,-0.06843669,0.067189686,0.90752286,0.2765978,-0.0063233017,0.20040815,0.45876932,0.32264465,0.38795486,-0.05304247,0.26929384,0.08254098,0.11702376,-0.10399375,-0.24880232,757.1062,816.337,822.7839,785.31134,944.4689,-0.143798828125,0.04248046875,0.991455078125,4.3365478515625,-1.951446533203125,-2.714080810546875,1,1.0,1.0,1.0,1.0,10.00
2024-10-11 20:21:41.317,0.52418166,-0.19460008,0.8192399,0.331203,0.5819769,-0.06843669,0.067189686,0.90752286,0.2765978,-0.0063233017,0.20040815,0.45876932,0.32264465,0.38795486,-0.05304247,0.26929384,0.08254098,0.11702376,-0.10399375,-0.24880232,743.8095,818.7546,810.293,763.5531,619.707,-0.143798828125,0.04248046875,0.991455078125,4.3365478515625,-1.951446533203125,-2.714080810546875,1,1.0,1.0,1.0,1.0,10.00
2024-10-11 20:21:41.405,0.52418166,-0.19460008,0.8192399,0.331203,0.5819769,-0.06843669,0.067189686,0.90752286,0.2765978,-0.0063233017,0.20040815,0.45876932,0.32264465,0.38795486,-0.05304247,0.26929384,0.08254098,0.11702376,-0.10399375,-0.24880232,737.3626,814.7253,808.68134,757.50916,748.6447,-0.12896728515625,0.057861328125,0.98980712890625,6.44500732421875,-2.130889892578125,-2.811279296875,1,1.0,1.0,1.0,1.0,10.00
2024-10-11 20:21:41.406,0.52418166,-0.19460008,0.8192399,0.331203,0.5819769,-0.06843669,0.067189686,0.90752286,0.2765978,-0.0063233017,0.20040815,0.45876932,0.32264465,0.38795486,-0.05304247,0.26929384,0.08254098,0.11702376,-0.10399375,-0.24880232,739.7802,818.7546,816.7399,765.56775,938.4249,-0.12896728515625,0.057861328125,0.98980712890625,6.44500732421875,-2.130889892578125,-2.811279296875,1,1.0,1.0,1.0,1.0,10.00
2024-10-11 20:21:41.407,0.52418166,-0.19460008,0.8192399,0.331203,0.5819769,-0.06843669,0.067189686,0.90752286,0.2765978,-0.0063233017,0.20040815,0.45876932,0.32264465,0.38795486,-0.05304247,0.26929384,0.08254098,0.11702376,-0.10399375,-0.24880232,729.707,828.022,815.9341,757.1062,717.619,-0.12896728515625,0.057861328125,0.98980712890625,6.44500732421875,-2.130889892578125,-2.811279296875,1,1.0,1.0,1.0,1.0,10.00
2024-10-11 20:21:41.408,0.52418166,-0.19460008,0.8192399,0.331203,0.5819769,-0.06843669,0.067189686,0.90752286,0.2765978,-0.0063233017,0.20040815,0.45876932,0.32264465,0.38795486,-0.05304247,0.26929384,0.08254098,0.11702376,-0.10399375,-0.24880232,706.7399,825.2015,822.7839,740.58606,520.58606,-0.12896728515625,0.057861328125,0.98980712890625,6.44500732421875,-2.130889892578125,-2.811279296875,1,1.0,1.0,1.0,1.0,10.00
2024-10-11 20:21:41.409,0.52418166,-0.19460008,0.8192399,0.331203,0.5819769,-0.06843669,0.067189686,0.90752286,0.2765978,-0.0063233017,0.20040815,0.45876932,0.32264465,0.38795486,-0.05304247,0.26929384,0.08254098,0.11702376,-0.10399375,-0.24880232,716.8132,830.0366,823.5897,740.58606,652.3443,-0.12896728515625,0.057861328125,0.98980712890625,6.44500732421875,-2.130889892578125,-2.811279296875,1,1.0,1.0,1.0,1.0,10.00
2024-10-11 20:21:41.409,0.52418166,-0.19460008,0.8192399,0.331203,0.5819769,-0.06843669,0.067189686,0.90752286,0.2765978,-0.0063233017,0.20040815,0.45876932,0.32264465,0.38795486,-0.05304247,0.26929384,0.08254098,0.11702376,-0.10399375,-0.24880232,725.2747,845.34796,813.1135,735.7509,852.6007,-0.12896728515625,0.057861328125,0.98980712890625,6.44500732421875,-2.130889892578125,-2.811279296875,1,1.0,1.0,1.0,1.0,10.00
2024-10-11 20:21:41.410,0.52418166,-0.19460008,0.8192399,0.331203,0.5819769,-0.06843669,0.067189686,0.90752286,0.2765978,-0.0063233017,0.20040815,0.45876932,0.32264465,0.38795486,-0.05304247,0.26929384,0.08254098,0.11702376,-0.10399375,-0.24880232,716.4103,846.9597,805.8608,728.49817,803.44324,-0.12896728515625,0.057861328125,0.98980712890625,6.44500732421875,-2.130889892578125,-2.811279296875,1,1.0,1.0,1.0,1.0,10.00
2024-10-11 20:21:41.411,0.52418166,-0.19460008,0.8192399,0.331203,0.5819769,-0.06843669,0.067189686,0.90752286,0.2765978,-0.0063233017,0.20040815,0.45876932,0.32264465,0.38795486,-0.05304247,0.26929384,0.08254098,0.11702376,-0.10399375,-0.24880232,712.381,841.31866,816.7399,726.8865,579.41394,-0.12896728515625,0.057861328125,0.98980712890625,6.44500732421875,-2.130889892578125,-2.811279296875,1,1.0,1.0,1.0,1.0,10.00
2024-10-11 20:21:41.411,0.52418166,-0.19460008,0.8192399,0.331203,0.5819769,-0.06843669,0.067189686,0.90752286,0.2765978,-0.0063233017,0.20040815,0.45876932,0.32264465,0.38795486,-0.05304247,0.26929384,0.08254098,0.11702376,-0.10399375,-0.24880232,699.0842,839.707,815.12823,719.2308,683.7729,-0.12896728515625,0.057861328125,0.98980712890625,6.44500732421875,-2.130889892578125,-2.811279296875,1,1.0,1.0,1.0,1.0,10.00
2024-10-11 20:21:41.412,0.52418166,-0.19460008,0.8192399,0.331203,0.5819769,-0.06843669,0.067189686,0.90752286,0.2765978,-0.0063233017,0.20040815,0.45876932,0.32264465,0.38795486,-0.05304247,0.26929384,0.08254098,0.11702376,-0.10399375,-0.24880232,701.0989,831.2454,812.71063,726.08057,961.39197,-0.12896728515625,0.057861328125,0.98980712890625,6.44500732421875,-2.130889892578125,-2.811279296875,1,1.0,1.0,1.0,1.0,10.00
2024-10-11 20:21:41.413,0.52418166,-0.19460008,0.8192399,0.331203,0.5819769,-0.06843669,0.067189686,0.90752286,0.2765978,-0.0063233017,0.20040815,0.45876932,0.32264465,0.38795486,-0.05304247,0.26929384,0.08254098,0.11702376,-0.10399375,-0.24880232,710.3663,830.0366,813.1135,726.4835,740.58606,-0.12896728515625,0.057861328125,0.98980712890625,6.44500732421875,-2.130889892578125,-2.811279296875,1,1.0,1.0,1.0,1.0,10.00
2024-10-11 20:21:41.413,0.52418166,-0.19460008,0.8192399,0.331203,0.5819769,-0.06843669,0.067189686,0.90752286,0.2765978,-0.0063233017,0.20040815,0.45876932,0.32264465,0.38795486,-0.05304247,0.26929384,0.08254098,0.11702376,-0.10399375,-0.24880232,714.7985,847.3626,812.3077,713.9927,526.63007,-0.12896728515625,0.057861328125,0.98980712890625,6.44500732421875,-2.130889892578125,-2.811279296875,1,1.0,1.0,1.0,1.0,10.00
2024-10-11 20:21:41.415,0.52418166,-0.19460008,0.8192399,0.331203,0.5819769,-0.06843669,0.067189686,0.90752286,0.2765978,-0.0063233017,0.20040815,0.45876932,0.32264465,0.38795486,-0.05304247,0.26929384,0.08254098,0.11702376,-0.10399375,-0.24880232,726.4835,855.42126,814.7253,710.7692,521.39197,-0.1298828125,0.09027099609375,1.0135498046875,6.998291015625,-0.456085205078125,0.76263427734375,1,1.0,1.0,1.0,1.0,10.00
2024-10-11 20:21:41.415,0.52418166,-0.19460008,0.8192399,0.331203,0.5819769,-0.06843669,0.067189686,0.90752286,0.2765978,-0.0063233017,0.20040815,0.45876932,0.32264465,0.38795486,-0.05304247,0.26929384,0.08254098,0.11702376,-0.10399375,-0.24880232,739.7802,843.73627,813.5165,726.08057,668.0586,-0.1298828125,0.09027099609375,1.0135498046875,6.998291015625,-0.456085205078125,0.76263427734375,1,1.0,1.0,1.0,1.0,10.00
2024-10-11 20:21:41.416,0.52418166,-0.19460008,0.8192399,0.331203,0.5819769,-0.06843669,0.067189686,0.90752286,0.2765978,-0.0063233017,0.20040815,0.45876932,0.32264465,0.38795486,-0.05304247,0.26929384,0.08254098,0.11702376,-0.10399375,-0.24880232,733.73627,830.84247,816.7399,738.1685,676.52014,-0.1298828125,0.09027099609375,1.0135498046875,6.998291015625,-0.456085205078125,0.76263427734375,1,1.0,1.0,1.0,1.0,10.00
2024-10-11 20:21:41.417,0.52418166,-0.19460008,0.8192399,0.331203,0.5819769,-0.06843669,0.067189686,0.90752286,0.2765978,-0.0063233017,0.20040815,0.45876932,0.32264465,0.38795486,-0.05304247,0.26929384,0.08254098,0.11702376,-0.10399375,-0.24880232,739.3773,834.0659,813.1135,740.18317,687.8022,-0.1298828125,0.09027099609375,1.0135498046875,6.998291015625,-0.456085205078125,0.76263427734375,1,1.0,1.0,1.0,1.0,10.00
2024-10-11 20:21:41.418,0.52418166,-0.19460008,0.8192399,0.331203,0.5819769,-0.06843669,0.067189686,0.90752286,0.2765978,-0.0063233017,0.20040815,0.45876932,0.32264465,0.38795486,-0.05304247,0.26929384,0.08254098,0.11702376,-0.10399375,-0.24880232,755.09155,827.2161,809.4872,745.82416,702.3077,-0.1298828125,0.09027099609375,1.0135498046875,6.998291015625,-0.456085205078125,0.76263427734375,1,1.0,1.0,1.0,1.0,10.00
2024-10-11 20:21:41.418,0.52418166,-0.1844703,0.8045807,0.331203,0.5819769,-0.12010113,0.05077143,0.90752286,0.2765978,-0.0063233017,0.19271374,0.45876932,0.32264465,0.4128536,-0.057988778,0.26929384,0.08254098,0.10399209,-0.1103655,-0.24880232,749.85345,817.1429,811.0989,749.45056,633.00366,-0.1298828125,0.09027099609375,1.0135498046875,6.998291015625,-0.456085205078125,0.76263427734375,1,1.0,1.0,1.0,1.0,10.00
2024-10-11 20:21:41.424,0.52418166,-0.1844703,0.8045807,0.331203,0.5819769,-0.12010113,0.05077143,0.90752286,0.2765978,-0.0063233017,0.19271374,0.45876932,0.32264465,0.4128536,-0.057988778,0.26929384,0.08254098,0.10399209,-0.1103655,-0.24880232,752.27106,812.71063,803.44324,755.89746,769.19415,-0.1298828125,0.09027099609375,1.0135498046875,6.998291015625,-0.456085205078125,0.76263427734375,1,1.0,1.0,1.0,1.0,10.00
2024-10-11 20:21:41.425,0.52418166,-0.1844703,0.8045807,0.331203,0.5819769,-0.12010113,0.05077143,0.90752286,0.2765978,-0.0063233017,0.19271374,0.45876932,0.32264465,0.4128536,-0.057988778,0.26929384,0.08254098,0.10399209,-0.1103655,-0.24880232,764.35895,801.4286,804.65204,768.3883,828.8278,-0.1298828125,0.09027099609375,1.0135498046875,6.998291015625,-0.456085205078125,0.76263427734375,1,1.0,1.0,1.0,1.0,10.00
2024-10-11 20:21:41.426,0.52418166,-0.1844703,0.8045807,0.331203,0.5819769,-0.12010113,0.05077143,0.90752286,0.2765978,-0.0063233017,0.19271374,0.45876932,0.32264465,0.4128536,-0.057988778,0.26929384,0.08254098,0.10399209,-0.1103655,-0.24880232,769.19415,805.05493,808.68134,780.87915,797.8022,-0.1298828125,0.09027099609375,1.0135498046875,6.998291015625,-0.456085205078125,0.76263427734375,1,1.0,1.0,1.0,1.0,10.00
2024-10-11 20:21:41.426,0.52418166,-0.1844703,0.8045807,0.331203,0.5819769,-0.12010113,0.05077143,0.90752286,0.2765978,-0.0063233017,0.19271374,0.45876932,0.32264465,0.4128536,-0.057988778,0.26929384,0.08254098,0.10399209,-0.1103655,-0.24880232,764.35895,812.71063,806.26373,783.2967,699.0842,-0.1298828125,0.09027099609375,1.0135498046875,6.998291015625,-0.456085205078125,0.76263427734375,1,1.0,1.0,1.0,1.0,10.00
2024-10-11 20:21:41.427,0.52418166,-0.1844703,0.8045807,0.331203,0.5819769,-0.12010113,0.05077143,0.90752286,0.2765978,-0.0063233017,0.19271374,0.45876932,0.32264465,0.4128536,-0.057988778,0.26929384,0.08254098,0.10399209,-0.1103655,-0.24880232,770.0,818.7546,803.44324,792.5641,563.69965,-0.1298828125,0.09027099609375,1.0135498046875,6.998291015625,-0.456085205078125,0.76263427734375,1,1.0,1.0,1.0,1.0,10.00
2024-10-11 20:21:41.428,0.52418166,-0.1844703,0.8045807,0.331203,0.5819769,-0.12010113,0.05077143,0.90752286,0.2765978,-0.0063233017,0.19271374,0.45876932,0.32264465,0.4128536,-0.057988778,0.26929384,0.08254098,0.10399209,-0.1103655,-0.24880232,783.2967,818.3516,801.8315,805.8608,720.84247,-0.1298828125,0.09027099609375,1.0135498046875,6.998291015625,-0.456085205078125,0.76263427734375,1,1.0,1.0,1.0,1.0,10.00
2024-10-11 20:21:41.461,0.52418166,-0.1844703,0.8045807,0.331203,0.5819769,-0.12010113,0.05077143,0.90752286,0.2765978,-0.0063233017,0.19271374,0.45876932,0.32264465,0.4128536,-0.057988778,0.26929384,0.08254098,0.10399209,-0.1103655,-0.24880232,786.9231,808.68134,801.4286,806.26373,778.0586,-0.1298828125,0.09027099609375,1.0135498046875,6.998291015625,-0.456085205078125,0.76263427734375,1,1.0,1.0,1.0,1.0,10.00
2024-10-11 20:21:41.462,0.52418166,-0.1844703,0.8045807,0.331203,0.5819769,-0.12010113,0.05077143,0.90752286,0.2765978,-0.0063233017,0.19271374,0.45876932,0.32264465,0.4128536,-0.057988778,0.26929384,0.08254098,0.10399209,-0.1103655,-0.24880232,787.326,809.0842,794.9817,799.41394,572.96704,-0.1298828125,0.09027099609375,1.0135498046875,6.998291015625,-0.456085205078125,0.76263427734375,1,1.0,1.0,1.0,1.0,10.00
2024-10-11 20:21:41.463,0.52418166,-0.1844703,0.8045807,0.331203,0.5819769,-0.12010113,0.05077143,0.90752286,0.2765978,-0.0063233017,0.19271374,0.45876932,0.32264465,0.4128536,-0.057988778,0.26929384,0.08254098,0.10399209,-0.1103655,-0.24880232,791.75824,808.2784,799.41394,805.8608,625.7509,-0.1298828125,0.09027099609375,1.0135498046875,6.998291015625,-0.456085205078125,0.76263427734375,1,1.0,1.0,1.0,1.0,10.00
2024-10-11 20:21:41.464,0.52418166,-0.1844703,0.8045807,0.331203,0.5819769,-0.12010113,0.05077143,0.90752286,0.2765978,-0.0063233017,0.19271374,0.45876932,0.32264465,0.4128536,-0.057988778,0.26929384,0.08254098,0.10399209,-0.1103655,-0.24880232,797.8022,797.8022,803.0403,815.12823,942.4542,-0.1298828125,0.09027099609375,1.0135498046875,6.998291015625,-0.456085205078125,0.76263427734375,1,1.0,1.0,1.0,1.0,10.00
2024-10-11 20:21:41.464,0.52418166,-0.1844703,0.8045807,0.331203,0.5819769,-0.12010113,0.05077143,0.90752286,0.2765978,-0.0063233017,0.19271374,0.45876932,0.32264465,0.4128536,-0.057988778,0.26929384,0.08254098,0.10399209,-0.1103655,-0.24880232,800.6227,787.326,803.8461,817.9487,1012.1612,-0.1298828125,0.09027099609375,1.0135498046875,6.998291015625,-0.456085205078125,0.76263427734375,1,1.0,1.0,1.0,1.0,10.00
2024-10-11 20:21:41.465,0.52418166,-0.1844703,0.8045807,0.331203,0.5819769,-0.12010113,0.05077143,0.90752286,0.2765978,-0.0063233017,0.19271374,0.45876932,0.32264465,0.4128536,-0.057988778,0.26929384,0.08254098,0.10399209,-0.1103655,-0.24880232,802.23444,785.31134,804.2491,813.1135,710.3663,-0.1298828125,0.09027099609375,1.0135498046875,6.998291015625,-0.456085205078125,0.76263427734375,1,1.0,1.0,1.0,1.0,10.00
2024-10-11 20:21:41.466,0.52418166,-0.1844703,0.8045807,0.331203,0.5819769,-0.12010113,0.05077143,0.90752286,0.2765978,-0.0063233017,0.19271374,0.45876932,0.32264465,0.4128536,-0.057988778,0.26929384,0.08254098,0.10399209,-0.1103655,-0.24880232,809.4872,785.7143,797.3993,819.15753,722.4542,-0.1298828125,0.09027099609375,1.0135498046875,6.998291015625,-0.456085205078125,0.76263427734375,1,1.0,1.0,1.0,1.0,10.00
2024-10-11 20:21:41.467,0.52418166,-0.1844703,0.8045807,0.331203,0.5819769,-0.12010113,0.05077143,0.90752286,0.2765978,-0.0063233017,0.19271374,0.45876932,0.32264465,0.4128536,-0.057988778,0.26929384,0.08254098,0.10399209,-0.1103655,-0.24880232,810.696,784.5055,795.78754,828.022,954.1392,-0.1298828125,0.09027099609375,1.0135498046875,6.998291015625,-0.456085205078125,0.76263427734375,1,1.0,1.0,1.0,1.0,10.00
2024-10-11 20:21:41.468,0.52418166,-0.1844703,0.8045807,0.331203,0.5819769,-0.12010113,0.05077143,0.90752286,0.2765978,-0.0063233017,0.19271374,0.45876932,0.32264465,0.4128536,-0.057988778,0.26929384,0.08254098,0.10399209,-0.1103655,-0.24880232,809.89014,784.5055,790.9524,828.8278,1274.4689,-0.1298828125,0.09027099609375,1.0135498046875,6.998291015625,-0.456085205078125,0.76263427734375,1,1.0,1.0,1.0,1.0,10.00
2024-10-11 20:21:41.469,0.52418166,-0.1844703,0.8045807,0.331203,0.5819769,-0.12010113,0.05077143,0.90752286,0.2765978,-0.0063233017,0.19271374,0.45876932,0.32264465,0.4128536,-0.057988778,0.26929384,0.08254098,0.10399209,-0.1103655,-0.24880232,814.7253,784.10254,788.1319,824.3956,1110.4762,-0.1298828125,0.09027099609375,1.0135498046875,6.998291015625,-0.456085205078125,0.76263427734375,1,1.0,1.0,1.0,1.0,10.00
2024-10-11 20:21:41.470,0.52418166,-0.1844703,0.8045807,0.331203,0.5819769,-0.12010113,0.05077143,0.90752286,0.2765978,-0.0063233017,0.19271374,0.45876932,0.32264465,0.4128536,-0.057988778,0.26929384,0.08254098,0.10399209,-0.1103655,-0.24880232,809.0842,783.69965,783.69965,810.696,664.83514,-0.1298828125,0.09027099609375,1.0135498046875,6.998291015625,-0.456085205078125,0.76263427734375,1,1.0,1.0,1.0,1.0,10.00
2024-10-11 20:21:41.472,0.52418166,-0.1844703,0.8045807,0.331203,0.5819769,-0.12010113,0.05077143,0.90752286,0.2765978,-0.0063233017,0.19271374,0.45876932,0.32264465,0.4128536,-0.057988778,0.26929384,0.08254098,0.10399209,-0.1103655,-0.24880232,809.4872,781.685,781.685,813.91943,676.9231,-0.1298828125,0.09027099609375,1.0135498046875,6.998291015625,-0.456085205078125,0.76263427734375,1,1.0,1.0,1.0,1.0,10.00
2024-10-11 20:21:41.507,0.52418166,-0.1844703,0.8045807,0.331203,0.5819769,-0.12010113,0.05077143,0.90752286,0.2765978,-0.0063233017,0.19271374,0.45876932,0.32264465,0.4128536,-0.057988778,0.26929384,0.08254098,0.10399209,-0.1103655,-0.24880232,814.7253,779.67035,787.326,825.2015,696.6667,-0.14239501953125,0.0963134765625,1.007568359375,2.968292236328125,-0.859832763671875,2.280426025390625,1,1.0,1.0,1.0,1.0,10.00
2024-10-11 20:21:41.508,0.52418166,-0.1844703,0.8045807,0.331203,0.5819769,-0.12010113,0.05077143,0.90752286,0.2765978,-0.0063233017,0.19271374,0.45876932,0.32264465,0.4128536,-0.057988778,0.26929384,0.08254098,0.10399209,-0.1103655,-0.24880232,813.1135,778.0586,793.36993,826.4103,595.9341,-0.14239501953125,0.0963134765625,1.007568359375,2.968292236328125,-0.859832763671875,2.280426025390625,1,1.0,1.0,1.0,1.0,10.00
2024-10-11 20:21:41.509,0.52418166,-0.1844703,0.8045807,0.331203,0.5819769,-0.12010113,0.05077143,0.90752286,0.2765978,-0.0063233017,0.19271374,0.45876932,0.32264465,0.4128536,-0.057988778,0.26929384,0.08254098,0.10399209,-0.1103655,-0.24880232,812.3077,775.2381,795.78754,823.9927,655.56775,-0.14239501953125,0.0963134765625,1.007568359375,2.968292236328125,-0.859832763671875,2.280426025390625,1,1.0,1.0,1.0,1.0,10.00
2024-10-11 20:21:41.510,0.52418166,-0.1844703,0.8045807,0.331203,0.5819769,-0.12010113,0.05077143,0.90752286,0.2765978,-0.0063233017,0.19271374,0.45876932,0.32264465,0.4128536,-0.057988778,0.26929384,0.08254098,0.10399209,-0.1103655,-0.24880232,813.5165,774.83514,796.1905,828.4249,807.0696,-0.14239501953125,0.0963134765625,1.007568359375,2.968292236328125,-0.859832763671875,2.280426025390625,1,1.0,1.0,1.0,1.0,10.00
2024-10-11 20:21:41.511,0.52418166,-0.1844703,0.8045807,0.331203,0.5819769,-0.12010113,0.05077143,0.90752286,0.2765978,-0.0063233017,0.19271374,0.45876932,0.32264465,0.4128536,-0.057988778,0.26929384,0.08254098,0.10399209,-0.1103655,-0.24880232,816.337,773.6264,798.60803,833.663,805.8608,-0.14239501953125,0.0963134765625,1.007568359375,2.968292236328125,-0.859832763671875,2.280426025390625,1,1.0,1.0,1.0,1.0,10.00
2024-10-11 20:21:41.512,0.52418166,-0.1844703,0.8045807,0.331203,0.5819769,-0.12010113,0.05077143,0.90752286,0.2765978,-0.0063233017,0.19271374,0.45876932,0.32264465,0.4128536,-0.057988778,0.26929384,0.08254098,0.10399209,-0.1103655,-0.24880232,822.381,778.46155,795.78754,827.2161,817.1429,-0.14239501953125,0.0963134765625,1.007568359375,2.968292236328125,-0.859832763671875,2.280426025390625,1,1.0,1.0,1.0,1.0,10.00
2024-10-11 20:21:41.512,0.52418166,-0.1844703,0.8045807,0.331203,0.5819769,-0.12010113,0.05077143,0.90752286,0.2765978,-0.0063233017,0.19271374,0.45876932,0.32264465,0.4128536,-0.057988778,0.26929384,0.08254098,0.10399209,-0.1103655,-0.24880232,821.1722,779.67035,793.36993,821.978,882.8205,-0.14239501953125,0.0963134765625,1.007568359375,2.968292236328125,-0.859832763671875,2.280426025390625,1,1.0,1.0,1.0,1.0,10.00
2024-10-11 20:21:41.513,0.52418166,-0.04459583,0.7887185,0.331203,0.5819769,-0.06964395,0.04645411,0.90752286,0.2765978,-0.0024488792,0.19271374,0.45876932,0.32264465,0.41426513,-0.054783434,0.26929384,0.08254098,0.08244961,-0.11680254,-0.24880232,821.978,771.6117,793.7729,824.7985,1062.1245,-0.14239501953125,0.0963134765625,1.007568359375,2.968292236328125,-0.859832763671875,2.280426025390625,1,1.0,1.0,1.0,1.0,10.00
2024-10-11 20:21:41.519,0.52418166,-0.04459583,0.7887185,0.331203,0.5819769,-0.06964395,0.04645411,0.90752286,0.2765978,-0.0024488792,0.19271374,0.45876932,0.32264465,0.41426513,-0.054783434,0.26929384,0.08254098,0.08244961,-0.11680254,-0.24880232,822.381,777.25275,792.96704,824.7985,1046.4103,-0.14239501953125,0.0963134765625,1.007568359375,2.968292236328125,-0.859832763671875,2.280426025390625,1,1.0,1.0,1.0,1.0,10.00
2024-10-11 20:21:41.519,0.52418166,-0.04459583,0.7887185,0.331203,0.5819769,-0.06964395,0.04645411,0.90752286,0.2765978,-0.0024488792,0.19271374,0.45876932,0.32264465,0.41426513,-0.054783434,0.26929384,0.08254098,0.08244961,-0.11680254,-0.24880232,822.381,783.69965,791.3553,826.0073,742.1978,-0.14239501953125,0.0963134765625,1.007568359375,2.968292236328125,-0.859832763671875,2.280426025390625,1,1.0,1.0,1.0,1.0,10.00
2024-10-11 20:21:41.520,0.52418166,-0.04459583,0.7887185,0.331203,0.5819769,-0.06964395,0.04645411,0.90752286,0.2765978,-0.0024488792,0.19271374,0.45876932,0.32264465,0.41426513,-0.054783434,0.26929384,0.08254098,0.08244961,-0.11680254,-0.24880232,826.0073,788.5348,788.93774,829.2308,726.4835,-0.14239501953125,0.0963134765625,1.007568359375,2.968292236328125,-0.859832763671875,2.280426025390625,1,1.0,1.0,1.0,1.0,10.00
2024-10-11 20:21:41.521,0.52418166,-0.04459583,0.7887185,0.331203,0.5819769,-0.06964395,0.04645411,0.90752286,0.2765978,-0.0024488792,0.19271374,0.45876932,0.32264465,0.41426513,-0.054783434,0.26929384,0.08254098,0.08244961,-0.11680254,-0.24880232,831.2454,791.3553,795.78754,828.4249,835.2747,-0.14239501953125,0.0963134765625,1.007568359375,2.968292236328125,-0.859832763671875,2.280426025390625,1,1.0,1.0,1.0,1.0,10.00
2024-10-11 20:21:41.548,0.52418166,-0.04459583,0.7887185,0.331203,0.5819769,-0.06964395,0.04645411,0.90752286,0.2765978,-0.0024488792,0.19271374,0.45876932,0.32264465,0.41426513,-0.054783434,0.26929384,0.08254098,0.08244961,-0.11680254,-0.24880232,831.2454,790.54944,802.23444,828.4249,826.0073,-0.15142822265625,0.07403564453125,0.98370361328125,0.2691650390625,0.73272705078125,0.8074951171875,1,1.0,1.0,1.0,1.0,10.00
2024-10-11 20:21:41.549,0.52418166,-0.04459583,0.7887185,0.331203,0.5819769,-0.06964395,0.04645411,0.90752286,0.2765978,-0.0024488792,0.19271374,0.45876932,0.32264465,0.41426513,-0.054783434,0.26929384,0.08254098,0.08244961,-0.11680254,-0.24880232,826.4103,789.7436,797.3993,821.5751,752.674,-0.15142822265625,0.07403564453125,0.98370361328125,0.2691650390625,0.73272705078125,0.8074951171875,1,1.0,1.0,1.0,1.0,10.00
2024-10-11 20:21:41.550,0.52418166,-0.04459583,0.7887185,0.331203,0.5819769,-0.06964395,0.04645411,0.90752286,0.2765978,-0.0024488792,0.19271374,0.45876932,0.32264465,0.41426513,-0.054783434,0.26929384,0.08254098,0.08244961,-0.11680254,-0.24880232,833.2601,784.90845,794.17584,823.1868,777.6557,-0.15142822265625,0.07403564453125,0.98370361328125,0.2691650390625,0.73272705078125,0.8074951171875,1,1.0,1.0,1.0,1.0,10.00
2024-10-11 20:21:41.551,0.52418166,-0.04459583,0.7887185,0.331203,0.5819769,-0.06964395,0.04645411,0.90752286,0.2765978,-0.0024488792,0.19271374,0.45876932,0.32264465,0.41426513,-0.054783434,0.26929384,0.08254098,0.08244961,-0.11680254,-0.24880232,841.31866,793.36993,805.05493,832.4542,1050.0366,-0.15142822265625,0.07403564453125,0.98370361328125,0.2691650390625,0.73272705078125,0.8074951171875,1,1.0,1.0,1.0,1.0,10.00
2024-10-11 20:21:41.552,0.52418166,-0.04459583,0.7887185,0.331203,0.5819769,-0.06964395,0.04645411,0.90752286,0.2765978,-0.0024488792,0.19271374,0.45876932,0.32264465,0.41426513,-0.054783434,0.26929384,0.08254098,0.08244961,-0.11680254,-0.24880232,830.0366,792.5641,803.8461,827.2161,897.72894,-0.15142822265625,0.07403564453125,0.98370361328125,0.2691650390625,0.73272705078125,0.8074951171875,1,1.0,1.0,1.0,1.0,10.00
2024-10-11 20:21:41.552,0.52418166,-0.04459583,0.7887185,0.331203,0.5819769,-0.06964395,0.04645411,0.90752286,0.2765978,-0.0024488792,0.19271374,0.45876932,0.32264465,0.41426513,-0.054783434,0.26929384,0.08254098,0.08244961,-0.11680254,-0.24880232,822.7839,783.2967,793.36993,823.1868,761.53845,-0.15142822265625,0.07403564453125,0.98370361328125,0.2691650390625,0.73272705078125,0.8074951171875,1,1.0,1.0,1.0,1.0,10.00
2024-10-11 20:21:41.553,0.52418166,-0.04459583,0.7887185,0.331203,0.5819769,-0.06964395,0.04645411,0.90752286,0.2765978,-0.0024488792,0.19271374,0.45876932,0.32264465,0.41426513,-0.054783434,0.26929384,0.08254098,0.08244961,-0.11680254,-0.24880232,825.6044,790.54944,793.7729,824.3956,1133.0403,-0.15142822265625,0.07403564453125,0.98370361328125,0.2691650390625,0.73272705078125,0.8074951171875,1,1.0,1.0,1.0,1.0,10.00
2024-10-11 20:21:41.554,0.52418166,-0.04459583,0.7887185,0.331203,0.5819769,-0.06964395,0.04645411,0.90752286,0.2765978,-0.0024488792,0.19271374,0.45876932,0.32264465,0.41426513,-0.054783434,0.26929384,0.08254098,0.08244961,-0.11680254,-0.24880232,823.9927,785.31134,794.9817,827.619,1042.381,-0.15142822265625,0.07403564453125,0.98370361328125,0.2691650390625,0.73272705078125,0.8074951171875,1,1.0,1.0,1.0,1.0,10.00
2024-10-11 20:21:41.554,0.52418166,-0.04459583,0.7887185,0.331203,0.5819769,-0.06964395,0.04645411,0.90752286,0.2765978,-0.0024488792,0.19271374,0.45876932,0.32264465,0.41426513,-0.054783434,0.26929384,0.08254098,0.08244961,-0.11680254,-0.24880232,830.4396,778.46155,796.5934,830.0366,776.4469,-0.15142822265625,0.07403564453125,0.98370361328125,0.2691650390625,0.73272705078125,0.8074951171875,1,1.0,1.0,1.0,1.0,10.00
2024-10-11 20:21:41.555,0.52418166,-0.04459583,0.7887185,0.331203,0.5819769,-0.06964395,0.04645411,0.90752286,0.2765978,-0.0024488792,0.19271374,0.45876932,0.32264465,0.41426513,-0.054783434,0.26929384,0.08254098,0.08244961,-0.11680254,-0.24880232,830.0366,792.5641,796.99634,832.4542,843.73627,-0.15142822265625,0.07403564453125,0.98370361328125,0.2691650390625,0.73272705078125,0.8074951171875,1,1.0,1.0,1.0,1.0,10.00
2024-10-11 20:21:41.556,0.52418166,-0.04459583,0.7887185,0.331203,0.5819769,-0.06964395,0.04645411,0.90752286,0.2765978,-0.0024488792,0.19271374,0.45876932,0.32264465,0.41426513,-0.054783434,0.26929384,0.08254098,0.08244961,-0.11680254,-0.24880232,830.4396,798.20514,796.1905,832.0513,921.50183,-0.15142822265625,0.07403564453125,0.98370361328125,0.2691650390625,0.73272705078125,0.8074951171875,1,1.0,1.0,1.0,1.0,10.00
2024-10-11 20:21:41.556,0.52418166,-0.04459583,0.7887185,0.331203,0.5819769,-0.06964395,0.04645411,0.90752286,0.2765978,-0.0024488792,0.19271374,0.45876932,0.32264465,0.41426513,-0.054783434,0.26929384,0.08254098,0.08244961,-0.11680254,-0.24880232,838.49817,793.36993,794.57874,833.663,935.2015,-0.15142822265625,0.07403564453125,0.98370361328125,0.2691650390625,0.73272705078125,0.8074951171875,1,1.0,1.0,1.0,1.0,10.00
2024-10-11 20:21:41.627,0.52418166,-0.04459583,0.7887185,0.331203,0.5819769,-0.06964395,0.04645411,0.90752286,0.2765978,-0.0024488792,0.19271374,0.45876932,0.32264465,0.41426513,-0.054783434,0.26929384,0.08254098,0.08244961,-0.11680254,-0.24880232,831.6484,793.36993,797.3993,835.6777,690.6227,-0.14508056640625,0.0760498046875,0.9912109375,1.263580322265625,3.177642822265625,0.575714111328125,1,1.0,1.0,1.0,1.0,10.00
2024-10-11 20:21:41.628,0.52418166,-0.04459583,0.7887185,0.331203,0.5819769,-0.06964395,0.04645411,0.90752286,0.2765978,-0.0024488792,0.19271374,0.45876932,0.32264465,0.41426513,-0.054783434,0.26929384,0.08254098,0.08244961,-0.11680254,-0.24880232,825.6044,785.7143,806.26373,834.0659,710.7692,-0.14508056640625,0.0760498046875,0.9912109375,1.263580322265625,3.177642822265625,0.575714111328125,1,1.0,1.0,1.0,1.0,10.00
2024-10-11 20:21:41.629,0.52418166,-0.04459583,0.7887185,0.331203,0.5819769,-0.06964395,0.04645411,0.90752286,0.2765978,-0.0024488792,0.19271374,0.45876932,0.32264465,0.41426513,-0.054783434,0.26929384,0.08254098,0.08244961,-0.11680254,-0.24880232,834.4689,788.1319,811.9048,831.2454,781.28204,-0.14508056640625,0.0760498046875,0.9912109375,1.263580322265625,3.177642822265625,0.575714111328125,1,1.0,1.0,1.0,1.0,10.00
2024-10-11 20:21:41.630,0.52418166,-0.04459583,0.7887185,0.331203,0.5819769,-0.06964395,0.04645411,0.90752286,0.2765978,-0.0024488792,0.19271374,0.45876932,0.32264465,0.41426513,-0.054783434,0.26929384,0.08254098,0.08244961,-0.11680254,-0.24880232,822.7839,788.1319,803.0403,826.8132,691.4286,-0.14508056640625,0.0760498046875,0.9912109375,1.263580322265625,3.177642822265625,0.575714111328125,1,1.0,1.0,1.0,1.0,10.00
2024-10-11 20:21:41.630,0.52418166,-0.04459583,0.7887185,0.331203,0.5819769,-0.06964395,0.04645411,0.90752286,0.2765978,-0.0024488792,0.19271374,0.45876932,0.32264465,0.41426513,-0.054783434,0.26929384,0.08254098,0.08244961,-0.11680254,-0.24880232,817.9487,783.2967,790.54944,822.381,630.989,-0.14508056640625,0.0760498046875,0.9912109375,1.263580322265625,3.177642822265625,0.575714111328125,1,1.0,1.0,1.0,1.0,10.00
2024-10-11 20:21:41.631,0.52418166,-0.04459583,0.7887185,0.331203,0.5819769,-0.06964395,0.04645411,0.90752286,0.2765978,-0.0024488792,0.19271374,0.45876932,0.32264465,0.41426513,-0.054783434,0.26929384,0.08254098,0.08244961,-0.11680254,-0.24880232,822.381,785.31134,793.36993,816.337,787.326,-0.14508056640625,0.0760498046875,0.9912109375,1.263580322265625,3.177642822265625,0.575714111328125,1,1.0,1.0,1.0,1.0,10.00
2024-10-11 20:21:41.632,0.52418166,-0.04459583,0.7887185,0.331203,0.5819769,-0.06964395,0.04645411,0.90752286,0.2765978,-0.0024488792,0.19271374,0.45876932,0.32264465,0.41426513,-0.054783434,0.26929384,0.08254098,0.08244961,-0.11680254,-0.24880232,821.978,784.90845,798.20514,821.1722,1142.3077,-0.14508056640625,0.0760498046875,0.9912109375,1.263580322265625,3.177642822265625,0.575714111328125,1,1.0,1.0,1.0,1.0,10.00
2024-10-11 20:21:41.632,0.52418166,-0.04459583,0.7887185,0.331203,0.5819769,-0.06964395,0.04645411,0.90752286,0.2765978,-0.0024488792,0.19271374,0.45876932,0.32264465,0.41426513,-0.054783434,0.26929384,0.08254098,0.08244961,-0.11680254,-0.24880232,825.2015,784.5055,793.36993,825.6044,854.21246,-0.14508056640625,0.0760498046875,0.9912109375,1.263580322265625,3.177642822265625,0.575714111328125,1,1.0,1.0,1.0,1.0,10.00
2024-10-11 20:21:41.633,0.52418166,-0.04459583,0.7887185,0.331203,0.5819769,-0.06964395,0.04645411,0.90752286,0.2765978,-0.0024488792,0.19271374,0.45876932,0.32264465,0.41426513,-0.054783434,0.26929384,0.08254098,0.08244961,-0.11680254,-0.24880232,818.3516,780.87915,792.1612,814.7253,422.67398,-0.14508056640625,0.0760498046875,0.9912109375,1.263580322265625,3.177642822265625,0.575714111328125,1,1.0,1.0,1.0,1.0,10.00
2024-10-11 20:21:41,,,,,,,,,,,,,,,,,,,,,,,,,,,,,,,,,,,,,,/muse/elements/blink
2024-10-11 20:21:41.634,0.52418166,0.280954,0.7744243,0.331203,0.5819769,0.1613416,0.055237193,0.90752286,0.2765978,0.038415775,0.19271374,0.45876932,0.32264465,0.40120834,-0.042993084,0.26929384,0.08254098,0.061441816,-0.12093973,-0.24880232,820.7692,784.10254,800.6227,822.7839,603.1868,-0.14508056640625,0.0760498046875,0.9912109375,1.263580322265625,3.177642822265625,0.575714111328125,1,2.0,1.0,1.0,2.0,10.00
2024-10-11 20:21:41.640,0.52418166,0.280954,0.7744243,0.331203,0.5819769,0.1613416,0.055237193,0.90752286,0.2765978,0.038415775,0.19271374,0.45876932,0.32264465,0.40120834,-0.042993084,0.26929384,0.08254098,0.061441816,-0.12093973,-0.24880232,823.5897,792.96704,806.6667,829.2308,707.1429,-0.14508056640625,0.0760498046875,0.9912109375,1.263580322265625,3.177642822265625,0.575714111328125,1,2.0,1.0,1.0,2.0,10.00
2024-10-11 20:21:41.640,0.52418166,0.280954,0.7744243,0.331203,0.5819769,0.1613416,0.055237193,0.90752286,0.2765978,0.038415775,0.19271374,0.45876932,0.32264465,0.40120834,-0.042993084,0.26929384,0.08254098,0.061441816,-0.12093973,-0.24880232,812.71063,793.7729,807.0696,820.7692,711.978,-0.14508056640625,0.0760498046875,0.9912109375,1.263580322265625,3.177642822265625,0.575714111328125,1,2.0,1.0,1.0,2.0,10.00
2024-10-11 20:21:41.641,0.52418166,0.280954,0.7744243,0.331203,0.5819769,0.1613416,0.055237193,0.90752286,0.2765978,0.038415775,0.19271374,0.45876932,0.32264465,0.40120834,-0.042993084,0.26929384,0.08254098,0.061441816,-0.12093973,-0.24880232,813.5165,784.90845,803.8461,817.5458,588.2784,-0.1600341796875,0.08441162109375,0.98565673828125,1.099090576171875,3.06549072265625,4.732818603515625,1,2.0,1.0,1.0,2.0,10.00
2024-10-11 20:21:41.642,0.52418166,0.280954,0.7744243,0.331203,0.5819769,0.1613416,0.055237193,0.90752286,0.2765978,0.038415775,0.19271374,0.45876932,0.32264465,0.40120834,-0.042993084,0.26929384,0.08254098,0.061441816,-0.12093973,-0.24880232,824.3956,781.28204,804.2491,817.5458,667.6557,-0.1600341796875,0.08441162109375,0.98565673828125,1.099090576171875,3.06549072265625,4.732818603515625,1,2.0,1.0,1.0,2.0,10.00
2024-10-11 20:21:41.643,0.52418166,0.280954,0.7744243,0.331203,0.5819769,0.1613416,0.055237193,0.90752286,0.2765978,0.038415775,0.19271374,0.45876932,0.32264465,0.40120834,-0.042993084,0.26929384,0.08254098,0.061441816,-0.12093973,-0.24880232,813.91943,784.10254,803.8461,820.3663,888.46155,-0.1600341796875,0.08441162109375,0.98565673828125,1.099090576171875,3.06549072265625,4.732818603515625,1,2.0,1.0,1.0,2.0,10.00
2024-10-11 20:21:41.643,0.52418166,0.280954,0.7744243,0.331203,0.5819769,0.1613416,0.055237193,0.90752286,0.2765978,0.038415775,0.19271374,0.45876932,0.32264465,0.40120834,-0.042993084,0.26929384,0.08254098,0.061441816,-0.12093973,-0.24880232,807.47253,790.9524,792.5641,811.50183,689.011,-0.1600341796875,0.08441162109375,0.98565673828125,1.099090576171875,3.06549072265625,4.732818603515625,1,2.0,1.0,1.0,2.0,10.00
2024-10-11 20:21:41.644,0.52418166,0.280954,0.7744243,0.331203,0.5819769,0.1613416,0.055237193,0.90752286,0.2765978,0.038415775,0.19271374,0.45876932,0.32264465,0.40120834,-0.042993084,0.26929384,0.08254098,0.061441816,-0.12093973,-0.24880232,813.91943,791.75824,788.93774,811.9048,531.4652,-0.1600341796875,0.08441162109375,0.98565673828125,1.099090576171875,3.06549072265625,4.732818603515625,1,2.0,1.0,1.0,2.0,10.00
2024-10-11 20:21:41.645,0.52418166,0.280954,0.7744243,0.331203,0.5819769,0.1613416,0.055237193,0.90752286,0.2765978,0.038415775,0.19271374,0.45876932,0.32264465,0.40120834,-0.042993084,0.26929384,0.08254098,0.061441816,-0.12093973,-0.24880232,812.3077,792.1612,794.57874,821.5751,922.71063,-0.1600341796875,0.08441162109375,0.98565673828125,1.099090576171875,3.06549072265625,4.732818603515625,1,2.0,1.0,1.0,2.0,10.00
2024-10-11 20:21:41.645,0.52418166,0.280954,0.7744243,0.331203,0.5819769,0.1613416,0.055237193,0.90752286,0.2765978,0.038415775,0.19271374,0.45876932,0.32264465,0.40120834,-0.042993084,0.26929384,0.08254098,0.061441816,-0.12093973,-0.24880232,806.6667,788.5348,795.78754,817.1429,1171.3187,-0.1600341796875,0.08441162109375,0.98565673828125,1.099090576171875,3.06549072265625,4.732818603515625,1,2.0,1.0,1.0,2.0,10.00
2024-10-11 20:21:41.646,0.52418166,0.280954,0.7744243,0.331203,0.5819769,0.1613416,0.055237193,0.90752286,0.2765978,0.038415775,0.19271374,0.45876932,0.32264465,0.40120834,-0.042993084,0.26929384,0.08254098,0.061441816,-0.12093973,-0.24880232,805.8608,776.8498,800.2198,810.293,779.67035,-0.1600341796875,0.08441162109375,0.98565673828125,1.099090576171875,3.06549072265625,4.732818603515625,1,2.0,1.0,1.0,2.0,10.00
2024-10-11 20:21:41.647,0.52418166,0.280954,0.7744243,0.331203,0.5819769,0.1613416,0.055237193,0.90752286,0.2765978,0.038415775,0.19271374,0.45876932,0.32264465,0.40120834,-0.042993084,0.26929384,0.08254098,0.061441816,-0.12093973,-0.24880232,809.4872,777.6557,799.41394,813.1135,564.90845,-0.1600341796875,0.08441162109375,0.98565673828125,1.099090576171875,3.06549072265625,4.732818603515625,1,2.0,1.0,1.0,2.0,10.00
2024-10-11 20:21:41.647,0.52418166,0.280954,0.7744243,0.331203,0.5819769,0.1613416,0.055237193,0.90752286,0.2765978,0.038415775,0.19271374,0.45876932,0.32264465,0.40120834,-0.042993084,0.26929384,0.08254098,0.061441816,-0.12093973,-0.24880232,811.0989,788.5348,797.8022,810.293,658.3883,-0.1600341796875,0.08441162109375,0.98565673828125,1.099090576171875,3.06549072265625,4.732818603515625,1,2.0,1.0,1.0,2.0,10.00
2024-10-11 20:21:41.648,0.52418166,0.280954,0.7744243,0.331203,0.5819769,0.1613416,0.055237193,0.90752286,0.2765978,0.038415775,0.19271374,0.45876932,0.32264465,0.40120834,-0.042993084,0.26929384,0.08254098,0.061441816,-0.12093973,-0.24880232,814.7253,799.41394,799.011,814.7253,842.9304,-0.1600341796875,0.08441162109375,0.98565673828125,1.099090576171875,3.06549072265625,4.732818603515625,1,2.0,1.0,1.0,2.0,10.00
2024-10-11 20:21:41.649,0.52418166,0.280954,0.7744243,0.331203,0.5819769,0.1613416,0.055237193,0.90752286,0.2765978,0.038415775,0.19271374,0.45876932,0.32264465,0.40120834,-0.042993084,0.26929384,0.08254098,0.061441816,-0.12093973,-0.24880232,814.3223,801.4286,794.9817,812.71063,759.5238,-0.1600341796875,0.08441162109375,0.98565673828125,1.099090576171875,3.06549072265625,4.732818603515625,1,2.0,1.0,1.0,2.0,10.00
2024-10-11 20:21:41.713,0.52418166,0.280954,0.7744243,0.331203,0.5819769,0.1613416,0.055237193,0.90752286,0.2765978,0.038415775,0.19271374,0.45876932,0.32264465,0.40120834,-0.042993084,0.26929384,0.08254098,0.061441816,-0.12093973,-0.24880232,808.68134,792.1612,792.96704,802.23444,641.4652,-0.1600341796875,0.08441162109375,0.98565673828125,1.099090576171875,3.06549072265625,4.732818603515625,1,2.0,1.0,1.0,2.0,10.00
2024-10-11 20:21:41.715,0.52418166,0.280954,0.7744243,0.331203,0.5819769,0.1613416,0.055237193,0.90752286,0.2765978,0.038415775,0.19271374,0.45876932,0.32264465,0.40120834,-0.042993084,0.26929384,0.08254098,0.061441816,-0.12093973,-0.24880232,806.6667,790.9524,790.54944,804.2491,754.2857,-0.1600341796875,0.08441162109375,0.98565673828125,1.099090576171875,3.06549072265625,4.732818603515625,1,2.0,1.0,1.0,2.0,10.00
2024-10-11 20:21:41.715,0.52418166,0.280954,0.7744243,0.331203,0.5819769,0.1613416,0.055237193,0.90752286,0.2765978,0.038415775,0.19271374,0.45876932,0.32264465,0.40120834,-0.042993084,0.26929384,0.08254098,0.061441816,-0.12093973,-0.24880232,814.3223,794.17584,789.7436,811.0989,941.2454,-0.1600341796875,0.08441162109375,0.98565673828125,1.099090576171875,3.06549072265625,4.732818603515625,1,2.0,1.0,1.0,2.0,10.00
2024-10-11 20:21:41.716,0.52418166,0.280954,0.7744243,0.331203,0.5819769,0.1613416,0.055237193,0.90752286,0.2765978,0.038415775,0.19271374,0.45876932,0.32264465,0.40120834,-0.042993084,0.26929384,0.08254098,0.061441816,-0.12093973,-0.24880232,809.89014,794.17584,789.7436,815.12823,878.7912,-0.1600341796875,0.08441162109375,0.98565673828125,1.099090576171875,3.06549072265625,4.732818603515625,1,2.0,1.0,1.0,2.0,10.00
2024-10-11 20:21:41.717,0.52418166,0.280954,0.7744243,0.331203,0.5819769,0.1613416,0.055237193,0.90752286,0.2765978,0.038415775,0.19271374,0.45876932,0.32264465,0.40120834,-0.042993084,0.26929384,0.08254098,0.061441816,-0.12093973,-0.24880232,804.2491,791.3553,789.7436,805.8608,745.82416,-0.1600341796875,0.08441162109375,0.98565673828125,1.099090576171875,3.06549072265625,4.732818603515625,1,2.0,1.0,1.0,2.0,10.00
2024-10-11 20:21:41.717,0.52418166,0.280954,0.7744243,0.331203,0.5819769,0.1613416,0.055237193,0.90752286,0.2765978,0.038415775,0.19271374,0.45876932,0.32264465,0.40120834,-0.042993084,0.26929384,0.08254098,0.061441816,-0.12093973,-0.24880232,812.71063,794.17584,794.9817,807.0696,1166.0806,-0.1600341796875,0.08441162109375,0.98565673828125,1.099090576171875,3.06549072265625,4.732818603515625,1,2.0,1.0,1.0,2.0,10.00
2024-10-11 20:21:41.718,0.52418166,0.280954,0.7744243,0.331203,0.5819769,0.1613416,0.055237193,0.90752286,0.2765978,0.038415775,0.19271374,0.45876932,0.32264465,0.40120834,-0.042993084,0.26929384,0.08254098,0.061441816,-0.12093973,-0.24880232,817.5458,790.54944,796.99634,816.7399,1460.2197,-0.1600341796875,0.08441162109375,0.98565673828125,1.099090576171875,3.06549072265625,4.732818603515625,1,2.0,1.0,1.0,2.0,10.00
2024-10-11 20:21:41.719,0.52418166,0.280954,0.7744243,0.331203,0.5819769,0.1613416,0.055237193,0.90752286,0.2765978,0.038415775,0.19271374,0.45876932,0.32264465,0.40120834,-0.042993084,0.26929384,0.08254098,0.061441816,-0.12093973,-0.24880232,817.1429,786.9231,800.2198,810.293,989.59705,-0.1600341796875,0.08441162109375,0.98565673828125,1.099090576171875,3.06549072265625,4.732818603515625,1,2.0,1.0,1.0,2.0,10.00
2024-10-11 20:21:41.719,0.52418166,0.280954,0.7744243,0.331203,0.5819769,0.1613416,0.055237193,0.90752286,0.2765978,0.038415775,0.19271374,0.45876932,0.32264465,0.40120834,-0.042993084,0.26929384,0.08254098,0.061441816,-0.12093973,-0.24880232,818.7546,796.99634,809.4872,810.696,678.5348,-0.1600341796875,0.08441162109375,0.98565673828125,1.099090576171875,3.06549072265625,4.732818603515625,1,2.0,1.0,1.0,2.0,10.00
2024-10-11 20:21:41.720,0.52418166,0.280954,0.7744243,0.331203,0.5819769,0.1613416,0.055237193,0.90752286,0.2765978,0.038415775,0.19271374,0.45876932,0.32264465,0.40120834,-0.042993084,0.26929384,0.08254098,0.061441816,-0.12093973,-0.24880232,813.91943,796.99634,809.0842,813.91943,692.23444,-0.1600341796875,0.08441162109375,0.98565673828125,1.099090576171875,3.06549072265625,4.732818603515625,1,2.0,1.0,1.0,2.0,10.00
2024-10-11 20:21:41.721,0.52418166,0.280954,0.7744243,0.331203,0.5819769,0.1613416,0.055237193,0.90752286,0.2765978,0.038415775,0.19271374,0.45876932,0.32264465,0.40120834,-0.042993084,0.26929384,0.08254098,0.061441816,-0.12093973,-0.24880232,811.50183,791.3553,796.99634,816.7399,593.91943,-0.1600341796875,0.08441162109375,0.98565673828125,1.099090576171875,3.06549072265625,4.732818603515625,1,2.0,1.0,1.0,2.0,10.00
2024-10-11 20:21:41.721,0.52418166,0.6275311,0.7588075,0.331203,0.5819769,0.45557728,0.081561275,0.90752286,0.2765978,0.19001763,0.16730781,0.45876932,0.32264465,0.38990173,-0.022400502,0.26929384,0.08254098,0.048773237,-0.12543711,-0.24880232,820.3663,794.9817,795.78754,821.1722,601.1722,-0.1600341796875,0.08441162109375,0.98565673828125,1.099090576171875,3.06549072265625,4.732818603515625,1,2.0,1.0,1.0,2.0,10.00
2024-10-11 20:21:41.759,0.52418166,0.6275311,0.7588075,0.331203,0.5819769,0.45557728,0.081561275,0.90752286,0.2765978,0.19001763,0.16730781,0.45876932,0.32264465,0.38990173,-0.022400502,0.26929384,0.08254098,0.048773237,-0.12543711,-0.24880232,828.022,798.20514,801.02563,821.1722,735.7509,-0.1861572265625,0.08721923828125,0.99237060546875,-0.538330078125,3.805694580078125,5.929107666015625,1,2.0,1.0,1.0,2.0,10.00
2024-10-11 20:21:41.760,0.52418166,0.6275311,0.7588075,0.331203,0.5819769,0.45557728,0.081561275,0.90752286,0.2765978,0.19001763,0.16730781,0.45876932,0.32264465,0.38990173,-0.022400502,0.26929384,0.08254098,0.048773237,-0.12543711,-0.24880232,827.2161,796.99634,798.60803,818.3516,670.87915,-0.1861572265625,0.08721923828125,0.99237060546875,-0.538330078125,3.805694580078125,5.929107666015625,1,2.0,1.0,1.0,2.0,10.00
2024-10-11 20:21:41.761,0.52418166,0.6275311,0.7588075,0.331203,0.5819769,0.45557728,0.081561275,0.90752286,0.2765978,0.19001763,0.16730781,0.45876932,0.32264465,0.38990173,-0.022400502,0.26929384,0.08254098,0.048773237,-0.12543711,-0.24880232,819.15753,792.1612,796.99634,811.9048,568.5348,-0.1861572265625,0.08721923828125,0.99237060546875,-0.538330078125,3.805694580078125,5.929107666015625,1,2.0,1.0,1.0,2.0,10.00
2024-10-11 20:21:41.762,0.52418166,0.6275311,0.7588075,0.331203,0.5819769,0.45557728,0.081561275,0.90752286,0.2765978,0.19001763,0.16730781,0.45876932,0.32264465,0.38990173,-0.022400502,0.26929384,0.08254098,0.048773237,-0.12543711,-0.24880232,818.7546,793.7729,798.20514,817.1429,670.87915,-0.1861572265625,0.08721923828125,0.99237060546875,-0.538330078125,3.805694580078125,5.929107666015625,1,2.0,1.0,1.0,2.0,10.00
2024-10-11 20:21:41.762,0.52418166,0.6275311,0.7588075,0.331203,0.5819769,0.45557728,0.081561275,0.90752286,0.2765978,0.19001763,0.16730781,0.45876932,0.32264465,0.38990173,-0.022400502,0.26929384,0.08254098,0.048773237,-0.12543711,-0.24880232,819.15753,796.1905,803.8461,823.5897,772.4176,-0.1861572265625,0.08721923828125,0.99237060546875,-0.538330078125,3.805694580078125,5.929107666015625,1,2.0,1.0,1.0,2.0,10.00
2024-10-11 20:21:41.763,0.52418166,0.6275311,0.7588075,0.331203,0.5819769,0.45557728,0.081561275,0.90752286,0.2765978,0.19001763,0.16730781,0.45876932,0.32264465,0.38990173,-0.022400502,0.26929384,0.08254098,0.048773237,-0.12543711,-0.24880232,817.9487,797.8022,810.696,821.5751,777.6557,-0.1861572265625,0.08721923828125,0.99237060546875,-0.538330078125,3.805694580078125,5.929107666015625,1,2.0,1.0,1.0,2.0,10.00
2024-10-11 20:21:41.764,0.52418166,0.6275311,0.7588075,0.331203,0.5819769,0.45557728,0.081561275,0.90752286,0.2765978,0.19001763,0.16730781,0.45876932,0.32264465,0.38990173,-0.022400502,0.26929384,0.08254098,0.048773237,-0.12543711,-0.24880232,820.7692,800.6227,809.4872,819.15753,679.34064,-0.1861572265625,0.08721923828125,0.99237060546875,-0.538330078125,3.805694580078125,5.929107666015625,1,2.0,1.0,1.0,2.0,10.00
2024-10-11 20:21:41.764,0.52418166,0.6275311,0.7588075,0.331203,0.5819769,0.45557728,0.081561275,0.90752286,0.2765978,0.19001763,0.16730781,0.45876932,0.32264465,0.38990173,-0.022400502,0.26929384,0.08254098,0.048773237,-0.12543711,-0.24880232,822.381,796.1905,808.68134,820.3663,786.52014,-0.1861572265625,0.08721923828125,0.99237060546875,-0.538330078125,3.805694580078125,5.929107666015625,1,2.0,1.0,1.0,2.0,10.00
2024-10-11 20:21:41.765,0.52418166,0.6275311,0.7588075,0.331203,0.5819769,0.45557728,0.081561275,0.90752286,0.2765978,0.19001763,0.16730781,0.45876932,0.32264465,0.38990173,-0.022400502,0.26929384,0.08254098,0.048773237,-0.12543711,-0.24880232,824.7985,804.2491,810.696,826.8132,1001.685,-0.1861572265625,0.08721923828125,0.99237060546875,-0.538330078125,3.805694580078125,5.929107666015625,1,2.0,1.0,1.0,2.0,10.00
2024-10-11 20:21:41.766,0.52418166,0.6275311,0.7588075,0.331203,0.5819769,0.45557728,0.081561275,0.90752286,0.2765978,0.19001763,0.16730781,0.45876932,0.32264465,0.38990173,-0.022400502,0.26929384,0.08254098,0.048773237,-0.12543711,-0.24880232,817.1429,809.89014,805.4579,822.381,941.6484,-0.1861572265625,0.08721923828125,0.99237060546875,-0.538330078125,3.805694580078125,5.929107666015625,1,2.0,1.0,1.0,2.0,10.00
2024-10-11 20:21:41.766,0.52418166,0.6275311,0.7588075,0.331203,0.5819769,0.45557728,0.081561275,0.90752286,0.2765978,0.19001763,0.16730781,0.45876932,0.32264465,0.38990173,-0.022400502,0.26929384,0.08254098,0.048773237,-0.12543711,-0.24880232,803.8461,799.41394,801.02563,813.1135,660.40295,-0.1861572265625,0.08721923828125,0.99237060546875,-0.538330078125,3.805694580078125,5.929107666015625,1,2.0,1.0,1.0,2.0,10.00
2024-10-11 20:21:41.767,0.52418166,0.6275311,0.7588075,0.331203,0.5819769,0.45557728,0.081561275,0.90752286,0.2765978,0.19001763,0.16730781,0.45876932,0.32264465,0.38990173,-0.022400502,0.26929384,0.08254098,0.048773237,-0.12543711,-0.24880232,794.9817,795.38464,799.011,810.293,552.4176,-0.1861572265625,0.08721923828125,0.99237060546875,-0.538330078125,3.805694580078125,5.929107666015625,1,2.0,1.0,1.0,2.0,10.00
2024-10-11 20:21:41.848,0.52418166,0.6275311,0.7588075,0.331203,0.5819769,0.45557728,0.081561275,0.90752286,0.2765978,0.19001763,0.16730781,0.45876932,0.32264465,0.38990173,-0.022400502,0.26929384,0.08254098,0.048773237,-0.12543711,-0.24880232,796.5934,801.4286,796.1905,817.5458,787.72894,-0.20135498046875,0.08465576171875,0.98443603515625,-1.2860107421875,4.867401123046875,4.284210205078125,1,2.0,1.0,1.0,2.0,10.00
2024-10-11 20:21:41.849,0.52418166,0.6275311,0.7588075,0.331203,0.5819769,0.45557728,0.081561275,0.90752286,0.2765978,0.19001763,0.16730781,0.45876932,0.32264465,0.38990173,-0.022400502,0.26929384,0.08254098,0.048773237,-0.12543711,-0.24880232,799.41394,801.4286,799.011,825.2015,807.0696,-0.20135498046875,0.08465576171875,0.98443603515625,-1.2860107421875,4.867401123046875,4.284210205078125,1,2.0,1.0,1.0,2.0,10.00
2024-10-11 20:21:41.850,0.52418166,0.6275311,0.7588075,0.331203,0.5819769,0.45557728,0.081561275,0.90752286,0.2765978,0.19001763,0.16730781,0.45876932,0.32264465,0.38990173,-0.022400502,0.26929384,0.08254098,0.048773237,-0.12543711,-0.24880232,797.8022,797.3993,801.02563,821.5751,543.1502,-0.20135498046875,0.08465576171875,0.98443603515625,-1.2860107421875,4.867401123046875,4.284210205078125,1,2.0,1.0,1.0,2.0,10.00
2024-10-11 20:21:41.851,0.52418166,0.6275311,0.7588075,0.331203,0.5819769,0.45557728,0.081561275,0.90752286,0.2765978,0.19001763,0.16730781,0.45876932,0.32264465,0.38990173,-0.022400502,0.26929384,0.08254098,0.048773237,-0.12543711,-0.24880232,794.9817,797.3993,801.8315,812.71063,509.70697,-0.20135498046875,0.08465576171875,0.98443603515625,-1.2860107421875,4.867401123046875,4.284210205078125,1,2.0,1.0,1.0,2.0,10.00
2024-10-11 20:21:41.852,0.52418166,0.6275311,0.7588075,0.331203,0.5819769,0.45557728,0.081561275,0.90752286,0.2765978,0.19001763,0.16730781,0.45876932,0.32264465,0.38990173,-0.022400502,0.26929384,0.08254098,0.048773237,-0.12543711,-0.24880232,800.2198,797.3993,800.6227,813.5165,759.5238,-0.20135498046875,0.08465576171875,0.98443603515625,-1.2860107421875,4.867401123046875,4.284210205078125,1,2.0,1.0,1.0,2.0,10.00
2024-10-11 20:21:41.852,0.52418166,0.6275311,0.7588075,0.331203,0.5819769,0.45557728,0.081561275,0.90752286,0.2765978,0.19001763,0.16730781,0.45876932,0.32264465,0.38990173,-0.022400502,0.26929384,0.08254098,0.048773237,-0.12543711,-0.24880232,806.6667,797.8022,798.20514,816.7399,926.337,-0.20135498046875,0.08465576171875,0.98443603515625,-1.2860107421875,4.867401123046875,4.284210205078125,1,2.0,1.0,1.0,2.0,10.00
2024-10-11 20:21:41.853,0.52418166,0.6275311,0.7588075,0.331203,0.5819769,0.45557728,0.081561275,0.90752286,0.2765978,0.19001763,0.16730781,0.45876932,0.32264465,0.38990173,-0.022400502,0.26929384,0.08254098,0.048773237,-0.12543711,-0.24880232,809.4872,790.54944,801.8315,813.91943,811.9048,-0.20135498046875,0.08465576171875,0.98443603515625,-1.2860107421875,4.867401123046875,4.284210205078125,1,2.0,1.0,1.0,2.0,10.00
2024-10-11 20:21:41.853,0.52418166,0.6275311,0.7588075,0.331203,0.5819769,0.45557728,0.081561275,0.90752286,0.2765978,0.19001763,0.16730781,0.45876932,0.32264465,0.38990173,-0.022400502,0.26929384,0.08254098,0.048773237,-0.12543711,-0.24880232,812.3077,787.326,802.6374,810.696,744.61536,-0.20135498046875,0.08465576171875,0.98443603515625,-1.2860107421875,4.867401123046875,4.284210205078125,1,2.0,1.0,1.0,2.0,10.00
2024-10-11 20:21:41.854,0.52418166,0.6275311,0.7588075,0.331203,0.5819769,0.45557728,0.081561275,0.90752286,0.2765978,0.19001763,0.16730781,0.45876932,0.32264465,0.38990173,-0.022400502,0.26929384,0.08254098,0.048773237,-0.12543711,-0.24880232,813.91943,803.44324,797.3993,813.1135,901.3553,-0.20135498046875,0.08465576171875,0.98443603515625,-1.2860107421875,4.867401123046875,4.284210205078125,1,2.0,1.0,1.0,2.0,10.00
2024-10-11 20:21:41.855,0.52418166,0.6275311,0.7588075,0.331203,0.5819769,0.45557728,0.081561275,0.90752286,0.2765978,0.19001763,0.16730781,0.45876932,0.32264465,0.38990173,-0.022400502,0.26929384,0.08254098,0.048773237,-0.12543711,-0.24880232,813.91943,801.02563,793.36993,813.5165,724.87177,-0.20135498046875,0.08465576171875,0.98443603515625,-1.2860107421875,4.867401123046875,4.284210205078125,1,2.0,1.0,1.0,2.0,10.00
2024-10-11 20:21:41.856,0.52418166,0.6275311,0.7588075,0.331203,0.5819769,0.45557728,0.081561275,0.90752286,0.2765978,0.19001763,0.16730781,0.45876932,0.32264465,0.38990173,-0.022400502,0.26929384,0.08254098,0.048773237,-0.12543711,-0.24880232,808.68134,795.78754,794.17584,801.8315,493.1868,-0.20135498046875,0.08465576171875,0.98443603515625,-1.2860107421875,4.867401123046875,4.284210205078125,1,2.0,1.0,1.0,2.0,10.00
2024-10-11 20:21:41.856,0.52418166,0.6275311,0.7588075,0.331203,0.5819769,0.45557728,0.081561275,0.90752286,0.2765978,0.19001763,0.16730781,0.45876932,0.32264465,0.38990173,-0.022400502,0.26929384,0.08254098,0.048773237,-0.12543711,-0.24880232,807.47253,800.2198,801.02563,794.9817,645.4945,-0.20135498046875,0.08465576171875,0.98443603515625,-1.2860107421875,4.867401123046875,4.284210205078125,1,2.0,1.0,1.0,2.0,10.00
2024-10-11 20:21:41.889,0.52418166,0.6275311,0.7588075,0.331203,0.5819769,0.45557728,0.081561275,0.90752286,0.2765978,0.19001763,0.16730781,0.45876932,0.32264465,0.38990173,-0.022400502,0.26929384,0.08254098,0.048773237,-0.12543711,-0.24880232,811.9048,799.41394,799.41394,808.2784,823.1868,-0.1995849609375,0.09381103515625,0.98773193359375,1.383209228515625,3.132781982421875,3.0804443359375,1,2.0,1.0,1.0,2.0,10.00
2024-10-11 20:21:41.890,0.52418166,0.6275311,0.73370355,0.331203,0.5819769,0.45557728,0.1223377,0.90752286,0.2765978,0.19001763,0.13317958,0.45876932,0.32264465,0.38990173,0.0055957516,0.26929384,0.08254098,0.048773237,-0.13578592,-0.24880232,801.02563,794.17584,793.36993,803.0403,723.2601,-0.1995849609375,0.09381103515625,0.98773193359375,1.383209228515625,3.132781982421875,3.0804443359375,1,2.0,1.0,1.0,2.0,10.00
2024-10-11 20:21:41.895,0.52418166,0.6275311,0.73370355,0.331203,0.5819769,0.45557728,0.1223377,0.90752286,0.2765978,0.19001763,0.13317958,0.45876932,0.32264465,0.38990173,0.0055957516,0.26929384,0.08254098,0.048773237,-0.13578592,-0.24880232,805.05493,791.75824,795.38464,796.99634,579.011,-0.1995849609375,0.09381103515625,0.98773193359375,1.383209228515625,3.132781982421875,3.0804443359375,1,2.0,1.0,1.0,2.0,10.00
2024-10-11 20:21:41.896,0.52418166,0.6275311,0.73370355,0.331203,0.5819769,0.45557728,0.1223377,0.90752286,0.2765978,0.19001763,0.13317958,0.45876932,0.32264465,0.38990173,0.0055957516,0.26929384,0.08254098,0.048773237,-0.13578592,-0.24880232,817.9487,797.3993,801.02563,803.8461,612.4542,-0.1995849609375,0.09381103515625,0.98773193359375,1.383209228515625,3.132781982421875,3.0804443359375,1,2.0,1.0,1.0,2.0,10.00
2024-10-11 20:21:41.897,0.52418166,0.6275311,0.73370355,0.331203,0.5819769,0.45557728,0.1223377,0.90752286,0.2765978,0.19001763,0.13317958,0.45876932,0.32264465,0.38990173,0.0055957516,0.26929384,0.08254098,0.048773237,-0.13578592,-0.24880232,810.293,793.36993,796.1905,802.23444,712.7839,-0.1995849609375,0.09381103515625,0.98773193359375,1.383209228515625,3.132781982421875,3.0804443359375,1,2.0,1.0,1.0,2.0,10.00
2024-10-11 20:21:41.897,0.52418166,0.6275311,0.73370355,0.331203,0.5819769,0.45557728,0.1223377,0.90752286,0.2765978,0.19001763,0.13317958,0.45876932,0.32264465,0.38990173,0.0055957516,0.26929384,0.08254098,0.048773237,-0.13578592,-0.24880232,804.2491,778.86444,792.96704,805.4579,724.4689,-0.1995849609375,0.09381103515625,0.98773193359375,1.383209228515625,3.132781982421875,3.0804443359375,1,2.0,1.0,1.0,2.0,10.00
2024-10-11 20:21:41.898,0.52418166,0.6275311,0.73370355,0.331203,0.5819769,0.45557728,0.1223377,0.90752286,0.2765978,0.19001763,0.13317958,0.45876932,0.32264465,0.38990173,0.0055957516,0.26929384,0.08254098,0.048773237,-0.13578592,-0.24880232,801.02563,779.67035,799.41394,804.65204,662.4176,-0.1995849609375,0.09381103515625,0.98773193359375,1.383209228515625,3.132781982421875,3.0804443359375,1,2.0,1.0,1.0,2.0,10.00
2024-10-11 20:21:41.899,0.52418166,0.6275311,0.73370355,0.331203,0.5819769,0.45557728,0.1223377,0.90752286,0.2765978,0.19001763,0.13317958,0.45876932,0.32264465,0.38990173,0.0055957516,0.26929384,0.08254098,0.048773237,-0.13578592,-0.24880232,798.60803,798.60803,803.8461,807.47253,766.3736,-0.1995849609375,0.09381103515625,0.98773193359375,1.383209228515625,3.132781982421875,3.0804443359375,1,2.0,1.0,1.0,2.0,10.00
2024-10-11 20:21:41.899,0.52418166,0.6275311,0.73370355,0.331203,0.5819769,0.45557728,0.1223377,0.90752286,0.2765978,0.19001763,0.13317958,0.45876932,0.32264465,0.38990173,0.0055957516,0.26929384,0.08254098,0.048773237,-0.13578592,-0.24880232,792.5641,803.8461,800.6227,811.9048,861.06226,-0.1995849609375,0.09381103515625,0.98773193359375,1.383209228515625,3.132781982421875,3.0804443359375,1,2.0,1.0,1.0,2.0,10.00
2024-10-11 20:21:41.900,0.52418166,0.6275311,0.73370355,0.331203,0.5819769,0.45557728,0.1223377,0.90752286,0.2765978,0.19001763,0.13317958,0.45876932,0.32264465,0.38990173,0.0055957516,0.26929384,0.08254098,0.048773237,-0.13578592,-0.24880232,788.1319,792.1612,795.78754,810.696,740.18317,-0.1995849609375,0.09381103515625,0.98773193359375,1.383209228515625,3.132781982421875,3.0804443359375,1,2.0,1.0,1.0,2.0,10.00
2024-10-11 20:21:41.901,0.52418166,0.6275311,0.73370355,0.331203,0.5819769,0.45557728,0.1223377,0.90752286,0.2765978,0.19001763,0.13317958,0.45876932,0.32264465,0.38990173,0.0055957516,0.26929384,0.08254098,0.048773237,-0.13578592,-0.24880232,794.9817,792.1612,801.4286,817.1429,751.8681,-0.1995849609375,0.09381103515625,0.98773193359375,1.383209228515625,3.132781982421875,3.0804443359375,1,2.0,1.0,1.0,2.0,10.00
2024-10-11 20:21:41.901,0.52418166,0.6275311,0.73370355,0.331203,0.5819769,0.45557728,0.1223377,0.90752286,0.2765978,0.19001763,0.13317958,0.45876932,0.32264465,0.38990173,0.0055957516,0.26929384,0.08254098,0.048773237,-0.13578592,-0.24880232,806.6667,793.36993,804.2491,829.6337,905.78754,-0.1995849609375,0.09381103515625,0.98773193359375,1.383209228515625,3.132781982421875,3.0804443359375,1,2.0,1.0,1.0,2.0,10.00
