TimeStamp,Delta_TP9,Delta_AF7,Delta_AF8,Delta_TP10,Theta_TP9,Theta_AF7,Theta_AF8,Theta_TP10,Alpha_TP9,Alpha_AF7,Alpha_AF8,Alpha_TP10,Beta_TP9,Beta_AF7,Beta_AF8,Beta_TP10,Gamma_TP9,Gamma_AF7,Gamma_AF8,Gamma_TP10,RAW_TP9,RAW_AF7,RAW_AF8,RAW_TP10,AUX_RIGHT,Accelerometer_X,Accelerometer_Y,Accelerometer_Z,Gyro_X,Gyro_Y,Gyro_Z,HeadBandOn,HSI_TP9,HSI_AF7,HSI_AF8,HSI_TP10,Battery,Elements
2024-10-11 20:19:06.850,0.5311754,0.3848941,0.60409534,0.90271753,0.7342074,0.11767528,0.4963768,0.8745015,0.7143947,0.13764575,0.07348631,0.7560493,0.51315814,0.27564847,-0.07784895,0.77781075,-0.17142166,-0.33466488,-0.13224132,-1.731093E-4,797.3993,788.93774,799.41394,790.9524,669.67035,-0.15740966796875,0.07098388671875,0.99371337890625,-0.7476806640625,-0.575714111328125,2.160797119140625,1,1.0,1.0,1.0,1.0,10.00
2024-10-11 20:19:06.851,0.5311754,0.3848941,0.60409534,0.90271753,0.7342074,0.11767528,0.4963768,0.8745015,0.7143947,0.13764575,0.07348631,0.7560493,0.51315814,0.27564847,-0.07784895,0.77781075,-0.17142166,-0.33466488,-0.13224132,-1.731093E-4,791.3553,791.3553,804.2491,789.34064,763.1502,-0.15740966796875,0.07098388671875,0.99371337890625,-0.7476806640625,-0.575714111328125,2.160797119140625,1,1.0,1.0,1.0,1.0,10.00
2024-10-11 20:19:06.853,0.5311754,0.3848941,0.60409534,0.90271753,0.7342074,0.11767528,0.4963768,0.8745015,0.7143947,0.13764575,0.07348631,0.7560493,0.51315814,0.27564847,-0.07784895,0.77781075,-0.17142166,-0.33466488,-0.13224132,-1.731093E-4,792.5641,788.93774,808.68134,788.5348,853.4066,-0.15740966796875,0.07098388671875,0.99371337890625,-0.7476806640625,-0.575714111328125,2.160797119140625,1,1.0,1.0,1.0,1.0,10.00
2024-10-11 20:19:06.854,0.5311754,0.3848941,0.60409534,0.90271753,0.7342074,0.11767528,0.4963768,0.8745015,0.7143947,0.13764575,0.07348631,0.7560493,0.51315814,0.27564847,-0.07784895,0.77781075,-0.17142166,-0.33466488,-0.13224132,-1.731093E-4,788.93774,790.54944,804.65204,791.75824,716.0073,-0.15740966796875,0.07098388671875,0.99371337890625,-0.7476806640625,-0.575714111328125,2.160797119140625,1,1.0,1.0,1.0,1.0,10.00
2024-10-11 20:19:06.855,0.5311754,0.3848941,0.60409534,0.90271753,0.7342074,0.11767528,0.4963768,0.8745015,0.7143947,0.13764575,0.07348631,0.7560493,0.51315814,0.27564847,-0.07784895,0.77781075,-0.17142166,-0.33466488,-0.13224132,-1.731093E-4,790.14655,794.17584,805.05493,794.9817,544.35895,-0.15740966796875,0.07098388671875,0.99371337890625,-0.7476806640625,-0.575714111328125,2.160797119140625,1,1.0,1.0,1.0,1.0,10.00
2024-10-11 20:19:06.856,0.5311754,0.3848941,0.60409534,0.90271753,0.7342074,0.11767528,0.4963768,0.8745015,0.7143947,0.13764575,0.07348631,0.7560493,0.51315814,0.27564847,-0.07784895,0.77781075,-0.17142166,-0.33466488,-0.13224132,-1.731093E-4,802.6374,796.5934,808.2784,803.44324,830.84247,-0.15740966796875,0.07098388671875,0.99371337890625,-0.7476806640625,-0.575714111328125,2.160797119140625,1,1.0,1.0,1.0,1.0,10.00
2024-10-11 20:19:06.857,0.5311754,0.3848941,0.60409534,0.90271753,0.7342074,0.11767528,0.4963768,0.8745015,0.7143947,0.13764575,0.07348631,0.7560493,0.51315814,0.27564847,-0.07784895,0.77781075,-0.17142166,-0.33466488,-0.13224132,-1.731093E-4,806.6667,796.1905,812.3077,807.0696,957.76556,-0.15740966796875,0.07098388671875,0.99371337890625,-0.7476806640625,-0.575714111328125,2.160797119140625,1,1.0,1.0,1.0,1.0,10.00
2024-10-11 20:19:06.859,0.4933226,0.35277456,0.35610446,0.8689855,0.70283586,0.088588394,0.118103206,0.8202271,0.72706884,0.14477666,0.07348631,0.7592417,0.49754167,0.25924098,-0.07279809,0.75428885,-0.16372405,-0.33074117,-0.11236564,-0.014334092,801.8315,797.8022,811.9048,801.8315,636.2271,-0.15740966796875,0.07098388671875,0.99371337890625,-0.7476806640625,-0.575714111328125,2.160797119140625,1,1.0,1.0,1.0,1.0,10.00
2024-10-11 20:19:06.864,0.4933226,0.35277456,0.35610446,0.8689855,0.70283586,0.088588394,0.118103206,0.8202271,0.72706884,0.14477666,0.07348631,0.7592417,0.49754167,0.25924098,-0.07279809,0.75428885,-0.16372405,-0.33074117,-0.11236564,-0.014334092,793.36993,798.60803,806.26373,797.8022,622.9304,-0.15740966796875,0.07098388671875,0.99371337890625,-0.7476806640625,-0.575714111328125,2.160797119140625,1,1.0,1.0,1.0,1.0,10.00
2024-10-11 20:19:06.865,0.4933226,0.35277456,0.35610446,0.8689855,0.70283586,0.088588394,0.118103206,0.8202271,0.72706884,0.14477666,0.07348631,0.7592417,0.49754167,0.25924098,-0.07279809,0.75428885,-0.16372405,-0.33074117,-0.11236564,-0.014334092,801.4286,800.2198,805.05493,806.26373,983.1502,-0.15740966796875,0.07098388671875,0.99371337890625,-0.7476806640625,-0.575714111328125,2.160797119140625,1,1.0,1.0,1.0,1.0,10.00
2024-10-11 20:19:06.866,0.4933226,0.35277456,0.35610446,0.8689855,0.70283586,0.088588394,0.118103206,0.8202271,0.72706884,0.14477666,0.07348631,0.7592417,0.49754167,0.25924098,-0.07279809,0.75428885,-0.16372405,-0.33074117,-0.11236564,-0.014334092,801.02563,797.8022,804.2491,805.05493,969.0476,-0.15740966796875,0.07098388671875,0.99371337890625,-0.7476806640625,-0.575714111328125,2.160797119140625,1,1.0,1.0,1.0,1.0,10.00
2024-10-11 20:19:06.868,0.4933226,0.35277456,0.35610446,0.8689855,0.70283586,0.088588394,0.118103206,0.8202271,0.72706884,0.14477666,0.07348631,0.7592417,0.49754167,0.25924098,-0.07279809,0.75428885,-0.16372405,-0.33074117,-0.11236564,-0.014334092,788.1319,789.7436,808.2784,796.99634,670.07324,-0.15740966796875,0.07098388671875,0.99371337890625,-0.7476806640625,-0.575714111328125,2.160797119140625,1,1.0,1.0,1.0,1.0,10.00
2024-10-11 20:19:06.869,0.4933226,0.35277456,0.35610446,0.8689855,0.70283586,0.088588394,0.118103206,0.8202271,0.72706884,0.14477666,0.07348631,0.7592417,0.49754167,0.25924098,-0.07279809,0.75428885,-0.16372405,-0.33074117,-0.11236564,-0.014334092,790.14655,796.1905,807.47253,796.5934,589.0842,-0.14483642578125,0.08355712890625,0.9925537109375,-0.336456298828125,-0.785064697265625,3.45428466796875,1,1.0,1.0,1.0,1.0,10.00
2024-10-11 20:19:06.870,0.4933226,0.35277456,0.35610446,0.8689855,0.70283586,0.088588394,0.118103206,0.8202271,0.72706884,0.14477666,0.07348631,0.7592417,0.49754167,0.25924098,-0.07279809,0.75428885,-0.16372405,-0.33074117,-0.11236564,-0.014334092,804.65204,805.05493,797.8022,806.6667,747.8388,-0.14483642578125,0.08355712890625,0.9925537109375,-0.336456298828125,-0.785064697265625,3.45428466796875,1,1.0,1.0,1.0,1.0,10.00
2024-10-11 20:19:06.871,0.4933226,0.35277456,0.35610446,0.8689855,0.70283586,0.088588394,0.118103206,0.8202271,0.72706884,0.14477666,0.07348631,0.7592417,0.49754167,0.25924098,-0.07279809,0.75428885,-0.16372405,-0.33074117,-0.11236564,-0.014334092,829.2308,801.02563,809.0842,836.4835,816.337,-0.14483642578125,0.08355712890625,0.9925537109375,-0.336456298828125,-0.785064697265625,3.45428466796875,1,1.0,1.0,1.0,1.0,10.00
2024-10-11 20:19:06.872,0.4933226,0.35277456,0.35610446,0.8689855,0.70283586,0.088588394,0.118103206,0.8202271,0.72706884,0.14477666,0.07348631,0.7592417,0.49754167,0.25924098,-0.07279809,0.75428885,-0.16372405,-0.33074117,-0.11236564,-0.014334092,794.9817,800.6227,816.7399,807.0696,646.30035,-0.14483642578125,0.08355712890625,0.9925537109375,-0.336456298828125,-0.785064697265625,3.45428466796875,1,1.0,1.0,1.0,1.0,10.00
2024-10-11 20:19:06.873,0.4933226,0.35277456,0.35610446,0.8689855,0.70283586,0.088588394,0.118103206,0.8202271,0.72706884,0.14477666,0.07348631,0.7592417,0.49754167,0.25924098,-0.07279809,0.75428885,-0.16372405,-0.33074117,-0.11236564,-0.014334092,750.65936,799.81683,809.0842,757.50916,589.0842,-0.14483642578125,0.08355712890625,0.9925537109375,-0.336456298828125,-0.785064697265625,3.45428466796875,1,1.0,1.0,1.0,1.0,10.00
2024-10-11 20:19:06.874,0.4933226,0.35277456,0.35610446,0.8689855,0.70283586,0.088588394,0.118103206,0.8202271,0.72706884,0.14477666,0.07348631,0.7592417,0.49754167,0.25924098,-0.07279809,0.75428885,-0.16372405,-0.33074117,-0.11236564,-0.014334092,756.30035,799.011,805.8608,757.9121,795.78754,-0.14483642578125,0.08355712890625,0.9925537109375,-0.336456298828125,-0.785064697265625,3.45428466796875,1,1.0,1.0,1.0,1.0,10.00
2024-10-11 20:19:06.876,0.4933226,0.35277456,0.35610446,0.8689855,0.70283586,0.088588394,0.118103206,0.8202271,0.72706884,0.14477666,0.07348631,0.7592417,0.49754167,0.25924098,-0.07279809,0.75428885,-0.16372405,-0.33074117,-0.11236564,-0.014334092,751.8681,806.6667,806.6667,753.47986,945.2747,-0.14483642578125,0.08355712890625,0.9925537109375,-0.336456298828125,-0.785064697265625,3.45428466796875,1,1.0,1.0,1.0,1.0,10.00
2024-10-11 20:19:06.877,0.4933226,0.35277456,0.35610446,0.8689855,0.70283586,0.088588394,0.118103206,0.8202271,0.72706884,0.14477666,0.07348631,0.7592417,0.49754167,0.25924098,-0.07279809,0.75428885,-0.16372405,-0.33074117,-0.11236564,-0.014334092,738.97437,812.3077,813.91943,740.989,709.5604,-0.14483642578125,0.08355712890625,0.9925537109375,-0.336456298828125,-0.785064697265625,3.45428466796875,1,1.0,1.0,1.0,1.0,10.00
2024-10-11 20:19:06.878,0.4933226,0.35277456,0.35610446,0.8689855,0.70283586,0.088588394,0.118103206,0.8202271,0.72706884,0.14477666,0.07348631,0.7592417,0.49754167,0.25924098,-0.07279809,0.75428885,-0.16372405,-0.33074117,-0.11236564,-0.014334092,717.619,821.1722,819.15753,724.4689,541.53845,-0.14483642578125,0.08355712890625,0.9925537109375,-0.336456298828125,-0.785064697265625,3.45428466796875,1,1.0,1.0,1.0,1.0,10.00
2024-10-11 20:19:06.879,0.4933226,0.35277456,0.35610446,0.8689855,0.70283586,0.088588394,0.118103206,0.8202271,0.72706884,0.14477666,0.07348631,0.7592417,0.49754167,0.25924098,-0.07279809,0.75428885,-0.16372405,-0.33074117,-0.11236564,-0.014334092,693.8461,814.7253,817.5458,702.71063,706.7399,-0.14483642578125,0.08355712890625,0.9925537109375,-0.336456298828125,-0.785064697265625,3.45428466796875,1,1.0,1.0,1.0,1.0,10.00
2024-10-11 20:19:06.880,0.4933226,0.35277456,0.35610446,0.8689855,0.70283586,0.088588394,0.118103206,0.8202271,0.72706884,0.14477666,0.07348631,0.7592417,0.49754167,0.25924098,-0.07279809,0.75428885,-0.16372405,-0.33074117,-0.11236564,-0.014334092,685.78754,807.8755,819.15753,697.8755,797.3993,-0.14483642578125,0.08355712890625,0.9925537109375,-0.336456298828125,-0.785064697265625,3.45428466796875,1,1.0,1.0,1.0,1.0,10.00
2024-10-11 20:19:06.881,0.4933226,0.35277456,0.35610446,0.8689855,0.70283586,0.088588394,0.118103206,0.8202271,0.72706884,0.14477666,0.07348631,0.7592417,0.49754167,0.25924098,-0.07279809,0.75428885,-0.16372405,-0.33074117,-0.11236564,-0.014334092,680.9524,821.978,823.9927,697.47253,656.77655,-0.14483642578125,0.08355712890625,0.9925537109375,-0.336456298828125,-0.785064697265625,3.45428466796875,1,1.0,1.0,1.0,1.0,10.00
2024-10-11 20:19:06.952,0.4933226,0.35277456,0.35610446,0.8689855,0.70283586,0.088588394,0.118103206,0.8202271,0.72706884,0.14477666,0.07348631,0.7592417,0.49754167,0.25924098,-0.07279809,0.75428885,-0.16372405,-0.33074117,-0.11236564,-0.014334092,669.2674,827.2161,821.978,677.326,592.71063,-0.14410400390625,0.0782470703125,0.9913330078125,-0.777587890625,-0.9869384765625,4.762725830078125,1,1.0,1.0,1.0,1.0,10.00
2024-10-11 20:19:06.953,0.4933226,0.35277456,0.35610446,0.8689855,0.70283586,0.088588394,0.118103206,0.8202271,0.72706884,0.14477666,0.07348631,0.7592417,0.49754167,0.25924098,-0.07279809,0.75428885,-0.16372405,-0.33074117,-0.11236564,-0.014334092,663.6264,820.7692,817.5458,673.2967,849.7802,-0.14410400390625,0.0782470703125,0.9913330078125,-0.777587890625,-0.9869384765625,4.762725830078125,1,1.0,1.0,1.0,1.0,10.00
2024-10-11 20:19:06.955,0.4933226,0.35277456,0.35610446,0.8689855,0.70283586,0.088588394,0.118103206,0.8202271,0.72706884,0.14477666,0.07348631,0.7592417,0.49754167,0.25924098,-0.07279809,0.75428885,-0.16372405,-0.33074117,-0.11236564,-0.014334092,650.7326,824.3956,819.5604,674.10254,948.49817,-0.14410400390625,0.0782470703125,0.9913330078125,-0.777587890625,-0.9869384765625,4.762725830078125,1,1.0,1.0,1.0,1.0,10.00
2024-10-11 20:19:06.956,0.4933226,0.35277456,0.35610446,0.8689855,0.70283586,0.088588394,0.118103206,0.8202271,0.72706884,0.14477666,0.07348631,0.7592417,0.49754167,0.25924098,-0.07279809,0.75428885,-0.16372405,-0.33074117,-0.11236564,-0.014334092,638.6447,824.7985,816.7399,661.6117,636.2271,-0.14410400390625,0.0782470703125,0.9913330078125,-0.777587890625,-0.9869384765625,4.762725830078125,1,1.0,1.0,1.0,1.0,10.00
2024-10-11 20:19:06.957,0.4933226,0.35277456,0.35610446,0.8689855,0.70283586,0.088588394,0.118103206,0.8202271,0.72706884,0.14477666,0.07348631,0.7592417,0.49754167,0.25924098,-0.07279809,0.75428885,-0.16372405,-0.33074117,-0.11236564,-0.014334092,635.0183,815.12823,818.3516,651.53845,676.1172,-0.14410400390625,0.0782470703125,0.9913330078125,-0.777587890625,-0.9869384765625,4.762725830078125,1,1.0,1.0,1.0,1.0,10.00
2024-10-11 20:19:06.957,0.4933226,0.35277456,0.35610446,0.8689855,0.70283586,0.088588394,0.118103206,0.8202271,0.72706884,0.14477666,0.07348631,0.7592417,0.49754167,0.25924098,-0.07279809,0.75428885,-0.16372405,-0.33074117,-0.11236564,-0.014334092,648.71796,819.9634,822.7839,651.13556,869.5238,-0.14410400390625,0.0782470703125,0.9913330078125,-0.777587890625,-0.9869384765625,4.762725830078125,1,1.0,1.0,1.0,1.0,10.00
2024-10-11 20:19:06.958,0.4933226,0.35277456,0.35610446,0.8689855,0.70283586,0.088588394,0.118103206,0.8202271,0.72706884,0.14477666,0.07348631,0.7592417,0.49754167,0.25924098,-0.07279809,0.75428885,-0.16372405,-0.33074117,-0.11236564,-0.014334092,667.25275,824.3956,815.5311,661.6117,786.9231,-0.14410400390625,0.0782470703125,0.9913330078125,-0.777587890625,-0.9869384765625,4.762725830078125,1,1.0,1.0,1.0,1.0,10.00
2024-10-11 20:19:06.959,0.4933226,0.35277456,0.35610446,0.8689855,0.70283586,0.088588394,0.118103206,0.8202271,0.72706884,0.14477666,0.07348631,0.7592417,0.49754167,0.25924098,-0.07279809,0.75428885,-0.16372405,-0.33074117,-0.11236564,-0.014334092,655.9707,818.3516,810.293,658.7912,655.56775,-0.14410400390625,0.0782470703125,0.9913330078125,-0.777587890625,-0.9869384765625,4.762725830078125,1,1.0,1.0,1.0,1.0,10.00
2024-10-11 20:19:06.960,0.4933226,0.35277456,0.35610446,0.8689855,0.70283586,0.088588394,0.118103206,0.8202271,0.72706884,0.14477666,0.07348631,0.7592417,0.49754167,0.25924098,-0.07279809,0.75428885,-0.16372405,-0.33074117,-0.11236564,-0.014334092,645.89746,824.3956,821.978,659.59705,775.2381,-0.14410400390625,0.0782470703125,0.9913330078125,-0.777587890625,-0.9869384765625,4.762725830078125,1,1.0,1.0,1.0,1.0,10.00
2024-10-11 20:19:06.961,0.4933226,0.341306,0.30886754,0.8689855,0.70283586,0.07069656,0.09027646,0.8202271,0.72706884,0.14598826,0.083392866,0.7592417,0.49754167,0.25406843,-0.06284954,0.75428885,-0.16372405,-0.30934614,-0.12191378,-0.014334092,651.13556,823.5897,825.6044,669.2674,884.83514,-0.14410400390625,0.0782470703125,0.9913330078125,-0.777587890625,-0.9869384765625,4.762725830078125,1,1.0,1.0,1.0,1.0,10.00
2024-10-11 20:19:06.965,0.4933226,0.341306,0.30886754,0.8689855,0.70283586,0.07069656,0.09027646,0.8202271,0.72706884,0.14598826,0.083392866,0.7592417,0.49754167,0.25406843,-0.06284954,0.75428885,-0.16372405,-0.30934614,-0.12191378,-0.014334092,652.3443,819.9634,813.91943,671.685,731.7216,-0.14410400390625,0.0782470703125,0.9913330078125,-0.777587890625,-0.9869384765625,4.762725830078125,1,1.0,1.0,1.0,1.0,10.00
2024-10-11 20:19:06.965,0.4933226,0.341306,0.30886754,0.8689855,0.70283586,0.07069656,0.09027646,0.8202271,0.72706884,0.14598826,0.083392866,0.7592417,0.49754167,0.25406843,-0.06284954,0.75428885,-0.16372405,-0.30934614,-0.12191378,-0.014334092,668.0586,820.7692,809.0842,681.75824,741.39197,-0.14410400390625,0.0782470703125,0.9913330078125,-0.777587890625,-0.9869384765625,4.762725830078125,1,1.0,1.0,1.0,1.0,10.00
2024-10-11 20:19:06.966,0.4933226,0.341306,0.30886754,0.8689855,0.70283586,0.07069656,0.09027646,0.8202271,0.72706884,0.14598826,0.083392866,0.7592417,0.49754167,0.25406843,-0.06284954,0.75428885,-0.16372405,-0.30934614,-0.12191378,-0.014334092,676.9231,811.0989,812.3077,685.78754,884.0293,-0.14105224609375,0.07403564453125,0.9893798828125,-1.233673095703125,-0.620574951171875,4.134674072265625,1,1.0,1.0,1.0,1.0,10.00
2024-10-11 20:19:06.967,0.4933226,0.341306,0.30886754,0.8689855,0.70283586,0.07069656,0.09027646,0.8202271,0.72706884,0.14598826,0.083392866,0.7592417,0.49754167,0.25406843,-0.06284954,0.75428885,-0.16372405,-0.30934614,-0.12191378,-0.014334092,675.31134,807.47253,817.9487,679.34064,847.3626,-0.14105224609375,0.07403564453125,0.9893798828125,-1.233673095703125,-0.620574951171875,4.134674072265625,1,1.0,1.0,1.0,1.0,10.00
2024-10-11 20:19:06.967,0.4933226,0.341306,0.30886754,0.8689855,0.70283586,0.07069656,0.09027646,0.8202271,0.72706884,0.14598826,0.083392866,0.7592417,0.49754167,0.25406843,-0.06284954,0.75428885,-0.16372405,-0.30934614,-0.12191378,-0.014334092,683.36993,802.6374,819.15753,689.011,796.1905,-0.14105224609375,0.07403564453125,0.9893798828125,-1.233673095703125,-0.620574951171875,4.134674072265625,1,1.0,1.0,1.0,1.0,10.00
2024-10-11 20:19:06.968,0.4933226,0.341306,0.30886754,0.8689855,0.70283586,0.07069656,0.09027646,0.8202271,0.72706884,0.14598826,0.083392866,0.7592417,0.49754167,0.25406843,-0.06284954,0.75428885,-0.16372405,-0.30934614,-0.12191378,-0.014334092,700.696,792.5641,817.5458,714.7985,825.6044,-0.14105224609375,0.07403564453125,0.9893798828125,-1.233673095703125,-0.620574951171875,4.134674072265625,1,1.0,1.0,1.0,1.0,10.00
2024-10-11 20:19:06.968,0.4933226,0.341306,0.30886754,0.8689855,0.70283586,0.07069656,0.09027646,0.8202271,0.72706884,0.14598826,0.083392866,0.7592417,0.49754167,0.25406843,-0.06284954,0.75428885,-0.16372405,-0.30934614,-0.12191378,-0.014334092,708.3516,793.7729,807.8755,727.28937,925.9341,-0.14105224609375,0.07403564453125,0.9893798828125,-1.233673095703125,-0.620574951171875,4.134674072265625,1,1.0,1.0,1.0,1.0,10.00
2024-10-11 20:19:06.969,0.4933226,0.341306,0.30886754,0.8689855,0.70283586,0.07069656,0.09027646,0.8202271,0.72706884,0.14598826,0.083392866,0.7592417,0.49754167,0.25406843,-0.06284954,0.75428885,-0.16372405,-0.30934614,-0.12191378,-0.014334092,716.4103,798.60803,811.50183,733.3333,969.0476,-0.14105224609375,0.07403564453125,0.9893798828125,-1.233673095703125,-0.620574951171875,4.134674072265625,1,1.0,1.0,1.0,1.0,10.00
2024-10-11 20:19:06.969,0.4933226,0.341306,0.30886754,0.8689855,0.70283586,0.07069656,0.09027646,0.8202271,0.72706884,0.14598826,0.083392866,0.7592417,0.49754167,0.25406843,-0.06284954,0.75428885,-0.16372405,-0.30934614,-0.12191378,-0.014334092,726.4835,788.93774,808.68134,737.76556,827.619,-0.14105224609375,0.07403564453125,0.9893798828125,-1.233673095703125,-0.620574951171875,4.134674072265625,1,1.0,1.0,1.0,1.0,10.00
2024-10-11 20:19:06.970,0.4933226,0.341306,0.30886754,0.8689855,0.70283586,0.07069656,0.09027646,0.8202271,0.72706884,0.14598826,0.083392866,0.7592417,0.49754167,0.25406843,-0.06284954,0.75428885,-0.16372405,-0.30934614,-0.12191378,-0.014334092,730.9158,791.3553,794.9817,739.3773,851.79486,-0.14105224609375,0.07403564453125,0.9893798828125,-1.233673095703125,-0.620574951171875,4.134674072265625,1,1.0,1.0,1.0,1.0,10.00
2024-10-11 20:19:06.970,0.4933226,0.341306,0.30886754,0.8689855,0.70283586,0.07069656,0.09027646,0.8202271,0.72706884,0.14598826,0.083392866,0.7592417,0.49754167,0.25406843,-0.06284954,0.75428885,-0.16372405,-0.30934614,-0.12191378,-0.014334092,735.34796,798.20514,793.7729,753.0769,1037.1428,-0.14105224609375,0.07403564453125,0.9893798828125,-1.233673095703125,-0.620574951171875,4.134674072265625,1,1.0,1.0,1.0,1.0,10.00
2024-10-11 20:19:06.971,0.4933226,0.341306,0.30886754,0.8689855,0.70283586,0.07069656,0.09027646,0.8202271,0.72706884,0.14598826,0.083392866,0.7592417,0.49754167,0.25406843,-0.06284954,0.75428885,-0.16372405,-0.30934614,-0.12191378,-0.014334092,744.61536,793.36993,799.81683,762.74725,964.21246,-0.14105224609375,0.07403564453125,0.9893798828125,-1.233673095703125,-0.620574951171875,4.134674072265625,1,1.0,1.0,1.0,1.0,10.00
2024-10-11 20:19:06.972,0.4933226,0.341306,0.30886754,0.8689855,0.70283586,0.07069656,0.09027646,0.8202271,0.72706884,0.14598826,0.083392866,0.7592417,0.49754167,0.25406843,-0.06284954,0.75428885,-0.16372405,-0.30934614,-0.12191378,-0.014334092,741.79486,792.1612,806.6667,753.8828,717.619,-0.14105224609375,0.07403564453125,0.9893798828125,-1.233673095703125,-0.620574951171875,4.134674072265625,1,1.0,1.0,1.0,1.0,10.00
2024-10-11 20:19:06.972,0.4933226,0.341306,0.30886754,0.8689855,0.70283586,0.07069656,0.09027646,0.8202271,0.72706884,0.14598826,0.083392866,0.7592417,0.49754167,0.25406843,-0.06284954,0.75428885,-0.16372405,-0.30934614,-0.12191378,-0.014334092,752.27106,794.9817,804.65204,767.5824,727.28937,-0.14105224609375,0.07403564453125,0.9893798828125,-1.233673095703125,-0.620574951171875,4.134674072265625,1,1.0,1.0,1.0,1.0,10.00
2024-10-11 20:19:06.973,0.4933226,0.341306,0.30886754,0.8689855,0.70283586,0.07069656,0.09027646,0.8202271,0.72706884,0.14598826,0.083392866,0.7592417,0.49754167,0.25406843,-0.06284954,0.75428885,-0.16372405,-0.30934614,-0.12191378,-0.014334092,768.3883,794.17584,803.8461,785.7143,1079.4506,-0.14105224609375,0.07403564453125,0.9893798828125,-1.233673095703125,-0.620574951171875,4.134674072265625,1,1.0,1.0,1.0,1.0,10.00
2024-10-11 20:19:06.973,0.4933226,0.341306,0.30886754,0.8689855,0.70283586,0.07069656,0.09027646,0.8202271,0.72706884,0.14598826,0.083392866,0.7592417,0.49754167,0.25406843,-0.06284954,0.75428885,-0.16372405,-0.30934614,-0.12191378,-0.014334092,761.53845,786.9231,800.2198,782.8938,1149.9634,-0.14105224609375,0.07403564453125,0.9893798828125,-1.233673095703125,-0.620574951171875,4.134674072265625,1,1.0,1.0,1.0,1.0,10.00
2024-10-11 20:19:06.974,0.4933226,0.341306,0.30886754,0.8689855,0.70283586,0.07069656,0.09027646,0.8202271,0.72706884,0.14598826,0.083392866,0.7592417,0.49754167,0.25406843,-0.06284954,0.75428885,-0.16372405,-0.30934614,-0.12191378,-0.014334092,768.3883,782.0879,793.7729,780.07324,657.98535,-0.14105224609375,0.07403564453125,0.9893798828125,-1.233673095703125,-0.620574951171875,4.134674072265625,1,1.0,1.0,1.0,1.0,10.00
2024-10-11 20:19:06.974,0.4933226,0.341306,0.30886754,0.8689855,0.70283586,0.07069656,0.09027646,0.8202271,0.72706884,0.14598826,0.083392866,0.7592417,0.49754167,0.25406843,-0.06284954,0.75428885,-0.16372405,-0.30934614,-0.12191378,-0.014334092,777.6557,787.326,791.3553,784.90845,576.99634,-0.14105224609375,0.07403564453125,0.9893798828125,-1.233673095703125,-0.620574951171875,4.134674072265625,1,1.0,1.0,1.0,1.0,10.00
2024-10-11 20:19:06.974,0.4933226,0.341306,0.30886754,0.8689855,0.70283586,0.07069656,0.09027646,0.8202271,0.72706884,0.14598826,0.083392866,0.7592417,0.49754167,0.25406843,-0.06284954,0.75428885,-0.16372405,-0.30934614,-0.12191378,-0.014334092,779.2674,796.99634,793.36993,790.54944,839.304,-0.14105224609375,0.07403564453125,0.9893798828125,-1.233673095703125,-0.620574951171875,4.134674072265625,1,1.0,1.0,1.0,1.0,10.00
2024-10-11 20:19:06.975,0.4933226,0.341306,0.30886754,0.8689855,0.70283586,0.07069656,0.09027646,0.8202271,0.72706884,0.14598826,0.083392866,0.7592417,0.49754167,0.25406843,-0.06284954,0.75428885,-0.16372405,-0.30934614,-0.12191378,-0.014334092,781.685,800.2198,795.38464,795.78754,917.8755,-0.14105224609375,0.07403564453125,0.9893798828125,-1.233673095703125,-0.620574951171875,4.134674072265625,1,1.0,1.0,1.0,1.0,10.00
2024-10-11 20:19:06.976,0.4933226,0.341306,0.30886754,0.8689855,0.70283586,0.07069656,0.09027646,0.8202271,0.72706884,0.14598826,0.083392866,0.7592417,0.49754167,0.25406843,-0.06284954,0.75428885,-0.16372405,-0.30934614,-0.12191378,-0.014334092,778.86444,799.41394,796.1905,793.7729,790.9524,-0.14105224609375,0.07403564453125,0.9893798828125,-1.233673095703125,-0.620574951171875,4.134674072265625,1,1.0,1.0,1.0,1.0,10.00
2024-10-11 20:19:06.976,0.4933226,0.341306,0.30886754,0.8689855,0.70283586,0.07069656,0.09027646,0.8202271,0.72706884,0.14598826,0.083392866,0.7592417,0.49754167,0.25406843,-0.06284954,0.75428885,-0.16372405,-0.30934614,-0.12191378,-0.014334092,786.52014,796.5934,799.41394,799.011,848.97437,-0.14105224609375,0.07403564453125,0.9893798828125,-1.233673095703125,-0.620574951171875,4.134674072265625,1,1.0,1.0,1.0,1.0,10.00
2024-10-11 20:19:06.977,0.4933226,0.341306,0.30886754,0.8689855,0.70283586,0.07069656,0.09027646,0.8202271,0.72706884,0.14598826,0.083392866,0.7592417,0.49754167,0.25406843,-0.06284954,0.75428885,-0.16372405,-0.30934614,-0.12191378,-0.014334092,797.8022,794.9817,801.02563,809.0842,1214.4323,-0.14105224609375,0.07403564453125,0.9893798828125,-1.233673095703125,-0.620574951171875,4.134674072265625,1,1.0,1.0,1.0,1.0,10.00
2024-10-11 20:19:06.977,0.4933226,0.341306,0.30886754,0.8689855,0.70283586,0.07069656,0.09027646,0.8202271,0.72706884,0.14598826,0.083392866,0.7592417,0.49754167,0.25406843,-0.06284954,0.75428885,-0.16372405,-0.30934614,-0.12191378,-0.014334092,795.38464,795.38464,794.17584,803.8461,1082.2711,-0.14105224609375,0.07403564453125,0.9893798828125,-1.233673095703125,-0.620574951171875,4.134674072265625,1,1.0,1.0,1.0,1.0,10.00
2024-10-11 20:19:06.978,0.4933226,0.341306,0.30886754,0.8689855,0.70283586,0.07069656,0.09027646,0.8202271,0.72706884,0.14598826,0.083392866,0.7592417,0.49754167,0.25406843,-0.06284954,0.75428885,-0.16372405,-0.30934614,-0.12191378,-0.014334092,803.8461,790.14655,792.1612,803.0403,637.03296,-0.14105224609375,0.07403564453125,0.9893798828125,-1.233673095703125,-0.620574951171875,4.134674072265625,1,1.0,1.0,1.0,1.0,10.00
2024-10-11 20:19:06.978,0.4933226,0.33201447,0.2710144,0.8689855,0.70283586,0.085285455,0.073816076,0.8202271,0.72706884,0.1817689,0.096837364,0.7592417,0.49754167,0.25720695,-0.057055105,0.75428885,-0.16372405,-0.28541765,-0.13120377,-0.014334092,815.9341,784.5055,794.57874,813.91943,707.9487,-0.14105224609375,0.07403564453125,0.9893798828125,-1.233673095703125,-0.620574951171875,4.134674072265625,1,1.0,1.0,1.0,1.0,10.00
2024-10-11 20:19:06.983,0.4933226,0.33201447,0.2710144,0.8689855,0.70283586,0.085285455,0.073816076,0.8202271,0.72706884,0.1817689,0.096837364,0.7592417,0.49754167,0.25720695,-0.057055105,0.75428885,-0.16372405,-0.28541765,-0.13120377,-0.014334092,808.2784,791.3553,791.3553,812.3077,866.7033,-0.1461181640625,0.08380126953125,1.00030517578125,-0.695343017578125,-0.605621337890625,6.676788330078125,1,1.0,1.0,1.0,1.0,10.00
2024-10-11 20:19:06.983,0.4933226,0.33201447,0.2710144,0.8689855,0.70283586,0.085285455,0.073816076,0.8202271,0.72706884,0.1817689,0.096837364,0.7592417,0.49754167,0.25720695,-0.057055105,0.75428885,-0.16372405,-0.28541765,-0.13120377,-0.014334092,809.0842,794.17584,783.2967,807.47253,820.7692,-0.1461181640625,0.08380126953125,1.00030517578125,-0.695343017578125,-0.605621337890625,6.676788330078125,1,1.0,1.0,1.0,1.0,10.00
2024-10-11 20:19:06.984,0.4933226,0.33201447,0.2710144,0.8689855,0.70283586,0.085285455,0.073816076,0.8202271,0.72706884,0.1817689,0.096837364,0.7592417,0.49754167,0.25720695,-0.057055105,0.75428885,-0.16372405,-0.28541765,-0.13120377,-0.014334092,809.89014,796.99634,784.10254,806.6667,704.3223,-0.1461181640625,0.08380126953125,1.00030517578125,-0.695343017578125,-0.605621337890625,6.676788330078125,1,1.0,1.0,1.0,1.0,10.00
2024-10-11 20:19:06.984,0.4933226,0.33201447,0.2710144,0.8689855,0.70283586,0.085285455,0.073816076,0.8202271,0.72706884,0.1817689,0.096837364,0.7592417,0.49754167,0.25720695,-0.057055105,0.75428885,-0.16372405,-0.28541765,-0.13120377,-0.014334092,813.1135,796.99634,793.36993,813.5165,763.5531,-0.1461181640625,0.08380126953125,1.00030517578125,-0.695343017578125,-0.605621337890625,6.676788330078125,1,1.0,1.0,1.0,1.0,10.00
2024-10-11 20:19:06.985,0.4933226,0.33201447,0.2710144,0.8689855,0.70283586,0.085285455,0.073816076,0.8202271,0.72706884,0.1817689,0.096837364,0.7592417,0.49754167,0.25720695,-0.057055105,0.75428885,-0.16372405,-0.28541765,-0.13120377,-0.014334092,819.15753,790.14655,793.36993,823.9927,972.27106,-0.1461181640625,0.08380126953125,1.00030517578125,-0.695343017578125,-0.605621337890625,6.676788330078125,1,1.0,1.0,1.0,1.0,10.00
2024-10-11 20:19:06.985,0.4933226,0.33201447,0.2710144,0.8689855,0.70283586,0.085285455,0.073816076,0.8202271,0.72706884,0.1817689,0.096837364,0.7592417,0.49754167,0.25720695,-0.057055105,0.75428885,-0.16372405,-0.28541765,-0.13120377,-0.014334092,815.12823,793.7729,793.36993,819.5604,763.1502,-0.1461181640625,0.08380126953125,1.00030517578125,-0.695343017578125,-0.605621337890625,6.676788330078125,1,1.0,1.0,1.0,1.0,10.00
2024-10-11 20:19:06.986,0.4933226,0.33201447,0.2710144,0.8689855,0.70283586,0.085285455,0.073816076,0.8202271,0.72706884,0.1817689,0.096837364,0.7592417,0.49754167,0.25720695,-0.057055105,0.75428885,-0.16372405,-0.28541765,-0.13120377,-0.014334092,818.3516,789.7436,796.5934,815.5311,672.8938,-0.1461181640625,0.08380126953125,1.00030517578125,-0.695343017578125,-0.605621337890625,6.676788330078125,1,1.0,1.0,1.0,1.0,10.00
2024-10-11 20:19:06.986,0.4933226,0.33201447,0.2710144,0.8689855,0.70283586,0.085285455,0.073816076,0.8202271,0.72706884,0.1817689,0.096837364,0.7592417,0.49754167,0.25720695,-0.057055105,0.75428885,-0.16372405,-0.28541765,-0.13120377,-0.014334092,817.9487,786.52014,794.9817,818.3516,847.3626,-0.1461181640625,0.08380126953125,1.00030517578125,-0.695343017578125,-0.605621337890625,6.676788330078125,1,1.0,1.0,1.0,1.0,10.00
2024-10-11 20:19:06.987,0.4933226,0.33201447,0.2710144,0.8689855,0.70283586,0.085285455,0.073816076,0.8202271,0.72706884,0.1817689,0.096837364,0.7592417,0.49754167,0.25720695,-0.057055105,0.75428885,-0.16372405,-0.28541765,-0.13120377,-0.014334092,809.4872,795.38464,791.75824,817.5458,837.28937,-0.1461181640625,0.08380126953125,1.00030517578125,-0.695343017578125,-0.605621337890625,6.676788330078125,1,1.0,1.0,1.0,1.0,10.00
2024-10-11 20:19:06.988,0.4933226,0.33201447,0.2710144,0.8689855,0.70283586,0.085285455,0.073816076,0.8202271,0.72706884,0.1817689,0.096837364,0.7592417,0.49754167,0.25720695,-0.057055105,0.75428885,-0.16372405,-0.28541765,-0.13120377,-0.014334092,813.1135,786.9231,795.78754,814.7253,647.9121,-0.1461181640625,0.08380126953125,1.00030517578125,-0.695343017578125,-0.605621337890625,6.676788330078125,1,1.0,1.0,1.0,1.0,10.00
2024-10-11 20:19:06.988,0.4933226,0.33201447,0.2710144,0.8689855,0.70283586,0.085285455,0.073816076,0.8202271,0.72706884,0.1817689,0.096837364,0.7592417,0.49754167,0.25720695,-0.057055105,0.75428885,-0.16372405,-0.28541765,-0.13120377,-0.014334092,807.0696,785.31134,797.3993,807.8755,488.75458,-0.1461181640625,0.08380126953125,1.00030517578125,-0.695343017578125,-0.605621337890625,6.676788330078125,1,1.0,1.0,1.0,1.0,10.00
2024-10-11 20:19:06.989,0.4933226,0.33201447,0.2710144,0.8689855,0.70283586,0.085285455,0.073816076,0.8202271,0.72706884,0.1817689,0.096837364,0.7592417,0.49754167,0.25720695,-0.057055105,0.75428885,-0.16372405,-0.28541765,-0.13120377,-0.014334092,804.2491,789.7436,795.38464,818.3516,757.1062,-0.1461181640625,0.08380126953125,1.00030517578125,-0.695343017578125,-0.605621337890625,6.676788330078125,1,1.0,1.0,1.0,1.0,10.00
2024-10-11 20:19:07.039,0.4933226,0.33201447,0.2710144,0.8689855,0.70283586,0.085285455,0.073816076,0.8202271,0.72706884,0.1817689,0.096837364,0.7592417,0.49754167,0.25720695,-0.057055105,0.75428885,-0.16372405,-0.28541765,-0.13120377,-0.014334092,806.26373,788.93774,795.78754,829.6337,898.1319,-0.16876220703125,0.0860595703125,1.01318359375,-0.07476806640625,-1.4654541015625,6.400146484375,1,1.0,1.0,1.0,1.0,10.00
2024-10-11 20:19:07.039,0.4933226,0.33201447,0.2710144,0.8689855,0.70283586,0.085285455,0.073816076,0.8202271,0.72706884,0.1817689,0.096837364,0.7592417,0.49754167,0.25720695,-0.057055105,0.75428885,-0.16372405,-0.28541765,-0.13120377,-0.014334092,799.81683,794.57874,788.93774,815.5311,595.9341,-0.16876220703125,0.0860595703125,1.01318359375,-0.07476806640625,-1.4654541015625,6.400146484375,1,1.0,1.0,1.0,1.0,10.00
2024-10-11 20:19:07.040,0.4933226,0.33201447,0.2710144,0.8689855,0.70283586,0.085285455,0.073816076,0.8202271,0.72706884,0.1817689,0.096837364,0.7592417,0.49754167,0.25720695,-0.057055105,0.75428885,-0.16372405,-0.28541765,-0.13120377,-0.014334092,797.3993,794.17584,791.3553,811.0989,681.75824,-0.16876220703125,0.0860595703125,1.01318359375,-0.07476806640625,-1.4654541015625,6.400146484375,1,1.0,1.0,1.0,1.0,10.00
2024-10-11 20:19:07.040,0.4933226,0.33201447,0.2710144,0.8689855,0.70283586,0.085285455,0.073816076,0.8202271,0.72706884,0.1817689,0.096837364,0.7592417,0.49754167,0.25720695,-0.057055105,0.75428885,-0.16372405,-0.28541765,-0.13120377,-0.014334092,801.02563,792.1612,796.99634,815.5311,733.3333,-0.16876220703125,0.0860595703125,1.01318359375,-0.07476806640625,-1.4654541015625,6.400146484375,1,1.0,1.0,1.0,1.0,10.00
2024-10-11 20:19:07.041,0.4933226,0.33201447,0.2710144,0.8689855,0.70283586,0.085285455,0.073816076,0.8202271,0.72706884,0.1817689,0.096837364,0.7592417,0.49754167,0.25720695,-0.057055105,0.75428885,-0.16372405,-0.28541765,-0.13120377,-0.014334092,807.47253,794.57874,786.52014,817.5458,811.50183,-0.16876220703125,0.0860595703125,1.01318359375,-0.07476806640625,-1.4654541015625,6.400146484375,1,1.0,1.0,1.0,1.0,10.00
2024-10-11 20:19:07.041,0.4933226,0.33201447,0.2710144,0.8689855,0.70283586,0.085285455,0.073816076,0.8202271,0.72706884,0.1817689,0.096837364,0.7592417,0.49754167,0.25720695,-0.057055105,0.75428885,-0.16372405,-0.28541765,-0.13120377,-0.014334092,811.50183,796.99634,783.69965,819.9634,917.0696,-0.16876220703125,0.0860595703125,1.01318359375,-0.07476806640625,-1.4654541015625,6.400146484375,1,1.0,1.0,1.0,1.0,10.00
2024-10-11 20:19:07.042,0.4933226,0.33201447,0.2710144,0.8689855,0.70283586,0.085285455,0.073816076,0.8202271,0.72706884,0.1817689,0.096837364,0.7592417,0.49754167,0.25720695,-0.057055105,0.75428885,-0.16372405,-0.28541765,-0.13120377,-0.014334092,816.337,796.1905,790.14655,822.381,1032.7106,-0.16876220703125,0.0860595703125,1.01318359375,-0.07476806640625,-1.4654541015625,6.400146484375,1,1.0,1.0,1.0,1.0,10.00
2024-10-11 20:19:07.042,0.4933226,0.33201447,0.2710144,0.8689855,0.70283586,0.085285455,0.073816076,0.8202271,0.72706884,0.1817689,0.096837364,0.7592417,0.49754167,0.25720695,-0.057055105,0.75428885,-0.16372405,-0.28541765,-0.13120377,-0.014334092,820.3663,794.57874,791.3553,829.6337,1143.5165,-0.16876220703125,0.0860595703125,1.01318359375,-0.07476806640625,-1.4654541015625,6.400146484375,1,1.0,1.0,1.0,1.0,10.00
2024-10-11 20:19:07.043,0.4933226,0.33201447,0.2710144,0.8689855,0.70283586,0.085285455,0.073816076,0.8202271,0.72706884,0.1817689,0.096837364,0.7592417,0.49754167,0.25720695,-0.057055105,0.75428885,-0.16372405,-0.28541765,-0.13120377,-0.014334092,820.3663,791.75824,785.31134,822.381,814.3223,-0.16876220703125,0.0860595703125,1.01318359375,-0.07476806640625,-1.4654541015625,6.400146484375,1,1.0,1.0,1.0,1.0,10.00
2024-10-11 20:19:07.044,0.4933226,0.33201447,0.2710144,0.8689855,0.70283586,0.085285455,0.073816076,0.8202271,0.72706884,0.1817689,0.096837364,0.7592417,0.49754167,0.25720695,-0.057055105,0.75428885,-0.16372405,-0.28541765,-0.13120377,-0.014334092,822.381,795.78754,785.31134,822.381,587.47253,-0.16876220703125,0.0860595703125,1.01318359375,-0.07476806640625,-1.4654541015625,6.400146484375,1,1.0,1.0,1.0,1.0,10.00
2024-10-11 20:19:07.045,0.4933226,0.33201447,0.2710144,0.8689855,0.70283586,0.085285455,0.073816076,0.8202271,0.72706884,0.1817689,0.096837364,0.7592417,0.49754167,0.25720695,-0.057055105,0.75428885,-0.16372405,-0.28541765,-0.13120377,-0.014334092,825.2015,806.6667,790.9524,827.619,821.5751,-0.16876220703125,0.0860595703125,1.01318359375,-0.07476806640625,-1.4654541015625,6.400146484375,1,1.0,1.0,1.0,1.0,10.00
2024-10-11 20:19:07.045,0.4933226,0.33201447,0.2710144,0.8689855,0.70283586,0.085285455,0.073816076,0.8202271,0.72706884,0.1817689,0.096837364,0.7592417,0.49754167,0.25720695,-0.057055105,0.75428885,-0.16372405,-0.28541765,-0.13120377,-0.014334092,824.7985,809.0842,789.7436,821.978,811.0989,-0.16876220703125,0.0860595703125,1.01318359375,-0.07476806640625,-1.4654541015625,6.400146484375,1,1.0,1.0,1.0,1.0,10.00
2024-10-11 20:19:07.097,0.4933226,0.33201447,0.2710144,0.8689855,0.70283586,0.085285455,0.073816076,0.8202271,0.72706884,0.1817689,0.096837364,0.7592417,0.49754167,0.25720695,-0.057055105,0.75428885,-0.16372405,-0.28541765,-0.13120377,-0.014334092,828.022,804.2491,790.14655,818.7546,607.619,-0.17236328125,0.08837890625,0.98797607421875,-0.635528564453125,-2.699127197265625,1.27105712890625,1,1.0,1.0,1.0,1.0,10.00
2024-10-11 20:19:07,,,,,,,,,,,,,,,,,,,,,,,,,,,,,,,,,,,,,,/muse/elements/blink
2024-10-11 20:19:07.098,0.4933226,0.3415735,0.28140834,0.8689855,0.70283586,0.16175292,0.078540966,0.8202271,0.72706884,0.24550788,0.11095484,0.7592417,0.49754167,0.26085144,-0.056839366,0.75428885,-0.16372405,-0.26945585,-0.13834843,-0.014334092,830.0366,799.41394,788.1319,819.9634,630.18317,-0.17236328125,0.08837890625,0.98797607421875,-0.635528564453125,-2.699127197265625,1.27105712890625,1,1.0,1.0,1.0,1.0,10.00
2024-10-11 20:19:07.102,0.4933226,0.3415735,0.28140834,0.8689855,0.70283586,0.16175292,0.078540966,0.8202271,0.72706884,0.24550788,0.11095484,0.7592417,0.49754167,0.26085144,-0.056839366,0.75428885,-0.16372405,-0.26945585,-0.13834843,-0.014334092,826.4103,797.3993,787.72894,830.4396,849.3773,-0.17236328125,0.08837890625,0.98797607421875,-0.635528564453125,-2.699127197265625,1.27105712890625,1,1.0,1.0,1.0,1.0,10.00
2024-10-11 20:19:07.102,0.4933226,0.3415735,0.28140834,0.8689855,0.70283586,0.16175292,0.078540966,0.8202271,0.72706884,0.24550788,0.11095484,0.7592417,0.49754167,0.26085144,-0.056839366,0.75428885,-0.16372405,-0.26945585,-0.13834843,-0.014334092,829.2308,801.4286,793.7729,836.4835,948.49817,-0.17236328125,0.08837890625,0.98797607421875,-0.635528564453125,-2.699127197265625,1.27105712890625,1,1.0,1.0,1.0,1.0,10.00
2024-10-11 20:19:07.103,0.4933226,0.3415735,0.28140834,0.8689855,0.70283586,0.16175292,0.078540966,0.8202271,0.72706884,0.24550788,0.11095484,0.7592417,0.49754167,0.26085144,-0.056839366,0.75428885,-0.16372405,-0.26945585,-0.13834843,-0.014334092,828.8278,802.6374,798.60803,832.4542,776.8498,-0.17236328125,0.08837890625,0.98797607421875,-0.635528564453125,-2.699127197265625,1.27105712890625,1,1.0,1.0,1.0,1.0,10.00
2024-10-11 20:19:07.103,0.4933226,0.3415735,0.28140834,0.8689855,0.70283586,0.16175292,0.078540966,0.8202271,0.72706884,0.24550788,0.11095484,0.7592417,0.49754167,0.26085144,-0.056839366,0.75428885,-0.16372405,-0.26945585,-0.13834843,-0.014334092,821.5751,796.5934,797.8022,828.4249,763.95605,-0.17236328125,0.08837890625,0.98797607421875,-0.635528564453125,-2.699127197265625,1.27105712890625,1,1.0,1.0,1.0,1.0,10.00
2024-10-11 20:19:07.104,0.4933226,0.3415735,0.28140834,0.8689855,0.70283586,0.16175292,0.078540966,0.8202271,0.72706884,0.24550788,0.11095484,0.7592417,0.49754167,0.26085144,-0.056839366,0.75428885,-0.16372405,-0.26945585,-0.13834843,-0.014334092,817.9487,794.9817,794.17584,835.6777,1102.8206,-0.17236328125,0.08837890625,0.98797607421875,-0.635528564453125,-2.699127197265625,1.27105712890625,1,1.0,1.0,1.0,1.0,10.00
2024-10-11 20:19:07.104,0.4933226,0.3415735,0.28140834,0.8689855,0.70283586,0.16175292,0.078540966,0.8202271,0.72706884,0.24550788,0.11095484,0.7592417,0.49754167,0.26085144,-0.056839366,0.75428885,-0.16372405,-0.26945585,-0.13834843,-0.014334092,815.9341,797.3993,798.20514,828.022,1014.17584,-0.17236328125,0.08837890625,0.98797607421875,-0.635528564453125,-2.699127197265625,1.27105712890625,1,1.0,1.0,1.0,1.0,10.00
2024-10-11 20:19:07.105,0.4933226,0.3415735,0.28140834,0.8689855,0.70283586,0.16175292,0.078540966,0.8202271,0.72706884,0.24550788,0.11095484,0.7592417,0.49754167,0.26085144,-0.056839366,0.75428885,-0.16372405,-0.26945585,-0.13834843,-0.014334092,821.978,786.52014,787.72894,820.3663,719.2308,-0.17236328125,0.08837890625,0.98797607421875,-0.635528564453125,-2.699127197265625,1.27105712890625,1,1.0,1.0,1.0,1.0,10.00
2024-10-11 20:19:07.105,0.4933226,0.3415735,0.28140834,0.8689855,0.70283586,0.16175292,0.078540966,0.8202271,0.72706884,0.24550788,0.11095484,0.7592417,0.49754167,0.26085144,-0.056839366,0.75428885,-0.16372405,-0.26945585,-0.13834843,-0.014334092,823.5897,786.9231,785.7143,819.5604,643.0769,-0.17236328125,0.08837890625,0.98797607421875,-0.635528564453125,-2.699127197265625,1.27105712890625,1,1.0,1.0,1.0,1.0,10.00
2024-10-11 20:19:07.105,0.4933226,0.3415735,0.28140834,0.8689855,0.70283586,0.16175292,0.078540966,0.8202271,0.72706884,0.24550788,0.11095484,0.7592417,0.49754167,0.26085144,-0.056839366,0.75428885,-0.16372405,-0.26945585,-0.13834843,-0.014334092,817.9487,799.41394,802.6374,817.5458,926.7399,-0.17236328125,0.08837890625,0.98797607421875,-0.635528564453125,-2.699127197265625,1.27105712890625,1,1.0,1.0,1.0,1.0,10.00
2024-10-11 20:19:07.106,0.4933226,0.3415735,0.28140834,0.8689855,0.70283586,0.16175292,0.078540966,0.8202271,0.72706884,0.24550788,0.11095484,0.7592417,0.49754167,0.26085144,-0.056839366,0.75428885,-0.16372405,-0.26945585,-0.13834843,-0.014334092,815.12823,804.65204,798.20514,817.5458,1026.6666,-0.17236328125,0.08837890625,0.98797607421875,-0.635528564453125,-2.699127197265625,1.27105712890625,1,1.0,1.0,1.0,1.0,10.00
2024-10-11 20:19:07.128,0.4933226,0.3415735,0.28140834,0.8689855,0.70283586,0.16175292,0.078540966,0.8202271,0.72706884,0.24550788,0.11095484,0.7592417,0.49754167,0.26085144,-0.056839366,0.75428885,-0.16372405,-0.26945585,-0.13834843,-0.014334092,818.7546,809.0842,799.41394,813.5165,627.76556,-0.16094970703125,0.0858154296875,0.98284912109375,-0.800018310546875,-4.897308349609375,-3.581390380859375,1,1.0,1.0,1.0,1.0,10.00
2024-10-11 20:19:07.129,0.4933226,0.3415735,0.28140834,0.8689855,0.70283586,0.16175292,0.078540966,0.8202271,0.72706884,0.24550788,0.11095484,0.7592417,0.49754167,0.26085144,-0.056839366,0.75428885,-0.16372405,-0.26945585,-0.13834843,-0.014334092,819.9634,803.44324,799.41394,807.47253,532.27106,-0.16094970703125,0.0858154296875,0.98284912109375,-0.800018310546875,-4.897308349609375,-3.581390380859375,1,1.0,1.0,1.0,1.0,10.00
2024-10-11 20:19:07.130,0.4933226,0.3415735,0.28140834,0.8689855,0.70283586,0.16175292,0.078540966,0.8202271,0.72706884,0.24550788,0.11095484,0.7592417,0.49754167,0.26085144,-0.056839366,0.75428885,-0.16372405,-0.26945585,-0.13834843,-0.014334092,810.696,793.7729,795.78754,811.50183,706.337,-0.16094970703125,0.0858154296875,0.98284912109375,-0.800018310546875,-4.897308349609375,-3.581390380859375,1,1.0,1.0,1.0,1.0,10.00
2024-10-11 20:19:07.130,0.4933226,0.3415735,0.28140834,0.8689855,0.70283586,0.16175292,0.078540966,0.8202271,0.72706884,0.24550788,0.11095484,0.7592417,0.49754167,0.26085144,-0.056839366,0.75428885,-0.16372405,-0.26945585,-0.13834843,-0.014334092,806.6667,789.7436,801.02563,818.3516,690.6227,-0.16094970703125,0.0858154296875,0.98284912109375,-0.800018310546875,-4.897308349609375,-3.581390380859375,1,1.0,1.0,1.0,1.0,10.00
2024-10-11 20:19:07.131,0.4933226,0.3415735,0.28140834,0.8689855,0.70283586,0.16175292,0.078540966,0.8202271,0.72706884,0.24550788,0.11095484,0.7592417,0.49754167,0.26085144,-0.056839366,0.75428885,-0.16372405,-0.26945585,-0.13834843,-0.014334092,804.2491,794.57874,803.0403,814.3223,554.83514,-0.16094970703125,0.0858154296875,0.98284912109375,-0.800018310546875,-4.897308349609375,-3.581390380859375,1,1.0,1.0,1.0,1.0,10.00
2024-10-11 20:19:07.131,0.4933226,0.3415735,0.28140834,0.8689855,0.70283586,0.16175292,0.078540966,0.8202271,0.72706884,0.24550788,0.11095484,0.7592417,0.49754167,0.26085144,-0.056839366,0.75428885,-0.16372405,-0.26945585,-0.13834843,-0.014334092,807.8755,797.3993,797.3993,819.15753,748.24176,-0.16094970703125,0.0858154296875,0.98284912109375,-0.800018310546875,-4.897308349609375,-3.581390380859375,1,1.0,1.0,1.0,1.0,10.00
2024-10-11 20:19:07.132,0.4933226,0.3415735,0.28140834,0.8689855,0.70283586,0.16175292,0.078540966,0.8202271,0.72706884,0.24550788,0.11095484,0.7592417,0.49754167,0.26085144,-0.056839366,0.75428885,-0.16372405,-0.26945585,-0.13834843,-0.014334092,809.0842,791.3553,798.60803,825.2015,973.8828,-0.16094970703125,0.0858154296875,0.98284912109375,-0.800018310546875,-4.897308349609375,-3.581390380859375,1,1.0,1.0,1.0,1.0,10.00
2024-10-11 20:19:07.132,0.4933226,0.3415735,0.28140834,0.8689855,0.70283586,0.16175292,0.078540966,0.8202271,0.72706884,0.24550788,0.11095484,0.7592417,0.49754167,0.26085144,-0.056839366,0.75428885,-0.16372405,-0.26945585,-0.13834843,-0.014334092,814.3223,789.34064,800.2198,823.1868,817.1429,-0.16094970703125,0.0858154296875,0.98284912109375,-0.800018310546875,-4.897308349609375,-3.581390380859375,1,1.0,1.0,1.0,1.0,10.00
2024-10-11 20:19:07.132,0.4933226,0.3415735,0.28140834,0.8689855,0.70283586,0.16175292,0.078540966,0.8202271,0.72706884,0.24550788,0.11095484,0.7592417,0.49754167,0.26085144,-0.056839366,0.75428885,-0.16372405,-0.26945585,-0.13834843,-0.014334092,813.1135,790.54944,791.75824,815.5311,652.3443,-0.16094970703125,0.0858154296875,0.98284912109375,-0.800018310546875,-4.897308349609375,-3.581390380859375,1,1.0,1.0,1.0,1.0,10.00
2024-10-11 20:19:07.133,0.4933226,0.3415735,0.28140834,0.8689855,0.70283586,0.16175292,0.078540966,0.8202271,0.72706884,0.24550788,0.11095484,0.7592417,0.49754167,0.26085144,-0.056839366,0.75428885,-0.16372405,-0.26945585,-0.13834843,-0.014334092,815.5311,792.1612,792.5641,815.5311,693.8461,-0.16094970703125,0.0858154296875,0.98284912109375,-0.800018310546875,-4.897308349609375,-3.581390380859375,1,1.0,1.0,1.0,1.0,10.00
2024-10-11 20:19:07.133,0.4933226,0.3415735,0.28140834,0.8689855,0.70283586,0.16175292,0.078540966,0.8202271,0.72706884,0.24550788,0.11095484,0.7592417,0.49754167,0.26085144,-0.056839366,0.75428885,-0.16372405,-0.26945585,-0.13834843,-0.014334092,819.5604,791.3553,799.81683,814.7253,661.6117,-0.16094970703125,0.0858154296875,0.98284912109375,-0.800018310546875,-4.897308349609375,-3.581390380859375,1,1.0,1.0,1.0,1.0,10.00
2024-10-11 20:19:07.134,0.4933226,0.3415735,0.28140834,0.8689855,0.70283586,0.16175292,0.078540966,0.8202271,0.72706884,0.24550788,0.11095484,0.7592417,0.49754167,0.26085144,-0.056839366,0.75428885,-0.16372405,-0.26945585,-0.13834843,-0.014334092,810.696,793.7729,801.02563,809.89014,621.7216,-0.16094970703125,0.0858154296875,0.98284912109375,-0.800018310546875,-4.897308349609375,-3.581390380859375,1,1.0,1.0,1.0,1.0,10.00
2024-10-11 20:19:07.135,0.4933226,0.3415735,0.28140834,0.8689855,0.70283586,0.16175292,0.078540966,0.8202271,0.72706884,0.24550788,0.11095484,0.7592417,0.49754167,0.26085144,-0.056839366,0.75428885,-0.16372405,-0.26945585,-0.13834843,-0.014334092,809.4872,801.02563,799.41394,810.696,634.21246,-0.16094970703125,0.0858154296875,0.98284912109375,-0.800018310546875,-4.897308349609375,-3.581390380859375,1,1.0,1.0,1.0,1.0,10.00
2024-10-11 20:19:07.135,0.4933226,0.3415735,0.28140834,0.8689855,0.70283586,0.16175292,0.078540966,0.8202271,0.72706884,0.24550788,0.11095484,0.7592417,0.49754167,0.26085144,-0.056839366,0.75428885,-0.16372405,-0.26945585,-0.13834843,-0.014334092,816.7399,800.2198,800.6227,815.5311,822.381,-0.16094970703125,0.0858154296875,0.98284912109375,-0.800018310546875,-4.897308349609375,-3.581390380859375,1,1.0,1.0,1.0,1.0,10.00
2024-10-11 20:19:07.135,0.4933226,0.3415735,0.28140834,0.8689855,0.70283586,0.16175292,0.078540966,0.8202271,0.72706884,0.24550788,0.11095484,0.7592417,0.49754167,0.26085144,-0.056839366,0.75428885,-0.16372405,-0.26945585,-0.13834843,-0.014334092,813.1135,801.4286,801.02563,821.1722,899.34064,-0.16094970703125,0.0858154296875,0.98284912109375,-0.800018310546875,-4.897308349609375,-3.581390380859375,1,1.0,1.0,1.0,1.0,10.00
2024-10-11 20:19:07.136,0.4933226,0.3908894,0.3643263,0.8689855,0.70283586,0.29095936,0.108200125,0.8202271,0.72706884,0.3151394,0.124703296,0.7592417,0.49754167,0.2603601,-0.057776548,0.75428885,-0.16372405,-0.26147923,-0.14030395,-0.014334092,807.47253,803.0403,801.8315,814.3223,647.1062,-0.16094970703125,0.0858154296875,0.98284912109375,-0.800018310546875,-4.897308349609375,-3.581390380859375,1,1.0,1.0,1.0,1.0,10.00
2024-10-11 20:19:07.140,0.4933226,0.3908894,0.3643263,0.8689855,0.70283586,0.29095936,0.108200125,0.8202271,0.72706884,0.3151394,0.124703296,0.7592417,0.49754167,0.2603601,-0.057776548,0.75428885,-0.16372405,-0.26147923,-0.14030395,-0.014334092,813.91943,803.8461,800.6227,808.68134,697.8755,-0.16094970703125,0.0858154296875,0.98284912109375,-0.800018310546875,-4.897308349609375,-3.581390380859375,1,1.0,1.0,1.0,1.0,10.00
2024-10-11 20:19:07.141,0.4933226,0.3908894,0.3643263,0.8689855,0.70283586,0.29095936,0.108200125,0.8202271,0.72706884,0.3151394,0.124703296,0.7592417,0.49754167,0.2603601,-0.057776548,0.75428885,-0.16372405,-0.26147923,-0.14030395,-0.014334092,818.7546,805.8608,796.1905,812.3077,973.47986,-0.16094970703125,0.0858154296875,0.98284912109375,-0.800018310546875,-4.897308349609375,-3.581390380859375,1,1.0,1.0,1.0,1.0,10.00
2024-10-11 20:19:07.141,0.4933226,0.3908894,0.3643263,0.8689855,0.70283586,0.29095936,0.108200125,0.8202271,0.72706884,0.3151394,0.124703296,0.7592417,0.49754167,0.2603601,-0.057776548,0.75428885,-0.16372405,-0.26147923,-0.14030395,-0.014334092,814.3223,796.1905,789.7436,811.0989,1047.2161,-0.16094970703125,0.0858154296875,0.98284912109375,-0.800018310546875,-4.897308349609375,-3.581390380859375,1,1.0,1.0,1.0,1.0,10.00
2024-10-11 20:19:07.142,0.4933226,0.3908894,0.3643263,0.8689855,0.70283586,0.29095936,0.108200125,0.8202271,0.72706884,0.3151394,0.124703296,0.7592417,0.49754167,0.2603601,-0.057776548,0.75428885,-0.16372405,-0.26147923,-0.14030395,-0.014334092,808.2784,793.7729,790.9524,804.2491,762.74725,-0.16094970703125,0.0858154296875,0.98284912109375,-0.800018310546875,-4.897308349609375,-3.581390380859375,1,1.0,1.0,1.0,1.0,10.00
2024-10-11 20:19:07.142,0.4933226,0.3908894,0.3643263,0.8689855,0.70283586,0.29095936,0.108200125,0.8202271,0.72706884,0.3151394,0.124703296,0.7592417,0.49754167,0.2603601,-0.057776548,0.75428885,-0.16372405,-0.26147923,-0.14030395,-0.014334092,811.0989,803.8461,792.5641,807.47253,686.1905,-0.16094970703125,0.0858154296875,0.98284912109375,-0.800018310546875,-4.897308349609375,-3.581390380859375,1,1.0,1.0,1.0,1.0,10.00
2024-10-11 20:19:07.143,0.4933226,0.3908894,0.3643263,0.8689855,0.70283586,0.29095936,0.108200125,0.8202271,0.72706884,0.3151394,0.124703296,0.7592417,0.49754167,0.2603601,-0.057776548,0.75428885,-0.16372405,-0.26147923,-0.14030395,-0.014334092,809.4872,797.3993,792.5641,807.8755,821.1722,-0.16094970703125,0.0858154296875,0.98284912109375,-0.800018310546875,-4.897308349609375,-3.581390380859375,1,1.0,1.0,1.0,1.0,10.00
2024-10-11 20:19:07.143,0.4933226,0.3908894,0.3643263,0.8689855,0.70283586,0.29095936,0.108200125,0.8202271,0.72706884,0.3151394,0.124703296,0.7592417,0.49754167,0.2603601,-0.057776548,0.75428885,-0.16372405,-0.26147923,-0.14030395,-0.014334092,803.44324,794.17584,796.5934,799.011,772.01465,-0.16094970703125,0.0858154296875,0.98284912109375,-0.800018310546875,-4.897308349609375,-3.581390380859375,1,1.0,1.0,1.0,1.0,10.00
2024-10-11 20:19:07.143,0.4933226,0.3908894,0.3643263,0.8689855,0.70283586,0.29095936,0.108200125,0.8202271,0.72706884,0.3151394,0.124703296,0.7592417,0.49754167,0.2603601,-0.057776548,0.75428885,-0.16372405,-0.26147923,-0.14030395,-0.014334092,804.2491,796.99634,796.99634,795.78754,610.84247,-0.16094970703125,0.0858154296875,0.98284912109375,-0.800018310546875,-4.897308349609375,-3.581390380859375,1,1.0,1.0,1.0,1.0,10.00
2024-10-11 20:19:07.195,0.4933226,0.3908894,0.3643263,0.8689855,0.70283586,0.29095936,0.108200125,0.8202271,0.72706884,0.3151394,0.124703296,0.7592417,0.49754167,0.2603601,-0.057776548,0.75428885,-0.16372405,-0.26147923,-0.14030395,-0.014334092,800.6227,797.8022,793.7729,796.99634,764.7619,-0.155517578125,0.0811767578125,1.00433349609375,-0.3887939453125,-4.329071044921875,-4.029998779296875,1,1.0,1.0,1.0,1.0,10.00
2024-10-11 20:19:07.196,0.4933226,0.3908894,0.3643263,0.8689855,0.70283586,0.29095936,0.108200125,0.8202271,0.72706884,0.3151394,0.124703296,0.7592417,0.49754167,0.2603601,-0.057776548,0.75428885,-0.16372405,-0.26147923,-0.14030395,-0.014334092,800.2198,794.9817,788.5348,804.65204,886.04395,-0.155517578125,0.0811767578125,1.00433349609375,-0.3887939453125,-4.329071044921875,-4.029998779296875,1,1.0,1.0,1.0,1.0,10.00
2024-10-11 20:19:07.197,0.4933226,0.3908894,0.3643263,0.8689855,0.70283586,0.29095936,0.108200125,0.8202271,0.72706884,0.3151394,0.124703296,0.7592417,0.49754167,0.2603601,-0.057776548,0.75428885,-0.16372405,-0.26147923,-0.14030395,-0.014334092,803.44324,795.78754,792.1612,805.4579,780.07324,-0.155517578125,0.0811767578125,1.00433349609375,-0.3887939453125,-4.329071044921875,-4.029998779296875,1,1.0,1.0,1.0,1.0,10.00
2024-10-11 20:19:07.197,0.4933226,0.3908894,0.3643263,0.8689855,0.70283586,0.29095936,0.108200125,0.8202271,0.72706884,0.3151394,0.124703296,0.7592417,0.49754167,0.2603601,-0.057776548,0.75428885,-0.16372405,-0.26147923,-0.14030395,-0.014334092,801.4286,793.7729,792.5641,799.011,701.50183,-0.155517578125,0.0811767578125,1.00433349609375,-0.3887939453125,-4.329071044921875,-4.029998779296875,1,1.0,1.0,1.0,1.0,10.00
2024-10-11 20:19:07.198,0.4933226,0.3908894,0.3643263,0.8689855,0.70283586,0.29095936,0.108200125,0.8202271,0.72706884,0.3151394,0.124703296,0.7592417,0.49754167,0.2603601,-0.057776548,0.75428885,-0.16372405,-0.26147923,-0.14030395,-0.014334092,802.6374,795.38464,794.17584,807.0696,878.7912,-0.155517578125,0.0811767578125,1.00433349609375,-0.3887939453125,-4.329071044921875,-4.029998779296875,1,1.0,1.0,1.0,1.0,10.00
2024-10-11 20:19:07.198,0.4933226,0.3908894,0.3643263,0.8689855,0.70283586,0.29095936,0.108200125,0.8202271,0.72706884,0.3151394,0.124703296,0.7592417,0.49754167,0.2603601,-0.057776548,0.75428885,-0.16372405,-0.26147923,-0.14030395,-0.014334092,803.44324,799.41394,795.78754,817.9487,1178.1685,-0.155517578125,0.0811767578125,1.00433349609375,-0.3887939453125,-4.329071044921875,-4.029998779296875,1,1.0,1.0,1.0,1.0,10.00
2024-10-11 20:19:07.199,0.4933226,0.3908894,0.3643263,0.8689855,0.70283586,0.29095936,0.108200125,0.8202271,0.72706884,0.3151394,0.124703296,0.7592417,0.49754167,0.2603601,-0.057776548,0.75428885,-0.16372405,-0.26147923,-0.14030395,-0.014334092,797.8022,794.9817,794.57874,811.0989,990.80585,-0.155517578125,0.0811767578125,1.00433349609375,-0.3887939453125,-4.329071044921875,-4.029998779296875,1,1.0,1.0,1.0,1.0,10.00
2024-10-11 20:19:07.199,0.4933226,0.3908894,0.3643263,0.8689855,0.70283586,0.29095936,0.108200125,0.8202271,0.72706884,0.3151394,0.124703296,0.7592417,0.49754167,0.2603601,-0.057776548,0.75428885,-0.16372405,-0.26147923,-0.14030395,-0.014334092,802.6374,794.57874,796.1905,806.6667,839.304,-0.155517578125,0.0811767578125,1.00433349609375,-0.3887939453125,-4.329071044921875,-4.029998779296875,1,1.0,1.0,1.0,1.0,10.00
2024-10-11 20:19:07.200,0.4933226,0.3908894,0.3643263,0.8689855,0.70283586,0.29095936,0.108200125,0.8202271,0.72706884,0.3151394,0.124703296,0.7592417,0.49754167,0.2603601,-0.057776548,0.75428885,-0.16372405,-0.26147923,-0.14030395,-0.014334092,814.3223,792.1612,795.78754,814.3223,954.1392,-0.155517578125,0.0811767578125,1.00433349609375,-0.3887939453125,-4.329071044921875,-4.029998779296875,1,1.0,1.0,1.0,1.0,10.00
2024-10-11 20:19:07.201,0.4933226,0.3908894,0.3643263,0.8689855,0.70283586,0.29095936,0.108200125,0.8202271,0.72706884,0.3151394,0.124703296,0.7592417,0.49754167,0.2603601,-0.057776548,0.75428885,-0.16372405,-0.26147923,-0.14030395,-0.014334092,819.9634,781.685,792.1612,825.2015,1196.7032,-0.155517578125,0.0811767578125,1.00433349609375,-0.3887939453125,-4.329071044921875,-4.029998779296875,1,1.0,1.0,1.0,1.0,10.00
2024-10-11 20:19:07.201,0.4933226,0.3908894,0.3643263,0.8689855,0.70283586,0.29095936,0.108200125,0.8202271,0.72706884,0.3151394,0.124703296,0.7592417,0.49754167,0.2603601,-0.057776548,0.75428885,-0.16372405,-0.26147923,-0.14030395,-0.014334092,814.7253,780.07324,794.57874,818.3516,985.9707,-0.155517578125,0.0811767578125,1.00433349609375,-0.3887939453125,-4.329071044921875,-4.029998779296875,1,1.0,1.0,1.0,1.0,10.00
2024-10-11 20:19:07.202,0.4933226,0.3908894,0.3643263,0.8689855,0.70283586,0.29095936,0.108200125,0.8202271,0.72706884,0.3151394,0.124703296,0.7592417,0.49754167,0.2603601,-0.057776548,0.75428885,-0.16372405,-0.26147923,-0.14030395,-0.014334092,808.68134,791.75824,799.011,809.89014,627.3626,-0.155517578125,0.0811767578125,1.00433349609375,-0.3887939453125,-4.329071044921875,-4.029998779296875,1,1.0,1.0,1.0,1.0,10.00
2024-10-11 20:19:07.266,0.4933226,0.3908894,0.3643263,0.8689855,0.70283586,0.29095936,0.108200125,0.8202271,0.72706884,0.3151394,0.124703296,0.7592417,0.49754167,0.2603601,-0.057776548,0.75428885,-0.16372405,-0.26147923,-0.14030395,-0.014334092,812.71063,802.23444,799.81683,811.50183,789.34064,-0.1654052734375,0.076416015625,1.00006103515625,-1.413116455078125,-4.463653564453125,-3.551483154296875,1,1.0,1.0,1.0,1.0,10.00
2024-10-11 20:19:07.267,0.4933226,0.3908894,0.3643263,0.8689855,0.70283586,0.29095936,0.108200125,0.8202271,0.72706884,0.3151394,0.124703296,0.7592417,0.49754167,0.2603601,-0.057776548,0.75428885,-0.16372405,-0.26147923,-0.14030395,-0.014334092,809.4872,798.20514,795.38464,808.2784,858.6447,-0.1654052734375,0.076416015625,1.00006103515625,-1.413116455078125,-4.463653564453125,-3.551483154296875,1,1.0,1.0,1.0,1.0,10.00
2024-10-11 20:19:07.268,0.4933226,0.3908894,0.3643263,0.8689855,0.70283586,0.29095936,0.108200125,0.8202271,0.72706884,0.3151394,0.124703296,0.7592417,0.49754167,0.2603601,-0.057776548,0.75428885,-0.16372405,-0.26147923,-0.14030395,-0.014334092,809.4872,792.5641,790.14655,798.60803,710.3663,-0.1654052734375,0.076416015625,1.00006103515625,-1.413116455078125,-4.463653564453125,-3.551483154296875,1,1.0,1.0,1.0,1.0,10.00
2024-10-11 20:19:07.269,0.4933226,0.3908894,0.3643263,0.8689855,0.70283586,0.29095936,0.108200125,0.8202271,0.72706884,0.3151394,0.124703296,0.7592417,0.49754167,0.2603601,-0.057776548,0.75428885,-0.16372405,-0.26147923,-0.14030395,-0.014334092,811.0989,793.7729,795.38464,792.96704,648.315,-0.1654052734375,0.076416015625,1.00006103515625,-1.413116455078125,-4.463653564453125,-3.551483154296875,1,1.0,1.0,1.0,1.0,10.00
2024-10-11 20:19:07.270,0.4933226,0.3908894,0.3643263,0.8689855,0.70283586,0.29095936,0.108200125,0.8202271,0.72706884,0.3151394,0.124703296,0.7592417,0.49754167,0.2603601,-0.057776548,0.75428885,-0.16372405,-0.26147923,-0.14030395,-0.014334092,802.23444,790.9524,793.7729,799.011,686.99634,-0.1654052734375,0.076416015625,1.00006103515625,-1.413116455078125,-4.463653564453125,-3.551483154296875,1,1.0,1.0,1.0,1.0,10.00
2024-10-11 20:19:07.270,0.4933226,0.46944082,0.49434808,0.8689855,0.70283586,0.41794854,0.14904726,0.8202271,0.72706884,0.40658462,0.13805567,0.7592417,0.49754167,0.25681263,-0.054432563,0.75428885,-0.16372405,-0.25597572,-0.13637826,-0.014334092,800.6227,789.7436,790.14655,800.6227,935.6044,-0.1654052734375,0.076416015625,1.00006103515625,-1.413116455078125,-4.463653564453125,-3.551483154296875,1,1.0,1.0,1.0,1.0,10.00
2024-10-11 20:19:07.276,0.4933226,0.46944082,0.49434808,0.8689855,0.70283586,0.41794854,0.14904726,0.8202271,0.72706884,0.40658462,0.13805567,0.7592417,0.49754167,0.25681263,-0.054432563,0.75428885,-0.16372405,-0.25597572,-0.13637826,-0.014334092,807.0696,792.1612,794.9817,799.41394,1028.6813,-0.1654052734375,0.076416015625,1.00006103515625,-1.413116455078125,-4.463653564453125,-3.551483154296875,1,1.0,1.0,1.0,1.0,10.00
2024-10-11 20:19:07.277,0.4933226,0.46944082,0.49434808,0.8689855,0.70283586,0.41794854,0.14904726,0.8202271,0.72706884,0.40658462,0.13805567,0.7592417,0.49754167,0.25681263,-0.054432563,0.75428885,-0.16372405,-0.25597572,-0.13637826,-0.014334092,809.89014,789.34064,801.4286,801.02563,745.0183,-0.1654052734375,0.076416015625,1.00006103515625,-1.413116455078125,-4.463653564453125,-3.551483154296875,1,1.0,1.0,1.0,1.0,10.00
2024-10-11 20:19:07.278,0.4933226,0.46944082,0.49434808,0.8689855,0.70283586,0.41794854,0.14904726,0.8202271,0.72706884,0.40658462,0.13805567,0.7592417,0.49754167,0.25681263,-0.054432563,0.75428885,-0.16372405,-0.25597572,-0.13637826,-0.014334092,805.8608,783.2967,801.4286,800.2198,840.9158,-0.1654052734375,0.076416015625,1.00006103515625,-1.413116455078125,-4.463653564453125,-3.551483154296875,1,1.0,1.0,1.0,1.0,10.00
2024-10-11 20:19:07.279,0.4933226,0.46944082,0.49434808,0.8689855,0.70283586,0.41794854,0.14904726,0.8202271,0.72706884,0.40658462,0.13805567,0.7592417,0.49754167,0.25681263,-0.054432563,0.75428885,-0.16372405,-0.25597572,-0.13637826,-0.014334092,804.2491,788.5348,800.2198,805.4579,1041.1721,-0.1654052734375,0.076416015625,1.00006103515625,-1.413116455078125,-4.463653564453125,-3.551483154296875,1,1.0,1.0,1.0,1.0,10.00
2024-10-11 20:19:07.279,0.4933226,0.46944082,0.49434808,0.8689855,0.70283586,0.41794854,0.14904726,0.8202271,0.72706884,0.40658462,0.13805567,0.7592417,0.49754167,0.25681263,-0.054432563,0.75428885,-0.16372405,-0.25597572,-0.13637826,-0.014334092,805.4579,794.9817,799.41394,806.6667,788.1319,-0.1654052734375,0.076416015625,1.00006103515625,-1.413116455078125,-4.463653564453125,-3.551483154296875,1,1.0,1.0,1.0,1.0,10.00
2024-10-11 20:19:07.280,0.4933226,0.46944082,0.49434808,0.8689855,0.70283586,0.41794854,0.14904726,0.8202271,0.72706884,0.40658462,0.13805567,0.7592417,0.49754167,0.25681263,-0.054432563,0.75428885,-0.16372405,-0.25597572,-0.13637826,-0.014334092,799.011,792.96704,796.5934,805.8608,674.5055,-0.1654052734375,0.076416015625,1.00006103515625,-1.413116455078125,-4.463653564453125,-3.551483154296875,1,1.0,1.0,1.0,1.0,10.00
2024-10-11 20:19:07.309,0.4933226,0.46944082,0.49434808,0.8689855,0.70283586,0.41794854,0.14904726,0.8202271,0.72706884,0.40658462,0.13805567,0.7592417,0.49754167,0.25681263,-0.054432563,0.75428885,-0.16372405,-0.25597572,-0.13637826,-0.014334092,796.5934,791.75824,790.9524,804.65204,736.9597,-0.16412353515625,0.05975341796875,0.98370361328125,-4.104766845703125,-6.452484130859375,-5.06927490234375,1,1.0,1.0,1.0,1.0,10.00
2024-10-11 20:19:07.310,0.4933226,0.46944082,0.49434808,0.8689855,0.70283586,0.41794854,0.14904726,0.8202271,0.72706884,0.40658462,0.13805567,0.7592417,0.49754167,0.25681263,-0.054432563,0.75428885,-0.16372405,-0.25597572,-0.13637826,-0.014334092,799.011,795.78754,797.3993,801.02563,765.9707,-0.16412353515625,0.05975341796875,0.98370361328125,-4.104766845703125,-6.452484130859375,-5.06927490234375,1,1.0,1.0,1.0,1.0,10.00
2024-10-11 20:19:07.310,0.4933226,0.46944082,0.49434808,0.8689855,0.70283586,0.41794854,0.14904726,0.8202271,0.72706884,0.40658462,0.13805567,0.7592417,0.49754167,0.25681263,-0.054432563,0.75428885,-0.16372405,-0.25597572,-0.13637826,-0.014334092,797.3993,793.36993,796.99634,800.2198,766.77655,-0.16412353515625,0.05975341796875,0.98370361328125,-4.104766845703125,-6.452484130859375,-5.06927490234375,1,1.0,1.0,1.0,1.0,10.00
2024-10-11 20:19:07.311,0.4933226,0.46944082,0.49434808,0.8689855,0.70283586,0.41794854,0.14904726,0.8202271,0.72706884,0.40658462,0.13805567,0.7592417,0.49754167,0.25681263,-0.054432563,0.75428885,-0.16372405,-0.25597572,-0.13637826,-0.014334092,796.99634,787.326,786.9231,801.4286,810.293,-0.16412353515625,0.05975341796875,0.98370361328125,-4.104766845703125,-6.452484130859375,-5.06927490234375,1,1.0,1.0,1.0,1.0,10.00
2024-10-11 20:19:07.312,0.4933226,0.46944082,0.49434808,0.8689855,0.70283586,0.41794854,0.14904726,0.8202271,0.72706884,0.40658462,0.13805567,0.7592417,0.49754167,0.25681263,-0.054432563,0.75428885,-0.16372405,-0.25597572,-0.13637826,-0.014334092,797.3993,786.9231,793.7729,803.8461,936.8132,-0.16412353515625,0.05975341796875,0.98370361328125,-4.104766845703125,-6.452484130859375,-5.06927490234375,1,1.0,1.0,1.0,1.0,10.00
2024-10-11 20:19:07.313,0.4933226,0.46944082,0.49434808,0.8689855,0.70283586,0.41794854,0.14904726,0.8202271,0.72706884,0.40658462,0.13805567,0.7592417,0.49754167,0.25681263,-0.054432563,0.75428885,-0.16372405,-0.25597572,-0.13637826,-0.014334092,799.81683,794.17584,799.81683,799.81683,923.91943,-0.16412353515625,0.05975341796875,0.98370361328125,-4.104766845703125,-6.452484130859375,-5.06927490234375,1,1.0,1.0,1.0,1.0,10.00
2024-10-11 20:19:07.313,0.4933226,0.46944082,0.49434808,0.8689855,0.70283586,0.41794854,0.14904726,0.8202271,0.72706884,0.40658462,0.13805567,0.7592417,0.49754167,0.25681263,-0.054432563,0.75428885,-0.16372405,-0.25597572,-0.13637826,-0.014334092,807.47253,794.17584,804.2491,799.81683,890.87915,-0.16412353515625,0.05975341796875,0.98370361328125,-4.104766845703125,-6.452484130859375,-5.06927490234375,1,1.0,1.0,1.0,1.0,10.00
2024-10-11 20:19:07.314,0.4933226,0.46944082,0.49434808,0.8689855,0.70283586,0.41794854,0.14904726,0.8202271,0.72706884,0.40658462,0.13805567,0.7592417,0.49754167,0.25681263,-0.054432563,0.75428885,-0.16372405,-0.25597572,-0.13637826,-0.014334092,801.8315,784.90845,802.6374,800.6227,879.19415,-0.16412353515625,0.05975341796875,0.98370361328125,-4.104766845703125,-6.452484130859375,-5.06927490234375,1,1.0,1.0,1.0,1.0,10.00
2024-10-11 20:19:07.315,0.4933226,0.46944082,0.49434808,0.8689855,0.70283586,0.41794854,0.14904726,0.8202271,0.72706884,0.40658462,0.13805567,0.7592417,0.49754167,0.25681263,-0.054432563,0.75428885,-0.16372405,-0.25597572,-0.13637826,-0.014334092,796.5934,788.1319,796.99634,791.75824,836.08057,-0.16412353515625,0.05975341796875,0.98370361328125,-4.104766845703125,-6.452484130859375,-5.06927490234375,1,1.0,1.0,1.0,1.0,10.00
2024-10-11 20:19:07.315,0.4933226,0.46944082,0.49434808,0.8689855,0.70283586,0.41794854,0.14904726,0.8202271,0.72706884,0.40658462,0.13805567,0.7592417,0.49754167,0.25681263,-0.054432563,0.75428885,-0.16372405,-0.25597572,-0.13637826,-0.014334092,800.6227,791.3553,797.8022,790.14655,672.8938,-0.16412353515625,0.05975341796875,0.98370361328125,-4.104766845703125,-6.452484130859375,-5.06927490234375,1,1.0,1.0,1.0,1.0,10.00
2024-10-11 20:19:07.316,0.4933226,0.46944082,0.49434808,0.8689855,0.70283586,0.41794854,0.14904726,0.8202271,0.72706884,0.40658462,0.13805567,0.7592417,0.49754167,0.25681263,-0.054432563,0.75428885,-0.16372405,-0.25597572,-0.13637826,-0.014334092,805.4579,794.17584,801.8315,798.60803,753.47986,-0.16412353515625,0.05975341796875,0.98370361328125,-4.104766845703125,-6.452484130859375,-5.06927490234375,1,1.0,1.0,1.0,1.0,10.00
2024-10-11 20:19:07.317,0.4933226,0.46944082,0.49434808,0.8689855,0.70283586,0.41794854,0.14904726,0.8202271,0.72706884,0.40658462,0.13805567,0.7592417,0.49754167,0.25681263,-0.054432563,0.75428885,-0.16372405,-0.25597572,-0.13637826,-0.014334092,805.8608,794.57874,795.78754,799.41394,969.0476,-0.16412353515625,0.05975341796875,0.98370361328125,-4.104766845703125,-6.452484130859375,-5.06927490234375,1,1.0,1.0,1.0,1.0,10.00
2024-10-11 20:19:07.346,0.4933226,0.46944082,0.49434808,0.8689855,0.70283586,0.41794854,0.14904726,0.8202271,0.72706884,0.40658462,0.13805567,0.7592417,0.49754167,0.25681263,-0.054432563,0.75428885,-0.16372405,-0.25597572,-0.13637826,-0.014334092,802.23444,794.57874,790.9524,797.3993,883.6264,-0.166015625,0.04290771484375,0.984619140625,-4.6356201171875,-6.3702392578125,-5.375823974609375,1,1.0,1.0,1.0,1.0,10.00
2024-10-11 20:19:07.347,0.4933226,0.46944082,0.49434808,0.8689855,0.70283586,0.41794854,0.14904726,0.8202271,0.72706884,0.40658462,0.13805567,0.7592417,0.49754167,0.25681263,-0.054432563,0.75428885,-0.16372405,-0.25597572,-0.13637826,-0.014334092,805.4579,795.78754,801.8315,797.8022,675.31134,-0.166015625,0.04290771484375,0.984619140625,-4.6356201171875,-6.3702392578125,-5.375823974609375,1,1.0,1.0,1.0,1.0,10.00
2024-10-11 20:19:07.348,0.4933226,0.46944082,0.49434808,0.8689855,0.70283586,0.41794854,0.14904726,0.8202271,0.72706884,0.40658462,0.13805567,0.7592417,0.49754167,0.25681263,-0.054432563,0.75428885,-0.16372405,-0.25597572,-0.13637826,-0.014334092,807.0696,797.3993,803.44324,801.8315,599.15753,-0.166015625,0.04290771484375,0.984619140625,-4.6356201171875,-6.3702392578125,-5.375823974609375,1,1.0,1.0,1.0,1.0,10.00
2024-10-11 20:19:07.348,0.4933226,0.46944082,0.49434808,0.8689855,0.70283586,0.41794854,0.14904726,0.8202271,0.72706884,0.40658462,0.13805567,0.7592417,0.49754167,0.25681263,-0.054432563,0.75428885,-0.16372405,-0.25597572,-0.13637826,-0.014334092,804.65204,796.99634,799.011,806.6667,820.3663,-0.166015625,0.04290771484375,0.984619140625,-4.6356201171875,-6.3702392578125,-5.375823974609375,1,1.0,1.0,1.0,1.0,10.00
2024-10-11 20:19:07.349,0.4933226,0.46944082,0.49434808,0.8689855,0.70283586,0.41794854,0.14904726,0.8202271,0.72706884,0.40658462,0.13805567,0.7592417,0.49754167,0.25681263,-0.054432563,0.75428885,-0.16372405,-0.25597572,-0.13637826,-0.014334092,809.0842,796.5934,799.011,803.44324,869.92676,-0.166015625,0.04290771484375,0.984619140625,-4.6356201171875,-6.3702392578125,-5.375823974609375,1,1.0,1.0,1.0,1.0,10.00
2024-10-11 20:19:07.350,0.4933226,0.46944082,0.49434808,0.8689855,0.70283586,0.41794854,0.14904726,0.8202271,0.72706884,0.40658462,0.13805567,0.7592417,0.49754167,0.25681263,-0.054432563,0.75428885,-0.16372405,-0.25597572,-0.13637826,-0.014334092,811.0989,799.41394,799.81683,804.65204,678.1319,-0.166015625,0.04290771484375,0.984619140625,-4.6356201171875,-6.3702392578125,-5.375823974609375,1,1.0,1.0,1.0,1.0,10.00
2024-10-11 20:19:07.350,0.4933226,0.46944082,0.49434808,0.8689855,0.70283586,0.41794854,0.14904726,0.8202271,0.72706884,0.40658462,0.13805567,0.7592417,0.49754167,0.25681263,-0.054432563,0.75428885,-0.16372405,-0.25597572,-0.13637826,-0.014334092,811.50183,792.1612,802.23444,812.71063,757.50916,-0.166015625,0.04290771484375,0.984619140625,-4.6356201171875,-6.3702392578125,-5.375823974609375,1,1.0,1.0,1.0,1.0,10.00
2024-10-11 20:19:07.351,0.4933226,0.54139423,0.61058205,0.8689855,0.70283586,0.5026834,0.18296969,0.8202271,0.72706884,0.4845072,0.14547269,0.7592417,0.49754167,0.25354564,-0.047015324,0.75428885,-0.16372405,-0.24513589,-0.12961031,-0.014334092,816.337,787.72894,802.23444,819.9634,889.2674,-0.166015625,0.04290771484375,0.984619140625,-4.6356201171875,-6.3702392578125,-5.375823974609375,1,1.0,1.0,1.0,1.0,10.00
2024-10-11 20:19:07.357,0.4933226,0.54139423,0.61058205,0.8689855,0.70283586,0.5026834,0.18296969,0.8202271,0.72706884,0.4845072,0.14547269,0.7592417,0.49754167,0.25354564,-0.047015324,0.75428885,-0.16372405,-0.24513589,-0.12961031,-0.014334092,814.3223,799.41394,799.81683,812.71063,784.10254,-0.166015625,0.04290771484375,0.984619140625,-4.6356201171875,-6.3702392578125,-5.375823974609375,1,1.0,1.0,1.0,1.0,10.00
2024-10-11 20:19:07.358,0.4933226,0.54139423,0.61058205,0.8689855,0.70283586,0.5026834,0.18296969,0.8202271,0.72706884,0.4845072,0.14547269,0.7592417,0.49754167,0.25354564,-0.047015324,0.75428885,-0.16372405,-0.24513589,-0.12961031,-0.014334092,806.26373,811.50183,795.78754,798.60803,534.68866,-0.166015625,0.04290771484375,0.984619140625,-4.6356201171875,-6.3702392578125,-5.375823974609375,1,1.0,1.0,1.0,1.0,10.00
2024-10-11 20:19:07.359,0.4933226,0.54139423,0.61058205,0.8689855,0.70283586,0.5026834,0.18296969,0.8202271,0.72706884,0.4845072,0.14547269,0.7592417,0.49754167,0.25354564,-0.047015324,0.75428885,-0.16372405,-0.24513589,-0.12961031,-0.014334092,804.65204,806.6667,799.41394,796.5934,560.07324,-0.166015625,0.04290771484375,0.984619140625,-4.6356201171875,-6.3702392578125,-5.375823974609375,1,1.0,1.0,1.0,1.0,10.00
2024-10-11 20:19:07.359,0.4933226,0.54139423,0.61058205,0.8689855,0.70283586,0.5026834,0.18296969,0.8202271,0.72706884,0.4845072,0.14547269,0.7592417,0.49754167,0.25354564,-0.047015324,0.75428885,-0.16372405,-0.24513589,-0.12961031,-0.014334092,795.78754,801.8315,797.8022,790.9524,843.3333,-0.166015625,0.04290771484375,0.984619140625,-4.6356201171875,-6.3702392578125,-5.375823974609375,1,1.0,1.0,1.0,1.0,10.00
2024-10-11 20:19:07.385,0.4933226,0.54139423,0.61058205,0.8689855,0.70283586,0.5026834,0.18296969,0.8202271,0.72706884,0.4845072,0.14547269,0.7592417,0.49754167,0.25354564,-0.047015324,0.75428885,-0.16372405,-0.24513589,-0.12961031,-0.014334092,794.57874,806.6667,797.3993,789.7436,848.1685,-0.166015625,0.04290771484375,0.984619140625,-4.6356201171875,-6.3702392578125,-5.375823974609375,1,1.0,1.0,1.0,1.0,10.00
2024-10-11 20:19:07.385,0.4933226,0.54139423,0.61058205,0.8689855,0.70283586,0.5026834,0.18296969,0.8202271,0.72706884,0.4845072,0.14547269,0.7592417,0.49754167,0.25354564,-0.047015324,0.75428885,-0.16372405,-0.24513589,-0.12961031,-0.014334092,800.6227,805.05493,797.3993,790.54944,656.3736,-0.166015625,0.04290771484375,0.984619140625,-4.6356201171875,-6.3702392578125,-5.375823974609375,1,1.0,1.0,1.0,1.0,10.00
2024-10-11 20:19:07.386,0.4933226,0.54139423,0.61058205,0.8689855,0.70283586,0.5026834,0.18296969,0.8202271,0.72706884,0.4845072,0.14547269,0.7592417,0.49754167,0.25354564,-0.047015324,0.75428885,-0.16372405,-0.24513589,-0.12961031,-0.014334092,796.5934,793.36993,796.99634,786.9231,678.5348,-0.166015625,0.04290771484375,0.984619140625,-4.6356201171875,-6.3702392578125,-5.375823974609375,1,1.0,1.0,1.0,1.0,10.00
2024-10-11 20:19:07.386,0.4933226,0.54139423,0.61058205,0.8689855,0.70283586,0.5026834,0.18296969,0.8202271,0.72706884,0.4845072,0.14547269,0.7592417,0.49754167,0.25354564,-0.047015324,0.75428885,-0.16372405,-0.24513589,-0.12961031,-0.014334092,798.20514,794.17584,798.20514,796.5934,878.3883,-0.166015625,0.04290771484375,0.984619140625,-4.6356201171875,-6.3702392578125,-5.375823974609375,1,1.0,1.0,1.0,1.0,10.00
2024-10-11 20:19:07.387,0.4933226,0.54139423,0.61058205,0.8689855,0.70283586,0.5026834,0.18296969,0.8202271,0.72706884,0.4845072,0.14547269,0.7592417,0.49754167,0.25354564,-0.047015324,0.75428885,-0.16372405,-0.24513589,-0.12961031,-0.014334092,792.1612,800.2198,801.02563,801.4286,787.72894,-0.166015625,0.04290771484375,0.984619140625,-4.6356201171875,-6.3702392578125,-5.375823974609375,1,1.0,1.0,1.0,1.0,10.00
2024-10-11 20:19:07.388,0.4933226,0.54139423,0.61058205,0.8689855,0.70283586,0.5026834,0.18296969,0.8202271,0.72706884,0.4845072,0.14547269,0.7592417,0.49754167,0.25354564,-0.047015324,0.75428885,-0.16372405,-0.24513589,-0.12961031,-0.014334092,789.7436,798.60803,803.0403,802.23444,719.2308,-0.166015625,0.04290771484375,0.984619140625,-4.6356201171875,-6.3702392578125,-5.375823974609375,1,1.0,1.0,1.0,1.0,10.00
2024-10-11 20:19:07.389,0.4933226,0.54139423,0.61058205,0.8689855,0.70283586,0.5026834,0.18296969,0.8202271,0.72706884,0.4845072,0.14547269,0.7592417,0.49754167,0.25354564,-0.047015324,0.75428885,-0.16372405,-0.24513589,-0.12961031,-0.014334092,792.5641,798.20514,795.38464,807.8755,842.9304,-0.166015625,0.04290771484375,0.984619140625,-4.6356201171875,-6.3702392578125,-5.375823974609375,1,1.0,1.0,1.0,1.0,10.00
2024-10-11 20:19:07.390,0.4933226,0.54139423,0.61058205,0.8689855,0.70283586,0.5026834,0.18296969,0.8202271,0.72706884,0.4845072,0.14547269,0.7592417,0.49754167,0.25354564,-0.047015324,0.75428885,-0.16372405,-0.24513589,-0.12961031,-0.014334092,791.75824,788.5348,791.3553,813.5165,915.8608,-0.166015625,0.04290771484375,0.984619140625,-4.6356201171875,-6.3702392578125,-5.375823974609375,1,1.0,1.0,1.0,1.0,10.00
2024-10-11 20:19:07.391,0.4933226,0.54139423,0.61058205,0.8689855,0.70283586,0.5026834,0.18296969,0.8202271,0.72706884,0.4845072,0.14547269,0.7592417,0.49754167,0.25354564,-0.047015324,0.75428885,-0.16372405,-0.24513589,-0.12961031,-0.014334092,793.36993,793.36993,801.8315,811.9048,781.685,-0.166015625,0.04290771484375,0.984619140625,-4.6356201171875,-6.3702392578125,-5.375823974609375,1,1.0,1.0,1.0,1.0,10.00
2024-10-11 20:19:07.392,0.4933226,0.54139423,0.61058205,0.8689855,0.70283586,0.5026834,0.18296969,0.8202271,0.72706884,0.4845072,0.14547269,0.7592417,0.49754167,0.25354564,-0.047015324,0.75428885,-0.16372405,-0.24513589,-0.12961031,-0.014334092,796.99634,802.23444,809.0842,810.293,609.6337,-0.166015625,0.04290771484375,0.984619140625,-4.6356201171875,-6.3702392578125,-5.375823974609375,1,1.0,1.0,1.0,1.0,10.00
2024-10-11 20:19:07.393,0.4933226,0.54139423,0.61058205,0.8689855,0.70283586,0.5026834,0.18296969,0.8202271,0.72706884,0.4845072,0.14547269,0.7592417,0.49754167,0.25354564,-0.047015324,0.75428885,-0.16372405,-0.24513589,-0.12961031,-0.014334092,797.3993,794.57874,800.6227,808.68134,728.9011,-0.166015625,0.04290771484375,0.984619140625,-4.6356201171875,-6.3702392578125,-5.375823974609375,1,1.0,1.0,1.0,1.0,10.00
2024-10-11 20:19:07.394,0.4933226,0.54139423,0.61058205,0.8689855,0.70283586,0.5026834,0.18296969,0.8202271,0.72706884,0.4845072,0.14547269,0.7592417,0.49754167,0.25354564,-0.047015324,0.75428885,-0.16372405,-0.24513589,-0.12961031,-0.014334092,791.75824,796.5934,793.7729,807.47253,948.0952,-0.166015625,0.04290771484375,0.984619140625,-4.6356201171875,-6.3702392578125,-5.375823974609375,1,1.0,1.0,1.0,1.0,10.00
2024-10-11 20:19:07.489,0.4933226,0.54139423,0.61058205,0.8689855,0.70283586,0.5026834,0.18296969,0.8202271,0.72706884,0.4845072,0.14547269,0.7592417,0.49754167,0.25354564,-0.047015324,0.75428885,-0.16372405,-0.24513589,-0.12961031,-0.014334092,797.3993,801.4286,796.5934,807.0696,807.47253,-0.15496826171875,0.0396728515625,0.98199462890625,-2.6617431640625,-7.663726806640625,-5.360870361328125,1,1.0,1.0,1.0,1.0,10.00
2024-10-11 20:19:07.490,0.4933226,0.54139423,0.61058205,0.8689855,0.70283586,0.5026834,0.18296969,0.8202271,0.72706884,0.4845072,0.14547269,0.7592417,0.49754167,0.25354564,-0.047015324,0.75428885,-0.16372405,-0.24513589,-0.12961031,-0.014334092,800.2198,805.8608,803.0403,805.4579,632.1978,-0.15496826171875,0.0396728515625,0.98199462890625,-2.6617431640625,-7.663726806640625,-5.360870361328125,1,1.0,1.0,1.0,1.0,10.00
2024-10-11 20:19:07.491,0.4933226,0.54139423,0.61058205,0.8689855,0.70283586,0.5026834,0.18296969,0.8202271,0.72706884,0.4845072,0.14547269,0.7592417,0.49754167,0.25354564,-0.047015324,0.75428885,-0.16372405,-0.24513589,-0.12961031,-0.014334092,801.02563,805.05493,809.0842,808.2784,819.9634,-0.15496826171875,0.0396728515625,0.98199462890625,-2.6617431640625,-7.663726806640625,-5.360870361328125,1,1.0,1.0,1.0,1.0,10.00
2024-10-11 20:19:07.492,0.4933226,0.54139423,0.61058205,0.8689855,0.70283586,0.5026834,0.18296969,0.8202271,0.72706884,0.4845072,0.14547269,0.7592417,0.49754167,0.25354564,-0.047015324,0.75428885,-0.16372405,-0.24513589,-0.12961031,-0.014334092,812.3077,797.8022,802.6374,818.3516,1113.6996,-0.15496826171875,0.0396728515625,0.98199462890625,-2.6617431640625,-7.663726806640625,-5.360870361328125,1,1.0,1.0,1.0,1.0,10.00
2024-10-11 20:19:07.499,0.4933226,0.54139423,0.61058205,0.8689855,0.70283586,0.5026834,0.18296969,0.8202271,0.72706884,0.4845072,0.14547269,0.7592417,0.49754167,0.25354564,-0.047015324,0.75428885,-0.16372405,-0.24513589,-0.12961031,-0.014334092,810.696,795.78754,798.60803,817.9487,898.1319,-0.15496826171875,0.0396728515625,0.98199462890625,-2.6617431640625,-7.663726806640625,-5.360870361328125,1,1.0,1.0,1.0,1.0,10.00
2024-10-11 20:19:07.500,0.4933226,0.54139423,0.61058205,0.8689855,0.70283586,0.5026834,0.18296969,0.8202271,0.72706884,0.4845072,0.14547269,0.7592417,0.49754167,0.25354564,-0.047015324,0.75428885,-0.16372405,-0.24513589,-0.12961031,-0.014334092,802.23444,790.54944,807.47253,810.696,738.5714,-0.15496826171875,0.0396728515625,0.98199462890625,-2.6617431640625,-7.663726806640625,-5.360870361328125,1,1.0,1.0,1.0,1.0,10.00
2024-10-11 20:19:07.501,0.4933226,0.54139423,0.61058205,0.8689855,0.70283586,0.5026834,0.18296969,0.8202271,0.72706884,0.4845072,0.14547269,0.7592417,0.49754167,0.25354564,-0.047015324,0.75428885,-0.16372405,-0.24513589,-0.12961031,-0.014334092,808.2784,796.5934,811.9048,813.1135,1013.7729,-0.15496826171875,0.0396728515625,0.98199462890625,-2.6617431640625,-7.663726806640625,-5.360870361328125,1,1.0,1.0,1.0,1.0,10.00
2024-10-11 20:19:07.502,0.4933226,0.54139423,0.61058205,0.8689855,0.70283586,0.5026834,0.18296969,0.8202271,0.72706884,0.4845072,0.14547269,0.7592417,0.49754167,0.25354564,-0.047015324,0.75428885,-0.16372405,-0.24513589,-0.12961031,-0.014334092,808.68134,806.26373,807.47253,811.50183,989.59705,-0.15496826171875,0.0396728515625,0.98199462890625,-2.6617431640625,-7.663726806640625,-5.360870361328125,1,1.0,1.0,1.0,1.0,10.00
2024-10-11 20:19:07.502,0.4933226,0.54139423,0.61058205,0.8689855,0.70283586,0.5026834,0.18296969,0.8202271,0.72706884,0.4845072,0.14547269,0.7592417,0.49754167,0.25354564,-0.047015324,0.75428885,-0.16372405,-0.24513589,-0.12961031,-0.014334092,811.0989,809.0842,804.2491,807.0696,785.7143,-0.15496826171875,0.0396728515625,0.98199462890625,-2.6617431640625,-7.663726806640625,-5.360870361328125,1,1.0,1.0,1.0,1.0,10.00
2024-10-11 20:19:07.503,0.4933226,0.58136165,0.68210393,0.8689855,0.70283586,0.53806907,0.20067842,0.8202271,0.72706884,0.49812797,0.14547269,0.7592417,0.49754167,0.25216913,-0.039444327,0.75428885,-0.16372405,-0.2253468,-0.124848105,-0.014334092,814.3223,803.0403,804.65204,805.4579,708.7546,-0.15496826171875,0.0396728515625,0.98199462890625,-2.6617431640625,-7.663726806640625,-5.360870361328125,1,1.0,1.0,1.0,1.0,10.00
2024-10-11 20:19:07.509,0.4933226,0.58136165,0.68210393,0.8689855,0.70283586,0.53806907,0.20067842,0.8202271,0.72706884,0.49812797,0.14547269,0.7592417,0.49754167,0.25216913,-0.039444327,0.75428885,-0.16372405,-0.2253468,-0.124848105,-0.014334092,809.4872,800.6227,801.8315,803.44324,755.09155,-0.15496826171875,0.0396728515625,0.98199462890625,-2.6617431640625,-7.663726806640625,-5.360870361328125,1,1.0,1.0,1.0,1.0,10.00
2024-10-11 20:19:07.510,0.4933226,0.58136165,0.68210393,0.8689855,0.70283586,0.53806907,0.20067842,0.8202271,0.72706884,0.49812797,0.14547269,0.7592417,0.49754167,0.25216913,-0.039444327,0.75428885,-0.16372405,-0.2253468,-0.124848105,-0.014334092,811.50183,806.26373,803.8461,805.8608,755.4945,-0.15496826171875,0.0396728515625,0.98199462890625,-2.6617431640625,-7.663726806640625,-5.360870361328125,1,1.0,1.0,1.0,1.0,10.00
2024-10-11 20:19:07.544,0.4933226,0.58136165,0.68210393,0.8689855,0.70283586,0.53806907,0.20067842,0.8202271,0.72706884,0.49812797,0.14547269,0.7592417,0.49754167,0.25216913,-0.039444327,0.75428885,-0.16372405,-0.2253468,-0.124848105,-0.014334092,814.3223,800.2198,798.20514,806.6667,673.69965,-0.13763427734375,0.05389404296875,0.999267578125,-0.276641845703125,-7.693634033203125,-2.908477783203125,1,1.0,1.0,1.0,1.0,10.00
2024-10-11 20:19:07.545,0.4933226,0.58136165,0.68210393,0.8689855,0.70283586,0.53806907,0.20067842,0.8202271,0.72706884,0.49812797,0.14547269,0.7592417,0.49754167,0.25216913,-0.039444327,0.75428885,-0.16372405,-0.2253468,-0.124848105,-0.014334092,810.293,800.2198,793.7729,804.2491,742.6007,-0.13763427734375,0.05389404296875,0.999267578125,-0.276641845703125,-7.693634033203125,-2.908477783203125,1,1.0,1.0,1.0,1.0,10.00
2024-10-11 20:19:07.546,0.4933226,0.58136165,0.68210393,0.8689855,0.70283586,0.53806907,0.20067842,0.8202271,0.72706884,0.49812797,0.14547269,0.7592417,0.49754167,0.25216913,-0.039444327,0.75428885,-0.16372405,-0.2253468,-0.124848105,-0.014334092,807.47253,800.6227,798.20514,803.0403,809.0842,-0.13763427734375,0.05389404296875,0.999267578125,-0.276641845703125,-7.693634033203125,-2.908477783203125,1,1.0,1.0,1.0,1.0,10.00
2024-10-11 20:19:07.547,0.4933226,0.58136165,0.68210393,0.8689855,0.70283586,0.53806907,0.20067842,0.8202271,0.72706884,0.49812797,0.14547269,0.7592417,0.49754167,0.25216913,-0.039444327,0.75428885,-0.16372405,-0.2253468,-0.124848105,-0.014334092,807.47253,790.9524,803.8461,804.2491,669.67035,-0.13763427734375,0.05389404296875,0.999267578125,-0.276641845703125,-7.693634033203125,-2.908477783203125,1,1.0,1.0,1.0,1.0,10.00
2024-10-11 20:19:07.548,0.4933226,0.58136165,0.68210393,0.8689855,0.70283586,0.53806907,0.20067842,0.8202271,0.72706884,0.49812797,0.14547269,0.7592417,0.49754167,0.25216913,-0.039444327,0.75428885,-0.16372405,-0.2253468,-0.124848105,-0.014334092,806.6667,794.17584,805.4579,811.9048,525.42126,-0.13763427734375,0.05389404296875,0.999267578125,-0.276641845703125,-7.693634033203125,-2.908477783203125,1,1.0,1.0,1.0,1.0,10.00
2024-10-11 20:19:07.549,0.4933226,0.58136165,0.68210393,0.8689855,0.70283586,0.53806907,0.20067842,0.8202271,0.72706884,0.49812797,0.14547269,0.7592417,0.49754167,0.25216913,-0.039444327,0.75428885,-0.16372405,-0.2253468,-0.124848105,-0.014334092,802.23444,799.81683,803.0403,816.7399,764.7619,-0.13763427734375,0.05389404296875,0.999267578125,-0.276641845703125,-7.693634033203125,-2.908477783203125,1,1.0,1.0,1.0,1.0,10.00
2024-10-11 20:19:07.550,0.4933226,0.58136165,0.68210393,0.8689855,0.70283586,0.53806907,0.20067842,0.8202271,0.72706884,0.49812797,0.14547269,0.7592417,0.49754167,0.25216913,-0.039444327,0.75428885,-0.16372405,-0.2253468,-0.124848105,-0.014334092,790.14655,797.8022,795.78754,810.293,1013.7729,-0.13763427734375,0.05389404296875,0.999267578125,-0.276641845703125,-7.693634033203125,-2.908477783203125,1,1.0,1.0,1.0,1.0,10.00
2024-10-11 20:19:07.551,0.4933226,0.58136165,0.68210393,0.8689855,0.70283586,0.53806907,0.20067842,0.8202271,0.72706884,0.49812797,0.14547269,0.7592417,0.49754167,0.25216913,-0.039444327,0.75428885,-0.16372405,-0.2253468,-0.124848105,-0.014334092,786.9231,789.34064,790.9524,801.4286,712.381,-0.13763427734375,0.05389404296875,0.999267578125,-0.276641845703125,-7.693634033203125,-2.908477783203125,1,1.0,1.0,1.0,1.0,10.00
2024-10-11 20:19:07.551,0.4933226,0.58136165,0.68210393,0.8689855,0.70283586,0.53806907,0.20067842,0.8202271,0.72706884,0.49812797,0.14547269,0.7592417,0.49754167,0.25216913,-0.039444327,0.75428885,-0.16372405,-0.2253468,-0.124848105,-0.014334092,798.20514,792.5641,796.99634,799.011,568.5348,-0.13763427734375,0.05389404296875,0.999267578125,-0.276641845703125,-7.693634033203125,-2.908477783203125,1,1.0,1.0,1.0,1.0,10.00
2024-10-11 20:19:07.552,0.4933226,0.58136165,0.68210393,0.8689855,0.70283586,0.53806907,0.20067842,0.8202271,0.72706884,0.49812797,0.14547269,0.7592417,0.49754167,0.25216913,-0.039444327,0.75428885,-0.16372405,-0.2253468,-0.124848105,-0.014334092,806.6667,803.0403,796.1905,811.50183,809.89014,-0.13763427734375,0.05389404296875,0.999267578125,-0.276641845703125,-7.693634033203125,-2.908477783203125,1,1.0,1.0,1.0,1.0,10.00
2024-10-11 20:19:07.553,0.4933226,0.58136165,0.68210393,0.8689855,0.70283586,0.53806907,0.20067842,0.8202271,0.72706884,0.49812797,0.14547269,0.7592417,0.49754167,0.25216913,-0.039444327,0.75428885,-0.16372405,-0.2253468,-0.124848105,-0.014334092,803.0403,798.60803,792.96704,812.3077,824.7985,-0.13763427734375,0.05389404296875,0.999267578125,-0.276641845703125,-7.693634033203125,-2.908477783203125,1,1.0,1.0,1.0,1.0,10.00
2024-10-11 20:19:07.554,0.4933226,0.58136165,0.68210393,0.8689855,0.70283586,0.53806907,0.20067842,0.8202271,0.72706884,0.49812797,0.14547269,0.7592417,0.49754167,0.25216913,-0.039444327,0.75428885,-0.16372405,-0.2253468,-0.124848105,-0.014334092,802.23444,796.1905,798.60803,804.65204,645.89746,-0.13763427734375,0.05389404296875,0.999267578125,-0.276641845703125,-7.693634033203125,-2.908477783203125,1,1.0,1.0,1.0,1.0,10.00
2024-10-11 20:19:07.656,0.4933226,0.58136165,0.68210393,0.8689855,0.70283586,0.53806907,0.20067842,0.8202271,0.72706884,0.49812797,0.14547269,0.7592417,0.49754167,0.25216913,-0.039444327,0.75428885,-0.16372405,-0.2253468,-0.124848105,-0.014334092,806.6667,798.20514,808.2784,810.293,597.1429,-0.1346435546875,0.05780029296875,1.0162353515625,-0.261688232421875,-6.392669677734375,-0.88226318359375,1,1.0,1.0,1.0,1.0,10.00
2024-10-11 20:19:07.657,0.4933226,0.58136165,0.68210393,0.8689855,0.70283586,0.53806907,0.20067842,0.8202271,0.72706884,0.49812797,0.14547269,0.7592417,0.49754167,0.25216913,-0.039444327,0.75428885,-0.16372405,-0.2253468,-0.124848105,-0.014334092,807.47253,796.5934,808.68134,821.5751,830.0366,-0.1346435546875,0.05780029296875,1.0162353515625,-0.261688232421875,-6.392669677734375,-0.88226318359375,1,1.0,1.0,1.0,1.0,10.00
2024-10-11 20:19:07.658,0.4933226,0.58136165,0.68210393,0.8689855,0.70283586,0.53806907,0.20067842,0.8202271,0.72706884,0.49812797,0.14547269,0.7592417,0.49754167,0.25216913,-0.039444327,0.75428885,-0.16372405,-0.2253468,-0.124848105,-0.014334092,802.23444,800.2198,803.8461,819.5604,950.5128,-0.1346435546875,0.05780029296875,1.0162353515625,-0.261688232421875,-6.392669677734375,-0.88226318359375,1,1.0,1.0,1.0,1.0,10.00
2024-10-11 20:19:07.659,0.4933226,0.58136165,0.68210393,0.8689855,0.70283586,0.53806907,0.20067842,0.8202271,0.72706884,0.49812797,0.14547269,0.7592417,0.49754167,0.25216913,-0.039444327,0.75428885,-0.16372405,-0.2253468,-0.124848105,-0.014334092,798.60803,796.99634,801.02563,804.2491,696.26373,-0.1346435546875,0.05780029296875,1.0162353515625,-0.261688232421875,-6.392669677734375,-0.88226318359375,1,1.0,1.0,1.0,1.0,10.00
2024-10-11 20:19:07.660,0.4933226,0.58136165,0.68210393,0.8689855,0.70283586,0.53806907,0.20067842,0.8202271,0.72706884,0.49812797,0.14547269,0.7592417,0.49754167,0.25216913,-0.039444327,0.75428885,-0.16372405,-0.2253468,-0.124848105,-0.014334092,798.60803,791.3553,798.20514,791.75824,611.6484,-0.1346435546875,0.05780029296875,1.0162353515625,-0.261688232421875,-6.392669677734375,-0.88226318359375,1,1.0,1.0,1.0,1.0,10.00
2024-10-11 20:19:07.660,0.4933226,0.58136165,0.68210393,0.8689855,0.70283586,0.53806907,0.20067842,0.8202271,0.72706884,0.49812797,0.14547269,0.7592417,0.49754167,0.25216913,-0.039444327,0.75428885,-0.16372405,-0.2253468,-0.124848105,-0.014334092,797.8022,788.93774,794.57874,795.78754,876.3736,-0.1346435546875,0.05780029296875,1.0162353515625,-0.261688232421875,-6.392669677734375,-0.88226318359375,1,1.0,1.0,1.0,1.0,10.00
2024-10-11 20:19:07.661,0.4933226,0.58136165,0.68210393,0.8689855,0.70283586,0.53806907,0.20067842,0.8202271,0.72706884,0.49812797,0.14547269,0.7592417,0.49754167,0.25216913,-0.039444327,0.75428885,-0.16372405,-0.2253468,-0.124848105,-0.014334092,801.8315,796.5934,790.14655,808.2784,993.22345,-0.1346435546875,0.05780029296875,1.0162353515625,-0.261688232421875,-6.392669677734375,-0.88226318359375,1,1.0,1.0,1.0,1.0,10.00
2024-10-11 20:19:07.662,0.4933226,0.58136165,0.68210393,0.8689855,0.70283586,0.53806907,0.20067842,0.8202271,0.72706884,0.49812797,0.14547269,0.7592417,0.49754167,0.25216913,-0.039444327,0.75428885,-0.16372405,-0.2253468,-0.124848105,-0.014334092,797.3993,805.8608,792.96704,805.4579,790.14655,-0.1346435546875,0.05780029296875,1.0162353515625,-0.261688232421875,-6.392669677734375,-0.88226318359375,1,1.0,1.0,1.0,1.0,10.00
2024-10-11 20:19:07.662,0.4933226,0.58136165,0.68210393,0.8689855,0.70283586,0.53806907,0.20067842,0.8202271,0.72706884,0.49812797,0.14547269,0.7592417,0.49754167,0.25216913,-0.039444327,0.75428885,-0.16372405,-0.2253468,-0.124848105,-0.014334092,796.1905,799.41394,797.3993,800.6227,593.5165,-0.1346435546875,0.05780029296875,1.0162353515625,-0.261688232421875,-6.392669677734375,-0.88226318359375,1,1.0,1.0,1.0,1.0,10.00
2024-10-11 20:19:07.663,0.4933226,0.58136165,0.68210393,0.8689855,0.70283586,0.53806907,0.20067842,0.8202271,0.72706884,0.49812797,0.14547269,0.7592417,0.49754167,0.25216913,-0.039444327,0.75428885,-0.16372405,-0.2253468,-0.124848105,-0.014334092,801.02563,795.38464,798.60803,805.05493,721.6484,-0.1346435546875,0.05780029296875,1.0162353515625,-0.261688232421875,-6.392669677734375,-0.88226318359375,1,1.0,1.0,1.0,1.0,10.00
2024-10-11 20:19:07.664,0.4933226,0.58136165,0.68210393,0.8689855,0.70283586,0.53806907,0.20067842,0.8202271,0.72706884,0.49812797,0.14547269,0.7592417,0.49754167,0.25216913,-0.039444327,0.75428885,-0.16372405,-0.2253468,-0.124848105,-0.014334092,803.8461,801.8315,796.99634,807.8755,849.7802,-0.1346435546875,0.05780029296875,1.0162353515625,-0.261688232421875,-6.392669677734375,-0.88226318359375,1,1.0,1.0,1.0,1.0,10.00
2024-10-11 20:19:07.664,0.4933226,0.5919977,0.70810777,0.8689855,0.70283586,0.53647745,0.20197327,0.8202271,0.72706884,0.49882746,0.14547269,0.7592417,0.49754167,0.25123447,-0.035087813,0.75428885,-0.16372405,-0.2012634,-0.1256725,-0.014334092,799.81683,796.5934,803.44324,800.2198,766.77655,-0.1346435546875,0.05780029296875,1.0162353515625,-0.261688232421875,-6.392669677734375,-0.88226318359375,1,1.0,1.0,1.0,1.0,10.00
2024-10-11 20:19:07.698,0.4933226,0.5919977,0.70810777,0.8689855,0.70283586,0.53647745,0.20197327,0.8202271,0.72706884,0.49882746,0.14547269,0.7592417,0.49754167,0.25123447,-0.035087813,0.75428885,-0.16372405,-0.2012634,-0.1256725,-0.014334092,795.38464,795.78754,810.696,803.44324,701.50183,-0.12921142578125,0.04754638671875,1.00048828125,-1.7047119140625,-5.8319091796875,-0.64300537109375,1,1.0,1.0,1.0,1.0,10.00
2024-10-11 20:19:07.699,0.4933226,0.5919977,0.70810777,0.8689855,0.70283586,0.53647745,0.20197327,0.8202271,0.72706884,0.49882746,0.14547269,0.7592417,0.49754167,0.25123447,-0.035087813,0.75428885,-0.16372405,-0.2012634,-0.1256725,-0.014334092,792.5641,793.7729,801.8315,809.89014,726.8865,-0.12921142578125,0.04754638671875,1.00048828125,-1.7047119140625,-5.8319091796875,-0.64300537109375,1,1.0,1.0,1.0,1.0,10.00
2024-10-11 20:19:07.699,0.4933226,0.5919977,0.70810777,0.8689855,0.70283586,0.53647745,0.20197327,0.8202271,0.72706884,0.49882746,0.14547269,0.7592417,0.49754167,0.25123447,-0.035087813,0.75428885,-0.16372405,-0.2012634,-0.1256725,-0.014334092,791.3553,782.49084,793.7729,805.4579,770.0,-0.12921142578125,0.04754638671875,1.00048828125,-1.7047119140625,-5.8319091796875,-0.64300537109375,1,1.0,1.0,1.0,1.0,10.00
2024-10-11 20:19:07.700,0.4933226,0.5919977,0.70810777,0.8689855,0.70283586,0.53647745,0.20197327,0.8202271,0.72706884,0.49882746,0.14547269,0.7592417,0.49754167,0.25123447,-0.035087813,0.75428885,-0.16372405,-0.2012634,-0.1256725,-0.014334092,794.9817,786.9231,797.3993,804.65204,770.0,-0.12921142578125,0.04754638671875,1.00048828125,-1.7047119140625,-5.8319091796875,-0.64300537109375,1,1.0,1.0,1.0,1.0,10.00
2024-10-11 20:19:07.701,0.4933226,0.5919977,0.70810777,0.8689855,0.70283586,0.53647745,0.20197327,0.8202271,0.72706884,0.49882746,0.14547269,0.7592417,0.49754167,0.25123447,-0.035087813,0.75428885,-0.16372405,-0.2012634,-0.1256725,-0.014334092,796.5934,797.8022,796.99634,801.02563,833.2601,-0.12921142578125,0.04754638671875,1.00048828125,-1.7047119140625,-5.8319091796875,-0.64300537109375,1,1.0,1.0,1.0,1.0,10.00
2024-10-11 20:19:07.702,0.4933226,0.5919977,0.70810777,0.8689855,0.70283586,0.53647745,0.20197327,0.8202271,0.72706884,0.49882746,0.14547269,0.7592417,0.49754167,0.25123447,-0.035087813,0.75428885,-0.16372405,-0.2012634,-0.1256725,-0.014334092,792.96704,796.99634,796.5934,803.44324,859.85345,-0.12921142578125,0.04754638671875,1.00048828125,-1.7047119140625,-5.8319091796875,-0.64300537109375,1,1.0,1.0,1.0,1.0,10.00
2024-10-11 20:19:07.702,0.4933226,0.5919977,0.70810777,0.8689855,0.70283586,0.53647745,0.20197327,0.8202271,0.72706884,0.49882746,0.14547269,0.7592417,0.49754167,0.25123447,-0.035087813,0.75428885,-0.16372405,-0.2012634,-0.1256725,-0.014334092,789.34064,792.1612,802.6374,807.47253,945.6777,-0.12921142578125,0.04754638671875,1.00048828125,-1.7047119140625,-5.8319091796875,-0.64300537109375,1,1.0,1.0,1.0,1.0,10.00
2024-10-11 20:19:07.703,0.4933226,0.5919977,0.70810777,0.8689855,0.70283586,0.53647745,0.20197327,0.8202271,0.72706884,0.49882746,0.14547269,0.7592417,0.49754167,0.25123447,-0.035087813,0.75428885,-0.16372405,-0.2012634,-0.1256725,-0.014334092,784.90845,792.96704,800.6227,799.011,838.0952,-0.12921142578125,0.04754638671875,1.00048828125,-1.7047119140625,-5.8319091796875,-0.64300537109375,1,1.0,1.0,1.0,1.0,10.00
2024-10-11 20:19:07.704,0.4933226,0.5919977,0.70810777,0.8689855,0.70283586,0.53647745,0.20197327,0.8202271,0.72706884,0.49882746,0.14547269,0.7592417,0.49754167,0.25123447,-0.035087813,0.75428885,-0.16372405,-0.2012634,-0.1256725,-0.014334092,778.46155,793.36993,798.20514,790.54944,764.35895,-0.12921142578125,0.04754638671875,1.00048828125,-1.7047119140625,-5.8319091796875,-0.64300537109375,1,1.0,1.0,1.0,1.0,10.00
2024-10-11 20:19:07.704,0.4933226,0.5919977,0.70810777,0.8689855,0.70283586,0.53647745,0.20197327,0.8202271,0.72706884,0.49882746,0.14547269,0.7592417,0.49754167,0.25123447,-0.035087813,0.75428885,-0.16372405,-0.2012634,-0.1256725,-0.014334092,790.54944,795.78754,805.4579,795.78754,814.7253,-0.12921142578125,0.04754638671875,1.00048828125,-1.7047119140625,-5.8319091796875,-0.64300537109375,1,1.0,1.0,1.0,1.0,10.00
2024-10-11 20:19:07.705,0.4933226,0.5919977,0.70810777,0.8689855,0.70283586,0.53647745,0.20197327,0.8202271,0.72706884,0.49882746,0.14547269,0.7592417,0.49754167,0.25123447,-0.035087813,0.75428885,-0.16372405,-0.2012634,-0.1256725,-0.014334092,793.7729,806.26373,805.05493,799.011,716.8132,-0.12921142578125,0.04754638671875,1.00048828125,-1.7047119140625,-5.8319091796875,-0.64300537109375,1,1.0,1.0,1.0,1.0,10.00
2024-10-11 20:19:07.706,0.4933226,0.5919977,0.70810777,0.8689855,0.70283586,0.53647745,0.20197327,0.8202271,0.72706884,0.49882746,0.14547269,0.7592417,0.49754167,0.25123447,-0.035087813,0.75428885,-0.16372405,-0.2012634,-0.1256725,-0.014334092,785.31134,796.5934,797.8022,793.36993,713.9927,-0.12921142578125,0.04754638671875,1.00048828125,-1.7047119140625,-5.8319091796875,-0.64300537109375,1,1.0,1.0,1.0,1.0,10.00
2024-10-11 20:19:07.740,0.4933226,0.5919977,0.70810777,0.8689855,0.70283586,0.53647745,0.20197327,0.8202271,0.72706884,0.49882746,0.14547269,0.7592417,0.49754167,0.25123447,-0.035087813,0.75428885,-0.16372405,-0.2012634,-0.1256725,-0.014334092,790.9524,785.31134,805.8608,799.41394,842.52747,-0.11468505859375,0.0535888671875,0.989501953125,-0.73272705078125,-7.07305908203125,-3.45428466796875,1,1.0,1.0,1.0,1.0,10.00
2024-10-11 20:19:07.741,0.4933226,0.5919977,0.70810777,0.8689855,0.70283586,0.53647745,0.20197327,0.8202271,0.72706884,0.49882746,0.14547269,0.7592417,0.49754167,0.25123447,-0.035087813,0.75428885,-0.16372405,-0.2012634,-0.1256725,-0.014334092,793.36993,794.17584,809.89014,807.47253,849.7802,-0.11468505859375,0.0535888671875,0.989501953125,-0.73272705078125,-7.07305908203125,-3.45428466796875,1,1.0,1.0,1.0,1.0,10.00
2024-10-11 20:19:07.742,0.4933226,0.5919977,0.70810777,0.8689855,0.70283586,0.53647745,0.20197327,0.8202271,0.72706884,0.49882746,0.14547269,0.7592417,0.49754167,0.25123447,-0.035087813,0.75428885,-0.16372405,-0.2012634,-0.1256725,-0.014334092,791.75824,799.011,804.65204,805.4579,649.5238,-0.11468505859375,0.0535888671875,0.989501953125,-0.73272705078125,-7.07305908203125,-3.45428466796875,1,1.0,1.0,1.0,1.0,10.00
2024-10-11 20:19:07.743,0.4933226,0.5919977,0.70810777,0.8689855,0.70283586,0.53647745,0.20197327,0.8202271,0.72706884,0.49882746,0.14547269,0.7592417,0.49754167,0.25123447,-0.035087813,0.75428885,-0.16372405,-0.2012634,-0.1256725,-0.014334092,793.7729,790.54944,804.2491,806.6667,602.7839,-0.11468505859375,0.0535888671875,0.989501953125,-0.73272705078125,-7.07305908203125,-3.45428466796875,1,1.0,1.0,1.0,1.0,10.00
2024-10-11 20:19:07.743,0.4933226,0.5919977,0.70810777,0.8689855,0.70283586,0.53647745,0.20197327,0.8202271,0.72706884,0.49882746,0.14547269,0.7592417,0.49754167,0.25123447,-0.035087813,0.75428885,-0.16372405,-0.2012634,-0.1256725,-0.014334092,794.57874,790.14655,804.2491,802.6374,818.7546,-0.11468505859375,0.0535888671875,0.989501953125,-0.73272705078125,-7.07305908203125,-3.45428466796875,1,1.0,1.0,1.0,1.0,10.00
2024-10-11 20:19:07.744,0.4933226,0.5919977,0.70810777,0.8689855,0.70283586,0.53647745,0.20197327,0.8202271,0.72706884,0.49882746,0.14547269,0.7592417,0.49754167,0.25123447,-0.035087813,0.75428885,-0.16372405,-0.2012634,-0.1256725,-0.014334092,791.75824,799.011,801.02563,795.78754,1025.4579,-0.11468505859375,0.0535888671875,0.989501953125,-0.73272705078125,-7.07305908203125,-3.45428466796875,1,1.0,1.0,1.0,1.0,10.00
2024-10-11 20:19:07.745,0.4933226,0.5919977,0.70810777,0.8689855,0.70283586,0.53647745,0.20197327,0.8202271,0.72706884,0.49882746,0.14547269,0.7592417,0.49754167,0.25123447,-0.035087813,0.75428885,-0.16372405,-0.2012634,-0.1256725,-0.014334092,786.52014,804.2491,804.2491,790.54944,836.4835,-0.11468505859375,0.0535888671875,0.989501953125,-0.73272705078125,-7.07305908203125,-3.45428466796875,1,1.0,1.0,1.0,1.0,10.00
2024-10-11 20:19:07.745,0.4933226,0.5919977,0.70810777,0.8689855,0.70283586,0.53647745,0.20197327,0.8202271,0.72706884,0.49882746,0.14547269,0.7592417,0.49754167,0.25123447,-0.035087813,0.75428885,-0.16372405,-0.2012634,-0.1256725,-0.014334092,790.9524,806.26373,804.2491,792.96704,709.15753,-0.11468505859375,0.0535888671875,0.989501953125,-0.73272705078125,-7.07305908203125,-3.45428466796875,1,1.0,1.0,1.0,1.0,10.00
2024-10-11 20:19:07.746,0.4933226,0.5919977,0.70810777,0.8689855,0.70283586,0.53647745,0.20197327,0.8202271,0.72706884,0.49882746,0.14547269,0.7592417,0.49754167,0.25123447,-0.035087813,0.75428885,-0.16372405,-0.2012634,-0.1256725,-0.014334092,796.99634,801.4286,800.6227,801.4286,876.77655,-0.11468505859375,0.0535888671875,0.989501953125,-0.73272705078125,-7.07305908203125,-3.45428466796875,1,1.0,1.0,1.0,1.0,10.00
2024-10-11 20:19:07.747,0.4933226,0.5919977,0.70810777,0.8689855,0.70283586,0.53647745,0.20197327,0.8202271,0.72706884,0.49882746,0.14547269,0.7592417,0.49754167,0.25123447,-0.035087813,0.75428885,-0.16372405,-0.2012634,-0.1256725,-0.014334092,788.1319,794.9817,806.26373,797.8022,833.2601,-0.11468505859375,0.0535888671875,0.989501953125,-0.73272705078125,-7.07305908203125,-3.45428466796875,1,1.0,1.0,1.0,1.0,10.00
2024-10-11 20:19:07.748,0.4933226,0.5919977,0.70810777,0.8689855,0.70283586,0.53647745,0.20197327,0.8202271,0.72706884,0.49882746,0.14547269,0.7592417,0.49754167,0.25123447,-0.035087813,0.75428885,-0.16372405,-0.2012634,-0.1256725,-0.014334092,790.9524,786.1172,800.2198,796.99634,613.663,-0.11468505859375,0.0535888671875,0.989501953125,-0.73272705078125,-7.07305908203125,-3.45428466796875,1,1.0,1.0,1.0,1.0,10.00
2024-10-11 20:19:07.748,0.4933226,0.5919977,0.70810777,0.8689855,0.70283586,0.53647745,0.20197327,0.8202271,0.72706884,0.49882746,0.14547269,0.7592417,0.49754167,0.25123447,-0.035087813,0.75428885,-0.16372405,-0.2012634,-0.1256725,-0.014334092,801.8315,793.36993,798.20514,798.60803,655.56775,-0.11468505859375,0.0535888671875,0.989501953125,-0.73272705078125,-7.07305908203125,-3.45428466796875,1,1.0,1.0,1.0,1.0,10.00
2024-10-11 20:19:07.776,0.4933226,0.5919977,0.70810777,0.8689855,0.70283586,0.53647745,0.20197327,0.8202271,0.72706884,0.49882746,0.14547269,0.7592417,0.49754167,0.25123447,-0.035087813,0.75428885,-0.16372405,-0.2012634,-0.1256725,-0.014334092,801.8315,807.0696,805.8608,799.011,798.60803,-0.11468505859375,0.0535888671875,0.989501953125,-0.73272705078125,-7.07305908203125,-3.45428466796875,1,1.0,1.0,1.0,1.0,10.00
2024-10-11 20:19:07.777,0.4933226,0.5839959,0.7048283,0.8689855,0.70283586,0.5172067,0.1907157,0.8202271,0.72706884,0.49882746,0.14547269,0.7592417,0.49754167,0.24876015,-0.0336139,0.75428885,-0.16372405,-0.17970137,-0.13285492,-0.014334092,795.38464,805.8608,803.0403,793.36993,760.7326,-0.11468505859375,0.0535888671875,0.989501953125,-0.73272705078125,-7.07305908203125,-3.45428466796875,1,1.0,1.0,1.0,1.0,10.00
2024-10-11 20:19:07.783,0.4933226,0.5839959,0.7048283,0.8689855,0.70283586,0.5172067,0.1907157,0.8202271,0.72706884,0.49882746,0.14547269,0.7592417,0.49754167,0.24876015,-0.0336139,0.75428885,-0.16372405,-0.17970137,-0.13285492,-0.014334092,795.38464,805.05493,801.4286,786.52014,556.4469,-0.11468505859375,0.0535888671875,0.989501953125,-0.73272705078125,-7.07305908203125,-3.45428466796875,1,1.0,1.0,1.0,1.0,10.00
2024-10-11 20:19:07.784,0.4933226,0.5839959,0.7048283,0.8689855,0.70283586,0.5172067,0.1907157,0.8202271,0.72706884,0.49882746,0.14547269,0.7592417,0.49754167,0.24876015,-0.0336139,0.75428885,-0.16372405,-0.17970137,-0.13285492,-0.014334092,801.8315,805.8608,808.68134,793.36993,653.1502,-0.11468505859375,0.0535888671875,0.989501953125,-0.73272705078125,-7.07305908203125,-3.45428466796875,1,1.0,1.0,1.0,1.0,10.00
2024-10-11 20:19:07.785,0.4933226,0.5839959,0.7048283,0.8689855,0.70283586,0.5172067,0.1907157,0.8202271,0.72706884,0.49882746,0.14547269,0.7592417,0.49754167,0.24876015,-0.0336139,0.75428885,-0.16372405,-0.17970137,-0.13285492,-0.014334092,791.3553,806.6667,806.26373,795.78754,891.685,-0.11468505859375,0.0535888671875,0.989501953125,-0.73272705078125,-7.07305908203125,-3.45428466796875,1,1.0,1.0,1.0,1.0,10.00
2024-10-11 20:19:07.785,0.4933226,0.5839959,0.7048283,0.8689855,0.70283586,0.5172067,0.1907157,0.8202271,0.72706884,0.49882746,0.14547269,0.7592417,0.49754167,0.24876015,-0.0336139,0.75428885,-0.16372405,-0.17970137,-0.13285492,-0.014334092,784.5055,799.011,792.5641,799.011,842.9304,-0.11468505859375,0.0535888671875,0.989501953125,-0.73272705078125,-7.07305908203125,-3.45428466796875,1,1.0,1.0,1.0,1.0,10.00
2024-10-11 20:19:07.786,0.4933226,0.5839959,0.7048283,0.8689855,0.70283586,0.5172067,0.1907157,0.8202271,0.72706884,0.49882746,0.14547269,0.7592417,0.49754167,0.24876015,-0.0336139,0.75428885,-0.16372405,-0.17970137,-0.13285492,-0.014334092,783.69965,797.3993,793.36993,805.4579,727.6923,-0.11468505859375,0.0535888671875,0.989501953125,-0.73272705078125,-7.07305908203125,-3.45428466796875,1,1.0,1.0,1.0,1.0,10.00
2024-10-11 20:19:07.787,0.4933226,0.5839959,0.7048283,0.8689855,0.70283586,0.5172067,0.1907157,0.8202271,0.72706884,0.49882746,0.14547269,0.7592417,0.49754167,0.24876015,-0.0336139,0.75428885,-0.16372405,-0.17970137,-0.13285492,-0.014334092,781.685,801.02563,800.2198,799.41394,821.5751,-0.11468505859375,0.0535888671875,0.989501953125,-0.73272705078125,-7.07305908203125,-3.45428466796875,1,1.0,1.0,1.0,1.0,10.00
2024-10-11 20:19:07.787,0.4933226,0.5839959,0.7048283,0.8689855,0.70283586,0.5172067,0.1907157,0.8202271,0.72706884,0.49882746,0.14547269,0.7592417,0.49754167,0.24876015,-0.0336139,0.75428885,-0.16372405,-0.17970137,-0.13285492,-0.014334092,795.78754,801.4286,807.8755,800.2198,908.20514,-0.11468505859375,0.0535888671875,0.989501953125,-0.73272705078125,-7.07305908203125,-3.45428466796875,1,1.0,1.0,1.0,1.0,10.00
2024-10-11 20:19:07.788,0.4933226,0.5839959,0.7048283,0.8689855,0.70283586,0.5172067,0.1907157,0.8202271,0.72706884,0.49882746,0.14547269,0.7592417,0.49754167,0.24876015,-0.0336139,0.75428885,-0.16372405,-0.17970137,-0.13285492,-0.014334092,800.2198,803.44324,806.26373,806.6667,749.0476,-0.11468505859375,0.0535888671875,0.989501953125,-0.73272705078125,-7.07305908203125,-3.45428466796875,1,1.0,1.0,1.0,1.0,10.00
2024-10-11 20:19:07.789,0.4933226,0.5839959,0.7048283,0.8689855,0.70283586,0.5172067,0.1907157,0.8202271,0.72706884,0.49882746,0.14547269,0.7592417,0.49754167,0.24876015,-0.0336139,0.75428885,-0.16372405,-0.17970137,-0.13285492,-0.014334092,794.9817,797.3993,800.2198,799.011,641.8681,-0.11468505859375,0.0535888671875,0.989501953125,-0.73272705078125,-7.07305908203125,-3.45428466796875,1,1.0,1.0,1.0,1.0,10.00
2024-10-11 20:19:07.789,0.4933226,0.5839959,0.7048283,0.8689855,0.70283586,0.5172067,0.1907157,0.8202271,0.72706884,0.49882746,0.14547269,0.7592417,0.49754167,0.24876015,-0.0336139,0.75428885,-0.16372405,-0.17970137,-0.13285492,-0.014334092,795.78754,799.81683,797.8022,790.54944,765.56775,-0.11468505859375,0.0535888671875,0.989501953125,-0.73272705078125,-7.07305908203125,-3.45428466796875,1,1.0,1.0,1.0,1.0,10.00
2024-10-11 20:19:07.818,0.4933226,0.5839959,0.7048283,0.8689855,0.70283586,0.5172067,0.1907157,0.8202271,0.72706884,0.49882746,0.14547269,0.7592417,0.49754167,0.24876015,-0.0336139,0.75428885,-0.16372405,-0.17970137,-0.13285492,-0.014334092,799.41394,805.05493,799.81683,794.9817,930.3663,-0.10809326171875,0.05615234375,1.0052490234375,-0.55328369140625,-5.682373046875,-4.20196533203125,1,1.0,1.0,1.0,1.0,10.00
2024-10-11 20:19:07.819,0.4933226,0.5839959,0.7048283,0.8689855,0.70283586,0.5172067,0.1907157,0.8202271,0.72706884,0.49882746,0.14547269,0.7592417,0.49754167,0.24876015,-0.0336139,0.75428885,-0.16372405,-0.17970137,-0.13285492,-0.014334092,798.60803,804.2491,795.38464,796.1905,809.89014,-0.10809326171875,0.05615234375,1.0052490234375,-0.55328369140625,-5.682373046875,-4.20196533203125,1,1.0,1.0,1.0,1.0,10.00
2024-10-11 20:19:07.820,0.4933226,0.5839959,0.7048283,0.8689855,0.70283586,0.5172067,0.1907157,0.8202271,0.72706884,0.49882746,0.14547269,0.7592417,0.49754167,0.24876015,-0.0336139,0.75428885,-0.16372405,-0.17970137,-0.13285492,-0.014334092,793.7729,798.60803,792.5641,790.9524,734.94507,-0.10809326171875,0.05615234375,1.0052490234375,-0.55328369140625,-5.682373046875,-4.20196533203125,1,1.0,1.0,1.0,1.0,10.00
2024-10-11 20:19:07.821,0.4933226,0.5839959,0.7048283,0.8689855,0.70283586,0.5172067,0.1907157,0.8202271,0.72706884,0.49882746,0.14547269,0.7592417,0.49754167,0.24876015,-0.0336139,0.75428885,-0.16372405,-0.17970137,-0.13285492,-0.014334092,807.47253,795.78754,798.60803,797.8022,842.52747,-0.10809326171875,0.05615234375,1.0052490234375,-0.55328369140625,-5.682373046875,-4.20196533203125,1,1.0,1.0,1.0,1.0,10.00
2024-10-11 20:19:07.821,0.4933226,0.5839959,0.7048283,0.8689855,0.70283586,0.5172067,0.1907157,0.8202271,0.72706884,0.49882746,0.14547269,0.7592417,0.49754167,0.24876015,-0.0336139,0.75428885,-0.16372405,-0.17970137,-0.13285492,-0.014334092,812.71063,795.38464,806.6667,808.68134,941.2454,-0.10809326171875,0.05615234375,1.0052490234375,-0.55328369140625,-5.682373046875,-4.20196533203125,1,1.0,1.0,1.0,1.0,10.00
2024-10-11 20:19:07.822,0.4933226,0.5839959,0.7048283,0.8689855,0.70283586,0.5172067,0.1907157,0.8202271,0.72706884,0.49882746,0.14547269,0.7592417,0.49754167,0.24876015,-0.0336139,0.75428885,-0.16372405,-0.17970137,-0.13285492,-0.014334092,807.47253,790.54944,803.0403,803.0403,865.09155,-0.10809326171875,0.05615234375,1.0052490234375,-0.55328369140625,-5.682373046875,-4.20196533203125,1,1.0,1.0,1.0,1.0,10.00
2024-10-11 20:19:07.822,0.4933226,0.5839959,0.7048283,0.8689855,0.70283586,0.5172067,0.1907157,0.8202271,0.72706884,0.49882746,0.14547269,0.7592417,0.49754167,0.24876015,-0.0336139,0.75428885,-0.16372405,-0.17970137,-0.13285492,-0.014334092,809.0842,791.75824,792.1612,796.5934,770.80585,-0.10809326171875,0.05615234375,1.0052490234375,-0.55328369140625,-5.682373046875,-4.20196533203125,1,1.0,1.0,1.0,1.0,10.00
2024-10-11 20:19:07.823,0.4933226,0.5839959,0.7048283,0.8689855,0.70283586,0.5172067,0.1907157,0.8202271,0.72706884,0.49882746,0.14547269,0.7592417,0.49754167,0.24876015,-0.0336139,0.75428885,-0.16372405,-0.17970137,-0.13285492,-0.014334092,805.8608,796.5934,799.81683,792.5641,774.0293,-0.10809326171875,0.05615234375,1.0052490234375,-0.55328369140625,-5.682373046875,-4.20196533203125,1,1.0,1.0,1.0,1.0,10.00
2024-10-11 20:19:07.824,0.4933226,0.5839959,0.7048283,0.8689855,0.70283586,0.5172067,0.1907157,0.8202271,0.72706884,0.49882746,0.14547269,0.7592417,0.49754167,0.24876015,-0.0336139,0.75428885,-0.16372405,-0.17970137,-0.13285492,-0.014334092,809.4872,794.57874,804.65204,797.8022,789.7436,-0.10809326171875,0.05615234375,1.0052490234375,-0.55328369140625,-5.682373046875,-4.20196533203125,1,1.0,1.0,1.0,1.0,10.00
2024-10-11 20:19:07.824,0.4933226,0.5839959,0.7048283,0.8689855,0.70283586,0.5172067,0.1907157,0.8202271,0.72706884,0.49882746,0.14547269,0.7592417,0.49754167,0.24876015,-0.0336139,0.75428885,-0.16372405,-0.17970137,-0.13285492,-0.014334092,814.3223,802.23444,804.2491,805.4579,734.94507,-0.10809326171875,0.05615234375,1.0052490234375,-0.55328369140625,-5.682373046875,-4.20196533203125,1,1.0,1.0,1.0,1.0,10.00
2024-10-11 20:19:07.825,0.4933226,0.5839959,0.7048283,0.8689855,0.70283586,0.5172067,0.1907157,0.8202271,0.72706884,0.49882746,0.14547269,0.7592417,0.49754167,0.24876015,-0.0336139,0.75428885,-0.16372405,-0.17970137,-0.13285492,-0.014334092,807.8755,807.47253,801.4286,798.60803,708.3516,-0.10809326171875,0.05615234375,1.0052490234375,-0.55328369140625,-5.682373046875,-4.20196533203125,1,1.0,1.0,1.0,1.0,10.00
2024-10-11 20:19:07.826,0.4933226,0.5839959,0.7048283,0.8689855,0.70283586,0.5172067,0.1907157,0.8202271,0.72706884,0.49882746,0.14547269,0.7592417,0.49754167,0.24876015,-0.0336139,0.75428885,-0.16372405,-0.17970137,-0.13285492,-0.014334092,802.23444,801.8315,801.02563,800.6227,833.2601,-0.10809326171875,0.05615234375,1.0052490234375,-0.55328369140625,-5.682373046875,-4.20196533203125,1,1.0,1.0,1.0,1.0,10.00
2024-10-11 20:19:07.827,0.4933226,0.5839959,0.7048283,0.8689855,0.70283586,0.5172067,0.1907157,0.8202271,0.72706884,0.49882746,0.14547269,0.7592417,0.49754167,0.24876015,-0.0336139,0.75428885,-0.16372405,-0.17970137,-0.13285492,-0.014334092,805.05493,799.011,803.0403,800.6227,798.60803,-0.11383056640625,0.04241943359375,1.00439453125,-2.788848876953125,-4.18701171875,-4.972076416015625,1,1.0,1.0,1.0,1.0,10.00
2024-10-11 20:19:07.828,0.4933226,0.5839959,0.7048283,0.8689855,0.70283586,0.5172067,0.1907157,0.8202271,0.72706884,0.49882746,0.14547269,0.7592417,0.49754167,0.24876015,-0.0336139,0.75428885,-0.16372405,-0.17970137,-0.13285492,-0.014334092,806.6667,794.17584,803.44324,797.3993,564.10254,-0.11383056640625,0.04241943359375,1.00439453125,-2.788848876953125,-4.18701171875,-4.972076416015625,1,1.0,1.0,1.0,1.0,10.00
2024-10-11 20:19:07.828,0.4933226,0.5839959,0.7048283,0.8689855,0.70283586,0.5172067,0.1907157,0.8202271,0.72706884,0.49882746,0.14547269,0.7592417,0.49754167,0.24876015,-0.0336139,0.75428885,-0.16372405,-0.17970137,-0.13285492,-0.014334092,799.81683,797.3993,803.44324,801.4286,658.7912,-0.11383056640625,0.04241943359375,1.00439453125,-2.788848876953125,-4.18701171875,-4.972076416015625,1,1.0,1.0,1.0,1.0,10.00
2024-10-11 20:19:07.829,0.49933273,0.5808822,0.69641083,0.89401066,0.7231184,0.51311725,0.17436269,0.8225388,0.6959855,0.49882746,0.14341737,0.7567048,0.49296203,0.2424355,-0.031251572,0.7548749,-0.16313587,-0.16407704,-0.14599694,-0.0357466,795.78754,794.17584,792.5641,797.3993,807.8755,-0.11383056640625,0.04241943359375,1.00439453125,-2.788848876953125,-4.18701171875,-4.972076416015625,1,1.0,1.0,1.0,1.0,10.00
2024-10-11 20:19:07.835,0.49933273,0.5808822,0.69641083,0.89401066,0.7231184,0.51311725,0.17436269,0.8225388,0.6959855,0.49882746,0.14341737,0.7567048,0.49296203,0.2424355,-0.031251572,0.7548749,-0.16313587,-0.16407704,-0.14599694,-0.0357466,798.60803,787.326,794.57874,800.2198,712.7839,-0.11383056640625,0.04241943359375,1.00439453125,-2.788848876953125,-4.18701171875,-4.972076416015625,1,1.0,1.0,1.0,1.0,10.00
2024-10-11 20:19:07.836,0.49933273,0.5808822,0.69641083,0.89401066,0.7231184,0.51311725,0.17436269,0.8225388,0.6959855,0.49882746,0.14341737,0.7567048,0.49296203,0.2424355,-0.031251572,0.7548749,-0.16313587,-0.16407704,-0.14599694,-0.0357466,798.20514,794.17584,801.8315,801.02563,764.7619,-0.11383056640625,0.04241943359375,1.00439453125,-2.788848876953125,-4.18701171875,-4.972076416015625,1,1.0,1.0,1.0,1.0,10.00
2024-10-11 20:19:07.836,0.49933273,0.5808822,0.69641083,0.89401066,0.7231184,0.51311725,0.17436269,0.8225388,0.6959855,0.49882746,0.14341737,0.7567048,0.49296203,0.2424355,-0.031251572,0.7548749,-0.16313587,-0.16407704,-0.14599694,-0.0357466,791.3553,794.9817,800.2198,796.5934,958.97437,-0.11383056640625,0.04241943359375,1.00439453125,-2.788848876953125,-4.18701171875,-4.972076416015625,1,1.0,1.0,1.0,1.0,10.00
2024-10-11 20:19:07.837,0.49933273,0.5808822,0.69641083,0.89401066,0.7231184,0.51311725,0.17436269,0.8225388,0.6959855,0.49882746,0.14341737,0.7567048,0.49296203,0.2424355,-0.031251572,0.7548749,-0.16313587,-0.16407704,-0.14599694,-0.0357466,790.14655,793.36993,799.81683,802.6374,914.2491,-0.11383056640625,0.04241943359375,1.00439453125,-2.788848876953125,-4.18701171875,-4.972076416015625,1,1.0,1.0,1.0,1.0,10.00
2024-10-11 20:19:07.838,0.49933273,0.5808822,0.69641083,0.89401066,0.7231184,0.51311725,0.17436269,0.8225388,0.6959855,0.49882746,0.14341737,0.7567048,0.49296203,0.2424355,-0.031251572,0.7548749,-0.16313587,-0.16407704,-0.14599694,-0.0357466,792.96704,797.3993,801.02563,798.60803,651.53845,-0.11383056640625,0.04241943359375,1.00439453125,-2.788848876953125,-4.18701171875,-4.972076416015625,1,1.0,1.0,1.0,1.0,10.00
2024-10-11 20:19:07.839,0.49933273,0.5808822,0.69641083,0.89401066,0.7231184,0.51311725,0.17436269,0.8225388,0.6959855,0.49882746,0.14341737,0.7567048,0.49296203,0.2424355,-0.031251572,0.7548749,-0.16313587,-0.16407704,-0.14599694,-0.0357466,796.1905,801.8315,799.81683,792.5641,534.2857,-0.11383056640625,0.04241943359375,1.00439453125,-2.788848876953125,-4.18701171875,-4.972076416015625,1,1.0,1.0,1.0,1.0,10.00
2024-10-11 20:19:07.839,0.49933273,0.5808822,0.69641083,0.89401066,0.7231184,0.51311725,0.17436269,0.8225388,0.6959855,0.49882746,0.14341737,0.7567048,0.49296203,0.2424355,-0.031251572,0.7548749,-0.16313587,-0.16407704,-0.14599694,-0.0357466,796.1905,805.4579,803.0403,801.8315,830.4396,-0.11383056640625,0.04241943359375,1.00439453125,-2.788848876953125,-4.18701171875,-4.972076416015625,1,1.0,1.0,1.0,1.0,10.00
2024-10-11 20:19:07.840,0.49933273,0.5808822,0.69641083,0.89401066,0.7231184,0.51311725,0.17436269,0.8225388,0.6959855,0.49882746,0.14341737,0.7567048,0.49296203,0.2424355,-0.031251572,0.7548749,-0.16313587,-0.16407704,-0.14599694,-0.0357466,800.2198,799.011,804.65204,809.4872,919.89014,-0.11383056640625,0.04241943359375,1.00439453125,-2.788848876953125,-4.18701171875,-4.972076416015625,1,1.0,1.0,1.0,1.0,10.00
2024-10-11 20:19:07.841,0.49933273,0.5808822,0.69641083,0.89401066,0.7231184,0.51311725,0.17436269,0.8225388,0.6959855,0.49882746,0.14341737,0.7567048,0.49296203,0.2424355,-0.031251572,0.7548749,-0.16313587,-0.16407704,-0.14599694,-0.0357466,809.89014,800.2198,803.0403,813.91943,612.8571,-0.1114501953125,0.04486083984375,1.00213623046875,-1.039276123046875,-2.609405517578125,-4.792633056640625,1,1.0,1.0,1.0,1.0,10.00
2024-10-11 20:19:07.842,0.49933273,0.5808822,0.69641083,0.89401066,0.7231184,0.51311725,0.17436269,0.8225388,0.6959855,0.49882746,0.14341737,0.7567048,0.49296203,0.2424355,-0.031251572,0.7548749,-0.16313587,-0.16407704,-0.14599694,-0.0357466,806.26373,803.0403,803.44324,817.1429,559.67035,-0.1114501953125,0.04486083984375,1.00213623046875,-1.039276123046875,-2.609405517578125,-4.792633056640625,1,1.0,1.0,1.0,1.0,10.00
2024-10-11 20:19:07.842,0.49933273,0.5808822,0.69641083,0.89401066,0.7231184,0.51311725,0.17436269,0.8225388,0.6959855,0.49882746,0.14341737,0.7567048,0.49296203,0.2424355,-0.031251572,0.7548749,-0.16313587,-0.16407704,-0.14599694,-0.0357466,800.6227,795.78754,798.20514,813.91943,814.3223,-0.1114501953125,0.04486083984375,1.00213623046875,-1.039276123046875,-2.609405517578125,-4.792633056640625,1,1.0,1.0,1.0,1.0,10.00
2024-10-11 20:19:07.843,0.49933273,0.5808822,0.69641083,0.89401066,0.7231184,0.51311725,0.17436269,0.8225388,0.6959855,0.49882746,0.14341737,0.7567048,0.49296203,0.2424355,-0.031251572,0.7548749,-0.16313587,-0.16407704,-0.14599694,-0.0357466,800.6227,790.54944,799.41394,806.26373,884.43225,-0.1114501953125,0.04486083984375,1.00213623046875,-1.039276123046875,-2.609405517578125,-4.792633056640625,1,1.0,1.0,1.0,1.0,10.00
2024-10-11 20:19:07.844,0.49933273,0.5808822,0.69641083,0.89401066,0.7231184,0.51311725,0.17436269,0.8225388,0.6959855,0.49882746,0.14341737,0.7567048,0.49296203,0.2424355,-0.031251572,0.7548749,-0.16313587,-0.16407704,-0.14599694,-0.0357466,798.20514,788.5348,795.78754,793.7729,649.12085,-0.1114501953125,0.04486083984375,1.00213623046875,-1.039276123046875,-2.609405517578125,-4.792633056640625,1,1.0,1.0,1.0,1.0,10.00
2024-10-11 20:19:07.844,0.49933273,0.5808822,0.69641083,0.89401066,0.7231184,0.51311725,0.17436269,0.8225388,0.6959855,0.49882746,0.14341737,0.7567048,0.49296203,0.2424355,-0.031251572,0.7548749,-0.16313587,-0.16407704,-0.14599694,-0.0357466,801.4286,794.17584,797.8022,797.8022,711.5751,-0.1114501953125,0.04486083984375,1.00213623046875,-1.039276123046875,-2.609405517578125,-4.792633056640625,1,1.0,1.0,1.0,1.0,10.00
2024-10-11 20:19:07.845,0.49933273,0.5808822,0.69641083,0.89401066,0.7231184,0.51311725,0.17436269,0.8225388,0.6959855,0.49882746,0.14341737,0.7567048,0.49296203,0.2424355,-0.031251572,0.7548749,-0.16313587,-0.16407704,-0.14599694,-0.0357466,806.26373,804.65204,801.02563,807.0696,1049.6337,-0.1114501953125,0.04486083984375,1.00213623046875,-1.039276123046875,-2.609405517578125,-4.792633056640625,1,1.0,1.0,1.0,1.0,10.00
2024-10-11 20:19:07.846,0.49933273,0.5808822,0.69641083,0.89401066,0.7231184,0.51311725,0.17436269,0.8225388,0.6959855,0.49882746,0.14341737,0.7567048,0.49296203,0.2424355,-0.031251572,0.7548749,-0.16313587,-0.16407704,-0.14599694,-0.0357466,791.75824,803.8461,803.8461,798.20514,943.663,-0.1114501953125,0.04486083984375,1.00213623046875,-1.039276123046875,-2.609405517578125,-4.792633056640625,1,1.0,1.0,1.0,1.0,10.00
