TimeStamp,Delta_TP9,Delta_AF7,Delta_AF8,Delta_TP10,Theta_TP9,Theta_AF7,Theta_AF8,Theta_TP10,Alpha_TP9,Alpha_AF7,Alpha_AF8,Alpha_TP10,Beta_TP9,Beta_AF7,Beta_AF8,Beta_TP10,Gamma_TP9,Gamma_AF7,Gamma_AF8,Gamma_TP10,RAW_TP9,RAW_AF7,RAW_AF8,RAW_TP10,AUX_RIGHT,Accelerometer_X,Accelerometer_Y,Accelerometer_Z,Gyro_X,Gyro_Y,Gyro_Z,HeadBandOn,HSI_TP9,HSI_AF7,HSI_AF8,HSI_TP10,Battery,Elements
2024-10-11 20:20:50.843,0.422613,-0.136018,0.048397534,0.5309414,0.64275765,-0.23012543,0.03238622,0.48584518,0.8446481,0.11533775,0.14949335,0.7735884,0.46672282,0.3171871,0.04569818,0.4687412,-0.18691944,0.09259503,-0.14756899,0.025028894,808.68134,811.50183,778.0586,798.60803,689.011,-0.2215576171875,0.06146240234375,0.9952392578125,-2.130889892578125,-5.525360107421875,-6.59454345703125,1,1.0,1.0,1.0,1.0,10.00
2024-10-11 20:20:50.844,0.422613,-0.136018,0.048397534,0.5309414,0.64275765,-0.23012543,0.03238622,0.48584518,0.8446481,0.11533775,0.14949335,0.7735884,0.46672282,0.3171871,0.04569818,0.4687412,-0.18691944,0.09259503,-0.14756899,0.025028894,813.1135,814.7253,782.8938,801.8315,717.2161,-0.2215576171875,0.06146240234375,0.9952392578125,-2.130889892578125,-5.525360107421875,-6.59454345703125,1,1.0,1.0,1.0,1.0,10.00
2024-10-11 20:20:50.845,0.422613,-0.136018,0.048397534,0.5309414,0.64275765,-0.23012543,0.03238622,0.48584518,0.8446481,0.11533775,0.14949335,0.7735884,0.46672282,0.3171871,0.04569818,0.4687412,-0.18691944,0.09259503,-0.14756899,0.025028894,815.12823,818.7546,786.9231,802.6374,770.0,-0.2215576171875,0.06146240234375,0.9952392578125,-2.130889892578125,-5.525360107421875,-6.59454345703125,1,1.0,1.0,1.0,1.0,10.00
2024-10-11 20:20:50.846,0.422613,-0.136018,0.048397534,0.5309414,0.64275765,-0.23012543,0.03238622,0.48584518,0.8446481,0.11533775,0.14949335,0.7735884,0.46672282,0.3171871,0.04569818,0.4687412,-0.18691944,0.09259503,-0.14756899,0.025028894,809.89014,807.47253,778.46155,798.60803,712.381,-0.2215576171875,0.06146240234375,0.9952392578125,-2.130889892578125,-5.525360107421875,-6.59454345703125,1,1.0,1.0,1.0,1.0,10.00
2024-10-11 20:20:50.847,0.422613,-0.136018,0.048397534,0.5309414,0.64275765,-0.23012543,0.03238622,0.48584518,0.8446481,0.11533775,0.14949335,0.7735884,0.46672282,0.3171871,0.04569818,0.4687412,-0.18691944,0.09259503,-0.14756899,0.025028894,807.8755,800.6227,780.87915,796.1905,603.5897,-0.2215576171875,0.06146240234375,0.9952392578125,-2.130889892578125,-5.525360107421875,-6.59454345703125,1,1.0,1.0,1.0,1.0,10.00
2024-10-11 20:20:50.848,0.448762,-0.15503918,-0.0014522728,0.5270823,0.6400104,-0.24671088,0.0045189513,0.4603128,0.7846209,0.11309234,0.15720391,0.7588953,0.47205907,0.292646,0.054621764,0.46941108,-0.18579282,0.104867585,-0.119912915,0.041052982,804.2491,808.68134,789.34064,801.8315,737.3626,-0.2215576171875,0.06146240234375,0.9952392578125,-2.130889892578125,-5.525360107421875,-6.59454345703125,1,1.0,1.0,1.0,1.0,10.00
2024-10-11 20:20:50.852,0.448762,-0.15503918,-0.0014522728,0.5270823,0.6400104,-0.24671088,0.0045189513,0.4603128,0.7846209,0.11309234,0.15720391,0.7588953,0.47205907,0.292646,0.054621764,0.46941108,-0.18579282,0.104867585,-0.119912915,0.041052982,804.65204,808.68134,788.5348,801.02563,963.4066,-0.2215576171875,0.06146240234375,0.9952392578125,-2.130889892578125,-5.525360107421875,-6.59454345703125,1,1.0,1.0,1.0,1.0,10.00
2024-10-11 20:20:50.853,0.448762,-0.15503918,-0.0014522728,0.5270823,0.6400104,-0.24671088,0.0045189513,0.4603128,0.7846209,0.11309234,0.15720391,0.7588953,0.47205907,0.292646,0.054621764,0.46941108,-0.18579282,0.104867585,-0.119912915,0.041052982,809.4872,802.6374,783.2967,796.99634,922.3077,-0.2215576171875,0.06146240234375,0.9952392578125,-2.130889892578125,-5.525360107421875,-6.59454345703125,1,1.0,1.0,1.0,1.0,10.00
2024-10-11 20:20:50.854,0.448762,-0.15503918,-0.0014522728,0.5270823,0.6400104,-0.24671088,0.0045189513,0.4603128,0.7846209,0.11309234,0.15720391,0.7588953,0.47205907,0.292646,0.054621764,0.46941108,-0.18579282,0.104867585,-0.119912915,0.041052982,803.44324,803.44324,781.685,794.17584,732.9304,-0.2215576171875,0.06146240234375,0.9952392578125,-2.130889892578125,-5.525360107421875,-6.59454345703125,1,1.0,1.0,1.0,1.0,10.00
2024-10-11 20:20:50.855,0.448762,-0.15503918,-0.0014522728,0.5270823,0.6400104,-0.24671088,0.0045189513,0.4603128,0.7846209,0.11309234,0.15720391,0.7588953,0.47205907,0.292646,0.054621764,0.46941108,-0.18579282,0.104867585,-0.119912915,0.041052982,804.2491,805.05493,780.87915,796.99634,705.12823,-0.2215576171875,0.06146240234375,0.9952392578125,-2.130889892578125,-5.525360107421875,-6.59454345703125,1,1.0,1.0,1.0,1.0,10.00
2024-10-11 20:20:50.856,0.448762,-0.15503918,-0.0014522728,0.5270823,0.6400104,-0.24671088,0.0045189513,0.4603128,0.7846209,0.11309234,0.15720391,0.7588953,0.47205907,0.292646,0.054621764,0.46941108,-0.18579282,0.104867585,-0.119912915,0.041052982,811.9048,803.44324,774.0293,795.78754,794.17584,-0.2215576171875,0.06146240234375,0.9952392578125,-2.130889892578125,-5.525360107421875,-6.59454345703125,1,1.0,1.0,1.0,1.0,10.00
2024-10-11 20:20:50.857,0.448762,-0.15503918,-0.0014522728,0.5270823,0.6400104,-0.24671088,0.0045189513,0.4603128,0.7846209,0.11309234,0.15720391,0.7588953,0.47205907,0.292646,0.054621764,0.46941108,-0.18579282,0.104867585,-0.119912915,0.041052982,807.47253,799.011,780.07324,794.9817,799.011,-0.2215576171875,0.06146240234375,0.9952392578125,-2.130889892578125,-5.525360107421875,-6.59454345703125,1,1.0,1.0,1.0,1.0,10.00
2024-10-11 20:20:50.904,0.448762,-0.15503918,-0.0014522728,0.5270823,0.6400104,-0.24671088,0.0045189513,0.4603128,0.7846209,0.11309234,0.15720391,0.7588953,0.47205907,0.292646,0.054621764,0.46941108,-0.18579282,0.104867585,-0.119912915,0.041052982,804.2491,805.05493,788.93774,796.1905,629.3773,-0.21527099609375,0.056640625,0.997314453125,-5.271148681640625,-6.287994384765625,-10.7366943359375,1,1.0,1.0,1.0,1.0,10.00
2024-10-11 20:20:50.905,0.448762,-0.15503918,-0.0014522728,0.5270823,0.6400104,-0.24671088,0.0045189513,0.4603128,0.7846209,0.11309234,0.15720391,0.7588953,0.47205907,0.292646,0.054621764,0.46941108,-0.18579282,0.104867585,-0.119912915,0.041052982,814.3223,807.47253,786.52014,803.0403,667.6557,-0.21527099609375,0.056640625,0.997314453125,-5.271148681640625,-6.287994384765625,-10.7366943359375,1,1.0,1.0,1.0,1.0,10.00
2024-10-11 20:20:50.906,0.448762,-0.15503918,-0.0014522728,0.5270823,0.6400104,-0.24671088,0.0045189513,0.4603128,0.7846209,0.11309234,0.15720391,0.7588953,0.47205907,0.292646,0.054621764,0.46941108,-0.18579282,0.104867585,-0.119912915,0.041052982,809.0842,798.60803,788.5348,806.26373,825.2015,-0.21527099609375,0.056640625,0.997314453125,-5.271148681640625,-6.287994384765625,-10.7366943359375,1,1.0,1.0,1.0,1.0,10.00
2024-10-11 20:20:50.907,0.448762,-0.15503918,-0.0014522728,0.5270823,0.6400104,-0.24671088,0.0045189513,0.4603128,0.7846209,0.11309234,0.15720391,0.7588953,0.47205907,0.292646,0.054621764,0.46941108,-0.18579282,0.104867585,-0.119912915,0.041052982,801.4286,799.011,792.1612,804.2491,855.82416,-0.21527099609375,0.056640625,0.997314453125,-5.271148681640625,-6.287994384765625,-10.7366943359375,1,1.0,1.0,1.0,1.0,10.00
2024-10-11 20:20:50.908,0.448762,-0.15503918,-0.0014522728,0.5270823,0.6400104,-0.24671088,0.0045189513,0.4603128,0.7846209,0.11309234,0.15720391,0.7588953,0.47205907,0.292646,0.054621764,0.46941108,-0.18579282,0.104867585,-0.119912915,0.041052982,803.8461,805.4579,794.17584,802.23444,743.8095,-0.21527099609375,0.056640625,0.997314453125,-5.271148681640625,-6.287994384765625,-10.7366943359375,1,1.0,1.0,1.0,1.0,10.00
2024-10-11 20:20:50.909,0.448762,-0.15503918,-0.0014522728,0.5270823,0.6400104,-0.24671088,0.0045189513,0.4603128,0.7846209,0.11309234,0.15720391,0.7588953,0.47205907,0.292646,0.054621764,0.46941108,-0.18579282,0.104867585,-0.119912915,0.041052982,803.8461,803.8461,788.93774,799.41394,705.5311,-0.21527099609375,0.056640625,0.997314453125,-5.271148681640625,-6.287994384765625,-10.7366943359375,1,1.0,1.0,1.0,1.0,10.00
2024-10-11 20:20:50.910,0.448762,-0.15503918,-0.0014522728,0.5270823,0.6400104,-0.24671088,0.0045189513,0.4603128,0.7846209,0.11309234,0.15720391,0.7588953,0.47205907,0.292646,0.054621764,0.46941108,-0.18579282,0.104867585,-0.119912915,0.041052982,803.0403,801.8315,792.5641,806.26373,1107.2528,-0.21527099609375,0.056640625,0.997314453125,-5.271148681640625,-6.287994384765625,-10.7366943359375,1,1.0,1.0,1.0,1.0,10.00
2024-10-11 20:20:50.911,0.448762,-0.15503918,-0.0014522728,0.5270823,0.6400104,-0.24671088,0.0045189513,0.4603128,0.7846209,0.11309234,0.15720391,0.7588953,0.47205907,0.292646,0.054621764,0.46941108,-0.18579282,0.104867585,-0.119912915,0.041052982,805.4579,801.02563,796.1905,815.5311,1382.4542,-0.21527099609375,0.056640625,0.997314453125,-5.271148681640625,-6.287994384765625,-10.7366943359375,1,1.0,1.0,1.0,1.0,10.00
2024-10-11 20:20:50.911,0.448762,-0.15503918,-0.0014522728,0.5270823,0.6400104,-0.24671088,0.0045189513,0.4603128,0.7846209,0.11309234,0.15720391,0.7588953,0.47205907,0.292646,0.054621764,0.46941108,-0.18579282,0.104867585,-0.119912915,0.041052982,809.4872,792.1612,793.7729,811.50183,855.82416,-0.21527099609375,0.056640625,0.997314453125,-5.271148681640625,-6.287994384765625,-10.7366943359375,1,1.0,1.0,1.0,1.0,10.00
2024-10-11 20:20:50.912,0.448762,-0.15503918,-0.0014522728,0.5270823,0.6400104,-0.24671088,0.0045189513,0.4603128,0.7846209,0.11309234,0.15720391,0.7588953,0.47205907,0.292646,0.054621764,0.46941108,-0.18579282,0.104867585,-0.119912915,0.041052982,811.50183,800.6227,790.9524,808.68134,556.04395,-0.21527099609375,0.056640625,0.997314453125,-5.271148681640625,-6.287994384765625,-10.7366943359375,1,1.0,1.0,1.0,1.0,10.00
2024-10-11 20:20:50.912,0.448762,-0.15503918,-0.0014522728,0.5270823,0.6400104,-0.24671088,0.0045189513,0.4603128,0.7846209,0.11309234,0.15720391,0.7588953,0.47205907,0.292646,0.054621764,0.46941108,-0.18579282,0.104867585,-0.119912915,0.041052982,815.9341,810.696,793.36993,811.50183,712.381,-0.21527099609375,0.056640625,0.997314453125,-5.271148681640625,-6.287994384765625,-10.7366943359375,1,1.0,1.0,1.0,1.0,10.00
2024-10-11 20:20:50.913,0.448762,-0.15503918,-0.0014522728,0.5270823,0.6400104,-0.24671088,0.0045189513,0.4603128,0.7846209,0.11309234,0.15720391,0.7588953,0.47205907,0.292646,0.054621764,0.46941108,-0.18579282,0.104867585,-0.119912915,0.041052982,807.8755,810.293,796.1905,807.0696,676.1172,-0.21527099609375,0.056640625,0.997314453125,-5.271148681640625,-6.287994384765625,-10.7366943359375,1,1.0,1.0,1.0,1.0,10.00
2024-10-11 20:20:50.914,0.448762,-0.15503918,-0.0014522728,0.5270823,0.6400104,-0.24671088,0.0045189513,0.4603128,0.7846209,0.11309234,0.15720391,0.7588953,0.47205907,0.292646,0.054621764,0.46941108,-0.18579282,0.104867585,-0.119912915,0.041052982,807.0696,812.3077,794.57874,803.8461,601.978,-0.21258544921875,0.04827880859375,0.9984130859375,-8.8824462890625,-7.9852294921875,-15.65643310546875,1,1.0,1.0,1.0,1.0,10.00
2024-10-11 20:20:50.915,0.448762,-0.15503918,-0.0014522728,0.5270823,0.6400104,-0.24671088,0.0045189513,0.4603128,0.7846209,0.11309234,0.15720391,0.7588953,0.47205907,0.292646,0.054621764,0.46941108,-0.18579282,0.104867585,-0.119912915,0.041052982,802.6374,812.71063,798.60803,802.23444,634.21246,-0.21258544921875,0.04827880859375,0.9984130859375,-8.8824462890625,-7.9852294921875,-15.65643310546875,1,1.0,1.0,1.0,1.0,10.00
2024-10-11 20:20:50.916,0.448762,-0.15503918,-0.0014522728,0.5270823,0.6400104,-0.24671088,0.0045189513,0.4603128,0.7846209,0.11309234,0.15720391,0.7588953,0.47205907,0.292646,0.054621764,0.46941108,-0.18579282,0.104867585,-0.119912915,0.041052982,792.96704,811.9048,793.7729,799.81683,747.03296,-0.21258544921875,0.04827880859375,0.9984130859375,-8.8824462890625,-7.9852294921875,-15.65643310546875,1,1.0,1.0,1.0,1.0,10.00
2024-10-11 20:20:50.917,0.448762,-0.15503918,-0.0014522728,0.5270823,0.6400104,-0.24671088,0.0045189513,0.4603128,0.7846209,0.11309234,0.15720391,0.7588953,0.47205907,0.292646,0.054621764,0.46941108,-0.18579282,0.104867585,-0.119912915,0.041052982,791.3553,802.23444,790.54944,798.20514,684.57874,-0.21258544921875,0.04827880859375,0.9984130859375,-8.8824462890625,-7.9852294921875,-15.65643310546875,1,1.0,1.0,1.0,1.0,10.00
2024-10-11 20:20:50.918,0.448762,-0.15503918,-0.0014522728,0.5270823,0.6400104,-0.24671088,0.0045189513,0.4603128,0.7846209,0.11309234,0.15720391,0.7588953,0.47205907,0.292646,0.054621764,0.46941108,-0.18579282,0.104867585,-0.119912915,0.041052982,792.96704,792.1612,791.3553,796.5934,614.0659,-0.21258544921875,0.04827880859375,0.9984130859375,-8.8824462890625,-7.9852294921875,-15.65643310546875,1,1.0,1.0,1.0,1.0,10.00
2024-10-11 20:20:50.918,0.448762,-0.15503918,-0.0014522728,0.5270823,0.6400104,-0.24671088,0.0045189513,0.4603128,0.7846209,0.11309234,0.15720391,0.7588953,0.47205907,0.292646,0.054621764,0.46941108,-0.18579282,0.104867585,-0.119912915,0.041052982,793.7729,804.2491,792.96704,787.326,782.49084,-0.21258544921875,0.04827880859375,0.9984130859375,-8.8824462890625,-7.9852294921875,-15.65643310546875,1,1.0,1.0,1.0,1.0,10.00
2024-10-11 20:20:50.919,0.448762,-0.15503918,-0.0014522728,0.5270823,0.6400104,-0.24671088,0.0045189513,0.4603128,0.7846209,0.11309234,0.15720391,0.7588953,0.47205907,0.292646,0.054621764,0.46941108,-0.18579282,0.104867585,-0.119912915,0.041052982,799.011,808.2784,796.99634,789.7436,905.78754,-0.21258544921875,0.04827880859375,0.9984130859375,-8.8824462890625,-7.9852294921875,-15.65643310546875,1,1.0,1.0,1.0,1.0,10.00
2024-10-11 20:20:50.920,0.50310993,-0.1490477,-0.034704812,0.55344236,0.6335473,-0.2649489,-0.0055084093,0.44230294,0.73069847,0.102457784,0.1582351,0.73579097,0.4747327,0.27404532,0.06739359,0.4593707,-0.18719523,0.11245331,-0.10165414,0.04448733,805.8608,803.8461,794.17584,801.02563,800.6227,-0.21258544921875,0.04827880859375,0.9984130859375,-8.8824462890625,-7.9852294921875,-15.65643310546875,1,1.0,1.0,1.0,1.0,10.00
2024-10-11 20:20:50.924,0.50310993,-0.1490477,-0.034704812,0.55344236,0.6335473,-0.2649489,-0.0055084093,0.44230294,0.73069847,0.102457784,0.1582351,0.73579097,0.4747327,0.27404532,0.06739359,0.4593707,-0.18719523,0.11245331,-0.10165414,0.04448733,803.44324,808.68134,796.1905,799.81683,645.89746,-0.21258544921875,0.04827880859375,0.9984130859375,-8.8824462890625,-7.9852294921875,-15.65643310546875,1,1.0,1.0,1.0,1.0,10.00
2024-10-11 20:20:50.925,0.50310993,-0.1490477,-0.034704812,0.55344236,0.6335473,-0.2649489,-0.0055084093,0.44230294,0.73069847,0.102457784,0.1582351,0.73579097,0.4747327,0.27404532,0.06739359,0.4593707,-0.18719523,0.11245331,-0.10165414,0.04448733,816.337,811.50183,803.44324,804.65204,751.4652,-0.21258544921875,0.04827880859375,0.9984130859375,-8.8824462890625,-7.9852294921875,-15.65643310546875,1,1.0,1.0,1.0,1.0,10.00
2024-10-11 20:20:50.926,0.50310993,-0.1490477,-0.034704812,0.55344236,0.6335473,-0.2649489,-0.0055084093,0.44230294,0.73069847,0.102457784,0.1582351,0.73579097,0.4747327,0.27404532,0.06739359,0.4593707,-0.18719523,0.11245331,-0.10165414,0.04448733,814.3223,803.44324,805.05493,813.91943,1029.4872,-0.21258544921875,0.04827880859375,0.9984130859375,-8.8824462890625,-7.9852294921875,-15.65643310546875,1,1.0,1.0,1.0,1.0,10.00
2024-10-11 20:20:50.927,0.50310993,-0.1490477,-0.034704812,0.55344236,0.6335473,-0.2649489,-0.0055084093,0.44230294,0.73069847,0.102457784,0.1582351,0.73579097,0.4747327,0.27404532,0.06739359,0.4593707,-0.18719523,0.11245331,-0.10165414,0.04448733,806.26373,801.8315,810.293,809.89014,820.7692,-0.21258544921875,0.04827880859375,0.9984130859375,-8.8824462890625,-7.9852294921875,-15.65643310546875,1,1.0,1.0,1.0,1.0,10.00
2024-10-11 20:20:50.960,0.50310993,-0.1490477,-0.034704812,0.55344236,0.6335473,-0.2649489,-0.0055084093,0.44230294,0.73069847,0.102457784,0.1582351,0.73579097,0.4747327,0.27404532,0.06739359,0.4593707,-0.18719523,0.11245331,-0.10165414,0.04448733,811.50183,809.0842,811.9048,811.50183,659.19415,-0.21258544921875,0.04827880859375,0.9984130859375,-8.8824462890625,-7.9852294921875,-15.65643310546875,1,1.0,1.0,1.0,1.0,10.00
2024-10-11 20:20:50.961,0.50310993,-0.1490477,-0.034704812,0.55344236,0.6335473,-0.2649489,-0.0055084093,0.44230294,0.73069847,0.102457784,0.1582351,0.73579097,0.4747327,0.27404532,0.06739359,0.4593707,-0.18719523,0.11245331,-0.10165414,0.04448733,805.05493,803.44324,812.71063,813.1135,713.1868,-0.21258544921875,0.04827880859375,0.9984130859375,-8.8824462890625,-7.9852294921875,-15.65643310546875,1,1.0,1.0,1.0,1.0,10.00
2024-10-11 20:20:50.962,0.50310993,-0.1490477,-0.034704812,0.55344236,0.6335473,-0.2649489,-0.0055084093,0.44230294,0.73069847,0.102457784,0.1582351,0.73579097,0.4747327,0.27404532,0.06739359,0.4593707,-0.18719523,0.11245331,-0.10165414,0.04448733,802.6374,797.3993,806.26373,809.0842,669.67035,-0.21258544921875,0.04827880859375,0.9984130859375,-8.8824462890625,-7.9852294921875,-15.65643310546875,1,1.0,1.0,1.0,1.0,10.00
2024-10-11 20:20:50.962,0.50310993,-0.1490477,-0.034704812,0.55344236,0.6335473,-0.2649489,-0.0055084093,0.44230294,0.73069847,0.102457784,0.1582351,0.73579097,0.4747327,0.27404532,0.06739359,0.4593707,-0.18719523,0.11245331,-0.10165414,0.04448733,813.5165,799.81683,808.2784,821.978,663.6264,-0.21258544921875,0.04827880859375,0.9984130859375,-8.8824462890625,-7.9852294921875,-15.65643310546875,1,1.0,1.0,1.0,1.0,10.00
2024-10-11 20:20:50.963,0.50310993,-0.1490477,-0.034704812,0.55344236,0.6335473,-0.2649489,-0.0055084093,0.44230294,0.73069847,0.102457784,0.1582351,0.73579097,0.4747327,0.27404532,0.06739359,0.4593707,-0.18719523,0.11245331,-0.10165414,0.04448733,805.4579,807.8755,808.2784,815.12823,641.4652,-0.21258544921875,0.04827880859375,0.9984130859375,-8.8824462890625,-7.9852294921875,-15.65643310546875,1,1.0,1.0,1.0,1.0,10.00
2024-10-11 20:20:50.963,0.50310993,-0.1490477,-0.034704812,0.55344236,0.6335473,-0.2649489,-0.0055084093,0.44230294,0.73069847,0.102457784,0.1582351,0.73579097,0.4747327,0.27404532,0.06739359,0.4593707,-0.18719523,0.11245331,-0.10165414,0.04448733,778.86444,805.4579,799.011,791.75824,963.00366,-0.21258544921875,0.04827880859375,0.9984130859375,-8.8824462890625,-7.9852294921875,-15.65643310546875,1,1.0,1.0,1.0,1.0,10.00
2024-10-11 20:20:50.964,0.50310993,-0.1490477,-0.034704812,0.55344236,0.6335473,-0.2649489,-0.0055084093,0.44230294,0.73069847,0.102457784,0.1582351,0.73579097,0.4747327,0.27404532,0.06739359,0.4593707,-0.18719523,0.11245331,-0.10165414,0.04448733,781.685,800.6227,798.60803,785.31134,1149.9634,-0.21258544921875,0.04827880859375,0.9984130859375,-8.8824462890625,-7.9852294921875,-15.65643310546875,1,1.0,1.0,1.0,1.0,10.00
2024-10-11 20:20:50.964,0.50310993,-0.1490477,-0.034704812,0.55344236,0.6335473,-0.2649489,-0.0055084093,0.44230294,0.73069847,0.102457784,0.1582351,0.73579097,0.4747327,0.27404532,0.06739359,0.4593707,-0.18719523,0.11245331,-0.10165414,0.04448733,789.7436,803.44324,794.17584,776.8498,740.18317,-0.21258544921875,0.04827880859375,0.9984130859375,-8.8824462890625,-7.9852294921875,-15.65643310546875,1,1.0,1.0,1.0,1.0,10.00
2024-10-11 20:20:50.965,0.50310993,-0.1490477,-0.034704812,0.55344236,0.6335473,-0.2649489,-0.0055084093,0.44230294,0.73069847,0.102457784,0.1582351,0.73579097,0.4747327,0.27404532,0.06739359,0.4593707,-0.18719523,0.11245331,-0.10165414,0.04448733,786.52014,797.8022,794.17584,789.34064,668.86444,-0.21258544921875,0.04827880859375,0.9984130859375,-8.8824462890625,-7.9852294921875,-15.65643310546875,1,1.0,1.0,1.0,1.0,10.00
2024-10-11 20:20:50.965,0.50310993,-0.1490477,-0.034704812,0.55344236,0.6335473,-0.2649489,-0.0055084093,0.44230294,0.73069847,0.102457784,0.1582351,0.73579097,0.4747327,0.27404532,0.06739359,0.4593707,-0.18719523,0.11245331,-0.10165414,0.04448733,782.8938,792.5641,792.96704,794.57874,878.7912,-0.21258544921875,0.04827880859375,0.9984130859375,-8.8824462890625,-7.9852294921875,-15.65643310546875,1,1.0,1.0,1.0,1.0,10.00
2024-10-11 20:20:50.966,0.50310993,-0.1490477,-0.034704812,0.55344236,0.6335473,-0.2649489,-0.0055084093,0.44230294,0.73069847,0.102457784,0.1582351,0.73579097,0.4747327,0.27404532,0.06739359,0.4593707,-0.18719523,0.11245331,-0.10165414,0.04448733,774.83514,802.23444,792.5641,775.64105,783.2967,-0.21258544921875,0.04827880859375,0.9984130859375,-8.8824462890625,-7.9852294921875,-15.65643310546875,1,1.0,1.0,1.0,1.0,10.00
2024-10-11 20:20:50.966,0.50310993,-0.1490477,-0.034704812,0.55344236,0.6335473,-0.2649489,-0.0055084093,0.44230294,0.73069847,0.102457784,0.1582351,0.73579097,0.4747327,0.27404532,0.06739359,0.4593707,-0.18719523,0.11245331,-0.10165414,0.04448733,783.2967,807.47253,796.99634,776.4469,705.9341,-0.21258544921875,0.04827880859375,0.9984130859375,-8.8824462890625,-7.9852294921875,-15.65643310546875,1,1.0,1.0,1.0,1.0,10.00
2024-10-11 20:20:50.997,0.50310993,-0.1490477,-0.034704812,0.55344236,0.6335473,-0.2649489,-0.0055084093,0.44230294,0.73069847,0.102457784,0.1582351,0.73579097,0.4747327,0.27404532,0.06739359,0.4593707,-0.18719523,0.11245331,-0.10165414,0.04448733,794.17584,803.0403,799.81683,775.2381,780.07324,-0.2037353515625,0.035888671875,0.990478515625,-13.1292724609375,-9.428253173828125,-20.74066162109375,1,1.0,1.0,1.0,1.0,10.00
2024-10-11 20:20:50.998,0.50310993,-0.1490477,-0.034704812,0.55344236,0.6335473,-0.2649489,-0.0055084093,0.44230294,0.73069847,0.102457784,0.1582351,0.73579097,0.4747327,0.27404532,0.06739359,0.4593707,-0.18719523,0.11245331,-0.10165414,0.04448733,791.3553,798.20514,797.3993,775.2381,792.5641,-0.2037353515625,0.035888671875,0.990478515625,-13.1292724609375,-9.428253173828125,-20.74066162109375,1,1.0,1.0,1.0,1.0,10.00
2024-10-11 20:20:50.998,0.50310993,-0.1490477,-0.034704812,0.55344236,0.6335473,-0.2649489,-0.0055084093,0.44230294,0.73069847,0.102457784,0.1582351,0.73579097,0.4747327,0.27404532,0.06739359,0.4593707,-0.18719523,0.11245331,-0.10165414,0.04448733,791.3553,799.81683,793.36993,783.2967,670.07324,-0.2037353515625,0.035888671875,0.990478515625,-13.1292724609375,-9.428253173828125,-20.74066162109375,1,1.0,1.0,1.0,1.0,10.00
2024-10-11 20:20:50.999,0.50310993,-0.1490477,-0.034704812,0.55344236,0.6335473,-0.2649489,-0.0055084093,0.44230294,0.73069847,0.102457784,0.1582351,0.73579097,0.4747327,0.27404532,0.06739359,0.4593707,-0.18719523,0.11245331,-0.10165414,0.04448733,797.3993,798.20514,794.57874,796.5934,610.4396,-0.2037353515625,0.035888671875,0.990478515625,-13.1292724609375,-9.428253173828125,-20.74066162109375,1,1.0,1.0,1.0,1.0,10.00
2024-10-11 20:20:51.000,0.50310993,-0.1490477,-0.034704812,0.55344236,0.6335473,-0.2649489,-0.0055084093,0.44230294,0.73069847,0.102457784,0.1582351,0.73579097,0.4747327,0.27404532,0.06739359,0.4593707,-0.18719523,0.11245331,-0.10165414,0.04448733,794.17584,798.60803,796.5934,801.02563,801.8315,-0.2037353515625,0.035888671875,0.990478515625,-13.1292724609375,-9.428253173828125,-20.74066162109375,1,1.0,1.0,1.0,1.0,10.00
2024-10-11 20:20:51.000,0.50310993,-0.1490477,-0.034704812,0.55344236,0.6335473,-0.2649489,-0.0055084093,0.44230294,0.73069847,0.102457784,0.1582351,0.73579097,0.4747327,0.27404532,0.06739359,0.4593707,-0.18719523,0.11245331,-0.10165414,0.04448733,793.36993,805.8608,795.78754,793.7729,912.6374,-0.2037353515625,0.035888671875,0.990478515625,-13.1292724609375,-9.428253173828125,-20.74066162109375,1,1.0,1.0,1.0,1.0,10.00
2024-10-11 20:20:51.001,0.50310993,-0.1490477,-0.034704812,0.55344236,0.6335473,-0.2649489,-0.0055084093,0.44230294,0.73069847,0.102457784,0.1582351,0.73579097,0.4747327,0.27404532,0.06739359,0.4593707,-0.18719523,0.11245331,-0.10165414,0.04448733,803.0403,808.2784,794.57874,794.9817,750.65936,-0.2037353515625,0.035888671875,0.990478515625,-13.1292724609375,-9.428253173828125,-20.74066162109375,1,1.0,1.0,1.0,1.0,10.00
2024-10-11 20:20:51.002,0.50310993,-0.1490477,-0.034704812,0.55344236,0.6335473,-0.2649489,-0.0055084093,0.44230294,0.73069847,0.102457784,0.1582351,0.73579097,0.4747327,0.27404532,0.06739359,0.4593707,-0.18719523,0.11245331,-0.10165414,0.04448733,803.8461,808.2784,802.23444,793.36993,616.8865,-0.2037353515625,0.035888671875,0.990478515625,-13.1292724609375,-9.428253173828125,-20.74066162109375,1,1.0,1.0,1.0,1.0,10.00
2024-10-11 20:20:51.002,0.50310993,-0.1490477,-0.034704812,0.55344236,0.6335473,-0.2649489,-0.0055084093,0.44230294,0.73069847,0.102457784,0.1582351,0.73579097,0.4747327,0.27404532,0.06739359,0.4593707,-0.18719523,0.11245331,-0.10165414,0.04448733,809.4872,810.696,796.1905,794.17584,745.82416,-0.2037353515625,0.035888671875,0.990478515625,-13.1292724609375,-9.428253173828125,-20.74066162109375,1,1.0,1.0,1.0,1.0,10.00
2024-10-11 20:20:51.003,0.56556517,-0.10963058,-0.021059468,0.58897454,0.62443674,-0.28692654,-0.001972256,0.43311158,0.71491206,0.082875036,0.1582351,0.7118131,0.47376946,0.26871175,0.07811274,0.43887886,-0.18811275,0.11462008,-0.087091014,0.038629405,814.7253,811.0989,788.5348,805.05493,934.7985,-0.2037353515625,0.035888671875,0.990478515625,-13.1292724609375,-9.428253173828125,-20.74066162109375,1,1.0,1.0,1.0,1.0,10.00
2024-10-11 20:20:51.009,0.56556517,-0.10963058,-0.021059468,0.58897454,0.62443674,-0.28692654,-0.001972256,0.43311158,0.71491206,0.082875036,0.1582351,0.7118131,0.47376946,0.26871175,0.07811274,0.43887886,-0.18811275,0.11462008,-0.087091014,0.038629405,803.8461,803.8461,798.20514,806.6667,799.41394,-0.2037353515625,0.035888671875,0.990478515625,-13.1292724609375,-9.428253173828125,-20.74066162109375,1,1.0,1.0,1.0,1.0,10.00
2024-10-11 20:20:51.010,0.56556517,-0.10963058,-0.021059468,0.58897454,0.62443674,-0.28692654,-0.001972256,0.43311158,0.71491206,0.082875036,0.1582351,0.7118131,0.47376946,0.26871175,0.07811274,0.43887886,-0.18811275,0.11462008,-0.087091014,0.038629405,808.2784,795.38464,803.8461,800.6227,529.85345,-0.2037353515625,0.035888671875,0.990478515625,-13.1292724609375,-9.428253173828125,-20.74066162109375,1,1.0,1.0,1.0,1.0,10.00
2024-10-11 20:20:51.038,0.56556517,-0.10963058,-0.021059468,0.58897454,0.62443674,-0.28692654,-0.001972256,0.43311158,0.71491206,0.082875036,0.1582351,0.7118131,0.47376946,0.26871175,0.07811274,0.43887886,-0.18811275,0.11462008,-0.087091014,0.038629405,809.4872,800.6227,795.78754,799.81683,663.22345,-0.1932373046875,0.0064697265625,0.995849609375,-14.60968017578125,-10.609588623046875,-23.028564453125,1,1.0,1.0,1.0,1.0,10.00
2024-10-11 20:20:51.039,0.56556517,-0.10963058,-0.021059468,0.58897454,0.62443674,-0.28692654,-0.001972256,0.43311158,0.71491206,0.082875036,0.1582351,0.7118131,0.47376946,0.26871175,0.07811274,0.43887886,-0.18811275,0.11462008,-0.087091014,0.038629405,791.3553,791.3553,795.78754,807.0696,1083.8828,-0.1932373046875,0.0064697265625,0.995849609375,-14.60968017578125,-10.609588623046875,-23.028564453125,1,1.0,1.0,1.0,1.0,10.00
2024-10-11 20:20:51.040,0.56556517,-0.10963058,-0.021059468,0.58897454,0.62443674,-0.28692654,-0.001972256,0.43311158,0.71491206,0.082875036,0.1582351,0.7118131,0.47376946,0.26871175,0.07811274,0.43887886,-0.18811275,0.11462008,-0.087091014,0.038629405,796.1905,790.14655,805.05493,801.02563,779.2674,-0.1932373046875,0.0064697265625,0.995849609375,-14.60968017578125,-10.609588623046875,-23.028564453125,1,1.0,1.0,1.0,1.0,10.00
2024-10-11 20:20:51.041,0.56556517,-0.10963058,-0.021059468,0.58897454,0.62443674,-0.28692654,-0.001972256,0.43311158,0.71491206,0.082875036,0.1582351,0.7118131,0.47376946,0.26871175,0.07811274,0.43887886,-0.18811275,0.11462008,-0.087091014,0.038629405,792.96704,801.8315,805.4579,795.38464,491.17215,-0.1932373046875,0.0064697265625,0.995849609375,-14.60968017578125,-10.609588623046875,-23.028564453125,1,1.0,1.0,1.0,1.0,10.00
2024-10-11 20:20:51.042,0.56556517,-0.10963058,-0.021059468,0.58897454,0.62443674,-0.28692654,-0.001972256,0.43311158,0.71491206,0.082875036,0.1582351,0.7118131,0.47376946,0.26871175,0.07811274,0.43887886,-0.18811275,0.11462008,-0.087091014,0.038629405,782.8938,803.0403,801.02563,802.6374,659.19415,-0.1932373046875,0.0064697265625,0.995849609375,-14.60968017578125,-10.609588623046875,-23.028564453125,1,1.0,1.0,1.0,1.0,10.00
2024-10-11 20:20:51.043,0.56556517,-0.10963058,-0.021059468,0.58897454,0.62443674,-0.28692654,-0.001972256,0.43311158,0.71491206,0.082875036,0.1582351,0.7118131,0.47376946,0.26871175,0.07811274,0.43887886,-0.18811275,0.11462008,-0.087091014,0.038629405,792.96704,808.2784,805.8608,805.4579,942.4542,-0.1932373046875,0.0064697265625,0.995849609375,-14.60968017578125,-10.609588623046875,-23.028564453125,1,1.0,1.0,1.0,1.0,10.00
2024-10-11 20:20:51.043,0.56556517,-0.10963058,-0.021059468,0.58897454,0.62443674,-0.28692654,-0.001972256,0.43311158,0.71491206,0.082875036,0.1582351,0.7118131,0.47376946,0.26871175,0.07811274,0.43887886,-0.18811275,0.11462008,-0.087091014,0.038629405,798.60803,813.5165,804.2491,801.8315,952.9304,-0.1932373046875,0.0064697265625,0.995849609375,-14.60968017578125,-10.609588623046875,-23.028564453125,1,1.0,1.0,1.0,1.0,10.00
2024-10-11 20:20:51.044,0.56556517,-0.10963058,-0.021059468,0.58897454,0.62443674,-0.28692654,-0.001972256,0.43311158,0.71491206,0.082875036,0.1582351,0.7118131,0.47376946,0.26871175,0.07811274,0.43887886,-0.18811275,0.11462008,-0.087091014,0.038629405,799.011,803.0403,799.81683,803.44324,794.57874,-0.1932373046875,0.0064697265625,0.995849609375,-14.60968017578125,-10.609588623046875,-23.028564453125,1,1.0,1.0,1.0,1.0,10.00
2024-10-11 20:20:51.045,0.56556517,-0.10963058,-0.021059468,0.58897454,0.62443674,-0.28692654,-0.001972256,0.43311158,0.71491206,0.082875036,0.1582351,0.7118131,0.47376946,0.26871175,0.07811274,0.43887886,-0.18811275,0.11462008,-0.087091014,0.038629405,798.20514,794.57874,802.23444,810.293,957.3626,-0.1932373046875,0.0064697265625,0.995849609375,-14.60968017578125,-10.609588623046875,-23.028564453125,1,1.0,1.0,1.0,1.0,10.00
2024-10-11 20:20:51.046,0.56556517,-0.10963058,-0.021059468,0.58897454,0.62443674,-0.28692654,-0.001972256,0.43311158,0.71491206,0.082875036,0.1582351,0.7118131,0.47376946,0.26871175,0.07811274,0.43887886,-0.18811275,0.11462008,-0.087091014,0.038629405,801.02563,800.2198,811.9048,818.3516,1225.3114,-0.1932373046875,0.0064697265625,0.995849609375,-14.60968017578125,-10.609588623046875,-23.028564453125,1,1.0,1.0,1.0,1.0,10.00
2024-10-11 20:20:51.047,0.56556517,-0.10963058,-0.021059468,0.58897454,0.62443674,-0.28692654,-0.001972256,0.43311158,0.71491206,0.082875036,0.1582351,0.7118131,0.47376946,0.26871175,0.07811274,0.43887886,-0.18811275,0.11462008,-0.087091014,0.038629405,799.81683,805.8608,811.0989,806.26373,860.65936,-0.1932373046875,0.0064697265625,0.995849609375,-14.60968017578125,-10.609588623046875,-23.028564453125,1,1.0,1.0,1.0,1.0,10.00
2024-10-11 20:20:51.048,0.56556517,-0.10963058,-0.021059468,0.58897454,0.62443674,-0.28692654,-0.001972256,0.43311158,0.71491206,0.082875036,0.1582351,0.7118131,0.47376946,0.26871175,0.07811274,0.43887886,-0.18811275,0.11462008,-0.087091014,0.038629405,796.99634,803.0403,806.26373,791.75824,630.58606,-0.1932373046875,0.0064697265625,0.995849609375,-14.60968017578125,-10.609588623046875,-23.028564453125,1,1.0,1.0,1.0,1.0,10.00
2024-10-11 20:20:51.104,0.56556517,-0.10963058,-0.021059468,0.58897454,0.62443674,-0.28692654,-0.001972256,0.43311158,0.71491206,0.082875036,0.1582351,0.7118131,0.47376946,0.26871175,0.07811274,0.43887886,-0.18811275,0.11462008,-0.087091014,0.038629405,796.5934,797.3993,806.6667,790.9524,703.1135,-0.16302490234375,-0.02117919921875,0.9920654296875,-13.570404052734375,-12.6507568359375,-22.677154541015625,1,1.0,1.0,1.0,1.0,10.00
2024-10-11 20:20:51.105,0.56556517,-0.10963058,-0.021059468,0.58897454,0.62443674,-0.28692654,-0.001972256,0.43311158,0.71491206,0.082875036,0.1582351,0.7118131,0.47376946,0.26871175,0.07811274,0.43887886,-0.18811275,0.11462008,-0.087091014,0.038629405,794.57874,797.8022,803.0403,794.57874,679.34064,-0.16302490234375,-0.02117919921875,0.9920654296875,-13.570404052734375,-12.6507568359375,-22.677154541015625,1,1.0,1.0,1.0,1.0,10.00
2024-10-11 20:20:51.106,0.56556517,-0.10963058,-0.021059468,0.58897454,0.62443674,-0.28692654,-0.001972256,0.43311158,0.71491206,0.082875036,0.1582351,0.7118131,0.47376946,0.26871175,0.07811274,0.43887886,-0.18811275,0.11462008,-0.087091014,0.038629405,791.3553,794.57874,804.65204,793.7729,643.47986,-0.16302490234375,-0.02117919921875,0.9920654296875,-13.570404052734375,-12.6507568359375,-22.677154541015625,1,1.0,1.0,1.0,1.0,10.00
2024-10-11 20:20:51.107,0.56556517,-0.10963058,-0.021059468,0.58897454,0.62443674,-0.28692654,-0.001972256,0.43311158,0.71491206,0.082875036,0.1582351,0.7118131,0.47376946,0.26871175,0.07811274,0.43887886,-0.18811275,0.11462008,-0.087091014,0.038629405,796.99634,796.1905,802.6374,785.7143,650.32965,-0.16302490234375,-0.02117919921875,0.9920654296875,-13.570404052734375,-12.6507568359375,-22.677154541015625,1,1.0,1.0,1.0,1.0,10.00
2024-10-11 20:20:51.107,0.56556517,-0.10963058,-0.021059468,0.58897454,0.62443674,-0.28692654,-0.001972256,0.43311158,0.71491206,0.082875036,0.1582351,0.7118131,0.47376946,0.26871175,0.07811274,0.43887886,-0.18811275,0.11462008,-0.087091014,0.038629405,796.1905,803.0403,797.8022,784.90845,710.7692,-0.16302490234375,-0.02117919921875,0.9920654296875,-13.570404052734375,-12.6507568359375,-22.677154541015625,1,1.0,1.0,1.0,1.0,10.00
2024-10-11 20:20:51.108,0.56556517,-0.10963058,-0.021059468,0.58897454,0.62443674,-0.28692654,-0.001972256,0.43311158,0.71491206,0.082875036,0.1582351,0.7118131,0.47376946,0.26871175,0.07811274,0.43887886,-0.18811275,0.11462008,-0.087091014,0.038629405,795.78754,803.44324,796.5934,790.9524,805.05493,-0.16302490234375,-0.02117919921875,0.9920654296875,-13.570404052734375,-12.6507568359375,-22.677154541015625,1,1.0,1.0,1.0,1.0,10.00
2024-10-11 20:20:51.109,0.56556517,-0.10963058,-0.021059468,0.58897454,0.62443674,-0.28692654,-0.001972256,0.43311158,0.71491206,0.082875036,0.1582351,0.7118131,0.47376946,0.26871175,0.07811274,0.43887886,-0.18811275,0.11462008,-0.087091014,0.038629405,802.6374,802.23444,799.41394,794.17584,811.9048,-0.16302490234375,-0.02117919921875,0.9920654296875,-13.570404052734375,-12.6507568359375,-22.677154541015625,1,1.0,1.0,1.0,1.0,10.00
2024-10-11 20:20:51.110,0.56556517,-0.10963058,-0.021059468,0.58897454,0.62443674,-0.28692654,-0.001972256,0.43311158,0.71491206,0.082875036,0.1582351,0.7118131,0.47376946,0.26871175,0.07811274,0.43887886,-0.18811275,0.11462008,-0.087091014,0.038629405,803.44324,799.011,801.4286,795.78754,774.0293,-0.16302490234375,-0.02117919921875,0.9920654296875,-13.570404052734375,-12.6507568359375,-22.677154541015625,1,1.0,1.0,1.0,1.0,10.00
2024-10-11 20:20:51.111,0.56556517,-0.10963058,-0.021059468,0.58897454,0.62443674,-0.28692654,-0.001972256,0.43311158,0.71491206,0.082875036,0.1582351,0.7118131,0.47376946,0.26871175,0.07811274,0.43887886,-0.18811275,0.11462008,-0.087091014,0.038629405,801.02563,795.78754,805.4579,790.14655,814.7253,-0.16302490234375,-0.02117919921875,0.9920654296875,-13.570404052734375,-12.6507568359375,-22.677154541015625,1,1.0,1.0,1.0,1.0,10.00
2024-10-11 20:20:51.112,0.56556517,-0.10963058,-0.021059468,0.58897454,0.62443674,-0.28692654,-0.001972256,0.43311158,0.71491206,0.082875036,0.1582351,0.7118131,0.47376946,0.26871175,0.07811274,0.43887886,-0.18811275,0.11462008,-0.087091014,0.038629405,797.3993,803.0403,803.0403,784.10254,672.8938,-0.16302490234375,-0.02117919921875,0.9920654296875,-13.570404052734375,-12.6507568359375,-22.677154541015625,1,1.0,1.0,1.0,1.0,10.00
2024-10-11 20:20:51.113,0.56556517,-0.10963058,-0.021059468,0.58897454,0.62443674,-0.28692654,-0.001972256,0.43311158,0.71491206,0.082875036,0.1582351,0.7118131,0.47376946,0.26871175,0.07811274,0.43887886,-0.18811275,0.11462008,-0.087091014,0.038629405,793.7729,801.8315,803.44324,787.72894,625.34796,-0.16302490234375,-0.02117919921875,0.9920654296875,-13.570404052734375,-12.6507568359375,-22.677154541015625,1,1.0,1.0,1.0,1.0,10.00
2024-10-11 20:20:51.114,0.6185322,-0.045576762,0.057798333,0.6065985,0.6133028,-0.30512497,0.019076435,0.42587996,0.7063646,0.06820021,0.1582351,0.69291764,0.4725172,0.27516595,0.08586145,0.4194385,-0.18973435,0.11504491,-0.06852079,0.031525966,786.1172,791.3553,805.4579,796.1905,875.56775,-0.16302490234375,-0.02117919921875,0.9920654296875,-13.570404052734375,-12.6507568359375,-22.677154541015625,1,1.0,1.0,1.0,1.0,10.00
2024-10-11 20:20:51.150,0.6185322,-0.045576762,0.057798333,0.6065985,0.6133028,-0.30512497,0.019076435,0.42587996,0.7063646,0.06820021,0.1582351,0.69291764,0.4725172,0.27516595,0.08586145,0.4194385,-0.18973435,0.11504491,-0.06852079,0.031525966,781.685,788.5348,800.6227,794.9817,1105.238,-0.14361572265625,-0.03924560546875,0.992919921875,-13.218994140625,-11.162872314453125,-19.566802978515625,1,1.0,1.0,1.0,1.0,10.00
2024-10-11 20:20:51.151,0.6185322,-0.045576762,0.057798333,0.6065985,0.6133028,-0.30512497,0.019076435,0.42587996,0.7063646,0.06820021,0.1582351,0.69291764,0.4725172,0.27516595,0.08586145,0.4194385,-0.18973435,0.11504491,-0.06852079,0.031525966,785.7143,789.7436,796.5934,793.36993,843.3333,-0.14361572265625,-0.03924560546875,0.992919921875,-13.218994140625,-11.162872314453125,-19.566802978515625,1,1.0,1.0,1.0,1.0,10.00
2024-10-11 20:20:51.152,0.6185322,-0.045576762,0.057798333,0.6065985,0.6133028,-0.30512497,0.019076435,0.42587996,0.7063646,0.06820021,0.1582351,0.69291764,0.4725172,0.27516595,0.08586145,0.4194385,-0.18973435,0.11504491,-0.06852079,0.031525966,788.5348,796.1905,799.81683,798.60803,773.22345,-0.14361572265625,-0.03924560546875,0.992919921875,-13.218994140625,-11.162872314453125,-19.566802978515625,1,1.0,1.0,1.0,1.0,10.00
2024-10-11 20:20:51.153,0.6185322,-0.045576762,0.057798333,0.6065985,0.6133028,-0.30512497,0.019076435,0.42587996,0.7063646,0.06820021,0.1582351,0.69291764,0.4725172,0.27516595,0.08586145,0.4194385,-0.18973435,0.11504491,-0.06852079,0.031525966,786.52014,805.4579,803.44324,800.2198,910.6227,-0.14361572265625,-0.03924560546875,0.992919921875,-13.218994140625,-11.162872314453125,-19.566802978515625,1,1.0,1.0,1.0,1.0,10.00
2024-10-11 20:20:51.154,0.6185322,-0.045576762,0.057798333,0.6065985,0.6133028,-0.30512497,0.019076435,0.42587996,0.7063646,0.06820021,0.1582351,0.69291764,0.4725172,0.27516595,0.08586145,0.4194385,-0.18973435,0.11504491,-0.06852079,0.031525966,783.2967,804.2491,799.011,805.4579,832.0513,-0.14361572265625,-0.03924560546875,0.992919921875,-13.218994140625,-11.162872314453125,-19.566802978515625,1,1.0,1.0,1.0,1.0,10.00
2024-10-11 20:20:51.154,0.6185322,-0.045576762,0.057798333,0.6065985,0.6133028,-0.30512497,0.019076435,0.42587996,0.7063646,0.06820021,0.1582351,0.69291764,0.4725172,0.27516595,0.08586145,0.4194385,-0.18973435,0.11504491,-0.06852079,0.031525966,794.9817,791.75824,803.44324,810.696,838.49817,-0.14361572265625,-0.03924560546875,0.992919921875,-13.218994140625,-11.162872314453125,-19.566802978515625,1,1.0,1.0,1.0,1.0,10.00
2024-10-11 20:20:51.155,0.6185322,-0.045576762,0.057798333,0.6065985,0.6133028,-0.30512497,0.019076435,0.42587996,0.7063646,0.06820021,0.1582351,0.69291764,0.4725172,0.27516595,0.08586145,0.4194385,-0.18973435,0.11504491,-0.06852079,0.031525966,806.6667,794.9817,803.8461,815.9341,895.7143,-0.14361572265625,-0.03924560546875,0.992919921875,-13.218994140625,-11.162872314453125,-19.566802978515625,1,1.0,1.0,1.0,1.0,10.00
2024-10-11 20:20:51.156,0.6185322,-0.045576762,0.057798333,0.6065985,0.6133028,-0.30512497,0.019076435,0.42587996,0.7063646,0.06820021,0.1582351,0.69291764,0.4725172,0.27516595,0.08586145,0.4194385,-0.18973435,0.11504491,-0.06852079,0.031525966,801.4286,799.011,795.78754,811.9048,1025.8608,-0.14361572265625,-0.03924560546875,0.992919921875,-13.218994140625,-11.162872314453125,-19.566802978515625,1,1.0,1.0,1.0,1.0,10.00
2024-10-11 20:20:51.157,0.6185322,-0.045576762,0.057798333,0.6065985,0.6133028,-0.30512497,0.019076435,0.42587996,0.7063646,0.06820021,0.1582351,0.69291764,0.4725172,0.27516595,0.08586145,0.4194385,-0.18973435,0.11504491,-0.06852079,0.031525966,797.8022,802.23444,803.8461,806.26373,972.674,-0.14361572265625,-0.03924560546875,0.992919921875,-13.218994140625,-11.162872314453125,-19.566802978515625,1,1.0,1.0,1.0,1.0,10.00
2024-10-11 20:20:51.158,0.6185322,-0.045576762,0.057798333,0.6065985,0.6133028,-0.30512497,0.019076435,0.42587996,0.7063646,0.06820021,0.1582351,0.69291764,0.4725172,0.27516595,0.08586145,0.4194385,-0.18973435,0.11504491,-0.06852079,0.031525966,799.81683,803.0403,805.05493,803.8461,759.5238,-0.14361572265625,-0.03924560546875,0.992919921875,-13.218994140625,-11.162872314453125,-19.566802978515625,1,1.0,1.0,1.0,1.0,10.00
2024-10-11 20:20:51.159,0.6185322,-0.045576762,0.057798333,0.6065985,0.6133028,-0.30512497,0.019076435,0.42587996,0.7063646,0.06820021,0.1582351,0.69291764,0.4725172,0.27516595,0.08586145,0.4194385,-0.18973435,0.11504491,-0.06852079,0.031525966,796.5934,798.20514,800.6227,802.23444,739.3773,-0.14361572265625,-0.03924560546875,0.992919921875,-13.218994140625,-11.162872314453125,-19.566802978515625,1,1.0,1.0,1.0,1.0,10.00
2024-10-11 20:20:51.160,0.6185322,-0.045576762,0.057798333,0.6065985,0.6133028,-0.30512497,0.019076435,0.42587996,0.7063646,0.06820021,0.1582351,0.69291764,0.4725172,0.27516595,0.08586145,0.4194385,-0.18973435,0.11504491,-0.06852079,0.031525966,798.60803,796.5934,803.0403,809.4872,1031.0989,-0.14361572265625,-0.03924560546875,0.992919921875,-13.218994140625,-11.162872314453125,-19.566802978515625,1,1.0,1.0,1.0,1.0,10.00
2024-10-11 20:20:51.189,0.6185322,-0.045576762,0.057798333,0.6065985,0.6133028,-0.30512497,0.019076435,0.42587996,0.7063646,0.06820021,0.1582351,0.69291764,0.4725172,0.27516595,0.08586145,0.4194385,-0.18973435,0.11504491,-0.06852079,0.031525966,799.011,801.4286,803.44324,808.2784,902.96704,-0.1441650390625,-0.05999755859375,0.9967041015625,-12.27691650390625,-8.142242431640625,-15.843353271484375,1,1.0,1.0,1.0,1.0,10.00
2024-10-11 20:20:51.190,0.6185322,-0.045576762,0.057798333,0.6065985,0.6133028,-0.30512497,0.019076435,0.42587996,0.7063646,0.06820021,0.1582351,0.69291764,0.4725172,0.27516595,0.08586145,0.4194385,-0.18973435,0.11504491,-0.06852079,0.031525966,797.8022,807.0696,807.47253,802.23444,649.12085,-0.1441650390625,-0.05999755859375,0.9967041015625,-12.27691650390625,-8.142242431640625,-15.843353271484375,1,1.0,1.0,1.0,1.0,10.00
2024-10-11 20:20:51.191,0.6185322,-0.045576762,0.057798333,0.6065985,0.6133028,-0.30512497,0.019076435,0.42587996,0.7063646,0.06820021,0.1582351,0.69291764,0.4725172,0.27516595,0.08586145,0.4194385,-0.18973435,0.11504491,-0.06852079,0.031525966,801.02563,804.65204,803.8461,801.4286,793.7729,-0.1441650390625,-0.05999755859375,0.9967041015625,-12.27691650390625,-8.142242431640625,-15.843353271484375,1,1.0,1.0,1.0,1.0,10.00
2024-10-11 20:20:51.192,0.6185322,-0.045576762,0.057798333,0.6065985,0.6133028,-0.30512497,0.019076435,0.42587996,0.7063646,0.06820021,0.1582351,0.69291764,0.4725172,0.27516595,0.08586145,0.4194385,-0.18973435,0.11504491,-0.06852079,0.031525966,796.1905,802.6374,798.60803,807.0696,1092.7472,-0.1441650390625,-0.05999755859375,0.9967041015625,-12.27691650390625,-8.142242431640625,-15.843353271484375,1,1.0,1.0,1.0,1.0,10.00
2024-10-11 20:20:51.193,0.6185322,-0.045576762,0.057798333,0.6065985,0.6133028,-0.30512497,0.019076435,0.42587996,0.7063646,0.06820021,0.1582351,0.69291764,0.4725172,0.27516595,0.08586145,0.4194385,-0.18973435,0.11504491,-0.06852079,0.031525966,797.8022,803.44324,801.02563,807.0696,921.50183,-0.1441650390625,-0.05999755859375,0.9967041015625,-12.27691650390625,-8.142242431640625,-15.843353271484375,1,1.0,1.0,1.0,1.0,10.00
2024-10-11 20:20:51.194,0.6185322,-0.045576762,0.057798333,0.6065985,0.6133028,-0.30512497,0.019076435,0.42587996,0.7063646,0.06820021,0.1582351,0.69291764,0.4725172,0.27516595,0.08586145,0.4194385,-0.18973435,0.11504491,-0.06852079,0.031525966,803.0403,802.23444,803.44324,801.4286,706.7399,-0.1441650390625,-0.05999755859375,0.9967041015625,-12.27691650390625,-8.142242431640625,-15.843353271484375,1,1.0,1.0,1.0,1.0,10.00
2024-10-11 20:20:51.196,0.6185322,-0.045576762,0.057798333,0.6065985,0.6133028,-0.30512497,0.019076435,0.42587996,0.7063646,0.06820021,0.1582351,0.69291764,0.4725172,0.27516595,0.08586145,0.4194385,-0.18973435,0.11504491,-0.06852079,0.031525966,801.4286,800.2198,811.0989,797.8022,808.2784,-0.1441650390625,-0.05999755859375,0.9967041015625,-12.27691650390625,-8.142242431640625,-15.843353271484375,1,1.0,1.0,1.0,1.0,10.00
2024-10-11 20:20:51.197,0.6185322,-0.045576762,0.057798333,0.6065985,0.6133028,-0.30512497,0.019076435,0.42587996,0.7063646,0.06820021,0.1582351,0.69291764,0.4725172,0.27516595,0.08586145,0.4194385,-0.18973435,0.11504491,-0.06852079,0.031525966,800.2198,800.2198,812.3077,801.02563,888.0586,-0.1441650390625,-0.05999755859375,0.9967041015625,-12.27691650390625,-8.142242431640625,-15.843353271484375,1,1.0,1.0,1.0,1.0,10.00
2024-10-11 20:20:51.199,0.6185322,-0.045576762,0.057798333,0.6065985,0.6133028,-0.30512497,0.019076435,0.42587996,0.7063646,0.06820021,0.1582351,0.69291764,0.4725172,0.27516595,0.08586145,0.4194385,-0.18973435,0.11504491,-0.06852079,0.031525966,799.41394,810.293,810.293,804.2491,728.49817,-0.1441650390625,-0.05999755859375,0.9967041015625,-12.27691650390625,-8.142242431640625,-15.843353271484375,1,1.0,1.0,1.0,1.0,10.00
2024-10-11 20:20:51.200,0.6185322,-0.045576762,0.057798333,0.6065985,0.6133028,-0.30512497,0.019076435,0.42587996,0.7063646,0.06820021,0.1582351,0.69291764,0.4725172,0.27516595,0.08586145,0.4194385,-0.18973435,0.11504491,-0.06852079,0.031525966,787.72894,810.293,804.65204,791.3553,593.91943,-0.1441650390625,-0.05999755859375,0.9967041015625,-12.27691650390625,-8.142242431640625,-15.843353271484375,1,1.0,1.0,1.0,1.0,10.00
2024-10-11 20:20:51.200,0.6185322,-0.045576762,0.057798333,0.6065985,0.6133028,-0.30512497,0.019076435,0.42587996,0.7063646,0.06820021,0.1582351,0.69291764,0.4725172,0.27516595,0.08586145,0.4194385,-0.18973435,0.11504491,-0.06852079,0.031525966,779.2674,800.6227,791.3553,783.2967,722.8571,-0.1441650390625,-0.05999755859375,0.9967041015625,-12.27691650390625,-8.142242431640625,-15.843353271484375,1,1.0,1.0,1.0,1.0,10.00
2024-10-11 20:20:51.203,0.6185322,-0.045576762,0.057798333,0.6065985,0.6133028,-0.30512497,0.019076435,0.42587996,0.7063646,0.06820021,0.1582351,0.69291764,0.4725172,0.27516595,0.08586145,0.4194385,-0.18973435,0.11504491,-0.06852079,0.031525966,778.0586,798.20514,796.1905,788.93774,1091.5385,-0.1441650390625,-0.05999755859375,0.9967041015625,-12.27691650390625,-8.142242431640625,-15.843353271484375,1,1.0,1.0,1.0,1.0,10.00
2024-10-11 20:20:51.303,0.6185322,-0.045576762,0.057798333,0.6065985,0.6133028,-0.30512497,0.019076435,0.42587996,0.7063646,0.06820021,0.1582351,0.69291764,0.4725172,0.27516595,0.08586145,0.4194385,-0.18973435,0.11504491,-0.06852079,0.031525966,772.8205,808.68134,805.8608,785.7143,898.93774,-0.1441650390625,-0.05999755859375,0.9967041015625,-12.27691650390625,-8.142242431640625,-15.843353271484375,1,1.0,1.0,1.0,1.0,10.00
2024-10-11 20:20:51.304,0.65599406,0.017671512,0.17698316,0.5951942,0.59624565,-0.31135577,0.058143992,0.41241392,0.69953483,0.04915742,0.15959677,0.668455,0.4777761,0.28422293,0.09532183,0.41666168,-0.1937446,0.11646528,-0.046339106,0.03284331,765.16486,812.71063,805.8608,774.83514,618.0952,-0.1441650390625,-0.05999755859375,0.9967041015625,-12.27691650390625,-8.142242431640625,-15.843353271484375,1,1.0,1.0,1.0,1.0,10.00
2024-10-11 20:20:51.310,0.65599406,0.017671512,0.17698316,0.5951942,0.59624565,-0.31135577,0.058143992,0.41241392,0.69953483,0.04915742,0.15959677,0.668455,0.4777761,0.28422293,0.09532183,0.41666168,-0.1937446,0.11646528,-0.046339106,0.03284331,767.98535,811.50183,813.5165,776.4469,659.19415,-0.1441650390625,-0.05999755859375,0.9967041015625,-12.27691650390625,-8.142242431640625,-15.843353271484375,1,1.0,1.0,1.0,1.0,10.00
2024-10-11 20:20:51.311,0.65599406,0.017671512,0.17698316,0.5951942,0.59624565,-0.31135577,0.058143992,0.41241392,0.69953483,0.04915742,0.15959677,0.668455,0.4777761,0.28422293,0.09532183,0.41666168,-0.1937446,0.11646528,-0.046339106,0.03284331,777.25275,811.50183,817.1429,786.52014,633.8095,-0.1441650390625,-0.05999755859375,0.9967041015625,-12.27691650390625,-8.142242431640625,-15.843353271484375,1,1.0,1.0,1.0,1.0,10.00
2024-10-11 20:20:51.312,0.65599406,0.017671512,0.17698316,0.5951942,0.59624565,-0.31135577,0.058143992,0.41241392,0.69953483,0.04915742,0.15959677,0.668455,0.4777761,0.28422293,0.09532183,0.41666168,-0.1937446,0.11646528,-0.046339106,0.03284331,761.9414,811.0989,816.7399,778.46155,628.97437,-0.1441650390625,-0.05999755859375,0.9967041015625,-12.27691650390625,-8.142242431640625,-15.843353271484375,1,1.0,1.0,1.0,1.0,10.00
2024-10-11 20:20:51.313,0.65599406,0.017671512,0.17698316,0.5951942,0.59624565,-0.31135577,0.058143992,0.41241392,0.69953483,0.04915742,0.15959677,0.668455,0.4777761,0.28422293,0.09532183,0.41666168,-0.1937446,0.11646528,-0.046339106,0.03284331,751.8681,812.71063,818.7546,766.77655,744.61536,-0.1441650390625,-0.05999755859375,0.9967041015625,-12.27691650390625,-8.142242431640625,-15.843353271484375,1,1.0,1.0,1.0,1.0,10.00
2024-10-11 20:20:51.314,0.65599406,0.017671512,0.17698316,0.5951942,0.59624565,-0.31135577,0.058143992,0.41241392,0.69953483,0.04915742,0.15959677,0.668455,0.4777761,0.28422293,0.09532183,0.41666168,-0.1937446,0.11646528,-0.046339106,0.03284331,754.68866,812.3077,817.5458,759.12085,929.5604,-0.1441650390625,-0.05999755859375,0.9967041015625,-12.27691650390625,-8.142242431640625,-15.843353271484375,1,1.0,1.0,1.0,1.0,10.00
2024-10-11 20:20:51.315,0.65599406,0.017671512,0.17698316,0.5951942,0.59624565,-0.31135577,0.058143992,0.41241392,0.69953483,0.04915742,0.15959677,0.668455,0.4777761,0.28422293,0.09532183,0.41666168,-0.1937446,0.11646528,-0.046339106,0.03284331,738.5714,809.89014,819.9634,745.82416,801.8315,-0.1441650390625,-0.05999755859375,0.9967041015625,-12.27691650390625,-8.142242431640625,-15.843353271484375,1,1.0,1.0,1.0,1.0,10.00
2024-10-11 20:20:51.315,0.65599406,0.017671512,0.17698316,0.5951942,0.59624565,-0.31135577,0.058143992,0.41241392,0.69953483,0.04915742,0.15959677,0.668455,0.4777761,0.28422293,0.09532183,0.41666168,-0.1937446,0.11646528,-0.046339106,0.03284331,745.42126,810.696,828.022,755.4945,598.3516,-0.1441650390625,-0.05999755859375,0.9967041015625,-12.27691650390625,-8.142242431640625,-15.843353271484375,1,1.0,1.0,1.0,1.0,10.00
2024-10-11 20:20:51.316,0.65599406,0.017671512,0.17698316,0.5951942,0.59624565,-0.31135577,0.058143992,0.41241392,0.69953483,0.04915742,0.15959677,0.668455,0.4777761,0.28422293,0.09532183,0.41666168,-0.1937446,0.11646528,-0.046339106,0.03284331,756.30035,799.41394,825.6044,771.2088,629.7802,-0.1441650390625,-0.05999755859375,0.9967041015625,-12.27691650390625,-8.142242431640625,-15.843353271484375,1,1.0,1.0,1.0,1.0,10.00
2024-10-11 20:20:51.317,0.65599406,0.017671512,0.17698316,0.5951942,0.59624565,-0.31135577,0.058143992,0.41241392,0.69953483,0.04915742,0.15959677,0.668455,0.4777761,0.28422293,0.09532183,0.41666168,-0.1937446,0.11646528,-0.046339106,0.03284331,732.9304,790.14655,811.50183,751.8681,791.75824,-0.1441650390625,-0.05999755859375,0.9967041015625,-12.27691650390625,-8.142242431640625,-15.843353271484375,1,1.0,1.0,1.0,1.0,10.00
2024-10-11 20:20:51.318,0.65599406,0.017671512,0.17698316,0.5951942,0.59624565,-0.31135577,0.058143992,0.41241392,0.69953483,0.04915742,0.15959677,0.668455,0.4777761,0.28422293,0.09532183,0.41666168,-0.1937446,0.11646528,-0.046339106,0.03284331,723.663,802.6374,810.293,743.8095,721.2454,-0.1441650390625,-0.05999755859375,0.9967041015625,-12.27691650390625,-8.142242431640625,-15.843353271484375,1,1.0,1.0,1.0,1.0,10.00
2024-10-11 20:20:51.344,0.65599406,0.017671512,0.17698316,0.5951942,0.59624565,-0.31135577,0.058143992,0.41241392,0.69953483,0.04915742,0.15959677,0.668455,0.4777761,0.28422293,0.09532183,0.41666168,-0.1937446,0.11646528,-0.046339106,0.03284331,723.663,809.89014,817.5458,757.1062,597.9487,-0.13128662109375,-0.080078125,0.9935302734375,-10.908660888671875,-8.889923095703125,-13.047027587890625,1,1.0,1.0,1.0,1.0,10.00
2024-10-11 20:20:51.345,0.65599406,0.017671512,0.17698316,0.5951942,0.59624565,-0.31135577,0.058143992,0.41241392,0.69953483,0.04915742,0.15959677,0.668455,0.4777761,0.28422293,0.09532183,0.41666168,-0.1937446,0.11646528,-0.046339106,0.03284331,723.663,807.0696,821.5751,760.7326,702.3077,-0.13128662109375,-0.080078125,0.9935302734375,-10.908660888671875,-8.889923095703125,-13.047027587890625,1,1.0,1.0,1.0,1.0,10.00
2024-10-11 20:20:51.346,0.65599406,0.017671512,0.17698316,0.5951942,0.59624565,-0.31135577,0.058143992,0.41241392,0.69953483,0.04915742,0.15959677,0.668455,0.4777761,0.28422293,0.09532183,0.41666168,-0.1937446,0.11646528,-0.046339106,0.03284331,733.3333,803.0403,814.7253,761.13556,979.92676,-0.13128662109375,-0.080078125,0.9935302734375,-10.908660888671875,-8.889923095703125,-13.047027587890625,1,1.0,1.0,1.0,1.0,10.00
2024-10-11 20:20:51.348,0.65599406,0.017671512,0.17698316,0.5951942,0.59624565,-0.31135577,0.058143992,0.41241392,0.69953483,0.04915742,0.15959677,0.668455,0.4777761,0.28422293,0.09532183,0.41666168,-0.1937446,0.11646528,-0.046339106,0.03284331,745.82416,808.2784,818.3516,767.98535,734.5421,-0.13128662109375,-0.080078125,0.9935302734375,-10.908660888671875,-8.889923095703125,-13.047027587890625,1,1.0,1.0,1.0,1.0,10.00
2024-10-11 20:20:51.349,0.65599406,0.017671512,0.17698316,0.5951942,0.59624565,-0.31135577,0.058143992,0.41241392,0.69953483,0.04915742,0.15959677,0.668455,0.4777761,0.28422293,0.09532183,0.41666168,-0.1937446,0.11646528,-0.046339106,0.03284331,757.50916,805.4579,816.337,778.0586,517.3626,-0.13128662109375,-0.080078125,0.9935302734375,-10.908660888671875,-8.889923095703125,-13.047027587890625,1,1.0,1.0,1.0,1.0,10.00
2024-10-11 20:20:51.349,0.65599406,0.017671512,0.17698316,0.5951942,0.59624565,-0.31135577,0.058143992,0.41241392,0.69953483,0.04915742,0.15959677,0.668455,0.4777761,0.28422293,0.09532183,0.41666168,-0.1937446,0.11646528,-0.046339106,0.03284331,758.71796,800.6227,806.26373,783.2967,801.4286,-0.13128662109375,-0.080078125,0.9935302734375,-10.908660888671875,-8.889923095703125,-13.047027587890625,1,1.0,1.0,1.0,1.0,10.00
2024-10-11 20:20:51.350,0.65599406,0.017671512,0.17698316,0.5951942,0.59624565,-0.31135577,0.058143992,0.41241392,0.69953483,0.04915742,0.15959677,0.668455,0.4777761,0.28422293,0.09532183,0.41666168,-0.1937446,0.11646528,-0.046339106,0.03284331,766.3736,801.4286,799.81683,787.326,930.7692,-0.13128662109375,-0.080078125,0.9935302734375,-10.908660888671875,-8.889923095703125,-13.047027587890625,1,1.0,1.0,1.0,1.0,10.00
2024-10-11 20:20:51.351,0.65599406,0.017671512,0.17698316,0.5951942,0.59624565,-0.31135577,0.058143992,0.41241392,0.69953483,0.04915742,0.15959677,0.668455,0.4777761,0.28422293,0.09532183,0.41666168,-0.1937446,0.11646528,-0.046339106,0.03284331,782.49084,802.6374,794.9817,786.52014,809.0842,-0.13128662109375,-0.080078125,0.9935302734375,-10.908660888671875,-8.889923095703125,-13.047027587890625,1,1.0,1.0,1.0,1.0,10.00
2024-10-11 20:20:51.352,0.65599406,0.017671512,0.17698316,0.5951942,0.59624565,-0.31135577,0.058143992,0.41241392,0.69953483,0.04915742,0.15959677,0.668455,0.4777761,0.28422293,0.09532183,0.41666168,-0.1937446,0.11646528,-0.046339106,0.03284331,778.0586,804.2491,803.8461,782.8938,755.4945,-0.13128662109375,-0.080078125,0.9935302734375,-10.908660888671875,-8.889923095703125,-13.047027587890625,1,1.0,1.0,1.0,1.0,10.00
2024-10-11 20:20:51.352,0.65599406,0.017671512,0.17698316,0.5951942,0.59624565,-0.31135577,0.058143992,0.41241392,0.69953483,0.04915742,0.15959677,0.668455,0.4777761,0.28422293,0.09532183,0.41666168,-0.1937446,0.11646528,-0.046339106,0.03284331,775.2381,795.38464,801.8315,789.7436,816.7399,-0.13128662109375,-0.080078125,0.9935302734375,-10.908660888671875,-8.889923095703125,-13.047027587890625,1,1.0,1.0,1.0,1.0,10.00
2024-10-11 20:20:51.353,0.65599406,0.017671512,0.17698316,0.5951942,0.59624565,-0.31135577,0.058143992,0.41241392,0.69953483,0.04915742,0.15959677,0.668455,0.4777761,0.28422293,0.09532183,0.41666168,-0.1937446,0.11646528,-0.046339106,0.03284331,778.86444,794.57874,797.3993,792.96704,918.68134,-0.13128662109375,-0.080078125,0.9935302734375,-10.908660888671875,-8.889923095703125,-13.047027587890625,1,1.0,1.0,1.0,1.0,10.00
2024-10-11 20:20:51.354,0.65599406,0.017671512,0.17698316,0.5951942,0.59624565,-0.31135577,0.058143992,0.41241392,0.69953483,0.04915742,0.15959677,0.668455,0.4777761,0.28422293,0.09532183,0.41666168,-0.1937446,0.11646528,-0.046339106,0.03284331,780.87915,796.5934,804.65204,796.1905,701.0989,-0.13128662109375,-0.080078125,0.9935302734375,-10.908660888671875,-8.889923095703125,-13.047027587890625,1,1.0,1.0,1.0,1.0,10.00
2024-10-11 20:20:51.355,0.65599406,0.017671512,0.17698316,0.5951942,0.59624565,-0.31135577,0.058143992,0.41241392,0.69953483,0.04915742,0.15959677,0.668455,0.4777761,0.28422293,0.09532183,0.41666168,-0.1937446,0.11646528,-0.046339106,0.03284331,788.93774,800.2198,803.0403,800.2198,603.9927,-0.1314697265625,-0.08544921875,0.98822021484375,-9.4207763671875,-5.734710693359375,-11.297454833984375,1,1.0,1.0,1.0,1.0,10.00
2024-10-11 20:20:51.355,0.65599406,0.017671512,0.17698316,0.5951942,0.59624565,-0.31135577,0.058143992,0.41241392,0.69953483,0.04915742,0.15959677,0.668455,0.4777761,0.28422293,0.09532183,0.41666168,-0.1937446,0.11646528,-0.046339106,0.03284331,795.78754,805.05493,798.20514,793.7729,856.2271,-0.1314697265625,-0.08544921875,0.98822021484375,-9.4207763671875,-5.734710693359375,-11.297454833984375,1,1.0,1.0,1.0,1.0,10.00
2024-10-11 20:20:51.356,0.65599406,0.017671512,0.17698316,0.5951942,0.59624565,-0.31135577,0.058143992,0.41241392,0.69953483,0.04915742,0.15959677,0.668455,0.4777761,0.28422293,0.09532183,0.41666168,-0.1937446,0.11646528,-0.046339106,0.03284331,794.9817,798.60803,797.8022,794.17584,877.98535,-0.1314697265625,-0.08544921875,0.98822021484375,-9.4207763671875,-5.734710693359375,-11.297454833984375,1,1.0,1.0,1.0,1.0,10.00
2024-10-11 20:20:51.357,0.69303393,0.057135325,0.30067885,0.5645624,0.5714909,-0.30364653,0.10385935,0.40073916,0.74483347,0.050619483,0.17106405,0.68658483,0.49306554,0.28722134,0.108959034,0.43498892,-0.2004479,0.11763059,-0.026847905,0.04691996,794.17584,798.60803,800.6227,803.0403,649.12085,-0.1314697265625,-0.08544921875,0.98822021484375,-9.4207763671875,-5.734710693359375,-11.297454833984375,1,1.0,1.0,1.0,1.0,10.00
2024-10-11 20:20:51.363,0.69303393,0.057135325,0.30067885,0.5645624,0.5714909,-0.30364653,0.10385935,0.40073916,0.74483347,0.050619483,0.17106405,0.68658483,0.49306554,0.28722134,0.108959034,0.43498892,-0.2004479,0.11763059,-0.026847905,0.04691996,799.81683,797.3993,794.9817,807.8755,610.84247,-0.1314697265625,-0.08544921875,0.98822021484375,-9.4207763671875,-5.734710693359375,-11.297454833984375,1,1.0,1.0,1.0,1.0,10.00
2024-10-11 20:20:51.364,0.69303393,0.057135325,0.30067885,0.5645624,0.5714909,-0.30364653,0.10385935,0.40073916,0.74483347,0.050619483,0.17106405,0.68658483,0.49306554,0.28722134,0.108959034,0.43498892,-0.2004479,0.11763059,-0.026847905,0.04691996,804.2491,788.93774,793.7729,809.0842,948.0952,-0.1314697265625,-0.08544921875,0.98822021484375,-9.4207763671875,-5.734710693359375,-11.297454833984375,1,1.0,1.0,1.0,1.0,10.00
2024-10-11 20:20:51.365,0.69303393,0.057135325,0.30067885,0.5645624,0.5714909,-0.30364653,0.10385935,0.40073916,0.74483347,0.050619483,0.17106405,0.68658483,0.49306554,0.28722134,0.108959034,0.43498892,-0.2004479,0.11763059,-0.026847905,0.04691996,802.6374,783.69965,799.41394,812.71063,1057.2894,-0.1314697265625,-0.08544921875,0.98822021484375,-9.4207763671875,-5.734710693359375,-11.297454833984375,1,1.0,1.0,1.0,1.0,10.00
2024-10-11 20:20:51.366,0.69303393,0.057135325,0.30067885,0.5645624,0.5714909,-0.30364653,0.10385935,0.40073916,0.74483347,0.050619483,0.17106405,0.68658483,0.49306554,0.28722134,0.108959034,0.43498892,-0.2004479,0.11763059,-0.026847905,0.04691996,798.20514,787.72894,793.36993,810.293,743.4066,-0.1314697265625,-0.08544921875,0.98822021484375,-9.4207763671875,-5.734710693359375,-11.297454833984375,1,1.0,1.0,1.0,1.0,10.00
2024-10-11 20:20:51.367,0.69303393,0.057135325,0.30067885,0.5645624,0.5714909,-0.30364653,0.10385935,0.40073916,0.74483347,0.050619483,0.17106405,0.68658483,0.49306554,0.28722134,0.108959034,0.43498892,-0.2004479,0.11763059,-0.026847905,0.04691996,805.4579,794.57874,797.3993,811.0989,653.95605,-0.1314697265625,-0.08544921875,0.98822021484375,-9.4207763671875,-5.734710693359375,-11.297454833984375,1,1.0,1.0,1.0,1.0,10.00
2024-10-11 20:20:51.367,0.69303393,0.057135325,0.30067885,0.5645624,0.5714909,-0.30364653,0.10385935,0.40073916,0.74483347,0.050619483,0.17106405,0.68658483,0.49306554,0.28722134,0.108959034,0.43498892,-0.2004479,0.11763059,-0.026847905,0.04691996,806.6667,792.96704,804.65204,817.9487,964.61536,-0.1314697265625,-0.08544921875,0.98822021484375,-9.4207763671875,-5.734710693359375,-11.297454833984375,1,1.0,1.0,1.0,1.0,10.00
2024-10-11 20:20:51.368,0.69303393,0.057135325,0.30067885,0.5645624,0.5714909,-0.30364653,0.10385935,0.40073916,0.74483347,0.050619483,0.17106405,0.68658483,0.49306554,0.28722134,0.108959034,0.43498892,-0.2004479,0.11763059,-0.026847905,0.04691996,794.17584,793.7729,808.68134,813.5165,1066.9597,-0.1314697265625,-0.08544921875,0.98822021484375,-9.4207763671875,-5.734710693359375,-11.297454833984375,1,1.0,1.0,1.0,1.0,10.00
2024-10-11 20:20:51.369,0.69303393,0.057135325,0.30067885,0.5645624,0.5714909,-0.30364653,0.10385935,0.40073916,0.74483347,0.050619483,0.17106405,0.68658483,0.49306554,0.28722134,0.108959034,0.43498892,-0.2004479,0.11763059,-0.026847905,0.04691996,792.1612,796.99634,801.4286,811.50183,821.1722,-0.1314697265625,-0.08544921875,0.98822021484375,-9.4207763671875,-5.734710693359375,-11.297454833984375,1,1.0,1.0,1.0,1.0,10.00
2024-10-11 20:20:51.396,0.69303393,0.057135325,0.30067885,0.5645624,0.5714909,-0.30364653,0.10385935,0.40073916,0.74483347,0.050619483,0.17106405,0.68658483,0.49306554,0.28722134,0.108959034,0.43498892,-0.2004479,0.11763059,-0.026847905,0.04691996,795.78754,794.17584,794.9817,813.5165,699.89014,-0.13623046875,-0.099609375,0.98583984375,-7.185211181640625,-4.927215576171875,-10.280609130859375,1,1.0,1.0,1.0,1.0,10.00
2024-10-11 20:20:51.397,0.69303393,0.057135325,0.30067885,0.5645624,0.5714909,-0.30364653,0.10385935,0.40073916,0.74483347,0.050619483,0.17106405,0.68658483,0.49306554,0.28722134,0.108959034,0.43498892,-0.2004479,0.11763059,-0.026847905,0.04691996,797.8022,793.7729,795.78754,814.7253,986.77655,-0.13623046875,-0.099609375,0.98583984375,-7.185211181640625,-4.927215576171875,-10.280609130859375,1,1.0,1.0,1.0,1.0,10.00
2024-10-11 20:20:51.398,0.69303393,0.057135325,0.30067885,0.5645624,0.5714909,-0.30364653,0.10385935,0.40073916,0.74483347,0.050619483,0.17106405,0.68658483,0.49306554,0.28722134,0.108959034,0.43498892,-0.2004479,0.11763059,-0.026847905,0.04691996,801.8315,796.99634,797.3993,816.7399,1025.4579,-0.13623046875,-0.099609375,0.98583984375,-7.185211181640625,-4.927215576171875,-10.280609130859375,1,1.0,1.0,1.0,1.0,10.00
2024-10-11 20:20:51.399,0.69303393,0.057135325,0.30067885,0.5645624,0.5714909,-0.30364653,0.10385935,0.40073916,0.74483347,0.050619483,0.17106405,0.68658483,0.49306554,0.28722134,0.108959034,0.43498892,-0.2004479,0.11763059,-0.026847905,0.04691996,800.2198,791.75824,805.05493,813.5165,698.2784,-0.13623046875,-0.099609375,0.98583984375,-7.185211181640625,-4.927215576171875,-10.280609130859375,1,1.0,1.0,1.0,1.0,10.00
2024-10-11 20:20:51.400,0.69303393,0.057135325,0.30067885,0.5645624,0.5714909,-0.30364653,0.10385935,0.40073916,0.74483347,0.050619483,0.17106405,0.68658483,0.49306554,0.28722134,0.108959034,0.43498892,-0.2004479,0.11763059,-0.026847905,0.04691996,802.23444,786.1172,803.0403,814.7253,698.2784,-0.13623046875,-0.099609375,0.98583984375,-7.185211181640625,-4.927215576171875,-10.280609130859375,1,1.0,1.0,1.0,1.0,10.00
2024-10-11 20:20:51.400,0.69303393,0.057135325,0.30067885,0.5645624,0.5714909,-0.30364653,0.10385935,0.40073916,0.74483347,0.050619483,0.17106405,0.68658483,0.49306554,0.28722134,0.108959034,0.43498892,-0.2004479,0.11763059,-0.026847905,0.04691996,804.65204,781.685,798.20514,820.3663,1090.3297,-0.13623046875,-0.099609375,0.98583984375,-7.185211181640625,-4.927215576171875,-10.280609130859375,1,1.0,1.0,1.0,1.0,10.00
2024-10-11 20:20:51.401,0.69303393,0.057135325,0.30067885,0.5645624,0.5714909,-0.30364653,0.10385935,0.40073916,0.74483347,0.050619483,0.17106405,0.68658483,0.49306554,0.28722134,0.108959034,0.43498892,-0.2004479,0.11763059,-0.026847905,0.04691996,810.293,786.1172,801.02563,818.3516,969.45056,-0.13623046875,-0.099609375,0.98583984375,-7.185211181640625,-4.927215576171875,-10.280609130859375,1,1.0,1.0,1.0,1.0,10.00
2024-10-11 20:20:51.402,0.69303393,0.057135325,0.30067885,0.5645624,0.5714909,-0.30364653,0.10385935,0.40073916,0.74483347,0.050619483,0.17106405,0.68658483,0.49306554,0.28722134,0.108959034,0.43498892,-0.2004479,0.11763059,-0.026847905,0.04691996,811.50183,796.5934,809.4872,812.71063,724.0659,-0.13623046875,-0.099609375,0.98583984375,-7.185211181640625,-4.927215576171875,-10.280609130859375,1,1.0,1.0,1.0,1.0,10.00
2024-10-11 20:20:51.402,0.69303393,0.057135325,0.30067885,0.5645624,0.5714909,-0.30364653,0.10385935,0.40073916,0.74483347,0.050619483,0.17106405,0.68658483,0.49306554,0.28722134,0.108959034,0.43498892,-0.2004479,0.11763059,-0.026847905,0.04691996,810.293,793.36993,807.8755,805.4579,710.7692,-0.13623046875,-0.099609375,0.98583984375,-7.185211181640625,-4.927215576171875,-10.280609130859375,1,1.0,1.0,1.0,1.0,10.00
2024-10-11 20:20:51.403,0.69303393,0.057135325,0.30067885,0.5645624,0.5714909,-0.30364653,0.10385935,0.40073916,0.74483347,0.050619483,0.17106405,0.68658483,0.49306554,0.28722134,0.108959034,0.43498892,-0.2004479,0.11763059,-0.026847905,0.04691996,807.8755,793.36993,791.3553,812.3077,1083.8828,-0.13623046875,-0.099609375,0.98583984375,-7.185211181640625,-4.927215576171875,-10.280609130859375,1,1.0,1.0,1.0,1.0,10.00
2024-10-11 20:20:51.404,0.69303393,0.057135325,0.30067885,0.5645624,0.5714909,-0.30364653,0.10385935,0.40073916,0.74483347,0.050619483,0.17106405,0.68658483,0.49306554,0.28722134,0.108959034,0.43498892,-0.2004479,0.11763059,-0.026847905,0.04691996,799.41394,797.3993,794.9817,817.1429,1218.0586,-0.13623046875,-0.099609375,0.98583984375,-7.185211181640625,-4.927215576171875,-10.280609130859375,1,1.0,1.0,1.0,1.0,10.00
2024-10-11 20:20:51.405,0.69303393,0.057135325,0.30067885,0.5645624,0.5714909,-0.30364653,0.10385935,0.40073916,0.74483347,0.050619483,0.17106405,0.68658483,0.49306554,0.28722134,0.108959034,0.43498892,-0.2004479,0.11763059,-0.026847905,0.04691996,798.20514,802.6374,805.05493,811.50183,780.4762,-0.13623046875,-0.099609375,0.98583984375,-7.185211181640625,-4.927215576171875,-10.280609130859375,1,1.0,1.0,1.0,1.0,10.00
2024-10-11 20:20:51.437,0.69303393,0.057135325,0.30067885,0.5645624,0.5714909,-0.30364653,0.10385935,0.40073916,0.74483347,0.050619483,0.17106405,0.68658483,0.49306554,0.28722134,0.108959034,0.43498892,-0.2004479,0.11763059,-0.026847905,0.04691996,799.41394,804.65204,807.8755,809.4872,666.04395,-0.13629150390625,-0.11309814453125,0.9912109375,-6.89361572265625,-3.66363525390625,-10.0189208984375,1,1.0,1.0,1.0,1.0,10.00
2024-10-11 20:20:51.438,0.69303393,0.057135325,0.30067885,0.5645624,0.5714909,-0.30364653,0.10385935,0.40073916,0.74483347,0.050619483,0.17106405,0.68658483,0.49306554,0.28722134,0.108959034,0.43498892,-0.2004479,0.11763059,-0.026847905,0.04691996,801.8315,803.8461,818.7546,804.2491,691.02563,-0.13629150390625,-0.11309814453125,0.9912109375,-6.89361572265625,-3.66363525390625,-10.0189208984375,1,1.0,1.0,1.0,1.0,10.00
2024-10-11 20:20:51.439,0.69303393,0.057135325,0.30067885,0.5645624,0.5714909,-0.30364653,0.10385935,0.40073916,0.74483347,0.050619483,0.17106405,0.68658483,0.49306554,0.28722134,0.108959034,0.43498892,-0.2004479,0.11763059,-0.026847905,0.04691996,797.3993,798.60803,807.47253,797.3993,619.707,-0.13629150390625,-0.11309814453125,0.9912109375,-6.89361572265625,-3.66363525390625,-10.0189208984375,1,1.0,1.0,1.0,1.0,10.00
2024-10-11 20:20:51.440,0.69303393,0.057135325,0.30067885,0.5645624,0.5714909,-0.30364653,0.10385935,0.40073916,0.74483347,0.050619483,0.17106405,0.68658483,0.49306554,0.28722134,0.108959034,0.43498892,-0.2004479,0.11763059,-0.026847905,0.04691996,792.96704,789.7436,796.99634,798.20514,745.0183,-0.13629150390625,-0.11309814453125,0.9912109375,-6.89361572265625,-3.66363525390625,-10.0189208984375,1,1.0,1.0,1.0,1.0,10.00
2024-10-11 20:20:51.440,0.69303393,0.057135325,0.30067885,0.5645624,0.5714909,-0.30364653,0.10385935,0.40073916,0.74483347,0.050619483,0.17106405,0.68658483,0.49306554,0.28722134,0.108959034,0.43498892,-0.2004479,0.11763059,-0.026847905,0.04691996,798.60803,786.52014,807.0696,802.23444,880.0,-0.13629150390625,-0.11309814453125,0.9912109375,-6.89361572265625,-3.66363525390625,-10.0189208984375,1,1.0,1.0,1.0,1.0,10.00
2024-10-11 20:20:51.441,0.69892913,0.08111382,0.3919483,0.5421916,0.54541755,-0.28215292,0.14605612,0.42270005,0.7163585,0.050619483,0.21115133,0.8046821,0.4944568,0.27956536,0.12180963,0.46342102,-0.19644047,0.11563009,-0.012696511,0.06742065,799.41394,792.5641,809.0842,809.0842,842.1245,-0.13629150390625,-0.11309814453125,0.9912109375,-6.89361572265625,-3.66363525390625,-10.0189208984375,1,1.0,1.0,1.0,1.0,10.00
2024-10-11 20:20:51.447,0.69892913,0.08111382,0.3919483,0.5421916,0.54541755,-0.28215292,0.14605612,0.42270005,0.7163585,0.050619483,0.21115133,0.8046821,0.4944568,0.27956536,0.12180963,0.46342102,-0.19644047,0.11563009,-0.012696511,0.06742065,792.96704,794.17584,803.0403,808.2784,727.6923,-0.13629150390625,-0.11309814453125,0.9912109375,-6.89361572265625,-3.66363525390625,-10.0189208984375,1,1.0,1.0,1.0,1.0,10.00
2024-10-11 20:20:51.448,0.69892913,0.08111382,0.3919483,0.5421916,0.54541755,-0.28215292,0.14605612,0.42270005,0.7163585,0.050619483,0.21115133,0.8046821,0.4944568,0.27956536,0.12180963,0.46342102,-0.19644047,0.11563009,-0.012696511,0.06742065,800.2198,791.3553,800.6227,812.3077,684.9817,-0.13629150390625,-0.11309814453125,0.9912109375,-6.89361572265625,-3.66363525390625,-10.0189208984375,1,1.0,1.0,1.0,1.0,10.00
2024-10-11 20:20:51.449,0.69892913,0.08111382,0.3919483,0.5421916,0.54541755,-0.28215292,0.14605612,0.42270005,0.7163585,0.050619483,0.21115133,0.8046821,0.4944568,0.27956536,0.12180963,0.46342102,-0.19644047,0.11563009,-0.012696511,0.06742065,807.8755,795.78754,802.23444,817.5458,895.7143,-0.13629150390625,-0.11309814453125,0.9912109375,-6.89361572265625,-3.66363525390625,-10.0189208984375,1,1.0,1.0,1.0,1.0,10.00
2024-10-11 20:20:51.450,0.69892913,0.08111382,0.3919483,0.5421916,0.54541755,-0.28215292,0.14605612,0.42270005,0.7163585,0.050619483,0.21115133,0.8046821,0.4944568,0.27956536,0.12180963,0.46342102,-0.19644047,0.11563009,-0.012696511,0.06742065,805.8608,796.5934,803.8461,809.4872,870.7326,-0.13629150390625,-0.11309814453125,0.9912109375,-6.89361572265625,-3.66363525390625,-10.0189208984375,1,1.0,1.0,1.0,1.0,10.00
2024-10-11 20:20:51.451,0.69892913,0.08111382,0.3919483,0.5421916,0.54541755,-0.28215292,0.14605612,0.42270005,0.7163585,0.050619483,0.21115133,0.8046821,0.4944568,0.27956536,0.12180963,0.46342102,-0.19644047,0.11563009,-0.012696511,0.06742065,809.4872,795.38464,806.26373,809.89014,581.4286,-0.13629150390625,-0.11309814453125,0.9912109375,-6.89361572265625,-3.66363525390625,-10.0189208984375,1,1.0,1.0,1.0,1.0,10.00
2024-10-11 20:20:51.451,0.69892913,0.08111382,0.3919483,0.5421916,0.54541755,-0.28215292,0.14605612,0.42270005,0.7163585,0.050619483,0.21115133,0.8046821,0.4944568,0.27956536,0.12180963,0.46342102,-0.19644047,0.11563009,-0.012696511,0.06742065,812.71063,800.2198,803.8461,814.7253,718.4249,-0.13629150390625,-0.11309814453125,0.9912109375,-6.89361572265625,-3.66363525390625,-10.0189208984375,1,1.0,1.0,1.0,1.0,10.00
2024-10-11 20:20:51.477,0.69892913,0.08111382,0.3919483,0.5421916,0.54541755,-0.28215292,0.14605612,0.42270005,0.7163585,0.050619483,0.21115133,0.8046821,0.4944568,0.27956536,0.12180963,0.46342102,-0.19644047,0.11563009,-0.012696511,0.06742065,805.05493,799.41394,801.8315,812.3077,1054.8718,-0.13629150390625,-0.11309814453125,0.9912109375,-6.89361572265625,-3.66363525390625,-10.0189208984375,1,1.0,1.0,1.0,1.0,10.00
2024-10-11 20:20:51.478,0.69892913,0.08111382,0.3919483,0.5421916,0.54541755,-0.28215292,0.14605612,0.42270005,0.7163585,0.050619483,0.21115133,0.8046821,0.4944568,0.27956536,0.12180963,0.46342102,-0.19644047,0.11563009,-0.012696511,0.06742065,805.4579,802.6374,801.02563,814.7253,800.2198,-0.13629150390625,-0.11309814453125,0.9912109375,-6.89361572265625,-3.66363525390625,-10.0189208984375,1,1.0,1.0,1.0,1.0,10.00
2024-10-11 20:20:51.479,0.69892913,0.08111382,0.3919483,0.5421916,0.54541755,-0.28215292,0.14605612,0.42270005,0.7163585,0.050619483,0.21115133,0.8046821,0.4944568,0.27956536,0.12180963,0.46342102,-0.19644047,0.11563009,-0.012696511,0.06742065,814.7253,808.68134,804.2491,822.7839,520.18317,-0.13629150390625,-0.11309814453125,0.9912109375,-6.89361572265625,-3.66363525390625,-10.0189208984375,1,1.0,1.0,1.0,1.0,10.00
2024-10-11 20:20:51.480,0.69892913,0.08111382,0.3919483,0.5421916,0.54541755,-0.28215292,0.14605612,0.42270005,0.7163585,0.050619483,0.21115133,0.8046821,0.4944568,0.27956536,0.12180963,0.46342102,-0.19644047,0.11563009,-0.012696511,0.06742065,817.9487,792.1612,805.05493,825.2015,672.8938,-0.13629150390625,-0.11309814453125,0.9912109375,-6.89361572265625,-3.66363525390625,-10.0189208984375,1,1.0,1.0,1.0,1.0,10.00
2024-10-11 20:20:51.481,0.69892913,0.08111382,0.3919483,0.5421916,0.54541755,-0.28215292,0.14605612,0.42270005,0.7163585,0.050619483,0.21115133,0.8046821,0.4944568,0.27956536,0.12180963,0.46342102,-0.19644047,0.11563009,-0.012696511,0.06742065,806.26373,785.7143,804.2491,821.1722,818.3516,-0.13629150390625,-0.11309814453125,0.9912109375,-6.89361572265625,-3.66363525390625,-10.0189208984375,1,1.0,1.0,1.0,1.0,10.00
2024-10-11 20:20:51.482,0.69892913,0.08111382,0.3919483,0.5421916,0.54541755,-0.28215292,0.14605612,0.42270005,0.7163585,0.050619483,0.21115133,0.8046821,0.4944568,0.27956536,0.12180963,0.46342102,-0.19644047,0.11563009,-0.012696511,0.06742065,803.44324,799.011,805.8608,820.7692,876.77655,-0.13629150390625,-0.11309814453125,0.9912109375,-6.89361572265625,-3.66363525390625,-10.0189208984375,1,1.0,1.0,1.0,1.0,10.00
2024-10-11 20:20:51.483,0.69892913,0.08111382,0.3919483,0.5421916,0.54541755,-0.28215292,0.14605612,0.42270005,0.7163585,0.050619483,0.21115133,0.8046821,0.4944568,0.27956536,0.12180963,0.46342102,-0.19644047,0.11563009,-0.012696511,0.06742065,806.6667,799.81683,804.2491,819.9634,756.30035,-0.13629150390625,-0.11309814453125,0.9912109375,-6.89361572265625,-3.66363525390625,-10.0189208984375,1,1.0,1.0,1.0,1.0,10.00
2024-10-11 20:20:51.484,0.69892913,0.08111382,0.3919483,0.5421916,0.54541755,-0.28215292,0.14605612,0.42270005,0.7163585,0.050619483,0.21115133,0.8046821,0.4944568,0.27956536,0.12180963,0.46342102,-0.19644047,0.11563009,-0.012696511,0.06742065,802.23444,793.7729,803.8461,821.978,720.0366,-0.13629150390625,-0.11309814453125,0.9912109375,-6.89361572265625,-3.66363525390625,-10.0189208984375,1,1.0,1.0,1.0,1.0,10.00
2024-10-11 20:20:51.484,0.69892913,0.08111382,0.3919483,0.5421916,0.54541755,-0.28215292,0.14605612,0.42270005,0.7163585,0.050619483,0.21115133,0.8046821,0.4944568,0.27956536,0.12180963,0.46342102,-0.19644047,0.11563009,-0.012696511,0.06742065,805.05493,796.1905,808.68134,833.663,1086.3004,-0.13629150390625,-0.11309814453125,0.9912109375,-6.89361572265625,-3.66363525390625,-10.0189208984375,1,1.0,1.0,1.0,1.0,10.00
2024-10-11 20:20:51.485,0.69892913,0.08111382,0.3919483,0.5421916,0.54541755,-0.28215292,0.14605612,0.42270005,0.7163585,0.050619483,0.21115133,0.8046821,0.4944568,0.27956536,0.12180963,0.46342102,-0.19644047,0.11563009,-0.012696511,0.06742065,806.6667,799.81683,813.1135,828.022,885.64105,-0.13629150390625,-0.11309814453125,0.9912109375,-6.89361572265625,-3.66363525390625,-10.0189208984375,1,1.0,1.0,1.0,1.0,10.00
2024-10-11 20:20:51.486,0.69892913,0.08111382,0.3919483,0.5421916,0.54541755,-0.28215292,0.14605612,0.42270005,0.7163585,0.050619483,0.21115133,0.8046821,0.4944568,0.27956536,0.12180963,0.46342102,-0.19644047,0.11563009,-0.012696511,0.06742065,808.2784,792.5641,801.4286,815.9341,612.4542,-0.13629150390625,-0.11309814453125,0.9912109375,-6.89361572265625,-3.66363525390625,-10.0189208984375,1,1.0,1.0,1.0,1.0,10.00
2024-10-11 20:20:51.486,0.69892913,0.08111382,0.3919483,0.5421916,0.54541755,-0.28215292,0.14605612,0.42270005,0.7163585,0.050619483,0.21115133,0.8046821,0.4944568,0.27956536,0.12180963,0.46342102,-0.19644047,0.11563009,-0.012696511,0.06742065,808.68134,799.81683,792.5641,820.3663,757.1062,-0.13629150390625,-0.11309814453125,0.9912109375,-6.89361572265625,-3.66363525390625,-10.0189208984375,1,1.0,1.0,1.0,1.0,10.00
2024-10-11 20:20:51.537,0.69892913,0.08111382,0.3919483,0.5421916,0.54541755,-0.28215292,0.14605612,0.42270005,0.7163585,0.050619483,0.21115133,0.8046821,0.4944568,0.27956536,0.12180963,0.46342102,-0.19644047,0.11563009,-0.012696511,0.06742065,806.6667,803.8461,802.6374,823.1868,853.00366,-0.12445068359375,-0.11578369140625,0.99859619140625,-6.86370849609375,-3.730926513671875,-8.904876708984375,1,1.0,1.0,1.0,1.0,10.00
2024-10-11 20:20:51.538,0.69892913,0.08111382,0.3919483,0.5421916,0.54541755,-0.28215292,0.14605612,0.42270005,0.7163585,0.050619483,0.21115133,0.8046821,0.4944568,0.27956536,0.12180963,0.46342102,-0.19644047,0.11563009,-0.012696511,0.06742065,810.696,798.20514,809.4872,823.1868,747.4359,-0.12445068359375,-0.11578369140625,0.99859619140625,-6.86370849609375,-3.730926513671875,-8.904876708984375,1,1.0,1.0,1.0,1.0,10.00
2024-10-11 20:20:51.539,0.69892913,0.08111382,0.3919483,0.5421916,0.54541755,-0.28215292,0.14605612,0.42270005,0.7163585,0.050619483,0.21115133,0.8046821,0.4944568,0.27956536,0.12180963,0.46342102,-0.19644047,0.11563009,-0.012696511,0.06742065,811.9048,797.3993,805.05493,819.9634,633.8095,-0.12445068359375,-0.11578369140625,0.99859619140625,-6.86370849609375,-3.730926513671875,-8.904876708984375,1,1.0,1.0,1.0,1.0,10.00
2024-10-11 20:20:51.540,0.69892913,0.08111382,0.3919483,0.5421916,0.54541755,-0.28215292,0.14605612,0.42270005,0.7163585,0.050619483,0.21115133,0.8046821,0.4944568,0.27956536,0.12180963,0.46342102,-0.19644047,0.11563009,-0.012696511,0.06742065,809.0842,796.1905,799.41394,816.337,657.5824,-0.12445068359375,-0.11578369140625,0.99859619140625,-6.86370849609375,-3.730926513671875,-8.904876708984375,1,1.0,1.0,1.0,1.0,10.00
2024-10-11 20:20:51.540,0.69892913,0.08111382,0.3919483,0.5421916,0.54541755,-0.28215292,0.14605612,0.42270005,0.7163585,0.050619483,0.21115133,0.8046821,0.4944568,0.27956536,0.12180963,0.46342102,-0.19644047,0.11563009,-0.012696511,0.06742065,800.2198,793.36993,802.23444,812.3077,752.27106,-0.12445068359375,-0.11578369140625,0.99859619140625,-6.86370849609375,-3.730926513671875,-8.904876708984375,1,1.0,1.0,1.0,1.0,10.00
2024-10-11 20:20:51.541,0.69892913,0.08111382,0.3919483,0.5421916,0.54541755,-0.28215292,0.14605612,0.42270005,0.7163585,0.050619483,0.21115133,0.8046821,0.4944568,0.27956536,0.12180963,0.46342102,-0.19644047,0.11563009,-0.012696511,0.06742065,803.44324,791.75824,800.6227,815.12823,855.42126,-0.12445068359375,-0.11578369140625,0.99859619140625,-6.86370849609375,-3.730926513671875,-8.904876708984375,1,1.0,1.0,1.0,1.0,10.00
2024-10-11 20:20:51.542,0.69892913,0.08111382,0.3919483,0.5421916,0.54541755,-0.28215292,0.14605612,0.42270005,0.7163585,0.050619483,0.21115133,0.8046821,0.4944568,0.27956536,0.12180963,0.46342102,-0.19644047,0.11563009,-0.012696511,0.06742065,799.011,797.8022,796.1905,815.5311,882.01465,-0.12445068359375,-0.11578369140625,0.99859619140625,-6.86370849609375,-3.730926513671875,-8.904876708984375,1,1.0,1.0,1.0,1.0,10.00
2024-10-11 20:20:51.542,0.7056026,0.10300763,0.45039076,0.57735807,0.51114494,-0.24239837,0.18518487,0.5151729,0.7024514,0.050619483,0.23038457,0.89544106,0.4855633,0.262555,0.12818944,0.4876351,-0.19043106,0.109044865,5.031482E-4,0.08371781,798.60803,801.4286,801.02563,815.5311,1006.9231,-0.12445068359375,-0.11578369140625,0.99859619140625,-6.86370849609375,-3.730926513671875,-8.904876708984375,1,1.0,1.0,1.0,1.0,10.00
2024-10-11 20:20:51.548,0.7056026,0.10300763,0.45039076,0.57735807,0.51114494,-0.24239837,0.18518487,0.5151729,0.7024514,0.050619483,0.23038457,0.89544106,0.4855633,0.262555,0.12818944,0.4876351,-0.19043106,0.109044865,5.031482E-4,0.08371781,800.2198,797.8022,797.8022,813.1135,895.7143,-0.12445068359375,-0.11578369140625,0.99859619140625,-6.86370849609375,-3.730926513671875,-8.904876708984375,1,1.0,1.0,1.0,1.0,10.00
2024-10-11 20:20:51.549,0.7056026,0.10300763,0.45039076,0.57735807,0.51114494,-0.24239837,0.18518487,0.5151729,0.7024514,0.050619483,0.23038457,0.89544106,0.4855633,0.262555,0.12818944,0.4876351,-0.19043106,0.109044865,5.031482E-4,0.08371781,796.5934,799.41394,792.5641,801.02563,689.011,-0.12445068359375,-0.11578369140625,0.99859619140625,-6.86370849609375,-3.730926513671875,-8.904876708984375,1,1.0,1.0,1.0,1.0,10.00
2024-10-11 20:20:51.550,0.7056026,0.10300763,0.45039076,0.57735807,0.51114494,-0.24239837,0.18518487,0.5151729,0.7024514,0.050619483,0.23038457,0.89544106,0.4855633,0.262555,0.12818944,0.4876351,-0.19043106,0.109044865,5.031482E-4,0.08371781,800.2198,796.5934,796.99634,797.8022,725.2747,-0.12445068359375,-0.11578369140625,0.99859619140625,-6.86370849609375,-3.730926513671875,-8.904876708984375,1,1.0,1.0,1.0,1.0,10.00
2024-10-11 20:20:51.551,0.7056026,0.10300763,0.45039076,0.57735807,0.51114494,-0.24239837,0.18518487,0.5151729,0.7024514,0.050619483,0.23038457,0.89544106,0.4855633,0.262555,0.12818944,0.4876351,-0.19043106,0.109044865,5.031482E-4,0.08371781,811.9048,795.78754,796.99634,796.99634,778.46155,-0.12445068359375,-0.11578369140625,0.99859619140625,-6.86370849609375,-3.730926513671875,-8.904876708984375,1,1.0,1.0,1.0,1.0,10.00
2024-10-11 20:20:51.552,0.7056026,0.10300763,0.45039076,0.57735807,0.51114494,-0.24239837,0.18518487,0.5151729,0.7024514,0.050619483,0.23038457,0.89544106,0.4855633,0.262555,0.12818944,0.4876351,-0.19043106,0.109044865,5.031482E-4,0.08371781,813.91943,793.7729,796.99634,794.9817,706.7399,-0.1131591796875,-0.12982177734375,0.99786376953125,-8.187103271484375,-4.912261962890625,-6.998291015625,1,1.0,1.0,1.0,1.0,10.00
2024-10-11 20:20:51.552,0.7056026,0.10300763,0.45039076,0.57735807,0.51114494,-0.24239837,0.18518487,0.5151729,0.7024514,0.050619483,0.23038457,0.89544106,0.4855633,0.262555,0.12818944,0.4876351,-0.19043106,0.109044865,5.031482E-4,0.08371781,815.12823,783.2967,796.1905,796.5934,691.8315,-0.1131591796875,-0.12982177734375,0.99786376953125,-8.187103271484375,-4.912261962890625,-6.998291015625,1,1.0,1.0,1.0,1.0,10.00
2024-10-11 20:20:51.553,0.7056026,0.10300763,0.45039076,0.57735807,0.51114494,-0.24239837,0.18518487,0.5151729,0.7024514,0.050619483,0.23038457,0.89544106,0.4855633,0.262555,0.12818944,0.4876351,-0.19043106,0.109044865,5.031482E-4,0.08371781,816.7399,790.54944,799.41394,808.2784,767.1795,-0.1131591796875,-0.12982177734375,0.99786376953125,-8.187103271484375,-4.912261962890625,-6.998291015625,1,1.0,1.0,1.0,1.0,10.00
2024-10-11 20:20:51.554,0.7056026,0.10300763,0.45039076,0.57735807,0.51114494,-0.24239837,0.18518487,0.5151729,0.7024514,0.050619483,0.23038457,0.89544106,0.4855633,0.262555,0.12818944,0.4876351,-0.19043106,0.109044865,5.031482E-4,0.08371781,808.2784,795.78754,799.81683,815.12823,979.5238,-0.1131591796875,-0.12982177734375,0.99786376953125,-8.187103271484375,-4.912261962890625,-6.998291015625,1,1.0,1.0,1.0,1.0,10.00
2024-10-11 20:20:51.554,0.7056026,0.10300763,0.45039076,0.57735807,0.51114494,-0.24239837,0.18518487,0.5151729,0.7024514,0.050619483,0.23038457,0.89544106,0.4855633,0.262555,0.12818944,0.4876351,-0.19043106,0.109044865,5.031482E-4,0.08371781,795.38464,793.36993,802.6374,813.5165,841.31866,-0.1131591796875,-0.12982177734375,0.99786376953125,-8.187103271484375,-4.912261962890625,-6.998291015625,1,1.0,1.0,1.0,1.0,10.00
2024-10-11 20:20:51.555,0.7056026,0.10300763,0.45039076,0.57735807,0.51114494,-0.24239837,0.18518487,0.5151729,0.7024514,0.050619483,0.23038457,0.89544106,0.4855633,0.262555,0.12818944,0.4876351,-0.19043106,0.109044865,5.031482E-4,0.08371781,799.011,798.60803,805.05493,816.337,719.2308,-0.1131591796875,-0.12982177734375,0.99786376953125,-8.187103271484375,-4.912261962890625,-6.998291015625,1,1.0,1.0,1.0,1.0,10.00
2024-10-11 20:20:51.556,0.7056026,0.10300763,0.45039076,0.57735807,0.51114494,-0.24239837,0.18518487,0.5151729,0.7024514,0.050619483,0.23038457,0.89544106,0.4855633,0.262555,0.12818944,0.4876351,-0.19043106,0.109044865,5.031482E-4,0.08371781,799.41394,797.3993,799.81683,811.9048,889.2674,-0.1131591796875,-0.12982177734375,0.99786376953125,-8.187103271484375,-4.912261962890625,-6.998291015625,1,1.0,1.0,1.0,1.0,10.00
2024-10-11 20:20:51.556,0.7056026,0.10300763,0.45039076,0.57735807,0.51114494,-0.24239837,0.18518487,0.5151729,0.7024514,0.050619483,0.23038457,0.89544106,0.4855633,0.262555,0.12818944,0.4876351,-0.19043106,0.109044865,5.031482E-4,0.08371781,796.1905,794.17584,795.38464,809.0842,801.02563,-0.1131591796875,-0.12982177734375,0.99786376953125,-8.187103271484375,-4.912261962890625,-6.998291015625,1,1.0,1.0,1.0,1.0,10.00
2024-10-11 20:20:51.557,0.7056026,0.10300763,0.45039076,0.57735807,0.51114494,-0.24239837,0.18518487,0.5151729,0.7024514,0.050619483,0.23038457,0.89544106,0.4855633,0.262555,0.12818944,0.4876351,-0.19043106,0.109044865,5.031482E-4,0.08371781,802.6374,800.6227,795.38464,806.6667,651.9414,-0.1131591796875,-0.12982177734375,0.99786376953125,-8.187103271484375,-4.912261962890625,-6.998291015625,1,1.0,1.0,1.0,1.0,10.00
2024-10-11 20:20:51.558,0.7056026,0.10300763,0.45039076,0.57735807,0.51114494,-0.24239837,0.18518487,0.5151729,0.7024514,0.050619483,0.23038457,0.89544106,0.4855633,0.262555,0.12818944,0.4876351,-0.19043106,0.109044865,5.031482E-4,0.08371781,797.3993,800.6227,801.02563,805.4579,709.15753,-0.1131591796875,-0.12982177734375,0.99786376953125,-8.187103271484375,-4.912261962890625,-6.998291015625,1,1.0,1.0,1.0,1.0,10.00
2024-10-11 20:20:51.559,0.7056026,0.10300763,0.45039076,0.57735807,0.51114494,-0.24239837,0.18518487,0.5151729,0.7024514,0.050619483,0.23038457,0.89544106,0.4855633,0.262555,0.12818944,0.4876351,-0.19043106,0.109044865,5.031482E-4,0.08371781,796.99634,796.5934,802.6374,807.47253,784.5055,-0.1131591796875,-0.12982177734375,0.99786376953125,-8.187103271484375,-4.912261962890625,-6.998291015625,1,1.0,1.0,1.0,1.0,10.00
2024-10-11 20:20:51.559,0.7056026,0.10300763,0.45039076,0.57735807,0.51114494,-0.24239837,0.18518487,0.5151729,0.7024514,0.050619483,0.23038457,0.89544106,0.4855633,0.262555,0.12818944,0.4876351,-0.19043106,0.109044865,5.031482E-4,0.08371781,800.6227,798.60803,805.05493,811.50183,853.8095,-0.1131591796875,-0.12982177734375,0.99786376953125,-8.187103271484375,-4.912261962890625,-6.998291015625,1,1.0,1.0,1.0,1.0,10.00
2024-10-11 20:20:51.620,0.7056026,0.10300763,0.45039076,0.57735807,0.51114494,-0.24239837,0.18518487,0.5151729,0.7024514,0.050619483,0.23038457,0.89544106,0.4855633,0.262555,0.12818944,0.4876351,-0.19043106,0.109044865,5.031482E-4,0.08371781,798.20514,791.75824,804.65204,811.9048,606.8132,-0.104248046875,-0.1351318359375,0.99066162109375,-10.250701904296875,-5.3533935546875,-3.955230712890625,1,1.0,1.0,1.0,1.0,10.00
2024-10-11 20:20:51.621,0.7056026,0.10300763,0.45039076,0.57735807,0.51114494,-0.24239837,0.18518487,0.5151729,0.7024514,0.050619483,0.23038457,0.89544106,0.4855633,0.262555,0.12818944,0.4876351,-0.19043106,0.109044865,5.031482E-4,0.08371781,793.7729,780.87915,805.05493,806.26373,469.011,-0.104248046875,-0.1351318359375,0.99066162109375,-10.250701904296875,-5.3533935546875,-3.955230712890625,1,1.0,1.0,1.0,1.0,10.00
2024-10-11 20:20:51.622,0.7056026,0.10300763,0.45039076,0.57735807,0.51114494,-0.24239837,0.18518487,0.5151729,0.7024514,0.050619483,0.23038457,0.89544106,0.4855633,0.262555,0.12818944,0.4876351,-0.19043106,0.109044865,5.031482E-4,0.08371781,802.6374,790.54944,801.02563,803.8461,774.0293,-0.104248046875,-0.1351318359375,0.99066162109375,-10.250701904296875,-5.3533935546875,-3.955230712890625,1,1.0,1.0,1.0,1.0,10.00
2024-10-11 20:20:51.623,0.7056026,0.10300763,0.45039076,0.57735807,0.51114494,-0.24239837,0.18518487,0.5151729,0.7024514,0.050619483,0.23038457,0.89544106,0.4855633,0.262555,0.12818944,0.4876351,-0.19043106,0.109044865,5.031482E-4,0.08371781,803.0403,798.20514,800.6227,801.8315,852.1978,-0.104248046875,-0.1351318359375,0.99066162109375,-10.250701904296875,-5.3533935546875,-3.955230712890625,1,1.0,1.0,1.0,1.0,10.00
2024-10-11 20:20:51.623,0.7056026,0.10300763,0.45039076,0.57735807,0.51114494,-0.24239837,0.18518487,0.5151729,0.7024514,0.050619483,0.23038457,0.89544106,0.4855633,0.262555,0.12818944,0.4876351,-0.19043106,0.109044865,5.031482E-4,0.08371781,791.75824,799.81683,804.2491,800.6227,570.14655,-0.104248046875,-0.1351318359375,0.99066162109375,-10.250701904296875,-5.3533935546875,-3.955230712890625,1,1.0,1.0,1.0,1.0,10.00
2024-10-11 20:20:51.624,0.7056026,0.10300763,0.45039076,0.57735807,0.51114494,-0.24239837,0.18518487,0.5151729,0.7024514,0.050619483,0.23038457,0.89544106,0.4855633,0.262555,0.12818944,0.4876351,-0.19043106,0.109044865,5.031482E-4,0.08371781,782.8938,797.3993,796.5934,789.7436,592.71063,-0.104248046875,-0.1351318359375,0.99066162109375,-10.250701904296875,-5.3533935546875,-3.955230712890625,1,1.0,1.0,1.0,1.0,10.00
2024-10-11 20:20:51.625,0.7056026,0.10300763,0.45039076,0.57735807,0.51114494,-0.24239837,0.18518487,0.5151729,0.7024514,0.050619483,0.23038457,0.89544106,0.4855633,0.262555,0.12818944,0.4876351,-0.19043106,0.109044865,5.031482E-4,0.08371781,788.1319,798.60803,791.75824,794.9817,957.76556,-0.104248046875,-0.1351318359375,0.99066162109375,-10.250701904296875,-5.3533935546875,-3.955230712890625,1,1.0,1.0,1.0,1.0,10.00
2024-10-11 20:20:51.625,0.7056026,0.10300763,0.45039076,0.57735807,0.51114494,-0.24239837,0.18518487,0.5151729,0.7024514,0.050619483,0.23038457,0.89544106,0.4855633,0.262555,0.12818944,0.4876351,-0.19043106,0.109044865,5.031482E-4,0.08371781,794.57874,796.5934,792.1612,807.0696,1166.0806,-0.104248046875,-0.1351318359375,0.99066162109375,-10.250701904296875,-5.3533935546875,-3.955230712890625,1,1.0,1.0,1.0,1.0,10.00
2024-10-11 20:20:51.626,0.7056026,0.10300763,0.45039076,0.57735807,0.51114494,-0.24239837,0.18518487,0.5151729,0.7024514,0.050619483,0.23038457,0.89544106,0.4855633,0.262555,0.12818944,0.4876351,-0.19043106,0.109044865,5.031482E-4,0.08371781,803.44324,798.20514,795.38464,802.6374,736.9597,-0.104248046875,-0.1351318359375,0.99066162109375,-10.250701904296875,-5.3533935546875,-3.955230712890625,1,1.0,1.0,1.0,1.0,10.00
2024-10-11 20:20:51.627,0.71650404,0.13844308,0.4886953,0.69021314,0.47893175,-0.18220495,0.22933424,0.65696937,0.69486576,0.050619483,0.24920349,0.93102497,0.4637561,0.24237695,0.12752473,0.5013747,-0.18090415,0.09888537,0.016523661,0.09212826,810.293,800.2198,799.41394,809.4872,554.0293,-0.104248046875,-0.1351318359375,0.99066162109375,-10.250701904296875,-5.3533935546875,-3.955230712890625,1,1.0,1.0,1.0,1.0,10.00
2024-10-11 20:20:51.633,0.71650404,0.13844308,0.4886953,0.69021314,0.47893175,-0.18220495,0.22933424,0.65696937,0.69486576,0.050619483,0.24920349,0.93102497,0.4637561,0.24237695,0.12752473,0.5013747,-0.18090415,0.09888537,0.016523661,0.09212826,808.68134,796.1905,798.60803,810.696,696.26373,-0.104248046875,-0.1351318359375,0.99066162109375,-10.250701904296875,-5.3533935546875,-3.955230712890625,1,1.0,1.0,1.0,1.0,10.00
2024-10-11 20:20:51.634,0.71650404,0.13844308,0.4886953,0.69021314,0.47893175,-0.18220495,0.22933424,0.65696937,0.69486576,0.050619483,0.24920349,0.93102497,0.4637561,0.24237695,0.12752473,0.5013747,-0.18090415,0.09888537,0.016523661,0.09212826,810.696,786.1172,801.4286,800.6227,682.96704,-0.104248046875,-0.1351318359375,0.99066162109375,-10.250701904296875,-5.3533935546875,-3.955230712890625,1,1.0,1.0,1.0,1.0,10.00
2024-10-11 20:20:51.659,0.71650404,0.13844308,0.4886953,0.69021314,0.47893175,-0.18220495,0.22933424,0.65696937,0.69486576,0.050619483,0.24920349,0.93102497,0.4637561,0.24237695,0.12752473,0.5013747,-0.18090415,0.09888537,0.016523661,0.09212826,809.0842,779.2674,807.8755,801.02563,701.9048,-0.1063232421875,-0.149658203125,0.98175048828125,-10.265655517578125,-2.355194091796875,-0.964508056640625,1,1.0,1.0,1.0,1.0,10.00
2024-10-11 20:20:51.660,0.71650404,0.13844308,0.4886953,0.69021314,0.47893175,-0.18220495,0.22933424,0.65696937,0.69486576,0.050619483,0.24920349,0.93102497,0.4637561,0.24237695,0.12752473,0.5013747,-0.18090415,0.09888537,0.016523661,0.09212826,801.02563,790.14655,799.81683,800.2198,685.38464,-0.1063232421875,-0.149658203125,0.98175048828125,-10.265655517578125,-2.355194091796875,-0.964508056640625,1,1.0,1.0,1.0,1.0,10.00
2024-10-11 20:20:51.661,0.71650404,0.13844308,0.4886953,0.69021314,0.47893175,-0.18220495,0.22933424,0.65696937,0.69486576,0.050619483,0.24920349,0.93102497,0.4637561,0.24237695,0.12752473,0.5013747,-0.18090415,0.09888537,0.016523661,0.09212826,796.1905,794.9817,793.7729,802.6374,821.5751,-0.1063232421875,-0.149658203125,0.98175048828125,-10.265655517578125,-2.355194091796875,-0.964508056640625,1,1.0,1.0,1.0,1.0,10.00
2024-10-11 20:20:51.661,0.71650404,0.13844308,0.4886953,0.69021314,0.47893175,-0.18220495,0.22933424,0.65696937,0.69486576,0.050619483,0.24920349,0.93102497,0.4637561,0.24237695,0.12752473,0.5013747,-0.18090415,0.09888537,0.016523661,0.09212826,807.0696,793.36993,800.6227,805.05493,815.5311,-0.1063232421875,-0.149658203125,0.98175048828125,-10.265655517578125,-2.355194091796875,-0.964508056640625,1,1.0,1.0,1.0,1.0,10.00
2024-10-11 20:20:51.662,0.71650404,0.13844308,0.4886953,0.69021314,0.47893175,-0.18220495,0.22933424,0.65696937,0.69486576,0.050619483,0.24920349,0.93102497,0.4637561,0.24237695,0.12752473,0.5013747,-0.18090415,0.09888537,0.016523661,0.09212826,808.68134,797.3993,796.99634,801.4286,681.75824,-0.1063232421875,-0.149658203125,0.98175048828125,-10.265655517578125,-2.355194091796875,-0.964508056640625,1,1.0,1.0,1.0,1.0,10.00
2024-10-11 20:20:51.663,0.71650404,0.13844308,0.4886953,0.69021314,0.47893175,-0.18220495,0.22933424,0.65696937,0.69486576,0.050619483,0.24920349,0.93102497,0.4637561,0.24237695,0.12752473,0.5013747,-0.18090415,0.09888537,0.016523661,0.09212826,803.44324,803.0403,799.81683,802.23444,876.77655,-0.1063232421875,-0.149658203125,0.98175048828125,-10.265655517578125,-2.355194091796875,-0.964508056640625,1,1.0,1.0,1.0,1.0,10.00
2024-10-11 20:20:51.663,0.71650404,0.13844308,0.4886953,0.69021314,0.47893175,-0.18220495,0.22933424,0.65696937,0.69486576,0.050619483,0.24920349,0.93102497,0.4637561,0.24237695,0.12752473,0.5013747,-0.18090415,0.09888537,0.016523661,0.09212826,808.2784,799.81683,805.05493,806.6667,1060.9158,-0.1063232421875,-0.149658203125,0.98175048828125,-10.265655517578125,-2.355194091796875,-0.964508056640625,1,1.0,1.0,1.0,1.0,10.00
2024-10-11 20:20:51.664,0.71650404,0.13844308,0.4886953,0.69021314,0.47893175,-0.18220495,0.22933424,0.65696937,0.69486576,0.050619483,0.24920349,0.93102497,0.4637561,0.24237695,0.12752473,0.5013747,-0.18090415,0.09888537,0.016523661,0.09212826,801.8315,790.14655,803.44324,801.8315,864.2857,-0.1063232421875,-0.149658203125,0.98175048828125,-10.265655517578125,-2.355194091796875,-0.964508056640625,1,1.0,1.0,1.0,1.0,10.00
2024-10-11 20:20:51.665,0.71650404,0.13844308,0.4886953,0.69021314,0.47893175,-0.18220495,0.22933424,0.65696937,0.69486576,0.050619483,0.24920349,0.93102497,0.4637561,0.24237695,0.12752473,0.5013747,-0.18090415,0.09888537,0.016523661,0.09212826,803.44324,794.9817,803.0403,801.02563,628.5714,-0.1063232421875,-0.149658203125,0.98175048828125,-10.265655517578125,-2.355194091796875,-0.964508056640625,1,1.0,1.0,1.0,1.0,10.00
2024-10-11 20:20:51.666,0.71650404,0.13844308,0.4886953,0.69021314,0.47893175,-0.18220495,0.22933424,0.65696937,0.69486576,0.050619483,0.24920349,0.93102497,0.4637561,0.24237695,0.12752473,0.5013747,-0.18090415,0.09888537,0.016523661,0.09212826,803.44324,796.1905,802.6374,808.68134,715.6044,-0.1063232421875,-0.149658203125,0.98175048828125,-10.265655517578125,-2.355194091796875,-0.964508056640625,1,1.0,1.0,1.0,1.0,10.00
2024-10-11 20:20:51.666,0.71650404,0.13844308,0.4886953,0.69021314,0.47893175,-0.18220495,0.22933424,0.65696937,0.69486576,0.050619483,0.24920349,0.93102497,0.4637561,0.24237695,0.12752473,0.5013747,-0.18090415,0.09888537,0.016523661,0.09212826,798.20514,799.011,807.0696,813.91943,914.2491,-0.1063232421875,-0.149658203125,0.98175048828125,-10.265655517578125,-2.355194091796875,-0.964508056640625,1,1.0,1.0,1.0,1.0,10.00
2024-10-11 20:20:51.667,0.71650404,0.13844308,0.4886953,0.69021314,0.47893175,-0.18220495,0.22933424,0.65696937,0.69486576,0.050619483,0.24920349,0.93102497,0.4637561,0.24237695,0.12752473,0.5013747,-0.18090415,0.09888537,0.016523661,0.09212826,799.81683,799.81683,806.26373,809.4872,703.1135,-0.1063232421875,-0.149658203125,0.98175048828125,-10.265655517578125,-2.355194091796875,-0.964508056640625,1,1.0,1.0,1.0,1.0,10.00
2024-10-11 20:20:51.693,0.71650404,0.13844308,0.4886953,0.69021314,0.47893175,-0.18220495,0.22933424,0.65696937,0.69486576,0.050619483,0.24920349,0.93102497,0.4637561,0.24237695,0.12752473,0.5013747,-0.18090415,0.09888537,0.016523661,0.09212826,796.5934,792.5641,801.02563,801.4286,579.81683,-0.1063232421875,-0.149658203125,0.98175048828125,-10.265655517578125,-2.355194091796875,-0.964508056640625,1,1.0,1.0,1.0,1.0,10.00
2024-10-11 20:20:51.694,0.71650404,0.13844308,0.4886953,0.69021314,0.47893175,-0.18220495,0.22933424,0.65696937,0.69486576,0.050619483,0.24920349,0.93102497,0.4637561,0.24237695,0.12752473,0.5013747,-0.18090415,0.09888537,0.016523661,0.09212826,796.1905,792.1612,798.20514,797.8022,643.8828,-0.1063232421875,-0.149658203125,0.98175048828125,-10.265655517578125,-2.355194091796875,-0.964508056640625,1,1.0,1.0,1.0,1.0,10.00
2024-10-11 20:20:51.695,0.71650404,0.13844308,0.4886953,0.69021314,0.47893175,-0.18220495,0.22933424,0.65696937,0.69486576,0.050619483,0.24920349,0.93102497,0.4637561,0.24237695,0.12752473,0.5013747,-0.18090415,0.09888537,0.016523661,0.09212826,797.3993,800.6227,793.7729,800.6227,636.2271,-0.1063232421875,-0.149658203125,0.98175048828125,-10.265655517578125,-2.355194091796875,-0.964508056640625,1,1.0,1.0,1.0,1.0,10.00
2024-10-11 20:20:51.695,0.71650404,0.13844308,0.4886953,0.69021314,0.47893175,-0.18220495,0.22933424,0.65696937,0.69486576,0.050619483,0.24920349,0.93102497,0.4637561,0.24237695,0.12752473,0.5013747,-0.18090415,0.09888537,0.016523661,0.09212826,807.8755,804.2491,794.9817,807.0696,732.1245,-0.1063232421875,-0.149658203125,0.98175048828125,-10.265655517578125,-2.355194091796875,-0.964508056640625,1,1.0,1.0,1.0,1.0,10.00
2024-10-11 20:20:51.696,0.71650404,0.13844308,0.4886953,0.69021314,0.47893175,-0.18220495,0.22933424,0.65696937,0.69486576,0.050619483,0.24920349,0.93102497,0.4637561,0.24237695,0.12752473,0.5013747,-0.18090415,0.09888537,0.016523661,0.09212826,814.7253,801.02563,802.23444,810.696,780.4762,-0.1063232421875,-0.149658203125,0.98175048828125,-10.265655517578125,-2.355194091796875,-0.964508056640625,1,1.0,1.0,1.0,1.0,10.00
2024-10-11 20:20:51.697,0.71650404,0.13844308,0.4886953,0.69021314,0.47893175,-0.18220495,0.22933424,0.65696937,0.69486576,0.050619483,0.24920349,0.93102497,0.4637561,0.24237695,0.12752473,0.5013747,-0.18090415,0.09888537,0.016523661,0.09212826,806.26373,791.3553,796.99634,813.1135,956.1539,-0.1063232421875,-0.149658203125,0.98175048828125,-10.265655517578125,-2.355194091796875,-0.964508056640625,1,1.0,1.0,1.0,1.0,10.00
2024-10-11 20:20:51.698,0.71650404,0.13844308,0.4886953,0.69021314,0.47893175,-0.18220495,0.22933424,0.65696937,0.69486576,0.050619483,0.24920349,0.93102497,0.4637561,0.24237695,0.12752473,0.5013747,-0.18090415,0.09888537,0.016523661,0.09212826,796.99634,790.9524,796.1905,809.4872,1016.5934,-0.1063232421875,-0.149658203125,0.98175048828125,-10.265655517578125,-2.355194091796875,-0.964508056640625,1,1.0,1.0,1.0,1.0,10.00
2024-10-11 20:20:51.698,0.71650404,0.13844308,0.4886953,0.69021314,0.47893175,-0.18220495,0.22933424,0.65696937,0.69486576,0.050619483,0.24920349,0.93102497,0.4637561,0.24237695,0.12752473,0.5013747,-0.18090415,0.09888537,0.016523661,0.09212826,794.9817,801.4286,803.0403,810.293,796.5934,-0.1063232421875,-0.149658203125,0.98175048828125,-10.265655517578125,-2.355194091796875,-0.964508056640625,1,1.0,1.0,1.0,1.0,10.00
2024-10-11 20:20:51.699,0.71650404,0.13844308,0.4886953,0.69021314,0.47893175,-0.18220495,0.22933424,0.65696937,0.69486576,0.050619483,0.24920349,0.93102497,0.4637561,0.24237695,0.12752473,0.5013747,-0.18090415,0.09888537,0.016523661,0.09212826,791.3553,798.60803,800.2198,808.2784,739.3773,-0.1063232421875,-0.149658203125,0.98175048828125,-10.265655517578125,-2.355194091796875,-0.964508056640625,1,1.0,1.0,1.0,1.0,10.00
2024-10-11 20:20:51.700,0.71650404,0.13844308,0.4886953,0.69021314,0.47893175,-0.18220495,0.22933424,0.65696937,0.69486576,0.050619483,0.24920349,0.93102497,0.4637561,0.24237695,0.12752473,0.5013747,-0.18090415,0.09888537,0.016523661,0.09212826,794.57874,792.96704,796.1905,807.0696,869.5238,-0.1063232421875,-0.149658203125,0.98175048828125,-10.265655517578125,-2.355194091796875,-0.964508056640625,1,1.0,1.0,1.0,1.0,10.00
2024-10-11 20:20:51.700,0.71650404,0.13844308,0.4886953,0.69021314,0.47893175,-0.18220495,0.22933424,0.65696937,0.69486576,0.050619483,0.24920349,0.93102497,0.4637561,0.24237695,0.12752473,0.5013747,-0.18090415,0.09888537,0.016523661,0.09212826,799.81683,795.38464,797.8022,806.26373,734.94507,-0.1063232421875,-0.149658203125,0.98175048828125,-10.265655517578125,-2.355194091796875,-0.964508056640625,1,1.0,1.0,1.0,1.0,10.00
2024-10-11 20:20:51.701,0.73559386,0.18708418,0.5161863,0.83810574,0.45641673,-0.11637914,0.2779807,0.7888046,0.6889346,0.050619483,0.26213503,0.93102497,0.43437007,0.22818026,0.12363239,0.50692505,-0.16812119,0.08644619,0.033102274,0.096946456,806.6667,793.7729,799.81683,811.9048,595.5311,-0.1063232421875,-0.149658203125,0.98175048828125,-10.265655517578125,-2.355194091796875,-0.964508056640625,1,1.0,1.0,1.0,1.0,10.00
2024-10-11 20:20:51.772,0.73559386,0.18708418,0.5161863,0.83810574,0.45641673,-0.11637914,0.2779807,0.7888046,0.6889346,0.050619483,0.26213503,0.93102497,0.43437007,0.22818026,0.12363239,0.50692505,-0.16812119,0.08644619,0.033102274,0.096946456,813.1135,795.38464,798.60803,813.91943,711.978,-0.1138916015625,-0.16143798828125,0.9888916015625,-8.007659912109375,-1.607513427734375,1.846771240234375,1,1.0,1.0,1.0,1.0,10.00
2024-10-11 20:20:51.774,0.73559386,0.18708418,0.5161863,0.83810574,0.45641673,-0.11637914,0.2779807,0.7888046,0.6889346,0.050619483,0.26213503,0.93102497,0.43437007,0.22818026,0.12363239,0.50692505,-0.16812119,0.08644619,0.033102274,0.096946456,806.6667,806.26373,802.6374,810.696,1033.1135,-0.1138916015625,-0.16143798828125,0.9888916015625,-8.007659912109375,-1.607513427734375,1.846771240234375,1,1.0,1.0,1.0,1.0,10.00
2024-10-11 20:20:51.774,0.73559386,0.18708418,0.5161863,0.83810574,0.45641673,-0.11637914,0.2779807,0.7888046,0.6889346,0.050619483,0.26213503,0.93102497,0.43437007,0.22818026,0.12363239,0.50692505,-0.16812119,0.08644619,0.033102274,0.096946456,809.89014,810.696,800.6227,813.1135,878.3883,-0.1138916015625,-0.16143798828125,0.9888916015625,-8.007659912109375,-1.607513427734375,1.846771240234375,1,1.0,1.0,1.0,1.0,10.00
2024-10-11 20:20:51.775,0.73559386,0.18708418,0.5161863,0.83810574,0.45641673,-0.11637914,0.2779807,0.7888046,0.6889346,0.050619483,0.26213503,0.93102497,0.43437007,0.22818026,0.12363239,0.50692505,-0.16812119,0.08644619,0.033102274,0.096946456,806.6667,800.2198,796.5934,806.26373,581.4286,-0.1138916015625,-0.16143798828125,0.9888916015625,-8.007659912109375,-1.607513427734375,1.846771240234375,1,1.0,1.0,1.0,1.0,10.00
2024-10-11 20:20:51.776,0.73559386,0.18708418,0.5161863,0.83810574,0.45641673,-0.11637914,0.2779807,0.7888046,0.6889346,0.050619483,0.26213503,0.93102497,0.43437007,0.22818026,0.12363239,0.50692505,-0.16812119,0.08644619,0.033102274,0.096946456,799.011,798.60803,803.44324,804.2491,790.9524,-0.1138916015625,-0.16143798828125,0.9888916015625,-8.007659912109375,-1.607513427734375,1.846771240234375,1,1.0,1.0,1.0,1.0,10.00
2024-10-11 20:20:51.776,0.73559386,0.18708418,0.5161863,0.83810574,0.45641673,-0.11637914,0.2779807,0.7888046,0.6889346,0.050619483,0.26213503,0.93102497,0.43437007,0.22818026,0.12363239,0.50692505,-0.16812119,0.08644619,0.033102274,0.096946456,801.02563,796.99634,799.81683,803.0403,935.2015,-0.1138916015625,-0.16143798828125,0.9888916015625,-8.007659912109375,-1.607513427734375,1.846771240234375,1,1.0,1.0,1.0,1.0,10.00
2024-10-11 20:20:51.777,0.73559386,0.18708418,0.5161863,0.83810574,0.45641673,-0.11637914,0.2779807,0.7888046,0.6889346,0.050619483,0.26213503,0.93102497,0.43437007,0.22818026,0.12363239,0.50692505,-0.16812119,0.08644619,0.033102274,0.096946456,801.4286,794.57874,789.34064,805.4579,885.64105,-0.1138916015625,-0.16143798828125,0.9888916015625,-8.007659912109375,-1.607513427734375,1.846771240234375,1,1.0,1.0,1.0,1.0,10.00
2024-10-11 20:20:51.778,0.73559386,0.18708418,0.5161863,0.83810574,0.45641673,-0.11637914,0.2779807,0.7888046,0.6889346,0.050619483,0.26213503,0.93102497,0.43437007,0.22818026,0.12363239,0.50692505,-0.16812119,0.08644619,0.033102274,0.096946456,802.23444,803.8461,796.1905,811.50183,815.9341,-0.1138916015625,-0.16143798828125,0.9888916015625,-8.007659912109375,-1.607513427734375,1.846771240234375,1,1.0,1.0,1.0,1.0,10.00
2024-10-11 20:20:51.779,0.73559386,0.18708418,0.5161863,0.83810574,0.45641673,-0.11637914,0.2779807,0.7888046,0.6889346,0.050619483,0.26213503,0.93102497,0.43437007,0.22818026,0.12363239,0.50692505,-0.16812119,0.08644619,0.033102274,0.096946456,800.2198,801.8315,801.4286,814.3223,899.7436,-0.1138916015625,-0.16143798828125,0.9888916015625,-8.007659912109375,-1.607513427734375,1.846771240234375,1,1.0,1.0,1.0,1.0,10.00
2024-10-11 20:20:51.779,0.73559386,0.18708418,0.5161863,0.83810574,0.45641673,-0.11637914,0.2779807,0.7888046,0.6889346,0.050619483,0.26213503,0.93102497,0.43437007,0.22818026,0.12363239,0.50692505,-0.16812119,0.08644619,0.033102274,0.096946456,801.02563,793.36993,797.8022,825.6044,1285.751,-0.1138916015625,-0.16143798828125,0.9888916015625,-8.007659912109375,-1.607513427734375,1.846771240234375,1,1.0,1.0,1.0,1.0,10.00
2024-10-11 20:20:51.780,0.73559386,0.18708418,0.5161863,0.83810574,0.45641673,-0.11637914,0.2779807,0.7888046,0.6889346,0.050619483,0.26213503,0.93102497,0.43437007,0.22818026,0.12363239,0.50692505,-0.16812119,0.08644619,0.033102274,0.096946456,804.65204,800.6227,801.8315,815.5311,1050.8425,-0.1138916015625,-0.16143798828125,0.9888916015625,-8.007659912109375,-1.607513427734375,1.846771240234375,1,1.0,1.0,1.0,1.0,10.00
2024-10-11 20:20:51.781,0.73559386,0.18708418,0.5161863,0.83810574,0.45641673,-0.11637914,0.2779807,0.7888046,0.6889346,0.050619483,0.26213503,0.93102497,0.43437007,0.22818026,0.12363239,0.50692505,-0.16812119,0.08644619,0.033102274,0.096946456,804.65204,797.8022,809.0842,797.3993,567.72894,-0.1138916015625,-0.16143798828125,0.9888916015625,-8.007659912109375,-1.607513427734375,1.846771240234375,1,1.0,1.0,1.0,1.0,10.00
2024-10-11 20:20:51.807,0.73559386,0.18708418,0.5161863,0.83810574,0.45641673,-0.11637914,0.2779807,0.7888046,0.6889346,0.050619483,0.26213503,0.93102497,0.43437007,0.22818026,0.12363239,0.50692505,-0.16812119,0.08644619,0.033102274,0.096946456,801.8315,796.99634,807.8755,802.6374,548.7912,-0.1212158203125,-0.1787109375,0.98486328125,-5.764617919921875,-2.624359130859375,1.54022216796875,1,1.0,1.0,1.0,1.0,10.00
2024-10-11 20:20:51.808,0.73559386,0.18708418,0.5161863,0.83810574,0.45641673,-0.11637914,0.2779807,0.7888046,0.6889346,0.050619483,0.26213503,0.93102497,0.43437007,0.22818026,0.12363239,0.50692505,-0.16812119,0.08644619,0.033102274,0.096946456,806.6667,804.65204,800.2198,807.8755,616.8865,-0.1212158203125,-0.1787109375,0.98486328125,-5.764617919921875,-2.624359130859375,1.54022216796875,1,1.0,1.0,1.0,1.0,10.00
2024-10-11 20:20:51.808,0.73559386,0.18708418,0.5161863,0.83810574,0.45641673,-0.11637914,0.2779807,0.7888046,0.6889346,0.050619483,0.26213503,0.93102497,0.43437007,0.22818026,0.12363239,0.50692505,-0.16812119,0.08644619,0.033102274,0.096946456,807.0696,805.4579,805.8608,805.8608,604.3956,-0.1212158203125,-0.1787109375,0.98486328125,-5.764617919921875,-2.624359130859375,1.54022216796875,1,1.0,1.0,1.0,1.0,10.00
2024-10-11 20:20:51.809,0.73559386,0.18708418,0.5161863,0.83810574,0.45641673,-0.11637914,0.2779807,0.7888046,0.6889346,0.050619483,0.26213503,0.93102497,0.43437007,0.22818026,0.12363239,0.50692505,-0.16812119,0.08644619,0.033102274,0.096946456,802.23444,803.0403,804.65204,799.41394,600.3663,-0.1212158203125,-0.1787109375,0.98486328125,-5.764617919921875,-2.624359130859375,1.54022216796875,1,1.0,1.0,1.0,1.0,10.00
2024-10-11 20:20:51.810,0.73559386,0.18708418,0.5161863,0.83810574,0.45641673,-0.11637914,0.2779807,0.7888046,0.6889346,0.050619483,0.26213503,0.93102497,0.43437007,0.22818026,0.12363239,0.50692505,-0.16812119,0.08644619,0.033102274,0.096946456,802.23444,796.5934,801.8315,800.6227,716.0073,-0.1212158203125,-0.1787109375,0.98486328125,-5.764617919921875,-2.624359130859375,1.54022216796875,1,1.0,1.0,1.0,1.0,10.00
2024-10-11 20:20:51.810,0.73559386,0.18708418,0.5161863,0.83810574,0.45641673,-0.11637914,0.2779807,0.7888046,0.6889346,0.050619483,0.26213503,0.93102497,0.43437007,0.22818026,0.12363239,0.50692505,-0.16812119,0.08644619,0.033102274,0.096946456,801.02563,797.3993,796.99634,805.4579,851.79486,-0.1212158203125,-0.1787109375,0.98486328125,-5.764617919921875,-2.624359130859375,1.54022216796875,1,1.0,1.0,1.0,1.0,10.00
2024-10-11 20:20:51.811,0.73559386,0.18708418,0.5161863,0.83810574,0.45641673,-0.11637914,0.2779807,0.7888046,0.6889346,0.050619483,0.26213503,0.93102497,0.43437007,0.22818026,0.12363239,0.50692505,-0.16812119,0.08644619,0.033102274,0.096946456,799.41394,791.75824,799.81683,807.8755,773.22345,-0.1212158203125,-0.1787109375,0.98486328125,-5.764617919921875,-2.624359130859375,1.54022216796875,1,1.0,1.0,1.0,1.0,10.00
2024-10-11 20:20:51.812,0.73559386,0.18708418,0.5161863,0.83810574,0.45641673,-0.11637914,0.2779807,0.7888046,0.6889346,0.050619483,0.26213503,0.93102497,0.43437007,0.22818026,0.12363239,0.50692505,-0.16812119,0.08644619,0.033102274,0.096946456,797.3993,786.9231,799.81683,803.44324,637.4359,-0.1212158203125,-0.1787109375,0.98486328125,-5.764617919921875,-2.624359130859375,1.54022216796875,1,1.0,1.0,1.0,1.0,10.00
2024-10-11 20:20:51.812,0.73559386,0.18708418,0.5161863,0.83810574,0.45641673,-0.11637914,0.2779807,0.7888046,0.6889346,0.050619483,0.26213503,0.93102497,0.43437007,0.22818026,0.12363239,0.50692505,-0.16812119,0.08644619,0.033102274,0.096946456,797.8022,786.9231,796.5934,804.2491,850.58606,-0.1212158203125,-0.1787109375,0.98486328125,-5.764617919921875,-2.624359130859375,1.54022216796875,1,1.0,1.0,1.0,1.0,10.00
2024-10-11 20:20:51.813,0.73559386,0.18708418,0.5161863,0.83810574,0.45641673,-0.11637914,0.2779807,0.7888046,0.6889346,0.050619483,0.26213503,0.93102497,0.43437007,0.22818026,0.12363239,0.50692505,-0.16812119,0.08644619,0.033102274,0.096946456,802.6374,789.34064,799.011,811.0989,880.0,-0.1212158203125,-0.1787109375,0.98486328125,-5.764617919921875,-2.624359130859375,1.54022216796875,1,1.0,1.0,1.0,1.0,10.00
2024-10-11 20:20:51.814,0.73559386,0.18708418,0.5161863,0.83810574,0.45641673,-0.11637914,0.2779807,0.7888046,0.6889346,0.050619483,0.26213503,0.93102497,0.43437007,0.22818026,0.12363239,0.50692505,-0.16812119,0.08644619,0.033102274,0.096946456,805.8608,798.60803,799.011,805.4579,729.707,-0.1212158203125,-0.1787109375,0.98486328125,-5.764617919921875,-2.624359130859375,1.54022216796875,1,1.0,1.0,1.0,1.0,10.00
2024-10-11 20:20:51.815,0.73559386,0.18708418,0.5161863,0.83810574,0.45641673,-0.11637914,0.2779807,0.7888046,0.6889346,0.050619483,0.26213503,0.93102497,0.43437007,0.22818026,0.12363239,0.50692505,-0.16812119,0.08644619,0.033102274,0.096946456,809.4872,801.02563,802.23444,804.65204,798.60803,-0.1212158203125,-0.1787109375,0.98486328125,-5.764617919921875,-2.624359130859375,1.54022216796875,1,1.0,1.0,1.0,1.0,10.00
2024-10-11 20:20:51.872,0.73559386,0.18708418,0.5161863,0.83810574,0.45641673,-0.11637914,0.2779807,0.7888046,0.6889346,0.050619483,0.26213503,0.93102497,0.43437007,0.22818026,0.12363239,0.50692505,-0.16812119,0.08644619,0.033102274,0.096946456,817.5458,796.5934,804.2491,818.7546,1031.5018,-0.119873046875,-0.18170166015625,0.98077392578125,-4.02252197265625,-3.237457275390625,-1.375732421875,1,1.0,1.0,1.0,1.0,10.00
2024-10-11 20:20:51.873,0.7641315,0.23305681,0.53037405,0.8599204,0.44605523,-0.06370157,0.31995007,0.80916315,0.68423766,0.050619483,0.2756139,0.93102497,0.4088656,0.22525102,0.11956195,0.5208592,-0.15725596,0.0698773,0.044175416,0.10301553,807.0696,801.4286,805.05493,818.3516,1015.38464,-0.119873046875,-0.18170166015625,0.98077392578125,-4.02252197265625,-3.237457275390625,-1.375732421875,1,1.0,1.0,1.0,1.0,10.00
2024-10-11 20:20:51.879,0.7641315,0.23305681,0.53037405,0.8599204,0.44605523,-0.06370157,0.31995007,0.80916315,0.68423766,0.050619483,0.2756139,0.93102497,0.4088656,0.22525102,0.11956195,0.5208592,-0.15725596,0.0698773,0.044175416,0.10301553,799.81683,802.6374,794.9817,805.05493,805.8608,-0.119873046875,-0.18170166015625,0.98077392578125,-4.02252197265625,-3.237457275390625,-1.375732421875,1,1.0,1.0,1.0,1.0,10.00
2024-10-11 20:20:51.880,0.7641315,0.23305681,0.53037405,0.8599204,0.44605523,-0.06370157,0.31995007,0.80916315,0.68423766,0.050619483,0.2756139,0.93102497,0.4088656,0.22525102,0.11956195,0.5208592,-0.15725596,0.0698773,0.044175416,0.10301553,809.4872,800.6227,788.93774,803.8461,695.05493,-0.119873046875,-0.18170166015625,0.98077392578125,-4.02252197265625,-3.237457275390625,-1.375732421875,1,1.0,1.0,1.0,1.0,10.00
2024-10-11 20:20:51.881,0.7641315,0.23305681,0.53037405,0.8599204,0.44605523,-0.06370157,0.31995007,0.80916315,0.68423766,0.050619483,0.2756139,0.93102497,0.4088656,0.22525102,0.11956195,0.5208592,-0.15725596,0.0698773,0.044175416,0.10301553,803.0403,796.5934,797.8022,810.696,687.8022,-0.119873046875,-0.18170166015625,0.98077392578125,-4.02252197265625,-3.237457275390625,-1.375732421875,1,1.0,1.0,1.0,1.0,10.00
2024-10-11 20:20:51.881,0.7641315,0.23305681,0.53037405,0.8599204,0.44605523,-0.06370157,0.31995007,0.80916315,0.68423766,0.050619483,0.2756139,0.93102497,0.4088656,0.22525102,0.11956195,0.5208592,-0.15725596,0.0698773,0.044175416,0.10301553,799.41394,793.36993,796.1905,810.696,866.7033,-0.119873046875,-0.18170166015625,0.98077392578125,-4.02252197265625,-3.237457275390625,-1.375732421875,1,1.0,1.0,1.0,1.0,10.00
2024-10-11 20:20:51.882,0.7641315,0.23305681,0.53037405,0.8599204,0.44605523,-0.06370157,0.31995007,0.80916315,0.68423766,0.050619483,0.2756139,0.93102497,0.4088656,0.22525102,0.11956195,0.5208592,-0.15725596,0.0698773,0.044175416,0.10301553,803.44324,794.17584,794.9817,811.9048,843.3333,-0.119873046875,-0.18170166015625,0.98077392578125,-4.02252197265625,-3.237457275390625,-1.375732421875,1,1.0,1.0,1.0,1.0,10.00
2024-10-11 20:20:51.883,0.7641315,0.23305681,0.53037405,0.8599204,0.44605523,-0.06370157,0.31995007,0.80916315,0.68423766,0.050619483,0.2756139,0.93102497,0.4088656,0.22525102,0.11956195,0.5208592,-0.15725596,0.0698773,0.044175416,0.10301553,805.8608,790.14655,797.3993,813.5165,730.9158,-0.119873046875,-0.18170166015625,0.98077392578125,-4.02252197265625,-3.237457275390625,-1.375732421875,1,1.0,1.0,1.0,1.0,10.00
2024-10-11 20:20:51.883,0.7641315,0.23305681,0.53037405,0.8599204,0.44605523,-0.06370157,0.31995007,0.80916315,0.68423766,0.050619483,0.2756139,0.93102497,0.4088656,0.22525102,0.11956195,0.5208592,-0.15725596,0.0698773,0.044175416,0.10301553,806.26373,792.1612,796.99634,808.68134,855.42126,-0.119873046875,-0.18170166015625,0.98077392578125,-4.02252197265625,-3.237457275390625,-1.375732421875,1,1.0,1.0,1.0,1.0,10.00
2024-10-11 20:20:51.884,0.7641315,0.23305681,0.53037405,0.8599204,0.44605523,-0.06370157,0.31995007,0.80916315,0.68423766,0.050619483,0.2756139,0.93102497,0.4088656,0.22525102,0.11956195,0.5208592,-0.15725596,0.0698773,0.044175416,0.10301553,799.81683,796.1905,805.8608,805.4579,727.6923,-0.119873046875,-0.18170166015625,0.98077392578125,-4.02252197265625,-3.237457275390625,-1.375732421875,1,1.0,1.0,1.0,1.0,10.00
2024-10-11 20:20:51.885,0.7641315,0.23305681,0.53037405,0.8599204,0.44605523,-0.06370157,0.31995007,0.80916315,0.68423766,0.050619483,0.2756139,0.93102497,0.4088656,0.22525102,0.11956195,0.5208592,-0.15725596,0.0698773,0.044175416,0.10301553,803.44324,796.99634,810.293,816.7399,662.01465,-0.119873046875,-0.18170166015625,0.98077392578125,-4.02252197265625,-3.237457275390625,-1.375732421875,1,1.0,1.0,1.0,1.0,10.00
2024-10-11 20:20:51.885,0.7641315,0.23305681,0.53037405,0.8599204,0.44605523,-0.06370157,0.31995007,0.80916315,0.68423766,0.050619483,0.2756139,0.93102497,0.4088656,0.22525102,0.11956195,0.5208592,-0.15725596,0.0698773,0.044175416,0.10301553,803.8461,792.1612,803.44324,813.1135,885.64105,-0.119873046875,-0.18170166015625,0.98077392578125,-4.02252197265625,-3.237457275390625,-1.375732421875,1,1.0,1.0,1.0,1.0,10.00
2024-10-11 20:20:51.886,0.7641315,0.23305681,0.53037405,0.8599204,0.44605523,-0.06370157,0.31995007,0.80916315,0.68423766,0.050619483,0.2756139,0.93102497,0.4088656,0.22525102,0.11956195,0.5208592,-0.15725596,0.0698773,0.044175416,0.10301553,805.8608,807.8755,791.75824,805.05493,1033.9194,-0.110595703125,-0.18157958984375,0.98297119140625,-2.519683837890625,-2.818756103515625,-3.775787353515625,1,1.0,1.0,1.0,1.0,10.00
2024-10-11 20:20:51.887,0.7641315,0.23305681,0.53037405,0.8599204,0.44605523,-0.06370157,0.31995007,0.80916315,0.68423766,0.050619483,0.2756139,0.93102497,0.4088656,0.22525102,0.11956195,0.5208592,-0.15725596,0.0698773,0.044175416,0.10301553,811.0989,816.7399,792.96704,799.41394,700.293,-0.110595703125,-0.18157958984375,0.98297119140625,-2.519683837890625,-2.818756103515625,-3.775787353515625,1,1.0,1.0,1.0,1.0,10.00
2024-10-11 20:20:51.888,0.7641315,0.23305681,0.53037405,0.8599204,0.44605523,-0.06370157,0.31995007,0.80916315,0.68423766,0.050619483,0.2756139,0.93102497,0.4088656,0.22525102,0.11956195,0.5208592,-0.15725596,0.0698773,0.044175416,0.10301553,800.2198,796.5934,796.99634,795.78754,655.9707,-0.110595703125,-0.18157958984375,0.98297119140625,-2.519683837890625,-2.818756103515625,-3.775787353515625,1,1.0,1.0,1.0,1.0,10.00
2024-10-11 20:20:51.889,0.7641315,0.23305681,0.53037405,0.8599204,0.44605523,-0.06370157,0.31995007,0.80916315,0.68423766,0.050619483,0.2756139,0.93102497,0.4088656,0.22525102,0.11956195,0.5208592,-0.15725596,0.0698773,0.044175416,0.10301553,791.3553,794.9817,799.41394,797.3993,889.67035,-0.110595703125,-0.18157958984375,0.98297119140625,-2.519683837890625,-2.818756103515625,-3.775787353515625,1,1.0,1.0,1.0,1.0,10.00
2024-10-11 20:20:51.889,0.7641315,0.23305681,0.53037405,0.8599204,0.44605523,-0.06370157,0.31995007,0.80916315,0.68423766,0.050619483,0.2756139,0.93102497,0.4088656,0.22525102,0.11956195,0.5208592,-0.15725596,0.0698773,0.044175416,0.10301553,796.5934,796.99634,800.2198,797.8022,804.65204,-0.110595703125,-0.18157958984375,0.98297119140625,-2.519683837890625,-2.818756103515625,-3.775787353515625,1,1.0,1.0,1.0,1.0,10.00
2024-10-11 20:20:51.890,0.7641315,0.23305681,0.53037405,0.8599204,0.44605523,-0.06370157,0.31995007,0.80916315,0.68423766,0.050619483,0.2756139,0.93102497,0.4088656,0.22525102,0.11956195,0.5208592,-0.15725596,0.0698773,0.044175416,0.10301553,791.3553,791.3553,794.9817,797.3993,716.8132,-0.110595703125,-0.18157958984375,0.98297119140625,-2.519683837890625,-2.818756103515625,-3.775787353515625,1,1.0,1.0,1.0,1.0,10.00
2024-10-11 20:20:51.891,0.7641315,0.23305681,0.53037405,0.8599204,0.44605523,-0.06370157,0.31995007,0.80916315,0.68423766,0.050619483,0.2756139,0.93102497,0.4088656,0.22525102,0.11956195,0.5208592,-0.15725596,0.0698773,0.044175416,0.10301553,799.41394,797.8022,803.8461,805.05493,752.27106,-0.110595703125,-0.18157958984375,0.98297119140625,-2.519683837890625,-2.818756103515625,-3.775787353515625,1,1.0,1.0,1.0,1.0,10.00
