TimeStamp,Delta_TP9,Delta_AF7,Delta_AF8,Delta_TP10,Theta_TP9,Theta_AF7,Theta_AF8,Theta_TP10,Alpha_TP9,Alpha_AF7,Alpha_AF8,Alpha_TP10,Beta_TP9,Beta_AF7,Beta_AF8,Beta_TP10,Gamma_TP9,Gamma_AF7,Gamma_AF8,Gamma_TP10,RAW_TP9,RAW_AF7,RAW_AF8,RAW_TP10,AUX_RIGHT,Accelerometer_X,Accelerometer_Y,Accelerometer_Z,Gyro_X,Gyro_Y,Gyro_Z,HeadBandOn,HSI_TP9,HSI_AF7,HSI_AF8,HSI_TP10,Battery,Elements
2024-10-11 20:14:29.684,1.6268902,0.9090822,1.1467031,0.5219378,1.2892429,0.6812643,0.77968943,0.5880554,1.1616433,0.63467586,0.66440976,0.3928283,1.5324174,0.027164124,0.06277437,0.49618065,1.3445399,-0.13653187,-0.28330445,-0.007752937,792.5641,786.52014,797.8022,806.6667,583.8461,0.06744384765625,0.106689453125,0.99652099609375,0.95703125,-1.9439697265625,-1.936492919921875,1,2.0,1.0,1.0,2.0,10.00
2024-10-11 20:14:29.685,1.6268902,0.9090822,1.1467031,0.5219378,1.2892429,0.6812643,0.77968943,0.5880554,1.1616433,0.63467586,0.66440976,0.3928283,1.5324174,0.027164124,0.06277437,0.49618065,1.3445399,-0.13653187,-0.28330445,-0.007752937,797.3993,791.3553,803.0403,817.1429,803.44324,0.06744384765625,0.106689453125,0.99652099609375,0.95703125,-1.9439697265625,-1.936492919921875,1,2.0,1.0,1.0,2.0,10.00
2024-10-11 20:14:29.686,1.6268902,0.9090822,1.1467031,0.5219378,1.2892429,0.6812643,0.77968943,0.5880554,1.1616433,0.63467586,0.66440976,0.3928283,1.5324174,0.027164124,0.06277437,0.49618065,1.3445399,-0.13653187,-0.28330445,-0.007752937,790.14655,791.75824,808.68134,816.7399,865.89746,0.06744384765625,0.106689453125,0.99652099609375,0.95703125,-1.9439697265625,-1.936492919921875,1,2.0,1.0,1.0,2.0,10.00
2024-10-11 20:14:29.686,1.6268902,0.9090822,1.1467031,0.5219378,1.2892429,0.6812643,0.77968943,0.5880554,1.1616433,0.63467586,0.66440976,0.3928283,1.5324174,0.027164124,0.06277437,0.49618065,1.3445399,-0.13653187,-0.28330445,-0.007752937,800.2198,792.1612,807.8755,809.4872,631.79486,0.06744384765625,0.106689453125,0.99652099609375,0.95703125,-1.9439697265625,-1.936492919921875,1,2.0,1.0,1.0,2.0,10.00
2024-10-11 20:14:29.687,1.6268902,0.9090822,1.1467031,0.5219378,1.2892429,0.6812643,0.77968943,0.5880554,1.1616433,0.63467586,0.66440976,0.3928283,1.5324174,0.027164124,0.06277437,0.49618065,1.3445399,-0.13653187,-0.28330445,-0.007752937,800.6227,791.75824,808.2784,806.26373,391.24542,0.06744384765625,0.106689453125,0.99652099609375,0.95703125,-1.9439697265625,-1.936492919921875,1,2.0,1.0,1.0,2.0,10.00
2024-10-11 20:14:29.687,1.6268902,0.9090822,1.1467031,0.5219378,1.2892429,0.6812643,0.77968943,0.5880554,1.1616433,0.63467586,0.66440976,0.3928283,1.5324174,0.027164124,0.06277437,0.49618065,1.3445399,-0.13653187,-0.28330445,-0.007752937,793.7729,790.9524,803.8461,809.0842,684.57874,0.06744384765625,0.106689453125,0.99652099609375,0.95703125,-1.9439697265625,-1.936492919921875,1,2.0,1.0,1.0,2.0,10.00
2024-10-11 20:14:29.688,1.6268902,0.9090822,1.1467031,0.5219378,1.2892429,0.6812643,0.77968943,0.5880554,1.1616433,0.63467586,0.66440976,0.3928283,1.5324174,0.027164124,0.06277437,0.49618065,1.3445399,-0.13653187,-0.28330445,-0.007752937,794.57874,788.1319,797.3993,818.3516,1247.8755,0.06744384765625,0.106689453125,0.99652099609375,0.95703125,-1.9439697265625,-1.936492919921875,1,2.0,1.0,1.0,2.0,10.00
2024-10-11 20:14:29.688,1.6268902,0.9090822,1.1467031,0.5219378,1.2892429,0.6812643,0.77968943,0.5880554,1.1616433,0.63467586,0.66440976,0.3928283,1.5324174,0.027164124,0.06277437,0.49618065,1.3445399,-0.13653187,-0.28330445,-0.007752937,791.3553,788.93774,799.011,810.696,996.4469,0.06744384765625,0.106689453125,0.99652099609375,0.95703125,-1.9439697265625,-1.936492919921875,1,2.0,1.0,1.0,2.0,10.00
2024-10-11 20:14:29.689,1.6268902,0.9090822,1.1467031,0.5219378,1.2892429,0.6812643,0.77968943,0.5880554,1.1616433,0.63467586,0.66440976,0.3928283,1.5324174,0.027164124,0.06277437,0.49618065,1.3445399,-0.13653187,-0.28330445,-0.007752937,796.99634,800.2198,803.8461,800.6227,527.03296,0.06744384765625,0.106689453125,0.99652099609375,0.95703125,-1.9439697265625,-1.936492919921875,1,2.0,1.0,1.0,2.0,10.00
2024-10-11 20:14:29.690,1.6268902,0.9090822,1.1467031,0.5219378,1.2892429,0.6812643,0.77968943,0.5880554,1.1616433,0.63467586,0.66440976,0.3928283,1.5324174,0.027164124,0.06277437,0.49618065,1.3445399,-0.13653187,-0.28330445,-0.007752937,815.5311,803.0403,804.2491,808.2784,630.18317,0.06744384765625,0.106689453125,0.99652099609375,0.95703125,-1.9439697265625,-1.936492919921875,1,2.0,1.0,1.0,2.0,10.00
2024-10-11 20:14:29.690,1.6268902,0.9090822,1.1467031,0.5219378,1.2892429,0.6812643,0.77968943,0.5880554,1.1616433,0.63467586,0.66440976,0.3928283,1.5324174,0.027164124,0.06277437,0.49618065,1.3445399,-0.13653187,-0.28330445,-0.007752937,820.7692,805.4579,806.26373,811.9048,752.674,0.06744384765625,0.106689453125,0.99652099609375,0.95703125,-1.9439697265625,-1.936492919921875,1,2.0,1.0,1.0,2.0,10.00
2024-10-11 20:14:29.691,1.6268902,0.89762783,1.162686,0.5219378,1.2892429,0.66664314,0.763292,0.5880554,1.1616433,0.63467586,0.67729926,0.3928283,1.5324174,0.0067666876,0.09822283,0.49618065,1.3445399,-0.14109151,-0.28488904,-0.007752937,817.9487,805.4579,807.0696,805.4579,612.4542,0.06744384765625,0.106689453125,0.99652099609375,0.95703125,-1.9439697265625,-1.936492919921875,1,2.0,1.0,1.0,2.0,10.00
2024-10-11 20:14:29.747,1.6268902,0.89762783,1.162686,0.5219378,1.2892429,0.66664314,0.763292,0.5880554,1.1616433,0.63467586,0.67729926,0.3928283,1.5324174,0.0067666876,0.09822283,0.49618065,1.3445399,-0.14109151,-0.28488904,-0.007752937,808.68134,800.6227,801.02563,799.81683,534.2857,0.06927490234375,0.10888671875,0.9984130859375,0.007476806640625,-2.213134765625,-3.24493408203125,1,2.0,1.0,1.0,2.0,10.00
2024-10-11 20:14:29.748,1.6268902,0.89762783,1.162686,0.5219378,1.2892429,0.66664314,0.763292,0.5880554,1.1616433,0.63467586,0.67729926,0.3928283,1.5324174,0.0067666876,0.09822283,0.49618065,1.3445399,-0.14109151,-0.28488904,-0.007752937,805.4579,802.23444,803.0403,803.0403,836.08057,0.06927490234375,0.10888671875,0.9984130859375,0.007476806640625,-2.213134765625,-3.24493408203125,1,2.0,1.0,1.0,2.0,10.00
2024-10-11 20:14:29.749,1.6268902,0.89762783,1.162686,0.5219378,1.2892429,0.66664314,0.763292,0.5880554,1.1616433,0.63467586,0.67729926,0.3928283,1.5324174,0.0067666876,0.09822283,0.49618065,1.3445399,-0.14109151,-0.28488904,-0.007752937,811.9048,804.2491,803.8461,809.89014,898.93774,0.06927490234375,0.10888671875,0.9984130859375,0.007476806640625,-2.213134765625,-3.24493408203125,1,2.0,1.0,1.0,2.0,10.00
2024-10-11 20:14:29.749,1.6268902,0.89762783,1.162686,0.5219378,1.2892429,0.66664314,0.763292,0.5880554,1.1616433,0.63467586,0.67729926,0.3928283,1.5324174,0.0067666876,0.09822283,0.49618065,1.3445399,-0.14109151,-0.28488904,-0.007752937,805.8608,797.3993,800.2198,812.3077,680.9524,0.06927490234375,0.10888671875,0.9984130859375,0.007476806640625,-2.213134765625,-3.24493408203125,1,2.0,1.0,1.0,2.0,10.00
2024-10-11 20:14:29.750,1.6268902,0.89762783,1.162686,0.5219378,1.2892429,0.66664314,0.763292,0.5880554,1.1616433,0.63467586,0.67729926,0.3928283,1.5324174,0.0067666876,0.09822283,0.49618065,1.3445399,-0.14109151,-0.28488904,-0.007752937,800.6227,797.8022,803.0403,809.0842,610.4396,0.06927490234375,0.10888671875,0.9984130859375,0.007476806640625,-2.213134765625,-3.24493408203125,1,2.0,1.0,1.0,2.0,10.00
2024-10-11 20:14:29.750,1.6268902,0.89762783,1.162686,0.5219378,1.2892429,0.66664314,0.763292,0.5880554,1.1616433,0.63467586,0.67729926,0.3928283,1.5324174,0.0067666876,0.09822283,0.49618065,1.3445399,-0.14109151,-0.28488904,-0.007752937,802.23444,797.3993,801.8315,809.4872,781.28204,0.06927490234375,0.10888671875,0.9984130859375,0.007476806640625,-2.213134765625,-3.24493408203125,1,2.0,1.0,1.0,2.0,10.00
2024-10-11 20:14:29.751,1.6268902,0.89762783,1.162686,0.5219378,1.2892429,0.66664314,0.763292,0.5880554,1.1616433,0.63467586,0.67729926,0.3928283,1.5324174,0.0067666876,0.09822283,0.49618065,1.3445399,-0.14109151,-0.28488904,-0.007752937,799.41394,795.78754,801.4286,814.3223,896.52014,0.06927490234375,0.10888671875,0.9984130859375,0.007476806640625,-2.213134765625,-3.24493408203125,1,2.0,1.0,1.0,2.0,10.00
2024-10-11 20:14:29.752,1.6268902,0.89762783,1.162686,0.5219378,1.2892429,0.66664314,0.763292,0.5880554,1.1616433,0.63467586,0.67729926,0.3928283,1.5324174,0.0067666876,0.09822283,0.49618065,1.3445399,-0.14109151,-0.28488904,-0.007752937,806.26373,802.23444,807.0696,809.89014,719.6337,0.06927490234375,0.10888671875,0.9984130859375,0.007476806640625,-2.213134765625,-3.24493408203125,1,2.0,1.0,1.0,2.0,10.00
2024-10-11 20:14:29.752,1.6268902,0.89762783,1.162686,0.5219378,1.2892429,0.66664314,0.763292,0.5880554,1.1616433,0.63467586,0.67729926,0.3928283,1.5324174,0.0067666876,0.09822283,0.49618065,1.3445399,-0.14109151,-0.28488904,-0.007752937,813.1135,799.011,807.0696,803.0403,565.7143,0.06927490234375,0.10888671875,0.9984130859375,0.007476806640625,-2.213134765625,-3.24493408203125,1,2.0,1.0,1.0,2.0,10.00
2024-10-11 20:14:29.753,1.6268902,0.89762783,1.162686,0.5219378,1.2892429,0.66664314,0.763292,0.5880554,1.1616433,0.63467586,0.67729926,0.3928283,1.5324174,0.0067666876,0.09822283,0.49618065,1.3445399,-0.14109151,-0.28488904,-0.007752937,803.0403,795.38464,803.8461,814.3223,901.3553,0.06927490234375,0.10888671875,0.9984130859375,0.007476806640625,-2.213134765625,-3.24493408203125,1,2.0,1.0,1.0,2.0,10.00
2024-10-11 20:14:29.753,1.6268902,0.89762783,1.162686,0.5219378,1.2892429,0.66664314,0.763292,0.5880554,1.1616433,0.63467586,0.67729926,0.3928283,1.5324174,0.0067666876,0.09822283,0.49618065,1.3445399,-0.14109151,-0.28488904,-0.007752937,795.78754,797.8022,804.2491,815.12823,1047.619,0.06927490234375,0.10888671875,0.9984130859375,0.007476806640625,-2.213134765625,-3.24493408203125,1,2.0,1.0,1.0,2.0,10.00
2024-10-11 20:14:29.754,1.6268902,0.89762783,1.162686,0.5219378,1.2892429,0.66664314,0.763292,0.5880554,1.1616433,0.63467586,0.67729926,0.3928283,1.5324174,0.0067666876,0.09822283,0.49618065,1.3445399,-0.14109151,-0.28488904,-0.007752937,790.9524,794.17584,808.68134,806.26373,721.6484,0.06927490234375,0.10888671875,0.9984130859375,0.007476806640625,-2.213134765625,-3.24493408203125,1,2.0,1.0,1.0,2.0,10.00
2024-10-11 20:14:29.755,1.6268902,0.89762783,1.162686,0.5219378,1.2892429,0.66664314,0.763292,0.5880554,1.1616433,0.63467586,0.67729926,0.3928283,1.5324174,0.0067666876,0.09822283,0.49618065,1.3445399,-0.14109151,-0.28488904,-0.007752937,798.20514,792.5641,809.4872,808.68134,661.6117,0.06927490234375,0.10888671875,0.9984130859375,0.007476806640625,-2.213134765625,-3.24493408203125,1,2.0,1.0,1.0,2.0,10.00
2024-10-11 20:14:29.755,1.6268902,0.89762783,1.162686,0.5219378,1.2892429,0.66664314,0.763292,0.5880554,1.1616433,0.63467586,0.67729926,0.3928283,1.5324174,0.0067666876,0.09822283,0.49618065,1.3445399,-0.14109151,-0.28488904,-0.007752937,809.4872,798.20514,805.8608,802.6374,611.6484,0.06927490234375,0.10888671875,0.9984130859375,0.007476806640625,-2.213134765625,-3.24493408203125,1,2.0,1.0,1.0,2.0,10.00
2024-10-11 20:14:29.756,1.6268902,0.89762783,1.162686,0.5219378,1.2892429,0.66664314,0.763292,0.5880554,1.1616433,0.63467586,0.67729926,0.3928283,1.5324174,0.0067666876,0.09822283,0.49618065,1.3445399,-0.14109151,-0.28488904,-0.007752937,807.0696,799.41394,803.44324,801.4286,655.56775,0.06927490234375,0.10888671875,0.9984130859375,0.007476806640625,-2.213134765625,-3.24493408203125,1,2.0,1.0,1.0,2.0,10.00
2024-10-11 20:14:29.756,1.6268902,0.89762783,1.162686,0.5219378,1.2892429,0.66664314,0.763292,0.5880554,1.1616433,0.63467586,0.67729926,0.3928283,1.5324174,0.0067666876,0.09822283,0.49618065,1.3445399,-0.14109151,-0.28488904,-0.007752937,811.50183,799.41394,803.0403,809.89014,784.5055,0.06927490234375,0.10888671875,0.9984130859375,0.007476806640625,-2.213134765625,-3.24493408203125,1,2.0,1.0,1.0,2.0,10.00
2024-10-11 20:14:29.757,1.6268902,0.89762783,1.162686,0.5219378,1.2892429,0.66664314,0.763292,0.5880554,1.1616433,0.63467586,0.67729926,0.3928283,1.5324174,0.0067666876,0.09822283,0.49618065,1.3445399,-0.14109151,-0.28488904,-0.007752937,803.8461,799.011,802.6374,806.26373,895.31134,0.06927490234375,0.10888671875,0.9984130859375,0.007476806640625,-2.213134765625,-3.24493408203125,1,2.0,1.0,1.0,2.0,10.00
2024-10-11 20:14:29.758,1.6268902,0.89762783,1.162686,0.5219378,1.2892429,0.66664314,0.763292,0.5880554,1.1616433,0.63467586,0.67729926,0.3928283,1.5324174,0.0067666876,0.09822283,0.49618065,1.3445399,-0.14109151,-0.28488904,-0.007752937,790.14655,796.99634,804.65204,799.81683,1029.4872,0.06927490234375,0.10888671875,0.9984130859375,0.007476806640625,-2.213134765625,-3.24493408203125,1,2.0,1.0,1.0,2.0,10.00
2024-10-11 20:14:29.758,1.6268902,0.89762783,1.162686,0.5219378,1.2892429,0.66664314,0.763292,0.5880554,1.1616433,0.63467586,0.67729926,0.3928283,1.5324174,0.0067666876,0.09822283,0.49618065,1.3445399,-0.14109151,-0.28488904,-0.007752937,805.05493,796.5934,807.0696,804.2491,913.8461,0.06927490234375,0.10888671875,0.9984130859375,0.007476806640625,-2.213134765625,-3.24493408203125,1,2.0,1.0,1.0,2.0,10.00
2024-10-11 20:14:29.759,1.6268902,0.89762783,1.162686,0.5219378,1.2892429,0.66664314,0.763292,0.5880554,1.1616433,0.63467586,0.67729926,0.3928283,1.5324174,0.0067666876,0.09822283,0.49618065,1.3445399,-0.14109151,-0.28488904,-0.007752937,813.1135,800.6227,801.8315,805.4579,808.2784,0.06927490234375,0.10888671875,0.9984130859375,0.007476806640625,-2.213134765625,-3.24493408203125,1,2.0,1.0,1.0,2.0,10.00
2024-10-11 20:14:29.760,1.6268902,0.89762783,1.162686,0.5219378,1.2892429,0.66664314,0.763292,0.5880554,1.1616433,0.63467586,0.67729926,0.3928283,1.5324174,0.0067666876,0.09822283,0.49618065,1.3445399,-0.14109151,-0.28488904,-0.007752937,815.12823,797.8022,802.23444,807.8755,966.2271,0.06927490234375,0.10888671875,0.9984130859375,0.007476806640625,-2.213134765625,-3.24493408203125,1,2.0,1.0,1.0,2.0,10.00
2024-10-11 20:14:29.760,1.6268902,0.89762783,1.162686,0.5219378,1.2892429,0.66664314,0.763292,0.5880554,1.1616433,0.63467586,0.67729926,0.3928283,1.5324174,0.0067666876,0.09822283,0.49618065,1.3445399,-0.14109151,-0.28488904,-0.007752937,817.9487,796.99634,800.6227,803.8461,967.4359,0.06927490234375,0.10888671875,0.9984130859375,0.007476806640625,-2.213134765625,-3.24493408203125,1,2.0,1.0,1.0,2.0,10.00
2024-10-11 20:14:29.761,1.6268902,0.89762783,1.162686,0.5219378,1.2892429,0.66664314,0.763292,0.5880554,1.1616433,0.63467586,0.67729926,0.3928283,1.5324174,0.0067666876,0.09822283,0.49618065,1.3445399,-0.14109151,-0.28488904,-0.007752937,817.9487,804.65204,799.41394,800.6227,719.6337,0.06927490234375,0.10888671875,0.9984130859375,0.007476806640625,-2.213134765625,-3.24493408203125,1,2.0,1.0,1.0,2.0,10.00
2024-10-11 20:14:29.761,1.6268902,0.89762783,1.162686,0.5219378,1.2892429,0.66664314,0.763292,0.5880554,1.1616433,0.63467586,0.67729926,0.3928283,1.5324174,0.0067666876,0.09822283,0.49618065,1.3445399,-0.14109151,-0.28488904,-0.007752937,815.5311,803.8461,800.6227,806.26373,751.4652,0.06927490234375,0.10888671875,0.9984130859375,0.007476806640625,-2.213134765625,-3.24493408203125,1,2.0,1.0,1.0,2.0,10.00
2024-10-11 20:14:29.787,1.6268902,0.89762783,1.162686,0.5219378,1.2892429,0.66664314,0.763292,0.5880554,1.1616433,0.63467586,0.67729926,0.3928283,1.5324174,0.0067666876,0.09822283,0.49618065,1.3445399,-0.14109151,-0.28488904,-0.007752937,815.9341,797.8022,805.05493,817.5458,856.63007,0.06134033203125,0.107177734375,1.0008544921875,-0.291595458984375,-2.51220703125,-4.942169189453125,1,2.0,1.0,1.0,2.0,10.00
2024-10-11 20:14:29.788,0.84680355,0.8858533,1.1731318,0.5219378,0.8213539,0.6428084,0.73678696,0.5880554,0.59786755,0.63467586,0.67729926,0.3928283,0.6410209,-0.00637,0.11011255,0.49618065,-0.054934982,-0.14092304,-0.29217243,-0.007752937,825.2015,803.44324,799.81683,824.7985,774.43225,0.06134033203125,0.107177734375,1.0008544921875,-0.291595458984375,-2.51220703125,-4.942169189453125,1,2.0,1.0,1.0,2.0,10.00
2024-10-11 20:14:29.793,0.84680355,0.8858533,1.1731318,0.5219378,0.8213539,0.6428084,0.73678696,0.5880554,0.59786755,0.63467586,0.67729926,0.3928283,0.6410209,-0.00637,0.11011255,0.49618065,-0.054934982,-0.14092304,-0.29217243,-0.007752937,802.23444,808.68134,795.38464,806.6667,565.31134,0.06134033203125,0.107177734375,1.0008544921875,-0.291595458984375,-2.51220703125,-4.942169189453125,1,2.0,1.0,1.0,2.0,10.00
2024-10-11 20:14:29.794,0.84680355,0.8858533,1.1731318,0.5219378,0.8213539,0.6428084,0.73678696,0.5880554,0.59786755,0.63467586,0.67729926,0.3928283,0.6410209,-0.00637,0.11011255,0.49618065,-0.054934982,-0.14092304,-0.29217243,-0.007752937,798.20514,809.4872,795.38464,806.26373,630.18317,0.06134033203125,0.107177734375,1.0008544921875,-0.291595458984375,-2.51220703125,-4.942169189453125,1,2.0,1.0,1.0,2.0,10.00
2024-10-11 20:14:29.794,0.84680355,0.8858533,1.1731318,0.5219378,0.8213539,0.6428084,0.73678696,0.5880554,0.59786755,0.63467586,0.67729926,0.3928283,0.6410209,-0.00637,0.11011255,0.49618065,-0.054934982,-0.14092304,-0.29217243,-0.007752937,822.7839,808.2784,796.1905,834.87177,891.28204,0.06134033203125,0.107177734375,1.0008544921875,-0.291595458984375,-2.51220703125,-4.942169189453125,1,2.0,1.0,1.0,2.0,10.00
2024-10-11 20:14:29.795,0.84680355,0.8858533,1.1731318,0.5219378,0.8213539,0.6428084,0.73678696,0.5880554,0.59786755,0.63467586,0.67729926,0.3928283,0.6410209,-0.00637,0.11011255,0.49618065,-0.054934982,-0.14092304,-0.29217243,-0.007752937,827.2161,800.6227,799.81683,830.4396,912.23444,0.06134033203125,0.107177734375,1.0008544921875,-0.291595458984375,-2.51220703125,-4.942169189453125,1,2.0,1.0,1.0,2.0,10.00
2024-10-11 20:14:29.795,0.84680355,0.8858533,1.1731318,0.5219378,0.8213539,0.6428084,0.73678696,0.5880554,0.59786755,0.63467586,0.67729926,0.3928283,0.6410209,-0.00637,0.11011255,0.49618065,-0.054934982,-0.14092304,-0.29217243,-0.007752937,811.9048,803.44324,799.011,801.4286,757.50916,0.06134033203125,0.107177734375,1.0008544921875,-0.291595458984375,-2.51220703125,-4.942169189453125,1,2.0,1.0,1.0,2.0,10.00
2024-10-11 20:14:29.796,0.84680355,0.8858533,1.1731318,0.5219378,0.8213539,0.6428084,0.73678696,0.5880554,0.59786755,0.63467586,0.67729926,0.3928283,0.6410209,-0.00637,0.11011255,0.49618065,-0.054934982,-0.14092304,-0.29217243,-0.007752937,806.26373,817.5458,796.1905,798.60803,822.381,0.06134033203125,0.107177734375,1.0008544921875,-0.291595458984375,-2.51220703125,-4.942169189453125,1,2.0,1.0,1.0,2.0,10.00
2024-10-11 20:14:29.797,0.84680355,0.8858533,1.1731318,0.5219378,0.8213539,0.6428084,0.73678696,0.5880554,0.59786755,0.63467586,0.67729926,0.3928283,0.6410209,-0.00637,0.11011255,0.49618065,-0.054934982,-0.14092304,-0.29217243,-0.007752937,815.12823,819.9634,792.5641,814.3223,1080.6593,0.06134033203125,0.107177734375,1.0008544921875,-0.291595458984375,-2.51220703125,-4.942169189453125,1,2.0,1.0,1.0,2.0,10.00
2024-10-11 20:14:29.797,0.84680355,0.8858533,1.1731318,0.5219378,0.8213539,0.6428084,0.73678696,0.5880554,0.59786755,0.63467586,0.67729926,0.3928283,0.6410209,-0.00637,0.11011255,0.49618065,-0.054934982,-0.14092304,-0.29217243,-0.007752937,807.8755,816.337,795.78754,814.7253,1140.2931,0.06134033203125,0.107177734375,1.0008544921875,-0.291595458984375,-2.51220703125,-4.942169189453125,1,2.0,1.0,1.0,2.0,10.00
2024-10-11 20:14:29.798,0.84680355,0.8858533,1.1731318,0.5219378,0.8213539,0.6428084,0.73678696,0.5880554,0.59786755,0.63467586,0.67729926,0.3928283,0.6410209,-0.00637,0.11011255,0.49618065,-0.054934982,-0.14092304,-0.29217243,-0.007752937,796.1905,819.15753,790.9524,798.60803,660.0,0.06134033203125,0.107177734375,1.0008544921875,-0.291595458984375,-2.51220703125,-4.942169189453125,1,2.0,1.0,1.0,2.0,10.00
2024-10-11 20:14:29.798,0.84680355,0.8858533,1.1731318,0.5219378,0.8213539,0.6428084,0.73678696,0.5880554,0.59786755,0.63467586,0.67729926,0.3928283,0.6410209,-0.00637,0.11011255,0.49618065,-0.054934982,-0.14092304,-0.29217243,-0.007752937,807.8755,819.5604,786.52014,805.4579,562.8938,0.06134033203125,0.107177734375,1.0008544921875,-0.291595458984375,-2.51220703125,-4.942169189453125,1,2.0,1.0,1.0,2.0,10.00
2024-10-11 20:14:29.858,0.84680355,0.8858533,1.1731318,0.5219378,0.8213539,0.6428084,0.73678696,0.5880554,0.59786755,0.63467586,0.67729926,0.3928283,0.6410209,-0.00637,0.11011255,0.49618065,-0.054934982,-0.14092304,-0.29217243,-0.007752937,816.337,812.71063,788.93774,808.2784,832.0513,0.05706787109375,0.1087646484375,0.99871826171875,-0.299072265625,-3.70849609375,-8.994598388671875,1,2.0,1.0,1.0,2.0,10.00
2024-10-11 20:14:29.859,0.84680355,0.8858533,1.1731318,0.5219378,0.8213539,0.6428084,0.73678696,0.5880554,0.59786755,0.63467586,0.67729926,0.3928283,0.6410209,-0.00637,0.11011255,0.49618065,-0.054934982,-0.14092304,-0.29217243,-0.007752937,809.89014,811.9048,783.2967,800.2198,780.87915,0.05706787109375,0.1087646484375,0.99871826171875,-0.299072265625,-3.70849609375,-8.994598388671875,1,2.0,1.0,1.0,2.0,10.00
2024-10-11 20:14:29.859,0.84680355,0.8858533,1.1731318,0.5219378,0.8213539,0.6428084,0.73678696,0.5880554,0.59786755,0.63467586,0.67729926,0.3928283,0.6410209,-0.00637,0.11011255,0.49618065,-0.054934982,-0.14092304,-0.29217243,-0.007752937,803.44324,814.3223,776.8498,788.5348,660.80585,0.05706787109375,0.1087646484375,0.99871826171875,-0.299072265625,-3.70849609375,-8.994598388671875,1,2.0,1.0,1.0,2.0,10.00
2024-10-11 20:14:29.860,0.84680355,0.8858533,1.1731318,0.5219378,0.8213539,0.6428084,0.73678696,0.5880554,0.59786755,0.63467586,0.67729926,0.3928283,0.6410209,-0.00637,0.11011255,0.49618065,-0.054934982,-0.14092304,-0.29217243,-0.007752937,811.0989,807.8755,774.43225,785.31134,773.6264,0.05706787109375,0.1087646484375,0.99871826171875,-0.299072265625,-3.70849609375,-8.994598388671875,1,2.0,1.0,1.0,2.0,10.00
2024-10-11 20:14:29.860,0.84680355,0.8858533,1.1731318,0.5219378,0.8213539,0.6428084,0.73678696,0.5880554,0.59786755,0.63467586,0.67729926,0.3928283,0.6410209,-0.00637,0.11011255,0.49618065,-0.054934982,-0.14092304,-0.29217243,-0.007752937,823.9927,811.9048,768.7912,792.1612,845.34796,0.05706787109375,0.1087646484375,0.99871826171875,-0.299072265625,-3.70849609375,-8.994598388671875,1,2.0,1.0,1.0,2.0,10.00
2024-10-11 20:14:29.861,0.84680355,0.8858533,1.1731318,0.5219378,0.8213539,0.6428084,0.73678696,0.5880554,0.59786755,0.63467586,0.67729926,0.3928283,0.6410209,-0.00637,0.11011255,0.49618065,-0.054934982,-0.14092304,-0.29217243,-0.007752937,825.2015,820.3663,766.3736,792.5641,890.87915,0.05706787109375,0.1087646484375,0.99871826171875,-0.299072265625,-3.70849609375,-8.994598388671875,1,2.0,1.0,1.0,2.0,10.00
2024-10-11 20:14:29.862,0.84680355,0.8858533,1.1731318,0.5219378,0.8213539,0.6428084,0.73678696,0.5880554,0.59786755,0.63467586,0.67729926,0.3928283,0.6410209,-0.00637,0.11011255,0.49618065,-0.054934982,-0.14092304,-0.29217243,-0.007752937,828.4249,824.7985,765.56775,793.36993,813.5165,0.05706787109375,0.1087646484375,0.99871826171875,-0.299072265625,-3.70849609375,-8.994598388671875,1,2.0,1.0,1.0,2.0,10.00
2024-10-11 20:14:29.862,0.84680355,0.8858533,1.1731318,0.5219378,0.8213539,0.6428084,0.73678696,0.5880554,0.59786755,0.63467586,0.67729926,0.3928283,0.6410209,-0.00637,0.11011255,0.49618065,-0.054934982,-0.14092304,-0.29217243,-0.007752937,827.619,824.7985,765.56775,795.78754,795.38464,0.05706787109375,0.1087646484375,0.99871826171875,-0.299072265625,-3.70849609375,-8.994598388671875,1,2.0,1.0,1.0,2.0,10.00
2024-10-11 20:14:29.863,0.84680355,0.8858533,1.1731318,0.5219378,0.8213539,0.6428084,0.73678696,0.5880554,0.59786755,0.63467586,0.67729926,0.3928283,0.6410209,-0.00637,0.11011255,0.49618065,-0.054934982,-0.14092304,-0.29217243,-0.007752937,813.5165,823.9927,766.77655,795.78754,983.1502,0.05706787109375,0.1087646484375,0.99871826171875,-0.299072265625,-3.70849609375,-8.994598388671875,1,2.0,1.0,1.0,2.0,10.00
2024-10-11 20:14:29.863,0.84680355,0.8858533,1.1731318,0.5219378,0.8213539,0.6428084,0.73678696,0.5880554,0.59786755,0.63467586,0.67729926,0.3928283,0.6410209,-0.00637,0.11011255,0.49618065,-0.054934982,-0.14092304,-0.29217243,-0.007752937,813.1135,821.5751,764.35895,792.5641,921.50183,0.05706787109375,0.1087646484375,0.99871826171875,-0.299072265625,-3.70849609375,-8.994598388671875,1,2.0,1.0,1.0,2.0,10.00
2024-10-11 20:14:29.864,0.84680355,0.8858533,1.1731318,0.5219378,0.8213539,0.6428084,0.73678696,0.5880554,0.59786755,0.63467586,0.67729926,0.3928283,0.6410209,-0.00637,0.11011255,0.49618065,-0.054934982,-0.14092304,-0.29217243,-0.007752937,817.5458,819.15753,764.7619,803.44324,667.25275,0.05706787109375,0.1087646484375,0.99871826171875,-0.299072265625,-3.70849609375,-8.994598388671875,1,2.0,1.0,1.0,2.0,10.00
2024-10-11 20:14:29.864,0.84680355,0.8858533,1.1731318,0.5219378,0.8213539,0.6428084,0.73678696,0.5880554,0.59786755,0.63467586,0.67729926,0.3928283,0.6410209,-0.00637,0.11011255,0.49618065,-0.054934982,-0.14092304,-0.29217243,-0.007752937,817.9487,823.1868,770.0,807.8755,675.31134,0.05706787109375,0.1087646484375,0.99871826171875,-0.299072265625,-3.70849609375,-8.994598388671875,1,2.0,1.0,1.0,2.0,10.00
2024-10-11 20:14:29.962,0.84680355,0.8858533,1.1731318,0.5219378,0.8213539,0.6428084,0.73678696,0.5880554,0.59786755,0.63467586,0.67729926,0.3928283,0.6410209,-0.00637,0.11011255,0.49618065,-0.054934982,-0.14092304,-0.29217243,-0.007752937,817.5458,829.6337,766.3736,795.78754,802.6374,0.0389404296875,0.10150146484375,0.9921875,-0.949554443359375,-5.42816162109375,-17.21160888671875,1,2.0,1.0,1.0,2.0,10.00
2024-10-11 20:14:29.963,0.84680355,0.8858533,1.1731318,0.5219378,0.8213539,0.6428084,0.73678696,0.5880554,0.59786755,0.63467586,0.67729926,0.3928283,0.6410209,-0.00637,0.11011255,0.49618065,-0.054934982,-0.14092304,-0.29217243,-0.007752937,812.71063,831.2454,758.71796,780.07324,668.46155,0.0389404296875,0.10150146484375,0.9921875,-0.949554443359375,-5.42816162109375,-17.21160888671875,1,2.0,1.0,1.0,2.0,10.00
2024-10-11 20:14:29.963,0.84680355,0.8858533,1.1731318,0.5219378,0.8213539,0.6428084,0.73678696,0.5880554,0.59786755,0.63467586,0.67729926,0.3928283,0.6410209,-0.00637,0.11011255,0.49618065,-0.054934982,-0.14092304,-0.29217243,-0.007752937,805.8608,826.8132,757.50916,776.8498,675.7143,0.0389404296875,0.10150146484375,0.9921875,-0.949554443359375,-5.42816162109375,-17.21160888671875,1,2.0,1.0,1.0,2.0,10.00
2024-10-11 20:14:29.964,0.89723825,0.8772441,1.1731426,0.5219378,0.79118633,0.6171479,0.705748,0.5880554,0.66701794,0.63467586,0.67729926,0.3928283,0.6321329,-0.012527082,0.102047525,0.49618065,-0.06519861,-0.13554734,-0.29875565,-0.007752937,811.9048,827.619,757.1062,790.54944,823.5897,0.0389404296875,0.10150146484375,0.9921875,-0.949554443359375,-5.42816162109375,-17.21160888671875,1,1.0,1.0,1.0,1.0,10.00
2024-10-11 20:14:29.969,0.89723825,0.8772441,1.1731426,0.5219378,0.79118633,0.6171479,0.705748,0.5880554,0.66701794,0.63467586,0.67729926,0.3928283,0.6321329,-0.012527082,0.102047525,0.49618065,-0.06519861,-0.13554734,-0.29875565,-0.007752937,811.9048,824.7985,760.32965,796.1905,869.5238,0.0389404296875,0.10150146484375,0.9921875,-0.949554443359375,-5.42816162109375,-17.21160888671875,1,1.0,1.0,1.0,1.0,10.00
2024-10-11 20:14:29.970,0.89723825,0.8772441,1.1731426,0.5219378,0.79118633,0.6171479,0.705748,0.5880554,0.66701794,0.63467586,0.67729926,0.3928283,0.6321329,-0.012527082,0.102047525,0.49618065,-0.06519861,-0.13554734,-0.29875565,-0.007752937,801.02563,816.7399,762.3443,795.78754,926.7399,0.0389404296875,0.10150146484375,0.9921875,-0.949554443359375,-5.42816162109375,-17.21160888671875,1,1.0,1.0,1.0,1.0,10.00
2024-10-11 20:14:29.970,0.89723825,0.8772441,1.1731426,0.5219378,0.79118633,0.6171479,0.705748,0.5880554,0.66701794,0.63467586,0.67729926,0.3928283,0.6321329,-0.012527082,0.102047525,0.49618065,-0.06519861,-0.13554734,-0.29875565,-0.007752937,788.1319,814.7253,770.0,789.34064,924.7253,0.0389404296875,0.10150146484375,0.9921875,-0.949554443359375,-5.42816162109375,-17.21160888671875,1,1.0,1.0,1.0,1.0,10.00
2024-10-11 20:14:29.971,0.89723825,0.8772441,1.1731426,0.5219378,0.79118633,0.6171479,0.705748,0.5880554,0.66701794,0.63467586,0.67729926,0.3928283,0.6321329,-0.012527082,0.102047525,0.49618065,-0.06519861,-0.13554734,-0.29875565,-0.007752937,785.7143,816.7399,776.04395,780.4762,858.24176,0.0389404296875,0.10150146484375,0.9921875,-0.949554443359375,-5.42816162109375,-17.21160888671875,1,1.0,1.0,1.0,1.0,10.00
2024-10-11 20:14:29.971,0.89723825,0.8772441,1.1731426,0.5219378,0.79118633,0.6171479,0.705748,0.5880554,0.66701794,0.63467586,0.67729926,0.3928283,0.6321329,-0.012527082,0.102047525,0.49618065,-0.06519861,-0.13554734,-0.29875565,-0.007752937,791.3553,819.15753,778.86444,782.0879,798.20514,0.0389404296875,0.10150146484375,0.9921875,-0.949554443359375,-5.42816162109375,-17.21160888671875,1,1.0,1.0,1.0,1.0,10.00
2024-10-11 20:14:29.972,0.89723825,0.8772441,1.1731426,0.5219378,0.79118633,0.6171479,0.705748,0.5880554,0.66701794,0.63467586,0.67729926,0.3928283,0.6321329,-0.012527082,0.102047525,0.49618065,-0.06519861,-0.13554734,-0.29875565,-0.007752937,796.5934,820.7692,779.2674,792.1612,700.293,0.0389404296875,0.10150146484375,0.9921875,-0.949554443359375,-5.42816162109375,-17.21160888671875,1,1.0,1.0,1.0,1.0,10.00
2024-10-11 20:14:29.973,0.89723825,0.8772441,1.1731426,0.5219378,0.79118633,0.6171479,0.705748,0.5880554,0.66701794,0.63467586,0.67729926,0.3928283,0.6321329,-0.012527082,0.102047525,0.49618065,-0.06519861,-0.13554734,-0.29875565,-0.007752937,800.2198,817.5458,779.2674,796.1905,718.8278,0.0389404296875,0.10150146484375,0.9921875,-0.949554443359375,-5.42816162109375,-17.21160888671875,1,1.0,1.0,1.0,1.0,10.00
2024-10-11 20:14:29.973,0.89723825,0.8772441,1.1731426,0.5219378,0.79118633,0.6171479,0.705748,0.5880554,0.66701794,0.63467586,0.67729926,0.3928283,0.6321329,-0.012527082,0.102047525,0.49618065,-0.06519861,-0.13554734,-0.29875565,-0.007752937,794.9817,815.9341,778.86444,796.99634,823.1868,0.0389404296875,0.10150146484375,0.9921875,-0.949554443359375,-5.42816162109375,-17.21160888671875,1,1.0,1.0,1.0,1.0,10.00
2024-10-11 20:14:30.026,0.89723825,0.8772441,1.1731426,0.5219378,0.79118633,0.6171479,0.705748,0.5880554,0.66701794,0.63467586,0.67729926,0.3928283,0.6321329,-0.012527082,0.102047525,0.49618065,-0.06519861,-0.13554734,-0.29875565,-0.007752937,798.20514,813.91943,779.67035,801.8315,773.6264,0.078369140625,0.08746337890625,1.0068359375,-2.1234130859375,-8.560943603515625,-27.925872802734375,1,1.0,1.0,1.0,1.0,10.00
2024-10-11 20:14:30.027,0.89723825,0.8772441,1.1731426,0.5219378,0.79118633,0.6171479,0.705748,0.5880554,0.66701794,0.63467586,0.67729926,0.3928283,0.6321329,-0.012527082,0.102047525,0.49618065,-0.06519861,-0.13554734,-0.29875565,-0.007752937,809.0842,810.293,784.90845,803.44324,720.84247,0.078369140625,0.08746337890625,1.0068359375,-2.1234130859375,-8.560943603515625,-27.925872802734375,1,1.0,1.0,1.0,1.0,10.00
2024-10-11 20:14:30.027,0.89723825,0.8772441,1.1731426,0.5219378,0.79118633,0.6171479,0.705748,0.5880554,0.66701794,0.63467586,0.67729926,0.3928283,0.6321329,-0.012527082,0.102047525,0.49618065,-0.06519861,-0.13554734,-0.29875565,-0.007752937,811.0989,810.293,783.69965,805.8608,859.0476,0.078369140625,0.08746337890625,1.0068359375,-2.1234130859375,-8.560943603515625,-27.925872802734375,1,1.0,1.0,1.0,1.0,10.00
2024-10-11 20:14:30.028,0.89723825,0.8772441,1.1731426,0.5219378,0.79118633,0.6171479,0.705748,0.5880554,0.66701794,0.63467586,0.67729926,0.3928283,0.6321329,-0.012527082,0.102047525,0.49618065,-0.06519861,-0.13554734,-0.29875565,-0.007752937,806.6667,806.6667,780.07324,804.65204,908.60803,0.078369140625,0.08746337890625,1.0068359375,-2.1234130859375,-8.560943603515625,-27.925872802734375,1,1.0,1.0,1.0,1.0,10.00
2024-10-11 20:14:30.029,0.89723825,0.8772441,1.1731426,0.5219378,0.79118633,0.6171479,0.705748,0.5880554,0.66701794,0.63467586,0.67729926,0.3928283,0.6321329,-0.012527082,0.102047525,0.49618065,-0.06519861,-0.13554734,-0.29875565,-0.007752937,806.6667,807.8755,782.8938,801.02563,748.24176,0.078369140625,0.08746337890625,1.0068359375,-2.1234130859375,-8.560943603515625,-27.925872802734375,1,1.0,1.0,1.0,1.0,10.00
2024-10-11 20:14:30.029,0.89723825,0.8772441,1.1731426,0.5219378,0.79118633,0.6171479,0.705748,0.5880554,0.66701794,0.63467586,0.67729926,0.3928283,0.6321329,-0.012527082,0.102047525,0.49618065,-0.06519861,-0.13554734,-0.29875565,-0.007752937,801.02563,815.9341,787.326,803.8461,793.36993,0.078369140625,0.08746337890625,1.0068359375,-2.1234130859375,-8.560943603515625,-27.925872802734375,1,1.0,1.0,1.0,1.0,10.00
2024-10-11 20:14:30.030,0.89723825,0.8772441,1.1731426,0.5219378,0.79118633,0.6171479,0.705748,0.5880554,0.66701794,0.63467586,0.67729926,0.3928283,0.6321329,-0.012527082,0.102047525,0.49618065,-0.06519861,-0.13554734,-0.29875565,-0.007752937,804.2491,813.91943,786.52014,803.8461,1139.4872,0.078369140625,0.08746337890625,1.0068359375,-2.1234130859375,-8.560943603515625,-27.925872802734375,1,1.0,1.0,1.0,1.0,10.00
2024-10-11 20:14:30.030,0.89723825,0.8772441,1.1731426,0.5219378,0.79118633,0.6171479,0.705748,0.5880554,0.66701794,0.63467586,0.67729926,0.3928283,0.6321329,-0.012527082,0.102047525,0.49618065,-0.06519861,-0.13554734,-0.29875565,-0.007752937,809.89014,808.2784,785.31134,797.8022,1107.6556,0.078369140625,0.08746337890625,1.0068359375,-2.1234130859375,-8.560943603515625,-27.925872802734375,1,1.0,1.0,1.0,1.0,10.00
2024-10-11 20:14:30.031,0.89723825,0.8772441,1.1731426,0.5219378,0.79118633,0.6171479,0.705748,0.5880554,0.66701794,0.63467586,0.67729926,0.3928283,0.6321329,-0.012527082,0.102047525,0.49618065,-0.06519861,-0.13554734,-0.29875565,-0.007752937,810.696,815.12823,788.93774,801.02563,732.9304,0.078369140625,0.08746337890625,1.0068359375,-2.1234130859375,-8.560943603515625,-27.925872802734375,1,1.0,1.0,1.0,1.0,10.00
2024-10-11 20:14:30.032,0.89723825,0.8772441,1.1731426,0.5219378,0.79118633,0.6171479,0.705748,0.5880554,0.66701794,0.63467586,0.67729926,0.3928283,0.6321329,-0.012527082,0.102047525,0.49618065,-0.06519861,-0.13554734,-0.29875565,-0.007752937,817.5458,817.9487,791.3553,804.2491,618.9011,0.078369140625,0.08746337890625,1.0068359375,-2.1234130859375,-8.560943603515625,-27.925872802734375,1,1.0,1.0,1.0,1.0,10.00
2024-10-11 20:14:30.032,0.89723825,0.8772441,1.1731426,0.5219378,0.79118633,0.6171479,0.705748,0.5880554,0.66701794,0.63467586,0.67729926,0.3928283,0.6321329,-0.012527082,0.102047525,0.49618065,-0.06519861,-0.13554734,-0.29875565,-0.007752937,810.293,809.0842,788.5348,809.0842,877.98535,0.078369140625,0.08746337890625,1.0068359375,-2.1234130859375,-8.560943603515625,-27.925872802734375,1,1.0,1.0,1.0,1.0,10.00
2024-10-11 20:14:30.033,0.89723825,0.8772441,1.1731426,0.5219378,0.79118633,0.6171479,0.705748,0.5880554,0.66701794,0.63467586,0.67729926,0.3928283,0.6321329,-0.012527082,0.102047525,0.49618065,-0.06519861,-0.13554734,-0.29875565,-0.007752937,809.4872,806.26373,790.14655,811.50183,910.6227,0.078369140625,0.08746337890625,1.0068359375,-2.1234130859375,-8.560943603515625,-27.925872802734375,1,1.0,1.0,1.0,1.0,10.00
2024-10-11 20:14:30.033,0.89723825,0.8772441,1.1731426,0.5219378,0.79118633,0.6171479,0.705748,0.5880554,0.66701794,0.63467586,0.67729926,0.3928283,0.6321329,-0.012527082,0.102047525,0.49618065,-0.06519861,-0.13554734,-0.29875565,-0.007752937,817.9487,812.3077,795.78754,811.50183,574.9817,0.078369140625,0.08746337890625,1.0068359375,-2.1234130859375,-8.560943603515625,-27.925872802734375,1,1.0,1.0,1.0,1.0,10.00
2024-10-11 20:14:30.034,0.89723825,0.8772441,1.1731426,0.5219378,0.79118633,0.6171479,0.705748,0.5880554,0.66701794,0.63467586,0.67729926,0.3928283,0.6321329,-0.012527082,0.102047525,0.49618065,-0.06519861,-0.13554734,-0.29875565,-0.007752937,828.8278,812.3077,797.3993,813.1135,549.59705,0.078369140625,0.08746337890625,1.0068359375,-2.1234130859375,-8.560943603515625,-27.925872802734375,1,1.0,1.0,1.0,1.0,10.00
2024-10-11 20:14:30.035,0.89723825,0.8772441,1.1731426,0.5219378,0.79118633,0.6171479,0.705748,0.5880554,0.66701794,0.63467586,0.67729926,0.3928283,0.6321329,-0.012527082,0.102047525,0.49618065,-0.06519861,-0.13554734,-0.29875565,-0.007752937,834.0659,805.8608,797.8022,813.1135,929.5604,0.078369140625,0.08746337890625,1.0068359375,-2.1234130859375,-8.560943603515625,-27.925872802734375,1,1.0,1.0,1.0,1.0,10.00
2024-10-11 20:14:30.035,0.89723825,0.8772441,1.1731426,0.5219378,0.79118633,0.6171479,0.705748,0.5880554,0.66701794,0.63467586,0.67729926,0.3928283,0.6321329,-0.012527082,0.102047525,0.49618065,-0.06519861,-0.13554734,-0.29875565,-0.007752937,811.50183,803.44324,793.36993,811.50183,983.5531,0.078369140625,0.08746337890625,1.0068359375,-2.1234130859375,-8.560943603515625,-27.925872802734375,1,1.0,1.0,1.0,1.0,10.00
2024-10-11 20:14:30.036,0.89723825,0.8772441,1.1731426,0.5219378,0.79118633,0.6171479,0.705748,0.5880554,0.66701794,0.63467586,0.67729926,0.3928283,0.6321329,-0.012527082,0.102047525,0.49618065,-0.06519861,-0.13554734,-0.29875565,-0.007752937,776.8498,807.0696,794.17584,803.44324,665.64105,0.078369140625,0.08746337890625,1.0068359375,-2.1234130859375,-8.560943603515625,-27.925872802734375,1,1.0,1.0,1.0,1.0,10.00
2024-10-11 20:14:30.036,0.92395675,0.872875,1.1674886,0.5219378,0.75104314,0.5945457,0.6760739,0.5880554,0.7155444,0.63467586,0.67729926,0.3928283,0.6336243,-0.013410414,0.082545854,0.49618065,-0.051410384,-0.1278637,-0.3003675,-0.007752937,778.0586,805.4579,799.81683,796.5934,743.8095,0.078369140625,0.08746337890625,1.0068359375,-2.1234130859375,-8.560943603515625,-27.925872802734375,1,1.0,1.0,1.0,1.0,10.00
2024-10-11 20:14:30.041,0.92395675,0.872875,1.1674886,0.5219378,0.75104314,0.5945457,0.6760739,0.5880554,0.7155444,0.63467586,0.67729926,0.3928283,0.6336243,-0.013410414,0.082545854,0.49618065,-0.051410384,-0.1278637,-0.3003675,-0.007752937,788.93774,803.0403,795.78754,805.4579,983.95605,0.078369140625,0.08746337890625,1.0068359375,-2.1234130859375,-8.560943603515625,-27.925872802734375,1,1.0,1.0,1.0,1.0,10.00
2024-10-11 20:14:30.042,0.92395675,0.872875,1.1674886,0.5219378,0.75104314,0.5945457,0.6760739,0.5880554,0.7155444,0.63467586,0.67729926,0.3928283,0.6336243,-0.013410414,0.082545854,0.49618065,-0.051410384,-0.1278637,-0.3003675,-0.007752937,783.2967,798.60803,791.75824,806.6667,917.47253,0.078369140625,0.08746337890625,1.0068359375,-2.1234130859375,-8.560943603515625,-27.925872802734375,1,1.0,1.0,1.0,1.0,10.00
2024-10-11 20:14:30.043,0.92395675,0.872875,1.1674886,0.5219378,0.75104314,0.5945457,0.6760739,0.5880554,0.7155444,0.63467586,0.67729926,0.3928283,0.6336243,-0.013410414,0.082545854,0.49618065,-0.051410384,-0.1278637,-0.3003675,-0.007752937,781.28204,797.8022,794.57874,795.38464,710.3663,0.078369140625,0.08746337890625,1.0068359375,-2.1234130859375,-8.560943603515625,-27.925872802734375,1,1.0,1.0,1.0,1.0,10.00
2024-10-11 20:14:30.043,0.92395675,0.872875,1.1674886,0.5219378,0.75104314,0.5945457,0.6760739,0.5880554,0.7155444,0.63467586,0.67729926,0.3928283,0.6336243,-0.013410414,0.082545854,0.49618065,-0.051410384,-0.1278637,-0.3003675,-0.007752937,784.5055,803.44324,798.60803,796.1905,655.56775,0.078369140625,0.08746337890625,1.0068359375,-2.1234130859375,-8.560943603515625,-27.925872802734375,1,1.0,1.0,1.0,1.0,10.00
2024-10-11 20:14:30.044,0.92395675,0.872875,1.1674886,0.5219378,0.75104314,0.5945457,0.6760739,0.5880554,0.7155444,0.63467586,0.67729926,0.3928283,0.6336243,-0.013410414,0.082545854,0.49618065,-0.051410384,-0.1278637,-0.3003675,-0.007752937,792.5641,796.5934,794.9817,796.5934,793.36993,0.078369140625,0.08746337890625,1.0068359375,-2.1234130859375,-8.560943603515625,-27.925872802734375,1,1.0,1.0,1.0,1.0,10.00
2024-10-11 20:14:30.044,0.92395675,0.872875,1.1674886,0.5219378,0.75104314,0.5945457,0.6760739,0.5880554,0.7155444,0.63467586,0.67729926,0.3928283,0.6336243,-0.013410414,0.082545854,0.49618065,-0.051410384,-0.1278637,-0.3003675,-0.007752937,800.2198,793.7729,791.75824,790.9524,815.9341,0.078369140625,0.08746337890625,1.0068359375,-2.1234130859375,-8.560943603515625,-27.925872802734375,1,1.0,1.0,1.0,1.0,10.00
2024-10-11 20:14:30.045,0.92395675,0.872875,1.1674886,0.5219378,0.75104314,0.5945457,0.6760739,0.5880554,0.7155444,0.63467586,0.67729926,0.3928283,0.6336243,-0.013410414,0.082545854,0.49618065,-0.051410384,-0.1278637,-0.3003675,-0.007752937,797.3993,801.4286,794.9817,789.34064,685.78754,0.107666015625,0.07049560546875,0.99932861328125,-0.874786376953125,-5.495452880859375,-35.828857421875,1,1.0,1.0,1.0,1.0,10.00
2024-10-11 20:14:30.046,0.92395675,0.872875,1.1674886,0.5219378,0.75104314,0.5945457,0.6760739,0.5880554,0.7155444,0.63467586,0.67729926,0.3928283,0.6336243,-0.013410414,0.082545854,0.49618065,-0.051410384,-0.1278637,-0.3003675,-0.007752937,793.36993,801.02563,796.99634,787.72894,688.20514,0.107666015625,0.07049560546875,0.99932861328125,-0.874786376953125,-5.495452880859375,-35.828857421875,1,1.0,1.0,1.0,1.0,10.00
2024-10-11 20:14:30.046,0.92395675,0.872875,1.1674886,0.5219378,0.75104314,0.5945457,0.6760739,0.5880554,0.7155444,0.63467586,0.67729926,0.3928283,0.6336243,-0.013410414,0.082545854,0.49618065,-0.051410384,-0.1278637,-0.3003675,-0.007752937,801.02563,798.60803,800.2198,790.54944,853.4066,0.107666015625,0.07049560546875,0.99932861328125,-0.874786376953125,-5.495452880859375,-35.828857421875,1,1.0,1.0,1.0,1.0,10.00
2024-10-11 20:14:30.047,0.92395675,0.872875,1.1674886,0.5219378,0.75104314,0.5945457,0.6760739,0.5880554,0.7155444,0.63467586,0.67729926,0.3928283,0.6336243,-0.013410414,0.082545854,0.49618065,-0.051410384,-0.1278637,-0.3003675,-0.007752937,792.1612,803.8461,805.4579,794.9817,796.1905,0.107666015625,0.07049560546875,0.99932861328125,-0.874786376953125,-5.495452880859375,-35.828857421875,1,1.0,1.0,1.0,1.0,10.00
2024-10-11 20:14:30.048,0.92395675,0.872875,1.1674886,0.5219378,0.75104314,0.5945457,0.6760739,0.5880554,0.7155444,0.63467586,0.67729926,0.3928283,0.6336243,-0.013410414,0.082545854,0.49618065,-0.051410384,-0.1278637,-0.3003675,-0.007752937,788.5348,802.6374,800.2198,795.78754,630.18317,0.107666015625,0.07049560546875,0.99932861328125,-0.874786376953125,-5.495452880859375,-35.828857421875,1,1.0,1.0,1.0,1.0,10.00
2024-10-11 20:14:30.048,0.92395675,0.872875,1.1674886,0.5219378,0.75104314,0.5945457,0.6760739,0.5880554,0.7155444,0.63467586,0.67729926,0.3928283,0.6336243,-0.013410414,0.082545854,0.49618065,-0.051410384,-0.1278637,-0.3003675,-0.007752937,790.54944,797.3993,797.3993,802.6374,839.707,0.107666015625,0.07049560546875,0.99932861328125,-0.874786376953125,-5.495452880859375,-35.828857421875,1,1.0,1.0,1.0,1.0,10.00
2024-10-11 20:14:30.049,0.92395675,0.872875,1.1674886,0.5219378,0.75104314,0.5945457,0.6760739,0.5880554,0.7155444,0.63467586,0.67729926,0.3928283,0.6336243,-0.013410414,0.082545854,0.49618065,-0.051410384,-0.1278637,-0.3003675,-0.007752937,784.10254,796.99634,801.02563,804.65204,992.01465,0.107666015625,0.07049560546875,0.99932861328125,-0.874786376953125,-5.495452880859375,-35.828857421875,1,1.0,1.0,1.0,1.0,10.00
2024-10-11 20:14:30.050,0.92395675,0.872875,1.1674886,0.5219378,0.75104314,0.5945457,0.6760739,0.5880554,0.7155444,0.63467586,0.67729926,0.3928283,0.6336243,-0.013410414,0.082545854,0.49618065,-0.051410384,-0.1278637,-0.3003675,-0.007752937,787.326,799.41394,804.65204,796.5934,922.3077,0.107666015625,0.07049560546875,0.99932861328125,-0.874786376953125,-5.495452880859375,-35.828857421875,1,1.0,1.0,1.0,1.0,10.00
2024-10-11 20:14:30.050,0.92395675,0.872875,1.1674886,0.5219378,0.75104314,0.5945457,0.6760739,0.5880554,0.7155444,0.63467586,0.67729926,0.3928283,0.6336243,-0.013410414,0.082545854,0.49618065,-0.051410384,-0.1278637,-0.3003675,-0.007752937,776.8498,799.81683,810.696,796.1905,776.04395,0.107666015625,0.07049560546875,0.99932861328125,-0.874786376953125,-5.495452880859375,-35.828857421875,1,1.0,1.0,1.0,1.0,10.00
2024-10-11 20:14:30.051,0.92395675,0.872875,1.1674886,0.5219378,0.75104314,0.5945457,0.6760739,0.5880554,0.7155444,0.63467586,0.67729926,0.3928283,0.6336243,-0.013410414,0.082545854,0.49618065,-0.051410384,-0.1278637,-0.3003675,-0.007752937,780.07324,796.1905,809.0842,803.8461,846.1539,0.107666015625,0.07049560546875,0.99932861328125,-0.874786376953125,-5.495452880859375,-35.828857421875,1,1.0,1.0,1.0,1.0,10.00
2024-10-11 20:14:30.051,0.92395675,0.872875,1.1674886,0.5219378,0.75104314,0.5945457,0.6760739,0.5880554,0.7155444,0.63467586,0.67729926,0.3928283,0.6336243,-0.013410414,0.082545854,0.49618065,-0.051410384,-0.1278637,-0.3003675,-0.007752937,785.7143,798.60803,807.8755,803.44324,904.57874,0.107666015625,0.07049560546875,0.99932861328125,-0.874786376953125,-5.495452880859375,-35.828857421875,1,1.0,1.0,1.0,1.0,10.00
2024-10-11 20:14:30.052,0.92395675,0.872875,1.1674886,0.5219378,0.75104314,0.5945457,0.6760739,0.5880554,0.7155444,0.63467586,0.67729926,0.3928283,0.6336243,-0.013410414,0.082545854,0.49618065,-0.051410384,-0.1278637,-0.3003675,-0.007752937,780.87915,799.81683,810.696,803.8461,811.0989,0.107666015625,0.07049560546875,0.99932861328125,-0.874786376953125,-5.495452880859375,-35.828857421875,1,1.0,1.0,1.0,1.0,10.00
2024-10-11 20:14:30.081,0.92395675,0.872875,1.1674886,0.5219378,0.75104314,0.5945457,0.6760739,0.5880554,0.7155444,0.63467586,0.67729926,0.3928283,0.6336243,-0.013410414,0.082545854,0.49618065,-0.051410384,-0.1278637,-0.3003675,-0.007752937,782.0879,792.5641,810.696,802.23444,875.16486,0.1103515625,0.08349609375,0.98590087890625,1.854248046875,-0.366363525390625,-40.35980224609375,1,1.0,1.0,1.0,1.0,10.00
2024-10-11 20:14:30.082,0.92395675,0.872875,1.1674886,0.5219378,0.75104314,0.5945457,0.6760739,0.5880554,0.7155444,0.63467586,0.67729926,0.3928283,0.6336243,-0.013410414,0.082545854,0.49618065,-0.051410384,-0.1278637,-0.3003675,-0.007752937,777.25275,792.96704,811.0989,792.1612,843.73627,0.1103515625,0.08349609375,0.98590087890625,1.854248046875,-0.366363525390625,-40.35980224609375,1,1.0,1.0,1.0,1.0,10.00
2024-10-11 20:14:30.083,0.92395675,0.872875,1.1674886,0.5219378,0.75104314,0.5945457,0.6760739,0.5880554,0.7155444,0.63467586,0.67729926,0.3928283,0.6336243,-0.013410414,0.082545854,0.49618065,-0.051410384,-0.1278637,-0.3003675,-0.007752937,776.8498,799.011,811.0989,798.60803,753.8828,0.1103515625,0.08349609375,0.98590087890625,1.854248046875,-0.366363525390625,-40.35980224609375,1,1.0,1.0,1.0,1.0,10.00
2024-10-11 20:14:30.083,0.92395675,0.872875,1.1674886,0.5219378,0.75104314,0.5945457,0.6760739,0.5880554,0.7155444,0.63467586,0.67729926,0.3928283,0.6336243,-0.013410414,0.082545854,0.49618065,-0.051410384,-0.1278637,-0.3003675,-0.007752937,781.685,798.20514,806.6667,806.6667,624.94507,0.1103515625,0.08349609375,0.98590087890625,1.854248046875,-0.366363525390625,-40.35980224609375,1,1.0,1.0,1.0,1.0,10.00
2024-10-11 20:14:30.084,0.92395675,0.872875,1.1674886,0.5219378,0.75104314,0.5945457,0.6760739,0.5880554,0.7155444,0.63467586,0.67729926,0.3928283,0.6336243,-0.013410414,0.082545854,0.49618065,-0.051410384,-0.1278637,-0.3003675,-0.007752937,805.4579,803.8461,806.6667,813.5165,696.26373,0.1103515625,0.08349609375,0.98590087890625,1.854248046875,-0.366363525390625,-40.35980224609375,1,1.0,1.0,1.0,1.0,10.00
2024-10-11 20:14:30.084,0.92395675,0.872875,1.1674886,0.5219378,0.75104314,0.5945457,0.6760739,0.5880554,0.7155444,0.63467586,0.67729926,0.3928283,0.6336243,-0.013410414,0.082545854,0.49618065,-0.051410384,-0.1278637,-0.3003675,-0.007752937,804.2491,806.26373,805.4579,811.0989,952.1245,0.1103515625,0.08349609375,0.98590087890625,1.854248046875,-0.366363525390625,-40.35980224609375,1,1.0,1.0,1.0,1.0,10.00
2024-10-11 20:14:30.085,0.92395675,0.872875,1.1674886,0.5219378,0.75104314,0.5945457,0.6760739,0.5880554,0.7155444,0.63467586,0.67729926,0.3928283,0.6336243,-0.013410414,0.082545854,0.49618065,-0.051410384,-0.1278637,-0.3003675,-0.007752937,776.8498,799.81683,807.47253,807.47253,956.55676,0.1103515625,0.08349609375,0.98590087890625,1.854248046875,-0.366363525390625,-40.35980224609375,1,1.0,1.0,1.0,1.0,10.00
2024-10-11 20:14:30.086,0.9275285,0.8808,1.1668513,0.5219378,0.70633405,0.5756507,0.65822697,0.5880554,0.7970035,0.63467586,0.67729926,0.3928283,0.6334072,-0.00948395,0.061439898,0.49618065,-0.011314884,-0.11947763,-0.29759708,-0.007752937,787.72894,803.44324,809.89014,811.0989,703.1135,0.1103515625,0.08349609375,0.98590087890625,1.854248046875,-0.366363525390625,-40.35980224609375,1,1.0,1.0,1.0,1.0,10.00
2024-10-11 20:14:30.091,0.9275285,0.8808,1.1668513,0.5219378,0.70633405,0.5756507,0.65822697,0.5880554,0.7970035,0.63467586,0.67729926,0.3928283,0.6334072,-0.00948395,0.061439898,0.49618065,-0.011314884,-0.11947763,-0.29759708,-0.007752937,800.2198,801.8315,809.0842,817.1429,806.6667,0.1103515625,0.08349609375,0.98590087890625,1.854248046875,-0.366363525390625,-40.35980224609375,1,1.0,1.0,1.0,1.0,10.00
2024-10-11 20:14:30.091,0.9275285,0.8808,1.1668513,0.5219378,0.70633405,0.5756507,0.65822697,0.5880554,0.7970035,0.63467586,0.67729926,0.3928283,0.6334072,-0.00948395,0.061439898,0.49618065,-0.011314884,-0.11947763,-0.29759708,-0.007752937,801.02563,792.96704,809.89014,815.5311,977.50916,0.1103515625,0.08349609375,0.98590087890625,1.854248046875,-0.366363525390625,-40.35980224609375,1,1.0,1.0,1.0,1.0,10.00
2024-10-11 20:14:30.092,0.9275285,0.8808,1.1668513,0.5219378,0.70633405,0.5756507,0.65822697,0.5880554,0.7970035,0.63467586,0.67729926,0.3928283,0.6334072,-0.00948395,0.061439898,0.49618065,-0.011314884,-0.11947763,-0.29759708,-0.007752937,809.89014,799.011,810.293,813.1135,743.00366,0.1103515625,0.08349609375,0.98590087890625,1.854248046875,-0.366363525390625,-40.35980224609375,1,1.0,1.0,1.0,1.0,10.00
2024-10-11 20:14:30.093,0.9275285,0.8808,1.1668513,0.5219378,0.70633405,0.5756507,0.65822697,0.5880554,0.7970035,0.63467586,0.67729926,0.3928283,0.6334072,-0.00948395,0.061439898,0.49618065,-0.011314884,-0.11947763,-0.29759708,-0.007752937,802.23444,798.20514,811.9048,807.47253,608.4249,0.1103515625,0.08349609375,0.98590087890625,1.854248046875,-0.366363525390625,-40.35980224609375,1,1.0,1.0,1.0,1.0,10.00
2024-10-11 20:14:30.094,0.9275285,0.8808,1.1668513,0.5219378,0.70633405,0.5756507,0.65822697,0.5880554,0.7970035,0.63467586,0.67729926,0.3928283,0.6334072,-0.00948395,0.061439898,0.49618065,-0.011314884,-0.11947763,-0.29759708,-0.007752937,785.31134,792.5641,812.3077,809.4872,758.315,0.08697509765625,0.0992431640625,0.99993896484375,5.824432373046875,1.71966552734375,-42.90191650390625,1,1.0,1.0,1.0,1.0,10.00
2024-10-11 20:14:30.094,0.9275285,0.8808,1.1668513,0.5219378,0.70633405,0.5756507,0.65822697,0.5880554,0.7970035,0.63467586,0.67729926,0.3928283,0.6334072,-0.00948395,0.061439898,0.49618065,-0.011314884,-0.11947763,-0.29759708,-0.007752937,786.9231,796.5934,810.696,817.5458,884.0293,0.08697509765625,0.0992431640625,0.99993896484375,5.824432373046875,1.71966552734375,-42.90191650390625,1,1.0,1.0,1.0,1.0,10.00
2024-10-11 20:14:30.095,0.9275285,0.8808,1.1668513,0.5219378,0.70633405,0.5756507,0.65822697,0.5880554,0.7970035,0.63467586,0.67729926,0.3928283,0.6334072,-0.00948395,0.061439898,0.49618065,-0.011314884,-0.11947763,-0.29759708,-0.007752937,792.1612,794.57874,807.47253,809.4872,690.2198,0.08697509765625,0.0992431640625,0.99993896484375,5.824432373046875,1.71966552734375,-42.90191650390625,1,1.0,1.0,1.0,1.0,10.00
2024-10-11 20:14:30.095,0.9275285,0.8808,1.1668513,0.5219378,0.70633405,0.5756507,0.65822697,0.5880554,0.7970035,0.63467586,0.67729926,0.3928283,0.6334072,-0.00948395,0.061439898,0.49618065,-0.011314884,-0.11947763,-0.29759708,-0.007752937,794.57874,791.3553,804.65204,804.2491,472.23444,0.08697509765625,0.0992431640625,0.99993896484375,5.824432373046875,1.71966552734375,-42.90191650390625,1,1.0,1.0,1.0,1.0,10.00
2024-10-11 20:14:30.096,0.9275285,0.8808,1.1668513,0.5219378,0.70633405,0.5756507,0.65822697,0.5880554,0.7970035,0.63467586,0.67729926,0.3928283,0.6334072,-0.00948395,0.061439898,0.49618065,-0.011314884,-0.11947763,-0.29759708,-0.007752937,789.7436,796.99634,807.0696,805.4579,791.3553,0.08697509765625,0.0992431640625,0.99993896484375,5.824432373046875,1.71966552734375,-42.90191650390625,1,1.0,1.0,1.0,1.0,10.00
2024-10-11 20:14:30.096,0.9275285,0.8808,1.1668513,0.5219378,0.70633405,0.5756507,0.65822697,0.5880554,0.7970035,0.63467586,0.67729926,0.3928283,0.6334072,-0.00948395,0.061439898,0.49618065,-0.011314884,-0.11947763,-0.29759708,-0.007752937,789.34064,791.3553,812.71063,810.293,1172.9304,0.08697509765625,0.0992431640625,0.99993896484375,5.824432373046875,1.71966552734375,-42.90191650390625,1,1.0,1.0,1.0,1.0,10.00
2024-10-11 20:14:30.097,0.9275285,0.8808,1.1668513,0.5219378,0.70633405,0.5756507,0.65822697,0.5880554,0.7970035,0.63467586,0.67729926,0.3928283,0.6334072,-0.00948395,0.061439898,0.49618065,-0.011314884,-0.11947763,-0.29759708,-0.007752937,804.65204,788.93774,808.2784,814.3223,1288.5714,0.08697509765625,0.0992431640625,0.99993896484375,5.824432373046875,1.71966552734375,-42.90191650390625,1,1.0,1.0,1.0,1.0,10.00
2024-10-11 20:14:30.098,0.9275285,0.8808,1.1668513,0.5219378,0.70633405,0.5756507,0.65822697,0.5880554,0.7970035,0.63467586,0.67729926,0.3928283,0.6334072,-0.00948395,0.061439898,0.49618065,-0.011314884,-0.11947763,-0.29759708,-0.007752937,814.7253,791.75824,800.6227,814.3223,1321.2087,0.08697509765625,0.0992431640625,0.99993896484375,5.824432373046875,1.71966552734375,-42.90191650390625,1,1.0,1.0,1.0,1.0,10.00
2024-10-11 20:14:30.098,0.9275285,0.8808,1.1668513,0.5219378,0.70633405,0.5756507,0.65822697,0.5880554,0.7970035,0.63467586,0.67729926,0.3928283,0.6334072,-0.00948395,0.061439898,0.49618065,-0.011314884,-0.11947763,-0.29759708,-0.007752937,803.44324,794.17584,805.05493,805.4579,923.91943,0.08697509765625,0.0992431640625,0.99993896484375,5.824432373046875,1.71966552734375,-42.90191650390625,1,1.0,1.0,1.0,1.0,10.00
2024-10-11 20:14:30.099,0.9275285,0.8808,1.1668513,0.5219378,0.70633405,0.5756507,0.65822697,0.5880554,0.7970035,0.63467586,0.67729926,0.3928283,0.6334072,-0.00948395,0.061439898,0.49618065,-0.011314884,-0.11947763,-0.29759708,-0.007752937,791.3553,797.8022,806.26373,801.02563,608.022,0.08697509765625,0.0992431640625,0.99993896484375,5.824432373046875,1.71966552734375,-42.90191650390625,1,1.0,1.0,1.0,1.0,10.00
2024-10-11 20:14:30.100,0.9275285,0.8808,1.1668513,0.5219378,0.70633405,0.5756507,0.65822697,0.5880554,0.7970035,0.63467586,0.67729926,0.3928283,0.6334072,-0.00948395,0.061439898,0.49618065,-0.011314884,-0.11947763,-0.29759708,-0.007752937,791.75824,792.1612,805.05493,809.89014,990.80585,0.08697509765625,0.0992431640625,0.99993896484375,5.824432373046875,1.71966552734375,-42.90191650390625,1,1.0,1.0,1.0,1.0,10.00
2024-10-11 20:14:30.100,0.9275285,0.8808,1.1668513,0.5219378,0.70633405,0.5756507,0.65822697,0.5880554,0.7970035,0.63467586,0.67729926,0.3928283,0.6334072,-0.00948395,0.061439898,0.49618065,-0.011314884,-0.11947763,-0.29759708,-0.007752937,792.1612,788.1319,805.05493,817.5458,1338.5348,0.08697509765625,0.0992431640625,0.99993896484375,5.824432373046875,1.71966552734375,-42.90191650390625,1,1.0,1.0,1.0,1.0,10.00
2024-10-11 20:14:30.125,0.9275285,0.8808,1.1668513,0.5219378,0.70633405,0.5756507,0.65822697,0.5880554,0.7970035,0.63467586,0.67729926,0.3928283,0.6334072,-0.00948395,0.061439898,0.49618065,-0.011314884,-0.11947763,-0.29759708,-0.007752937,777.6557,793.7729,809.89014,811.50183,946.08057,0.07366943359375,0.12689208984375,0.99169921875,6.347808837890625,4.35150146484375,-46.16180419921875,1,1.0,1.0,1.0,1.0,10.00
2024-10-11 20:14:30.126,0.9275285,0.8808,1.1668513,0.5219378,0.70633405,0.5756507,0.65822697,0.5880554,0.7970035,0.63467586,0.67729926,0.3928283,0.6334072,-0.00948395,0.061439898,0.49618065,-0.011314884,-0.11947763,-0.29759708,-0.007752937,778.0586,793.36993,812.3077,819.5604,502.85715,0.07366943359375,0.12689208984375,0.99169921875,6.347808837890625,4.35150146484375,-46.16180419921875,1,1.0,1.0,1.0,1.0,10.00
2024-10-11 20:14:30.127,0.9275285,0.8808,1.1668513,0.5219378,0.70633405,0.5756507,0.65822697,0.5880554,0.7970035,0.63467586,0.67729926,0.3928283,0.6334072,-0.00948395,0.061439898,0.49618065,-0.011314884,-0.11947763,-0.29759708,-0.007752937,789.7436,796.5934,807.0696,822.7839,538.315,0.07366943359375,0.12689208984375,0.99169921875,6.347808837890625,4.35150146484375,-46.16180419921875,1,1.0,1.0,1.0,1.0,10.00
2024-10-11 20:14:30.128,0.9275285,0.8808,1.1668513,0.5219378,0.70633405,0.5756507,0.65822697,0.5880554,0.7970035,0.63467586,0.67729926,0.3928283,0.6334072,-0.00948395,0.061439898,0.49618065,-0.011314884,-0.11947763,-0.29759708,-0.007752937,780.07324,805.05493,806.6667,808.68134,655.56775,0.07366943359375,0.12689208984375,0.99169921875,6.347808837890625,4.35150146484375,-46.16180419921875,1,1.0,1.0,1.0,1.0,10.00
2024-10-11 20:14:30.128,0.9275285,0.8808,1.1668513,0.5219378,0.70633405,0.5756507,0.65822697,0.5880554,0.7970035,0.63467586,0.67729926,0.3928283,0.6334072,-0.00948395,0.061439898,0.49618065,-0.011314884,-0.11947763,-0.29759708,-0.007752937,779.2674,800.6227,803.8461,797.3993,591.9048,0.07366943359375,0.12689208984375,0.99169921875,6.347808837890625,4.35150146484375,-46.16180419921875,1,1.0,1.0,1.0,1.0,10.00
2024-10-11 20:14:30.129,0.9275285,0.8808,1.1668513,0.5219378,0.70633405,0.5756507,0.65822697,0.5880554,0.7970035,0.63467586,0.67729926,0.3928283,0.6334072,-0.00948395,0.061439898,0.49618065,-0.011314884,-0.11947763,-0.29759708,-0.007752937,789.7436,790.9524,797.3993,790.14655,707.1429,0.07366943359375,0.12689208984375,0.99169921875,6.347808837890625,4.35150146484375,-46.16180419921875,1,1.0,1.0,1.0,1.0,10.00
2024-10-11 20:14:30.129,0.9275285,0.8808,1.1668513,0.5219378,0.70633405,0.5756507,0.65822697,0.5880554,0.7970035,0.63467586,0.67729926,0.3928283,0.6334072,-0.00948395,0.061439898,0.49618065,-0.011314884,-0.11947763,-0.29759708,-0.007752937,808.2784,790.9524,800.2198,803.44324,905.78754,0.07366943359375,0.12689208984375,0.99169921875,6.347808837890625,4.35150146484375,-46.16180419921875,1,1.0,1.0,1.0,1.0,10.00
2024-10-11 20:14:30.130,0.9275285,0.8808,1.1668513,0.5219378,0.70633405,0.5756507,0.65822697,0.5880554,0.7970035,0.63467586,0.67729926,0.3928283,0.6334072,-0.00948395,0.061439898,0.49618065,-0.011314884,-0.11947763,-0.29759708,-0.007752937,808.68134,796.5934,801.4286,792.1612,826.8132,0.07366943359375,0.12689208984375,0.99169921875,6.347808837890625,4.35150146484375,-46.16180419921875,1,1.0,1.0,1.0,1.0,10.00
2024-10-11 20:14:30.131,0.9275285,0.8808,1.1668513,0.5219378,0.70633405,0.5756507,0.65822697,0.5880554,0.7970035,0.63467586,0.67729926,0.3928283,0.6334072,-0.00948395,0.061439898,0.49618065,-0.011314884,-0.11947763,-0.29759708,-0.007752937,788.1319,799.41394,792.96704,775.64105,732.1245,0.07366943359375,0.12689208984375,0.99169921875,6.347808837890625,4.35150146484375,-46.16180419921875,1,1.0,1.0,1.0,1.0,10.00
2024-10-11 20:14:30.131,0.91751134,0.9056783,1.1830834,0.5219378,0.6654334,0.5603007,0.66023135,0.5880554,0.8841669,0.636328,0.67729926,0.3928283,0.6282807,-0.003445672,0.045307003,0.49618065,0.039050777,-0.11219221,-0.2953648,-0.007752937,788.1319,802.23444,784.10254,781.685,784.10254,0.07366943359375,0.12689208984375,0.99169921875,6.347808837890625,4.35150146484375,-46.16180419921875,1,1.0,1.0,1.0,1.0,10.00
2024-10-11 20:14:30.136,0.91751134,0.9056783,1.1830834,0.5219378,0.6654334,0.5603007,0.66023135,0.5880554,0.8841669,0.636328,0.67729926,0.3928283,0.6282807,-0.003445672,0.045307003,0.49618065,0.039050777,-0.11219221,-0.2953648,-0.007752937,787.72894,803.0403,787.326,786.52014,829.6337,0.07366943359375,0.12689208984375,0.99169921875,6.347808837890625,4.35150146484375,-46.16180419921875,1,1.0,1.0,1.0,1.0,10.00
2024-10-11 20:14:30.137,0.91751134,0.9056783,1.1830834,0.5219378,0.6654334,0.5603007,0.66023135,0.5880554,0.8841669,0.636328,0.67729926,0.3928283,0.6282807,-0.003445672,0.045307003,0.49618065,0.039050777,-0.11219221,-0.2953648,-0.007752937,791.3553,803.8461,788.1319,788.1319,841.31866,0.07366943359375,0.12689208984375,0.99169921875,6.347808837890625,4.35150146484375,-46.16180419921875,1,1.0,1.0,1.0,1.0,10.00
2024-10-11 20:14:30.226,0.91751134,0.9056783,1.1830834,0.5219378,0.6654334,0.5603007,0.66023135,0.5880554,0.8841669,0.636328,0.67729926,0.3928283,0.6282807,-0.003445672,0.045307003,0.49618065,0.039050777,-0.11219221,-0.2953648,-0.007752937,792.5641,800.2198,784.5055,787.326,925.5311,0.076171875,0.13330078125,0.99871826171875,6.44500732421875,4.9945068359375,-44.7113037109375,1,1.0,1.0,1.0,1.0,10.00
2024-10-11 20:14:30.227,0.91751134,0.9056783,1.1830834,0.5219378,0.6654334,0.5603007,0.66023135,0.5880554,0.8841669,0.636328,0.67729926,0.3928283,0.6282807,-0.003445672,0.045307003,0.49618065,0.039050777,-0.11219221,-0.2953648,-0.007752937,799.41394,806.26373,785.31134,783.2967,996.4469,0.076171875,0.13330078125,0.99871826171875,6.44500732421875,4.9945068359375,-44.7113037109375,1,1.0,1.0,1.0,1.0,10.00
2024-10-11 20:14:30.228,0.91751134,0.9056783,1.1830834,0.5219378,0.6654334,0.5603007,0.66023135,0.5880554,0.8841669,0.636328,0.67729926,0.3928283,0.6282807,-0.003445672,0.045307003,0.49618065,0.039050777,-0.11219221,-0.2953648,-0.007752937,809.0842,811.9048,782.49084,786.9231,830.0366,0.076171875,0.13330078125,0.99871826171875,6.44500732421875,4.9945068359375,-44.7113037109375,1,1.0,1.0,1.0,1.0,10.00
2024-10-11 20:14:30.228,0.91751134,0.9056783,1.1830834,0.5219378,0.6654334,0.5603007,0.66023135,0.5880554,0.8841669,0.636328,0.67729926,0.3928283,0.6282807,-0.003445672,0.045307003,0.49618065,0.039050777,-0.11219221,-0.2953648,-0.007752937,830.84247,807.8755,782.49084,796.5934,698.2784,0.076171875,0.13330078125,0.99871826171875,6.44500732421875,4.9945068359375,-44.7113037109375,1,1.0,1.0,1.0,1.0,10.00
2024-10-11 20:14:30.229,0.91751134,0.9056783,1.1830834,0.5219378,0.6654334,0.5603007,0.66023135,0.5880554,0.8841669,0.636328,0.67729926,0.3928283,0.6282807,-0.003445672,0.045307003,0.49618065,0.039050777,-0.11219221,-0.2953648,-0.007752937,824.7985,808.2784,780.87915,790.9524,833.2601,0.076171875,0.13330078125,0.99871826171875,6.44500732421875,4.9945068359375,-44.7113037109375,1,1.0,1.0,1.0,1.0,10.00
2024-10-11 20:14:30.230,0.91751134,0.9056783,1.1830834,0.5219378,0.6654334,0.5603007,0.66023135,0.5880554,0.8841669,0.636328,0.67729926,0.3928283,0.6282807,-0.003445672,0.045307003,0.49618065,0.039050777,-0.11219221,-0.2953648,-0.007752937,794.57874,801.8315,777.6557,782.8938,974.68866,0.076171875,0.13330078125,0.99871826171875,6.44500732421875,4.9945068359375,-44.7113037109375,1,1.0,1.0,1.0,1.0,10.00
2024-10-11 20:14:30.230,0.91751134,0.9056783,1.1830834,0.5219378,0.6654334,0.5603007,0.66023135,0.5880554,0.8841669,0.636328,0.67729926,0.3928283,0.6282807,-0.003445672,0.045307003,0.49618065,0.039050777,-0.11219221,-0.2953648,-0.007752937,786.52014,805.8608,777.6557,783.69965,894.5055,0.076171875,0.13330078125,0.99871826171875,6.44500732421875,4.9945068359375,-44.7113037109375,1,1.0,1.0,1.0,1.0,10.00
2024-10-11 20:14:30.231,0.91751134,0.9056783,1.1830834,0.5219378,0.6654334,0.5603007,0.66023135,0.5880554,0.8841669,0.636328,0.67729926,0.3928283,0.6282807,-0.003445672,0.045307003,0.49618065,0.039050777,-0.11219221,-0.2953648,-0.007752937,792.5641,813.5165,777.6557,779.67035,726.08057,0.076171875,0.13330078125,0.99871826171875,6.44500732421875,4.9945068359375,-44.7113037109375,1,1.0,1.0,1.0,1.0,10.00
2024-10-11 20:14:30.231,0.91751134,0.9056783,1.1830834,0.5219378,0.6654334,0.5603007,0.66023135,0.5880554,0.8841669,0.636328,0.67729926,0.3928283,0.6282807,-0.003445672,0.045307003,0.49618065,0.039050777,-0.11219221,-0.2953648,-0.007752937,792.96704,811.9048,779.2674,796.1905,863.47986,0.076171875,0.13330078125,0.99871826171875,6.44500732421875,4.9945068359375,-44.7113037109375,1,1.0,1.0,1.0,1.0,10.00
2024-10-11 20:14:30.232,0.91751134,0.9056783,1.1830834,0.5219378,0.6654334,0.5603007,0.66023135,0.5880554,0.8841669,0.636328,0.67729926,0.3928283,0.6282807,-0.003445672,0.045307003,0.49618065,0.039050777,-0.11219221,-0.2953648,-0.007752937,792.1612,811.9048,780.87915,813.91943,1001.28204,0.076171875,0.13330078125,0.99871826171875,6.44500732421875,4.9945068359375,-44.7113037109375,1,1.0,1.0,1.0,1.0,10.00
2024-10-11 20:14:30.233,0.91751134,0.9056783,1.1830834,0.5219378,0.6654334,0.5603007,0.66023135,0.5880554,0.8841669,0.636328,0.67729926,0.3928283,0.6282807,-0.003445672,0.045307003,0.49618065,0.039050777,-0.11219221,-0.2953648,-0.007752937,787.326,809.89014,780.4762,805.05493,784.5055,0.076171875,0.13330078125,0.99871826171875,6.44500732421875,4.9945068359375,-44.7113037109375,1,1.0,1.0,1.0,1.0,10.00
2024-10-11 20:14:30.233,0.91751134,0.9056783,1.1830834,0.5219378,0.6654334,0.5603007,0.66023135,0.5880554,0.8841669,0.636328,0.67729926,0.3928283,0.6282807,-0.003445672,0.045307003,0.49618065,0.039050777,-0.11219221,-0.2953648,-0.007752937,782.8938,804.2491,776.8498,798.20514,703.5165,0.076171875,0.13330078125,0.99871826171875,6.44500732421875,4.9945068359375,-44.7113037109375,1,1.0,1.0,1.0,1.0,10.00
2024-10-11 20:14:30.234,0.91751134,0.9056783,1.1830834,0.5219378,0.6654334,0.5603007,0.66023135,0.5880554,0.8841669,0.636328,0.67729926,0.3928283,0.6282807,-0.003445672,0.045307003,0.49618065,0.039050777,-0.11219221,-0.2953648,-0.007752937,783.69965,796.99634,778.86444,796.99634,808.68134,0.0523681640625,0.14013671875,0.9971923828125,6.29547119140625,7.289886474609375,-40.606536865234375,1,1.0,1.0,1.0,1.0,10.00
2024-10-11 20:14:30.235,0.91751134,0.9056783,1.1830834,0.5219378,0.6654334,0.5603007,0.66023135,0.5880554,0.8841669,0.636328,0.67729926,0.3928283,0.6282807,-0.003445672,0.045307003,0.49618065,0.039050777,-0.11219221,-0.2953648,-0.007752937,784.90845,790.54944,783.2967,785.7143,934.3956,0.0523681640625,0.14013671875,0.9971923828125,6.29547119140625,7.289886474609375,-40.606536865234375,1,1.0,1.0,1.0,1.0,10.00
2024-10-11 20:14:30.235,0.91751134,0.9056783,1.1830834,0.5219378,0.6654334,0.5603007,0.66023135,0.5880554,0.8841669,0.636328,0.67729926,0.3928283,0.6282807,-0.003445672,0.045307003,0.49618065,0.039050777,-0.11219221,-0.2953648,-0.007752937,799.011,798.20514,787.72894,779.67035,790.9524,0.0523681640625,0.14013671875,0.9971923828125,6.29547119140625,7.289886474609375,-40.606536865234375,1,1.0,1.0,1.0,1.0,10.00
2024-10-11 20:14:30.236,0.91751134,0.9056783,1.1830834,0.5219378,0.6654334,0.5603007,0.66023135,0.5880554,0.8841669,0.636328,0.67729926,0.3928283,0.6282807,-0.003445672,0.045307003,0.49618065,0.039050777,-0.11219221,-0.2953648,-0.007752937,805.8608,804.2491,790.54944,774.83514,572.96704,0.0523681640625,0.14013671875,0.9971923828125,6.29547119140625,7.289886474609375,-40.606536865234375,1,1.0,1.0,1.0,1.0,10.00
2024-10-11 20:14:30.236,0.91751134,0.9056783,1.1830834,0.5219378,0.6654334,0.5603007,0.66023135,0.5880554,0.8841669,0.636328,0.67729926,0.3928283,0.6282807,-0.003445672,0.045307003,0.49618065,0.039050777,-0.11219221,-0.2953648,-0.007752937,801.02563,803.44324,790.14655,778.0586,669.2674,0.0523681640625,0.14013671875,0.9971923828125,6.29547119140625,7.289886474609375,-40.606536865234375,1,1.0,1.0,1.0,1.0,10.00
2024-10-11 20:14:30.237,0.91751134,0.9056783,1.1830834,0.5219378,0.6654334,0.5603007,0.66023135,0.5880554,0.8841669,0.636328,0.67729926,0.3928283,0.6282807,-0.003445672,0.045307003,0.49618065,0.039050777,-0.11219221,-0.2953648,-0.007752937,815.5311,804.65204,792.5641,795.78754,988.3883,0.0523681640625,0.14013671875,0.9971923828125,6.29547119140625,7.289886474609375,-40.606536865234375,1,1.0,1.0,1.0,1.0,10.00
2024-10-11 20:14:30.238,0.91751134,0.9056783,1.1830834,0.5219378,0.6654334,0.5603007,0.66023135,0.5880554,0.8841669,0.636328,0.67729926,0.3928283,0.6282807,-0.003445672,0.045307003,0.49618065,0.039050777,-0.11219221,-0.2953648,-0.007752937,806.6667,805.4579,799.81683,804.65204,802.6374,0.0523681640625,0.14013671875,0.9971923828125,6.29547119140625,7.289886474609375,-40.606536865234375,1,1.0,1.0,1.0,1.0,10.00
2024-10-11 20:14:30.238,0.91751134,0.9056783,1.1830834,0.5219378,0.6654334,0.5603007,0.66023135,0.5880554,0.8841669,0.636328,0.67729926,0.3928283,0.6282807,-0.003445672,0.045307003,0.49618065,0.039050777,-0.11219221,-0.2953648,-0.007752937,778.86444,805.05493,802.6374,801.8315,568.5348,0.0523681640625,0.14013671875,0.9971923828125,6.29547119140625,7.289886474609375,-40.606536865234375,1,1.0,1.0,1.0,1.0,10.00
2024-10-11 20:14:30.239,0.91751134,0.9056783,1.1830834,0.5219378,0.6654334,0.5603007,0.66023135,0.5880554,0.8841669,0.636328,0.67729926,0.3928283,0.6282807,-0.003445672,0.045307003,0.49618065,0.039050777,-0.11219221,-0.2953648,-0.007752937,797.3993,805.05493,802.23444,804.2491,758.71796,0.0523681640625,0.14013671875,0.9971923828125,6.29547119140625,7.289886474609375,-40.606536865234375,1,1.0,1.0,1.0,1.0,10.00
2024-10-11 20:14:30.239,0.91751134,0.9056783,1.1830834,0.5219378,0.6654334,0.5603007,0.66023135,0.5880554,0.8841669,0.636328,0.67729926,0.3928283,0.6282807,-0.003445672,0.045307003,0.49618065,0.039050777,-0.11219221,-0.2953648,-0.007752937,819.9634,806.6667,803.8461,815.5311,886.4469,0.0523681640625,0.14013671875,0.9971923828125,6.29547119140625,7.289886474609375,-40.606536865234375,1,1.0,1.0,1.0,1.0,10.00
2024-10-11 20:14:30.240,0.91751134,0.9056783,1.1830834,0.5219378,0.6654334,0.5603007,0.66023135,0.5880554,0.8841669,0.636328,0.67729926,0.3928283,0.6282807,-0.003445672,0.045307003,0.49618065,0.039050777,-0.11219221,-0.2953648,-0.007752937,814.7253,803.44324,801.4286,813.1135,659.59705,0.0523681640625,0.14013671875,0.9971923828125,6.29547119140625,7.289886474609375,-40.606536865234375,1,1.0,1.0,1.0,1.0,10.00
2024-10-11 20:14:30.240,0.9154814,0.9427576,1.2170069,0.5219378,0.6376256,0.54748154,0.6752363,0.5880554,0.9438301,0.6384109,0.67729926,0.3928283,0.6282734,0.002009516,0.036641832,0.49618065,0.08202198,-0.107878804,-0.29805663,-0.007752937,817.9487,802.6374,801.8315,805.4579,523.4066,0.0523681640625,0.14013671875,0.9971923828125,6.29547119140625,7.289886474609375,-40.606536865234375,1,1.0,1.0,1.0,1.0,10.00
2024-10-11 20:14:30.347,0.9154814,0.9427576,1.2170069,0.5219378,0.6376256,0.54748154,0.6752363,0.5880554,0.9438301,0.6384109,0.67729926,0.3928283,0.6282734,0.002009516,0.036641832,0.49618065,0.08202198,-0.107878804,-0.29805663,-0.007752937,828.8278,789.34064,802.23444,803.44324,657.98535,0.0523681640625,0.14013671875,0.9971923828125,6.29547119140625,7.289886474609375,-40.606536865234375,1,1.0,1.0,1.0,1.0,10.00
2024-10-11 20:14:30.348,0.9154814,0.9427576,1.2170069,0.5219378,0.6376256,0.54748154,0.6752363,0.5880554,0.9438301,0.6384109,0.67729926,0.3928283,0.6282734,0.002009516,0.036641832,0.49618065,0.08202198,-0.107878804,-0.29805663,-0.007752937,835.6777,788.1319,797.8022,807.8755,735.34796,0.0523681640625,0.14013671875,0.9971923828125,6.29547119140625,7.289886474609375,-40.606536865234375,1,1.0,1.0,1.0,1.0,10.00
2024-10-11 20:14:30.349,0.9154814,0.9427576,1.2170069,0.5219378,0.6376256,0.54748154,0.6752363,0.5880554,0.9438301,0.6384109,0.67729926,0.3928283,0.6282734,0.002009516,0.036641832,0.49618065,0.08202198,-0.107878804,-0.29805663,-0.007752937,825.2015,802.6374,796.1905,813.5165,649.92676,0.0523681640625,0.14013671875,0.9971923828125,6.29547119140625,7.289886474609375,-40.606536865234375,1,1.0,1.0,1.0,1.0,10.00
2024-10-11 20:14:30.350,0.9154814,0.9427576,1.2170069,0.5219378,0.6376256,0.54748154,0.6752363,0.5880554,0.9438301,0.6384109,0.67729926,0.3928283,0.6282734,0.002009516,0.036641832,0.49618065,0.08202198,-0.107878804,-0.29805663,-0.007752937,787.326,794.57874,800.6227,811.0989,639.85345,0.0523681640625,0.14013671875,0.9971923828125,6.29547119140625,7.289886474609375,-40.606536865234375,1,1.0,1.0,1.0,1.0,10.00
2024-10-11 20:14:30.350,0.9154814,0.9427576,1.2170069,0.5219378,0.6376256,0.54748154,0.6752363,0.5880554,0.9438301,0.6384109,0.67729926,0.3928283,0.6282734,0.002009516,0.036641832,0.49618065,0.08202198,-0.107878804,-0.29805663,-0.007752937,772.8205,793.7729,803.0403,808.2784,898.93774,0.0523681640625,0.14013671875,0.9971923828125,6.29547119140625,7.289886474609375,-40.606536865234375,1,1.0,1.0,1.0,1.0,10.00
2024-10-11 20:14:30.351,0.9154814,0.9427576,1.2170069,0.5219378,0.6376256,0.54748154,0.6752363,0.5880554,0.9438301,0.6384109,0.67729926,0.3928283,0.6282734,0.002009516,0.036641832,0.49618065,0.08202198,-0.107878804,-0.29805663,-0.007752937,777.25275,799.011,802.6374,804.2491,1041.5751,0.0523681640625,0.14013671875,0.9971923828125,6.29547119140625,7.289886474609375,-40.606536865234375,1,1.0,1.0,1.0,1.0,10.00
2024-10-11 20:14:30.351,0.9154814,0.9427576,1.2170069,0.5219378,0.6376256,0.54748154,0.6752363,0.5880554,0.9438301,0.6384109,0.67729926,0.3928283,0.6282734,0.002009516,0.036641832,0.49618065,0.08202198,-0.107878804,-0.29805663,-0.007752937,778.46155,799.81683,805.4579,799.011,916.6667,0.0523681640625,0.14013671875,0.9971923828125,6.29547119140625,7.289886474609375,-40.606536865234375,1,1.0,1.0,1.0,1.0,10.00
2024-10-11 20:14:30.352,0.9154814,0.9427576,1.2170069,0.5219378,0.6376256,0.54748154,0.6752363,0.5880554,0.9438301,0.6384109,0.67729926,0.3928283,0.6282734,0.002009516,0.036641832,0.49618065,0.08202198,-0.107878804,-0.29805663,-0.007752937,788.93774,799.011,808.2784,805.8608,875.56775,0.0523681640625,0.14013671875,0.9971923828125,6.29547119140625,7.289886474609375,-40.606536865234375,1,1.0,1.0,1.0,1.0,10.00
2024-10-11 20:14:30.353,0.9154814,0.9427576,1.2170069,0.5219378,0.6376256,0.54748154,0.6752363,0.5880554,0.9438301,0.6384109,0.67729926,0.3928283,0.6282734,0.002009516,0.036641832,0.49618065,0.08202198,-0.107878804,-0.29805663,-0.007752937,785.7143,792.5641,806.6667,817.5458,1047.2161,0.0523681640625,0.14013671875,0.9971923828125,6.29547119140625,7.289886474609375,-40.606536865234375,1,1.0,1.0,1.0,1.0,10.00
2024-10-11 20:14:30.353,0.9154814,0.9427576,1.2170069,0.5219378,0.6376256,0.54748154,0.6752363,0.5880554,0.9438301,0.6384109,0.67729926,0.3928283,0.6282734,0.002009516,0.036641832,0.49618065,0.08202198,-0.107878804,-0.29805663,-0.007752937,785.7143,792.1612,807.0696,821.5751,1252.3077,0.0523681640625,0.14013671875,0.9971923828125,6.29547119140625,7.289886474609375,-40.606536865234375,1,1.0,1.0,1.0,1.0,10.00
2024-10-11 20:14:30.354,0.9154814,0.9427576,1.2170069,0.5219378,0.6376256,0.54748154,0.6752363,0.5880554,0.9438301,0.6384109,0.67729926,0.3928283,0.6282734,0.002009516,0.036641832,0.49618065,0.08202198,-0.107878804,-0.29805663,-0.007752937,792.1612,797.8022,810.293,815.9341,973.47986,0.0523681640625,0.14013671875,0.9971923828125,6.29547119140625,7.289886474609375,-40.606536865234375,1,1.0,1.0,1.0,1.0,10.00
2024-10-11 20:14:30.358,0.9154814,0.9427576,1.2170069,0.5219378,0.6376256,0.54748154,0.6752363,0.5880554,0.9438301,0.6384109,0.67729926,0.3928283,0.6282734,0.002009516,0.036641832,0.49618065,0.08202198,-0.107878804,-0.29805663,-0.007752937,799.81683,795.38464,809.0842,810.293,797.3993,0.0523681640625,0.14013671875,0.9971923828125,6.29547119140625,7.289886474609375,-40.606536865234375,1,1.0,1.0,1.0,1.0,10.00
2024-10-11 20:14:30.389,0.9154814,0.9427576,1.2170069,0.5219378,0.6376256,0.54748154,0.6752363,0.5880554,0.9438301,0.6384109,0.67729926,0.3928283,0.6282734,0.002009516,0.036641832,0.49618065,0.08202198,-0.107878804,-0.29805663,-0.007752937,801.8315,788.93774,803.8461,805.05493,817.5458,0.035400390625,0.15142822265625,0.99267578125,6.0711669921875,9.383392333984375,-37.974700927734375,1,1.0,1.0,1.0,1.0,10.00
2024-10-11 20:14:30.390,0.9154814,0.9427576,1.2170069,0.5219378,0.6376256,0.54748154,0.6752363,0.5880554,0.9438301,0.6384109,0.67729926,0.3928283,0.6282734,0.002009516,0.036641832,0.49618065,0.08202198,-0.107878804,-0.29805663,-0.007752937,804.2491,790.54944,801.4286,803.44324,657.98535,0.035400390625,0.15142822265625,0.99267578125,6.0711669921875,9.383392333984375,-37.974700927734375,1,1.0,1.0,1.0,1.0,10.00
2024-10-11 20:14:30.391,0.9154814,0.9427576,1.2170069,0.5219378,0.6376256,0.54748154,0.6752363,0.5880554,0.9438301,0.6384109,0.67729926,0.3928283,0.6282734,0.002009516,0.036641832,0.49618065,0.08202198,-0.107878804,-0.29805663,-0.007752937,807.0696,793.7729,802.23444,811.0989,674.5055,0.035400390625,0.15142822265625,0.99267578125,6.0711669921875,9.383392333984375,-37.974700927734375,1,1.0,1.0,1.0,1.0,10.00
2024-10-11 20:14:30.391,0.9154814,0.9427576,1.2170069,0.5219378,0.6376256,0.54748154,0.6752363,0.5880554,0.9438301,0.6384109,0.67729926,0.3928283,0.6282734,0.002009516,0.036641832,0.49618065,0.08202198,-0.107878804,-0.29805663,-0.007752937,802.6374,790.14655,800.2198,799.011,737.76556,0.035400390625,0.15142822265625,0.99267578125,6.0711669921875,9.383392333984375,-37.974700927734375,1,1.0,1.0,1.0,1.0,10.00
2024-10-11 20:14:30.392,0.9154814,0.9427576,1.2170069,0.5219378,0.6376256,0.54748154,0.6752363,0.5880554,0.9438301,0.6384109,0.67729926,0.3928283,0.6282734,0.002009516,0.036641832,0.49618065,0.08202198,-0.107878804,-0.29805663,-0.007752937,807.47253,788.93774,799.81683,780.07324,716.4103,0.035400390625,0.15142822265625,0.99267578125,6.0711669921875,9.383392333984375,-37.974700927734375,1,1.0,1.0,1.0,1.0,10.00
2024-10-11 20:14:30.393,0.9154814,0.9427576,1.2170069,0.5219378,0.6376256,0.54748154,0.6752363,0.5880554,0.9438301,0.6384109,0.67729926,0.3928283,0.6282734,0.002009516,0.036641832,0.49618065,0.08202198,-0.107878804,-0.29805663,-0.007752937,809.0842,791.75824,802.23444,784.90845,761.9414,0.035400390625,0.15142822265625,0.99267578125,6.0711669921875,9.383392333984375,-37.974700927734375,1,1.0,1.0,1.0,1.0,10.00
2024-10-11 20:14:30.394,0.9154814,0.9427576,1.2170069,0.5219378,0.6376256,0.54748154,0.6752363,0.5880554,0.9438301,0.6384109,0.67729926,0.3928283,0.6282734,0.002009516,0.036641832,0.49618065,0.08202198,-0.107878804,-0.29805663,-0.007752937,817.5458,793.7729,800.6227,790.9524,912.23444,0.035400390625,0.15142822265625,0.99267578125,6.0711669921875,9.383392333984375,-37.974700927734375,1,1.0,1.0,1.0,1.0,10.00
2024-10-11 20:14:30.394,0.9154814,0.9427576,1.2170069,0.5219378,0.6376256,0.54748154,0.6752363,0.5880554,0.9438301,0.6384109,0.67729926,0.3928283,0.6282734,0.002009516,0.036641832,0.49618065,0.08202198,-0.107878804,-0.29805663,-0.007752937,817.1429,797.3993,803.44324,795.78754,1066.1538,0.035400390625,0.15142822265625,0.99267578125,6.0711669921875,9.383392333984375,-37.974700927734375,1,1.0,1.0,1.0,1.0,10.00
2024-10-11 20:14:30.395,0.9154814,0.9427576,1.2170069,0.5219378,0.6376256,0.54748154,0.6752363,0.5880554,0.9438301,0.6384109,0.67729926,0.3928283,0.6282734,0.002009516,0.036641832,0.49618065,0.08202198,-0.107878804,-0.29805663,-0.007752937,802.6374,794.17584,809.4872,795.38464,904.9817,0.035400390625,0.15142822265625,0.99267578125,6.0711669921875,9.383392333984375,-37.974700927734375,1,1.0,1.0,1.0,1.0,10.00
2024-10-11 20:14:30.396,0.9154814,0.9427576,1.2170069,0.5219378,0.6376256,0.54748154,0.6752363,0.5880554,0.9438301,0.6384109,0.67729926,0.3928283,0.6282734,0.002009516,0.036641832,0.49618065,0.08202198,-0.107878804,-0.29805663,-0.007752937,799.81683,800.2198,810.696,801.4286,608.4249,0.035400390625,0.15142822265625,0.99267578125,6.0711669921875,9.383392333984375,-37.974700927734375,1,1.0,1.0,1.0,1.0,10.00
2024-10-11 20:14:30.396,0.9154814,0.9427576,1.2170069,0.5219378,0.6376256,0.54748154,0.6752363,0.5880554,0.9438301,0.6384109,0.67729926,0.3928283,0.6282734,0.002009516,0.036641832,0.49618065,0.08202198,-0.107878804,-0.29805663,-0.007752937,809.89014,805.05493,811.9048,810.696,659.19415,0.035400390625,0.15142822265625,0.99267578125,6.0711669921875,9.383392333984375,-37.974700927734375,1,1.0,1.0,1.0,1.0,10.00
2024-10-11 20:14:30.397,0.9154814,0.9427576,1.2170069,0.5219378,0.6376256,0.54748154,0.6752363,0.5880554,0.9438301,0.6384109,0.67729926,0.3928283,0.6282734,0.002009516,0.036641832,0.49618065,0.08202198,-0.107878804,-0.29805663,-0.007752937,814.7253,795.38464,809.89014,809.89014,874.35895,0.035400390625,0.15142822265625,0.99267578125,6.0711669921875,9.383392333984375,-37.974700927734375,1,1.0,1.0,1.0,1.0,10.00
2024-10-11 20:14:30.398,0.9154814,0.9427576,1.2170069,0.5219378,0.6376256,0.54748154,0.6752363,0.5880554,0.9438301,0.6384109,0.67729926,0.3928283,0.6282734,0.002009516,0.036641832,0.49618065,0.08202198,-0.107878804,-0.29805663,-0.007752937,807.8755,793.7729,811.0989,805.4579,763.1502,0.0023193359375,0.16278076171875,0.99139404296875,5.66741943359375,12.06756591796875,-37.42889404296875,1,1.0,1.0,1.0,1.0,10.00
2024-10-11 20:14:30.399,0.93245274,0.9921016,1.2675167,0.5219378,0.6237478,0.54789525,0.6893692,0.5880554,0.97743636,0.6384109,0.67656094,0.3928283,0.6433487,-0.002231628,0.04016895,0.49618065,0.115686536,-0.10488395,-0.30669034,-0.007752937,786.52014,801.02563,811.0989,805.05493,438.38828,0.0023193359375,0.16278076171875,0.99139404296875,5.66741943359375,12.06756591796875,-37.42889404296875,1,1.0,1.0,1.0,1.0,10.00
2024-10-11 20:14:30.404,0.93245274,0.9921016,1.2675167,0.5219378,0.6237478,0.54789525,0.6893692,0.5880554,0.97743636,0.6384109,0.67656094,0.3928283,0.6433487,-0.002231628,0.04016895,0.49618065,0.115686536,-0.10488395,-0.30669034,-0.007752937,765.56775,793.36993,807.0696,812.71063,438.38828,0.0023193359375,0.16278076171875,0.99139404296875,5.66741943359375,12.06756591796875,-37.42889404296875,1,1.0,1.0,1.0,1.0,10.00
2024-10-11 20:14:30.407,0.93245274,0.9921016,1.2675167,0.5219378,0.6237478,0.54789525,0.6893692,0.5880554,0.97743636,0.6384109,0.67656094,0.3928283,0.6433487,-0.002231628,0.04016895,0.49618065,0.115686536,-0.10488395,-0.30669034,-0.007752937,757.9121,788.93774,805.05493,811.50183,700.696,0.0023193359375,0.16278076171875,0.99139404296875,5.66741943359375,12.06756591796875,-37.42889404296875,1,1.0,1.0,1.0,1.0,10.00
2024-10-11 20:14:30.407,0.93245274,0.9921016,1.2675167,0.5219378,0.6237478,0.54789525,0.6893692,0.5880554,0.97743636,0.6384109,0.67656094,0.3928283,0.6433487,-0.002231628,0.04016895,0.49618065,0.115686536,-0.10488395,-0.30669034,-0.007752937,758.315,791.3553,807.47253,806.6667,686.5934,0.0023193359375,0.16278076171875,0.99139404296875,5.66741943359375,12.06756591796875,-37.42889404296875,1,1.0,1.0,1.0,1.0,10.00
2024-10-11 20:14:30.408,0.93245274,0.9921016,1.2675167,0.5219378,0.6237478,0.54789525,0.6893692,0.5880554,0.97743636,0.6384109,0.67656094,0.3928283,0.6433487,-0.002231628,0.04016895,0.49618065,0.115686536,-0.10488395,-0.30669034,-0.007752937,772.01465,786.1172,805.8608,799.011,502.05127,0.0023193359375,0.16278076171875,0.99139404296875,5.66741943359375,12.06756591796875,-37.42889404296875,1,1.0,1.0,1.0,1.0,10.00
2024-10-11 20:14:30.409,0.93245274,0.9921016,1.2675167,0.5219378,0.6237478,0.54789525,0.6893692,0.5880554,0.97743636,0.6384109,0.67656094,0.3928283,0.6433487,-0.002231628,0.04016895,0.49618065,0.115686536,-0.10488395,-0.30669034,-0.007752937,788.93774,791.75824,805.05493,801.8315,599.9634,0.0023193359375,0.16278076171875,0.99139404296875,5.66741943359375,12.06756591796875,-37.42889404296875,1,1.0,1.0,1.0,1.0,10.00
2024-10-11 20:14:30.410,0.93245274,0.9921016,1.2675167,0.5219378,0.6237478,0.54789525,0.6893692,0.5880554,0.97743636,0.6384109,0.67656094,0.3928283,0.6433487,-0.002231628,0.04016895,0.49618065,0.115686536,-0.10488395,-0.30669034,-0.007752937,794.57874,796.99634,805.8608,807.47253,798.60803,0.0023193359375,0.16278076171875,0.99139404296875,5.66741943359375,12.06756591796875,-37.42889404296875,1,1.0,1.0,1.0,1.0,10.00
2024-10-11 20:14:30.410,0.93245274,0.9921016,1.2675167,0.5219378,0.6237478,0.54789525,0.6893692,0.5880554,0.97743636,0.6384109,0.67656094,0.3928283,0.6433487,-0.002231628,0.04016895,0.49618065,0.115686536,-0.10488395,-0.30669034,-0.007752937,788.5348,798.60803,806.26373,806.26373,706.337,0.0023193359375,0.16278076171875,0.99139404296875,5.66741943359375,12.06756591796875,-37.42889404296875,1,1.0,1.0,1.0,1.0,10.00
2024-10-11 20:14:30.411,0.93245274,0.9921016,1.2675167,0.5219378,0.6237478,0.54789525,0.6893692,0.5880554,0.97743636,0.6384109,0.67656094,0.3928283,0.6433487,-0.002231628,0.04016895,0.49618065,0.115686536,-0.10488395,-0.30669034,-0.007752937,796.1905,795.38464,809.4872,808.68134,530.2564,0.0023193359375,0.16278076171875,0.99139404296875,5.66741943359375,12.06756591796875,-37.42889404296875,1,1.0,1.0,1.0,1.0,10.00
2024-10-11 20:14:30.412,0.93245274,0.9921016,1.2675167,0.5219378,0.6237478,0.54789525,0.6893692,0.5880554,0.97743636,0.6384109,0.67656094,0.3928283,0.6433487,-0.002231628,0.04016895,0.49618065,0.115686536,-0.10488395,-0.30669034,-0.007752937,813.5165,798.20514,814.3223,811.9048,684.9817,0.0023193359375,0.16278076171875,0.99139404296875,5.66741943359375,12.06756591796875,-37.42889404296875,1,1.0,1.0,1.0,1.0,10.00
2024-10-11 20:14:30.412,0.93245274,0.9921016,1.2675167,0.5219378,0.6237478,0.54789525,0.6893692,0.5880554,0.97743636,0.6384109,0.67656094,0.3928283,0.6433487,-0.002231628,0.04016895,0.49618065,0.115686536,-0.10488395,-0.30669034,-0.007752937,824.7985,785.7143,808.68134,810.696,994.43225,0.0023193359375,0.16278076171875,0.99139404296875,5.66741943359375,12.06756591796875,-37.42889404296875,1,1.0,1.0,1.0,1.0,10.00
2024-10-11 20:14:30.444,0.93245274,0.9921016,1.2675167,0.5219378,0.6237478,0.54789525,0.6893692,0.5880554,0.97743636,0.6384109,0.67656094,0.3928283,0.6433487,-0.002231628,0.04016895,0.49618065,0.115686536,-0.10488395,-0.30669034,-0.007752937,830.84247,780.07324,801.8315,801.4286,786.9231,-0.0333251953125,0.18255615234375,0.990234375,6.74407958984375,14.0863037109375,-36.299896240234375,1,1.0,1.0,1.0,1.0,10.00
2024-10-11 20:14:30.445,0.93245274,0.9921016,1.2675167,0.5219378,0.6237478,0.54789525,0.6893692,0.5880554,0.97743636,0.6384109,0.67656094,0.3928283,0.6433487,-0.002231628,0.04016895,0.49618065,0.115686536,-0.10488395,-0.30669034,-0.007752937,843.3333,801.8315,802.23444,801.4286,578.60803,-0.0333251953125,0.18255615234375,0.990234375,6.74407958984375,14.0863037109375,-36.299896240234375,1,1.0,1.0,1.0,1.0,10.00
2024-10-11 20:14:30.446,0.93245274,0.9921016,1.2675167,0.5219378,0.6237478,0.54789525,0.6893692,0.5880554,0.97743636,0.6384109,0.67656094,0.3928283,0.6433487,-0.002231628,0.04016895,0.49618065,0.115686536,-0.10488395,-0.30669034,-0.007752937,849.3773,803.0403,803.44324,814.3223,684.17584,-0.0333251953125,0.18255615234375,0.990234375,6.74407958984375,14.0863037109375,-36.299896240234375,1,1.0,1.0,1.0,1.0,10.00
2024-10-11 20:14:30.446,0.93245274,0.9921016,1.2675167,0.5219378,0.6237478,0.54789525,0.6893692,0.5880554,0.97743636,0.6384109,0.67656094,0.3928283,0.6433487,-0.002231628,0.04016895,0.49618065,0.115686536,-0.10488395,-0.30669034,-0.007752937,841.7216,800.2198,807.47253,818.3516,911.8315,-0.0333251953125,0.18255615234375,0.990234375,6.74407958984375,14.0863037109375,-36.299896240234375,1,1.0,1.0,1.0,1.0,10.00
2024-10-11 20:14:30.447,0.93245274,0.9921016,1.2675167,0.5219378,0.6237478,0.54789525,0.6893692,0.5880554,0.97743636,0.6384109,0.67656094,0.3928283,0.6433487,-0.002231628,0.04016895,0.49618065,0.115686536,-0.10488395,-0.30669034,-0.007752937,819.9634,801.4286,807.0696,809.4872,856.2271,-0.0333251953125,0.18255615234375,0.990234375,6.74407958984375,14.0863037109375,-36.299896240234375,1,1.0,1.0,1.0,1.0,10.00
2024-10-11 20:14:30.448,0.93245274,0.9921016,1.2675167,0.5219378,0.6237478,0.54789525,0.6893692,0.5880554,0.97743636,0.6384109,0.67656094,0.3928283,0.6433487,-0.002231628,0.04016895,0.49618065,0.115686536,-0.10488395,-0.30669034,-0.007752937,803.0403,793.36993,807.0696,816.7399,826.8132,-0.0333251953125,0.18255615234375,0.990234375,6.74407958984375,14.0863037109375,-36.299896240234375,1,1.0,1.0,1.0,1.0,10.00
2024-10-11 20:14:30.448,0.93245274,0.9921016,1.2675167,0.5219378,0.6237478,0.54789525,0.6893692,0.5880554,0.97743636,0.6384109,0.67656094,0.3928283,0.6433487,-0.002231628,0.04016895,0.49618065,0.115686536,-0.10488395,-0.30669034,-0.007752937,798.60803,786.52014,811.50183,830.84247,895.7143,-0.0333251953125,0.18255615234375,0.990234375,6.74407958984375,14.0863037109375,-36.299896240234375,1,1.0,1.0,1.0,1.0,10.00
2024-10-11 20:14:30.449,0.93245274,0.9921016,1.2675167,0.5219378,0.6237478,0.54789525,0.6893692,0.5880554,0.97743636,0.6384109,0.67656094,0.3928283,0.6433487,-0.002231628,0.04016895,0.49618065,0.115686536,-0.10488395,-0.30669034,-0.007752937,794.9817,787.72894,805.05493,830.84247,859.45056,-0.0333251953125,0.18255615234375,0.990234375,6.74407958984375,14.0863037109375,-36.299896240234375,1,1.0,1.0,1.0,1.0,10.00
2024-10-11 20:14:30.450,0.93245274,0.9921016,1.2675167,0.5219378,0.6237478,0.54789525,0.6893692,0.5880554,0.97743636,0.6384109,0.67656094,0.3928283,0.6433487,-0.002231628,0.04016895,0.49618065,0.115686536,-0.10488395,-0.30669034,-0.007752937,788.1319,793.36993,804.65204,822.381,836.8865,-0.0333251953125,0.18255615234375,0.990234375,6.74407958984375,14.0863037109375,-36.299896240234375,1,1.0,1.0,1.0,1.0,10.00
2024-10-11 20:14:30.450,0.93245274,0.9921016,1.2675167,0.5219378,0.6237478,0.54789525,0.6893692,0.5880554,0.97743636,0.6384109,0.67656094,0.3928283,0.6433487,-0.002231628,0.04016895,0.49618065,0.115686536,-0.10488395,-0.30669034,-0.007752937,783.2967,794.9817,810.696,807.0696,772.01465,-0.0333251953125,0.18255615234375,0.990234375,6.74407958984375,14.0863037109375,-36.299896240234375,1,1.0,1.0,1.0,1.0,10.00
2024-10-11 20:14:30.451,0.93245274,0.9921016,1.2675167,0.5219378,0.6237478,0.54789525,0.6893692,0.5880554,0.97743636,0.6384109,0.67656094,0.3928283,0.6433487,-0.002231628,0.04016895,0.49618065,0.115686536,-0.10488395,-0.30669034,-0.007752937,792.1612,793.7729,806.26373,809.89014,817.1429,-0.0333251953125,0.18255615234375,0.990234375,6.74407958984375,14.0863037109375,-36.299896240234375,1,1.0,1.0,1.0,1.0,10.00
2024-10-11 20:14:30.451,0.93245274,0.9921016,1.2675167,0.5219378,0.6237478,0.54789525,0.6893692,0.5880554,0.97743636,0.6384109,0.67656094,0.3928283,0.6433487,-0.002231628,0.04016895,0.49618065,0.115686536,-0.10488395,-0.30669034,-0.007752937,795.38464,788.5348,799.81683,815.12823,1096.3737,-0.0333251953125,0.18255615234375,0.990234375,6.74407958984375,14.0863037109375,-36.299896240234375,1,1.0,1.0,1.0,1.0,10.00
2024-10-11 20:14:30.452,0.93245274,0.9921016,1.2675167,0.5219378,0.6237478,0.54789525,0.6893692,0.5880554,0.97743636,0.6384109,0.67656094,0.3928283,0.6433487,-0.002231628,0.04016895,0.49618065,0.115686536,-0.10488395,-0.30669034,-0.007752937,796.1905,796.5934,803.8461,802.6374,915.4579,-0.05694580078125,0.18267822265625,0.992431640625,6.542205810546875,14.31060791015625,-35.223236083984375,1,1.0,1.0,1.0,1.0,10.00
2024-10-11 20:14:30.453,0.93245274,0.9921016,1.2675167,0.5219378,0.6237478,0.54789525,0.6893692,0.5880554,0.97743636,0.6384109,0.67656094,0.3928283,0.6433487,-0.002231628,0.04016895,0.49618065,0.115686536,-0.10488395,-0.30669034,-0.007752937,775.64105,803.44324,799.41394,785.31134,749.45056,-0.05694580078125,0.18267822265625,0.992431640625,6.542205810546875,14.31060791015625,-35.223236083984375,1,1.0,1.0,1.0,1.0,10.00
2024-10-11 20:14:30.454,0.93245274,0.9921016,1.2675167,0.5219378,0.6237478,0.54789525,0.6893692,0.5880554,0.97743636,0.6384109,0.67656094,0.3928283,0.6433487,-0.002231628,0.04016895,0.49618065,0.115686536,-0.10488395,-0.30669034,-0.007752937,761.53845,800.2198,784.10254,788.5348,903.36993,-0.05694580078125,0.18267822265625,0.992431640625,6.542205810546875,14.31060791015625,-35.223236083984375,1,1.0,1.0,1.0,1.0,10.00
2024-10-11 20:14:30.455,0.9503304,1.0222906,1.3006275,1.1492712,0.6155915,0.53041804,0.68822336,0.58183616,1.0229526,0.6384109,0.66791415,0.66963315,0.67499083,-0.017075168,0.044259895,0.48036623,0.15227288,-0.1037534,-0.3149189,-0.07415816,782.49084,802.6374,785.31134,799.81683,765.9707,-0.05694580078125,0.18267822265625,0.992431640625,6.542205810546875,14.31060791015625,-35.223236083984375,1,1.0,1.0,1.0,1.0,10.00
2024-10-11 20:14:30.460,0.9503304,1.0222906,1.3006275,1.1492712,0.6155915,0.53041804,0.68822336,0.58183616,1.0229526,0.6384109,0.66791415,0.66963315,0.67499083,-0.017075168,0.044259895,0.48036623,0.15227288,-0.1037534,-0.3149189,-0.07415816,792.1612,802.23444,791.3553,792.96704,788.5348,-0.05694580078125,0.18267822265625,0.992431640625,6.542205810546875,14.31060791015625,-35.223236083984375,1,1.0,1.0,1.0,1.0,10.00
2024-10-11 20:14:30.460,0.9503304,1.0222906,1.3006275,1.1492712,0.6155915,0.53041804,0.68822336,0.58183616,1.0229526,0.6384109,0.66791415,0.66963315,0.67499083,-0.017075168,0.044259895,0.48036623,0.15227288,-0.1037534,-0.3149189,-0.07415816,799.41394,805.05493,791.3553,785.31134,1013.36993,-0.05694580078125,0.18267822265625,0.992431640625,6.542205810546875,14.31060791015625,-35.223236083984375,1,1.0,1.0,1.0,1.0,10.00
2024-10-11 20:14:30.461,0.9503304,1.0222906,1.3006275,1.1492712,0.6155915,0.53041804,0.68822336,0.58183616,1.0229526,0.6384109,0.66791415,0.66963315,0.67499083,-0.017075168,0.044259895,0.48036623,0.15227288,-0.1037534,-0.3149189,-0.07415816,799.81683,801.8315,786.52014,791.3553,1216.4469,-0.05694580078125,0.18267822265625,0.992431640625,6.542205810546875,14.31060791015625,-35.223236083984375,1,1.0,1.0,1.0,1.0,10.00
2024-10-11 20:14:30.461,0.9503304,1.0222906,1.3006275,1.1492712,0.6155915,0.53041804,0.68822336,0.58183616,1.0229526,0.6384109,0.66791415,0.66963315,0.67499083,-0.017075168,0.044259895,0.48036623,0.15227288,-0.1037534,-0.3149189,-0.07415816,813.91943,803.0403,782.49084,800.2198,1191.8682,-0.05694580078125,0.18267822265625,0.992431640625,6.542205810546875,14.31060791015625,-35.223236083984375,1,1.0,1.0,1.0,1.0,10.00
2024-10-11 20:14:30.462,0.9503304,1.0222906,1.3006275,1.1492712,0.6155915,0.53041804,0.68822336,0.58183616,1.0229526,0.6384109,0.66791415,0.66963315,0.67499083,-0.017075168,0.044259895,0.48036623,0.15227288,-0.1037534,-0.3149189,-0.07415816,830.4396,811.0989,783.2967,801.02563,743.00366,-0.05694580078125,0.18267822265625,0.992431640625,6.542205810546875,14.31060791015625,-35.223236083984375,1,1.0,1.0,1.0,1.0,10.00
2024-10-11 20:14:30.463,0.9503304,1.0222906,1.3006275,1.1492712,0.6155915,0.53041804,0.68822336,0.58183616,1.0229526,0.6384109,0.66791415,0.66963315,0.67499083,-0.017075168,0.044259895,0.48036623,0.15227288,-0.1037534,-0.3149189,-0.07415816,802.6374,810.293,786.52014,796.1905,695.4579,-0.05694580078125,0.18267822265625,0.992431640625,6.542205810546875,14.31060791015625,-35.223236083984375,1,1.0,1.0,1.0,1.0,10.00
2024-10-11 20:14:30.463,0.9503304,1.0222906,1.3006275,1.1492712,0.6155915,0.53041804,0.68822336,0.58183616,1.0229526,0.6384109,0.66791415,0.66963315,0.67499083,-0.017075168,0.044259895,0.48036623,0.15227288,-0.1037534,-0.3149189,-0.07415816,775.2381,808.2784,782.8938,786.1172,897.72894,-0.05694580078125,0.18267822265625,0.992431640625,6.542205810546875,14.31060791015625,-35.223236083984375,1,1.0,1.0,1.0,1.0,10.00
2024-10-11 20:14:30.464,0.9503304,1.0222906,1.3006275,1.1492712,0.6155915,0.53041804,0.68822336,0.58183616,1.0229526,0.6384109,0.66791415,0.66963315,0.67499083,-0.017075168,0.044259895,0.48036623,0.15227288,-0.1037534,-0.3149189,-0.07415816,787.326,811.50183,776.4469,774.83514,633.00366,-0.05694580078125,0.18267822265625,0.992431640625,6.542205810546875,14.31060791015625,-35.223236083984375,1,1.0,1.0,1.0,1.0,10.00
2024-10-11 20:14:30.529,0.9503304,1.0222906,1.3006275,1.1492712,0.6155915,0.53041804,0.68822336,0.58183616,1.0229526,0.6384109,0.66791415,0.66963315,0.67499083,-0.017075168,0.044259895,0.48036623,0.15227288,-0.1037534,-0.3149189,-0.07415816,821.5751,808.68134,775.64105,782.49084,484.32236,-0.05694580078125,0.18267822265625,0.992431640625,6.542205810546875,14.31060791015625,-35.223236083984375,1,1.0,1.0,1.0,1.0,10.00
2024-10-11 20:14:30.530,0.9503304,1.0222906,1.3006275,1.1492712,0.6155915,0.53041804,0.68822336,0.58183616,1.0229526,0.6384109,0.66791415,0.66963315,0.67499083,-0.017075168,0.044259895,0.48036623,0.15227288,-0.1037534,-0.3149189,-0.07415816,815.5311,798.20514,776.8498,795.78754,660.0,-0.05694580078125,0.18267822265625,0.992431640625,6.542205810546875,14.31060791015625,-35.223236083984375,1,1.0,1.0,1.0,1.0,10.00
2024-10-11 20:14:30.531,0.9503304,1.0222906,1.3006275,1.1492712,0.6155915,0.53041804,0.68822336,0.58183616,1.0229526,0.6384109,0.66791415,0.66963315,0.67499083,-0.017075168,0.044259895,0.48036623,0.15227288,-0.1037534,-0.3149189,-0.07415816,786.1172,813.1135,781.28204,795.38464,781.685,-0.05694580078125,0.18267822265625,0.992431640625,6.542205810546875,14.31060791015625,-35.223236083984375,1,1.0,1.0,1.0,1.0,10.00
2024-10-11 20:14:30.531,0.9503304,1.0222906,1.3006275,1.1492712,0.6155915,0.53041804,0.68822336,0.58183616,1.0229526,0.6384109,0.66791415,0.66963315,0.67499083,-0.017075168,0.044259895,0.48036623,0.15227288,-0.1037534,-0.3149189,-0.07415816,760.7326,823.9927,777.25275,792.5641,668.0586,-0.05694580078125,0.18267822265625,0.992431640625,6.542205810546875,14.31060791015625,-35.223236083984375,1,1.0,1.0,1.0,1.0,10.00
2024-10-11 20:14:30.532,0.9503304,1.0222906,1.3006275,1.1492712,0.6155915,0.53041804,0.68822336,0.58183616,1.0229526,0.6384109,0.66791415,0.66963315,0.67499083,-0.017075168,0.044259895,0.48036623,0.15227288,-0.1037534,-0.3149189,-0.07415816,751.4652,817.1429,771.2088,790.14655,659.59705,-0.05694580078125,0.18267822265625,0.992431640625,6.542205810546875,14.31060791015625,-35.223236083984375,1,1.0,1.0,1.0,1.0,10.00
2024-10-11 20:14:30.532,0.9503304,1.0222906,1.3006275,1.1492712,0.6155915,0.53041804,0.68822336,0.58183616,1.0229526,0.6384109,0.66791415,0.66963315,0.67499083,-0.017075168,0.044259895,0.48036623,0.15227288,-0.1037534,-0.3149189,-0.07415816,768.3883,811.0989,771.6117,798.20514,987.1795,-0.05694580078125,0.18267822265625,0.992431640625,6.542205810546875,14.31060791015625,-35.223236083984375,1,1.0,1.0,1.0,1.0,10.00
2024-10-11 20:14:30.533,0.9503304,1.0222906,1.3006275,1.1492712,0.6155915,0.53041804,0.68822336,0.58183616,1.0229526,0.6384109,0.66791415,0.66963315,0.67499083,-0.017075168,0.044259895,0.48036623,0.15227288,-0.1037534,-0.3149189,-0.07415816,794.17584,808.68134,776.8498,810.696,1349.011,-0.05694580078125,0.18267822265625,0.992431640625,6.542205810546875,14.31060791015625,-35.223236083984375,1,1.0,1.0,1.0,1.0,10.00
2024-10-11 20:14:30.533,0.9503304,1.0222906,1.3006275,1.1492712,0.6155915,0.53041804,0.68822336,0.58183616,1.0229526,0.6384109,0.66791415,0.66963315,0.67499083,-0.017075168,0.044259895,0.48036623,0.15227288,-0.1037534,-0.3149189,-0.07415816,804.2491,803.44324,781.28204,808.68134,1008.93774,-0.05694580078125,0.18267822265625,0.992431640625,6.542205810546875,14.31060791015625,-35.223236083984375,1,1.0,1.0,1.0,1.0,10.00
2024-10-11 20:14:30.534,0.9503304,1.0222906,1.3006275,1.1492712,0.6155915,0.53041804,0.68822336,0.58183616,1.0229526,0.6384109,0.66791415,0.66963315,0.67499083,-0.017075168,0.044259895,0.48036623,0.15227288,-0.1037534,-0.3149189,-0.07415816,803.8461,803.0403,783.2967,799.011,583.0403,-0.05694580078125,0.18267822265625,0.992431640625,6.542205810546875,14.31060791015625,-35.223236083984375,1,1.0,1.0,1.0,1.0,10.00
2024-10-11 20:14:30.535,0.9503304,1.0222906,1.3006275,1.1492712,0.6155915,0.53041804,0.68822336,0.58183616,1.0229526,0.6384109,0.66791415,0.66963315,0.67499083,-0.017075168,0.044259895,0.48036623,0.15227288,-0.1037534,-0.3149189,-0.07415816,791.3553,806.6667,786.1172,794.17584,731.31866,-0.05694580078125,0.18267822265625,0.992431640625,6.542205810546875,14.31060791015625,-35.223236083984375,1,1.0,1.0,1.0,1.0,10.00
2024-10-11 20:14:30.535,0.9503304,1.0222906,1.3006275,1.1492712,0.6155915,0.53041804,0.68822336,0.58183616,1.0229526,0.6384109,0.66791415,0.66963315,0.67499083,-0.017075168,0.044259895,0.48036623,0.15227288,-0.1037534,-0.3149189,-0.07415816,785.7143,809.89014,786.52014,792.1612,796.5934,-0.05694580078125,0.18267822265625,0.992431640625,6.542205810546875,14.31060791015625,-35.223236083984375,1,1.0,1.0,1.0,1.0,10.00
2024-10-11 20:14:30.536,0.9503304,1.0222906,1.3006275,1.1492712,0.6155915,0.53041804,0.68822336,0.58183616,1.0229526,0.6384109,0.66791415,0.66963315,0.67499083,-0.017075168,0.044259895,0.48036623,0.15227288,-0.1037534,-0.3149189,-0.07415816,778.46155,806.26373,790.9524,789.7436,643.0769,-0.05694580078125,0.18267822265625,0.992431640625,6.542205810546875,14.31060791015625,-35.223236083984375,1,1.0,1.0,1.0,1.0,10.00
2024-10-11 20:14:30.561,0.9503304,1.0222906,1.3006275,1.1492712,0.6155915,0.53041804,0.68822336,0.58183616,1.0229526,0.6384109,0.66791415,0.66963315,0.67499083,-0.017075168,0.044259895,0.48036623,0.15227288,-0.1037534,-0.3149189,-0.07415816,786.1172,807.0696,796.1905,792.96704,529.45056,-0.0765380859375,0.18682861328125,0.9835205078125,5.87677001953125,15.155487060546875,-32.845611572265625,1,1.0,1.0,1.0,1.0,10.00
2024-10-11 20:14:30.562,0.9503304,1.0222906,1.3006275,1.1492712,0.6155915,0.53041804,0.68822336,0.58183616,1.0229526,0.6384109,0.66791415,0.66963315,0.67499083,-0.017075168,0.044259895,0.48036623,0.15227288,-0.1037534,-0.3149189,-0.07415816,810.696,808.68134,788.5348,798.60803,693.44324,-0.0765380859375,0.18682861328125,0.9835205078125,5.87677001953125,15.155487060546875,-32.845611572265625,1,1.0,1.0,1.0,1.0,10.00
2024-10-11 20:14:30.563,0.9503304,1.0222906,1.3006275,1.1492712,0.6155915,0.53041804,0.68822336,0.58183616,1.0229526,0.6384109,0.66791415,0.66963315,0.67499083,-0.017075168,0.044259895,0.48036623,0.15227288,-0.1037534,-0.3149189,-0.07415816,817.5458,805.4579,786.52014,801.4286,770.40295,-0.0765380859375,0.18682861328125,0.9835205078125,5.87677001953125,15.155487060546875,-32.845611572265625,1,1.0,1.0,1.0,1.0,10.00
2024-10-11 20:14:30.563,0.9503304,1.0222906,1.3006275,1.1492712,0.6155915,0.53041804,0.68822336,0.58183616,1.0229526,0.6384109,0.66791415,0.66963315,0.67499083,-0.017075168,0.044259895,0.48036623,0.15227288,-0.1037534,-0.3149189,-0.07415816,806.6667,801.8315,789.34064,798.60803,701.9048,-0.0765380859375,0.18682861328125,0.9835205078125,5.87677001953125,15.155487060546875,-32.845611572265625,1,1.0,1.0,1.0,1.0,10.00
2024-10-11 20:14:30.564,0.9503304,1.0222906,1.3006275,1.1492712,0.6155915,0.53041804,0.68822336,0.58183616,1.0229526,0.6384109,0.66791415,0.66963315,0.67499083,-0.017075168,0.044259895,0.48036623,0.15227288,-0.1037534,-0.3149189,-0.07415816,815.12823,799.011,787.72894,794.57874,648.315,-0.0765380859375,0.18682861328125,0.9835205078125,5.87677001953125,15.155487060546875,-32.845611572265625,1,1.0,1.0,1.0,1.0,10.00
2024-10-11 20:14:30.565,0.95180553,1.0281003,1.3146939,1.0834666,0.60526276,0.49723968,0.6807391,0.672524,1.1028275,0.6344758,0.6570169,0.67811966,0.7246699,-0.031413026,0.04770609,0.53453904,0.20540982,-0.10288122,-0.32220083,-0.025454968,802.23444,789.7436,792.1612,799.41394,805.8608,-0.0765380859375,0.18682861328125,0.9835205078125,5.87677001953125,15.155487060546875,-32.845611572265625,1,1.0,1.0,1.0,1.0,10.00
2024-10-11 20:14:30.570,0.95180553,1.0281003,1.3146939,1.0834666,0.60526276,0.49723968,0.6807391,0.672524,1.1028275,0.6344758,0.6570169,0.67811966,0.7246699,-0.031413026,0.04770609,0.53453904,0.20540982,-0.10288122,-0.32220083,-0.025454968,769.19415,792.1612,796.5934,805.4579,881.2088,-0.0765380859375,0.18682861328125,0.9835205078125,5.87677001953125,15.155487060546875,-32.845611572265625,1,1.0,1.0,1.0,1.0,10.00
2024-10-11 20:14:30.570,0.95180553,1.0281003,1.3146939,1.0834666,0.60526276,0.49723968,0.6807391,0.672524,1.1028275,0.6344758,0.6570169,0.67811966,0.7246699,-0.031413026,0.04770609,0.53453904,0.20540982,-0.10288122,-0.32220083,-0.025454968,784.10254,787.72894,792.96704,805.8608,786.1172,-0.0765380859375,0.18682861328125,0.9835205078125,5.87677001953125,15.155487060546875,-32.845611572265625,1,1.0,1.0,1.0,1.0,10.00
2024-10-11 20:14:30.571,0.95180553,1.0281003,1.3146939,1.0834666,0.60526276,0.49723968,0.6807391,0.672524,1.1028275,0.6344758,0.6570169,0.67811966,0.7246699,-0.031413026,0.04770609,0.53453904,0.20540982,-0.10288122,-0.32220083,-0.025454968,801.4286,790.54944,791.3553,801.8315,681.3553,-0.0765380859375,0.18682861328125,0.9835205078125,5.87677001953125,15.155487060546875,-32.845611572265625,1,1.0,1.0,1.0,1.0,10.00
2024-10-11 20:14:30.571,0.95180553,1.0281003,1.3146939,1.0834666,0.60526276,0.49723968,0.6807391,0.672524,1.1028275,0.6344758,0.6570169,0.67811966,0.7246699,-0.031413026,0.04770609,0.53453904,0.20540982,-0.10288122,-0.32220083,-0.025454968,804.65204,808.68134,792.1612,793.36993,723.2601,-0.0765380859375,0.18682861328125,0.9835205078125,5.87677001953125,15.155487060546875,-32.845611572265625,1,1.0,1.0,1.0,1.0,10.00
2024-10-11 20:14:30.572,0.95180553,1.0281003,1.3146939,1.0834666,0.60526276,0.49723968,0.6807391,0.672524,1.1028275,0.6344758,0.6570169,0.67811966,0.7246699,-0.031413026,0.04770609,0.53453904,0.20540982,-0.10288122,-0.32220083,-0.025454968,815.12823,815.5311,796.1905,798.20514,733.73627,-0.0765380859375,0.18682861328125,0.9835205078125,5.87677001953125,15.155487060546875,-32.845611572265625,1,1.0,1.0,1.0,1.0,10.00
2024-10-11 20:14:30.573,0.95180553,1.0281003,1.3146939,1.0834666,0.60526276,0.49723968,0.6807391,0.672524,1.1028275,0.6344758,0.6570169,0.67811966,0.7246699,-0.031413026,0.04770609,0.53453904,0.20540982,-0.10288122,-0.32220083,-0.025454968,817.9487,812.71063,801.02563,806.6667,637.8388,-0.0765380859375,0.18682861328125,0.9835205078125,5.87677001953125,15.155487060546875,-32.845611572265625,1,1.0,1.0,1.0,1.0,10.00
2024-10-11 20:14:30.596,0.95180553,1.0281003,1.3146939,1.0834666,0.60526276,0.49723968,0.6807391,0.672524,1.1028275,0.6344758,0.6570169,0.67811966,0.7246699,-0.031413026,0.04770609,0.53453904,0.20540982,-0.10288122,-0.32220083,-0.025454968,796.99634,807.8755,803.0403,804.2491,638.24176,-0.09967041015625,0.18902587890625,0.98455810546875,6.213226318359375,17.18170166015625,-28.651123046875,1,1.0,1.0,1.0,1.0,10.00
2024-10-11 20:14:30.597,0.95180553,1.0281003,1.3146939,1.0834666,0.60526276,0.49723968,0.6807391,0.672524,1.1028275,0.6344758,0.6570169,0.67811966,0.7246699,-0.031413026,0.04770609,0.53453904,0.20540982,-0.10288122,-0.32220083,-0.025454968,781.28204,804.65204,804.2491,802.23444,696.6667,-0.09967041015625,0.18902587890625,0.98455810546875,6.213226318359375,17.18170166015625,-28.651123046875,1,1.0,1.0,1.0,1.0,10.00
2024-10-11 20:14:30.597,0.95180553,1.0281003,1.3146939,1.0834666,0.60526276,0.49723968,0.6807391,0.672524,1.1028275,0.6344758,0.6570169,0.67811966,0.7246699,-0.031413026,0.04770609,0.53453904,0.20540982,-0.10288122,-0.32220083,-0.025454968,790.14655,805.4579,803.8461,801.4286,645.4945,-0.09967041015625,0.18902587890625,0.98455810546875,6.213226318359375,17.18170166015625,-28.651123046875,1,1.0,1.0,1.0,1.0,10.00
2024-10-11 20:14:30.598,0.95180553,1.0281003,1.3146939,1.0834666,0.60526276,0.49723968,0.6807391,0.672524,1.1028275,0.6344758,0.6570169,0.67811966,0.7246699,-0.031413026,0.04770609,0.53453904,0.20540982,-0.10288122,-0.32220083,-0.025454968,794.9817,804.2491,800.2198,798.60803,595.12823,-0.09967041015625,0.18902587890625,0.98455810546875,6.213226318359375,17.18170166015625,-28.651123046875,1,1.0,1.0,1.0,1.0,10.00
2024-10-11 20:14:30.599,0.95180553,1.0281003,1.3146939,1.0834666,0.60526276,0.49723968,0.6807391,0.672524,1.1028275,0.6344758,0.6570169,0.67811966,0.7246699,-0.031413026,0.04770609,0.53453904,0.20540982,-0.10288122,-0.32220083,-0.025454968,802.6374,799.81683,801.02563,796.99634,725.6777,-0.09967041015625,0.18902587890625,0.98455810546875,6.213226318359375,17.18170166015625,-28.651123046875,1,1.0,1.0,1.0,1.0,10.00
2024-10-11 20:14:30.599,0.95180553,1.0281003,1.3146939,1.0834666,0.60526276,0.49723968,0.6807391,0.672524,1.1028275,0.6344758,0.6570169,0.67811966,0.7246699,-0.031413026,0.04770609,0.53453904,0.20540982,-0.10288122,-0.32220083,-0.025454968,794.9817,802.23444,803.0403,796.1905,1053.2601,-0.09967041015625,0.18902587890625,0.98455810546875,6.213226318359375,17.18170166015625,-28.651123046875,1,1.0,1.0,1.0,1.0,10.00
2024-10-11 20:14:30.600,0.95180553,1.0281003,1.3146939,1.0834666,0.60526276,0.49723968,0.6807391,0.672524,1.1028275,0.6344758,0.6570169,0.67811966,0.7246699,-0.031413026,0.04770609,0.53453904,0.20540982,-0.10288122,-0.32220083,-0.025454968,796.99634,803.8461,804.65204,798.20514,985.56775,-0.09967041015625,0.18902587890625,0.98455810546875,6.213226318359375,17.18170166015625,-28.651123046875,1,1.0,1.0,1.0,1.0,10.00
2024-10-11 20:14:30.600,0.95180553,1.0281003,1.3146939,1.0834666,0.60526276,0.49723968,0.6807391,0.672524,1.1028275,0.6344758,0.6570169,0.67811966,0.7246699,-0.031413026,0.04770609,0.53453904,0.20540982,-0.10288122,-0.32220083,-0.025454968,813.1135,802.23444,806.26373,801.8315,724.0659,-0.09967041015625,0.18902587890625,0.98455810546875,6.213226318359375,17.18170166015625,-28.651123046875,1,1.0,1.0,1.0,1.0,10.00
2024-10-11 20:14:30.601,0.95180553,1.0281003,1.3146939,1.0834666,0.60526276,0.49723968,0.6807391,0.672524,1.1028275,0.6344758,0.6570169,0.67811966,0.7246699,-0.031413026,0.04770609,0.53453904,0.20540982,-0.10288122,-0.32220083,-0.025454968,811.0989,801.02563,803.0403,805.4579,684.17584,-0.09967041015625,0.18902587890625,0.98455810546875,6.213226318359375,17.18170166015625,-28.651123046875,1,1.0,1.0,1.0,1.0,10.00
2024-10-11 20:14:30.601,0.95180553,1.0281003,1.3146939,1.0834666,0.60526276,0.49723968,0.6807391,0.672524,1.1028275,0.6344758,0.6570169,0.67811966,0.7246699,-0.031413026,0.04770609,0.53453904,0.20540982,-0.10288122,-0.32220083,-0.025454968,812.3077,797.3993,798.60803,811.50183,736.9597,-0.09967041015625,0.18902587890625,0.98455810546875,6.213226318359375,17.18170166015625,-28.651123046875,1,1.0,1.0,1.0,1.0,10.00
2024-10-11 20:14:30.602,0.95180553,1.0281003,1.3146939,1.0834666,0.60526276,0.49723968,0.6807391,0.672524,1.1028275,0.6344758,0.6570169,0.67811966,0.7246699,-0.031413026,0.04770609,0.53453904,0.20540982,-0.10288122,-0.32220083,-0.025454968,807.0696,799.41394,803.44324,815.12823,604.3956,-0.09967041015625,0.18902587890625,0.98455810546875,6.213226318359375,17.18170166015625,-28.651123046875,1,1.0,1.0,1.0,1.0,10.00
2024-10-11 20:14:30.603,0.95180553,1.0281003,1.3146939,1.0834666,0.60526276,0.49723968,0.6807391,0.672524,1.1028275,0.6344758,0.6570169,0.67811966,0.7246699,-0.031413026,0.04770609,0.53453904,0.20540982,-0.10288122,-0.32220083,-0.025454968,787.72894,801.02563,809.89014,808.2784,614.0659,-0.09967041015625,0.18902587890625,0.98455810546875,6.213226318359375,17.18170166015625,-28.651123046875,1,1.0,1.0,1.0,1.0,10.00
2024-10-11 20:14:30.661,0.95180553,1.0281003,1.3146939,1.0834666,0.60526276,0.49723968,0.6807391,0.672524,1.1028275,0.6344758,0.6570169,0.67811966,0.7246699,-0.031413026,0.04770609,0.53453904,0.20540982,-0.10288122,-0.32220083,-0.025454968,790.54944,800.6227,800.6227,815.9341,805.4579,-0.12640380859375,0.1900634765625,0.9771728515625,5.151519775390625,18.624725341796875,-24.815521240234375,1,1.0,1.0,1.0,1.0,10.00
2024-10-11 20:14:30.662,0.95180553,1.0281003,1.3146939,1.0834666,0.60526276,0.49723968,0.6807391,0.672524,1.1028275,0.6344758,0.6570169,0.67811966,0.7246699,-0.031413026,0.04770609,0.53453904,0.20540982,-0.10288122,-0.32220083,-0.025454968,797.3993,801.4286,798.20514,824.7985,753.0769,-0.12640380859375,0.1900634765625,0.9771728515625,5.151519775390625,18.624725341796875,-24.815521240234375,1,1.0,1.0,1.0,1.0,10.00
2024-10-11 20:14:30.662,0.95180553,1.0281003,1.3146939,1.0834666,0.60526276,0.49723968,0.6807391,0.672524,1.1028275,0.6344758,0.6570169,0.67811966,0.7246699,-0.031413026,0.04770609,0.53453904,0.20540982,-0.10288122,-0.32220083,-0.025454968,802.23444,808.68134,805.4579,823.5897,644.68866,-0.12640380859375,0.1900634765625,0.9771728515625,5.151519775390625,18.624725341796875,-24.815521240234375,1,1.0,1.0,1.0,1.0,10.00
2024-10-11 20:14:30.663,0.95180553,1.0281003,1.3146939,1.0834666,0.60526276,0.49723968,0.6807391,0.672524,1.1028275,0.6344758,0.6570169,0.67811966,0.7246699,-0.031413026,0.04770609,0.53453904,0.20540982,-0.10288122,-0.32220083,-0.025454968,817.5458,807.8755,805.05493,816.7399,724.4689,-0.12640380859375,0.1900634765625,0.9771728515625,5.151519775390625,18.624725341796875,-24.815521240234375,1,1.0,1.0,1.0,1.0,10.00
2024-10-11 20:14:30.664,0.95180553,1.0281003,1.3146939,1.0834666,0.60526276,0.49723968,0.6807391,0.672524,1.1028275,0.6344758,0.6570169,0.67811966,0.7246699,-0.031413026,0.04770609,0.53453904,0.20540982,-0.10288122,-0.32220083,-0.025454968,840.9158,803.8461,804.65204,809.4872,766.3736,-0.12640380859375,0.1900634765625,0.9771728515625,5.151519775390625,18.624725341796875,-24.815521240234375,1,1.0,1.0,1.0,1.0,10.00
2024-10-11 20:14:30.664,0.95180553,1.0281003,1.3146939,1.0834666,0.60526276,0.49723968,0.6807391,0.672524,1.1028275,0.6344758,0.6570169,0.67811966,0.7246699,-0.031413026,0.04770609,0.53453904,0.20540982,-0.10288122,-0.32220083,-0.025454968,836.8865,804.2491,803.0403,804.2491,690.6227,-0.12640380859375,0.1900634765625,0.9771728515625,5.151519775390625,18.624725341796875,-24.815521240234375,1,1.0,1.0,1.0,1.0,10.00
2024-10-11 20:14:30.665,0.95180553,1.0281003,1.3146939,1.0834666,0.60526276,0.49723968,0.6807391,0.672524,1.1028275,0.6344758,0.6570169,0.67811966,0.7246699,-0.031413026,0.04770609,0.53453904,0.20540982,-0.10288122,-0.32220083,-0.025454968,813.1135,805.8608,802.6374,806.6667,618.0952,-0.12640380859375,0.1900634765625,0.9771728515625,5.151519775390625,18.624725341796875,-24.815521240234375,1,1.0,1.0,1.0,1.0,10.00
2024-10-11 20:14:30.665,0.938825,1.0173595,1.3169383,1.0375967,0.5913259,0.45633987,0.6769133,0.7276931,1.2348706,0.6344758,0.6558164,0.6880248,0.79450136,-0.029481476,0.05309094,0.59472376,0.28148755,-0.0966224,-0.33354852,0.018126516,806.6667,802.6374,802.23444,813.1135,684.9817,-0.12640380859375,0.1900634765625,0.9771728515625,5.151519775390625,18.624725341796875,-24.815521240234375,1,1.0,1.0,1.0,1.0,10.00
2024-10-11 20:14:30.670,0.938825,1.0173595,1.3169383,1.0375967,0.5913259,0.45633987,0.6769133,0.7276931,1.2348706,0.6344758,0.6558164,0.6880248,0.79450136,-0.029481476,0.05309094,0.59472376,0.28148755,-0.0966224,-0.33354852,0.018126516,805.05493,793.36993,805.8608,812.71063,1073.4066,-0.12640380859375,0.1900634765625,0.9771728515625,5.151519775390625,18.624725341796875,-24.815521240234375,1,1.0,1.0,1.0,1.0,10.00
2024-10-11 20:14:30.671,0.938825,1.0173595,1.3169383,1.0375967,0.5913259,0.45633987,0.6769133,0.7276931,1.2348706,0.6344758,0.6558164,0.6880248,0.79450136,-0.029481476,0.05309094,0.59472376,0.28148755,-0.0966224,-0.33354852,0.018126516,803.8461,796.1905,807.0696,809.4872,969.45056,-0.12640380859375,0.1900634765625,0.9771728515625,5.151519775390625,18.624725341796875,-24.815521240234375,1,1.0,1.0,1.0,1.0,10.00
2024-10-11 20:14:30.671,0.938825,1.0173595,1.3169383,1.0375967,0.5913259,0.45633987,0.6769133,0.7276931,1.2348706,0.6344758,0.6558164,0.6880248,0.79450136,-0.029481476,0.05309094,0.59472376,0.28148755,-0.0966224,-0.33354852,0.018126516,809.89014,803.8461,805.4579,809.4872,586.26373,-0.12640380859375,0.1900634765625,0.9771728515625,5.151519775390625,18.624725341796875,-24.815521240234375,1,1.0,1.0,1.0,1.0,10.00
2024-10-11 20:14:30.672,0.938825,1.0173595,1.3169383,1.0375967,0.5913259,0.45633987,0.6769133,0.7276931,1.2348706,0.6344758,0.6558164,0.6880248,0.79450136,-0.029481476,0.05309094,0.59472376,0.28148755,-0.0966224,-0.33354852,0.018126516,824.3956,807.47253,807.47253,812.3077,688.60803,-0.12640380859375,0.1900634765625,0.9771728515625,5.151519775390625,18.624725341796875,-24.815521240234375,1,1.0,1.0,1.0,1.0,10.00
2024-10-11 20:14:30.694,0.938825,1.0173595,1.3169383,1.0375967,0.5913259,0.45633987,0.6769133,0.7276931,1.2348706,0.6344758,0.6558164,0.6880248,0.79450136,-0.029481476,0.05309094,0.59472376,0.28148755,-0.0966224,-0.33354852,0.018126516,811.0989,803.0403,806.6667,811.9048,948.49817,-0.17425537109375,0.184326171875,0.973388671875,4.269256591796875,21.4434814453125,-20.837860107421875,1,1.0,1.0,1.0,1.0,10.00
2024-10-11 20:14:30.695,0.938825,1.0173595,1.3169383,1.0375967,0.5913259,0.45633987,0.6769133,0.7276931,1.2348706,0.6344758,0.6558164,0.6880248,0.79450136,-0.029481476,0.05309094,0.59472376,0.28148755,-0.0966224,-0.33354852,0.018126516,802.6374,788.93774,803.44324,803.44324,804.65204,-0.17425537109375,0.184326171875,0.973388671875,4.269256591796875,21.4434814453125,-20.837860107421875,1,1.0,1.0,1.0,1.0,10.00
2024-10-11 20:14:30.696,0.938825,1.0173595,1.3169383,1.0375967,0.5913259,0.45633987,0.6769133,0.7276931,1.2348706,0.6344758,0.6558164,0.6880248,0.79450136,-0.029481476,0.05309094,0.59472376,0.28148755,-0.0966224,-0.33354852,0.018126516,819.9634,804.2491,803.8461,799.81683,591.0989,-0.17425537109375,0.184326171875,0.973388671875,4.269256591796875,21.4434814453125,-20.837860107421875,1,1.0,1.0,1.0,1.0,10.00
2024-10-11 20:14:30.696,0.938825,1.0173595,1.3169383,1.0375967,0.5913259,0.45633987,0.6769133,0.7276931,1.2348706,0.6344758,0.6558164,0.6880248,0.79450136,-0.029481476,0.05309094,0.59472376,0.28148755,-0.0966224,-0.33354852,0.018126516,802.23444,809.0842,811.9048,821.5751,699.89014,-0.17425537109375,0.184326171875,0.973388671875,4.269256591796875,21.4434814453125,-20.837860107421875,1,1.0,1.0,1.0,1.0,10.00
2024-10-11 20:14:30.697,0.938825,1.0173595,1.3169383,1.0375967,0.5913259,0.45633987,0.6769133,0.7276931,1.2348706,0.6344758,0.6558164,0.6880248,0.79450136,-0.029481476,0.05309094,0.59472376,0.28148755,-0.0966224,-0.33354852,0.018126516,790.54944,797.3993,813.5165,842.52747,913.0403,-0.17425537109375,0.184326171875,0.973388671875,4.269256591796875,21.4434814453125,-20.837860107421875,1,1.0,1.0,1.0,1.0,10.00
2024-10-11 20:14:30.698,0.938825,1.0173595,1.3169383,1.0375967,0.5913259,0.45633987,0.6769133,0.7276931,1.2348706,0.6344758,0.6558164,0.6880248,0.79450136,-0.029481476,0.05309094,0.59472376,0.28148755,-0.0966224,-0.33354852,0.018126516,818.7546,799.011,803.8461,822.381,890.07324,-0.17425537109375,0.184326171875,0.973388671875,4.269256591796875,21.4434814453125,-20.837860107421875,1,1.0,1.0,1.0,1.0,10.00
2024-10-11 20:14:30.698,0.938825,1.0173595,1.3169383,1.0375967,0.5913259,0.45633987,0.6769133,0.7276931,1.2348706,0.6344758,0.6558164,0.6880248,0.79450136,-0.029481476,0.05309094,0.59472376,0.28148755,-0.0966224,-0.33354852,0.018126516,837.28937,805.4579,800.6227,799.41394,716.8132,-0.17425537109375,0.184326171875,0.973388671875,4.269256591796875,21.4434814453125,-20.837860107421875,1,1.0,1.0,1.0,1.0,10.00
2024-10-11 20:14:30.699,0.938825,1.0173595,1.3169383,1.0375967,0.5913259,0.45633987,0.6769133,0.7276931,1.2348706,0.6344758,0.6558164,0.6880248,0.79450136,-0.029481476,0.05309094,0.59472376,0.28148755,-0.0966224,-0.33354852,0.018126516,788.5348,808.68134,807.0696,820.7692,779.67035,-0.17425537109375,0.184326171875,0.973388671875,4.269256591796875,21.4434814453125,-20.837860107421875,1,1.0,1.0,1.0,1.0,10.00
2024-10-11 20:14:30.699,0.938825,1.0173595,1.3169383,1.0375967,0.5913259,0.45633987,0.6769133,0.7276931,1.2348706,0.6344758,0.6558164,0.6880248,0.79450136,-0.029481476,0.05309094,0.59472376,0.28148755,-0.0966224,-0.33354852,0.018126516,751.4652,804.65204,805.8608,835.6777,886.04395,-0.17425537109375,0.184326171875,0.973388671875,4.269256591796875,21.4434814453125,-20.837860107421875,1,1.0,1.0,1.0,1.0,10.00
2024-10-11 20:14:30.700,0.938825,1.0173595,1.3169383,1.0375967,0.5913259,0.45633987,0.6769133,0.7276931,1.2348706,0.6344758,0.6558164,0.6880248,0.79450136,-0.029481476,0.05309094,0.59472376,0.28148755,-0.0966224,-0.33354852,0.018126516,781.28204,803.0403,803.44324,832.0513,724.0659,-0.17425537109375,0.184326171875,0.973388671875,4.269256591796875,21.4434814453125,-20.837860107421875,1,1.0,1.0,1.0,1.0,10.00
2024-10-11 20:14:30.700,0.938825,1.0173595,1.3169383,1.0375967,0.5913259,0.45633987,0.6769133,0.7276931,1.2348706,0.6344758,0.6558164,0.6880248,0.79450136,-0.029481476,0.05309094,0.59472376,0.28148755,-0.0966224,-0.33354852,0.018126516,805.4579,805.4579,809.4872,821.978,623.73627,-0.17425537109375,0.184326171875,0.973388671875,4.269256591796875,21.4434814453125,-20.837860107421875,1,1.0,1.0,1.0,1.0,10.00
2024-10-11 20:14:30.701,0.938825,1.0173595,1.3169383,1.0375967,0.5913259,0.45633987,0.6769133,0.7276931,1.2348706,0.6344758,0.6558164,0.6880248,0.79450136,-0.029481476,0.05309094,0.59472376,0.28148755,-0.0966224,-0.33354852,0.018126516,811.0989,795.78754,807.47253,804.2491,789.34064,-0.17425537109375,0.184326171875,0.973388671875,4.269256591796875,21.4434814453125,-20.837860107421875,1,1.0,1.0,1.0,1.0,10.00
2024-10-11 20:14:30.728,0.938825,1.0173595,1.3169383,1.0375967,0.5913259,0.45633987,0.6769133,0.7276931,1.2348706,0.6344758,0.6558164,0.6880248,0.79450136,-0.029481476,0.05309094,0.59472376,0.28148755,-0.0966224,-0.33354852,0.018126516,813.91943,789.34064,803.44324,814.7253,1053.663,-0.17425537109375,0.184326171875,0.973388671875,4.269256591796875,21.4434814453125,-20.837860107421875,1,1.0,1.0,1.0,1.0,10.00
2024-10-11 20:14:30.729,0.938825,1.0173595,1.3169383,1.0375967,0.5913259,0.45633987,0.6769133,0.7276931,1.2348706,0.6344758,0.6558164,0.6880248,0.79450136,-0.029481476,0.05309094,0.59472376,0.28148755,-0.0966224,-0.33354852,0.018126516,814.7253,798.20514,808.68134,820.3663,799.41394,-0.17425537109375,0.184326171875,0.973388671875,4.269256591796875,21.4434814453125,-20.837860107421875,1,1.0,1.0,1.0,1.0,10.00
