TimeStamp,Delta_TP9,Delta_AF7,Delta_AF8,Delta_TP10,Theta_TP9,Theta_AF7,Theta_AF8,Theta_TP10,Alpha_TP9,Alpha_AF7,Alpha_AF8,Alpha_TP10,Beta_TP9,Beta_AF7,Beta_AF8,Beta_TP10,Gamma_TP9,Gamma_AF7,Gamma_AF8,Gamma_TP10,RAW_TP9,RAW_AF7,RAW_AF8,RAW_TP10,AUX_RIGHT,Accelerometer_X,Accelerometer_Y,Accelerometer_Z,Gyro_X,Gyro_Y,Gyro_Z,HeadBandOn,HSI_TP9,HSI_AF7,HSI_AF8,HSI_TP10,Battery,Elements
2024-10-11 20:27:49.511,0.19337225,-0.4121004,-0.018266175,0.1075316,-0.028032862,-0.21734019,-0.16195366,0.14432058,0.19817281,-0.19200465,-0.16649768,0.41084826,0.2344606,-0.21741565,0.029033171,0.29735962,-0.11839946,-0.406758,-0.2278827,-0.14074749,813.91943,797.3993,799.41394,801.8315,570.14655,-0.25238037109375,0.06964111328125,0.9801025390625,0.2093505859375,0.04486083984375,-0.97198486328125,1,1.0,1.0,1.0,1.0,10.00
2024-10-11 20:27:49.513,0.19337225,-0.4121004,-0.018266175,0.1075316,-0.028032862,-0.21734019,-0.16195366,0.14432058,0.19817281,-0.19200465,-0.16649768,0.41084826,0.2344606,-0.21741565,0.029033171,0.29735962,-0.11839946,-0.406758,-0.2278827,-0.14074749,817.5458,794.57874,797.3993,807.8755,780.4762,-0.25238037109375,0.06964111328125,0.9801025390625,0.2093505859375,0.04486083984375,-0.97198486328125,1,1.0,1.0,1.0,1.0,10.00
2024-10-11 20:27:49.514,0.19337225,-0.4121004,-0.018266175,0.1075316,-0.028032862,-0.21734019,-0.16195366,0.14432058,0.19817281,-0.19200465,-0.16649768,0.41084826,0.2344606,-0.21741565,0.029033171,0.29735962,-0.11839946,-0.406758,-0.2278827,-0.14074749,817.9487,800.6227,801.02563,807.8755,917.47253,-0.25238037109375,0.06964111328125,0.9801025390625,0.2093505859375,0.04486083984375,-0.97198486328125,1,1.0,1.0,1.0,1.0,10.00
2024-10-11 20:27:49.516,0.19337225,-0.4121004,-0.018266175,0.1075316,-0.028032862,-0.21734019,-0.16195366,0.14432058,0.19817281,-0.19200465,-0.16649768,0.41084826,0.2344606,-0.21741565,0.029033171,0.29735962,-0.11839946,-0.406758,-0.2278827,-0.14074749,817.1429,799.81683,804.65204,804.65204,667.6557,-0.25238037109375,0.06964111328125,0.9801025390625,0.2093505859375,0.04486083984375,-0.97198486328125,1,1.0,1.0,1.0,1.0,10.00
2024-10-11 20:27:49.517,0.19337225,-0.4121004,-0.018266175,0.1075316,-0.028032862,-0.21734019,-0.16195366,0.14432058,0.19817281,-0.19200465,-0.16649768,0.41084826,0.2344606,-0.21741565,0.029033171,0.29735962,-0.11839946,-0.406758,-0.2278827,-0.14074749,815.5311,798.60803,803.8461,805.4579,622.1245,-0.25238037109375,0.06964111328125,0.9801025390625,0.2093505859375,0.04486083984375,-0.97198486328125,1,1.0,1.0,1.0,1.0,10.00
2024-10-11 20:27:49.519,0.19337225,-0.4121004,-0.018266175,0.1075316,-0.028032862,-0.21734019,-0.16195366,0.14432058,0.19817281,-0.19200465,-0.16649768,0.41084826,0.2344606,-0.21741565,0.029033171,0.29735962,-0.11839946,-0.406758,-0.2278827,-0.14074749,813.5165,791.75824,803.0403,808.68134,843.73627,-0.25238037109375,0.06964111328125,0.9801025390625,0.2093505859375,0.04486083984375,-0.97198486328125,1,1.0,1.0,1.0,1.0,10.00
2024-10-11 20:27:49.520,0.19337225,-0.4121004,-0.018266175,0.1075316,-0.028032862,-0.21734019,-0.16195366,0.14432058,0.19817281,-0.19200465,-0.16649768,0.41084826,0.2344606,-0.21741565,0.029033171,0.29735962,-0.11839946,-0.406758,-0.2278827,-0.14074749,818.3516,796.5934,807.8755,818.3516,951.31866,-0.25238037109375,0.06964111328125,0.9801025390625,0.2093505859375,0.04486083984375,-0.97198486328125,1,1.0,1.0,1.0,1.0,10.00
2024-10-11 20:27:49.520,0.19337225,-0.4121004,-0.018266175,0.1075316,-0.028032862,-0.21734019,-0.16195366,0.14432058,0.19817281,-0.19200465,-0.16649768,0.41084826,0.2344606,-0.21741565,0.029033171,0.29735962,-0.11839946,-0.406758,-0.2278827,-0.14074749,812.71063,801.4286,799.011,813.5165,822.381,-0.25238037109375,0.06964111328125,0.9801025390625,0.2093505859375,0.04486083984375,-0.97198486328125,1,1.0,1.0,1.0,1.0,10.00
2024-10-11 20:27:49.521,0.19337225,-0.4121004,-0.018266175,0.1075316,-0.028032862,-0.21734019,-0.16195366,0.14432058,0.19817281,-0.19200465,-0.16649768,0.41084826,0.2344606,-0.21741565,0.029033171,0.29735962,-0.11839946,-0.406758,-0.2278827,-0.14074749,807.47253,791.3553,803.8461,807.47253,713.1868,-0.25238037109375,0.06964111328125,0.9801025390625,0.2093505859375,0.04486083984375,-0.97198486328125,1,1.0,1.0,1.0,1.0,10.00
2024-10-11 20:27:49.522,0.19337225,-0.4121004,-0.018266175,0.1075316,-0.028032862,-0.21734019,-0.16195366,0.14432058,0.19817281,-0.19200465,-0.16649768,0.41084826,0.2344606,-0.21741565,0.029033171,0.29735962,-0.11839946,-0.406758,-0.2278827,-0.14074749,813.5165,792.96704,813.91943,810.696,757.1062,-0.25238037109375,0.06964111328125,0.9801025390625,0.2093505859375,0.04486083984375,-0.97198486328125,1,1.0,1.0,1.0,1.0,10.00
2024-10-11 20:27:49.523,0.19337225,-0.4121004,-0.018266175,0.1075316,-0.028032862,-0.21734019,-0.16195366,0.14432058,0.19817281,-0.19200465,-0.16649768,0.41084826,0.2344606,-0.21741565,0.029033171,0.29735962,-0.11839946,-0.406758,-0.2278827,-0.14074749,813.5165,795.78754,808.68134,811.50183,696.6667,-0.25238037109375,0.06964111328125,0.9801025390625,0.2093505859375,0.04486083984375,-0.97198486328125,1,1.0,1.0,1.0,1.0,10.00
2024-10-11 20:27:49.524,0.19337225,-0.4121004,-0.018266175,0.1075316,-0.028032862,-0.21734019,-0.16195366,0.14432058,0.19817281,-0.19200465,-0.16649768,0.41084826,0.2344606,-0.21741565,0.029033171,0.29735962,-0.11839946,-0.406758,-0.2278827,-0.14074749,812.71063,795.38464,807.8755,813.91943,608.4249,-0.25238037109375,0.06964111328125,0.9801025390625,0.2093505859375,0.04486083984375,-0.97198486328125,1,1.0,1.0,1.0,1.0,10.00
2024-10-11 20:27:49.584,0.19337225,-0.4121004,-0.018266175,0.1075316,-0.028032862,-0.21734019,-0.16195366,0.14432058,0.19817281,-0.19200465,-0.16649768,0.41084826,0.2344606,-0.21741565,0.029033171,0.29735962,-0.11839946,-0.406758,-0.2278827,-0.14074749,812.71063,796.99634,805.05493,814.3223,666.4469,-0.25238037109375,0.06964111328125,0.9801025390625,0.2093505859375,0.04486083984375,-0.97198486328125,1,1.0,1.0,1.0,1.0,10.00
2024-10-11 20:27:49.586,0.19337225,-0.4121004,-0.018266175,0.1075316,-0.028032862,-0.21734019,-0.16195366,0.14432058,0.19817281,-0.19200465,-0.16649768,0.41084826,0.2344606,-0.21741565,0.029033171,0.29735962,-0.11839946,-0.406758,-0.2278827,-0.14074749,807.0696,799.011,803.8461,818.7546,934.7985,-0.25238037109375,0.06964111328125,0.9801025390625,0.2093505859375,0.04486083984375,-0.97198486328125,1,1.0,1.0,1.0,1.0,10.00
2024-10-11 20:27:49.588,0.19337225,-0.4121004,-0.018266175,0.1075316,-0.028032862,-0.21734019,-0.16195366,0.14432058,0.19817281,-0.19200465,-0.16649768,0.41084826,0.2344606,-0.21741565,0.029033171,0.29735962,-0.11839946,-0.406758,-0.2278827,-0.14074749,806.6667,802.23444,805.4579,815.5311,797.8022,-0.25238037109375,0.06964111328125,0.9801025390625,0.2093505859375,0.04486083984375,-0.97198486328125,1,1.0,1.0,1.0,1.0,10.00
2024-10-11 20:27:49.590,0.19337225,-0.4121004,-0.018266175,0.1075316,-0.028032862,-0.21734019,-0.16195366,0.14432058,0.19817281,-0.19200465,-0.16649768,0.41084826,0.2344606,-0.21741565,0.029033171,0.29735962,-0.11839946,-0.406758,-0.2278827,-0.14074749,807.47253,802.6374,805.05493,810.696,594.7253,-0.25238037109375,0.06964111328125,0.9801025390625,0.2093505859375,0.04486083984375,-0.97198486328125,1,1.0,1.0,1.0,1.0,10.00
2024-10-11 20:27:49.592,0.19337225,-0.4121004,-0.018266175,0.1075316,-0.028032862,-0.21734019,-0.16195366,0.14432058,0.19817281,-0.19200465,-0.16649768,0.41084826,0.2344606,-0.21741565,0.029033171,0.29735962,-0.11839946,-0.406758,-0.2278827,-0.14074749,807.8755,801.8315,807.47253,808.2784,816.7399,-0.25238037109375,0.06964111328125,0.9801025390625,0.2093505859375,0.04486083984375,-0.97198486328125,1,1.0,1.0,1.0,1.0,10.00
2024-10-11 20:27:49.593,0.17455426,-0.36111733,-0.0013701018,0.12242891,-0.052637897,-0.1694573,-0.13373707,0.14042956,0.20501964,-0.23813172,-0.13493922,0.38727054,0.23580153,-0.21274486,0.031436607,0.32225937,-0.10089294,-0.41747606,-0.20883799,-0.112639226,814.3223,798.60803,807.47253,809.4872,1054.0659,-0.25238037109375,0.06964111328125,0.9801025390625,0.2093505859375,0.04486083984375,-0.97198486328125,1,1.0,1.0,1.0,1.0,10.00
2024-10-11 20:27:49.599,0.17455426,-0.36111733,-0.0013701018,0.12242891,-0.052637897,-0.1694573,-0.13373707,0.14042956,0.20501964,-0.23813172,-0.13493922,0.38727054,0.23580153,-0.21274486,0.031436607,0.32225937,-0.10089294,-0.41747606,-0.20883799,-0.112639226,812.71063,800.2198,802.6374,802.6374,836.08057,-0.25238037109375,0.06964111328125,0.9801025390625,0.2093505859375,0.04486083984375,-0.97198486328125,1,1.0,1.0,1.0,1.0,10.00
2024-10-11 20:27:49.600,0.17455426,-0.36111733,-0.0013701018,0.12242891,-0.052637897,-0.1694573,-0.13373707,0.14042956,0.20501964,-0.23813172,-0.13493922,0.38727054,0.23580153,-0.21274486,0.031436607,0.32225937,-0.10089294,-0.41747606,-0.20883799,-0.112639226,809.4872,802.6374,805.4579,797.3993,666.04395,-0.25238037109375,0.06964111328125,0.9801025390625,0.2093505859375,0.04486083984375,-0.97198486328125,1,1.0,1.0,1.0,1.0,10.00
2024-10-11 20:27:49.601,0.17455426,-0.36111733,-0.0013701018,0.12242891,-0.052637897,-0.1694573,-0.13373707,0.14042956,0.20501964,-0.23813172,-0.13493922,0.38727054,0.23580153,-0.21274486,0.031436607,0.32225937,-0.10089294,-0.41747606,-0.20883799,-0.112639226,813.1135,799.41394,812.3077,803.8461,813.91943,-0.25238037109375,0.06964111328125,0.9801025390625,0.2093505859375,0.04486083984375,-0.97198486328125,1,1.0,1.0,1.0,1.0,10.00
2024-10-11 20:27:49.602,0.17455426,-0.36111733,-0.0013701018,0.12242891,-0.052637897,-0.1694573,-0.13373707,0.14042956,0.20501964,-0.23813172,-0.13493922,0.38727054,0.23580153,-0.21274486,0.031436607,0.32225937,-0.10089294,-0.41747606,-0.20883799,-0.112639226,811.50183,799.41394,811.0989,804.2491,898.1319,-0.25238037109375,0.06964111328125,0.9801025390625,0.2093505859375,0.04486083984375,-0.97198486328125,1,1.0,1.0,1.0,1.0,10.00
2024-10-11 20:27:49.603,0.17455426,-0.36111733,-0.0013701018,0.12242891,-0.052637897,-0.1694573,-0.13373707,0.14042956,0.20501964,-0.23813172,-0.13493922,0.38727054,0.23580153,-0.21274486,0.031436607,0.32225937,-0.10089294,-0.41747606,-0.20883799,-0.112639226,809.0842,799.011,807.8755,803.0403,630.989,-0.25238037109375,0.06964111328125,0.9801025390625,0.2093505859375,0.04486083984375,-0.97198486328125,1,1.0,1.0,1.0,1.0,10.00
2024-10-11 20:27:49.604,0.17455426,-0.36111733,-0.0013701018,0.12242891,-0.052637897,-0.1694573,-0.13373707,0.14042956,0.20501964,-0.23813172,-0.13493922,0.38727054,0.23580153,-0.21274486,0.031436607,0.32225937,-0.10089294,-0.41747606,-0.20883799,-0.112639226,807.0696,800.2198,806.6667,807.8755,511.3187,-0.25238037109375,0.06964111328125,0.9801025390625,0.2093505859375,0.04486083984375,-0.97198486328125,1,1.0,1.0,1.0,1.0,10.00
2024-10-11 20:27:49.605,0.17455426,-0.36111733,-0.0013701018,0.12242891,-0.052637897,-0.1694573,-0.13373707,0.14042956,0.20501964,-0.23813172,-0.13493922,0.38727054,0.23580153,-0.21274486,0.031436607,0.32225937,-0.10089294,-0.41747606,-0.20883799,-0.112639226,803.44324,799.41394,807.0696,807.47253,766.77655,-0.24755859375,0.07135009765625,0.96905517578125,0.3887939453125,-0.650482177734375,-0.76263427734375,1,1.0,1.0,1.0,1.0,10.00
2024-10-11 20:27:49.606,0.17455426,-0.36111733,-0.0013701018,0.12242891,-0.052637897,-0.1694573,-0.13373707,0.14042956,0.20501964,-0.23813172,-0.13493922,0.38727054,0.23580153,-0.21274486,0.031436607,0.32225937,-0.10089294,-0.41747606,-0.20883799,-0.112639226,803.0403,804.65204,803.8461,807.47253,966.2271,-0.24755859375,0.07135009765625,0.96905517578125,0.3887939453125,-0.650482177734375,-0.76263427734375,1,1.0,1.0,1.0,1.0,10.00
2024-10-11 20:27:49.607,0.17455426,-0.36111733,-0.0013701018,0.12242891,-0.052637897,-0.1694573,-0.13373707,0.14042956,0.20501964,-0.23813172,-0.13493922,0.38727054,0.23580153,-0.21274486,0.031436607,0.32225937,-0.10089294,-0.41747606,-0.20883799,-0.112639226,798.60803,808.68134,801.4286,798.60803,751.4652,-0.24755859375,0.07135009765625,0.96905517578125,0.3887939453125,-0.650482177734375,-0.76263427734375,1,1.0,1.0,1.0,1.0,10.00
2024-10-11 20:27:49.608,0.17455426,-0.36111733,-0.0013701018,0.12242891,-0.052637897,-0.1694573,-0.13373707,0.14042956,0.20501964,-0.23813172,-0.13493922,0.38727054,0.23580153,-0.21274486,0.031436607,0.32225937,-0.10089294,-0.41747606,-0.20883799,-0.112639226,792.96704,802.23444,801.8315,795.38464,667.6557,-0.24755859375,0.07135009765625,0.96905517578125,0.3887939453125,-0.650482177734375,-0.76263427734375,1,1.0,1.0,1.0,1.0,10.00
2024-10-11 20:27:49.609,0.17455426,-0.36111733,-0.0013701018,0.12242891,-0.052637897,-0.1694573,-0.13373707,0.14042956,0.20501964,-0.23813172,-0.13493922,0.38727054,0.23580153,-0.21274486,0.031436607,0.32225937,-0.10089294,-0.41747606,-0.20883799,-0.112639226,793.7729,799.41394,795.38464,798.20514,836.08057,-0.24755859375,0.07135009765625,0.96905517578125,0.3887939453125,-0.650482177734375,-0.76263427734375,1,1.0,1.0,1.0,1.0,10.00
2024-10-11 20:27:49.610,0.17455426,-0.36111733,-0.0013701018,0.12242891,-0.052637897,-0.1694573,-0.13373707,0.14042956,0.20501964,-0.23813172,-0.13493922,0.38727054,0.23580153,-0.21274486,0.031436607,0.32225937,-0.10089294,-0.41747606,-0.20883799,-0.112639226,794.57874,796.5934,793.36993,793.7729,965.0183,-0.24755859375,0.07135009765625,0.96905517578125,0.3887939453125,-0.650482177734375,-0.76263427734375,1,1.0,1.0,1.0,1.0,10.00
2024-10-11 20:27:49.612,0.17455426,-0.36111733,-0.0013701018,0.12242891,-0.052637897,-0.1694573,-0.13373707,0.14042956,0.20501964,-0.23813172,-0.13493922,0.38727054,0.23580153,-0.21274486,0.031436607,0.32225937,-0.10089294,-0.41747606,-0.20883799,-0.112639226,792.96704,797.8022,796.5934,793.36993,917.47253,-0.24755859375,0.07135009765625,0.96905517578125,0.3887939453125,-0.650482177734375,-0.76263427734375,1,1.0,1.0,1.0,1.0,10.00
2024-10-11 20:27:49.613,0.17455426,-0.36111733,-0.0013701018,0.12242891,-0.052637897,-0.1694573,-0.13373707,0.14042956,0.20501964,-0.23813172,-0.13493922,0.38727054,0.23580153,-0.21274486,0.031436607,0.32225937,-0.10089294,-0.41747606,-0.20883799,-0.112639226,794.9817,800.6227,792.96704,792.5641,903.7729,-0.24755859375,0.07135009765625,0.96905517578125,0.3887939453125,-0.650482177734375,-0.76263427734375,1,1.0,1.0,1.0,1.0,10.00
2024-10-11 20:27:49.614,0.17455426,-0.36111733,-0.0013701018,0.12242891,-0.052637897,-0.1694573,-0.13373707,0.14042956,0.20501964,-0.23813172,-0.13493922,0.38727054,0.23580153,-0.21274486,0.031436607,0.32225937,-0.10089294,-0.41747606,-0.20883799,-0.112639226,796.99634,801.8315,794.17584,799.41394,1067.7656,-0.24755859375,0.07135009765625,0.96905517578125,0.3887939453125,-0.650482177734375,-0.76263427734375,1,1.0,1.0,1.0,1.0,10.00
2024-10-11 20:27:49.616,0.17455426,-0.36111733,-0.0013701018,0.12242891,-0.052637897,-0.1694573,-0.13373707,0.14042956,0.20501964,-0.23813172,-0.13493922,0.38727054,0.23580153,-0.21274486,0.031436607,0.32225937,-0.10089294,-0.41747606,-0.20883799,-0.112639226,796.5934,802.6374,796.1905,802.6374,908.60803,-0.24755859375,0.07135009765625,0.96905517578125,0.3887939453125,-0.650482177734375,-0.76263427734375,1,1.0,1.0,1.0,1.0,10.00
2024-10-11 20:27:49.617,0.17455426,-0.36111733,-0.0013701018,0.12242891,-0.052637897,-0.1694573,-0.13373707,0.14042956,0.20501964,-0.23813172,-0.13493922,0.38727054,0.23580153,-0.21274486,0.031436607,0.32225937,-0.10089294,-0.41747606,-0.20883799,-0.112639226,799.81683,805.05493,790.9524,795.78754,675.31134,-0.24755859375,0.07135009765625,0.96905517578125,0.3887939453125,-0.650482177734375,-0.76263427734375,1,1.0,1.0,1.0,1.0,10.00
2024-10-11 20:27:49.618,0.17455426,-0.36111733,-0.0013701018,0.12242891,-0.052637897,-0.1694573,-0.13373707,0.14042956,0.20501964,-0.23813172,-0.13493922,0.38727054,0.23580153,-0.21274486,0.031436607,0.32225937,-0.10089294,-0.41747606,-0.20883799,-0.112639226,800.6227,805.05493,786.9231,790.9524,736.9597,-0.24755859375,0.07135009765625,0.96905517578125,0.3887939453125,-0.650482177734375,-0.76263427734375,1,1.0,1.0,1.0,1.0,10.00
2024-10-11 20:27:49.643,0.17455426,-0.36111733,-0.0013701018,0.12242891,-0.052637897,-0.1694573,-0.13373707,0.14042956,0.20501964,-0.23813172,-0.13493922,0.38727054,0.23580153,-0.21274486,0.031436607,0.32225937,-0.10089294,-0.41747606,-0.20883799,-0.112639226,803.0403,799.011,789.34064,800.6227,1025.4579,-0.2532958984375,0.0703125,0.9794921875,-0.007476806640625,-1.24114990234375,-0.3289794921875,1,1.0,1.0,1.0,1.0,10.00
2024-10-11 20:27:49.644,0.17455426,-0.36111733,-0.0013701018,0.12242891,-0.052637897,-0.1694573,-0.13373707,0.14042956,0.20501964,-0.23813172,-0.13493922,0.38727054,0.23580153,-0.21274486,0.031436607,0.32225937,-0.10089294,-0.41747606,-0.20883799,-0.112639226,796.1905,800.2198,792.96704,801.8315,918.2784,-0.2532958984375,0.0703125,0.9794921875,-0.007476806640625,-1.24114990234375,-0.3289794921875,1,1.0,1.0,1.0,1.0,10.00
2024-10-11 20:27:49.645,0.17455426,-0.36111733,-0.0013701018,0.12242891,-0.052637897,-0.1694573,-0.13373707,0.14042956,0.20501964,-0.23813172,-0.13493922,0.38727054,0.23580153,-0.21274486,0.031436607,0.32225937,-0.10089294,-0.41747606,-0.20883799,-0.112639226,792.96704,799.011,796.1905,793.36993,697.0696,-0.2532958984375,0.0703125,0.9794921875,-0.007476806640625,-1.24114990234375,-0.3289794921875,1,1.0,1.0,1.0,1.0,10.00
2024-10-11 20:27:49.646,0.17455426,-0.36111733,-0.0013701018,0.12242891,-0.052637897,-0.1694573,-0.13373707,0.14042956,0.20501964,-0.23813172,-0.13493922,0.38727054,0.23580153,-0.21274486,0.031436607,0.32225937,-0.10089294,-0.41747606,-0.20883799,-0.112639226,792.96704,793.36993,796.1905,793.7729,708.3516,-0.2532958984375,0.0703125,0.9794921875,-0.007476806640625,-1.24114990234375,-0.3289794921875,1,1.0,1.0,1.0,1.0,10.00
2024-10-11 20:27:49.647,0.17455426,-0.36111733,-0.0013701018,0.12242891,-0.052637897,-0.1694573,-0.13373707,0.14042956,0.20501964,-0.23813172,-0.13493922,0.38727054,0.23580153,-0.21274486,0.031436607,0.32225937,-0.10089294,-0.41747606,-0.20883799,-0.112639226,793.7729,794.57874,792.96704,793.36993,865.89746,-0.2532958984375,0.0703125,0.9794921875,-0.007476806640625,-1.24114990234375,-0.3289794921875,1,1.0,1.0,1.0,1.0,10.00
2024-10-11 20:27:49.648,0.17455426,-0.36111733,-0.0013701018,0.12242891,-0.052637897,-0.1694573,-0.13373707,0.14042956,0.20501964,-0.23813172,-0.13493922,0.38727054,0.23580153,-0.21274486,0.031436607,0.32225937,-0.10089294,-0.41747606,-0.20883799,-0.112639226,795.78754,794.9817,795.38464,789.34064,991.2088,-0.2532958984375,0.0703125,0.9794921875,-0.007476806640625,-1.24114990234375,-0.3289794921875,1,1.0,1.0,1.0,1.0,10.00
2024-10-11 20:27:49.649,0.17455426,-0.36111733,-0.0013701018,0.12242891,-0.052637897,-0.1694573,-0.13373707,0.14042956,0.20501964,-0.23813172,-0.13493922,0.38727054,0.23580153,-0.21274486,0.031436607,0.32225937,-0.10089294,-0.41747606,-0.20883799,-0.112639226,788.1319,796.5934,803.44324,788.5348,907.3993,-0.2532958984375,0.0703125,0.9794921875,-0.007476806640625,-1.24114990234375,-0.3289794921875,1,1.0,1.0,1.0,1.0,10.00
2024-10-11 20:27:49.650,0.16841593,-0.32430467,0.01135155,0.1470235,-0.08288855,-0.14524642,-0.11656138,0.13629338,0.26310128,-0.23839022,-0.032717817,0.36831212,0.23387104,-0.20557708,0.031191934,0.35264015,-0.090861455,-0.43578282,-0.18470721,-0.08809365,784.90845,795.38464,803.44324,784.5055,818.3516,-0.2532958984375,0.0703125,0.9794921875,-0.007476806640625,-1.24114990234375,-0.3289794921875,1,1.0,1.0,1.0,1.0,10.00
2024-10-11 20:27:49.655,0.16841593,-0.32430467,0.01135155,0.1470235,-0.08288855,-0.14524642,-0.11656138,0.13629338,0.26310128,-0.23839022,-0.032717817,0.36831212,0.23387104,-0.20557708,0.031191934,0.35264015,-0.090861455,-0.43578282,-0.18470721,-0.08809365,788.5348,790.54944,802.23444,790.54944,1119.3407,-0.2532958984375,0.0703125,0.9794921875,-0.007476806640625,-1.24114990234375,-0.3289794921875,1,1.0,1.0,1.0,1.0,10.00
2024-10-11 20:27:49.656,0.16841593,-0.32430467,0.01135155,0.1470235,-0.08288855,-0.14524642,-0.11656138,0.13629338,0.26310128,-0.23839022,-0.032717817,0.36831212,0.23387104,-0.20557708,0.031191934,0.35264015,-0.090861455,-0.43578282,-0.18470721,-0.08809365,780.4762,788.93774,799.41394,795.38464,1212.4176,-0.2532958984375,0.0703125,0.9794921875,-0.007476806640625,-1.24114990234375,-0.3289794921875,1,1.0,1.0,1.0,1.0,10.00
2024-10-11 20:27:49.657,0.16841593,-0.32430467,0.01135155,0.1470235,-0.08288855,-0.14524642,-0.11656138,0.13629338,0.26310128,-0.23839022,-0.032717817,0.36831212,0.23387104,-0.20557708,0.031191934,0.35264015,-0.090861455,-0.43578282,-0.18470721,-0.08809365,774.43225,794.17584,794.17584,784.90845,794.17584,-0.2532958984375,0.0703125,0.9794921875,-0.007476806640625,-1.24114990234375,-0.3289794921875,1,1.0,1.0,1.0,1.0,10.00
2024-10-11 20:27:49.659,0.16841593,-0.32430467,0.01135155,0.1470235,-0.08288855,-0.14524642,-0.11656138,0.13629338,0.26310128,-0.23839022,-0.032717817,0.36831212,0.23387104,-0.20557708,0.031191934,0.35264015,-0.090861455,-0.43578282,-0.18470721,-0.08809365,782.49084,791.75824,799.41394,785.31134,718.4249,-0.2532958984375,0.0703125,0.9794921875,-0.007476806640625,-1.24114990234375,-0.3289794921875,1,1.0,1.0,1.0,1.0,10.00
2024-10-11 20:27:49.661,0.16841593,-0.32430467,0.01135155,0.1470235,-0.08288855,-0.14524642,-0.11656138,0.13629338,0.26310128,-0.23839022,-0.032717817,0.36831212,0.23387104,-0.20557708,0.031191934,0.35264015,-0.090861455,-0.43578282,-0.18470721,-0.08809365,785.7143,794.17584,805.8608,793.36993,727.6923,-0.24847412109375,0.07220458984375,0.97515869140625,-0.351409912109375,-1.682281494140625,-0.6280517578125,1,1.0,1.0,1.0,1.0,10.00
2024-10-11 20:27:49.663,0.16841593,-0.32430467,0.01135155,0.1470235,-0.08288855,-0.14524642,-0.11656138,0.13629338,0.26310128,-0.23839022,-0.032717817,0.36831212,0.23387104,-0.20557708,0.031191934,0.35264015,-0.090861455,-0.43578282,-0.18470721,-0.08809365,788.5348,800.2198,804.65204,794.57874,680.14655,-0.24847412109375,0.07220458984375,0.97515869140625,-0.351409912109375,-1.682281494140625,-0.6280517578125,1,1.0,1.0,1.0,1.0,10.00
2024-10-11 20:27:49.664,0.16841593,-0.32430467,0.01135155,0.1470235,-0.08288855,-0.14524642,-0.11656138,0.13629338,0.26310128,-0.23839022,-0.032717817,0.36831212,0.23387104,-0.20557708,0.031191934,0.35264015,-0.090861455,-0.43578282,-0.18470721,-0.08809365,792.5641,795.38464,801.8315,796.99634,669.67035,-0.24847412109375,0.07220458984375,0.97515869140625,-0.351409912109375,-1.682281494140625,-0.6280517578125,1,1.0,1.0,1.0,1.0,10.00
2024-10-11 20:27:49.666,0.16841593,-0.32430467,0.01135155,0.1470235,-0.08288855,-0.14524642,-0.11656138,0.13629338,0.26310128,-0.23839022,-0.032717817,0.36831212,0.23387104,-0.20557708,0.031191934,0.35264015,-0.090861455,-0.43578282,-0.18470721,-0.08809365,796.1905,791.75824,798.60803,802.23444,730.9158,-0.24847412109375,0.07220458984375,0.97515869140625,-0.351409912109375,-1.682281494140625,-0.6280517578125,1,1.0,1.0,1.0,1.0,10.00
2024-10-11 20:27:49.667,0.16841593,-0.32430467,0.01135155,0.1470235,-0.08288855,-0.14524642,-0.11656138,0.13629338,0.26310128,-0.23839022,-0.032717817,0.36831212,0.23387104,-0.20557708,0.031191934,0.35264015,-0.090861455,-0.43578282,-0.18470721,-0.08809365,800.6227,794.57874,800.2198,806.26373,772.01465,-0.24847412109375,0.07220458984375,0.97515869140625,-0.351409912109375,-1.682281494140625,-0.6280517578125,1,1.0,1.0,1.0,1.0,10.00
2024-10-11 20:27:49.668,0.16841593,-0.32430467,0.01135155,0.1470235,-0.08288855,-0.14524642,-0.11656138,0.13629338,0.26310128,-0.23839022,-0.032717817,0.36831212,0.23387104,-0.20557708,0.031191934,0.35264015,-0.090861455,-0.43578282,-0.18470721,-0.08809365,810.293,796.1905,805.05493,808.2784,827.619,-0.24847412109375,0.07220458984375,0.97515869140625,-0.351409912109375,-1.682281494140625,-0.6280517578125,1,1.0,1.0,1.0,1.0,10.00
2024-10-11 20:27:49.669,0.16841593,-0.32430467,0.01135155,0.1470235,-0.08288855,-0.14524642,-0.11656138,0.13629338,0.26310128,-0.23839022,-0.032717817,0.36831212,0.23387104,-0.20557708,0.031191934,0.35264015,-0.090861455,-0.43578282,-0.18470721,-0.08809365,819.9634,798.20514,805.05493,812.71063,929.15753,-0.24847412109375,0.07220458984375,0.97515869140625,-0.351409912109375,-1.682281494140625,-0.6280517578125,1,1.0,1.0,1.0,1.0,10.00
2024-10-11 20:27:49.670,0.16841593,-0.32430467,0.01135155,0.1470235,-0.08288855,-0.14524642,-0.11656138,0.13629338,0.26310128,-0.23839022,-0.032717817,0.36831212,0.23387104,-0.20557708,0.031191934,0.35264015,-0.090861455,-0.43578282,-0.18470721,-0.08809365,826.4103,799.011,803.8461,820.7692,958.1685,-0.24847412109375,0.07220458984375,0.97515869140625,-0.351409912109375,-1.682281494140625,-0.6280517578125,1,1.0,1.0,1.0,1.0,10.00
2024-10-11 20:27:49.671,0.16841593,-0.32430467,0.01135155,0.1470235,-0.08288855,-0.14524642,-0.11656138,0.13629338,0.26310128,-0.23839022,-0.032717817,0.36831212,0.23387104,-0.20557708,0.031191934,0.35264015,-0.090861455,-0.43578282,-0.18470721,-0.08809365,828.8278,802.6374,809.4872,822.381,738.1685,-0.24847412109375,0.07220458984375,0.97515869140625,-0.351409912109375,-1.682281494140625,-0.6280517578125,1,1.0,1.0,1.0,1.0,10.00
2024-10-11 20:27:49.672,0.16841593,-0.32430467,0.01135155,0.1470235,-0.08288855,-0.14524642,-0.11656138,0.13629338,0.26310128,-0.23839022,-0.032717817,0.36831212,0.23387104,-0.20557708,0.031191934,0.35264015,-0.090861455,-0.43578282,-0.18470721,-0.08809365,828.4249,803.8461,816.7399,816.337,579.41394,-0.24847412109375,0.07220458984375,0.97515869140625,-0.351409912109375,-1.682281494140625,-0.6280517578125,1,1.0,1.0,1.0,1.0,10.00
2024-10-11 20:27:49.673,0.16841593,-0.32430467,0.01135155,0.1470235,-0.08288855,-0.14524642,-0.11656138,0.13629338,0.26310128,-0.23839022,-0.032717817,0.36831212,0.23387104,-0.20557708,0.031191934,0.35264015,-0.090861455,-0.43578282,-0.18470721,-0.08809365,816.337,799.011,805.05493,803.44324,636.63007,-0.24847412109375,0.07220458984375,0.97515869140625,-0.351409912109375,-1.682281494140625,-0.6280517578125,1,1.0,1.0,1.0,1.0,10.00
2024-10-11 20:27:49.675,0.16841593,-0.32430467,0.01135155,0.1470235,-0.08288855,-0.14524642,-0.11656138,0.13629338,0.26310128,-0.23839022,-0.032717817,0.36831212,0.23387104,-0.20557708,0.031191934,0.35264015,-0.090861455,-0.43578282,-0.18470721,-0.08809365,804.65204,799.41394,792.5641,790.14655,775.2381,-0.24847412109375,0.07220458984375,0.97515869140625,-0.351409912109375,-1.682281494140625,-0.6280517578125,1,1.0,1.0,1.0,1.0,10.00
2024-10-11 20:27:49.708,0.16841593,-0.32430467,0.01135155,0.1470235,-0.08288855,-0.14524642,-0.11656138,0.13629338,0.26310128,-0.23839022,-0.032717817,0.36831212,0.23387104,-0.20557708,0.031191934,0.35264015,-0.090861455,-0.43578282,-0.18470721,-0.08809365,798.20514,803.0403,796.1905,784.90845,811.9048,-0.24652099609375,0.07147216796875,0.98284912109375,-0.88226318359375,-1.42059326171875,-0.37384033203125,1,1.0,1.0,1.0,1.0,10.00
2024-10-11 20:27:49.709,0.16841593,-0.32430467,0.01135155,0.1470235,-0.08288855,-0.14524642,-0.11656138,0.13629338,0.26310128,-0.23839022,-0.032717817,0.36831212,0.23387104,-0.20557708,0.031191934,0.35264015,-0.090861455,-0.43578282,-0.18470721,-0.08809365,787.72894,813.5165,807.47253,778.86444,621.31866,-0.24652099609375,0.07147216796875,0.98284912109375,-0.88226318359375,-1.42059326171875,-0.37384033203125,1,1.0,1.0,1.0,1.0,10.00
2024-10-11 20:27:49.713,0.16841593,-0.32430467,0.01135155,0.1470235,-0.08288855,-0.14524642,-0.11656138,0.13629338,0.26310128,-0.23839022,-0.032717817,0.36831212,0.23387104,-0.20557708,0.031191934,0.35264015,-0.090861455,-0.43578282,-0.18470721,-0.08809365,806.26373,829.6337,822.381,791.75824,664.0293,-0.24652099609375,0.07147216796875,0.98284912109375,-0.88226318359375,-1.42059326171875,-0.37384033203125,1,1.0,1.0,1.0,1.0,10.00
2024-10-11 20:27:49.714,0.16841593,-0.32430467,0.01135155,0.1470235,-0.08288855,-0.14524642,-0.11656138,0.13629338,0.26310128,-0.23839022,-0.032717817,0.36831212,0.23387104,-0.20557708,0.031191934,0.35264015,-0.090861455,-0.43578282,-0.18470721,-0.08809365,809.0842,821.1722,822.381,797.3993,860.65936,-0.24652099609375,0.07147216796875,0.98284912109375,-0.88226318359375,-1.42059326171875,-0.37384033203125,1,1.0,1.0,1.0,1.0,10.00
2024-10-11 20:27:49.716,0.16841593,-0.32430467,0.01135155,0.1470235,-0.08288855,-0.14524642,-0.11656138,0.13629338,0.26310128,-0.23839022,-0.032717817,0.36831212,0.23387104,-0.20557708,0.031191934,0.35264015,-0.090861455,-0.43578282,-0.18470721,-0.08809365,765.16486,810.696,820.3663,759.92676,695.4579,-0.24652099609375,0.07147216796875,0.98284912109375,-0.88226318359375,-1.42059326171875,-0.37384033203125,1,1.0,1.0,1.0,1.0,10.00
2024-10-11 20:27:49.717,0.16841593,-0.32430467,0.01135155,0.1470235,-0.08288855,-0.14524642,-0.11656138,0.13629338,0.26310128,-0.23839022,-0.032717817,0.36831212,0.23387104,-0.20557708,0.031191934,0.35264015,-0.090861455,-0.43578282,-0.18470721,-0.08809365,753.47986,819.5604,825.6044,745.42126,725.6777,-0.24652099609375,0.07147216796875,0.98284912109375,-0.88226318359375,-1.42059326171875,-0.37384033203125,1,1.0,1.0,1.0,1.0,10.00
2024-10-11 20:27:49.718,0.16841593,-0.32430467,0.01135155,0.1470235,-0.08288855,-0.14524642,-0.11656138,0.13629338,0.26310128,-0.23839022,-0.032717817,0.36831212,0.23387104,-0.20557708,0.031191934,0.35264015,-0.090861455,-0.43578282,-0.18470721,-0.08809365,744.61536,825.2015,828.022,749.0476,813.1135,-0.24652099609375,0.07147216796875,0.98284912109375,-0.88226318359375,-1.42059326171875,-0.37384033203125,1,1.0,1.0,1.0,1.0,10.00
2024-10-11 20:27:49.719,0.16841593,-0.32430467,0.01135155,0.1470235,-0.08288855,-0.14524642,-0.11656138,0.13629338,0.26310128,-0.23839022,-0.032717817,0.36831212,0.23387104,-0.20557708,0.031191934,0.35264015,-0.090861455,-0.43578282,-0.18470721,-0.08809365,716.8132,823.1868,829.2308,742.1978,1056.4835,-0.24652099609375,0.07147216796875,0.98284912109375,-0.88226318359375,-1.42059326171875,-0.37384033203125,1,1.0,1.0,1.0,1.0,10.00
2024-10-11 20:27:49.719,0.16841593,-0.32430467,0.01135155,0.1470235,-0.08288855,-0.14524642,-0.11656138,0.13629338,0.26310128,-0.23839022,-0.032717817,0.36831212,0.23387104,-0.20557708,0.031191934,0.35264015,-0.090861455,-0.43578282,-0.18470721,-0.08809365,705.9341,830.4396,828.022,727.28937,1090.7325,-0.24652099609375,0.07147216796875,0.98284912109375,-0.88226318359375,-1.42059326171875,-0.37384033203125,1,1.0,1.0,1.0,1.0,10.00
2024-10-11 20:27:49.720,0.18119076,-0.30307135,0.014087436,0.15529278,-0.117513046,-0.13547231,-0.10302492,0.1413131,0.26310128,-0.23326237,0.063548066,0.35191283,0.23515813,-0.19789974,0.029543642,0.3679531,-0.0830878,-0.45992294,-0.15977001,-0.07190012,709.15753,840.10986,826.4103,713.9927,672.8938,-0.24652099609375,0.07147216796875,0.98284912109375,-0.88226318359375,-1.42059326171875,-0.37384033203125,1,1.0,1.0,1.0,1.0,10.00
2024-10-11 20:27:49.724,0.18119076,-0.30307135,0.014087436,0.15529278,-0.117513046,-0.13547231,-0.10302492,0.1413131,0.26310128,-0.23326237,0.063548066,0.35191283,0.23515813,-0.19789974,0.029543642,0.3679531,-0.0830878,-0.45992294,-0.15977001,-0.07190012,706.337,836.4835,825.2015,711.978,669.67035,-0.24652099609375,0.07147216796875,0.98284912109375,-0.88226318359375,-1.42059326171875,-0.37384033203125,1,1.0,1.0,1.0,1.0,10.00
2024-10-11 20:27:49.725,0.18119076,-0.30307135,0.014087436,0.15529278,-0.117513046,-0.13547231,-0.10302492,0.1413131,0.26310128,-0.23326237,0.063548066,0.35191283,0.23515813,-0.19789974,0.029543642,0.3679531,-0.0830878,-0.45992294,-0.15977001,-0.07190012,698.2784,837.28937,829.2308,709.15753,719.2308,-0.24652099609375,0.07147216796875,0.98284912109375,-0.88226318359375,-1.42059326171875,-0.37384033203125,1,1.0,1.0,1.0,1.0,10.00
2024-10-11 20:27:49.767,0.18119076,-0.30307135,0.014087436,0.15529278,-0.117513046,-0.13547231,-0.10302492,0.1413131,0.26310128,-0.23326237,0.063548066,0.35191283,0.23515813,-0.19789974,0.029543642,0.3679531,-0.0830878,-0.45992294,-0.15977001,-0.07190012,686.5934,837.28937,834.4689,700.293,638.24176,-0.24652099609375,0.07147216796875,0.98284912109375,-0.88226318359375,-1.42059326171875,-0.37384033203125,1,1.0,1.0,1.0,1.0,10.00
2024-10-11 20:27:49.768,0.18119076,-0.30307135,0.014087436,0.15529278,-0.117513046,-0.13547231,-0.10302492,0.1413131,0.26310128,-0.23326237,0.063548066,0.35191283,0.23515813,-0.19789974,0.029543642,0.3679531,-0.0830878,-0.45992294,-0.15977001,-0.07190012,678.5348,830.4396,833.2601,694.2491,630.18317,-0.24652099609375,0.07147216796875,0.98284912109375,-0.88226318359375,-1.42059326171875,-0.37384033203125,1,1.0,1.0,1.0,1.0,10.00
2024-10-11 20:27:49.770,0.18119076,-0.30307135,0.014087436,0.15529278,-0.117513046,-0.13547231,-0.10302492,0.1413131,0.26310128,-0.23326237,0.063548066,0.35191283,0.23515813,-0.19789974,0.029543642,0.3679531,-0.0830878,-0.45992294,-0.15977001,-0.07190012,685.38464,826.8132,830.84247,703.91943,746.2271,-0.24652099609375,0.07147216796875,0.98284912109375,-0.88226318359375,-1.42059326171875,-0.37384033203125,1,1.0,1.0,1.0,1.0,10.00
2024-10-11 20:27:49.771,0.18119076,-0.30307135,0.014087436,0.15529278,-0.117513046,-0.13547231,-0.10302492,0.1413131,0.26310128,-0.23326237,0.063548066,0.35191283,0.23515813,-0.19789974,0.029543642,0.3679531,-0.0830878,-0.45992294,-0.15977001,-0.07190012,683.36993,828.022,838.0952,704.7253,775.2381,-0.24652099609375,0.07147216796875,0.98284912109375,-0.88226318359375,-1.42059326171875,-0.37384033203125,1,1.0,1.0,1.0,1.0,10.00
2024-10-11 20:27:49.772,0.18119076,-0.30307135,0.014087436,0.15529278,-0.117513046,-0.13547231,-0.10302492,0.1413131,0.26310128,-0.23326237,0.063548066,0.35191283,0.23515813,-0.19789974,0.029543642,0.3679531,-0.0830878,-0.45992294,-0.15977001,-0.07190012,686.99634,828.4249,850.18317,705.9341,690.2198,-0.24652099609375,0.07147216796875,0.98284912109375,-0.88226318359375,-1.42059326171875,-0.37384033203125,1,1.0,1.0,1.0,1.0,10.00
2024-10-11 20:27:49.772,0.18119076,-0.30307135,0.014087436,0.15529278,-0.117513046,-0.13547231,-0.10302492,0.1413131,0.26310128,-0.23326237,0.063548066,0.35191283,0.23515813,-0.19789974,0.029543642,0.3679531,-0.0830878,-0.45992294,-0.15977001,-0.07190012,693.8461,823.9927,853.8095,709.9634,786.52014,-0.24652099609375,0.07147216796875,0.98284912109375,-0.88226318359375,-1.42059326171875,-0.37384033203125,1,1.0,1.0,1.0,1.0,10.00
2024-10-11 20:27:49.773,0.18119076,-0.30307135,0.014087436,0.15529278,-0.117513046,-0.13547231,-0.10302492,0.1413131,0.26310128,-0.23326237,0.063548066,0.35191283,0.23515813,-0.19789974,0.029543642,0.3679531,-0.0830878,-0.45992294,-0.15977001,-0.07190012,686.1905,816.7399,852.6007,709.15753,1046.4103,-0.24652099609375,0.07147216796875,0.98284912109375,-0.88226318359375,-1.42059326171875,-0.37384033203125,1,1.0,1.0,1.0,1.0,10.00
2024-10-11 20:27:49.773,0.18119076,-0.30307135,0.014087436,0.15529278,-0.117513046,-0.13547231,-0.10302492,0.1413131,0.26310128,-0.23326237,0.063548066,0.35191283,0.23515813,-0.19789974,0.029543642,0.3679531,-0.0830878,-0.45992294,-0.15977001,-0.07190012,693.0403,813.5165,855.42126,715.2015,889.67035,-0.24652099609375,0.07147216796875,0.98284912109375,-0.88226318359375,-1.42059326171875,-0.37384033203125,1,1.0,1.0,1.0,1.0,10.00
2024-10-11 20:27:49.774,0.18119076,-0.30307135,0.014087436,0.15529278,-0.117513046,-0.13547231,-0.10302492,0.1413131,0.26310128,-0.23326237,0.063548066,0.35191283,0.23515813,-0.19789974,0.029543642,0.3679531,-0.0830878,-0.45992294,-0.15977001,-0.07190012,702.3077,812.71063,862.674,719.2308,575.78754,-0.24652099609375,0.07147216796875,0.98284912109375,-0.88226318359375,-1.42059326171875,-0.37384033203125,1,1.0,1.0,1.0,1.0,10.00
2024-10-11 20:27:49.774,0.18119076,-0.30307135,0.014087436,0.15529278,-0.117513046,-0.13547231,-0.10302492,0.1413131,0.26310128,-0.23326237,0.063548066,0.35191283,0.23515813,-0.19789974,0.029543642,0.3679531,-0.0830878,-0.45992294,-0.15977001,-0.07190012,697.0696,808.2784,863.47986,712.381,658.3883,-0.24652099609375,0.07147216796875,0.98284912109375,-0.88226318359375,-1.42059326171875,-0.37384033203125,1,1.0,1.0,1.0,1.0,10.00
2024-10-11 20:27:49.775,0.18119076,-0.30307135,0.014087436,0.15529278,-0.117513046,-0.13547231,-0.10302492,0.1413131,0.26310128,-0.23326237,0.063548066,0.35191283,0.23515813,-0.19789974,0.029543642,0.3679531,-0.0830878,-0.45992294,-0.15977001,-0.07190012,697.8755,804.2491,858.6447,713.1868,817.1429,-0.24652099609375,0.07147216796875,0.98284912109375,-0.88226318359375,-1.42059326171875,-0.37384033203125,1,1.0,1.0,1.0,1.0,10.00
2024-10-11 20:27:49.776,0.18119076,-0.30307135,0.014087436,0.15529278,-0.117513046,-0.13547231,-0.10302492,0.1413131,0.26310128,-0.23326237,0.063548066,0.35191283,0.23515813,-0.19789974,0.029543642,0.3679531,-0.0830878,-0.45992294,-0.15977001,-0.07190012,708.7546,807.0696,856.2271,723.2601,695.8608,-0.24652099609375,0.07147216796875,0.98284912109375,-0.88226318359375,-1.42059326171875,-0.37384033203125,1,1.0,1.0,1.0,1.0,10.00
2024-10-11 20:27:49.814,0.18119076,-0.30307135,0.014087436,0.15529278,-0.117513046,-0.13547231,-0.10302492,0.1413131,0.26310128,-0.23326237,0.063548066,0.35191283,0.23515813,-0.19789974,0.029543642,0.3679531,-0.0830878,-0.45992294,-0.15977001,-0.07190012,709.5604,812.71063,856.2271,721.6484,659.19415,-0.2379150390625,0.06829833984375,0.9835205078125,-1.435546875,-1.727142333984375,0.43365478515625,1,1.0,1.0,1.0,1.0,10.00
2024-10-11 20:27:49.815,0.18119076,-0.30307135,0.014087436,0.15529278,-0.117513046,-0.13547231,-0.10302492,0.1413131,0.26310128,-0.23326237,0.063548066,0.35191283,0.23515813,-0.19789974,0.029543642,0.3679531,-0.0830878,-0.45992294,-0.15977001,-0.07190012,704.7253,809.4872,853.8095,711.978,801.02563,-0.2379150390625,0.06829833984375,0.9835205078125,-1.435546875,-1.727142333984375,0.43365478515625,1,1.0,1.0,1.0,1.0,10.00
2024-10-11 20:27:49.815,0.18119076,-0.30307135,0.014087436,0.15529278,-0.117513046,-0.13547231,-0.10302492,0.1413131,0.26310128,-0.23326237,0.063548066,0.35191283,0.23515813,-0.19789974,0.029543642,0.3679531,-0.0830878,-0.45992294,-0.15977001,-0.07190012,704.7253,801.8315,850.989,719.6337,963.8095,-0.2379150390625,0.06829833984375,0.9835205078125,-1.435546875,-1.727142333984375,0.43365478515625,1,1.0,1.0,1.0,1.0,10.00
2024-10-11 20:27:49.816,0.18119076,-0.30307135,0.014087436,0.15529278,-0.117513046,-0.13547231,-0.10302492,0.1413131,0.26310128,-0.23326237,0.063548066,0.35191283,0.23515813,-0.19789974,0.029543642,0.3679531,-0.0830878,-0.45992294,-0.15977001,-0.07190012,707.5458,800.6227,850.58606,726.8865,769.59705,-0.2379150390625,0.06829833984375,0.9835205078125,-1.435546875,-1.727142333984375,0.43365478515625,1,1.0,1.0,1.0,1.0,10.00
2024-10-11 20:27:49.816,0.18119076,-0.30307135,0.014087436,0.15529278,-0.117513046,-0.13547231,-0.10302492,0.1413131,0.26310128,-0.23326237,0.063548066,0.35191283,0.23515813,-0.19789974,0.029543642,0.3679531,-0.0830878,-0.45992294,-0.15977001,-0.07190012,723.2601,796.99634,848.1685,739.7802,627.3626,-0.2379150390625,0.06829833984375,0.9835205078125,-1.435546875,-1.727142333984375,0.43365478515625,1,1.0,1.0,1.0,1.0,10.00
2024-10-11 20:27:49.817,0.18119076,-0.30307135,0.014087436,0.15529278,-0.117513046,-0.13547231,-0.10302492,0.1413131,0.26310128,-0.23326237,0.063548066,0.35191283,0.23515813,-0.19789974,0.029543642,0.3679531,-0.0830878,-0.45992294,-0.15977001,-0.07190012,736.1539,790.54944,842.9304,757.50916,917.0696,-0.2379150390625,0.06829833984375,0.9835205078125,-1.435546875,-1.727142333984375,0.43365478515625,1,1.0,1.0,1.0,1.0,10.00
2024-10-11 20:27:49.818,0.18119076,-0.30307135,0.014087436,0.15529278,-0.117513046,-0.13547231,-0.10302492,0.1413131,0.26310128,-0.23326237,0.063548066,0.35191283,0.23515813,-0.19789974,0.029543642,0.3679531,-0.0830878,-0.45992294,-0.15977001,-0.07190012,743.00366,783.69965,839.304,771.6117,1159.6337,-0.2379150390625,0.06829833984375,0.9835205078125,-1.435546875,-1.727142333984375,0.43365478515625,1,1.0,1.0,1.0,1.0,10.00
2024-10-11 20:27:49.818,0.18119076,-0.30307135,0.014087436,0.15529278,-0.117513046,-0.13547231,-0.10302492,0.1413131,0.26310128,-0.23326237,0.063548066,0.35191283,0.23515813,-0.19789974,0.029543642,0.3679531,-0.0830878,-0.45992294,-0.15977001,-0.07190012,751.06226,783.2967,840.10986,780.4762,911.02563,-0.2379150390625,0.06829833984375,0.9835205078125,-1.435546875,-1.727142333984375,0.43365478515625,1,1.0,1.0,1.0,1.0,10.00
2024-10-11 20:27:49.818,0.18119076,-0.30307135,0.014087436,0.15529278,-0.117513046,-0.13547231,-0.10302492,0.1413131,0.26310128,-0.23326237,0.063548066,0.35191283,0.23515813,-0.19789974,0.029543642,0.3679531,-0.0830878,-0.45992294,-0.15977001,-0.07190012,747.8388,785.7143,840.9158,781.28204,740.18317,-0.2379150390625,0.06829833984375,0.9835205078125,-1.435546875,-1.727142333984375,0.43365478515625,1,1.0,1.0,1.0,1.0,10.00
2024-10-11 20:27:49.819,0.18119076,-0.30307135,0.014087436,0.15529278,-0.117513046,-0.13547231,-0.10302492,0.1413131,0.26310128,-0.23326237,0.063548066,0.35191283,0.23515813,-0.19789974,0.029543642,0.3679531,-0.0830878,-0.45992294,-0.15977001,-0.07190012,759.92676,784.5055,835.6777,783.69965,809.89014,-0.2379150390625,0.06829833984375,0.9835205078125,-1.435546875,-1.727142333984375,0.43365478515625,1,1.0,1.0,1.0,1.0,10.00
2024-10-11 20:27:49.819,0.18119076,-0.30307135,0.014087436,0.15529278,-0.117513046,-0.13547231,-0.10302492,0.1413131,0.26310128,-0.23326237,0.063548066,0.35191283,0.23515813,-0.19789974,0.029543642,0.3679531,-0.0830878,-0.45992294,-0.15977001,-0.07190012,780.87915,783.2967,831.6484,791.75824,770.0,-0.2379150390625,0.06829833984375,0.9835205078125,-1.435546875,-1.727142333984375,0.43365478515625,1,1.0,1.0,1.0,1.0,10.00
2024-10-11 20:27:49.820,0.19952248,-0.26692265,0.07854271,0.17048101,-0.15130311,-0.11255768,-0.07725069,0.13713896,0.26310128,-0.23326237,0.18039338,0.34858882,0.24148794,-0.1911647,0.027670931,0.3844578,-0.07956008,-0.4862727,-0.14165054,-0.05408826,776.8498,787.72894,826.0073,793.36993,601.5751,-0.2379150390625,0.06829833984375,0.9835205078125,-1.435546875,-1.727142333984375,0.43365478515625,1,1.0,1.0,1.0,1.0,10.00
2024-10-11 20:27:49.847,0.19952248,-0.26692265,0.07854271,0.17048101,-0.15130311,-0.11255768,-0.07725069,0.13713896,0.26310128,-0.23326237,0.18039338,0.34858882,0.24148794,-0.1911647,0.027670931,0.3844578,-0.07956008,-0.4862727,-0.14165054,-0.05408826,773.6264,788.5348,821.1722,796.5934,606.4103,-0.2413330078125,0.0633544921875,0.97808837890625,-2.130889892578125,-1.801910400390625,0.201873779296875,1,1.0,1.0,1.0,1.0,10.00
2024-10-11 20:27:49.848,0.19952248,-0.26692265,0.07854271,0.17048101,-0.15130311,-0.11255768,-0.07725069,0.13713896,0.26310128,-0.23326237,0.18039338,0.34858882,0.24148794,-0.1911647,0.027670931,0.3844578,-0.07956008,-0.4862727,-0.14165054,-0.05408826,775.2381,780.4762,820.3663,804.2491,767.5824,-0.2413330078125,0.0633544921875,0.97808837890625,-2.130889892578125,-1.801910400390625,0.201873779296875,1,1.0,1.0,1.0,1.0,10.00
2024-10-11 20:27:49.849,0.19952248,-0.26692265,0.07854271,0.17048101,-0.15130311,-0.11255768,-0.07725069,0.13713896,0.26310128,-0.23326237,0.18039338,0.34858882,0.24148794,-0.1911647,0.027670931,0.3844578,-0.07956008,-0.4862727,-0.14165054,-0.05408826,786.1172,779.67035,814.7253,813.91943,794.57874,-0.2413330078125,0.0633544921875,0.97808837890625,-2.130889892578125,-1.801910400390625,0.201873779296875,1,1.0,1.0,1.0,1.0,10.00
2024-10-11 20:27:49.849,0.19952248,-0.26692265,0.07854271,0.17048101,-0.15130311,-0.11255768,-0.07725069,0.13713896,0.26310128,-0.23326237,0.18039338,0.34858882,0.24148794,-0.1911647,0.027670931,0.3844578,-0.07956008,-0.4862727,-0.14165054,-0.05408826,794.57874,781.28204,816.337,821.5751,580.2198,-0.2413330078125,0.0633544921875,0.97808837890625,-2.130889892578125,-1.801910400390625,0.201873779296875,1,1.0,1.0,1.0,1.0,10.00
2024-10-11 20:27:49.850,0.19952248,-0.26692265,0.07854271,0.17048101,-0.15130311,-0.11255768,-0.07725069,0.13713896,0.26310128,-0.23326237,0.18039338,0.34858882,0.24148794,-0.1911647,0.027670931,0.3844578,-0.07956008,-0.4862727,-0.14165054,-0.05408826,786.9231,779.67035,815.9341,817.9487,576.1905,-0.2413330078125,0.0633544921875,0.97808837890625,-2.130889892578125,-1.801910400390625,0.201873779296875,1,1.0,1.0,1.0,1.0,10.00
2024-10-11 20:27:49.850,0.19952248,-0.26692265,0.07854271,0.17048101,-0.15130311,-0.11255768,-0.07725069,0.13713896,0.26310128,-0.23326237,0.18039338,0.34858882,0.24148794,-0.1911647,0.027670931,0.3844578,-0.07956008,-0.4862727,-0.14165054,-0.05408826,788.5348,776.8498,804.65204,821.1722,922.3077,-0.2413330078125,0.0633544921875,0.97808837890625,-2.130889892578125,-1.801910400390625,0.201873779296875,1,1.0,1.0,1.0,1.0,10.00
2024-10-11 20:27:49.851,0.19952248,-0.26692265,0.07854271,0.17048101,-0.15130311,-0.11255768,-0.07725069,0.13713896,0.26310128,-0.23326237,0.18039338,0.34858882,0.24148794,-0.1911647,0.027670931,0.3844578,-0.07956008,-0.4862727,-0.14165054,-0.05408826,799.81683,777.25275,805.8608,822.381,1004.5055,-0.2413330078125,0.0633544921875,0.97808837890625,-2.130889892578125,-1.801910400390625,0.201873779296875,1,1.0,1.0,1.0,1.0,10.00
2024-10-11 20:27:49.851,0.19952248,-0.26692265,0.07854271,0.17048101,-0.15130311,-0.11255768,-0.07725069,0.13713896,0.26310128,-0.23326237,0.18039338,0.34858882,0.24148794,-0.1911647,0.027670931,0.3844578,-0.07956008,-0.4862727,-0.14165054,-0.05408826,802.6374,776.8498,811.0989,816.7399,843.73627,-0.2413330078125,0.0633544921875,0.97808837890625,-2.130889892578125,-1.801910400390625,0.201873779296875,1,1.0,1.0,1.0,1.0,10.00
2024-10-11 20:27:49.852,0.19952248,-0.26692265,0.07854271,0.17048101,-0.15130311,-0.11255768,-0.07725069,0.13713896,0.26310128,-0.23326237,0.18039338,0.34858882,0.24148794,-0.1911647,0.027670931,0.3844578,-0.07956008,-0.4862727,-0.14165054,-0.05408826,805.4579,773.6264,811.0989,815.9341,818.7546,-0.2413330078125,0.0633544921875,0.97808837890625,-2.130889892578125,-1.801910400390625,0.201873779296875,1,1.0,1.0,1.0,1.0,10.00
2024-10-11 20:27:49.852,0.19952248,-0.26692265,0.07854271,0.17048101,-0.15130311,-0.11255768,-0.07725069,0.13713896,0.26310128,-0.23326237,0.18039338,0.34858882,0.24148794,-0.1911647,0.027670931,0.3844578,-0.07956008,-0.4862727,-0.14165054,-0.05408826,810.696,774.0293,810.293,828.8278,1024.652,-0.2413330078125,0.0633544921875,0.97808837890625,-2.130889892578125,-1.801910400390625,0.201873779296875,1,1.0,1.0,1.0,1.0,10.00
2024-10-11 20:27:49.853,0.19952248,-0.26692265,0.07854271,0.17048101,-0.15130311,-0.11255768,-0.07725069,0.13713896,0.26310128,-0.23326237,0.18039338,0.34858882,0.24148794,-0.1911647,0.027670931,0.3844578,-0.07956008,-0.4862727,-0.14165054,-0.05408826,812.3077,774.43225,807.0696,832.8571,950.10986,-0.2413330078125,0.0633544921875,0.97808837890625,-2.130889892578125,-1.801910400390625,0.201873779296875,1,1.0,1.0,1.0,1.0,10.00
2024-10-11 20:27:49.853,0.19952248,-0.26692265,0.07854271,0.17048101,-0.15130311,-0.11255768,-0.07725069,0.13713896,0.26310128,-0.23326237,0.18039338,0.34858882,0.24148794,-0.1911647,0.027670931,0.3844578,-0.07956008,-0.4862727,-0.14165054,-0.05408826,819.5604,776.4469,806.6667,826.8132,642.27106,-0.2413330078125,0.0633544921875,0.97808837890625,-2.130889892578125,-1.801910400390625,0.201873779296875,1,1.0,1.0,1.0,1.0,10.00
2024-10-11 20:27:49.854,0.19952248,-0.26692265,0.07854271,0.17048101,-0.15130311,-0.11255768,-0.07725069,0.13713896,0.26310128,-0.23326237,0.18039338,0.34858882,0.24148794,-0.1911647,0.027670931,0.3844578,-0.07956008,-0.4862727,-0.14165054,-0.05408826,822.7839,777.6557,801.4286,830.0366,679.34064,-0.23150634765625,0.06585693359375,0.98974609375,-1.71966552734375,-2.27294921875,1.951446533203125,1,1.0,1.0,1.0,1.0,10.00
2024-10-11 20:27:49.855,0.19952248,-0.26692265,0.07854271,0.17048101,-0.15130311,-0.11255768,-0.07725069,0.13713896,0.26310128,-0.23326237,0.18039338,0.34858882,0.24148794,-0.1911647,0.027670931,0.3844578,-0.07956008,-0.4862727,-0.14165054,-0.05408826,825.2015,776.4469,794.9817,836.4835,957.76556,-0.23150634765625,0.06585693359375,0.98974609375,-1.71966552734375,-2.27294921875,1.951446533203125,1,1.0,1.0,1.0,1.0,10.00
2024-10-11 20:27:49.855,0.19952248,-0.26692265,0.07854271,0.17048101,-0.15130311,-0.11255768,-0.07725069,0.13713896,0.26310128,-0.23326237,0.18039338,0.34858882,0.24148794,-0.1911647,0.027670931,0.3844578,-0.07956008,-0.4862727,-0.14165054,-0.05408826,826.8132,775.2381,797.3993,836.4835,867.1062,-0.23150634765625,0.06585693359375,0.98974609375,-1.71966552734375,-2.27294921875,1.951446533203125,1,1.0,1.0,1.0,1.0,10.00
2024-10-11 20:27:49.856,0.19952248,-0.26692265,0.07854271,0.17048101,-0.15130311,-0.11255768,-0.07725069,0.13713896,0.26310128,-0.23326237,0.18039338,0.34858882,0.24148794,-0.1911647,0.027670931,0.3844578,-0.07956008,-0.4862727,-0.14165054,-0.05408826,828.8278,777.6557,797.3993,829.2308,662.4176,-0.23150634765625,0.06585693359375,0.98974609375,-1.71966552734375,-2.27294921875,1.951446533203125,1,1.0,1.0,1.0,1.0,10.00
2024-10-11 20:27:49.856,0.19952248,-0.26692265,0.07854271,0.17048101,-0.15130311,-0.11255768,-0.07725069,0.13713896,0.26310128,-0.23326237,0.18039338,0.34858882,0.24148794,-0.1911647,0.027670931,0.3844578,-0.07956008,-0.4862727,-0.14165054,-0.05408826,828.8278,780.4762,794.57874,831.6484,738.5714,-0.23150634765625,0.06585693359375,0.98974609375,-1.71966552734375,-2.27294921875,1.951446533203125,1,1.0,1.0,1.0,1.0,10.00
2024-10-11 20:27:49.857,0.19952248,-0.26692265,0.07854271,0.17048101,-0.15130311,-0.11255768,-0.07725069,0.13713896,0.26310128,-0.23326237,0.18039338,0.34858882,0.24148794,-0.1911647,0.027670931,0.3844578,-0.07956008,-0.4862727,-0.14165054,-0.05408826,830.0366,782.0879,787.72894,843.3333,1077.4359,-0.23150634765625,0.06585693359375,0.98974609375,-1.71966552734375,-2.27294921875,1.951446533203125,1,1.0,1.0,1.0,1.0,10.00
2024-10-11 20:27:49.857,0.19952248,-0.26692265,0.07854271,0.17048101,-0.15130311,-0.11255768,-0.07725069,0.13713896,0.26310128,-0.23326237,0.18039338,0.34858882,0.24148794,-0.1911647,0.027670931,0.3844578,-0.07956008,-0.4862727,-0.14165054,-0.05408826,833.2601,785.7143,789.34064,834.87177,990.40295,-0.23150634765625,0.06585693359375,0.98974609375,-1.71966552734375,-2.27294921875,1.951446533203125,1,1.0,1.0,1.0,1.0,10.00
2024-10-11 20:27:49.858,0.19952248,-0.26692265,0.07854271,0.17048101,-0.15130311,-0.11255768,-0.07725069,0.13713896,0.26310128,-0.23326237,0.18039338,0.34858882,0.24148794,-0.1911647,0.027670931,0.3844578,-0.07956008,-0.4862727,-0.14165054,-0.05408826,834.0659,785.31134,797.3993,828.4249,690.6227,-0.23150634765625,0.06585693359375,0.98974609375,-1.71966552734375,-2.27294921875,1.951446533203125,1,1.0,1.0,1.0,1.0,10.00
2024-10-11 20:27:49.858,0.19952248,-0.26692265,0.07854271,0.17048101,-0.15130311,-0.11255768,-0.07725069,0.13713896,0.26310128,-0.23326237,0.18039338,0.34858882,0.24148794,-0.1911647,0.027670931,0.3844578,-0.07956008,-0.4862727,-0.14165054,-0.05408826,833.2601,779.67035,792.96704,836.4835,738.1685,-0.23150634765625,0.06585693359375,0.98974609375,-1.71966552734375,-2.27294921875,1.951446533203125,1,1.0,1.0,1.0,1.0,10.00
2024-10-11 20:27:49.859,0.19952248,-0.26692265,0.07854271,0.17048101,-0.15130311,-0.11255768,-0.07725069,0.13713896,0.26310128,-0.23326237,0.18039338,0.34858882,0.24148794,-0.1911647,0.027670931,0.3844578,-0.07956008,-0.4862727,-0.14165054,-0.05408826,831.6484,778.86444,790.14655,842.1245,896.9231,-0.23150634765625,0.06585693359375,0.98974609375,-1.71966552734375,-2.27294921875,1.951446533203125,1,1.0,1.0,1.0,1.0,10.00
2024-10-11 20:27:49.859,0.19952248,-0.26692265,0.07854271,0.17048101,-0.15130311,-0.11255768,-0.07725069,0.13713896,0.26310128,-0.23326237,0.18039338,0.34858882,0.24148794,-0.1911647,0.027670931,0.3844578,-0.07956008,-0.4862727,-0.14165054,-0.05408826,834.4689,782.0879,794.17584,838.9011,780.07324,-0.23150634765625,0.06585693359375,0.98974609375,-1.71966552734375,-2.27294921875,1.951446533203125,1,1.0,1.0,1.0,1.0,10.00
2024-10-11 20:27:49.859,0.19952248,-0.26692265,0.07854271,0.17048101,-0.15130311,-0.11255768,-0.07725069,0.13713896,0.26310128,-0.23326237,0.18039338,0.34858882,0.24148794,-0.1911647,0.027670931,0.3844578,-0.07956008,-0.4862727,-0.14165054,-0.05408826,840.9158,784.90845,795.38464,836.08057,683.36993,-0.23150634765625,0.06585693359375,0.98974609375,-1.71966552734375,-2.27294921875,1.951446533203125,1,1.0,1.0,1.0,1.0,10.00
2024-10-11 20:27:49.948,0.19952248,-0.26692265,0.07854271,0.17048101,-0.15130311,-0.11255768,-0.07725069,0.13713896,0.26310128,-0.23326237,0.18039338,0.34858882,0.24148794,-0.1911647,0.027670931,0.3844578,-0.07956008,-0.4862727,-0.14165054,-0.05408826,844.5421,791.75824,794.17584,837.6923,696.6667,-0.2340087890625,0.0655517578125,0.96636962890625,-2.16827392578125,-1.637420654296875,5.921630859375,1,1.0,1.0,1.0,1.0,10.00
2024-10-11 20:27:49,,,,,,,,,,,,,,,,,,,,,,,,,,,,,,,,,,,,,,/muse/elements/blink
2024-10-11 20:27:49.949,0.22151305,-0.15616754,0.24873808,0.1947927,-0.17239232,-0.019065548,-0.008777641,0.12747265,0.26310128,-0.16637754,0.25770995,0.3402841,0.25200623,-0.184266,0.030025704,0.39883754,-0.08189014,-0.50287133,-0.13212168,-0.03788075,840.5128,797.3993,794.57874,838.49817,815.9341,-0.2340087890625,0.0655517578125,0.96636962890625,-2.16827392578125,-1.637420654296875,5.921630859375,1,1.0,1.0,1.0,1.0,10.00
2024-10-11 20:27:49.953,0.22151305,-0.15616754,0.24873808,0.1947927,-0.17239232,-0.019065548,-0.008777641,0.12747265,0.26310128,-0.16637754,0.25770995,0.3402841,0.25200623,-0.184266,0.030025704,0.39883754,-0.08189014,-0.50287133,-0.13212168,-0.03788075,837.28937,795.78754,795.38464,837.28937,846.1539,-0.2340087890625,0.0655517578125,0.96636962890625,-2.16827392578125,-1.637420654296875,5.921630859375,1,1.0,1.0,1.0,1.0,10.00
2024-10-11 20:27:49.953,0.22151305,-0.15616754,0.24873808,0.1947927,-0.17239232,-0.019065548,-0.008777641,0.12747265,0.26310128,-0.16637754,0.25770995,0.3402841,0.25200623,-0.184266,0.030025704,0.39883754,-0.08189014,-0.50287133,-0.13212168,-0.03788075,836.4835,792.1612,788.1319,834.0659,770.80585,-0.2340087890625,0.0655517578125,0.96636962890625,-2.16827392578125,-1.637420654296875,5.921630859375,1,1.0,1.0,1.0,1.0,10.00
2024-10-11 20:27:49.954,0.22151305,-0.15616754,0.24873808,0.1947927,-0.17239232,-0.019065548,-0.008777641,0.12747265,0.26310128,-0.16637754,0.25770995,0.3402841,0.25200623,-0.184266,0.030025704,0.39883754,-0.08189014,-0.50287133,-0.13212168,-0.03788075,835.2747,792.1612,779.67035,836.8865,905.38464,-0.2340087890625,0.0655517578125,0.96636962890625,-2.16827392578125,-1.637420654296875,5.921630859375,1,1.0,1.0,1.0,1.0,10.00
2024-10-11 20:27:49.954,0.22151305,-0.15616754,0.24873808,0.1947927,-0.17239232,-0.019065548,-0.008777641,0.12747265,0.26310128,-0.16637754,0.25770995,0.3402841,0.25200623,-0.184266,0.030025704,0.39883754,-0.08189014,-0.50287133,-0.13212168,-0.03788075,833.2601,787.326,786.52014,831.6484,926.337,-0.2340087890625,0.0655517578125,0.96636962890625,-2.16827392578125,-1.637420654296875,5.921630859375,1,1.0,1.0,1.0,1.0,10.00
2024-10-11 20:27:49.955,0.22151305,-0.15616754,0.24873808,0.1947927,-0.17239232,-0.019065548,-0.008777641,0.12747265,0.26310128,-0.16637754,0.25770995,0.3402841,0.25200623,-0.184266,0.030025704,0.39883754,-0.08189014,-0.50287133,-0.13212168,-0.03788075,839.304,789.7436,792.96704,833.2601,829.2308,-0.2340087890625,0.0655517578125,0.96636962890625,-2.16827392578125,-1.637420654296875,5.921630859375,1,1.0,1.0,1.0,1.0,10.00
2024-10-11 20:27:49.955,0.22151305,-0.15616754,0.24873808,0.1947927,-0.17239232,-0.019065548,-0.008777641,0.12747265,0.26310128,-0.16637754,0.25770995,0.3402841,0.25200623,-0.184266,0.030025704,0.39883754,-0.08189014,-0.50287133,-0.13212168,-0.03788075,845.7509,796.5934,796.5934,838.9011,758.315,-0.2340087890625,0.0655517578125,0.96636962890625,-2.16827392578125,-1.637420654296875,5.921630859375,1,1.0,1.0,1.0,1.0,10.00
2024-10-11 20:27:49.956,0.22151305,-0.15616754,0.24873808,0.1947927,-0.17239232,-0.019065548,-0.008777641,0.12747265,0.26310128,-0.16637754,0.25770995,0.3402841,0.25200623,-0.184266,0.030025704,0.39883754,-0.08189014,-0.50287133,-0.13212168,-0.03788075,840.9158,793.7729,798.20514,842.9304,887.25275,-0.2340087890625,0.0655517578125,0.96636962890625,-2.16827392578125,-1.637420654296875,5.921630859375,1,1.0,1.0,1.0,1.0,10.00
2024-10-11 20:27:49.956,0.22151305,-0.15616754,0.24873808,0.1947927,-0.17239232,-0.019065548,-0.008777641,0.12747265,0.26310128,-0.16637754,0.25770995,0.3402841,0.25200623,-0.184266,0.030025704,0.39883754,-0.08189014,-0.50287133,-0.13212168,-0.03788075,837.6923,791.75824,793.7729,849.3773,1279.7069,-0.2340087890625,0.0655517578125,0.96636962890625,-2.16827392578125,-1.637420654296875,5.921630859375,1,1.0,1.0,1.0,1.0,10.00
2024-10-11 20:27:49.957,0.22151305,-0.15616754,0.24873808,0.1947927,-0.17239232,-0.019065548,-0.008777641,0.12747265,0.26310128,-0.16637754,0.25770995,0.3402841,0.25200623,-0.184266,0.030025704,0.39883754,-0.08189014,-0.50287133,-0.13212168,-0.03788075,835.6777,792.1612,793.7729,845.7509,1178.1685,-0.2340087890625,0.0655517578125,0.96636962890625,-2.16827392578125,-1.637420654296875,5.921630859375,1,1.0,1.0,1.0,1.0,10.00
2024-10-11 20:27:49.957,0.22151305,-0.15616754,0.24873808,0.1947927,-0.17239232,-0.019065548,-0.008777641,0.12747265,0.26310128,-0.16637754,0.25770995,0.3402841,0.25200623,-0.184266,0.030025704,0.39883754,-0.08189014,-0.50287133,-0.13212168,-0.03788075,832.8571,791.75824,792.1612,835.2747,732.1245,-0.2340087890625,0.0655517578125,0.96636962890625,-2.16827392578125,-1.637420654296875,5.921630859375,1,1.0,1.0,1.0,1.0,10.00
2024-10-11 20:27:49.958,0.22151305,-0.15616754,0.24873808,0.1947927,-0.17239232,-0.019065548,-0.008777641,0.12747265,0.26310128,-0.16637754,0.25770995,0.3402841,0.25200623,-0.184266,0.030025704,0.39883754,-0.08189014,-0.50287133,-0.13212168,-0.03788075,830.0366,790.14655,794.9817,829.2308,655.16486,-0.24176025390625,0.06024169921875,0.96527099609375,-2.27294921875,-2.863616943359375,8.471221923828125,1,1.0,1.0,1.0,1.0,10.00
2024-10-11 20:27:49.958,0.22151305,-0.15616754,0.24873808,0.1947927,-0.17239232,-0.019065548,-0.008777641,0.12747265,0.26310128,-0.16637754,0.25770995,0.3402841,0.25200623,-0.184266,0.030025704,0.39883754,-0.08189014,-0.50287133,-0.13212168,-0.03788075,826.8132,791.3553,791.75824,829.6337,713.1868,-0.24176025390625,0.06024169921875,0.96527099609375,-2.27294921875,-2.863616943359375,8.471221923828125,1,1.0,1.0,1.0,1.0,10.00
2024-10-11 20:27:49.959,0.22151305,-0.15616754,0.24873808,0.1947927,-0.17239232,-0.019065548,-0.008777641,0.12747265,0.26310128,-0.16637754,0.25770995,0.3402841,0.25200623,-0.184266,0.030025704,0.39883754,-0.08189014,-0.50287133,-0.13212168,-0.03788075,832.4542,795.78754,788.1319,835.6777,720.84247,-0.24176025390625,0.06024169921875,0.96527099609375,-2.27294921875,-2.863616943359375,8.471221923828125,1,1.0,1.0,1.0,1.0,10.00
2024-10-11 20:27:49.960,0.22151305,-0.15616754,0.24873808,0.1947927,-0.17239232,-0.019065548,-0.008777641,0.12747265,0.26310128,-0.16637754,0.25770995,0.3402841,0.25200623,-0.184266,0.030025704,0.39883754,-0.08189014,-0.50287133,-0.13212168,-0.03788075,833.2601,791.75824,798.60803,839.707,785.31134,-0.24176025390625,0.06024169921875,0.96527099609375,-2.27294921875,-2.863616943359375,8.471221923828125,1,1.0,1.0,1.0,1.0,10.00
2024-10-11 20:27:49.960,0.22151305,-0.15616754,0.24873808,0.1947927,-0.17239232,-0.019065548,-0.008777641,0.12747265,0.26310128,-0.16637754,0.25770995,0.3402841,0.25200623,-0.184266,0.030025704,0.39883754,-0.08189014,-0.50287133,-0.13212168,-0.03788075,819.15753,780.07324,796.99634,836.8865,946.4835,-0.24176025390625,0.06024169921875,0.96527099609375,-2.27294921875,-2.863616943359375,8.471221923828125,1,1.0,1.0,1.0,1.0,10.00
2024-10-11 20:27:49.961,0.22151305,-0.15616754,0.24873808,0.1947927,-0.17239232,-0.019065548,-0.008777641,0.12747265,0.26310128,-0.16637754,0.25770995,0.3402841,0.25200623,-0.184266,0.030025704,0.39883754,-0.08189014,-0.50287133,-0.13212168,-0.03788075,819.15753,783.2967,796.1905,835.6777,956.1539,-0.24176025390625,0.06024169921875,0.96527099609375,-2.27294921875,-2.863616943359375,8.471221923828125,1,1.0,1.0,1.0,1.0,10.00
2024-10-11 20:27:49.961,0.22151305,-0.15616754,0.24873808,0.1947927,-0.17239232,-0.019065548,-0.008777641,0.12747265,0.26310128,-0.16637754,0.25770995,0.3402841,0.25200623,-0.184266,0.030025704,0.39883754,-0.08189014,-0.50287133,-0.13212168,-0.03788075,823.9927,789.34064,795.78754,832.8571,884.0293,-0.24176025390625,0.06024169921875,0.96527099609375,-2.27294921875,-2.863616943359375,8.471221923828125,1,1.0,1.0,1.0,1.0,10.00
2024-10-11 20:27:49.962,0.22151305,-0.15616754,0.24873808,0.1947927,-0.17239232,-0.019065548,-0.008777641,0.12747265,0.26310128,-0.16637754,0.25770995,0.3402841,0.25200623,-0.184266,0.030025704,0.39883754,-0.08189014,-0.50287133,-0.13212168,-0.03788075,830.84247,792.1612,794.9817,830.4396,850.18317,-0.24176025390625,0.06024169921875,0.96527099609375,-2.27294921875,-2.863616943359375,8.471221923828125,1,1.0,1.0,1.0,1.0,10.00
2024-10-11 20:27:49.962,0.22151305,-0.15616754,0.24873808,0.1947927,-0.17239232,-0.019065548,-0.008777641,0.12747265,0.26310128,-0.16637754,0.25770995,0.3402841,0.25200623,-0.184266,0.030025704,0.39883754,-0.08189014,-0.50287133,-0.13212168,-0.03788075,830.0366,789.7436,798.20514,828.4249,792.96704,-0.24176025390625,0.06024169921875,0.96527099609375,-2.27294921875,-2.863616943359375,8.471221923828125,1,1.0,1.0,1.0,1.0,10.00
2024-10-11 20:27:49.963,0.22151305,-0.15616754,0.24873808,0.1947927,-0.17239232,-0.019065548,-0.008777641,0.12747265,0.26310128,-0.16637754,0.25770995,0.3402841,0.25200623,-0.184266,0.030025704,0.39883754,-0.08189014,-0.50287133,-0.13212168,-0.03788075,829.2308,786.9231,794.17584,821.1722,657.1795,-0.24176025390625,0.06024169921875,0.96527099609375,-2.27294921875,-2.863616943359375,8.471221923828125,1,1.0,1.0,1.0,1.0,10.00
2024-10-11 20:27:49.963,0.22151305,-0.15616754,0.24873808,0.1947927,-0.17239232,-0.019065548,-0.008777641,0.12747265,0.26310128,-0.16637754,0.25770995,0.3402841,0.25200623,-0.184266,0.030025704,0.39883754,-0.08189014,-0.50287133,-0.13212168,-0.03788075,835.6777,787.326,790.54944,813.5165,563.69965,-0.24176025390625,0.06024169921875,0.96527099609375,-2.27294921875,-2.863616943359375,8.471221923828125,1,1.0,1.0,1.0,1.0,10.00
2024-10-11 20:27:49.964,0.22151305,-0.15616754,0.24873808,0.1947927,-0.17239232,-0.019065548,-0.008777641,0.12747265,0.26310128,-0.16637754,0.25770995,0.3402841,0.25200623,-0.184266,0.030025704,0.39883754,-0.08189014,-0.50287133,-0.13212168,-0.03788075,839.304,790.14655,792.1612,823.5897,709.5604,-0.24176025390625,0.06024169921875,0.96527099609375,-2.27294921875,-2.863616943359375,8.471221923828125,1,1.0,1.0,1.0,1.0,10.00
2024-10-11 20:27:50.001,0.22151305,-0.15616754,0.24873808,0.1947927,-0.17239232,-0.019065548,-0.008777641,0.12747265,0.26310128,-0.16637754,0.25770995,0.3402841,0.25200623,-0.184266,0.030025704,0.39883754,-0.08189014,-0.50287133,-0.13212168,-0.03788075,841.7216,797.3993,796.5934,838.49817,877.1795,-0.24176025390625,0.06024169921875,0.96527099609375,-2.27294921875,-2.863616943359375,8.471221923828125,1,1.0,1.0,1.0,1.0,10.00
2024-10-11 20:27:50.003,0.22151305,-0.15616754,0.24873808,0.1947927,-0.17239232,-0.019065548,-0.008777641,0.12747265,0.26310128,-0.16637754,0.25770995,0.3402841,0.25200623,-0.184266,0.030025704,0.39883754,-0.08189014,-0.50287133,-0.13212168,-0.03788075,832.4542,796.99634,794.57874,829.2308,722.4542,-0.24176025390625,0.06024169921875,0.96527099609375,-2.27294921875,-2.863616943359375,8.471221923828125,1,1.0,1.0,1.0,1.0,10.00
2024-10-11 20:27:50.004,0.22151305,-0.15616754,0.24873808,0.1947927,-0.17239232,-0.019065548,-0.008777641,0.12747265,0.26310128,-0.16637754,0.25770995,0.3402841,0.25200623,-0.184266,0.030025704,0.39883754,-0.08189014,-0.50287133,-0.13212168,-0.03788075,823.5897,790.14655,791.75824,821.1722,622.52747,-0.24176025390625,0.06024169921875,0.96527099609375,-2.27294921875,-2.863616943359375,8.471221923828125,1,1.0,1.0,1.0,1.0,10.00
2024-10-11 20:27:50.005,0.24810961,0.1090613,0.25429454,0.22716144,-0.17915826,0.1740278,0.012033271,0.1209407,0.2591334,-0.0036010419,0.25770995,0.32334834,0.26303273,-0.17427425,0.037317105,0.40496337,-0.09204288,-0.4954973,-0.12678167,-0.029767942,823.5897,786.9231,798.20514,830.84247,854.61536,-0.24176025390625,0.06024169921875,0.96527099609375,-2.27294921875,-2.863616943359375,8.471221923828125,1,1.0,1.0,1.0,1.0,10.00
2024-10-11 20:27:50.010,0.24810961,0.1090613,0.25429454,0.22716144,-0.17915826,0.1740278,0.012033271,0.1209407,0.2591334,-0.0036010419,0.25770995,0.32334834,0.26303273,-0.17427425,0.037317105,0.40496337,-0.09204288,-0.4954973,-0.12678167,-0.029767942,820.3663,786.52014,801.02563,832.0513,1014.57874,-0.24176025390625,0.06024169921875,0.96527099609375,-2.27294921875,-2.863616943359375,8.471221923828125,1,1.0,1.0,1.0,1.0,10.00
2024-10-11 20:27:50.011,0.24810961,0.1090613,0.25429454,0.22716144,-0.17915826,0.1740278,0.012033271,0.1209407,0.2591334,-0.0036010419,0.25770995,0.32334834,0.26303273,-0.17427425,0.037317105,0.40496337,-0.09204288,-0.4954973,-0.12678167,-0.029767942,809.4872,788.1319,798.20514,824.3956,870.7326,-0.24176025390625,0.06024169921875,0.96527099609375,-2.27294921875,-2.863616943359375,8.471221923828125,1,1.0,1.0,1.0,1.0,10.00
2024-10-11 20:27:50.011,0.24810961,0.1090613,0.25429454,0.22716144,-0.17915826,0.1740278,0.012033271,0.1209407,0.2591334,-0.0036010419,0.25770995,0.32334834,0.26303273,-0.17427425,0.037317105,0.40496337,-0.09204288,-0.4954973,-0.12678167,-0.029767942,813.91943,788.93774,796.5934,822.7839,867.9121,-0.24176025390625,0.06024169921875,0.96527099609375,-2.27294921875,-2.863616943359375,8.471221923828125,1,1.0,1.0,1.0,1.0,10.00
2024-10-11 20:27:50.012,0.24810961,0.1090613,0.25429454,0.22716144,-0.17915826,0.1740278,0.012033271,0.1209407,0.2591334,-0.0036010419,0.25770995,0.32334834,0.26303273,-0.17427425,0.037317105,0.40496337,-0.09204288,-0.4954973,-0.12678167,-0.029767942,815.12823,784.10254,792.96704,825.6044,1071.7949,-0.24176025390625,0.06024169921875,0.96527099609375,-2.27294921875,-2.863616943359375,8.471221923828125,1,1.0,1.0,1.0,1.0,10.00
2024-10-11 20:27:50.012,0.24810961,0.1090613,0.25429454,0.22716144,-0.17915826,0.1740278,0.012033271,0.1209407,0.2591334,-0.0036010419,0.25770995,0.32334834,0.26303273,-0.17427425,0.037317105,0.40496337,-0.09204288,-0.4954973,-0.12678167,-0.029767942,813.5165,779.2674,788.5348,821.1722,953.73627,-0.24176025390625,0.06024169921875,0.96527099609375,-2.27294921875,-2.863616943359375,8.471221923828125,1,1.0,1.0,1.0,1.0,10.00
2024-10-11 20:27:50.013,0.24810961,0.1090613,0.25429454,0.22716144,-0.17915826,0.1740278,0.012033271,0.1209407,0.2591334,-0.0036010419,0.25770995,0.32334834,0.26303273,-0.17427425,0.037317105,0.40496337,-0.09204288,-0.4954973,-0.12678167,-0.029767942,815.9341,788.93774,790.9524,818.7546,762.3443,-0.24176025390625,0.06024169921875,0.96527099609375,-2.27294921875,-2.863616943359375,8.471221923828125,1,1.0,1.0,1.0,1.0,10.00
2024-10-11 20:27:50.013,0.24810961,0.1090613,0.25429454,0.22716144,-0.17915826,0.1740278,0.012033271,0.1209407,0.2591334,-0.0036010419,0.25770995,0.32334834,0.26303273,-0.17427425,0.037317105,0.40496337,-0.09204288,-0.4954973,-0.12678167,-0.029767942,814.3223,793.7729,794.9817,817.9487,806.6667,-0.24176025390625,0.06024169921875,0.96527099609375,-2.27294921875,-2.863616943359375,8.471221923828125,1,1.0,1.0,1.0,1.0,10.00
2024-10-11 20:27:50.014,0.24810961,0.1090613,0.25429454,0.22716144,-0.17915826,0.1740278,0.012033271,0.1209407,0.2591334,-0.0036010419,0.25770995,0.32334834,0.26303273,-0.17427425,0.037317105,0.40496337,-0.09204288,-0.4954973,-0.12678167,-0.029767942,815.5311,787.72894,796.5934,821.978,1143.5165,-0.24176025390625,0.06024169921875,0.96527099609375,-2.27294921875,-2.863616943359375,8.471221923828125,1,1.0,1.0,1.0,1.0,10.00
2024-10-11 20:27:50.106,0.24810961,0.1090613,0.25429454,0.22716144,-0.17915826,0.1740278,0.012033271,0.1209407,0.2591334,-0.0036010419,0.25770995,0.32334834,0.26303273,-0.17427425,0.037317105,0.40496337,-0.09204288,-0.4954973,-0.12678167,-0.029767942,812.3077,788.1319,797.3993,827.619,1063.3334,-0.25146484375,0.0548095703125,0.9747314453125,-0.3289794921875,-7.005767822265625,4.02252197265625,1,1.0,1.0,1.0,1.0,10.00
2024-10-11 20:27:50.107,0.24810961,0.1090613,0.25429454,0.22716144,-0.17915826,0.1740278,0.012033271,0.1209407,0.2591334,-0.0036010419,0.25770995,0.32334834,0.26303273,-0.17427425,0.037317105,0.40496337,-0.09204288,-0.4954973,-0.12678167,-0.029767942,813.1135,791.75824,795.38464,819.9634,628.1685,-0.25146484375,0.0548095703125,0.9747314453125,-0.3289794921875,-7.005767822265625,4.02252197265625,1,1.0,1.0,1.0,1.0,10.00
2024-10-11 20:27:50.108,0.24810961,0.1090613,0.25429454,0.22716144,-0.17915826,0.1740278,0.012033271,0.1209407,0.2591334,-0.0036010419,0.25770995,0.32334834,0.26303273,-0.17427425,0.037317105,0.40496337,-0.09204288,-0.4954973,-0.12678167,-0.029767942,811.0989,789.34064,799.81683,819.5604,598.7546,-0.25146484375,0.0548095703125,0.9747314453125,-0.3289794921875,-7.005767822265625,4.02252197265625,1,1.0,1.0,1.0,1.0,10.00
2024-10-11 20:27:50.108,0.24810961,0.1090613,0.25429454,0.22716144,-0.17915826,0.1740278,0.012033271,0.1209407,0.2591334,-0.0036010419,0.25770995,0.32334834,0.26303273,-0.17427425,0.037317105,0.40496337,-0.09204288,-0.4954973,-0.12678167,-0.029767942,811.9048,790.54944,801.8315,820.3663,647.1062,-0.25146484375,0.0548095703125,0.9747314453125,-0.3289794921875,-7.005767822265625,4.02252197265625,1,1.0,1.0,1.0,1.0,10.00
2024-10-11 20:27:50.109,0.24810961,0.1090613,0.25429454,0.22716144,-0.17915826,0.1740278,0.012033271,0.1209407,0.2591334,-0.0036010419,0.25770995,0.32334834,0.26303273,-0.17427425,0.037317105,0.40496337,-0.09204288,-0.4954973,-0.12678167,-0.029767942,818.3516,791.75824,799.41394,820.3663,635.82416,-0.25146484375,0.0548095703125,0.9747314453125,-0.3289794921875,-7.005767822265625,4.02252197265625,1,1.0,1.0,1.0,1.0,10.00
2024-10-11 20:27:50.109,0.24810961,0.1090613,0.25429454,0.22716144,-0.17915826,0.1740278,0.012033271,0.1209407,0.2591334,-0.0036010419,0.25770995,0.32334834,0.26303273,-0.17427425,0.037317105,0.40496337,-0.09204288,-0.4954973,-0.12678167,-0.029767942,813.1135,783.69965,796.5934,819.9634,740.18317,-0.25146484375,0.0548095703125,0.9747314453125,-0.3289794921875,-7.005767822265625,4.02252197265625,1,1.0,1.0,1.0,1.0,10.00
2024-10-11 20:27:50.110,0.24810961,0.1090613,0.25429454,0.22716144,-0.17915826,0.1740278,0.012033271,0.1209407,0.2591334,-0.0036010419,0.25770995,0.32334834,0.26303273,-0.17427425,0.037317105,0.40496337,-0.09204288,-0.4954973,-0.12678167,-0.029767942,806.26373,784.5055,794.9817,815.9341,916.6667,-0.25146484375,0.0548095703125,0.9747314453125,-0.3289794921875,-7.005767822265625,4.02252197265625,1,1.0,1.0,1.0,1.0,10.00
2024-10-11 20:27:50.110,0.24810961,0.1090613,0.25429454,0.22716144,-0.17915826,0.1740278,0.012033271,0.1209407,0.2591334,-0.0036010419,0.25770995,0.32334834,0.26303273,-0.17427425,0.037317105,0.40496337,-0.09204288,-0.4954973,-0.12678167,-0.029767942,805.8608,785.31134,793.7729,811.0989,968.24176,-0.25146484375,0.0548095703125,0.9747314453125,-0.3289794921875,-7.005767822265625,4.02252197265625,1,1.0,1.0,1.0,1.0,10.00
2024-10-11 20:27:50.111,0.24810961,0.1090613,0.25429454,0.22716144,-0.17915826,0.1740278,0.012033271,0.1209407,0.2591334,-0.0036010419,0.25770995,0.32334834,0.26303273,-0.17427425,0.037317105,0.40496337,-0.09204288,-0.4954973,-0.12678167,-0.029767942,809.0842,791.75824,795.78754,813.5165,783.2967,-0.25146484375,0.0548095703125,0.9747314453125,-0.3289794921875,-7.005767822265625,4.02252197265625,1,1.0,1.0,1.0,1.0,10.00
2024-10-11 20:27:50.112,0.24810961,0.1090613,0.25429454,0.22716144,-0.17915826,0.1740278,0.012033271,0.1209407,0.2591334,-0.0036010419,0.25770995,0.32334834,0.26303273,-0.17427425,0.037317105,0.40496337,-0.09204288,-0.4954973,-0.12678167,-0.029767942,809.4872,800.2198,798.20514,816.7399,614.4689,-0.25146484375,0.0548095703125,0.9747314453125,-0.3289794921875,-7.005767822265625,4.02252197265625,1,1.0,1.0,1.0,1.0,10.00
2024-10-11 20:27:50.112,0.24810961,0.1090613,0.25429454,0.22716144,-0.17915826,0.1740278,0.012033271,0.1209407,0.2591334,-0.0036010419,0.25770995,0.32334834,0.26303273,-0.17427425,0.037317105,0.40496337,-0.09204288,-0.4954973,-0.12678167,-0.029767942,810.696,794.9817,791.75824,813.5165,688.20514,-0.25146484375,0.0548095703125,0.9747314453125,-0.3289794921875,-7.005767822265625,4.02252197265625,1,1.0,1.0,1.0,1.0,10.00
2024-10-11 20:27:50.113,0.24810961,0.1090613,0.25429454,0.22716144,-0.17915826,0.1740278,0.012033271,0.1209407,0.2591334,-0.0036010419,0.25770995,0.32334834,0.26303273,-0.17427425,0.037317105,0.40496337,-0.09204288,-0.4954973,-0.12678167,-0.029767942,808.2784,790.14655,786.52014,814.7253,999.67035,-0.25146484375,0.0548095703125,0.9747314453125,-0.3289794921875,-7.005767822265625,4.02252197265625,1,1.0,1.0,1.0,1.0,10.00
2024-10-11 20:27:50.114,0.24810961,0.1090613,0.25429454,0.22716144,-0.17915826,0.1740278,0.012033271,0.1209407,0.2591334,-0.0036010419,0.25770995,0.32334834,0.26303273,-0.17427425,0.037317105,0.40496337,-0.09204288,-0.4954973,-0.12678167,-0.029767942,805.8608,792.1612,795.78754,813.1135,772.4176,-0.2373046875,0.0643310546875,1.00189208984375,0.34393310546875,-5.7421875,0.67291259765625,1,1.0,1.0,1.0,1.0,10.00
2024-10-11 20:27:50.115,0.24810961,0.1090613,0.25429454,0.22716144,-0.17915826,0.1740278,0.012033271,0.1209407,0.2591334,-0.0036010419,0.25770995,0.32334834,0.26303273,-0.17427425,0.037317105,0.40496337,-0.09204288,-0.4954973,-0.12678167,-0.029767942,808.68134,789.7436,802.23444,809.0842,666.8498,-0.2373046875,0.0643310546875,1.00189208984375,0.34393310546875,-5.7421875,0.67291259765625,1,1.0,1.0,1.0,1.0,10.00
2024-10-11 20:27:50.115,0.24810961,0.1090613,0.25429454,0.22716144,-0.17915826,0.1740278,0.012033271,0.1209407,0.2591334,-0.0036010419,0.25770995,0.32334834,0.26303273,-0.17427425,0.037317105,0.40496337,-0.09204288,-0.4954973,-0.12678167,-0.029767942,810.696,786.52014,799.41394,805.4579,828.022,-0.2373046875,0.0643310546875,1.00189208984375,0.34393310546875,-5.7421875,0.67291259765625,1,1.0,1.0,1.0,1.0,10.00
2024-10-11 20:27:50.116,0.24810961,0.1090613,0.25429454,0.22716144,-0.17915826,0.1740278,0.012033271,0.1209407,0.2591334,-0.0036010419,0.25770995,0.32334834,0.26303273,-0.17427425,0.037317105,0.40496337,-0.09204288,-0.4954973,-0.12678167,-0.029767942,812.71063,791.3553,801.02563,806.6667,772.8205,-0.2373046875,0.0643310546875,1.00189208984375,0.34393310546875,-5.7421875,0.67291259765625,1,1.0,1.0,1.0,1.0,10.00
2024-10-11 20:27:50.116,0.24810961,0.1090613,0.25429454,0.22716144,-0.17915826,0.1740278,0.012033271,0.1209407,0.2591334,-0.0036010419,0.25770995,0.32334834,0.26303273,-0.17427425,0.037317105,0.40496337,-0.09204288,-0.4954973,-0.12678167,-0.029767942,807.0696,795.38464,802.6374,809.0842,686.1905,-0.2373046875,0.0643310546875,1.00189208984375,0.34393310546875,-5.7421875,0.67291259765625,1,1.0,1.0,1.0,1.0,10.00
2024-10-11 20:27:50.117,0.2801194,0.42167744,0.26654956,0.26274422,-0.17595361,0.39512134,0.037821483,0.11953329,0.25679556,0.119684726,0.25770995,0.24363895,0.2711828,-0.15911394,0.0455557,0.3982644,-0.110283546,-0.46098346,-0.12370403,-0.035116315,802.6374,795.38464,803.0403,813.1135,735.34796,-0.2373046875,0.0643310546875,1.00189208984375,0.34393310546875,-5.7421875,0.67291259765625,1,1.0,1.0,1.0,1.0,10.00
2024-10-11 20:27:50.122,0.2801194,0.42167744,0.26654956,0.26274422,-0.17595361,0.39512134,0.037821483,0.11953329,0.25679556,0.119684726,0.25770995,0.24363895,0.2711828,-0.15911394,0.0455557,0.3982644,-0.110283546,-0.46098346,-0.12370403,-0.035116315,798.20514,792.96704,800.6227,812.71063,1016.5934,-0.2373046875,0.0643310546875,1.00189208984375,0.34393310546875,-5.7421875,0.67291259765625,1,1.0,1.0,1.0,1.0,10.00
2024-10-11 20:27:50.122,0.2801194,0.42167744,0.26654956,0.26274422,-0.17595361,0.39512134,0.037821483,0.11953329,0.25679556,0.119684726,0.25770995,0.24363895,0.2711828,-0.15911394,0.0455557,0.3982644,-0.110283546,-0.46098346,-0.12370403,-0.035116315,795.38464,791.75824,792.1612,802.6374,915.8608,-0.2373046875,0.0643310546875,1.00189208984375,0.34393310546875,-5.7421875,0.67291259765625,1,1.0,1.0,1.0,1.0,10.00
2024-10-11 20:27:50.123,0.2801194,0.42167744,0.26654956,0.26274422,-0.17595361,0.39512134,0.037821483,0.11953329,0.25679556,0.119684726,0.25770995,0.24363895,0.2711828,-0.15911394,0.0455557,0.3982644,-0.110283546,-0.46098346,-0.12370403,-0.035116315,803.44324,798.20514,800.6227,803.44324,565.31134,-0.2373046875,0.0643310546875,1.00189208984375,0.34393310546875,-5.7421875,0.67291259765625,1,1.0,1.0,1.0,1.0,10.00
2024-10-11 20:27:50.124,0.2801194,0.42167744,0.26654956,0.26274422,-0.17595361,0.39512134,0.037821483,0.11953329,0.25679556,0.119684726,0.25770995,0.24363895,0.2711828,-0.15911394,0.0455557,0.3982644,-0.110283546,-0.46098346,-0.12370403,-0.035116315,806.26373,796.99634,801.02563,811.50183,640.2564,-0.2373046875,0.0643310546875,1.00189208984375,0.34393310546875,-5.7421875,0.67291259765625,1,1.0,1.0,1.0,1.0,10.00
2024-10-11 20:27:50.124,0.2801194,0.42167744,0.26654956,0.26274422,-0.17595361,0.39512134,0.037821483,0.11953329,0.25679556,0.119684726,0.25770995,0.24363895,0.2711828,-0.15911394,0.0455557,0.3982644,-0.110283546,-0.46098346,-0.12370403,-0.035116315,798.20514,790.9524,783.2967,803.8461,927.1429,-0.2373046875,0.0643310546875,1.00189208984375,0.34393310546875,-5.7421875,0.67291259765625,1,1.0,1.0,1.0,1.0,10.00
2024-10-11 20:27:50.125,0.2801194,0.42167744,0.26654956,0.26274422,-0.17595361,0.39512134,0.037821483,0.11953329,0.25679556,0.119684726,0.25770995,0.24363895,0.2711828,-0.15911394,0.0455557,0.3982644,-0.110283546,-0.46098346,-0.12370403,-0.035116315,795.78754,789.7436,791.3553,801.4286,805.8608,-0.2373046875,0.0643310546875,1.00189208984375,0.34393310546875,-5.7421875,0.67291259765625,1,1.0,1.0,1.0,1.0,10.00
2024-10-11 20:27:50.146,0.2801194,0.42167744,0.26654956,0.26274422,-0.17595361,0.39512134,0.037821483,0.11953329,0.25679556,0.119684726,0.25770995,0.24363895,0.2711828,-0.15911394,0.0455557,0.3982644,-0.110283546,-0.46098346,-0.12370403,-0.035116315,798.20514,792.5641,798.20514,800.2198,567.72894,-0.22265625,0.05987548828125,0.985595703125,-1.637420654296875,-5.615081787109375,0.007476806640625,1,1.0,1.0,1.0,1.0,10.00
2024-10-11 20:27:50.147,0.2801194,0.42167744,0.26654956,0.26274422,-0.17595361,0.39512134,0.037821483,0.11953329,0.25679556,0.119684726,0.25770995,0.24363895,0.2711828,-0.15911394,0.0455557,0.3982644,-0.110283546,-0.46098346,-0.12370403,-0.035116315,805.05493,792.5641,792.96704,804.65204,670.07324,-0.22265625,0.05987548828125,0.985595703125,-1.637420654296875,-5.615081787109375,0.007476806640625,1,1.0,1.0,1.0,1.0,10.00
2024-10-11 20:27:50.148,0.2801194,0.42167744,0.26654956,0.26274422,-0.17595361,0.39512134,0.037821483,0.11953329,0.25679556,0.119684726,0.25770995,0.24363895,0.2711828,-0.15911394,0.0455557,0.3982644,-0.110283546,-0.46098346,-0.12370403,-0.035116315,807.8755,792.96704,797.3993,813.91943,905.78754,-0.22265625,0.05987548828125,0.985595703125,-1.637420654296875,-5.615081787109375,0.007476806640625,1,1.0,1.0,1.0,1.0,10.00
2024-10-11 20:27:50.148,0.2801194,0.42167744,0.26654956,0.26274422,-0.17595361,0.39512134,0.037821483,0.11953329,0.25679556,0.119684726,0.25770995,0.24363895,0.2711828,-0.15911394,0.0455557,0.3982644,-0.110283546,-0.46098346,-0.12370403,-0.035116315,796.5934,793.36993,797.8022,800.6227,871.9414,-0.22265625,0.05987548828125,0.985595703125,-1.637420654296875,-5.615081787109375,0.007476806640625,1,1.0,1.0,1.0,1.0,10.00
2024-10-11 20:27:50.149,0.2801194,0.42167744,0.26654956,0.26274422,-0.17595361,0.39512134,0.037821483,0.11953329,0.25679556,0.119684726,0.25770995,0.24363895,0.2711828,-0.15911394,0.0455557,0.3982644,-0.110283546,-0.46098346,-0.12370403,-0.035116315,809.4872,796.1905,793.7729,799.81683,766.77655,-0.22265625,0.05987548828125,0.985595703125,-1.637420654296875,-5.615081787109375,0.007476806640625,1,1.0,1.0,1.0,1.0,10.00
2024-10-11 20:27:50.150,0.2801194,0.42167744,0.26654956,0.26274422,-0.17595361,0.39512134,0.037821483,0.11953329,0.25679556,0.119684726,0.25770995,0.24363895,0.2711828,-0.15911394,0.0455557,0.3982644,-0.110283546,-0.46098346,-0.12370403,-0.035116315,832.0513,801.8315,803.8461,818.3516,840.5128,-0.22265625,0.05987548828125,0.985595703125,-1.637420654296875,-5.615081787109375,0.007476806640625,1,1.0,1.0,1.0,1.0,10.00
2024-10-11 20:27:50.150,0.2801194,0.42167744,0.26654956,0.26274422,-0.17595361,0.39512134,0.037821483,0.11953329,0.25679556,0.119684726,0.25770995,0.24363895,0.2711828,-0.15911394,0.0455557,0.3982644,-0.110283546,-0.46098346,-0.12370403,-0.035116315,807.47253,802.6374,803.0403,817.1429,1326.044,-0.22265625,0.05987548828125,0.985595703125,-1.637420654296875,-5.615081787109375,0.007476806640625,1,1.0,1.0,1.0,1.0,10.00
2024-10-11 20:27:50.151,0.2801194,0.42167744,0.26654956,0.26274422,-0.17595361,0.39512134,0.037821483,0.11953329,0.25679556,0.119684726,0.25770995,0.24363895,0.2711828,-0.15911394,0.0455557,0.3982644,-0.110283546,-0.46098346,-0.12370403,-0.035116315,789.7436,797.8022,799.81683,805.8608,1385.2748,-0.22265625,0.05987548828125,0.985595703125,-1.637420654296875,-5.615081787109375,0.007476806640625,1,1.0,1.0,1.0,1.0,10.00
2024-10-11 20:27:50.151,0.2801194,0.42167744,0.26654956,0.26274422,-0.17595361,0.39512134,0.037821483,0.11953329,0.25679556,0.119684726,0.25770995,0.24363895,0.2711828,-0.15911394,0.0455557,0.3982644,-0.110283546,-0.46098346,-0.12370403,-0.035116315,799.41394,794.17584,807.8755,799.81683,817.5458,-0.22265625,0.05987548828125,0.985595703125,-1.637420654296875,-5.615081787109375,0.007476806640625,1,1.0,1.0,1.0,1.0,10.00
2024-10-11 20:27:50.152,0.2801194,0.42167744,0.26654956,0.26274422,-0.17595361,0.39512134,0.037821483,0.11953329,0.25679556,0.119684726,0.25770995,0.24363895,0.2711828,-0.15911394,0.0455557,0.3982644,-0.110283546,-0.46098346,-0.12370403,-0.035116315,800.2198,790.9524,804.65204,799.41394,664.0293,-0.22265625,0.05987548828125,0.985595703125,-1.637420654296875,-5.615081787109375,0.007476806640625,1,1.0,1.0,1.0,1.0,10.00
2024-10-11 20:27:50.152,0.2801194,0.42167744,0.26654956,0.26274422,-0.17595361,0.39512134,0.037821483,0.11953329,0.25679556,0.119684726,0.25770995,0.24363895,0.2711828,-0.15911394,0.0455557,0.3982644,-0.110283546,-0.46098346,-0.12370403,-0.035116315,801.02563,788.5348,800.2198,804.65204,759.5238,-0.22265625,0.05987548828125,0.985595703125,-1.637420654296875,-5.615081787109375,0.007476806640625,1,1.0,1.0,1.0,1.0,10.00
2024-10-11 20:27:50.153,0.2801194,0.42167744,0.26654956,0.26274422,-0.17595361,0.39512134,0.037821483,0.11953329,0.25679556,0.119684726,0.25770995,0.24363895,0.2711828,-0.15911394,0.0455557,0.3982644,-0.110283546,-0.46098346,-0.12370403,-0.035116315,799.011,790.9524,807.47253,796.99634,652.74725,-0.22265625,0.05987548828125,0.985595703125,-1.637420654296875,-5.615081787109375,0.007476806640625,1,1.0,1.0,1.0,1.0,10.00
2024-10-11 20:27:50.175,0.2801194,0.42167744,0.26654956,0.26274422,-0.17595361,0.39512134,0.037821483,0.11953329,0.25679556,0.119684726,0.25770995,0.24363895,0.2711828,-0.15911394,0.0455557,0.3982644,-0.110283546,-0.46098346,-0.12370403,-0.035116315,788.5348,788.93774,800.6227,784.5055,634.21246,-0.21112060546875,0.0556640625,0.97967529296875,-2.22808837890625,-4.66552734375,0.11962890625,1,1.0,1.0,1.0,1.0,10.00
2024-10-11 20:27:50.176,0.2801194,0.42167744,0.26654956,0.26274422,-0.17595361,0.39512134,0.037821483,0.11953329,0.25679556,0.119684726,0.25770995,0.24363895,0.2711828,-0.15911394,0.0455557,0.3982644,-0.110283546,-0.46098346,-0.12370403,-0.035116315,794.17584,789.7436,794.57874,790.14655,794.9817,-0.21112060546875,0.0556640625,0.97967529296875,-2.22808837890625,-4.66552734375,0.11962890625,1,1.0,1.0,1.0,1.0,10.00
2024-10-11 20:27:50.176,0.2801194,0.42167744,0.26654956,0.26274422,-0.17595361,0.39512134,0.037821483,0.11953329,0.25679556,0.119684726,0.25770995,0.24363895,0.2711828,-0.15911394,0.0455557,0.3982644,-0.110283546,-0.46098346,-0.12370403,-0.035116315,798.20514,797.3993,797.8022,799.81683,772.8205,-0.21112060546875,0.0556640625,0.97967529296875,-2.22808837890625,-4.66552734375,0.11962890625,1,1.0,1.0,1.0,1.0,10.00
2024-10-11 20:27:50.177,0.2801194,0.42167744,0.26654956,0.26274422,-0.17595361,0.39512134,0.037821483,0.11953329,0.25679556,0.119684726,0.25770995,0.24363895,0.2711828,-0.15911394,0.0455557,0.3982644,-0.110283546,-0.46098346,-0.12370403,-0.035116315,800.6227,803.0403,796.5934,800.2198,674.90845,-0.21112060546875,0.0556640625,0.97967529296875,-2.22808837890625,-4.66552734375,0.11962890625,1,1.0,1.0,1.0,1.0,10.00
2024-10-11 20:27:50.178,0.2801194,0.42167744,0.26654956,0.26274422,-0.17595361,0.39512134,0.037821483,0.11953329,0.25679556,0.119684726,0.25770995,0.24363895,0.2711828,-0.15911394,0.0455557,0.3982644,-0.110283546,-0.46098346,-0.12370403,-0.035116315,801.4286,796.99634,793.36993,797.3993,689.011,-0.21112060546875,0.0556640625,0.97967529296875,-2.22808837890625,-4.66552734375,0.11962890625,1,1.0,1.0,1.0,1.0,10.00
2024-10-11 20:27:50.178,0.2801194,0.42167744,0.26654956,0.26274422,-0.17595361,0.39512134,0.037821483,0.11953329,0.25679556,0.119684726,0.25770995,0.24363895,0.2711828,-0.15911394,0.0455557,0.3982644,-0.110283546,-0.46098346,-0.12370403,-0.035116315,791.75824,788.1319,791.3553,795.78754,829.2308,-0.21112060546875,0.0556640625,0.97967529296875,-2.22808837890625,-4.66552734375,0.11962890625,1,1.0,1.0,1.0,1.0,10.00
2024-10-11 20:27:50.179,0.2801194,0.42167744,0.26654956,0.26274422,-0.17595361,0.39512134,0.037821483,0.11953329,0.25679556,0.119684726,0.25770995,0.24363895,0.2711828,-0.15911394,0.0455557,0.3982644,-0.110283546,-0.46098346,-0.12370403,-0.035116315,798.20514,790.9524,793.7729,802.23444,855.0183,-0.21112060546875,0.0556640625,0.97967529296875,-2.22808837890625,-4.66552734375,0.11962890625,1,1.0,1.0,1.0,1.0,10.00
2024-10-11 20:27:50.179,0.3142423,0.6667032,0.28319755,0.29484555,-0.16489786,0.57195544,0.067107104,0.11442601,0.25679556,0.1735768,0.25684926,0.16164732,0.2761036,-0.1399548,0.053394694,0.3809942,-0.13179521,-0.41318426,-0.11831243,-0.053075936,801.8315,790.9524,799.41394,805.8608,676.9231,-0.21112060546875,0.0556640625,0.97967529296875,-2.22808837890625,-4.66552734375,0.11962890625,1,1.0,1.0,1.0,1.0,10.00
2024-10-11 20:27:50.184,0.3142423,0.6667032,0.28319755,0.29484555,-0.16489786,0.57195544,0.067107104,0.11442601,0.25679556,0.1735768,0.25684926,0.16164732,0.2761036,-0.1399548,0.053394694,0.3809942,-0.13179521,-0.41318426,-0.11831243,-0.053075936,800.6227,792.1612,803.0403,804.2491,630.58606,-0.21112060546875,0.0556640625,0.97967529296875,-2.22808837890625,-4.66552734375,0.11962890625,1,1.0,1.0,1.0,1.0,10.00
2024-10-11 20:27:50.185,0.3142423,0.6667032,0.28319755,0.29484555,-0.16489786,0.57195544,0.067107104,0.11442601,0.25679556,0.1735768,0.25684926,0.16164732,0.2761036,-0.1399548,0.053394694,0.3809942,-0.13179521,-0.41318426,-0.11831243,-0.053075936,805.8608,792.96704,802.23444,807.0696,877.98535,-0.21112060546875,0.0556640625,0.97967529296875,-2.22808837890625,-4.66552734375,0.11962890625,1,1.0,1.0,1.0,1.0,10.00
2024-10-11 20:27:50.186,0.3142423,0.6667032,0.28319755,0.29484555,-0.16489786,0.57195544,0.067107104,0.11442601,0.25679556,0.1735768,0.25684926,0.16164732,0.2761036,-0.1399548,0.053394694,0.3809942,-0.13179521,-0.41318426,-0.11831243,-0.053075936,804.65204,796.5934,795.38464,805.05493,898.1319,-0.21112060546875,0.0556640625,0.97967529296875,-2.22808837890625,-4.66552734375,0.11962890625,1,1.0,1.0,1.0,1.0,10.00
2024-10-11 20:27:50.186,0.3142423,0.6667032,0.28319755,0.29484555,-0.16489786,0.57195544,0.067107104,0.11442601,0.25679556,0.1735768,0.25684926,0.16164732,0.2761036,-0.1399548,0.053394694,0.3809942,-0.13179521,-0.41318426,-0.11831243,-0.053075936,803.0403,799.81683,798.60803,799.011,665.64105,-0.21112060546875,0.0556640625,0.97967529296875,-2.22808837890625,-4.66552734375,0.11962890625,1,1.0,1.0,1.0,1.0,10.00
2024-10-11 20:27:50.211,0.3142423,0.6667032,0.28319755,0.29484555,-0.16489786,0.57195544,0.067107104,0.11442601,0.25679556,0.1735768,0.25684926,0.16164732,0.2761036,-0.1399548,0.053394694,0.3809942,-0.13179521,-0.41318426,-0.11831243,-0.053075936,804.65204,796.1905,808.68134,801.02563,622.9304,-0.21112060546875,0.0556640625,0.97967529296875,-2.22808837890625,-4.66552734375,0.11962890625,1,1.0,1.0,1.0,1.0,10.00
2024-10-11 20:27:50.212,0.3142423,0.6667032,0.28319755,0.29484555,-0.16489786,0.57195544,0.067107104,0.11442601,0.25679556,0.1735768,0.25684926,0.16164732,0.2761036,-0.1399548,0.053394694,0.3809942,-0.13179521,-0.41318426,-0.11831243,-0.053075936,800.6227,795.78754,807.0696,802.6374,702.71063,-0.21112060546875,0.0556640625,0.97967529296875,-2.22808837890625,-4.66552734375,0.11962890625,1,1.0,1.0,1.0,1.0,10.00
2024-10-11 20:27:50.212,0.3142423,0.6667032,0.28319755,0.29484555,-0.16489786,0.57195544,0.067107104,0.11442601,0.25679556,0.1735768,0.25684926,0.16164732,0.2761036,-0.1399548,0.053394694,0.3809942,-0.13179521,-0.41318426,-0.11831243,-0.053075936,801.02563,796.99634,801.02563,792.96704,643.0769,-0.21112060546875,0.0556640625,0.97967529296875,-2.22808837890625,-4.66552734375,0.11962890625,1,1.0,1.0,1.0,1.0,10.00
2024-10-11 20:27:50.213,0.3142423,0.6667032,0.28319755,0.29484555,-0.16489786,0.57195544,0.067107104,0.11442601,0.25679556,0.1735768,0.25684926,0.16164732,0.2761036,-0.1399548,0.053394694,0.3809942,-0.13179521,-0.41318426,-0.11831243,-0.053075936,805.4579,799.81683,802.6374,793.7729,562.8938,-0.21112060546875,0.0556640625,0.97967529296875,-2.22808837890625,-4.66552734375,0.11962890625,1,1.0,1.0,1.0,1.0,10.00
2024-10-11 20:27:50.213,0.3142423,0.6667032,0.28319755,0.29484555,-0.16489786,0.57195544,0.067107104,0.11442601,0.25679556,0.1735768,0.25684926,0.16164732,0.2761036,-0.1399548,0.053394694,0.3809942,-0.13179521,-0.41318426,-0.11831243,-0.053075936,807.47253,795.78754,799.011,801.4286,746.63007,-0.21112060546875,0.0556640625,0.97967529296875,-2.22808837890625,-4.66552734375,0.11962890625,1,1.0,1.0,1.0,1.0,10.00
2024-10-11 20:27:50.214,0.3142423,0.6667032,0.28319755,0.29484555,-0.16489786,0.57195544,0.067107104,0.11442601,0.25679556,0.1735768,0.25684926,0.16164732,0.2761036,-0.1399548,0.053394694,0.3809942,-0.13179521,-0.41318426,-0.11831243,-0.053075936,798.20514,789.34064,790.9524,800.2198,1066.1538,-0.21112060546875,0.0556640625,0.97967529296875,-2.22808837890625,-4.66552734375,0.11962890625,1,1.0,1.0,1.0,1.0,10.00
2024-10-11 20:27:50.215,0.3142423,0.6667032,0.28319755,0.29484555,-0.16489786,0.57195544,0.067107104,0.11442601,0.25679556,0.1735768,0.25684926,0.16164732,0.2761036,-0.1399548,0.053394694,0.3809942,-0.13179521,-0.41318426,-0.11831243,-0.053075936,799.011,796.5934,794.17584,799.011,957.3626,-0.21112060546875,0.0556640625,0.97967529296875,-2.22808837890625,-4.66552734375,0.11962890625,1,1.0,1.0,1.0,1.0,10.00
2024-10-11 20:27:50.215,0.3142423,0.6667032,0.28319755,0.29484555,-0.16489786,0.57195544,0.067107104,0.11442601,0.25679556,0.1735768,0.25684926,0.16164732,0.2761036,-0.1399548,0.053394694,0.3809942,-0.13179521,-0.41318426,-0.11831243,-0.053075936,803.8461,799.011,797.8022,795.38464,738.97437,-0.21112060546875,0.0556640625,0.97967529296875,-2.22808837890625,-4.66552734375,0.11962890625,1,1.0,1.0,1.0,1.0,10.00
2024-10-11 20:27:50.216,0.3142423,0.6667032,0.28319755,0.29484555,-0.16489786,0.57195544,0.067107104,0.11442601,0.25679556,0.1735768,0.25684926,0.16164732,0.2761036,-0.1399548,0.053394694,0.3809942,-0.13179521,-0.41318426,-0.11831243,-0.053075936,802.23444,799.81683,797.3993,796.5934,757.9121,-0.21112060546875,0.0556640625,0.97967529296875,-2.22808837890625,-4.66552734375,0.11962890625,1,1.0,1.0,1.0,1.0,10.00
2024-10-11 20:27:50.216,0.3142423,0.6667032,0.28319755,0.29484555,-0.16489786,0.57195544,0.067107104,0.11442601,0.25679556,0.1735768,0.25684926,0.16164732,0.2761036,-0.1399548,0.053394694,0.3809942,-0.13179521,-0.41318426,-0.11831243,-0.053075936,804.2491,799.81683,790.54944,801.02563,873.5531,-0.21112060546875,0.0556640625,0.97967529296875,-2.22808837890625,-4.66552734375,0.11962890625,1,1.0,1.0,1.0,1.0,10.00
2024-10-11 20:27:50.217,0.3142423,0.6667032,0.28319755,0.29484555,-0.16489786,0.57195544,0.067107104,0.11442601,0.25679556,0.1735768,0.25684926,0.16164732,0.2761036,-0.1399548,0.053394694,0.3809942,-0.13179521,-0.41318426,-0.11831243,-0.053075936,802.23444,798.20514,792.96704,799.41394,810.696,-0.21112060546875,0.0556640625,0.97967529296875,-2.22808837890625,-4.66552734375,0.11962890625,1,1.0,1.0,1.0,1.0,10.00
2024-10-11 20:27:50.218,0.3142423,0.6667032,0.28319755,0.29484555,-0.16489786,0.57195544,0.067107104,0.11442601,0.25679556,0.1735768,0.25684926,0.16164732,0.2761036,-0.1399548,0.053394694,0.3809942,-0.13179521,-0.41318426,-0.11831243,-0.053075936,802.23444,795.78754,803.8461,796.5934,754.2857,-0.21112060546875,0.0556640625,0.97967529296875,-2.22808837890625,-4.66552734375,0.11962890625,1,1.0,1.0,1.0,1.0,10.00
2024-10-11 20:27:50.304,0.3142423,0.6667032,0.28319755,0.29484555,-0.16489786,0.57195544,0.067107104,0.11442601,0.25679556,0.1735768,0.25684926,0.16164732,0.2761036,-0.1399548,0.053394694,0.3809942,-0.13179521,-0.41318426,-0.11831243,-0.053075936,805.8608,796.1905,799.81683,798.20514,962.6007,-0.20941162109375,0.05877685546875,0.9696044921875,-2.04864501953125,-2.579498291015625,4.605712890625,1,1.0,1.0,1.0,1.0,10.00
2024-10-11 20:27:50.305,0.3142423,0.6667032,0.28319755,0.29484555,-0.16489786,0.57195544,0.067107104,0.11442601,0.25679556,0.1735768,0.25684926,0.16164732,0.2761036,-0.1399548,0.053394694,0.3809942,-0.13179521,-0.41318426,-0.11831243,-0.053075936,800.2198,799.011,796.5934,799.41394,1123.37,-0.20941162109375,0.05877685546875,0.9696044921875,-2.04864501953125,-2.579498291015625,4.605712890625,1,1.0,1.0,1.0,1.0,10.00
2024-10-11 20:27:50.306,0.3142423,0.6667032,0.28319755,0.29484555,-0.16489786,0.57195544,0.067107104,0.11442601,0.25679556,0.1735768,0.25684926,0.16164732,0.2761036,-0.1399548,0.053394694,0.3809942,-0.13179521,-0.41318426,-0.11831243,-0.053075936,792.5641,797.8022,796.99634,793.7729,851.39197,-0.20941162109375,0.05877685546875,0.9696044921875,-2.04864501953125,-2.579498291015625,4.605712890625,1,1.0,1.0,1.0,1.0,10.00
2024-10-11 20:27:50.306,0.3142423,0.6667032,0.28319755,0.29484555,-0.16489786,0.57195544,0.067107104,0.11442601,0.25679556,0.1735768,0.25684926,0.16164732,0.2761036,-0.1399548,0.053394694,0.3809942,-0.13179521,-0.41318426,-0.11831243,-0.053075936,783.69965,793.36993,794.17584,792.5641,740.58606,-0.20941162109375,0.05877685546875,0.9696044921875,-2.04864501953125,-2.579498291015625,4.605712890625,1,1.0,1.0,1.0,1.0,10.00
2024-10-11 20:27:50.307,0.3142423,0.6667032,0.28319755,0.29484555,-0.16489786,0.57195544,0.067107104,0.11442601,0.25679556,0.1735768,0.25684926,0.16164732,0.2761036,-0.1399548,0.053394694,0.3809942,-0.13179521,-0.41318426,-0.11831243,-0.053075936,787.326,791.3553,790.54944,796.1905,859.0476,-0.20941162109375,0.05877685546875,0.9696044921875,-2.04864501953125,-2.579498291015625,4.605712890625,1,1.0,1.0,1.0,1.0,10.00
2024-10-11 20:27:50.308,0.3142423,0.6667032,0.28319755,0.29484555,-0.16489786,0.57195544,0.067107104,0.11442601,0.25679556,0.1735768,0.25684926,0.16164732,0.2761036,-0.1399548,0.053394694,0.3809942,-0.13179521,-0.41318426,-0.11831243,-0.053075936,795.38464,793.36993,793.36993,797.3993,952.1245,-0.20941162109375,0.05877685546875,0.9696044921875,-2.04864501953125,-2.579498291015625,4.605712890625,1,1.0,1.0,1.0,1.0,10.00
2024-10-11 20:27:50.308,0.3142423,0.6667032,0.28319755,0.29484555,-0.16489786,0.57195544,0.067107104,0.11442601,0.25679556,0.1735768,0.25684926,0.16164732,0.2761036,-0.1399548,0.053394694,0.3809942,-0.13179521,-0.41318426,-0.11831243,-0.053075936,794.9817,796.5934,796.5934,799.81683,957.3626,-0.20941162109375,0.05877685546875,0.9696044921875,-2.04864501953125,-2.579498291015625,4.605712890625,1,1.0,1.0,1.0,1.0,10.00
2024-10-11 20:27:50.309,0.3142423,0.6667032,0.28319755,0.29484555,-0.16489786,0.57195544,0.067107104,0.11442601,0.25679556,0.1735768,0.25684926,0.16164732,0.2761036,-0.1399548,0.053394694,0.3809942,-0.13179521,-0.41318426,-0.11831243,-0.053075936,800.2198,800.6227,800.2198,803.8461,818.7546,-0.20941162109375,0.05877685546875,0.9696044921875,-2.04864501953125,-2.579498291015625,4.605712890625,1,1.0,1.0,1.0,1.0,10.00
2024-10-11 20:27:50.309,0.3142423,0.6667032,0.28319755,0.29484555,-0.16489786,0.57195544,0.067107104,0.11442601,0.25679556,0.1735768,0.25684926,0.16164732,0.2761036,-0.1399548,0.053394694,0.3809942,-0.13179521,-0.41318426,-0.11831243,-0.053075936,800.2198,797.3993,799.41394,811.50183,1043.5897,-0.20941162109375,0.05877685546875,0.9696044921875,-2.04864501953125,-2.579498291015625,4.605712890625,1,1.0,1.0,1.0,1.0,10.00
2024-10-11 20:27:50.310,0.33411425,0.69446576,0.30196998,0.31601045,-0.14822844,0.5960044,0.095889784,0.092325896,0.25679556,0.1735768,0.2523066,0.12737015,0.28097716,-0.13807741,0.060064875,0.36482596,-0.14824423,-0.40600914,-0.10914213,-0.07450553,800.6227,794.9817,792.1612,815.5311,1203.1501,-0.20941162109375,0.05877685546875,0.9696044921875,-2.04864501953125,-2.579498291015625,4.605712890625,1,1.0,1.0,1.0,1.0,10.00
2024-10-11 20:27:50.315,0.33411425,0.69446576,0.30196998,0.31601045,-0.14822844,0.5960044,0.095889784,0.092325896,0.25679556,0.1735768,0.2523066,0.12737015,0.28097716,-0.13807741,0.060064875,0.36482596,-0.14824423,-0.40600914,-0.10914213,-0.07450553,794.57874,796.99634,799.011,805.8608,782.49084,-0.20941162109375,0.05877685546875,0.9696044921875,-2.04864501953125,-2.579498291015625,4.605712890625,1,1.0,1.0,1.0,1.0,10.00
2024-10-11 20:27:50.316,0.33411425,0.69446576,0.30196998,0.31601045,-0.14822844,0.5960044,0.095889784,0.092325896,0.25679556,0.1735768,0.2523066,0.12737015,0.28097716,-0.13807741,0.060064875,0.36482596,-0.14824423,-0.40600914,-0.10914213,-0.07450553,783.69965,796.99634,804.65204,797.8022,711.1722,-0.20941162109375,0.05877685546875,0.9696044921875,-2.04864501953125,-2.579498291015625,4.605712890625,1,1.0,1.0,1.0,1.0,10.00
2024-10-11 20:27:50.340,0.33411425,0.69446576,0.30196998,0.31601045,-0.14822844,0.5960044,0.095889784,0.092325896,0.25679556,0.1735768,0.2523066,0.12737015,0.28097716,-0.13807741,0.060064875,0.36482596,-0.14824423,-0.40600914,-0.10914213,-0.07450553,794.17584,800.2198,803.44324,800.2198,877.1795,-0.22113037109375,0.052978515625,0.9818115234375,-2.310333251953125,-2.564544677734375,7.05810546875,1,1.0,1.0,1.0,1.0,10.00
2024-10-11 20:27:50.341,0.33411425,0.69446576,0.30196998,0.31601045,-0.14822844,0.5960044,0.095889784,0.092325896,0.25679556,0.1735768,0.2523066,0.12737015,0.28097716,-0.13807741,0.060064875,0.36482596,-0.14824423,-0.40600914,-0.10914213,-0.07450553,796.1905,798.60803,800.6227,804.65204,805.05493,-0.22113037109375,0.052978515625,0.9818115234375,-2.310333251953125,-2.564544677734375,7.05810546875,1,1.0,1.0,1.0,1.0,10.00
2024-10-11 20:27:50.341,0.33411425,0.69446576,0.30196998,0.31601045,-0.14822844,0.5960044,0.095889784,0.092325896,0.25679556,0.1735768,0.2523066,0.12737015,0.28097716,-0.13807741,0.060064875,0.36482596,-0.14824423,-0.40600914,-0.10914213,-0.07450553,791.75824,796.1905,800.2198,804.2491,775.2381,-0.22113037109375,0.052978515625,0.9818115234375,-2.310333251953125,-2.564544677734375,7.05810546875,1,1.0,1.0,1.0,1.0,10.00
2024-10-11 20:27:50.342,0.33411425,0.69446576,0.30196998,0.31601045,-0.14822844,0.5960044,0.095889784,0.092325896,0.25679556,0.1735768,0.2523066,0.12737015,0.28097716,-0.13807741,0.060064875,0.36482596,-0.14824423,-0.40600914,-0.10914213,-0.07450553,798.60803,798.60803,804.65204,805.05493,721.2454,-0.22113037109375,0.052978515625,0.9818115234375,-2.310333251953125,-2.564544677734375,7.05810546875,1,1.0,1.0,1.0,1.0,10.00
2024-10-11 20:27:50.342,0.33411425,0.69446576,0.30196998,0.31601045,-0.14822844,0.5960044,0.095889784,0.092325896,0.25679556,0.1735768,0.2523066,0.12737015,0.28097716,-0.13807741,0.060064875,0.36482596,-0.14824423,-0.40600914,-0.10914213,-0.07450553,794.17584,798.60803,804.2491,801.8315,743.00366,-0.22113037109375,0.052978515625,0.9818115234375,-2.310333251953125,-2.564544677734375,7.05810546875,1,1.0,1.0,1.0,1.0,10.00
2024-10-11 20:27:50.343,0.33411425,0.69446576,0.30196998,0.31601045,-0.14822844,0.5960044,0.095889784,0.092325896,0.25679556,0.1735768,0.2523066,0.12737015,0.28097716,-0.13807741,0.060064875,0.36482596,-0.14824423,-0.40600914,-0.10914213,-0.07450553,787.72894,790.54944,802.23444,796.5934,835.6777,-0.22113037109375,0.052978515625,0.9818115234375,-2.310333251953125,-2.564544677734375,7.05810546875,1,1.0,1.0,1.0,1.0,10.00
2024-10-11 20:27:50.344,0.33411425,0.69446576,0.30196998,0.31601045,-0.14822844,0.5960044,0.095889784,0.092325896,0.25679556,0.1735768,0.2523066,0.12737015,0.28097716,-0.13807741,0.060064875,0.36482596,-0.14824423,-0.40600914,-0.10914213,-0.07450553,791.75824,791.3553,800.2198,795.78754,767.98535,-0.22113037109375,0.052978515625,0.9818115234375,-2.310333251953125,-2.564544677734375,7.05810546875,1,1.0,1.0,1.0,1.0,10.00
2024-10-11 20:27:50.344,0.33411425,0.69446576,0.30196998,0.31601045,-0.14822844,0.5960044,0.095889784,0.092325896,0.25679556,0.1735768,0.2523066,0.12737015,0.28097716,-0.13807741,0.060064875,0.36482596,-0.14824423,-0.40600914,-0.10914213,-0.07450553,799.011,797.3993,803.44324,796.5934,747.03296,-0.22113037109375,0.052978515625,0.9818115234375,-2.310333251953125,-2.564544677734375,7.05810546875,1,1.0,1.0,1.0,1.0,10.00
2024-10-11 20:27:50.345,0.33411425,0.69446576,0.30196998,0.31601045,-0.14822844,0.5960044,0.095889784,0.092325896,0.25679556,0.1735768,0.2523066,0.12737015,0.28097716,-0.13807741,0.060064875,0.36482596,-0.14824423,-0.40600914,-0.10914213,-0.07450553,800.2198,795.78754,797.3993,796.99634,908.20514,-0.22113037109375,0.052978515625,0.9818115234375,-2.310333251953125,-2.564544677734375,7.05810546875,1,1.0,1.0,1.0,1.0,10.00
2024-10-11 20:27:50.345,0.33411425,0.69446576,0.30196998,0.31601045,-0.14822844,0.5960044,0.095889784,0.092325896,0.25679556,0.1735768,0.2523066,0.12737015,0.28097716,-0.13807741,0.060064875,0.36482596,-0.14824423,-0.40600914,-0.10914213,-0.07450553,804.2491,798.60803,793.36993,799.81683,952.52747,-0.22113037109375,0.052978515625,0.9818115234375,-2.310333251953125,-2.564544677734375,7.05810546875,1,1.0,1.0,1.0,1.0,10.00
2024-10-11 20:27:50.346,0.33411425,0.69446576,0.30196998,0.31601045,-0.14822844,0.5960044,0.095889784,0.092325896,0.25679556,0.1735768,0.2523066,0.12737015,0.28097716,-0.13807741,0.060064875,0.36482596,-0.14824423,-0.40600914,-0.10914213,-0.07450553,808.68134,801.8315,804.65204,801.02563,822.381,-0.22113037109375,0.052978515625,0.9818115234375,-2.310333251953125,-2.564544677734375,7.05810546875,1,1.0,1.0,1.0,1.0,10.00
2024-10-11 20:27:50.346,0.33411425,0.69446576,0.30196998,0.31601045,-0.14822844,0.5960044,0.095889784,0.092325896,0.25679556,0.1735768,0.2523066,0.12737015,0.28097716,-0.13807741,0.060064875,0.36482596,-0.14824423,-0.40600914,-0.10914213,-0.07450553,804.65204,797.3993,807.47253,802.6374,937.619,-0.22113037109375,0.052978515625,0.9818115234375,-2.310333251953125,-2.564544677734375,7.05810546875,1,1.0,1.0,1.0,1.0,10.00
2024-10-11 20:27:50.407,0.33411425,0.69446576,0.30196998,0.31601045,-0.14822844,0.5960044,0.095889784,0.092325896,0.25679556,0.1735768,0.2523066,0.12737015,0.28097716,-0.13807741,0.060064875,0.36482596,-0.14824423,-0.40600914,-0.10914213,-0.07450553,805.05493,797.3993,803.44324,807.8755,1224.5055,-0.22967529296875,0.04815673828125,0.99322509765625,-2.67669677734375,-1.457977294921875,6.527252197265625,1,1.0,1.0,1.0,1.0,10.00
2024-10-11 20:27:50.408,0.33411425,0.69446576,0.30196998,0.31601045,-0.14822844,0.5960044,0.095889784,0.092325896,0.25679556,0.1735768,0.2523066,0.12737015,0.28097716,-0.13807741,0.060064875,0.36482596,-0.14824423,-0.40600914,-0.10914213,-0.07450553,806.26373,802.6374,803.44324,806.26373,907.8022,-0.22967529296875,0.04815673828125,0.99322509765625,-2.67669677734375,-1.457977294921875,6.527252197265625,1,1.0,1.0,1.0,1.0,10.00
2024-10-11 20:27:50.409,0.33411425,0.69446576,0.30196998,0.31601045,-0.14822844,0.5960044,0.095889784,0.092325896,0.25679556,0.1735768,0.2523066,0.12737015,0.28097716,-0.13807741,0.060064875,0.36482596,-0.14824423,-0.40600914,-0.10914213,-0.07450553,807.0696,801.02563,804.65204,808.2784,761.53845,-0.22967529296875,0.04815673828125,0.99322509765625,-2.67669677734375,-1.457977294921875,6.527252197265625,1,1.0,1.0,1.0,1.0,10.00
2024-10-11 20:27:50.410,0.33411425,0.69446576,0.30196998,0.31601045,-0.14822844,0.5960044,0.095889784,0.092325896,0.25679556,0.1735768,0.2523066,0.12737015,0.28097716,-0.13807741,0.060064875,0.36482596,-0.14824423,-0.40600914,-0.10914213,-0.07450553,805.8608,794.57874,801.8315,805.05493,865.4945,-0.22967529296875,0.04815673828125,0.99322509765625,-2.67669677734375,-1.457977294921875,6.527252197265625,1,1.0,1.0,1.0,1.0,10.00
2024-10-11 20:27:50.410,0.33411425,0.69446576,0.30196998,0.31601045,-0.14822844,0.5960044,0.095889784,0.092325896,0.25679556,0.1735768,0.2523066,0.12737015,0.28097716,-0.13807741,0.060064875,0.36482596,-0.14824423,-0.40600914,-0.10914213,-0.07450553,807.0696,792.5641,798.60803,797.3993,746.2271,-0.22967529296875,0.04815673828125,0.99322509765625,-2.67669677734375,-1.457977294921875,6.527252197265625,1,1.0,1.0,1.0,1.0,10.00
2024-10-11 20:27:50.411,0.33411425,0.69446576,0.30196998,0.31601045,-0.14822844,0.5960044,0.095889784,0.092325896,0.25679556,0.1735768,0.2523066,0.12737015,0.28097716,-0.13807741,0.060064875,0.36482596,-0.14824423,-0.40600914,-0.10914213,-0.07450553,805.4579,794.17584,793.7729,799.41394,787.72894,-0.22967529296875,0.04815673828125,0.99322509765625,-2.67669677734375,-1.457977294921875,6.527252197265625,1,1.0,1.0,1.0,1.0,10.00
2024-10-11 20:27:50.411,0.33411425,0.69446576,0.30196998,0.31601045,-0.14822844,0.5960044,0.095889784,0.092325896,0.25679556,0.1735768,0.2523066,0.12737015,0.28097716,-0.13807741,0.060064875,0.36482596,-0.14824423,-0.40600914,-0.10914213,-0.07450553,798.60803,795.78754,792.5641,802.23444,887.25275,-0.22967529296875,0.04815673828125,0.99322509765625,-2.67669677734375,-1.457977294921875,6.527252197265625,1,1.0,1.0,1.0,1.0,10.00
2024-10-11 20:27:50.412,0.33411425,0.69446576,0.30196998,0.31601045,-0.14822844,0.5960044,0.095889784,0.092325896,0.25679556,0.1735768,0.2523066,0.12737015,0.28097716,-0.13807741,0.060064875,0.36482596,-0.14824423,-0.40600914,-0.10914213,-0.07450553,802.23444,797.3993,794.57874,809.4872,1009.34064,-0.22967529296875,0.04815673828125,0.99322509765625,-2.67669677734375,-1.457977294921875,6.527252197265625,1,1.0,1.0,1.0,1.0,10.00
2024-10-11 20:27:50.413,0.33411425,0.69446576,0.30196998,0.31601045,-0.14822844,0.5960044,0.095889784,0.092325896,0.25679556,0.1735768,0.2523066,0.12737015,0.28097716,-0.13807741,0.060064875,0.36482596,-0.14824423,-0.40600914,-0.10914213,-0.07450553,807.47253,797.3993,805.4579,810.293,933.5897,-0.22967529296875,0.04815673828125,0.99322509765625,-2.67669677734375,-1.457977294921875,6.527252197265625,1,1.0,1.0,1.0,1.0,10.00
2024-10-11 20:27:50.413,0.33411425,0.69446576,0.30196998,0.31601045,-0.14822844,0.5960044,0.095889784,0.092325896,0.25679556,0.1735768,0.2523066,0.12737015,0.28097716,-0.13807741,0.060064875,0.36482596,-0.14824423,-0.40600914,-0.10914213,-0.07450553,802.23444,799.41394,811.9048,805.8608,662.8205,-0.22967529296875,0.04815673828125,0.99322509765625,-2.67669677734375,-1.457977294921875,6.527252197265625,1,1.0,1.0,1.0,1.0,10.00
2024-10-11 20:27:50.414,0.33411425,0.69446576,0.30196998,0.31601045,-0.14822844,0.5960044,0.095889784,0.092325896,0.25679556,0.1735768,0.2523066,0.12737015,0.28097716,-0.13807741,0.060064875,0.36482596,-0.14824423,-0.40600914,-0.10914213,-0.07450553,797.3993,801.02563,809.0842,806.26373,744.61536,-0.22967529296875,0.04815673828125,0.99322509765625,-2.67669677734375,-1.457977294921875,6.527252197265625,1,1.0,1.0,1.0,1.0,10.00
2024-10-11 20:27:50.414,0.31781384,0.7250526,0.32316786,0.31743097,-0.12931898,0.62331474,0.11682224,0.047155175,0.25277472,0.17282145,0.24993628,0.106082216,0.28768045,-0.135649,0.06374384,0.3637595,-0.15350054,-0.39418367,-0.09974874,-0.084338784,801.02563,798.20514,801.02563,808.68134,1042.7839,-0.22967529296875,0.04815673828125,0.99322509765625,-2.67669677734375,-1.457977294921875,6.527252197265625,1,1.0,1.0,1.0,1.0,10.00
2024-10-11 20:27:50.420,0.31781384,0.7250526,0.32316786,0.31743097,-0.12931898,0.62331474,0.11682224,0.047155175,0.25277472,0.17282145,0.24993628,0.106082216,0.28768045,-0.135649,0.06374384,0.3637595,-0.15350054,-0.39418367,-0.09974874,-0.084338784,801.8315,803.0403,800.2198,805.8608,984.7619,-0.23980712890625,0.04559326171875,0.98272705078125,-1.831817626953125,0.396270751953125,4.403839111328125,1,1.0,1.0,1.0,1.0,10.00
2024-10-11 20:27:50.420,0.31781384,0.7250526,0.32316786,0.31743097,-0.12931898,0.62331474,0.11682224,0.047155175,0.25277472,0.17282145,0.24993628,0.106082216,0.28768045,-0.135649,0.06374384,0.3637595,-0.15350054,-0.39418367,-0.09974874,-0.084338784,800.6227,805.8608,805.4579,805.4579,757.9121,-0.23980712890625,0.04559326171875,0.98272705078125,-1.831817626953125,0.396270751953125,4.403839111328125,1,1.0,1.0,1.0,1.0,10.00
2024-10-11 20:27:50.421,0.31781384,0.7250526,0.32316786,0.31743097,-0.12931898,0.62331474,0.11682224,0.047155175,0.25277472,0.17282145,0.24993628,0.106082216,0.28768045,-0.135649,0.06374384,0.3637595,-0.15350054,-0.39418367,-0.09974874,-0.084338784,808.68134,801.4286,807.0696,815.9341,813.1135,-0.23980712890625,0.04559326171875,0.98272705078125,-1.831817626953125,0.396270751953125,4.403839111328125,1,1.0,1.0,1.0,1.0,10.00
2024-10-11 20:27:50.422,0.31781384,0.7250526,0.32316786,0.31743097,-0.12931898,0.62331474,0.11682224,0.047155175,0.25277472,0.17282145,0.24993628,0.106082216,0.28768045,-0.135649,0.06374384,0.3637595,-0.15350054,-0.39418367,-0.09974874,-0.084338784,812.71063,802.6374,805.4579,811.9048,1011.3553,-0.23980712890625,0.04559326171875,0.98272705078125,-1.831817626953125,0.396270751953125,4.403839111328125,1,1.0,1.0,1.0,1.0,10.00
2024-10-11 20:27:50.422,0.31781384,0.7250526,0.32316786,0.31743097,-0.12931898,0.62331474,0.11682224,0.047155175,0.25277472,0.17282145,0.24993628,0.106082216,0.28768045,-0.135649,0.06374384,0.3637595,-0.15350054,-0.39418367,-0.09974874,-0.084338784,807.47253,801.4286,802.6374,802.23444,853.8095,-0.23980712890625,0.04559326171875,0.98272705078125,-1.831817626953125,0.396270751953125,4.403839111328125,1,1.0,1.0,1.0,1.0,10.00
2024-10-11 20:27:50.423,0.31781384,0.7250526,0.32316786,0.31743097,-0.12931898,0.62331474,0.11682224,0.047155175,0.25277472,0.17282145,0.24993628,0.106082216,0.28768045,-0.135649,0.06374384,0.3637595,-0.15350054,-0.39418367,-0.09974874,-0.084338784,806.6667,803.8461,802.6374,805.4579,688.20514,-0.23980712890625,0.04559326171875,0.98272705078125,-1.831817626953125,0.396270751953125,4.403839111328125,1,1.0,1.0,1.0,1.0,10.00
2024-10-11 20:27:50.423,0.31781384,0.7250526,0.32316786,0.31743097,-0.12931898,0.62331474,0.11682224,0.047155175,0.25277472,0.17282145,0.24993628,0.106082216,0.28768045,-0.135649,0.06374384,0.3637595,-0.15350054,-0.39418367,-0.09974874,-0.084338784,806.6667,806.6667,804.2491,806.6667,846.1539,-0.23980712890625,0.04559326171875,0.98272705078125,-1.831817626953125,0.396270751953125,4.403839111328125,1,1.0,1.0,1.0,1.0,10.00
2024-10-11 20:27:50.424,0.31781384,0.7250526,0.32316786,0.31743097,-0.12931898,0.62331474,0.11682224,0.047155175,0.25277472,0.17282145,0.24993628,0.106082216,0.28768045,-0.135649,0.06374384,0.3637595,-0.15350054,-0.39418367,-0.09974874,-0.084338784,803.44324,802.23444,797.8022,805.05493,962.1978,-0.23980712890625,0.04559326171875,0.98272705078125,-1.831817626953125,0.396270751953125,4.403839111328125,1,1.0,1.0,1.0,1.0,10.00
2024-10-11 20:27:50.426,0.31781384,0.7250526,0.32316786,0.31743097,-0.12931898,0.62331474,0.11682224,0.047155175,0.25277472,0.17282145,0.24993628,0.106082216,0.28768045,-0.135649,0.06374384,0.3637595,-0.15350054,-0.39418367,-0.09974874,-0.084338784,803.44324,801.8315,792.1612,801.8315,708.7546,-0.23980712890625,0.04559326171875,0.98272705078125,-1.831817626953125,0.396270751953125,4.403839111328125,1,1.0,1.0,1.0,1.0,10.00
2024-10-11 20:27:50.427,0.31781384,0.7250526,0.32316786,0.31743097,-0.12931898,0.62331474,0.11682224,0.047155175,0.25277472,0.17282145,0.24993628,0.106082216,0.28768045,-0.135649,0.06374384,0.3637595,-0.15350054,-0.39418367,-0.09974874,-0.084338784,804.65204,804.65204,802.23444,795.78754,525.0183,-0.23980712890625,0.04559326171875,0.98272705078125,-1.831817626953125,0.396270751953125,4.403839111328125,1,1.0,1.0,1.0,1.0,10.00
2024-10-11 20:27:50.428,0.31781384,0.7250526,0.32316786,0.31743097,-0.12931898,0.62331474,0.11682224,0.047155175,0.25277472,0.17282145,0.24993628,0.106082216,0.28768045,-0.135649,0.06374384,0.3637595,-0.15350054,-0.39418367,-0.09974874,-0.084338784,803.8461,802.23444,805.4579,796.5934,653.95605,-0.23980712890625,0.04559326171875,0.98272705078125,-1.831817626953125,0.396270751953125,4.403839111328125,1,1.0,1.0,1.0,1.0,10.00
2024-10-11 20:27:50.428,0.31781384,0.7250526,0.32316786,0.31743097,-0.12931898,0.62331474,0.11682224,0.047155175,0.25277472,0.17282145,0.24993628,0.106082216,0.28768045,-0.135649,0.06374384,0.3637595,-0.15350054,-0.39418367,-0.09974874,-0.084338784,802.23444,801.8315,804.65204,799.81683,848.5714,-0.23980712890625,0.04559326171875,0.98272705078125,-1.831817626953125,0.396270751953125,4.403839111328125,1,1.0,1.0,1.0,1.0,10.00
2024-10-11 20:27:50.454,0.31781384,0.7250526,0.32316786,0.31743097,-0.12931898,0.62331474,0.11682224,0.047155175,0.25277472,0.17282145,0.24993628,0.106082216,0.28768045,-0.135649,0.06374384,0.3637595,-0.15350054,-0.39418367,-0.09974874,-0.084338784,803.8461,803.0403,805.05493,799.81683,651.53845,-0.23980712890625,0.04559326171875,0.98272705078125,-1.831817626953125,0.396270751953125,4.403839111328125,1,1.0,1.0,1.0,1.0,10.00
2024-10-11 20:27:50.455,0.31781384,0.7250526,0.32316786,0.31743097,-0.12931898,0.62331474,0.11682224,0.047155175,0.25277472,0.17282145,0.24993628,0.106082216,0.28768045,-0.135649,0.06374384,0.3637595,-0.15350054,-0.39418367,-0.09974874,-0.084338784,801.02563,800.6227,799.41394,796.1905,523.8095,-0.23980712890625,0.04559326171875,0.98272705078125,-1.831817626953125,0.396270751953125,4.403839111328125,1,1.0,1.0,1.0,1.0,10.00
2024-10-11 20:27:50.456,0.31781384,0.7250526,0.32316786,0.31743097,-0.12931898,0.62331474,0.11682224,0.047155175,0.25277472,0.17282145,0.24993628,0.106082216,0.28768045,-0.135649,0.06374384,0.3637595,-0.15350054,-0.39418367,-0.09974874,-0.084338784,800.2198,802.6374,797.8022,796.99634,781.28204,-0.23980712890625,0.04559326171875,0.98272705078125,-1.831817626953125,0.396270751953125,4.403839111328125,1,1.0,1.0,1.0,1.0,10.00
2024-10-11 20:27:50.456,0.31781384,0.7250526,0.32316786,0.31743097,-0.12931898,0.62331474,0.11682224,0.047155175,0.25277472,0.17282145,0.24993628,0.106082216,0.28768045,-0.135649,0.06374384,0.3637595,-0.15350054,-0.39418367,-0.09974874,-0.084338784,806.26373,805.4579,800.2198,797.3993,846.9597,-0.23980712890625,0.04559326171875,0.98272705078125,-1.831817626953125,0.396270751953125,4.403839111328125,1,1.0,1.0,1.0,1.0,10.00
2024-10-11 20:27:50.457,0.31781384,0.7250526,0.32316786,0.31743097,-0.12931898,0.62331474,0.11682224,0.047155175,0.25277472,0.17282145,0.24993628,0.106082216,0.28768045,-0.135649,0.06374384,0.3637595,-0.15350054,-0.39418367,-0.09974874,-0.084338784,810.696,804.2491,803.8461,799.81683,684.9817,-0.23980712890625,0.04559326171875,0.98272705078125,-1.831817626953125,0.396270751953125,4.403839111328125,1,1.0,1.0,1.0,1.0,10.00
2024-10-11 20:27:50.458,0.31781384,0.7250526,0.32316786,0.31743097,-0.12931898,0.62331474,0.11682224,0.047155175,0.25277472,0.17282145,0.24993628,0.106082216,0.28768045,-0.135649,0.06374384,0.3637595,-0.15350054,-0.39418367,-0.09974874,-0.084338784,805.4579,803.0403,805.8608,803.8461,780.07324,-0.23980712890625,0.04559326171875,0.98272705078125,-1.831817626953125,0.396270751953125,4.403839111328125,1,1.0,1.0,1.0,1.0,10.00
2024-10-11 20:27:50.459,0.31781384,0.7250526,0.32316786,0.31743097,-0.12931898,0.62331474,0.11682224,0.047155175,0.25277472,0.17282145,0.24993628,0.106082216,0.28768045,-0.135649,0.06374384,0.3637595,-0.15350054,-0.39418367,-0.09974874,-0.084338784,799.81683,798.20514,797.3993,807.8755,987.5824,-0.23980712890625,0.04559326171875,0.98272705078125,-1.831817626953125,0.396270751953125,4.403839111328125,1,1.0,1.0,1.0,1.0,10.00
2024-10-11 20:27:50.459,0.31781384,0.7250526,0.32316786,0.31743097,-0.12931898,0.62331474,0.11682224,0.047155175,0.25277472,0.17282145,0.24993628,0.106082216,0.28768045,-0.135649,0.06374384,0.3637595,-0.15350054,-0.39418367,-0.09974874,-0.084338784,803.44324,796.5934,793.7729,819.15753,1172.9304,-0.23980712890625,0.04559326171875,0.98272705078125,-1.831817626953125,0.396270751953125,4.403839111328125,1,1.0,1.0,1.0,1.0,10.00
2024-10-11 20:27:50.460,0.31781384,0.7250526,0.32316786,0.31743097,-0.12931898,0.62331474,0.11682224,0.047155175,0.25277472,0.17282145,0.24993628,0.106082216,0.28768045,-0.135649,0.06374384,0.3637595,-0.15350054,-0.39418367,-0.09974874,-0.084338784,805.8608,803.8461,805.8608,812.3077,885.64105,-0.23980712890625,0.04559326171875,0.98272705078125,-1.831817626953125,0.396270751953125,4.403839111328125,1,1.0,1.0,1.0,1.0,10.00
2024-10-11 20:27:50.461,0.31781384,0.7250526,0.32316786,0.31743097,-0.12931898,0.62331474,0.11682224,0.047155175,0.25277472,0.17282145,0.24993628,0.106082216,0.28768045,-0.135649,0.06374384,0.3637595,-0.15350054,-0.39418367,-0.09974874,-0.084338784,801.4286,803.0403,807.8755,799.81683,647.9121,-0.23980712890625,0.04559326171875,0.98272705078125,-1.831817626953125,0.396270751953125,4.403839111328125,1,1.0,1.0,1.0,1.0,10.00
2024-10-11 20:27:50.461,0.31781384,0.7250526,0.32316786,0.31743097,-0.12931898,0.62331474,0.11682224,0.047155175,0.25277472,0.17282145,0.24993628,0.106082216,0.28768045,-0.135649,0.06374384,0.3637595,-0.15350054,-0.39418367,-0.09974874,-0.084338784,801.02563,804.2491,800.6227,800.6227,732.9304,-0.23980712890625,0.04559326171875,0.98272705078125,-1.831817626953125,0.396270751953125,4.403839111328125,1,1.0,1.0,1.0,1.0,10.00
2024-10-11 20:27:50.462,0.31781384,0.7250526,0.32316786,0.31743097,-0.12931898,0.62331474,0.11682224,0.047155175,0.25277472,0.17282145,0.24993628,0.106082216,0.28768045,-0.135649,0.06374384,0.3637595,-0.15350054,-0.39418367,-0.09974874,-0.084338784,804.65204,805.05493,801.02563,804.65204,739.3773,-0.23980712890625,0.04559326171875,0.98272705078125,-1.831817626953125,0.396270751953125,4.403839111328125,1,1.0,1.0,1.0,1.0,10.00
2024-10-11 20:27:50.522,0.31781384,0.7250526,0.32316786,0.31743097,-0.12931898,0.62331474,0.11682224,0.047155175,0.25277472,0.17282145,0.24993628,0.106082216,0.28768045,-0.135649,0.06374384,0.3637595,-0.15350054,-0.39418367,-0.09974874,-0.084338784,802.23444,803.44324,803.44324,805.4579,736.9597,-0.24005126953125,0.0562744140625,0.984130859375,-0.231781005859375,2.76641845703125,4.35150146484375,1,1.0,1.0,1.0,1.0,10.00
2024-10-11 20:27:50.523,0.24494615,0.75851697,0.35055223,0.31032023,-0.115602225,0.65410876,0.12147582,-0.011667036,0.23773552,0.16606618,0.24182256,0.09993044,0.29253188,-0.13319133,0.058732796,0.38228288,-0.14496307,-0.3806366,-0.09577608,-0.07142395,799.81683,803.44324,799.41394,802.23444,720.4396,-0.24005126953125,0.0562744140625,0.984130859375,-0.231781005859375,2.76641845703125,4.35150146484375,1,1.0,1.0,1.0,1.0,10.00
2024-10-11 20:27:50.528,0.24494615,0.75851697,0.35055223,0.31032023,-0.115602225,0.65410876,0.12147582,-0.011667036,0.23773552,0.16606618,0.24182256,0.09993044,0.29253188,-0.13319133,0.058732796,0.38228288,-0.14496307,-0.3806366,-0.09577608,-0.07142395,798.60803,801.8315,791.75824,799.81683,707.9487,-0.24005126953125,0.0562744140625,0.984130859375,-0.231781005859375,2.76641845703125,4.35150146484375,1,1.0,1.0,1.0,1.0,10.00
2024-10-11 20:27:50.529,0.24494615,0.75851697,0.35055223,0.31032023,-0.115602225,0.65410876,0.12147582,-0.011667036,0.23773552,0.16606618,0.24182256,0.09993044,0.29253188,-0.13319133,0.058732796,0.38228288,-0.14496307,-0.3806366,-0.09577608,-0.07142395,799.81683,803.8461,794.17584,798.60803,691.4286,-0.24005126953125,0.0562744140625,0.984130859375,-0.231781005859375,2.76641845703125,4.35150146484375,1,1.0,1.0,1.0,1.0,10.00
2024-10-11 20:27:50.530,0.24494615,0.75851697,0.35055223,0.31032023,-0.115602225,0.65410876,0.12147582,-0.011667036,0.23773552,0.16606618,0.24182256,0.09993044,0.29253188,-0.13319133,0.058732796,0.38228288,-0.14496307,-0.3806366,-0.09577608,-0.07142395,799.81683,799.81683,796.1905,799.41394,749.45056,-0.24005126953125,0.0562744140625,0.984130859375,-0.231781005859375,2.76641845703125,4.35150146484375,1,1.0,1.0,1.0,1.0,10.00
