TimeStamp,Delta_TP9,Delta_AF7,Delta_AF8,Delta_TP10,Theta_TP9,Theta_AF7,Theta_AF8,Theta_TP10,Alpha_TP9,Alpha_AF7,Alpha_AF8,Alpha_TP10,Beta_TP9,Beta_AF7,Beta_AF8,Beta_TP10,Gamma_TP9,Gamma_AF7,Gamma_AF8,Gamma_TP10,RAW_TP9,RAW_AF7,RAW_AF8,RAW_TP10,AUX_RIGHT,Accelerometer_X,Accelerometer_Y,Accelerometer_Z,Gyro_X,Gyro_Y,Gyro_Z,HeadBandOn,HSI_TP9,HSI_AF7,HSI_AF8,HSI_TP10,Battery,Elements
2024-10-11 20:19:23.790,0.5822425,0.5249728,1.0273825,0.519778,0.4322362,0.065074444,0.5327854,0.11892434,0.5756259,0.33815244,0.29375696,0.47970995,0.32109946,0.1830602,0.029823672,0.5602989,-0.04317655,-0.052665543,-0.3344548,-0.04184358,792.5641,790.54944,800.6227,796.99634,569.7436,-0.0689697265625,0.07080078125,1.00469970703125,-1.1663818359375,-4.3365478515625,-0.336456298828125,1,1.0,1.0,1.0,1.0,10.00
2024-10-11 20:19:23.790,0.5822425,0.5249728,1.0273825,0.519778,0.4322362,0.065074444,0.5327854,0.11892434,0.5756259,0.33815244,0.29375696,0.47970995,0.32109946,0.1830602,0.029823672,0.5602989,-0.04317655,-0.052665543,-0.3344548,-0.04184358,791.3553,792.96704,790.14655,795.78754,886.8498,-0.0689697265625,0.07080078125,1.00469970703125,-1.1663818359375,-4.3365478515625,-0.336456298828125,1,1.0,1.0,1.0,1.0,10.00
2024-10-11 20:19:23.791,0.5822425,0.5249728,1.0273825,0.519778,0.4322362,0.065074444,0.5327854,0.11892434,0.5756259,0.33815244,0.29375696,0.47970995,0.32109946,0.1830602,0.029823672,0.5602989,-0.04317655,-0.052665543,-0.3344548,-0.04184358,794.57874,798.20514,795.78754,799.41394,963.00366,-0.0689697265625,0.07080078125,1.00469970703125,-1.1663818359375,-4.3365478515625,-0.336456298828125,1,1.0,1.0,1.0,1.0,10.00
2024-10-11 20:19:23.791,0.5822425,0.5249728,1.0273825,0.519778,0.4322362,0.065074444,0.5327854,0.11892434,0.5756259,0.33815244,0.29375696,0.47970995,0.32109946,0.1830602,0.029823672,0.5602989,-0.04317655,-0.052665543,-0.3344548,-0.04184358,796.5934,804.2491,807.8755,800.6227,644.68866,-0.0689697265625,0.07080078125,1.00469970703125,-1.1663818359375,-4.3365478515625,-0.336456298828125,1,1.0,1.0,1.0,1.0,10.00
2024-10-11 20:19:23.792,0.5822425,0.5249728,1.0273825,0.519778,0.4322362,0.065074444,0.5327854,0.11892434,0.5756259,0.33815244,0.29375696,0.47970995,0.32109946,0.1830602,0.029823672,0.5602989,-0.04317655,-0.052665543,-0.3344548,-0.04184358,796.5934,804.65204,800.6227,797.8022,639.85345,-0.0689697265625,0.07080078125,1.00469970703125,-1.1663818359375,-4.3365478515625,-0.336456298828125,1,1.0,1.0,1.0,1.0,10.00
2024-10-11 20:19:23.792,0.5822425,0.5249728,1.0273825,0.519778,0.4322362,0.065074444,0.5327854,0.11892434,0.5756259,0.33815244,0.29375696,0.47970995,0.32109946,0.1830602,0.029823672,0.5602989,-0.04317655,-0.052665543,-0.3344548,-0.04184358,795.38464,801.4286,800.6227,793.7729,823.1868,-0.0689697265625,0.07080078125,1.00469970703125,-1.1663818359375,-4.3365478515625,-0.336456298828125,1,1.0,1.0,1.0,1.0,10.00
2024-10-11 20:19:23.793,0.5822425,0.5249728,1.0273825,0.519778,0.4322362,0.065074444,0.5327854,0.11892434,0.5756259,0.33815244,0.29375696,0.47970995,0.32109946,0.1830602,0.029823672,0.5602989,-0.04317655,-0.052665543,-0.3344548,-0.04184358,800.2198,801.8315,805.4579,796.1905,907.3993,-0.0689697265625,0.07080078125,1.00469970703125,-1.1663818359375,-4.3365478515625,-0.336456298828125,1,1.0,1.0,1.0,1.0,10.00
2024-10-11 20:19:23.793,0.5822425,0.5249728,1.0273825,0.519778,0.4322362,0.065074444,0.5327854,0.11892434,0.5756259,0.33815244,0.29375696,0.47970995,0.32109946,0.1830602,0.029823672,0.5602989,-0.04317655,-0.052665543,-0.3344548,-0.04184358,802.23444,798.20514,803.44324,795.38464,713.1868,-0.0689697265625,0.07080078125,1.00469970703125,-1.1663818359375,-4.3365478515625,-0.336456298828125,1,1.0,1.0,1.0,1.0,10.00
2024-10-11 20:19:23.794,0.5822425,0.5249728,1.0273825,0.519778,0.4322362,0.065074444,0.5327854,0.11892434,0.5756259,0.33815244,0.29375696,0.47970995,0.32109946,0.1830602,0.029823672,0.5602989,-0.04317655,-0.052665543,-0.3344548,-0.04184358,797.8022,794.57874,800.6227,792.5641,641.8681,-0.0689697265625,0.07080078125,1.00469970703125,-1.1663818359375,-4.3365478515625,-0.336456298828125,1,1.0,1.0,1.0,1.0,10.00
2024-10-11 20:19:23.794,0.5822425,0.5249728,1.0273825,0.519778,0.4322362,0.065074444,0.5327854,0.11892434,0.5756259,0.33815244,0.29375696,0.47970995,0.32109946,0.1830602,0.029823672,0.5602989,-0.04317655,-0.052665543,-0.3344548,-0.04184358,798.20514,790.54944,794.57874,797.8022,953.73627,-0.0689697265625,0.07080078125,1.00469970703125,-1.1663818359375,-4.3365478515625,-0.336456298828125,1,1.0,1.0,1.0,1.0,10.00
2024-10-11 20:19:23.795,0.5822425,0.5249728,1.0273825,0.519778,0.4322362,0.065074444,0.5327854,0.11892434,0.5756259,0.33815244,0.29375696,0.47970995,0.32109946,0.1830602,0.029823672,0.5602989,-0.04317655,-0.052665543,-0.3344548,-0.04184358,800.6227,794.9817,791.3553,797.8022,907.3993,-0.0689697265625,0.07080078125,1.00469970703125,-1.1663818359375,-4.3365478515625,-0.336456298828125,1,1.0,1.0,1.0,1.0,10.00
2024-10-11 20:19:23.795,0.5822425,0.5249728,1.0273825,0.519778,0.4322362,0.065074444,0.5327854,0.11892434,0.5756259,0.33815244,0.29375696,0.47970995,0.32109946,0.1830602,0.029823672,0.5602989,-0.04317655,-0.052665543,-0.3344548,-0.04184358,797.8022,796.99634,796.1905,789.7436,819.9634,-0.0689697265625,0.07080078125,1.00469970703125,-1.1663818359375,-4.3365478515625,-0.336456298828125,1,1.0,1.0,1.0,1.0,10.00
2024-10-11 20:19:23.824,0.5822425,0.5249728,1.0273825,0.519778,0.4322362,0.065074444,0.5327854,0.11892434,0.5756259,0.33815244,0.29375696,0.47970995,0.32109946,0.1830602,0.029823672,0.5602989,-0.04317655,-0.052665543,-0.3344548,-0.04184358,794.57874,792.96704,802.6374,799.011,950.9158,-0.07757568359375,0.07080078125,1.00433349609375,-1.79443359375,-7.065582275390625,-2.9608154296875,1,1.0,1.0,1.0,1.0,10.00
2024-10-11 20:19:23.825,0.5822425,0.5249728,1.0273825,0.519778,0.4322362,0.065074444,0.5327854,0.11892434,0.5756259,0.33815244,0.29375696,0.47970995,0.32109946,0.1830602,0.029823672,0.5602989,-0.04317655,-0.052665543,-0.3344548,-0.04184358,798.60803,796.1905,807.8755,809.4872,889.2674,-0.07757568359375,0.07080078125,1.00433349609375,-1.79443359375,-7.065582275390625,-2.9608154296875,1,1.0,1.0,1.0,1.0,10.00
2024-10-11 20:19:23.825,0.5822425,0.5249728,1.0273825,0.519778,0.4322362,0.065074444,0.5327854,0.11892434,0.5756259,0.33815244,0.29375696,0.47970995,0.32109946,0.1830602,0.029823672,0.5602989,-0.04317655,-0.052665543,-0.3344548,-0.04184358,794.9817,796.5934,799.81683,807.47253,736.1539,-0.07757568359375,0.07080078125,1.00433349609375,-1.79443359375,-7.065582275390625,-2.9608154296875,1,1.0,1.0,1.0,1.0,10.00
2024-10-11 20:19:23.826,0.5822425,0.5249728,1.0273825,0.519778,0.4322362,0.065074444,0.5327854,0.11892434,0.5756259,0.33815244,0.29375696,0.47970995,0.32109946,0.1830602,0.029823672,0.5602989,-0.04317655,-0.052665543,-0.3344548,-0.04184358,801.02563,797.8022,800.2198,812.71063,667.6557,-0.07757568359375,0.07080078125,1.00433349609375,-1.79443359375,-7.065582275390625,-2.9608154296875,1,1.0,1.0,1.0,1.0,10.00
2024-10-11 20:19:23.826,0.5822425,0.5249728,1.0273825,0.519778,0.4322362,0.065074444,0.5327854,0.11892434,0.5756259,0.33815244,0.29375696,0.47970995,0.32109946,0.1830602,0.029823672,0.5602989,-0.04317655,-0.052665543,-0.3344548,-0.04184358,803.0403,804.65204,804.65204,813.91943,689.41394,-0.07757568359375,0.07080078125,1.00433349609375,-1.79443359375,-7.065582275390625,-2.9608154296875,1,1.0,1.0,1.0,1.0,10.00
2024-10-11 20:19:23.827,0.5822425,0.5249728,1.0273825,0.519778,0.4322362,0.065074444,0.5327854,0.11892434,0.5756259,0.33815244,0.29375696,0.47970995,0.32109946,0.1830602,0.029823672,0.5602989,-0.04317655,-0.052665543,-0.3344548,-0.04184358,794.17584,807.8755,796.99634,807.8755,695.4579,-0.07757568359375,0.07080078125,1.00433349609375,-1.79443359375,-7.065582275390625,-2.9608154296875,1,1.0,1.0,1.0,1.0,10.00
2024-10-11 20:19:23.827,0.5822425,0.5249728,1.0273825,0.519778,0.4322362,0.065074444,0.5327854,0.11892434,0.5756259,0.33815244,0.29375696,0.47970995,0.32109946,0.1830602,0.029823672,0.5602989,-0.04317655,-0.052665543,-0.3344548,-0.04184358,796.99634,808.2784,802.23444,808.2784,777.25275,-0.07757568359375,0.07080078125,1.00433349609375,-1.79443359375,-7.065582275390625,-2.9608154296875,1,1.0,1.0,1.0,1.0,10.00
2024-10-11 20:19:23.828,0.5550536,0.52054685,1.0069003,0.5291399,0.45383054,0.03965395,0.5201101,0.21601416,0.620531,0.3262288,0.29454646,0.520878,0.3207062,0.20070781,0.018922,0.56276846,-0.054702602,-0.07839182,-0.29671717,-0.01101496,803.44324,803.8461,806.26373,808.68134,813.5165,-0.07757568359375,0.07080078125,1.00433349609375,-1.79443359375,-7.065582275390625,-2.9608154296875,1,1.0,1.0,1.0,1.0,10.00
2024-10-11 20:19:23.832,0.5550536,0.52054685,1.0069003,0.5291399,0.45383054,0.03965395,0.5201101,0.21601416,0.620531,0.3262288,0.29454646,0.520878,0.3207062,0.20070781,0.018922,0.56276846,-0.054702602,-0.07839182,-0.29671717,-0.01101496,795.78754,802.6374,799.41394,801.4286,796.99634,-0.07757568359375,0.07080078125,1.00433349609375,-1.79443359375,-7.065582275390625,-2.9608154296875,1,1.0,1.0,1.0,1.0,10.00
2024-10-11 20:19:23.833,0.5550536,0.52054685,1.0069003,0.5291399,0.45383054,0.03965395,0.5201101,0.21601416,0.620531,0.3262288,0.29454646,0.520878,0.3207062,0.20070781,0.018922,0.56276846,-0.054702602,-0.07839182,-0.29671717,-0.01101496,791.3553,806.6667,799.41394,800.2198,742.1978,-0.07757568359375,0.07080078125,1.00433349609375,-1.79443359375,-7.065582275390625,-2.9608154296875,1,1.0,1.0,1.0,1.0,10.00
2024-10-11 20:19:23.833,0.5550536,0.52054685,1.0069003,0.5291399,0.45383054,0.03965395,0.5201101,0.21601416,0.620531,0.3262288,0.29454646,0.520878,0.3207062,0.20070781,0.018922,0.56276846,-0.054702602,-0.07839182,-0.29671717,-0.01101496,793.7729,805.8608,800.6227,796.5934,615.2747,-0.07757568359375,0.07080078125,1.00433349609375,-1.79443359375,-7.065582275390625,-2.9608154296875,1,1.0,1.0,1.0,1.0,10.00
2024-10-11 20:19:23.834,0.5550536,0.52054685,1.0069003,0.5291399,0.45383054,0.03965395,0.5201101,0.21601416,0.620531,0.3262288,0.29454646,0.520878,0.3207062,0.20070781,0.018922,0.56276846,-0.054702602,-0.07839182,-0.29671717,-0.01101496,789.7436,802.6374,805.4579,792.5641,725.2747,-0.07757568359375,0.07080078125,1.00433349609375,-1.79443359375,-7.065582275390625,-2.9608154296875,1,1.0,1.0,1.0,1.0,10.00
2024-10-11 20:19:23.857,0.5550536,0.52054685,1.0069003,0.5291399,0.45383054,0.03965395,0.5201101,0.21601416,0.620531,0.3262288,0.29454646,0.520878,0.3207062,0.20070781,0.018922,0.56276846,-0.054702602,-0.07839182,-0.29671717,-0.01101496,787.72894,798.20514,809.0842,799.011,915.8608,-0.07177734375,0.07293701171875,1.01141357421875,-2.64678955078125,-11.4544677734375,-9.46563720703125,1,1.0,1.0,1.0,1.0,10.00
2024-10-11 20:19:23.858,0.5550536,0.52054685,1.0069003,0.5291399,0.45383054,0.03965395,0.5201101,0.21601416,0.620531,0.3262288,0.29454646,0.520878,0.3207062,0.20070781,0.018922,0.56276846,-0.054702602,-0.07839182,-0.29671717,-0.01101496,792.96704,798.20514,798.60803,796.1905,805.8608,-0.07177734375,0.07293701171875,1.01141357421875,-2.64678955078125,-11.4544677734375,-9.46563720703125,1,1.0,1.0,1.0,1.0,10.00
2024-10-11 20:19:23.858,0.5550536,0.52054685,1.0069003,0.5291399,0.45383054,0.03965395,0.5201101,0.21601416,0.620531,0.3262288,0.29454646,0.520878,0.3207062,0.20070781,0.018922,0.56276846,-0.054702602,-0.07839182,-0.29671717,-0.01101496,794.57874,797.3993,796.1905,789.7436,756.30035,-0.07177734375,0.07293701171875,1.01141357421875,-2.64678955078125,-11.4544677734375,-9.46563720703125,1,1.0,1.0,1.0,1.0,10.00
2024-10-11 20:19:23.859,0.5550536,0.52054685,1.0069003,0.5291399,0.45383054,0.03965395,0.5201101,0.21601416,0.620531,0.3262288,0.29454646,0.520878,0.3207062,0.20070781,0.018922,0.56276846,-0.054702602,-0.07839182,-0.29671717,-0.01101496,794.9817,799.81683,796.1905,795.78754,892.8938,-0.07177734375,0.07293701171875,1.01141357421875,-2.64678955078125,-11.4544677734375,-9.46563720703125,1,1.0,1.0,1.0,1.0,10.00
2024-10-11 20:19:23.859,0.5550536,0.52054685,1.0069003,0.5291399,0.45383054,0.03965395,0.5201101,0.21601416,0.620531,0.3262288,0.29454646,0.520878,0.3207062,0.20070781,0.018922,0.56276846,-0.054702602,-0.07839182,-0.29671717,-0.01101496,799.81683,799.81683,795.38464,803.8461,999.2674,-0.07177734375,0.07293701171875,1.01141357421875,-2.64678955078125,-11.4544677734375,-9.46563720703125,1,1.0,1.0,1.0,1.0,10.00
2024-10-11 20:19:23.860,0.5550536,0.52054685,1.0069003,0.5291399,0.45383054,0.03965395,0.5201101,0.21601416,0.620531,0.3262288,0.29454646,0.520878,0.3207062,0.20070781,0.018922,0.56276846,-0.054702602,-0.07839182,-0.29671717,-0.01101496,793.36993,793.36993,803.44324,799.011,994.43225,-0.07177734375,0.07293701171875,1.01141357421875,-2.64678955078125,-11.4544677734375,-9.46563720703125,1,1.0,1.0,1.0,1.0,10.00
2024-10-11 20:19:23.860,0.5550536,0.52054685,1.0069003,0.5291399,0.45383054,0.03965395,0.5201101,0.21601416,0.620531,0.3262288,0.29454646,0.520878,0.3207062,0.20070781,0.018922,0.56276846,-0.054702602,-0.07839182,-0.29671717,-0.01101496,803.0403,792.1612,805.05493,805.05493,773.22345,-0.07177734375,0.07293701171875,1.01141357421875,-2.64678955078125,-11.4544677734375,-9.46563720703125,1,1.0,1.0,1.0,1.0,10.00
2024-10-11 20:19:23.860,0.5550536,0.52054685,1.0069003,0.5291399,0.45383054,0.03965395,0.5201101,0.21601416,0.620531,0.3262288,0.29454646,0.520878,0.3207062,0.20070781,0.018922,0.56276846,-0.054702602,-0.07839182,-0.29671717,-0.01101496,822.381,809.4872,799.011,827.619,790.14655,-0.07177734375,0.07293701171875,1.01141357421875,-2.64678955078125,-11.4544677734375,-9.46563720703125,1,1.0,1.0,1.0,1.0,10.00
2024-10-11 20:19:23.861,0.5550536,0.52054685,1.0069003,0.5291399,0.45383054,0.03965395,0.5201101,0.21601416,0.620531,0.3262288,0.29454646,0.520878,0.3207062,0.20070781,0.018922,0.56276846,-0.054702602,-0.07839182,-0.29671717,-0.01101496,806.6667,819.9634,793.36993,807.8755,950.9158,-0.07177734375,0.07293701171875,1.01141357421875,-2.64678955078125,-11.4544677734375,-9.46563720703125,1,1.0,1.0,1.0,1.0,10.00
2024-10-11 20:19:23.861,0.5550536,0.52054685,1.0069003,0.5291399,0.45383054,0.03965395,0.5201101,0.21601416,0.620531,0.3262288,0.29454646,0.520878,0.3207062,0.20070781,0.018922,0.56276846,-0.054702602,-0.07839182,-0.29671717,-0.01101496,785.7143,807.47253,788.93774,788.93774,788.1319,-0.07177734375,0.07293701171875,1.01141357421875,-2.64678955078125,-11.4544677734375,-9.46563720703125,1,1.0,1.0,1.0,1.0,10.00
2024-10-11 20:19:23.862,0.5550536,0.52054685,1.0069003,0.5291399,0.45383054,0.03965395,0.5201101,0.21601416,0.620531,0.3262288,0.29454646,0.520878,0.3207062,0.20070781,0.018922,0.56276846,-0.054702602,-0.07839182,-0.29671717,-0.01101496,803.0403,805.8608,799.011,811.50183,720.84247,-0.07177734375,0.07293701171875,1.01141357421875,-2.64678955078125,-11.4544677734375,-9.46563720703125,1,1.0,1.0,1.0,1.0,10.00
2024-10-11 20:19:23.862,0.5550536,0.52054685,1.0069003,0.5291399,0.45383054,0.03965395,0.5201101,0.21601416,0.620531,0.3262288,0.29454646,0.520878,0.3207062,0.20070781,0.018922,0.56276846,-0.054702602,-0.07839182,-0.29671717,-0.01101496,798.60803,807.0696,799.81683,803.44324,879.19415,-0.07177734375,0.07293701171875,1.01141357421875,-2.64678955078125,-11.4544677734375,-9.46563720703125,1,1.0,1.0,1.0,1.0,10.00
2024-10-11 20:19:23.863,0.5550536,0.52054685,1.0069003,0.5291399,0.45383054,0.03965395,0.5201101,0.21601416,0.620531,0.3262288,0.29454646,0.520878,0.3207062,0.20070781,0.018922,0.56276846,-0.054702602,-0.07839182,-0.29671717,-0.01101496,783.69965,808.2784,788.5348,782.8938,964.21246,-0.07177734375,0.07293701171875,1.01141357421875,-2.64678955078125,-11.4544677734375,-9.46563720703125,1,1.0,1.0,1.0,1.0,10.00
2024-10-11 20:19:23.863,0.5550536,0.52054685,1.0069003,0.5291399,0.45383054,0.03965395,0.5201101,0.21601416,0.620531,0.3262288,0.29454646,0.520878,0.3207062,0.20070781,0.018922,0.56276846,-0.054702602,-0.07839182,-0.29671717,-0.01101496,792.1612,811.9048,790.14655,784.10254,857.4359,-0.07177734375,0.07293701171875,1.01141357421875,-2.64678955078125,-11.4544677734375,-9.46563720703125,1,1.0,1.0,1.0,1.0,10.00
2024-10-11 20:19:23.864,0.5550536,0.52054685,1.0069003,0.5291399,0.45383054,0.03965395,0.5201101,0.21601416,0.620531,0.3262288,0.29454646,0.520878,0.3207062,0.20070781,0.018922,0.56276846,-0.054702602,-0.07839182,-0.29671717,-0.01101496,794.57874,807.8755,784.90845,782.0879,722.4542,-0.07177734375,0.07293701171875,1.01141357421875,-2.64678955078125,-11.4544677734375,-9.46563720703125,1,1.0,1.0,1.0,1.0,10.00
2024-10-11 20:19:23.864,0.5550536,0.52054685,1.0069003,0.5291399,0.45383054,0.03965395,0.5201101,0.21601416,0.620531,0.3262288,0.29454646,0.520878,0.3207062,0.20070781,0.018922,0.56276846,-0.054702602,-0.07839182,-0.29671717,-0.01101496,800.2198,804.2491,780.07324,788.5348,866.30035,-0.07177734375,0.07293701171875,1.01141357421875,-2.64678955078125,-11.4544677734375,-9.46563720703125,1,1.0,1.0,1.0,1.0,10.00
2024-10-11 20:19:23.864,0.5550536,0.52054685,1.0069003,0.5291399,0.45383054,0.03965395,0.5201101,0.21601416,0.620531,0.3262288,0.29454646,0.520878,0.3207062,0.20070781,0.018922,0.56276846,-0.054702602,-0.07839182,-0.29671717,-0.01101496,788.1319,801.4286,786.52014,788.1319,994.0293,-0.07177734375,0.07293701171875,1.01141357421875,-2.64678955078125,-11.4544677734375,-9.46563720703125,1,1.0,1.0,1.0,1.0,10.00
2024-10-11 20:19:23.865,0.5550536,0.52054685,1.0069003,0.5291399,0.45383054,0.03965395,0.5201101,0.21601416,0.620531,0.3262288,0.29454646,0.520878,0.3207062,0.20070781,0.018922,0.56276846,-0.054702602,-0.07839182,-0.29671717,-0.01101496,782.0879,805.8608,782.49084,778.86444,969.0476,-0.07177734375,0.07293701171875,1.01141357421875,-2.64678955078125,-11.4544677734375,-9.46563720703125,1,1.0,1.0,1.0,1.0,10.00
2024-10-11 20:19:23.865,0.5550536,0.52054685,1.0069003,0.5291399,0.45383054,0.03965395,0.5201101,0.21601416,0.620531,0.3262288,0.29454646,0.520878,0.3207062,0.20070781,0.018922,0.56276846,-0.054702602,-0.07839182,-0.29671717,-0.01101496,779.67035,811.50183,781.685,774.83514,869.92676,-0.07177734375,0.07293701171875,1.01141357421875,-2.64678955078125,-11.4544677734375,-9.46563720703125,1,1.0,1.0,1.0,1.0,10.00
2024-10-11 20:19:23.866,0.5550536,0.52054685,1.0069003,0.5291399,0.45383054,0.03965395,0.5201101,0.21601416,0.620531,0.3262288,0.29454646,0.520878,0.3207062,0.20070781,0.018922,0.56276846,-0.054702602,-0.07839182,-0.29671717,-0.01101496,771.2088,811.50183,777.6557,765.56775,1012.96704,-0.07177734375,0.07293701171875,1.01141357421875,-2.64678955078125,-11.4544677734375,-9.46563720703125,1,1.0,1.0,1.0,1.0,10.00
2024-10-11 20:19:23.867,0.5550536,0.52054685,1.0069003,0.5291399,0.45383054,0.03965395,0.5201101,0.21601416,0.620531,0.3262288,0.29454646,0.520878,0.3207062,0.20070781,0.018922,0.56276846,-0.054702602,-0.07839182,-0.29671717,-0.01101496,782.49084,808.2784,777.6557,783.2967,1459.011,-0.07177734375,0.07293701171875,1.01141357421875,-2.64678955078125,-11.4544677734375,-9.46563720703125,1,1.0,1.0,1.0,1.0,10.00
2024-10-11 20:19:23.868,0.54255843,0.5284134,0.98255163,0.5351904,0.48014694,0.032594733,0.5053538,0.29109424,0.6527603,0.28995568,0.29454646,0.5794604,0.3262858,0.21547,0.008677472,0.552894,-0.068273194,-0.107738815,-0.26992103,-0.0012451006,793.7729,815.5311,783.2967,796.1905,1205.9707,-0.07177734375,0.07293701171875,1.01141357421875,-2.64678955078125,-11.4544677734375,-9.46563720703125,1,1.0,1.0,1.0,1.0,10.00
2024-10-11 20:19:23.872,0.54255843,0.5284134,0.98255163,0.5351904,0.48014694,0.032594733,0.5053538,0.29109424,0.6527603,0.28995568,0.29454646,0.5794604,0.3262858,0.21547,0.008677472,0.552894,-0.068273194,-0.107738815,-0.26992103,-0.0012451006,779.67035,823.9927,776.8498,774.0293,742.6007,-0.07177734375,0.07293701171875,1.01141357421875,-2.64678955078125,-11.4544677734375,-9.46563720703125,1,1.0,1.0,1.0,1.0,10.00
2024-10-11 20:19:23.872,0.54255843,0.5284134,0.98255163,0.5351904,0.48014694,0.032594733,0.5053538,0.29109424,0.6527603,0.28995568,0.29454646,0.5794604,0.3262858,0.21547,0.008677472,0.552894,-0.068273194,-0.107738815,-0.26992103,-0.0012451006,771.2088,817.9487,769.19415,765.56775,782.8938,-0.07177734375,0.07293701171875,1.01141357421875,-2.64678955078125,-11.4544677734375,-9.46563720703125,1,1.0,1.0,1.0,1.0,10.00
2024-10-11 20:19:23.895,0.54255843,0.5284134,0.98255163,0.5351904,0.48014694,0.032594733,0.5053538,0.29109424,0.6527603,0.28995568,0.29454646,0.5794604,0.3262858,0.21547,0.008677472,0.552894,-0.068273194,-0.107738815,-0.26992103,-0.0012451006,780.07324,819.15753,770.80585,770.40295,813.91943,-0.04595947265625,0.068359375,1.01141357421875,-5.0244140625,-13.47320556640625,-18.70697021484375,1,1.0,1.0,1.0,1.0,10.00
2024-10-11 20:19:23.895,0.54255843,0.5284134,0.98255163,0.5351904,0.48014694,0.032594733,0.5053538,0.29109424,0.6527603,0.28995568,0.29454646,0.5794604,0.3262858,0.21547,0.008677472,0.552894,-0.068273194,-0.107738815,-0.26992103,-0.0012451006,785.31134,821.978,776.4469,776.4469,726.08057,-0.04595947265625,0.068359375,1.01141357421875,-5.0244140625,-13.47320556640625,-18.70697021484375,1,1.0,1.0,1.0,1.0,10.00
2024-10-11 20:19:23.896,0.54255843,0.5284134,0.98255163,0.5351904,0.48014694,0.032594733,0.5053538,0.29109424,0.6527603,0.28995568,0.29454646,0.5794604,0.3262858,0.21547,0.008677472,0.552894,-0.068273194,-0.107738815,-0.26992103,-0.0012451006,785.31134,817.5458,772.8205,772.4176,707.9487,-0.04595947265625,0.068359375,1.01141357421875,-5.0244140625,-13.47320556640625,-18.70697021484375,1,1.0,1.0,1.0,1.0,10.00
2024-10-11 20:19:23.896,0.54255843,0.5284134,0.98255163,0.5351904,0.48014694,0.032594733,0.5053538,0.29109424,0.6527603,0.28995568,0.29454646,0.5794604,0.3262858,0.21547,0.008677472,0.552894,-0.068273194,-0.107738815,-0.26992103,-0.0012451006,789.7436,818.3516,766.3736,770.40295,765.16486,-0.04595947265625,0.068359375,1.01141357421875,-5.0244140625,-13.47320556640625,-18.70697021484375,1,1.0,1.0,1.0,1.0,10.00
2024-10-11 20:19:23.897,0.54255843,0.5284134,0.98255163,0.5351904,0.48014694,0.032594733,0.5053538,0.29109424,0.6527603,0.28995568,0.29454646,0.5794604,0.3262858,0.21547,0.008677472,0.552894,-0.068273194,-0.107738815,-0.26992103,-0.0012451006,785.7143,818.3516,770.40295,765.16486,730.10986,-0.04595947265625,0.068359375,1.01141357421875,-5.0244140625,-13.47320556640625,-18.70697021484375,1,1.0,1.0,1.0,1.0,10.00
2024-10-11 20:19:23.897,0.54255843,0.5284134,0.98255163,0.5351904,0.48014694,0.032594733,0.5053538,0.29109424,0.6527603,0.28995568,0.29454646,0.5794604,0.3262858,0.21547,0.008677472,0.552894,-0.068273194,-0.107738815,-0.26992103,-0.0012451006,792.96704,818.3516,768.7912,767.1795,760.7326,-0.04595947265625,0.068359375,1.01141357421875,-5.0244140625,-13.47320556640625,-18.70697021484375,1,1.0,1.0,1.0,1.0,10.00
2024-10-11 20:19:23.898,0.54255843,0.5284134,0.98255163,0.5351904,0.48014694,0.032594733,0.5053538,0.29109424,0.6527603,0.28995568,0.29454646,0.5794604,0.3262858,0.21547,0.008677472,0.552894,-0.068273194,-0.107738815,-0.26992103,-0.0012451006,794.9817,818.7546,770.80585,772.4176,928.7546,-0.04595947265625,0.068359375,1.01141357421875,-5.0244140625,-13.47320556640625,-18.70697021484375,1,1.0,1.0,1.0,1.0,10.00
2024-10-11 20:19:23.898,0.54255843,0.5284134,0.98255163,0.5351904,0.48014694,0.032594733,0.5053538,0.29109424,0.6527603,0.28995568,0.29454646,0.5794604,0.3262858,0.21547,0.008677472,0.552894,-0.068273194,-0.107738815,-0.26992103,-0.0012451006,782.0879,818.7546,768.3883,769.19415,925.12823,-0.04595947265625,0.068359375,1.01141357421875,-5.0244140625,-13.47320556640625,-18.70697021484375,1,1.0,1.0,1.0,1.0,10.00
2024-10-11 20:19:23.899,0.54255843,0.5284134,0.98255163,0.5351904,0.48014694,0.032594733,0.5053538,0.29109424,0.6527603,0.28995568,0.29454646,0.5794604,0.3262858,0.21547,0.008677472,0.552894,-0.068273194,-0.107738815,-0.26992103,-0.0012451006,781.28204,818.3516,764.35895,768.7912,713.5897,-0.04595947265625,0.068359375,1.01141357421875,-5.0244140625,-13.47320556640625,-18.70697021484375,1,1.0,1.0,1.0,1.0,10.00
2024-10-11 20:19:23.899,0.54255843,0.5284134,0.98255163,0.5351904,0.48014694,0.032594733,0.5053538,0.29109424,0.6527603,0.28995568,0.29454646,0.5794604,0.3262858,0.21547,0.008677472,0.552894,-0.068273194,-0.107738815,-0.26992103,-0.0012451006,792.5641,819.5604,761.9414,772.8205,624.94507,-0.04595947265625,0.068359375,1.01141357421875,-5.0244140625,-13.47320556640625,-18.70697021484375,1,1.0,1.0,1.0,1.0,10.00
2024-10-11 20:19:23.900,0.54255843,0.5284134,0.98255163,0.5351904,0.48014694,0.032594733,0.5053538,0.29109424,0.6527603,0.28995568,0.29454646,0.5794604,0.3262858,0.21547,0.008677472,0.552894,-0.068273194,-0.107738815,-0.26992103,-0.0012451006,804.2491,812.71063,766.77655,778.86444,745.82416,-0.04595947265625,0.068359375,1.01141357421875,-5.0244140625,-13.47320556640625,-18.70697021484375,1,1.0,1.0,1.0,1.0,10.00
2024-10-11 20:19:23.901,0.54255843,0.5284134,0.98255163,0.5351904,0.48014694,0.032594733,0.5053538,0.29109424,0.6527603,0.28995568,0.29454646,0.5794604,0.3262858,0.21547,0.008677472,0.552894,-0.068273194,-0.107738815,-0.26992103,-0.0012451006,792.5641,794.17584,772.8205,787.72894,1065.348,-0.04595947265625,0.068359375,1.01141357421875,-5.0244140625,-13.47320556640625,-18.70697021484375,1,1.0,1.0,1.0,1.0,10.00
2024-10-11 20:19:23.954,0.54255843,0.5284134,0.98255163,0.5351904,0.48014694,0.032594733,0.5053538,0.29109424,0.6527603,0.28995568,0.29454646,0.5794604,0.3262858,0.21547,0.008677472,0.552894,-0.068273194,-0.107738815,-0.26992103,-0.0012451006,786.52014,803.8461,762.74725,788.1319,839.707,-0.022216796875,0.05975341796875,1.02020263671875,-7.5665283203125,-11.9329833984375,-24.830474853515625,1,1.0,1.0,1.0,1.0,10.00
2024-10-11 20:19:23.955,0.54255843,0.5284134,0.98255163,0.5351904,0.48014694,0.032594733,0.5053538,0.29109424,0.6527603,0.28995568,0.29454646,0.5794604,0.3262858,0.21547,0.008677472,0.552894,-0.068273194,-0.107738815,-0.26992103,-0.0012451006,795.38464,822.381,759.92676,778.86444,637.4359,-0.022216796875,0.05975341796875,1.02020263671875,-7.5665283203125,-11.9329833984375,-24.830474853515625,1,1.0,1.0,1.0,1.0,10.00
2024-10-11 20:19:23.956,0.54255843,0.5284134,0.98255163,0.5351904,0.48014694,0.032594733,0.5053538,0.29109424,0.6527603,0.28995568,0.29454646,0.5794604,0.3262858,0.21547,0.008677472,0.552894,-0.068273194,-0.107738815,-0.26992103,-0.0012451006,795.38464,817.1429,763.1502,775.64105,810.696,-0.022216796875,0.05975341796875,1.02020263671875,-7.5665283203125,-11.9329833984375,-24.830474853515625,1,1.0,1.0,1.0,1.0,10.00
2024-10-11 20:19:23.956,0.54255843,0.5284134,0.98255163,0.5351904,0.48014694,0.032594733,0.5053538,0.29109424,0.6527603,0.28995568,0.29454646,0.5794604,0.3262858,0.21547,0.008677472,0.552894,-0.068273194,-0.107738815,-0.26992103,-0.0012451006,793.36993,812.71063,759.5238,774.0293,704.7253,-0.022216796875,0.05975341796875,1.02020263671875,-7.5665283203125,-11.9329833984375,-24.830474853515625,1,1.0,1.0,1.0,1.0,10.00
2024-10-11 20:19:23.956,0.54255843,0.5284134,0.98255163,0.5351904,0.48014694,0.032594733,0.5053538,0.29109424,0.6527603,0.28995568,0.29454646,0.5794604,0.3262858,0.21547,0.008677472,0.552894,-0.068273194,-0.107738815,-0.26992103,-0.0012451006,792.96704,817.9487,763.1502,773.22345,545.56775,-0.022216796875,0.05975341796875,1.02020263671875,-7.5665283203125,-11.9329833984375,-24.830474853515625,1,1.0,1.0,1.0,1.0,10.00
2024-10-11 20:19:23.957,0.54255843,0.5284134,0.98255163,0.5351904,0.48014694,0.032594733,0.5053538,0.29109424,0.6527603,0.28995568,0.29454646,0.5794604,0.3262858,0.21547,0.008677472,0.552894,-0.068273194,-0.107738815,-0.26992103,-0.0012451006,796.1905,816.7399,772.8205,776.8498,709.5604,-0.022216796875,0.05975341796875,1.02020263671875,-7.5665283203125,-11.9329833984375,-24.830474853515625,1,1.0,1.0,1.0,1.0,10.00
2024-10-11 20:19:23.958,0.54255843,0.5284134,0.98255163,0.5351904,0.48014694,0.032594733,0.5053538,0.29109424,0.6527603,0.28995568,0.29454646,0.5794604,0.3262858,0.21547,0.008677472,0.552894,-0.068273194,-0.107738815,-0.26992103,-0.0012451006,788.5348,810.696,769.59705,776.8498,909.011,-0.022216796875,0.05975341796875,1.02020263671875,-7.5665283203125,-11.9329833984375,-24.830474853515625,1,1.0,1.0,1.0,1.0,10.00
2024-10-11 20:19:23.958,0.54255843,0.5284134,0.98255163,0.5351904,0.48014694,0.032594733,0.5053538,0.29109424,0.6527603,0.28995568,0.29454646,0.5794604,0.3262858,0.21547,0.008677472,0.552894,-0.068273194,-0.107738815,-0.26992103,-0.0012451006,784.90845,810.696,768.3883,772.8205,816.337,-0.022216796875,0.05975341796875,1.02020263671875,-7.5665283203125,-11.9329833984375,-24.830474853515625,1,1.0,1.0,1.0,1.0,10.00
2024-10-11 20:19:23.958,0.54255843,0.5284134,0.98255163,0.5351904,0.48014694,0.032594733,0.5053538,0.29109424,0.6527603,0.28995568,0.29454646,0.5794604,0.3262858,0.21547,0.008677472,0.552894,-0.068273194,-0.107738815,-0.26992103,-0.0012451006,805.05493,813.91943,769.59705,778.86444,670.4762,-0.022216796875,0.05975341796875,1.02020263671875,-7.5665283203125,-11.9329833984375,-24.830474853515625,1,1.0,1.0,1.0,1.0,10.00
2024-10-11 20:19:23.959,0.54255843,0.5284134,0.98255163,0.5351904,0.48014694,0.032594733,0.5053538,0.29109424,0.6527603,0.28995568,0.29454646,0.5794604,0.3262858,0.21547,0.008677472,0.552894,-0.068273194,-0.107738815,-0.26992103,-0.0012451006,820.7692,811.0989,772.8205,791.75824,626.1539,-0.022216796875,0.05975341796875,1.02020263671875,-7.5665283203125,-11.9329833984375,-24.830474853515625,1,1.0,1.0,1.0,1.0,10.00
2024-10-11 20:19:23.959,0.54255843,0.5284134,0.98255163,0.5351904,0.48014694,0.032594733,0.5053538,0.29109424,0.6527603,0.28995568,0.29454646,0.5794604,0.3262858,0.21547,0.008677472,0.552894,-0.068273194,-0.107738815,-0.26992103,-0.0012451006,817.5458,808.68134,774.43225,792.96704,834.4689,-0.022216796875,0.05975341796875,1.02020263671875,-7.5665283203125,-11.9329833984375,-24.830474853515625,1,1.0,1.0,1.0,1.0,10.00
2024-10-11 20:19:23.960,0.5443049,0.538913,0.96194375,0.57309484,0.494318,0.032276217,0.4899145,0.3625875,0.6530776,0.19013561,0.29454646,0.59461206,0.33559024,0.22180744,-1.3851188E-5,0.53212106,-0.07994704,-0.13984355,-0.25778493,-0.0060069985,813.5165,801.02563,777.6557,793.7729,861.8681,-0.022216796875,0.05975341796875,1.02020263671875,-7.5665283203125,-11.9329833984375,-24.830474853515625,1,1.0,1.0,1.0,1.0,10.00
2024-10-11 20:19:23.988,0.5443049,0.538913,0.96194375,0.57309484,0.494318,0.032276217,0.4899145,0.3625875,0.6530776,0.19013561,0.29454646,0.59461206,0.33559024,0.22180744,-1.3851188E-5,0.53212106,-0.07994704,-0.13984355,-0.25778493,-0.0060069985,794.9817,790.54944,778.86444,794.57874,614.87177,0.00341796875,0.04827880859375,1.01263427734375,-10.45257568359375,-10.16845703125,-28.9202880859375,1,1.0,1.0,1.0,1.0,10.00
2024-10-11 20:19:23.989,0.5443049,0.538913,0.96194375,0.57309484,0.494318,0.032276217,0.4899145,0.3625875,0.6530776,0.19013561,0.29454646,0.59461206,0.33559024,0.22180744,-1.3851188E-5,0.53212106,-0.07994704,-0.13984355,-0.25778493,-0.0060069985,785.31134,799.81683,778.86444,785.31134,560.87915,0.00341796875,0.04827880859375,1.01263427734375,-10.45257568359375,-10.16845703125,-28.9202880859375,1,1.0,1.0,1.0,1.0,10.00
2024-10-11 20:19:23.989,0.5443049,0.538913,0.96194375,0.57309484,0.494318,0.032276217,0.4899145,0.3625875,0.6530776,0.19013561,0.29454646,0.59461206,0.33559024,0.22180744,-1.3851188E-5,0.53212106,-0.07994704,-0.13984355,-0.25778493,-0.0060069985,788.1319,805.05493,780.4762,793.7729,998.46155,0.00341796875,0.04827880859375,1.01263427734375,-10.45257568359375,-10.16845703125,-28.9202880859375,1,1.0,1.0,1.0,1.0,10.00
2024-10-11 20:19:23.990,0.5443049,0.538913,0.96194375,0.57309484,0.494318,0.032276217,0.4899145,0.3625875,0.6530776,0.19013561,0.29454646,0.59461206,0.33559024,0.22180744,-1.3851188E-5,0.53212106,-0.07994704,-0.13984355,-0.25778493,-0.0060069985,790.54944,804.65204,783.69965,803.0403,1112.8938,0.00341796875,0.04827880859375,1.01263427734375,-10.45257568359375,-10.16845703125,-28.9202880859375,1,1.0,1.0,1.0,1.0,10.00
2024-10-11 20:19:23.990,0.5443049,0.538913,0.96194375,0.57309484,0.494318,0.032276217,0.4899145,0.3625875,0.6530776,0.19013561,0.29454646,0.59461206,0.33559024,0.22180744,-1.3851188E-5,0.53212106,-0.07994704,-0.13984355,-0.25778493,-0.0060069985,801.8315,809.4872,782.0879,794.9817,611.2454,0.00341796875,0.04827880859375,1.01263427734375,-10.45257568359375,-10.16845703125,-28.9202880859375,1,1.0,1.0,1.0,1.0,10.00
2024-10-11 20:19:23.991,0.5443049,0.538913,0.96194375,0.57309484,0.494318,0.032276217,0.4899145,0.3625875,0.6530776,0.19013561,0.29454646,0.59461206,0.33559024,0.22180744,-1.3851188E-5,0.53212106,-0.07994704,-0.13984355,-0.25778493,-0.0060069985,806.26373,800.6227,775.2381,791.75824,695.05493,0.00341796875,0.04827880859375,1.01263427734375,-10.45257568359375,-10.16845703125,-28.9202880859375,1,1.0,1.0,1.0,1.0,10.00
2024-10-11 20:19:23.991,0.5443049,0.538913,0.96194375,0.57309484,0.494318,0.032276217,0.4899145,0.3625875,0.6530776,0.19013561,0.29454646,0.59461206,0.33559024,0.22180744,-1.3851188E-5,0.53212106,-0.07994704,-0.13984355,-0.25778493,-0.0060069985,809.89014,794.9817,778.46155,790.14655,1054.8718,0.00341796875,0.04827880859375,1.01263427734375,-10.45257568359375,-10.16845703125,-28.9202880859375,1,1.0,1.0,1.0,1.0,10.00
2024-10-11 20:19:23.992,0.5443049,0.538913,0.96194375,0.57309484,0.494318,0.032276217,0.4899145,0.3625875,0.6530776,0.19013561,0.29454646,0.59461206,0.33559024,0.22180744,-1.3851188E-5,0.53212106,-0.07994704,-0.13984355,-0.25778493,-0.0060069985,804.2491,806.6667,781.685,793.7729,884.43225,0.00341796875,0.04827880859375,1.01263427734375,-10.45257568359375,-10.16845703125,-28.9202880859375,1,1.0,1.0,1.0,1.0,10.00
2024-10-11 20:19:23.992,0.5443049,0.538913,0.96194375,0.57309484,0.494318,0.032276217,0.4899145,0.3625875,0.6530776,0.19013561,0.29454646,0.59461206,0.33559024,0.22180744,-1.3851188E-5,0.53212106,-0.07994704,-0.13984355,-0.25778493,-0.0060069985,794.57874,813.1135,783.69965,793.7729,614.4689,0.00341796875,0.04827880859375,1.01263427734375,-10.45257568359375,-10.16845703125,-28.9202880859375,1,1.0,1.0,1.0,1.0,10.00
2024-10-11 20:19:23.993,0.5443049,0.538913,0.96194375,0.57309484,0.494318,0.032276217,0.4899145,0.3625875,0.6530776,0.19013561,0.29454646,0.59461206,0.33559024,0.22180744,-1.3851188E-5,0.53212106,-0.07994704,-0.13984355,-0.25778493,-0.0060069985,801.4286,811.50183,793.36993,792.1612,651.53845,0.00341796875,0.04827880859375,1.01263427734375,-10.45257568359375,-10.16845703125,-28.9202880859375,1,1.0,1.0,1.0,1.0,10.00
2024-10-11 20:19:23.993,0.5443049,0.538913,0.96194375,0.57309484,0.494318,0.032276217,0.4899145,0.3625875,0.6530776,0.19013561,0.29454646,0.59461206,0.33559024,0.22180744,-1.3851188E-5,0.53212106,-0.07994704,-0.13984355,-0.25778493,-0.0060069985,809.0842,802.23444,796.5934,789.7436,710.3663,0.00341796875,0.04827880859375,1.01263427734375,-10.45257568359375,-10.16845703125,-28.9202880859375,1,1.0,1.0,1.0,1.0,10.00
2024-10-11 20:19:23.994,0.5443049,0.538913,0.96194375,0.57309484,0.494318,0.032276217,0.4899145,0.3625875,0.6530776,0.19013561,0.29454646,0.59461206,0.33559024,0.22180744,-1.3851188E-5,0.53212106,-0.07994704,-0.13984355,-0.25778493,-0.0060069985,799.011,799.81683,792.5641,784.90845,720.4396,0.00341796875,0.04827880859375,1.01263427734375,-10.45257568359375,-10.16845703125,-28.9202880859375,1,1.0,1.0,1.0,1.0,10.00
2024-10-11 20:19:24.022,0.5443049,0.538913,0.96194375,0.57309484,0.494318,0.032276217,0.4899145,0.3625875,0.6530776,0.19013561,0.29454646,0.59461206,0.33559024,0.22180744,-1.3851188E-5,0.53212106,-0.07994704,-0.13984355,-0.25778493,-0.0060069985,797.3993,808.68134,790.54944,792.1612,612.8571,0.01995849609375,0.0194091796875,0.99639892578125,-11.82830810546875,-7.544097900390625,-29.23431396484375,1,1.0,1.0,1.0,1.0,10.00
2024-10-11 20:19:24.022,0.5443049,0.538913,0.96194375,0.57309484,0.494318,0.032276217,0.4899145,0.3625875,0.6530776,0.19013561,0.29454646,0.59461206,0.33559024,0.22180744,-1.3851188E-5,0.53212106,-0.07994704,-0.13984355,-0.25778493,-0.0060069985,811.50183,805.8608,796.5934,799.011,799.011,0.01995849609375,0.0194091796875,0.99639892578125,-11.82830810546875,-7.544097900390625,-29.23431396484375,1,1.0,1.0,1.0,1.0,10.00
2024-10-11 20:19:24.023,0.5443049,0.538913,0.96194375,0.57309484,0.494318,0.032276217,0.4899145,0.3625875,0.6530776,0.19013561,0.29454646,0.59461206,0.33559024,0.22180744,-1.3851188E-5,0.53212106,-0.07994704,-0.13984355,-0.25778493,-0.0060069985,814.7253,805.4579,796.99634,805.8608,1116.1172,0.01995849609375,0.0194091796875,0.99639892578125,-11.82830810546875,-7.544097900390625,-29.23431396484375,1,1.0,1.0,1.0,1.0,10.00
2024-10-11 20:19:24.023,0.5443049,0.538913,0.96194375,0.57309484,0.494318,0.032276217,0.4899145,0.3625875,0.6530776,0.19013561,0.29454646,0.59461206,0.33559024,0.22180744,-1.3851188E-5,0.53212106,-0.07994704,-0.13984355,-0.25778493,-0.0060069985,812.3077,807.47253,793.36993,807.0696,850.989,0.01995849609375,0.0194091796875,0.99639892578125,-11.82830810546875,-7.544097900390625,-29.23431396484375,1,1.0,1.0,1.0,1.0,10.00
2024-10-11 20:19:24.024,0.5443049,0.538913,0.96194375,0.57309484,0.494318,0.032276217,0.4899145,0.3625875,0.6530776,0.19013561,0.29454646,0.59461206,0.33559024,0.22180744,-1.3851188E-5,0.53212106,-0.07994704,-0.13984355,-0.25778493,-0.0060069985,815.9341,803.44324,799.011,801.8315,636.63007,0.01995849609375,0.0194091796875,0.99639892578125,-11.82830810546875,-7.544097900390625,-29.23431396484375,1,1.0,1.0,1.0,1.0,10.00
2024-10-11 20:19:24.024,0.5443049,0.538913,0.96194375,0.57309484,0.494318,0.032276217,0.4899145,0.3625875,0.6530776,0.19013561,0.29454646,0.59461206,0.33559024,0.22180744,-1.3851188E-5,0.53212106,-0.07994704,-0.13984355,-0.25778493,-0.0060069985,812.3077,805.4579,797.3993,796.5934,758.71796,0.01995849609375,0.0194091796875,0.99639892578125,-11.82830810546875,-7.544097900390625,-29.23431396484375,1,1.0,1.0,1.0,1.0,10.00
2024-10-11 20:19:24.025,0.5443049,0.538913,0.96194375,0.57309484,0.494318,0.032276217,0.4899145,0.3625875,0.6530776,0.19013561,0.29454646,0.59461206,0.33559024,0.22180744,-1.3851188E-5,0.53212106,-0.07994704,-0.13984355,-0.25778493,-0.0060069985,809.89014,807.0696,797.3993,797.3993,783.69965,0.01995849609375,0.0194091796875,0.99639892578125,-11.82830810546875,-7.544097900390625,-29.23431396484375,1,1.0,1.0,1.0,1.0,10.00
2024-10-11 20:19:24.025,0.5443049,0.538913,0.96194375,0.57309484,0.494318,0.032276217,0.4899145,0.3625875,0.6530776,0.19013561,0.29454646,0.59461206,0.33559024,0.22180744,-1.3851188E-5,0.53212106,-0.07994704,-0.13984355,-0.25778493,-0.0060069985,808.2784,807.47253,796.1905,796.5934,714.7985,0.01995849609375,0.0194091796875,0.99639892578125,-11.82830810546875,-7.544097900390625,-29.23431396484375,1,1.0,1.0,1.0,1.0,10.00
2024-10-11 20:19:24.026,0.5443049,0.538913,0.96194375,0.57309484,0.494318,0.032276217,0.4899145,0.3625875,0.6530776,0.19013561,0.29454646,0.59461206,0.33559024,0.22180744,-1.3851188E-5,0.53212106,-0.07994704,-0.13984355,-0.25778493,-0.0060069985,799.81683,805.05493,793.7729,794.9817,686.99634,0.01995849609375,0.0194091796875,0.99639892578125,-11.82830810546875,-7.544097900390625,-29.23431396484375,1,1.0,1.0,1.0,1.0,10.00
2024-10-11 20:19:24.026,0.5443049,0.538913,0.96194375,0.57309484,0.494318,0.032276217,0.4899145,0.3625875,0.6530776,0.19013561,0.29454646,0.59461206,0.33559024,0.22180744,-1.3851188E-5,0.53212106,-0.07994704,-0.13984355,-0.25778493,-0.0060069985,804.65204,804.65204,797.8022,798.20514,877.5824,0.01995849609375,0.0194091796875,0.99639892578125,-11.82830810546875,-7.544097900390625,-29.23431396484375,1,1.0,1.0,1.0,1.0,10.00
2024-10-11 20:19:24.026,0.5443049,0.538913,0.96194375,0.57309484,0.494318,0.032276217,0.4899145,0.3625875,0.6530776,0.19013561,0.29454646,0.59461206,0.33559024,0.22180744,-1.3851188E-5,0.53212106,-0.07994704,-0.13984355,-0.25778493,-0.0060069985,805.8608,793.7729,799.011,797.8022,913.0403,0.01995849609375,0.0194091796875,0.99639892578125,-11.82830810546875,-7.544097900390625,-29.23431396484375,1,1.0,1.0,1.0,1.0,10.00
2024-10-11 20:19:24.027,0.5443049,0.538913,0.96194375,0.57309484,0.494318,0.032276217,0.4899145,0.3625875,0.6530776,0.19013561,0.29454646,0.59461206,0.33559024,0.22180744,-1.3851188E-5,0.53212106,-0.07994704,-0.13984355,-0.25778493,-0.0060069985,802.6374,796.1905,796.5934,792.5641,645.89746,0.01995849609375,0.0194091796875,0.99639892578125,-11.82830810546875,-7.544097900390625,-29.23431396484375,1,1.0,1.0,1.0,1.0,10.00
2024-10-11 20:19:24.128,0.5443049,0.538913,0.96194375,0.57309484,0.494318,0.032276217,0.4899145,0.3625875,0.6530776,0.19013561,0.29454646,0.59461206,0.33559024,0.22180744,-1.3851188E-5,0.53212106,-0.07994704,-0.13984355,-0.25778493,-0.0060069985,806.6667,803.0403,800.2198,790.54944,710.3663,0.01995849609375,0.0194091796875,0.99639892578125,-11.82830810546875,-7.544097900390625,-29.23431396484375,1,1.0,1.0,1.0,1.0,10.00
2024-10-11 20:19:24.129,0.55867267,0.5506868,0.955339,0.65353537,0.4945904,0.042955924,0.49673805,0.43754286,0.6592171,0.15359744,0.29454646,0.59461206,0.34570742,0.22172427,-0.029799012,0.514872,-0.08182736,-0.1687441,-0.25015467,-0.01771964,806.6667,795.38464,795.38464,794.57874,760.7326,0.01995849609375,0.0194091796875,0.99639892578125,-11.82830810546875,-7.544097900390625,-29.23431396484375,1,1.0,1.0,1.0,1.0,10.00
2024-10-11 20:19:24.135,0.55867267,0.5506868,0.955339,0.65353537,0.4945904,0.042955924,0.49673805,0.43754286,0.6592171,0.15359744,0.29454646,0.59461206,0.34570742,0.22172427,-0.029799012,0.514872,-0.08182736,-0.1687441,-0.25015467,-0.01771964,799.81683,799.011,793.36993,793.7729,713.9927,0.01995849609375,0.0194091796875,0.99639892578125,-11.82830810546875,-7.544097900390625,-29.23431396484375,1,1.0,1.0,1.0,1.0,10.00
2024-10-11 20:19:24.135,0.55867267,0.5506868,0.955339,0.65353537,0.4945904,0.042955924,0.49673805,0.43754286,0.6592171,0.15359744,0.29454646,0.59461206,0.34570742,0.22172427,-0.029799012,0.514872,-0.08182736,-0.1687441,-0.25015467,-0.01771964,817.5458,800.2198,801.4286,806.6667,654.7619,0.01995849609375,0.0194091796875,0.99639892578125,-11.82830810546875,-7.544097900390625,-29.23431396484375,1,1.0,1.0,1.0,1.0,10.00
2024-10-11 20:19:24.136,0.55867267,0.5506868,0.955339,0.65353537,0.4945904,0.042955924,0.49673805,0.43754286,0.6592171,0.15359744,0.29454646,0.59461206,0.34570742,0.22172427,-0.029799012,0.514872,-0.08182736,-0.1687441,-0.25015467,-0.01771964,814.3223,801.4286,798.60803,793.36993,850.989,0.01995849609375,0.0194091796875,0.99639892578125,-11.82830810546875,-7.544097900390625,-29.23431396484375,1,1.0,1.0,1.0,1.0,10.00
2024-10-11 20:19:24.137,0.55867267,0.5506868,0.955339,0.65353537,0.4945904,0.042955924,0.49673805,0.43754286,0.6592171,0.15359744,0.29454646,0.59461206,0.34570742,0.22172427,-0.029799012,0.514872,-0.08182736,-0.1687441,-0.25015467,-0.01771964,775.2381,805.05493,792.1612,759.5238,1183.8096,0.01995849609375,0.0194091796875,0.99639892578125,-11.82830810546875,-7.544097900390625,-29.23431396484375,1,1.0,1.0,1.0,1.0,10.00
2024-10-11 20:19:24.138,0.55867267,0.5506868,0.955339,0.65353537,0.4945904,0.042955924,0.49673805,0.43754286,0.6592171,0.15359744,0.29454646,0.59461206,0.34570742,0.22172427,-0.029799012,0.514872,-0.08182736,-0.1687441,-0.25015467,-0.01771964,777.6557,806.6667,790.54944,762.74725,995.2381,0.01995849609375,0.0194091796875,0.99639892578125,-11.82830810546875,-7.544097900390625,-29.23431396484375,1,1.0,1.0,1.0,1.0,10.00
2024-10-11 20:19:24.138,0.55867267,0.5506868,0.955339,0.65353537,0.4945904,0.042955924,0.49673805,0.43754286,0.6592171,0.15359744,0.29454646,0.59461206,0.34570742,0.22172427,-0.029799012,0.514872,-0.08182736,-0.1687441,-0.25015467,-0.01771964,786.52014,803.44324,787.326,775.2381,726.8865,0.01995849609375,0.0194091796875,0.99639892578125,-11.82830810546875,-7.544097900390625,-29.23431396484375,1,1.0,1.0,1.0,1.0,10.00
2024-10-11 20:19:24.139,0.55867267,0.5506868,0.955339,0.65353537,0.4945904,0.042955924,0.49673805,0.43754286,0.6592171,0.15359744,0.29454646,0.59461206,0.34570742,0.22172427,-0.029799012,0.514872,-0.08182736,-0.1687441,-0.25015467,-0.01771964,764.7619,801.4286,788.1319,768.7912,820.3663,0.01995849609375,0.0194091796875,0.99639892578125,-11.82830810546875,-7.544097900390625,-29.23431396484375,1,1.0,1.0,1.0,1.0,10.00
2024-10-11 20:19:24.140,0.55867267,0.5506868,0.955339,0.65353537,0.4945904,0.042955924,0.49673805,0.43754286,0.6592171,0.15359744,0.29454646,0.59461206,0.34570742,0.22172427,-0.029799012,0.514872,-0.08182736,-0.1687441,-0.25015467,-0.01771964,758.71796,803.0403,786.52014,763.5531,1089.9268,0.01995849609375,0.0194091796875,0.99639892578125,-11.82830810546875,-7.544097900390625,-29.23431396484375,1,1.0,1.0,1.0,1.0,10.00
2024-10-11 20:19:24.140,0.55867267,0.5506868,0.955339,0.65353537,0.4945904,0.042955924,0.49673805,0.43754286,0.6592171,0.15359744,0.29454646,0.59461206,0.34570742,0.22172427,-0.029799012,0.514872,-0.08182736,-0.1687441,-0.25015467,-0.01771964,763.95605,803.8461,791.75824,763.95605,870.32965,0.01995849609375,0.0194091796875,0.99639892578125,-11.82830810546875,-7.544097900390625,-29.23431396484375,1,1.0,1.0,1.0,1.0,10.00
2024-10-11 20:19:24.141,0.55867267,0.5506868,0.955339,0.65353537,0.4945904,0.042955924,0.49673805,0.43754286,0.6592171,0.15359744,0.29454646,0.59461206,0.34570742,0.22172427,-0.029799012,0.514872,-0.08182736,-0.1687441,-0.25015467,-0.01771964,753.8828,797.8022,803.44324,759.5238,518.1685,0.01995849609375,0.0194091796875,0.99639892578125,-11.82830810546875,-7.544097900390625,-29.23431396484375,1,1.0,1.0,1.0,1.0,10.00
2024-10-11 20:19:24.142,0.55867267,0.5506868,0.955339,0.65353537,0.4945904,0.042955924,0.49673805,0.43754286,0.6592171,0.15359744,0.29454646,0.59461206,0.34570742,0.22172427,-0.029799012,0.514872,-0.08182736,-0.1687441,-0.25015467,-0.01771964,736.55676,794.9817,804.65204,745.82416,612.4542,0.03167724609375,0.00103759765625,1.01165771484375,-10.347900390625,-4.000091552734375,-25.52581787109375,1,1.0,1.0,1.0,1.0,10.00
2024-10-11 20:19:24.143,0.55867267,0.5506868,0.955339,0.65353537,0.4945904,0.042955924,0.49673805,0.43754286,0.6592171,0.15359744,0.29454646,0.59461206,0.34570742,0.22172427,-0.029799012,0.514872,-0.08182736,-0.1687441,-0.25015467,-0.01771964,726.08057,792.96704,802.23444,733.3333,678.93774,0.03167724609375,0.00103759765625,1.01165771484375,-10.347900390625,-4.000091552734375,-25.52581787109375,1,1.0,1.0,1.0,1.0,10.00
2024-10-11 20:19:24.144,0.55867267,0.5506868,0.955339,0.65353537,0.4945904,0.042955924,0.49673805,0.43754286,0.6592171,0.15359744,0.29454646,0.59461206,0.34570742,0.22172427,-0.029799012,0.514872,-0.08182736,-0.1687441,-0.25015467,-0.01771964,735.34796,802.23444,796.99634,732.9304,552.4176,0.03167724609375,0.00103759765625,1.01165771484375,-10.347900390625,-4.000091552734375,-25.52581787109375,1,1.0,1.0,1.0,1.0,10.00
2024-10-11 20:19:24.144,0.55867267,0.5506868,0.955339,0.65353537,0.4945904,0.042955924,0.49673805,0.43754286,0.6592171,0.15359744,0.29454646,0.59461206,0.34570742,0.22172427,-0.029799012,0.514872,-0.08182736,-0.1687441,-0.25015467,-0.01771964,732.52747,805.8608,792.5641,729.707,441.2088,0.03167724609375,0.00103759765625,1.01165771484375,-10.347900390625,-4.000091552734375,-25.52581787109375,1,1.0,1.0,1.0,1.0,10.00
2024-10-11 20:19:24.145,0.55867267,0.5506868,0.955339,0.65353537,0.4945904,0.042955924,0.49673805,0.43754286,0.6592171,0.15359744,0.29454646,0.59461206,0.34570742,0.22172427,-0.029799012,0.514872,-0.08182736,-0.1687441,-0.25015467,-0.01771964,728.9011,802.23444,792.5641,731.7216,555.64105,0.03167724609375,0.00103759765625,1.01165771484375,-10.347900390625,-4.000091552734375,-25.52581787109375,1,1.0,1.0,1.0,1.0,10.00
2024-10-11 20:19:24.146,0.55867267,0.5506868,0.955339,0.65353537,0.4945904,0.042955924,0.49673805,0.43754286,0.6592171,0.15359744,0.29454646,0.59461206,0.34570742,0.22172427,-0.029799012,0.514872,-0.08182736,-0.1687441,-0.25015467,-0.01771964,737.3626,786.52014,794.9817,742.1978,902.5641,0.03167724609375,0.00103759765625,1.01165771484375,-10.347900390625,-4.000091552734375,-25.52581787109375,1,1.0,1.0,1.0,1.0,10.00
2024-10-11 20:19:24.146,0.55867267,0.5506868,0.955339,0.65353537,0.4945904,0.042955924,0.49673805,0.43754286,0.6592171,0.15359744,0.29454646,0.59461206,0.34570742,0.22172427,-0.029799012,0.514872,-0.08182736,-0.1687441,-0.25015467,-0.01771964,746.2271,785.7143,797.8022,753.0769,911.02563,0.03167724609375,0.00103759765625,1.01165771484375,-10.347900390625,-4.000091552734375,-25.52581787109375,1,1.0,1.0,1.0,1.0,10.00
2024-10-11 20:19:24.147,0.55867267,0.5506868,0.955339,0.65353537,0.4945904,0.042955924,0.49673805,0.43754286,0.6592171,0.15359744,0.29454646,0.59461206,0.34570742,0.22172427,-0.029799012,0.514872,-0.08182736,-0.1687441,-0.25015467,-0.01771964,757.1062,803.0403,797.3993,756.30035,756.7033,0.03167724609375,0.00103759765625,1.01165771484375,-10.347900390625,-4.000091552734375,-25.52581787109375,1,1.0,1.0,1.0,1.0,10.00
2024-10-11 20:19:24.148,0.55867267,0.5506868,0.955339,0.65353537,0.4945904,0.042955924,0.49673805,0.43754286,0.6592171,0.15359744,0.29454646,0.59461206,0.34570742,0.22172427,-0.029799012,0.514872,-0.08182736,-0.1687441,-0.25015467,-0.01771964,770.40295,797.8022,803.44324,760.32965,893.69965,0.03167724609375,0.00103759765625,1.01165771484375,-10.347900390625,-4.000091552734375,-25.52581787109375,1,1.0,1.0,1.0,1.0,10.00
2024-10-11 20:19:24.149,0.55867267,0.5506868,0.955339,0.65353537,0.4945904,0.042955924,0.49673805,0.43754286,0.6592171,0.15359744,0.29454646,0.59461206,0.34570742,0.22172427,-0.029799012,0.514872,-0.08182736,-0.1687441,-0.25015467,-0.01771964,771.6117,791.75824,802.23444,765.9707,858.6447,0.03167724609375,0.00103759765625,1.01165771484375,-10.347900390625,-4.000091552734375,-25.52581787109375,1,1.0,1.0,1.0,1.0,10.00
2024-10-11 20:19:24.149,0.55867267,0.5506868,0.955339,0.65353537,0.4945904,0.042955924,0.49673805,0.43754286,0.6592171,0.15359744,0.29454646,0.59461206,0.34570742,0.22172427,-0.029799012,0.514872,-0.08182736,-0.1687441,-0.25015467,-0.01771964,773.6264,792.5641,803.0403,774.43225,760.7326,0.03167724609375,0.00103759765625,1.01165771484375,-10.347900390625,-4.000091552734375,-25.52581787109375,1,1.0,1.0,1.0,1.0,10.00
2024-10-11 20:19:24.150,0.55867267,0.5506868,0.955339,0.65353537,0.4945904,0.042955924,0.49673805,0.43754286,0.6592171,0.15359744,0.29454646,0.59461206,0.34570742,0.22172427,-0.029799012,0.514872,-0.08182736,-0.1687441,-0.25015467,-0.01771964,780.07324,792.1612,806.6667,776.8498,725.2747,0.03167724609375,0.00103759765625,1.01165771484375,-10.347900390625,-4.000091552734375,-25.52581787109375,1,1.0,1.0,1.0,1.0,10.00
2024-10-11 20:19:24.178,0.55867267,0.5506868,0.955339,0.65353537,0.4945904,0.042955924,0.49673805,0.43754286,0.6592171,0.15359744,0.29454646,0.59461206,0.34570742,0.22172427,-0.029799012,0.514872,-0.08182736,-0.1687441,-0.25015467,-0.01771964,781.28204,792.5641,801.8315,780.07324,961.79486,0.03594970703125,-0.0093994140625,1.0074462890625,-7.588958740234375,-0.575714111328125,-20.493927001953125,1,1.0,1.0,1.0,1.0,10.00
2024-10-11 20:19:24.179,0.55867267,0.5506868,0.955339,0.65353537,0.4945904,0.042955924,0.49673805,0.43754286,0.6592171,0.15359744,0.29454646,0.59461206,0.34570742,0.22172427,-0.029799012,0.514872,-0.08182736,-0.1687441,-0.25015467,-0.01771964,781.685,794.17584,799.011,793.7729,1165.6776,0.03594970703125,-0.0093994140625,1.0074462890625,-7.588958740234375,-0.575714111328125,-20.493927001953125,1,1.0,1.0,1.0,1.0,10.00
2024-10-11 20:19:24.180,0.55867267,0.5506868,0.955339,0.65353537,0.4945904,0.042955924,0.49673805,0.43754286,0.6592171,0.15359744,0.29454646,0.59461206,0.34570742,0.22172427,-0.029799012,0.514872,-0.08182736,-0.1687441,-0.25015467,-0.01771964,777.6557,800.2198,803.8461,788.93774,791.75824,0.03594970703125,-0.0093994140625,1.0074462890625,-7.588958740234375,-0.575714111328125,-20.493927001953125,1,1.0,1.0,1.0,1.0,10.00
2024-10-11 20:19:24.181,0.55867267,0.5729269,0.9786742,0.65353537,0.4945904,0.065359674,0.51438653,0.43754286,0.6592171,0.13302249,0.29454646,0.59461206,0.34570742,0.222487,-0.05370893,0.514872,-0.08182736,-0.18705021,-0.24428107,-0.01771964,771.6117,795.38464,801.8315,784.90845,635.82416,0.03594970703125,-0.0093994140625,1.0074462890625,-7.588958740234375,-0.575714111328125,-20.493927001953125,1,1.0,1.0,1.0,1.0,10.00
2024-10-11 20:19:24.186,0.55867267,0.5729269,0.9786742,0.65353537,0.4945904,0.065359674,0.51438653,0.43754286,0.6592171,0.13302249,0.29454646,0.59461206,0.34570742,0.222487,-0.05370893,0.514872,-0.08182736,-0.18705021,-0.24428107,-0.01771964,770.80585,782.0879,797.3993,790.14655,653.5531,0.03594970703125,-0.0093994140625,1.0074462890625,-7.588958740234375,-0.575714111328125,-20.493927001953125,1,1.0,1.0,1.0,1.0,10.00
2024-10-11 20:19:24.187,0.55867267,0.5729269,0.9786742,0.65353537,0.4945904,0.065359674,0.51438653,0.43754286,0.6592171,0.13302249,0.29454646,0.59461206,0.34570742,0.222487,-0.05370893,0.514872,-0.08182736,-0.18705021,-0.24428107,-0.01771964,774.43225,789.7436,798.60803,791.3553,782.0879,0.03594970703125,-0.0093994140625,1.0074462890625,-7.588958740234375,-0.575714111328125,-20.493927001953125,1,1.0,1.0,1.0,1.0,10.00
2024-10-11 20:19:24.188,0.55867267,0.5729269,0.9786742,0.65353537,0.4945904,0.065359674,0.51438653,0.43754286,0.6592171,0.13302249,0.29454646,0.59461206,0.34570742,0.222487,-0.05370893,0.514872,-0.08182736,-0.18705021,-0.24428107,-0.01771964,769.59705,798.60803,798.60803,790.54944,785.7143,0.03594970703125,-0.0093994140625,1.0074462890625,-7.588958740234375,-0.575714111328125,-20.493927001953125,1,1.0,1.0,1.0,1.0,10.00
2024-10-11 20:19:24.189,0.55867267,0.5729269,0.9786742,0.65353537,0.4945904,0.065359674,0.51438653,0.43754286,0.6592171,0.13302249,0.29454646,0.59461206,0.34570742,0.222487,-0.05370893,0.514872,-0.08182736,-0.18705021,-0.24428107,-0.01771964,781.28204,794.57874,807.0696,791.3553,760.7326,0.03594970703125,-0.0093994140625,1.0074462890625,-7.588958740234375,-0.575714111328125,-20.493927001953125,1,1.0,1.0,1.0,1.0,10.00
2024-10-11 20:19:24.189,0.55867267,0.5729269,0.9786742,0.65353537,0.4945904,0.065359674,0.51438653,0.43754286,0.6592171,0.13302249,0.29454646,0.59461206,0.34570742,0.222487,-0.05370893,0.514872,-0.08182736,-0.18705021,-0.24428107,-0.01771964,789.34064,792.5641,812.71063,796.5934,940.0366,0.03594970703125,-0.0093994140625,1.0074462890625,-7.588958740234375,-0.575714111328125,-20.493927001953125,1,1.0,1.0,1.0,1.0,10.00
2024-10-11 20:19:24.190,0.55867267,0.5729269,0.9786742,0.65353537,0.4945904,0.065359674,0.51438653,0.43754286,0.6592171,0.13302249,0.29454646,0.59461206,0.34570742,0.222487,-0.05370893,0.514872,-0.08182736,-0.18705021,-0.24428107,-0.01771964,788.5348,794.9817,807.8755,794.9817,913.44324,0.03594970703125,-0.0093994140625,1.0074462890625,-7.588958740234375,-0.575714111328125,-20.493927001953125,1,1.0,1.0,1.0,1.0,10.00
2024-10-11 20:19:24.191,0.55867267,0.5729269,0.9786742,0.65353537,0.4945904,0.065359674,0.51438653,0.43754286,0.6592171,0.13302249,0.29454646,0.59461206,0.34570742,0.222487,-0.05370893,0.514872,-0.08182736,-0.18705021,-0.24428107,-0.01771964,792.1612,801.8315,805.4579,796.1905,840.5128,0.03594970703125,-0.0093994140625,1.0074462890625,-7.588958740234375,-0.575714111328125,-20.493927001953125,1,1.0,1.0,1.0,1.0,10.00
2024-10-11 20:19:24.191,0.55867267,0.5729269,0.9786742,0.65353537,0.4945904,0.065359674,0.51438653,0.43754286,0.6592171,0.13302249,0.29454646,0.59461206,0.34570742,0.222487,-0.05370893,0.514872,-0.08182736,-0.18705021,-0.24428107,-0.01771964,799.81683,792.5641,806.26373,801.8315,827.619,0.03594970703125,-0.0093994140625,1.0074462890625,-7.588958740234375,-0.575714111328125,-20.493927001953125,1,1.0,1.0,1.0,1.0,10.00
2024-10-11 20:19:24.264,0.55867267,0.5729269,0.9786742,0.65353537,0.4945904,0.065359674,0.51438653,0.43754286,0.6592171,0.13302249,0.29454646,0.59461206,0.34570742,0.222487,-0.05370893,0.514872,-0.08182736,-0.18705021,-0.24428107,-0.01771964,801.02563,785.31134,800.6227,803.0403,813.91943,0.035400390625,-0.0096435546875,0.99456787109375,-5.09918212890625,2.714080810546875,-13.7872314453125,1,1.0,1.0,1.0,1.0,10.00
2024-10-11 20:19:24.265,0.55867267,0.5729269,0.9786742,0.65353537,0.4945904,0.065359674,0.51438653,0.43754286,0.6592171,0.13302249,0.29454646,0.59461206,0.34570742,0.222487,-0.05370893,0.514872,-0.08182736,-0.18705021,-0.24428107,-0.01771964,811.50183,797.3993,795.38464,809.4872,695.4579,0.035400390625,-0.0096435546875,0.99456787109375,-5.09918212890625,2.714080810546875,-13.7872314453125,1,1.0,1.0,1.0,1.0,10.00
2024-10-11 20:19:24.265,0.55867267,0.5729269,0.9786742,0.65353537,0.4945904,0.065359674,0.51438653,0.43754286,0.6592171,0.13302249,0.29454646,0.59461206,0.34570742,0.222487,-0.05370893,0.514872,-0.08182736,-0.18705021,-0.24428107,-0.01771964,810.293,798.20514,807.47253,813.91943,705.9341,0.035400390625,-0.0096435546875,0.99456787109375,-5.09918212890625,2.714080810546875,-13.7872314453125,1,1.0,1.0,1.0,1.0,10.00
2024-10-11 20:19:24.266,0.55867267,0.5729269,0.9786742,0.65353537,0.4945904,0.065359674,0.51438653,0.43754286,0.6592171,0.13302249,0.29454646,0.59461206,0.34570742,0.222487,-0.05370893,0.514872,-0.08182736,-0.18705021,-0.24428107,-0.01771964,786.9231,790.54944,813.91943,792.96704,851.79486,0.035400390625,-0.0096435546875,0.99456787109375,-5.09918212890625,2.714080810546875,-13.7872314453125,1,1.0,1.0,1.0,1.0,10.00
2024-10-11 20:19:24.267,0.55867267,0.5729269,0.9786742,0.65353537,0.4945904,0.065359674,0.51438653,0.43754286,0.6592171,0.13302249,0.29454646,0.59461206,0.34570742,0.222487,-0.05370893,0.514872,-0.08182736,-0.18705021,-0.24428107,-0.01771964,782.49084,788.93774,812.3077,786.52014,798.20514,0.035400390625,-0.0096435546875,0.99456787109375,-5.09918212890625,2.714080810546875,-13.7872314453125,1,1.0,1.0,1.0,1.0,10.00
2024-10-11 20:19:24.267,0.55867267,0.5729269,0.9786742,0.65353537,0.4945904,0.065359674,0.51438653,0.43754286,0.6592171,0.13302249,0.29454646,0.59461206,0.34570742,0.222487,-0.05370893,0.514872,-0.08182736,-0.18705021,-0.24428107,-0.01771964,775.64105,788.93774,811.50183,787.72894,765.56775,0.035400390625,-0.0096435546875,0.99456787109375,-5.09918212890625,2.714080810546875,-13.7872314453125,1,1.0,1.0,1.0,1.0,10.00
2024-10-11 20:19:24.268,0.55867267,0.5729269,0.9786742,0.65353537,0.4945904,0.065359674,0.51438653,0.43754286,0.6592171,0.13302249,0.29454646,0.59461206,0.34570742,0.222487,-0.05370893,0.514872,-0.08182736,-0.18705021,-0.24428107,-0.01771964,763.95605,781.28204,814.7253,786.52014,895.31134,0.035400390625,-0.0096435546875,0.99456787109375,-5.09918212890625,2.714080810546875,-13.7872314453125,1,1.0,1.0,1.0,1.0,10.00
2024-10-11 20:19:24.269,0.55867267,0.5729269,0.9786742,0.65353537,0.4945904,0.065359674,0.51438653,0.43754286,0.6592171,0.13302249,0.29454646,0.59461206,0.34570742,0.222487,-0.05370893,0.514872,-0.08182736,-0.18705021,-0.24428107,-0.01771964,747.4359,778.86444,811.0989,780.87915,950.5128,0.035400390625,-0.0096435546875,0.99456787109375,-5.09918212890625,2.714080810546875,-13.7872314453125,1,1.0,1.0,1.0,1.0,10.00
2024-10-11 20:19:24.269,0.55867267,0.5729269,0.9786742,0.65353537,0.4945904,0.065359674,0.51438653,0.43754286,0.6592171,0.13302249,0.29454646,0.59461206,0.34570742,0.222487,-0.05370893,0.514872,-0.08182736,-0.18705021,-0.24428107,-0.01771964,743.00366,790.9524,819.5604,772.4176,837.6923,0.035400390625,-0.0096435546875,0.99456787109375,-5.09918212890625,2.714080810546875,-13.7872314453125,1,1.0,1.0,1.0,1.0,10.00
2024-10-11 20:19:24.270,0.55867267,0.5729269,0.9786742,0.65353537,0.4945904,0.065359674,0.51438653,0.43754286,0.6592171,0.13302249,0.29454646,0.59461206,0.34570742,0.222487,-0.05370893,0.514872,-0.08182736,-0.18705021,-0.24428107,-0.01771964,750.65936,797.3993,828.8278,772.4176,549.59705,0.035400390625,-0.0096435546875,0.99456787109375,-5.09918212890625,2.714080810546875,-13.7872314453125,1,1.0,1.0,1.0,1.0,10.00
2024-10-11 20:19:24.271,0.55867267,0.5729269,0.9786742,0.65353537,0.4945904,0.065359674,0.51438653,0.43754286,0.6592171,0.13302249,0.29454646,0.59461206,0.34570742,0.222487,-0.05370893,0.514872,-0.08182736,-0.18705021,-0.24428107,-0.01771964,743.4066,790.9524,825.2015,766.3736,526.2271,0.035400390625,-0.0096435546875,0.99456787109375,-5.09918212890625,2.714080810546875,-13.7872314453125,1,1.0,1.0,1.0,1.0,10.00
2024-10-11 20:19:24.271,0.55867267,0.5729269,0.9786742,0.65353537,0.4945904,0.065359674,0.51438653,0.43754286,0.6592171,0.13302249,0.29454646,0.59461206,0.34570742,0.222487,-0.05370893,0.514872,-0.08182736,-0.18705021,-0.24428107,-0.01771964,737.3626,780.4762,828.4249,771.2088,967.4359,0.035400390625,-0.0096435546875,0.99456787109375,-5.09918212890625,2.714080810546875,-13.7872314453125,1,1.0,1.0,1.0,1.0,10.00
2024-10-11 20:19:24.299,0.55867267,0.5729269,0.9786742,0.65353537,0.4945904,0.065359674,0.51438653,0.43754286,0.6592171,0.13302249,0.29454646,0.59461206,0.34570742,0.222487,-0.05370893,0.514872,-0.08182736,-0.18705021,-0.24428107,-0.01771964,738.97437,775.64105,834.87177,773.6264,1120.1465,0.01373291015625,-0.00823974609375,1.0078125,-3.648681640625,3.90289306640625,-6.437530517578125,1,1.0,1.0,1.0,1.0,10.00
2024-10-11 20:19:24.300,0.55867267,0.5729269,0.9786742,0.65353537,0.4945904,0.065359674,0.51438653,0.43754286,0.6592171,0.13302249,0.29454646,0.59461206,0.34570742,0.222487,-0.05370893,0.514872,-0.08182736,-0.18705021,-0.24428107,-0.01771964,745.42126,777.6557,833.2601,767.1795,724.87177,0.01373291015625,-0.00823974609375,1.0078125,-3.648681640625,3.90289306640625,-6.437530517578125,1,1.0,1.0,1.0,1.0,10.00
2024-10-11 20:19:24.300,0.55867267,0.5729269,0.9786742,0.65353537,0.4945904,0.065359674,0.51438653,0.43754286,0.6592171,0.13302249,0.29454646,0.59461206,0.34570742,0.222487,-0.05370893,0.514872,-0.08182736,-0.18705021,-0.24428107,-0.01771964,744.61536,782.0879,833.2601,777.6557,695.05493,0.01373291015625,-0.00823974609375,1.0078125,-3.648681640625,3.90289306640625,-6.437530517578125,1,1.0,1.0,1.0,1.0,10.00
2024-10-11 20:19:24.301,0.55867267,0.5729269,0.9786742,0.65353537,0.4945904,0.065359674,0.51438653,0.43754286,0.6592171,0.13302249,0.29454646,0.59461206,0.34570742,0.222487,-0.05370893,0.514872,-0.08182736,-0.18705021,-0.24428107,-0.01771964,737.3626,785.7143,836.08057,783.2967,868.315,0.01373291015625,-0.00823974609375,1.0078125,-3.648681640625,3.90289306640625,-6.437530517578125,1,1.0,1.0,1.0,1.0,10.00
2024-10-11 20:19:24.302,0.55867267,0.5729269,0.9786742,0.65353537,0.4945904,0.065359674,0.51438653,0.43754286,0.6592171,0.13302249,0.29454646,0.59461206,0.34570742,0.222487,-0.05370893,0.514872,-0.08182736,-0.18705021,-0.24428107,-0.01771964,735.34796,789.34064,833.2601,779.2674,790.14655,0.01373291015625,-0.00823974609375,1.0078125,-3.648681640625,3.90289306640625,-6.437530517578125,1,1.0,1.0,1.0,1.0,10.00
2024-10-11 20:19:24.303,0.55867267,0.6162911,0.9778345,0.6777224,0.4945904,0.09559299,0.52314293,0.46116534,0.6592171,0.11263197,0.29454646,0.59461206,0.34570742,0.2286062,-0.062128887,0.5212029,-0.08182736,-0.19412223,-0.24117358,0.009938545,731.31866,781.685,829.2308,771.6117,624.5421,0.01373291015625,-0.00823974609375,1.0078125,-3.648681640625,3.90289306640625,-6.437530517578125,1,1.0,1.0,1.0,1.0,10.00
2024-10-11 20:19:24.308,0.55867267,0.6162911,0.9778345,0.6777224,0.4945904,0.09559299,0.52314293,0.46116534,0.6592171,0.11263197,0.29454646,0.59461206,0.34570742,0.2286062,-0.062128887,0.5212029,-0.08182736,-0.19412223,-0.24117358,0.009938545,755.4945,775.64105,823.1868,784.5055,829.2308,0.01373291015625,-0.00823974609375,1.0078125,-3.648681640625,3.90289306640625,-6.437530517578125,1,1.0,1.0,1.0,1.0,10.00
2024-10-11 20:19:24.309,0.55867267,0.6162911,0.9778345,0.6777224,0.4945904,0.09559299,0.52314293,0.46116534,0.6592171,0.11263197,0.29454646,0.59461206,0.34570742,0.2286062,-0.062128887,0.5212029,-0.08182736,-0.19412223,-0.24117358,0.009938545,775.2381,784.10254,827.619,798.20514,1017.8022,0.01373291015625,-0.00823974609375,1.0078125,-3.648681640625,3.90289306640625,-6.437530517578125,1,1.0,1.0,1.0,1.0,10.00
2024-10-11 20:19:24.310,0.55867267,0.6162911,0.9778345,0.6777224,0.4945904,0.09559299,0.52314293,0.46116534,0.6592171,0.11263197,0.29454646,0.59461206,0.34570742,0.2286062,-0.062128887,0.5212029,-0.08182736,-0.19412223,-0.24117358,0.009938545,768.3883,781.28204,827.2161,789.34064,744.61536,0.01373291015625,-0.00823974609375,1.0078125,-3.648681640625,3.90289306640625,-6.437530517578125,1,1.0,1.0,1.0,1.0,10.00
2024-10-11 20:19:24.311,0.55867267,0.6162911,0.9778345,0.6777224,0.4945904,0.09559299,0.52314293,0.46116534,0.6592171,0.11263197,0.29454646,0.59461206,0.34570742,0.2286062,-0.062128887,0.5212029,-0.08182736,-0.19412223,-0.24117358,0.009938545,776.4469,782.49084,824.7985,784.90845,592.3077,0.01373291015625,-0.00823974609375,1.0078125,-3.648681640625,3.90289306640625,-6.437530517578125,1,1.0,1.0,1.0,1.0,10.00
2024-10-11 20:19:24.311,0.55867267,0.6162911,0.9778345,0.6777224,0.4945904,0.09559299,0.52314293,0.46116534,0.6592171,0.11263197,0.29454646,0.59461206,0.34570742,0.2286062,-0.062128887,0.5212029,-0.08182736,-0.19412223,-0.24117358,0.009938545,781.685,788.93774,824.7985,793.36993,735.34796,0.01373291015625,-0.00823974609375,1.0078125,-3.648681640625,3.90289306640625,-6.437530517578125,1,1.0,1.0,1.0,1.0,10.00
2024-10-11 20:19:24.312,0.55867267,0.6162911,0.9778345,0.6777224,0.4945904,0.09559299,0.52314293,0.46116534,0.6592171,0.11263197,0.29454646,0.59461206,0.34570742,0.2286062,-0.062128887,0.5212029,-0.08182736,-0.19412223,-0.24117358,0.009938545,774.43225,781.685,821.978,799.41394,828.022,0.01373291015625,-0.00823974609375,1.0078125,-3.648681640625,3.90289306640625,-6.437530517578125,1,1.0,1.0,1.0,1.0,10.00
2024-10-11 20:19:24.340,0.55867267,0.6162911,0.9778345,0.6777224,0.4945904,0.09559299,0.52314293,0.46116534,0.6592171,0.11263197,0.29454646,0.59461206,0.34570742,0.2286062,-0.062128887,0.5212029,-0.08182736,-0.19412223,-0.24117358,0.009938545,781.28204,781.685,823.9927,801.8315,668.86444,0.01373291015625,-0.00823974609375,1.0078125,-3.648681640625,3.90289306640625,-6.437530517578125,1,1.0,1.0,1.0,1.0,10.00
2024-10-11 20:19:24.341,0.55867267,0.6162911,0.9778345,0.6777224,0.4945904,0.09559299,0.52314293,0.46116534,0.6592171,0.11263197,0.29454646,0.59461206,0.34570742,0.2286062,-0.062128887,0.5212029,-0.08182736,-0.19412223,-0.24117358,0.009938545,789.7436,789.34064,825.6044,807.0696,509.70697,0.01373291015625,-0.00823974609375,1.0078125,-3.648681640625,3.90289306640625,-6.437530517578125,1,1.0,1.0,1.0,1.0,10.00
2024-10-11 20:19:24.341,0.55867267,0.6162911,0.9778345,0.6777224,0.4945904,0.09559299,0.52314293,0.46116534,0.6592171,0.11263197,0.29454646,0.59461206,0.34570742,0.2286062,-0.062128887,0.5212029,-0.08182736,-0.19412223,-0.24117358,0.009938545,782.49084,796.5934,822.7839,803.0403,705.9341,0.01373291015625,-0.00823974609375,1.0078125,-3.648681640625,3.90289306640625,-6.437530517578125,1,1.0,1.0,1.0,1.0,10.00
2024-10-11 20:19:24.342,0.55867267,0.6162911,0.9778345,0.6777224,0.4945904,0.09559299,0.52314293,0.46116534,0.6592171,0.11263197,0.29454646,0.59461206,0.34570742,0.2286062,-0.062128887,0.5212029,-0.08182736,-0.19412223,-0.24117358,0.009938545,784.5055,797.8022,821.1722,811.0989,1222.4908,0.01373291015625,-0.00823974609375,1.0078125,-3.648681640625,3.90289306640625,-6.437530517578125,1,1.0,1.0,1.0,1.0,10.00
2024-10-11 20:19:24.343,0.55867267,0.6162911,0.9778345,0.6777224,0.4945904,0.09559299,0.52314293,0.46116534,0.6592171,0.11263197,0.29454646,0.59461206,0.34570742,0.2286062,-0.062128887,0.5212029,-0.08182736,-0.19412223,-0.24117358,0.009938545,784.10254,786.9231,817.9487,815.12823,1010.54944,0.01373291015625,-0.00823974609375,1.0078125,-3.648681640625,3.90289306640625,-6.437530517578125,1,1.0,1.0,1.0,1.0,10.00
2024-10-11 20:19:24.343,0.55867267,0.6162911,0.9778345,0.6777224,0.4945904,0.09559299,0.52314293,0.46116534,0.6592171,0.11263197,0.29454646,0.59461206,0.34570742,0.2286062,-0.062128887,0.5212029,-0.08182736,-0.19412223,-0.24117358,0.009938545,784.90845,790.54944,813.5165,809.0842,733.73627,0.01373291015625,-0.00823974609375,1.0078125,-3.648681640625,3.90289306640625,-6.437530517578125,1,1.0,1.0,1.0,1.0,10.00
2024-10-11 20:19:24.344,0.55867267,0.6162911,0.9778345,0.6777224,0.4945904,0.09559299,0.52314293,0.46116534,0.6592171,0.11263197,0.29454646,0.59461206,0.34570742,0.2286062,-0.062128887,0.5212029,-0.08182736,-0.19412223,-0.24117358,0.009938545,796.1905,796.5934,813.1135,806.6667,903.7729,0.01373291015625,-0.00823974609375,1.0078125,-3.648681640625,3.90289306640625,-6.437530517578125,1,1.0,1.0,1.0,1.0,10.00
2024-10-11 20:19:24.345,0.55867267,0.6162911,0.9778345,0.6777224,0.4945904,0.09559299,0.52314293,0.46116534,0.6592171,0.11263197,0.29454646,0.59461206,0.34570742,0.2286062,-0.062128887,0.5212029,-0.08182736,-0.19412223,-0.24117358,0.009938545,798.60803,797.3993,816.7399,815.12823,879.59705,0.01373291015625,-0.00823974609375,1.0078125,-3.648681640625,3.90289306640625,-6.437530517578125,1,1.0,1.0,1.0,1.0,10.00
2024-10-11 20:19:24.345,0.55867267,0.6162911,0.9778345,0.6777224,0.4945904,0.09559299,0.52314293,0.46116534,0.6592171,0.11263197,0.29454646,0.59461206,0.34570742,0.2286062,-0.062128887,0.5212029,-0.08182736,-0.19412223,-0.24117358,0.009938545,796.5934,801.02563,825.2015,820.7692,743.00366,0.01373291015625,-0.00823974609375,1.0078125,-3.648681640625,3.90289306640625,-6.437530517578125,1,1.0,1.0,1.0,1.0,10.00
2024-10-11 20:19:24.346,0.55867267,0.6162911,0.9778345,0.6777224,0.4945904,0.09559299,0.52314293,0.46116534,0.6592171,0.11263197,0.29454646,0.59461206,0.34570742,0.2286062,-0.062128887,0.5212029,-0.08182736,-0.19412223,-0.24117358,0.009938545,798.60803,794.57874,833.2601,813.5165,652.74725,0.01373291015625,-0.00823974609375,1.0078125,-3.648681640625,3.90289306640625,-6.437530517578125,1,1.0,1.0,1.0,1.0,10.00
2024-10-11 20:19:24.347,0.55867267,0.6162911,0.9778345,0.6777224,0.4945904,0.09559299,0.52314293,0.46116534,0.6592171,0.11263197,0.29454646,0.59461206,0.34570742,0.2286062,-0.062128887,0.5212029,-0.08182736,-0.19412223,-0.24117358,0.009938545,798.60803,785.7143,822.7839,815.12823,732.1245,0.01373291015625,-0.00823974609375,1.0078125,-3.648681640625,3.90289306640625,-6.437530517578125,1,1.0,1.0,1.0,1.0,10.00
2024-10-11 20:19:24.348,0.55867267,0.6162911,0.9778345,0.6777224,0.4945904,0.09559299,0.52314293,0.46116534,0.6592171,0.11263197,0.29454646,0.59461206,0.34570742,0.2286062,-0.062128887,0.5212029,-0.08182736,-0.19412223,-0.24117358,0.009938545,792.96704,788.93774,810.696,822.7839,844.1392,0.01373291015625,-0.00823974609375,1.0078125,-3.648681640625,3.90289306640625,-6.437530517578125,1,1.0,1.0,1.0,1.0,10.00
2024-10-11 20:19:24.413,0.55867267,0.6162911,0.9778345,0.6777224,0.4945904,0.09559299,0.52314293,0.46116534,0.6592171,0.11263197,0.29454646,0.59461206,0.34570742,0.2286062,-0.062128887,0.5212029,-0.08182736,-0.19412223,-0.24117358,0.009938545,793.7729,794.17584,812.71063,826.4103,740.18317,-0.02008056640625,-0.0115966796875,1.01513671875,-4.2767333984375,2.52716064453125,-2.40753173828125,1,1.0,1.0,1.0,1.0,10.00
2024-10-11 20:19:24.414,0.55867267,0.6162911,0.9778345,0.6777224,0.4945904,0.09559299,0.52314293,0.46116534,0.6592171,0.11263197,0.29454646,0.59461206,0.34570742,0.2286062,-0.062128887,0.5212029,-0.08182736,-0.19412223,-0.24117358,0.009938545,799.41394,791.3553,810.696,821.1722,620.10986,-0.02008056640625,-0.0115966796875,1.01513671875,-4.2767333984375,2.52716064453125,-2.40753173828125,1,1.0,1.0,1.0,1.0,10.00
2024-10-11 20:19:24.415,0.55867267,0.6162911,0.9778345,0.6777224,0.4945904,0.09559299,0.52314293,0.46116534,0.6592171,0.11263197,0.29454646,0.59461206,0.34570742,0.2286062,-0.062128887,0.5212029,-0.08182736,-0.19412223,-0.24117358,0.009938545,804.2491,791.75824,812.71063,823.9927,791.75824,-0.02008056640625,-0.0115966796875,1.01513671875,-4.2767333984375,2.52716064453125,-2.40753173828125,1,1.0,1.0,1.0,1.0,10.00
2024-10-11 20:19:24.415,0.55867267,0.6162911,0.9778345,0.6777224,0.4945904,0.09559299,0.52314293,0.46116534,0.6592171,0.11263197,0.29454646,0.59461206,0.34570742,0.2286062,-0.062128887,0.5212029,-0.08182736,-0.19412223,-0.24117358,0.009938545,801.4286,793.7729,822.381,820.7692,769.19415,-0.02008056640625,-0.0115966796875,1.01513671875,-4.2767333984375,2.52716064453125,-2.40753173828125,1,1.0,1.0,1.0,1.0,10.00
2024-10-11 20:19:24.416,0.55867267,0.6162911,0.9778345,0.6777224,0.4945904,0.09559299,0.52314293,0.46116534,0.6592171,0.11263197,0.29454646,0.59461206,0.34570742,0.2286062,-0.062128887,0.5212029,-0.08182736,-0.19412223,-0.24117358,0.009938545,801.02563,794.9817,817.5458,813.5165,709.9634,-0.02008056640625,-0.0115966796875,1.01513671875,-4.2767333984375,2.52716064453125,-2.40753173828125,1,1.0,1.0,1.0,1.0,10.00
2024-10-11 20:19:24.417,0.55867267,0.6162911,0.9778345,0.6777224,0.4945904,0.09559299,0.52314293,0.46116534,0.6592171,0.11263197,0.29454646,0.59461206,0.34570742,0.2286062,-0.062128887,0.5212029,-0.08182736,-0.19412223,-0.24117358,0.009938545,810.696,796.5934,804.65204,814.7253,957.76556,-0.02008056640625,-0.0115966796875,1.01513671875,-4.2767333984375,2.52716064453125,-2.40753173828125,1,1.0,1.0,1.0,1.0,10.00
2024-10-11 20:19:24.417,0.55867267,0.6162911,0.9778345,0.6777224,0.4945904,0.09559299,0.52314293,0.46116534,0.6592171,0.11263197,0.29454646,0.59461206,0.34570742,0.2286062,-0.062128887,0.5212029,-0.08182736,-0.19412223,-0.24117358,0.009938545,815.12823,793.7729,809.89014,808.2784,979.12085,-0.02008056640625,-0.0115966796875,1.01513671875,-4.2767333984375,2.52716064453125,-2.40753173828125,1,1.0,1.0,1.0,1.0,10.00
2024-10-11 20:19:24.418,0.55867267,0.67444736,0.95988405,0.6777224,0.4945904,0.12202066,0.506296,0.46116534,0.6592171,0.099944726,0.28483525,0.59461206,0.34570742,0.23830065,-0.06830554,0.5212029,-0.08182736,-0.19677009,-0.23721208,0.009938545,817.1429,794.9817,813.1135,812.71063,876.77655,-0.02008056640625,-0.0115966796875,1.01513671875,-4.2767333984375,2.52716064453125,-2.40753173828125,1,1.0,1.0,1.0,1.0,10.00
2024-10-11 20:19:24.424,0.55867267,0.67444736,0.95988405,0.6777224,0.4945904,0.12202066,0.506296,0.46116534,0.6592171,0.099944726,0.28483525,0.59461206,0.34570742,0.23830065,-0.06830554,0.5212029,-0.08182736,-0.19677009,-0.23721208,0.009938545,821.5751,789.34064,814.7253,818.3516,823.1868,-0.02008056640625,-0.0115966796875,1.01513671875,-4.2767333984375,2.52716064453125,-2.40753173828125,1,1.0,1.0,1.0,1.0,10.00
2024-10-11 20:19:24.425,0.55867267,0.67444736,0.95988405,0.6777224,0.4945904,0.12202066,0.506296,0.46116534,0.6592171,0.099944726,0.28483525,0.59461206,0.34570742,0.23830065,-0.06830554,0.5212029,-0.08182736,-0.19677009,-0.23721208,0.009938545,814.3223,786.9231,813.91943,817.9487,963.4066,-0.02008056640625,-0.0115966796875,1.01513671875,-4.2767333984375,2.52716064453125,-2.40753173828125,1,1.0,1.0,1.0,1.0,10.00
2024-10-11 20:19:24.425,0.55867267,0.67444736,0.95988405,0.6777224,0.4945904,0.12202066,0.506296,0.46116534,0.6592171,0.099944726,0.28483525,0.59461206,0.34570742,0.23830065,-0.06830554,0.5212029,-0.08182736,-0.19677009,-0.23721208,0.009938545,800.6227,788.93774,809.0842,821.978,1200.3297,-0.02008056640625,-0.0115966796875,1.01513671875,-4.2767333984375,2.52716064453125,-2.40753173828125,1,1.0,1.0,1.0,1.0,10.00
2024-10-11 20:19:24.426,0.55867267,0.67444736,0.95988405,0.6777224,0.4945904,0.12202066,0.506296,0.46116534,0.6592171,0.099944726,0.28483525,0.59461206,0.34570742,0.23830065,-0.06830554,0.5212029,-0.08182736,-0.19677009,-0.23721208,0.009938545,797.3993,792.1612,811.0989,817.1429,867.9121,-0.02008056640625,-0.0115966796875,1.01513671875,-4.2767333984375,2.52716064453125,-2.40753173828125,1,1.0,1.0,1.0,1.0,10.00
2024-10-11 20:19:24.513,0.55867267,0.67444736,0.95988405,0.6777224,0.4945904,0.12202066,0.506296,0.46116534,0.6592171,0.099944726,0.28483525,0.59461206,0.34570742,0.23830065,-0.06830554,0.5212029,-0.08182736,-0.19677009,-0.23721208,0.009938545,804.2491,797.3993,811.50183,811.0989,549.59705,-0.04718017578125,-0.01953125,1.001708984375,-5.86181640625,1.532745361328125,-5.14404296875,1,1.0,1.0,1.0,1.0,10.00
2024-10-11 20:19:24.514,0.55867267,0.67444736,0.95988405,0.6777224,0.4945904,0.12202066,0.506296,0.46116534,0.6592171,0.099944726,0.28483525,0.59461206,0.34570742,0.23830065,-0.06830554,0.5212029,-0.08182736,-0.19677009,-0.23721208,0.009938545,804.2491,800.2198,809.4872,813.91943,846.9597,-0.04718017578125,-0.01953125,1.001708984375,-5.86181640625,1.532745361328125,-5.14404296875,1,1.0,1.0,1.0,1.0,10.00
2024-10-11 20:19:24.515,0.55867267,0.67444736,0.95988405,0.6777224,0.4945904,0.12202066,0.506296,0.46116534,0.6592171,0.099944726,0.28483525,0.59461206,0.34570742,0.23830065,-0.06830554,0.5212029,-0.08182736,-0.19677009,-0.23721208,0.009938545,792.1612,801.8315,807.47253,811.0989,947.28937,-0.04718017578125,-0.01953125,1.001708984375,-5.86181640625,1.532745361328125,-5.14404296875,1,1.0,1.0,1.0,1.0,10.00
2024-10-11 20:19:24.515,0.55867267,0.67444736,0.95988405,0.6777224,0.4945904,0.12202066,0.506296,0.46116534,0.6592171,0.099944726,0.28483525,0.59461206,0.34570742,0.23830065,-0.06830554,0.5212029,-0.08182736,-0.19677009,-0.23721208,0.009938545,782.0879,796.99634,810.293,809.4872,661.6117,-0.04718017578125,-0.01953125,1.001708984375,-5.86181640625,1.532745361328125,-5.14404296875,1,1.0,1.0,1.0,1.0,10.00
2024-10-11 20:19:24.516,0.55867267,0.67444736,0.95988405,0.6777224,0.4945904,0.12202066,0.506296,0.46116534,0.6592171,0.099944726,0.28483525,0.59461206,0.34570742,0.23830065,-0.06830554,0.5212029,-0.08182736,-0.19677009,-0.23721208,0.009938545,785.31134,796.5934,810.293,814.7253,557.6557,-0.04718017578125,-0.01953125,1.001708984375,-5.86181640625,1.532745361328125,-5.14404296875,1,1.0,1.0,1.0,1.0,10.00
2024-10-11 20:19:24.517,0.55867267,0.67444736,0.95988405,0.6777224,0.4945904,0.12202066,0.506296,0.46116534,0.6592171,0.099944726,0.28483525,0.59461206,0.34570742,0.23830065,-0.06830554,0.5212029,-0.08182736,-0.19677009,-0.23721208,0.009938545,784.5055,796.99634,818.3516,811.0989,818.3516,-0.04718017578125,-0.01953125,1.001708984375,-5.86181640625,1.532745361328125,-5.14404296875,1,1.0,1.0,1.0,1.0,10.00
2024-10-11 20:19:24.517,0.55867267,0.67444736,0.95988405,0.6777224,0.4945904,0.12202066,0.506296,0.46116534,0.6592171,0.099944726,0.28483525,0.59461206,0.34570742,0.23830065,-0.06830554,0.5212029,-0.08182736,-0.19677009,-0.23721208,0.009938545,782.49084,798.60803,816.7399,812.3077,925.12823,-0.04718017578125,-0.01953125,1.001708984375,-5.86181640625,1.532745361328125,-5.14404296875,1,1.0,1.0,1.0,1.0,10.00
2024-10-11 20:19:24.518,0.55867267,0.67444736,0.95988405,0.6777224,0.4945904,0.12202066,0.506296,0.46116534,0.6592171,0.099944726,0.28483525,0.59461206,0.34570742,0.23830065,-0.06830554,0.5212029,-0.08182736,-0.19677009,-0.23721208,0.009938545,788.93774,790.54944,809.0842,814.7253,676.1172,-0.04718017578125,-0.01953125,1.001708984375,-5.86181640625,1.532745361328125,-5.14404296875,1,1.0,1.0,1.0,1.0,10.00
2024-10-11 20:19:24.519,0.55867267,0.67444736,0.95988405,0.6777224,0.4945904,0.12202066,0.506296,0.46116534,0.6592171,0.099944726,0.28483525,0.59461206,0.34570742,0.23830065,-0.06830554,0.5212029,-0.08182736,-0.19677009,-0.23721208,0.009938545,806.6667,783.69965,813.5165,815.9341,625.34796,-0.04718017578125,-0.01953125,1.001708984375,-5.86181640625,1.532745361328125,-5.14404296875,1,1.0,1.0,1.0,1.0,10.00
2024-10-11 20:19:24.519,0.55867267,0.67444736,0.95988405,0.6777224,0.4945904,0.12202066,0.506296,0.46116534,0.6592171,0.099944726,0.28483525,0.59461206,0.34570742,0.23830065,-0.06830554,0.5212029,-0.08182736,-0.19677009,-0.23721208,0.009938545,808.68134,796.1905,806.26373,812.71063,740.989,-0.04718017578125,-0.01953125,1.001708984375,-5.86181640625,1.532745361328125,-5.14404296875,1,1.0,1.0,1.0,1.0,10.00
2024-10-11 20:19:24.520,0.55867267,0.67444736,0.95988405,0.6777224,0.4945904,0.12202066,0.506296,0.46116534,0.6592171,0.099944726,0.28483525,0.59461206,0.34570742,0.23830065,-0.06830554,0.5212029,-0.08182736,-0.19677009,-0.23721208,0.009938545,807.47253,803.44324,805.8608,810.293,735.7509,-0.04718017578125,-0.01953125,1.001708984375,-5.86181640625,1.532745361328125,-5.14404296875,1,1.0,1.0,1.0,1.0,10.00
2024-10-11 20:19:24.521,0.55867267,0.67444736,0.95988405,0.6777224,0.4945904,0.12202066,0.506296,0.46116534,0.6592171,0.099944726,0.28483525,0.59461206,0.34570742,0.23830065,-0.06830554,0.5212029,-0.08182736,-0.19677009,-0.23721208,0.009938545,808.68134,794.9817,806.6667,809.89014,753.8828,-0.04718017578125,-0.01953125,1.001708984375,-5.86181640625,1.532745361328125,-5.14404296875,1,1.0,1.0,1.0,1.0,10.00
2024-10-11 20:19:24.580,0.55867267,0.67444736,0.95988405,0.6777224,0.4945904,0.12202066,0.506296,0.46116534,0.6592171,0.099944726,0.28483525,0.59461206,0.34570742,0.23830065,-0.06830554,0.5212029,-0.08182736,-0.19677009,-0.23721208,0.009938545,809.89014,798.20514,803.8461,811.50183,693.0403,-0.04766845703125,-0.02227783203125,1.014404296875,-6.69921875,-1.158905029296875,-11.357269287109375,1,1.0,1.0,1.0,1.0,10.00
2024-10-11 20:19:24.581,0.55867267,0.67444736,0.95988405,0.6777224,0.4945904,0.12202066,0.506296,0.46116534,0.6592171,0.099944726,0.28483525,0.59461206,0.34570742,0.23830065,-0.06830554,0.5212029,-0.08182736,-0.19677009,-0.23721208,0.009938545,807.8755,805.4579,803.44324,809.4872,828.4249,-0.04766845703125,-0.02227783203125,1.014404296875,-6.69921875,-1.158905029296875,-11.357269287109375,1,1.0,1.0,1.0,1.0,10.00
2024-10-11 20:19:24.582,0.55867267,0.67444736,0.95988405,0.6777224,0.4945904,0.12202066,0.506296,0.46116534,0.6592171,0.099944726,0.28483525,0.59461206,0.34570742,0.23830065,-0.06830554,0.5212029,-0.08182736,-0.19677009,-0.23721208,0.009938545,788.93774,792.96704,804.2491,805.8608,926.337,-0.04766845703125,-0.02227783203125,1.014404296875,-6.69921875,-1.158905029296875,-11.357269287109375,1,1.0,1.0,1.0,1.0,10.00
2024-10-11 20:19:24.582,0.55867267,0.67444736,0.95988405,0.6777224,0.4945904,0.12202066,0.506296,0.46116534,0.6592171,0.099944726,0.28483525,0.59461206,0.34570742,0.23830065,-0.06830554,0.5212029,-0.08182736,-0.19677009,-0.23721208,0.009938545,793.36993,794.9817,807.0696,808.68134,726.08057,-0.04766845703125,-0.02227783203125,1.014404296875,-6.69921875,-1.158905029296875,-11.357269287109375,1,1.0,1.0,1.0,1.0,10.00
2024-10-11 20:19:24.583,0.55867267,0.67444736,0.95988405,0.6777224,0.4945904,0.12202066,0.506296,0.46116534,0.6592171,0.099944726,0.28483525,0.59461206,0.34570742,0.23830065,-0.06830554,0.5212029,-0.08182736,-0.19677009,-0.23721208,0.009938545,795.78754,796.1905,801.8315,809.0842,700.696,-0.04766845703125,-0.02227783203125,1.014404296875,-6.69921875,-1.158905029296875,-11.357269287109375,1,1.0,1.0,1.0,1.0,10.00
2024-10-11 20:19:24.584,0.55867267,0.67444736,0.95988405,0.6777224,0.4945904,0.12202066,0.506296,0.46116534,0.6592171,0.099944726,0.28483525,0.59461206,0.34570742,0.23830065,-0.06830554,0.5212029,-0.08182736,-0.19677009,-0.23721208,0.009938545,788.5348,786.52014,796.5934,808.2784,894.90845,-0.04766845703125,-0.02227783203125,1.014404296875,-6.69921875,-1.158905029296875,-11.357269287109375,1,1.0,1.0,1.0,1.0,10.00
2024-10-11 20:19:24.584,0.55867267,0.67444736,0.95988405,0.6777224,0.4945904,0.12202066,0.506296,0.46116534,0.6592171,0.099944726,0.28483525,0.59461206,0.34570742,0.23830065,-0.06830554,0.5212029,-0.08182736,-0.19677009,-0.23721208,0.009938545,792.1612,791.3553,807.47253,817.9487,1023.44324,-0.04766845703125,-0.02227783203125,1.014404296875,-6.69921875,-1.158905029296875,-11.357269287109375,1,1.0,1.0,1.0,1.0,10.00
2024-10-11 20:19:24.585,0.55867267,0.67444736,0.95988405,0.6777224,0.4945904,0.12202066,0.506296,0.46116534,0.6592171,0.099944726,0.28483525,0.59461206,0.34570742,0.23830065,-0.06830554,0.5212029,-0.08182736,-0.19677009,-0.23721208,0.009938545,791.75824,793.7729,806.6667,815.5311,858.24176,-0.04766845703125,-0.02227783203125,1.014404296875,-6.69921875,-1.158905029296875,-11.357269287109375,1,1.0,1.0,1.0,1.0,10.00
2024-10-11 20:19:24.586,0.55867267,0.67444736,0.95988405,0.6777224,0.4945904,0.12202066,0.506296,0.46116534,0.6592171,0.099944726,0.28483525,0.59461206,0.34570742,0.23830065,-0.06830554,0.5212029,-0.08182736,-0.19677009,-0.23721208,0.009938545,793.7729,783.2967,798.20514,806.6667,765.9707,-0.04766845703125,-0.02227783203125,1.014404296875,-6.69921875,-1.158905029296875,-11.357269287109375,1,1.0,1.0,1.0,1.0,10.00
2024-10-11 20:19:24.586,0.55867267,0.72933793,0.9143074,0.6777224,0.4945904,0.13871178,0.45623922,0.46116534,0.6592171,0.100078106,0.27015057,0.59461206,0.34570742,0.24572562,-0.07711738,0.5212029,-0.08182736,-0.19714545,-0.22979735,0.009938545,794.9817,789.7436,802.6374,816.7399,826.4103,-0.04766845703125,-0.02227783203125,1.014404296875,-6.69921875,-1.158905029296875,-11.357269287109375,1,1.0,1.0,1.0,1.0,10.00
2024-10-11 20:19:24.592,0.55867267,0.72933793,0.9143074,0.6777224,0.4945904,0.13871178,0.45623922,0.46116534,0.6592171,0.100078106,0.27015057,0.59461206,0.34570742,0.24572562,-0.07711738,0.5212029,-0.08182736,-0.19714545,-0.22979735,0.009938545,802.23444,803.8461,801.4286,819.9634,690.2198,-0.04766845703125,-0.02227783203125,1.014404296875,-6.69921875,-1.158905029296875,-11.357269287109375,1,1.0,1.0,1.0,1.0,10.00
2024-10-11 20:19:24.593,0.55867267,0.72933793,0.9143074,0.6777224,0.4945904,0.13871178,0.45623922,0.46116534,0.6592171,0.100078106,0.27015057,0.59461206,0.34570742,0.24572562,-0.07711738,0.5212029,-0.08182736,-0.19714545,-0.22979735,0.009938545,806.26373,802.23444,800.2198,818.3516,672.49084,-0.04766845703125,-0.02227783203125,1.014404296875,-6.69921875,-1.158905029296875,-11.357269287109375,1,1.0,1.0,1.0,1.0,10.00
2024-10-11 20:19:24.665,0.55867267,0.72933793,0.9143074,0.6777224,0.4945904,0.13871178,0.45623922,0.46116534,0.6592171,0.100078106,0.27015057,0.59461206,0.34570742,0.24572562,-0.07711738,0.5212029,-0.08182736,-0.19714545,-0.22979735,0.009938545,798.20514,800.2198,802.6374,821.5751,781.28204,-0.03009033203125,-0.0362548828125,1.00927734375,-6.990814208984375,-1.996307373046875,-16.202239990234375,1,1.0,1.0,1.0,1.0,10.00
2024-10-11 20:19:24.666,0.55867267,0.72933793,0.9143074,0.6777224,0.4945904,0.13871178,0.45623922,0.46116534,0.6592171,0.100078106,0.27015057,0.59461206,0.34570742,0.24572562,-0.07711738,0.5212029,-0.08182736,-0.19714545,-0.22979735,0.009938545,801.02563,801.4286,802.23444,819.15753,763.1502,-0.03009033203125,-0.0362548828125,1.00927734375,-6.990814208984375,-1.996307373046875,-16.202239990234375,1,1.0,1.0,1.0,1.0,10.00
2024-10-11 20:19:24.666,0.55867267,0.72933793,0.9143074,0.6777224,0.4945904,0.13871178,0.45623922,0.46116534,0.6592171,0.100078106,0.27015057,0.59461206,0.34570742,0.24572562,-0.07711738,0.5212029,-0.08182736,-0.19714545,-0.22979735,0.009938545,810.696,803.44324,795.38464,813.91943,692.6374,-0.03009033203125,-0.0362548828125,1.00927734375,-6.990814208984375,-1.996307373046875,-16.202239990234375,1,1.0,1.0,1.0,1.0,10.00
2024-10-11 20:19:24.667,0.55867267,0.72933793,0.9143074,0.6777224,0.4945904,0.13871178,0.45623922,0.46116534,0.6592171,0.100078106,0.27015057,0.59461206,0.34570742,0.24572562,-0.07711738,0.5212029,-0.08182736,-0.19714545,-0.22979735,0.009938545,811.9048,799.41394,794.57874,807.47253,695.8608,-0.03009033203125,-0.0362548828125,1.00927734375,-6.990814208984375,-1.996307373046875,-16.202239990234375,1,1.0,1.0,1.0,1.0,10.00
2024-10-11 20:19:24.668,0.55867267,0.72933793,0.9143074,0.6777224,0.4945904,0.13871178,0.45623922,0.46116534,0.6592171,0.100078106,0.27015057,0.59461206,0.34570742,0.24572562,-0.07711738,0.5212029,-0.08182736,-0.19714545,-0.22979735,0.009938545,805.4579,788.93774,805.4579,807.0696,894.90845,-0.03009033203125,-0.0362548828125,1.00927734375,-6.990814208984375,-1.996307373046875,-16.202239990234375,1,1.0,1.0,1.0,1.0,10.00
2024-10-11 20:19:24.669,0.55867267,0.72933793,0.9143074,0.6777224,0.4945904,0.13871178,0.45623922,0.46116534,0.6592171,0.100078106,0.27015057,0.59461206,0.34570742,0.24572562,-0.07711738,0.5212029,-0.08182736,-0.19714545,-0.22979735,0.009938545,811.50183,775.64105,810.293,823.1868,928.3516,-0.03009033203125,-0.0362548828125,1.00927734375,-6.990814208984375,-1.996307373046875,-16.202239990234375,1,1.0,1.0,1.0,1.0,10.00
2024-10-11 20:19:24.669,0.55867267,0.72933793,0.9143074,0.6777224,0.4945904,0.13871178,0.45623922,0.46116534,0.6592171,0.100078106,0.27015057,0.59461206,0.34570742,0.24572562,-0.07711738,0.5212029,-0.08182736,-0.19714545,-0.22979735,0.009938545,819.9634,786.52014,808.2784,824.3956,748.6447,-0.03009033203125,-0.0362548828125,1.00927734375,-6.990814208984375,-1.996307373046875,-16.202239990234375,1,1.0,1.0,1.0,1.0,10.00
2024-10-11 20:19:24.670,0.55867267,0.72933793,0.9143074,0.6777224,0.4945904,0.13871178,0.45623922,0.46116534,0.6592171,0.100078106,0.27015057,0.59461206,0.34570742,0.24572562,-0.07711738,0.5212029,-0.08182736,-0.19714545,-0.22979735,0.009938545,793.36993,802.23444,799.81683,799.41394,759.12085,-0.03009033203125,-0.0362548828125,1.00927734375,-6.990814208984375,-1.996307373046875,-16.202239990234375,1,1.0,1.0,1.0,1.0,10.00
2024-10-11 20:19:24.671,0.55867267,0.72933793,0.9143074,0.6777224,0.4945904,0.13871178,0.45623922,0.46116534,0.6592171,0.100078106,0.27015057,0.59461206,0.34570742,0.24572562,-0.07711738,0.5212029,-0.08182736,-0.19714545,-0.22979735,0.009938545,784.10254,799.81683,794.9817,792.96704,713.1868,-0.03009033203125,-0.0362548828125,1.00927734375,-6.990814208984375,-1.996307373046875,-16.202239990234375,1,1.0,1.0,1.0,1.0,10.00
2024-10-11 20:19:24.671,0.55867267,0.72933793,0.9143074,0.6777224,0.4945904,0.13871178,0.45623922,0.46116534,0.6592171,0.100078106,0.27015057,0.59461206,0.34570742,0.24572562,-0.07711738,0.5212029,-0.08182736,-0.19714545,-0.22979735,0.009938545,782.0879,793.7729,789.34064,785.31134,651.13556,-0.03009033203125,-0.0362548828125,1.00927734375,-6.990814208984375,-1.996307373046875,-16.202239990234375,1,1.0,1.0,1.0,1.0,10.00
2024-10-11 20:19:24.672,0.55867267,0.72933793,0.9143074,0.6777224,0.4945904,0.13871178,0.45623922,0.46116534,0.6592171,0.100078106,0.27015057,0.59461206,0.34570742,0.24572562,-0.07711738,0.5212029,-0.08182736,-0.19714545,-0.22979735,0.009938545,786.1172,797.8022,787.326,790.14655,582.23444,-0.03009033203125,-0.0362548828125,1.00927734375,-6.990814208984375,-1.996307373046875,-16.202239990234375,1,1.0,1.0,1.0,1.0,10.00
2024-10-11 20:19:24.673,0.55867267,0.72933793,0.9143074,0.6777224,0.4945904,0.13871178,0.45623922,0.46116534,0.6592171,0.100078106,0.27015057,0.59461206,0.34570742,0.24572562,-0.07711738,0.5212029,-0.08182736,-0.19714545,-0.22979735,0.009938545,796.5934,803.0403,792.1612,788.1319,697.8755,-0.03009033203125,-0.0362548828125,1.00927734375,-6.990814208984375,-1.996307373046875,-16.202239990234375,1,1.0,1.0,1.0,1.0,10.00
2024-10-11 20:19:24.699,0.55867267,0.72933793,0.9143074,0.6777224,0.4945904,0.13871178,0.45623922,0.46116534,0.6592171,0.100078106,0.27015057,0.59461206,0.34570742,0.24572562,-0.07711738,0.5212029,-0.08182736,-0.19714545,-0.22979735,0.009938545,788.5348,801.8315,785.31134,783.69965,792.1612,-0.03009033203125,-0.0362548828125,1.00927734375,-6.990814208984375,-1.996307373046875,-16.202239990234375,1,1.0,1.0,1.0,1.0,10.00
2024-10-11 20:19:24.700,0.55867267,0.72933793,0.9143074,0.6777224,0.4945904,0.13871178,0.45623922,0.46116534,0.6592171,0.100078106,0.27015057,0.59461206,0.34570742,0.24572562,-0.07711738,0.5212029,-0.08182736,-0.19714545,-0.22979735,0.009938545,787.72894,801.8315,780.07324,784.90845,699.0842,-0.03009033203125,-0.0362548828125,1.00927734375,-6.990814208984375,-1.996307373046875,-16.202239990234375,1,1.0,1.0,1.0,1.0,10.00
2024-10-11 20:19:24.701,0.55867267,0.72933793,0.9143074,0.6777224,0.4945904,0.13871178,0.45623922,0.46116534,0.6592171,0.100078106,0.27015057,0.59461206,0.34570742,0.24572562,-0.07711738,0.5212029,-0.08182736,-0.19714545,-0.22979735,0.009938545,786.1172,801.4286,778.0586,772.01465,716.0073,-0.03009033203125,-0.0362548828125,1.00927734375,-6.990814208984375,-1.996307373046875,-16.202239990234375,1,1.0,1.0,1.0,1.0,10.00
2024-10-11 20:19:24.702,0.55867267,0.72933793,0.9143074,0.6777224,0.4945904,0.13871178,0.45623922,0.46116534,0.6592171,0.100078106,0.27015057,0.59461206,0.34570742,0.24572562,-0.07711738,0.5212029,-0.08182736,-0.19714545,-0.22979735,0.009938545,792.5641,805.4579,776.4469,784.90845,912.23444,-0.03009033203125,-0.0362548828125,1.00927734375,-6.990814208984375,-1.996307373046875,-16.202239990234375,1,1.0,1.0,1.0,1.0,10.00
2024-10-11 20:19:24.703,0.55867267,0.72933793,0.9143074,0.6777224,0.4945904,0.13871178,0.45623922,0.46116534,0.6592171,0.100078106,0.27015057,0.59461206,0.34570742,0.24572562,-0.07711738,0.5212029,-0.08182736,-0.19714545,-0.22979735,0.009938545,794.9817,803.0403,771.6117,784.5055,991.6117,-0.03009033203125,-0.0362548828125,1.00927734375,-6.990814208984375,-1.996307373046875,-16.202239990234375,1,1.0,1.0,1.0,1.0,10.00
2024-10-11 20:19:24.703,0.55867267,0.72933793,0.9143074,0.6777224,0.4945904,0.13871178,0.45623922,0.46116534,0.6592171,0.100078106,0.27015057,0.59461206,0.34570742,0.24572562,-0.07711738,0.5212029,-0.08182736,-0.19714545,-0.22979735,0.009938545,784.10254,805.8608,772.8205,777.25275,955.34796,-0.03009033203125,-0.0362548828125,1.00927734375,-6.990814208984375,-1.996307373046875,-16.202239990234375,1,1.0,1.0,1.0,1.0,10.00
2024-10-11 20:19:24.704,0.55867267,0.72933793,0.9143074,0.6777224,0.4945904,0.13871178,0.45623922,0.46116534,0.6592171,0.100078106,0.27015057,0.59461206,0.34570742,0.24572562,-0.07711738,0.5212029,-0.08182736,-0.19714545,-0.22979735,0.009938545,788.93774,807.0696,777.25275,782.49084,877.1795,-0.03009033203125,-0.0362548828125,1.00927734375,-6.990814208984375,-1.996307373046875,-16.202239990234375,1,1.0,1.0,1.0,1.0,10.00
2024-10-11 20:19:24.705,0.55867267,0.72933793,0.9143074,0.6777224,0.4945904,0.13871178,0.45623922,0.46116534,0.6592171,0.100078106,0.27015057,0.59461206,0.34570742,0.24572562,-0.07711738,0.5212029,-0.08182736,-0.19714545,-0.22979735,0.009938545,790.9524,796.5934,777.25275,782.49084,894.90845,-0.03009033203125,-0.0362548828125,1.00927734375,-6.990814208984375,-1.996307373046875,-16.202239990234375,1,1.0,1.0,1.0,1.0,10.00
2024-10-11 20:19:24.705,0.55867267,0.72933793,0.9143074,0.6777224,0.4945904,0.13871178,0.45623922,0.46116534,0.6592171,0.100078106,0.27015057,0.59461206,0.34570742,0.24572562,-0.07711738,0.5212029,-0.08182736,-0.19714545,-0.22979735,0.009938545,792.5641,807.0696,768.3883,787.326,1000.87915,-0.03009033203125,-0.0362548828125,1.00927734375,-6.990814208984375,-1.996307373046875,-16.202239990234375,1,1.0,1.0,1.0,1.0,10.00
2024-10-11 20:19:24.706,0.55867267,0.72933793,0.9143074,0.6777224,0.4945904,0.13871178,0.45623922,0.46116534,0.6592171,0.100078106,0.27015057,0.59461206,0.34570742,0.24572562,-0.07711738,0.5212029,-0.08182736,-0.19714545,-0.22979735,0.009938545,791.75824,815.5311,761.13556,775.2381,859.45056,-0.03009033203125,-0.0362548828125,1.00927734375,-6.990814208984375,-1.996307373046875,-16.202239990234375,1,1.0,1.0,1.0,1.0,10.00
2024-10-11 20:19:24.707,0.55867267,0.72933793,0.9143074,0.6777224,0.4945904,0.13871178,0.45623922,0.46116534,0.6592171,0.100078106,0.27015057,0.59461206,0.34570742,0.24572562,-0.07711738,0.5212029,-0.08182736,-0.19714545,-0.22979735,0.009938545,788.93774,807.0696,764.35895,754.2857,719.2308,-0.03009033203125,-0.0362548828125,1.00927734375,-6.990814208984375,-1.996307373046875,-16.202239990234375,1,1.0,1.0,1.0,1.0,10.00
2024-10-11 20:19:24.707,0.55867267,0.77627206,0.8541343,0.6777224,0.4945904,0.14681104,0.38308665,0.46116534,0.6592171,0.11344789,0.25822636,0.59461206,0.34570742,0.2477696,-0.088259816,0.5212029,-0.08182736,-0.19093445,-0.21647643,0.009938545,799.011,801.4286,772.01465,772.8205,953.73627,-0.03009033203125,-0.0362548828125,1.00927734375,-6.990814208984375,-1.996307373046875,-16.202239990234375,1,1.0,1.0,1.0,1.0,10.00
2024-10-11 20:19:24.714,0.55867267,0.77627206,0.8541343,0.6777224,0.4945904,0.14681104,0.38308665,0.46116534,0.6592171,0.11344789,0.25822636,0.59461206,0.34570742,0.2477696,-0.088259816,0.5212029,-0.08182736,-0.19093445,-0.21647643,0.009938545,797.8022,803.44324,775.64105,789.7436,1164.8718,-0.0189208984375,-0.04595947265625,1.00042724609375,-5.5029296875,0.19439697265625,-17.34619140625,1,1.0,1.0,1.0,1.0,10.00
2024-10-11 20:19:24.714,0.55867267,0.77627206,0.8541343,0.6777224,0.4945904,0.14681104,0.38308665,0.46116534,0.6592171,0.11344789,0.25822636,0.59461206,0.34570742,0.2477696,-0.088259816,0.5212029,-0.08182736,-0.19093445,-0.21647643,0.009938545,791.3553,798.20514,774.43225,779.2674,842.52747,-0.0189208984375,-0.04595947265625,1.00042724609375,-5.5029296875,0.19439697265625,-17.34619140625,1,1.0,1.0,1.0,1.0,10.00
2024-10-11 20:19:24.715,0.55867267,0.77627206,0.8541343,0.6777224,0.4945904,0.14681104,0.38308665,0.46116534,0.6592171,0.11344789,0.25822636,0.59461206,0.34570742,0.2477696,-0.088259816,0.5212029,-0.08182736,-0.19093445,-0.21647643,0.009938545,801.4286,797.3993,769.19415,779.67035,671.28204,-0.0189208984375,-0.04595947265625,1.00042724609375,-5.5029296875,0.19439697265625,-17.34619140625,1,1.0,1.0,1.0,1.0,10.00
2024-10-11 20:19:24.716,0.55867267,0.77627206,0.8541343,0.6777224,0.4945904,0.14681104,0.38308665,0.46116534,0.6592171,0.11344789,0.25822636,0.59461206,0.34570742,0.2477696,-0.088259816,0.5212029,-0.08182736,-0.19093445,-0.21647643,0.009938545,808.68134,806.26373,760.7326,784.90845,894.5055,-0.0189208984375,-0.04595947265625,1.00042724609375,-5.5029296875,0.19439697265625,-17.34619140625,1,1.0,1.0,1.0,1.0,10.00
2024-10-11 20:19:24.716,0.55867267,0.77627206,0.8541343,0.6777224,0.4945904,0.14681104,0.38308665,0.46116534,0.6592171,0.11344789,0.25822636,0.59461206,0.34570742,0.2477696,-0.088259816,0.5212029,-0.08182736,-0.19093445,-0.21647643,0.009938545,805.05493,809.89014,765.16486,783.69965,973.47986,-0.0189208984375,-0.04595947265625,1.00042724609375,-5.5029296875,0.19439697265625,-17.34619140625,1,1.0,1.0,1.0,1.0,10.00
2024-10-11 20:19:24.717,0.55867267,0.77627206,0.8541343,0.6777224,0.4945904,0.14681104,0.38308665,0.46116534,0.6592171,0.11344789,0.25822636,0.59461206,0.34570742,0.2477696,-0.088259816,0.5212029,-0.08182736,-0.19093445,-0.21647643,0.009938545,810.293,812.3077,766.3736,786.9231,826.8132,-0.0189208984375,-0.04595947265625,1.00042724609375,-5.5029296875,0.19439697265625,-17.34619140625,1,1.0,1.0,1.0,1.0,10.00
2024-10-11 20:19:24.718,0.55867267,0.77627206,0.8541343,0.6777224,0.4945904,0.14681104,0.38308665,0.46116534,0.6592171,0.11344789,0.25822636,0.59461206,0.34570742,0.2477696,-0.088259816,0.5212029,-0.08182736,-0.19093445,-0.21647643,0.009938545,816.7399,805.8608,760.32965,788.1319,877.1795,-0.0189208984375,-0.04595947265625,1.00042724609375,-5.5029296875,0.19439697265625,-17.34619140625,1,1.0,1.0,1.0,1.0,10.00
2024-10-11 20:19:24.719,0.55867267,0.77627206,0.8541343,0.6777224,0.4945904,0.14681104,0.38308665,0.46116534,0.6592171,0.11344789,0.25822636,0.59461206,0.34570742,0.2477696,-0.088259816,0.5212029,-0.08182736,-0.19093445,-0.21647643,0.009938545,817.5458,806.26373,762.74725,786.9231,1104.0293,-0.0189208984375,-0.04595947265625,1.00042724609375,-5.5029296875,0.19439697265625,-17.34619140625,1,1.0,1.0,1.0,1.0,10.00
2024-10-11 20:19:24.719,0.55867267,0.77627206,0.8541343,0.6777224,0.4945904,0.14681104,0.38308665,0.46116534,0.6592171,0.11344789,0.25822636,0.59461206,0.34570742,0.2477696,-0.088259816,0.5212029,-0.08182736,-0.19093445,-0.21647643,0.009938545,811.9048,805.8608,770.80585,794.9817,963.4066,-0.0189208984375,-0.04595947265625,1.00042724609375,-5.5029296875,0.19439697265625,-17.34619140625,1,1.0,1.0,1.0,1.0,10.00
2024-10-11 20:19:24.720,0.55867267,0.77627206,0.8541343,0.6777224,0.4945904,0.14681104,0.38308665,0.46116534,0.6592171,0.11344789,0.25822636,0.59461206,0.34570742,0.2477696,-0.088259816,0.5212029,-0.08182736,-0.19093445,-0.21647643,0.009938545,809.4872,808.2784,776.04395,792.1612,559.2674,-0.0189208984375,-0.04595947265625,1.00042724609375,-5.5029296875,0.19439697265625,-17.34619140625,1,1.0,1.0,1.0,1.0,10.00
2024-10-11 20:19:24.721,0.55867267,0.77627206,0.8541343,0.6777224,0.4945904,0.14681104,0.38308665,0.46116534,0.6592171,0.11344789,0.25822636,0.59461206,0.34570742,0.2477696,-0.088259816,0.5212029,-0.08182736,-0.19093445,-0.21647643,0.009938545,815.12823,811.9048,769.19415,783.2967,494.79852,-0.0189208984375,-0.04595947265625,1.00042724609375,-5.5029296875,0.19439697265625,-17.34619140625,1,1.0,1.0,1.0,1.0,10.00
2024-10-11 20:19:24.721,0.55867267,0.77627206,0.8541343,0.6777224,0.4945904,0.14681104,0.38308665,0.46116534,0.6592171,0.11344789,0.25822636,0.59461206,0.34570742,0.2477696,-0.088259816,0.5212029,-0.08182736,-0.19093445,-0.21647643,0.009938545,813.91943,807.0696,764.35895,777.6557,576.5934,-0.0189208984375,-0.04595947265625,1.00042724609375,-5.5029296875,0.19439697265625,-17.34619140625,1,1.0,1.0,1.0,1.0,10.00
2024-10-11 20:19:24.750,0.55867267,0.77627206,0.8541343,0.6777224,0.4945904,0.14681104,0.38308665,0.46116534,0.6592171,0.11344789,0.25822636,0.59461206,0.34570742,0.2477696,-0.088259816,0.5212029,-0.08182736,-0.19093445,-0.21647643,0.009938545,805.8608,808.68134,763.5531,782.49084,589.89014,-0.02197265625,-0.05511474609375,1.00970458984375,-3.701019287109375,2.893524169921875,-14.990997314453125,1,1.0,1.0,1.0,1.0,10.00
2024-10-11 20:19:24.751,0.55867267,0.77627206,0.8541343,0.6777224,0.4945904,0.14681104,0.38308665,0.46116534,0.6592171,0.11344789,0.25822636,0.59461206,0.34570742,0.2477696,-0.088259816,0.5212029,-0.08182736,-0.19093445,-0.21647643,0.009938545,807.0696,811.9048,765.16486,785.31134,608.8278,-0.02197265625,-0.05511474609375,1.00970458984375,-3.701019287109375,2.893524169921875,-14.990997314453125,1,1.0,1.0,1.0,1.0,10.00
2024-10-11 20:19:24.752,0.55867267,0.77627206,0.8541343,0.6777224,0.4945904,0.14681104,0.38308665,0.46116534,0.6592171,0.11344789,0.25822636,0.59461206,0.34570742,0.2477696,-0.088259816,0.5212029,-0.08182736,-0.19093445,-0.21647643,0.009938545,810.696,813.5165,772.8205,782.8938,630.18317,-0.02197265625,-0.05511474609375,1.00970458984375,-3.701019287109375,2.893524169921875,-14.990997314453125,1,1.0,1.0,1.0,1.0,10.00
2024-10-11 20:19:24.753,0.55867267,0.77627206,0.8541343,0.6777224,0.4945904,0.14681104,0.38308665,0.46116534,0.6592171,0.11344789,0.25822636,0.59461206,0.34570742,0.2477696,-0.088259816,0.5212029,-0.08182736,-0.19093445,-0.21647643,0.009938545,816.337,809.89014,773.22345,791.75824,651.9414,-0.02197265625,-0.05511474609375,1.00970458984375,-3.701019287109375,2.893524169921875,-14.990997314453125,1,1.0,1.0,1.0,1.0,10.00
2024-10-11 20:19:24.753,0.55867267,0.77627206,0.8541343,0.6777224,0.4945904,0.14681104,0.38308665,0.46116534,0.6592171,0.11344789,0.25822636,0.59461206,0.34570742,0.2477696,-0.088259816,0.5212029,-0.08182736,-0.19093445,-0.21647643,0.009938545,815.5311,810.696,772.8205,794.17584,678.5348,-0.02197265625,-0.05511474609375,1.00970458984375,-3.701019287109375,2.893524169921875,-14.990997314453125,1,1.0,1.0,1.0,1.0,10.00
2024-10-11 20:19:24.754,0.55867267,0.77627206,0.8541343,0.6777224,0.4945904,0.14681104,0.38308665,0.46116534,0.6592171,0.11344789,0.25822636,0.59461206,0.34570742,0.2477696,-0.088259816,0.5212029,-0.08182736,-0.19093445,-0.21647643,0.009938545,805.05493,811.0989,776.4469,803.0403,792.5641,-0.02197265625,-0.05511474609375,1.00970458984375,-3.701019287109375,2.893524169921875,-14.990997314453125,1,1.0,1.0,1.0,1.0,10.00
2024-10-11 20:19:24.755,0.55867267,0.77627206,0.8541343,0.6777224,0.4945904,0.14681104,0.38308665,0.46116534,0.6592171,0.11344789,0.25822636,0.59461206,0.34570742,0.2477696,-0.088259816,0.5212029,-0.08182736,-0.19093445,-0.21647643,0.009938545,805.05493,801.4286,778.46155,805.05493,950.10986,-0.02197265625,-0.05511474609375,1.00970458984375,-3.701019287109375,2.893524169921875,-14.990997314453125,1,1.0,1.0,1.0,1.0,10.00
2024-10-11 20:19:24.755,0.55867267,0.77627206,0.8541343,0.6777224,0.4945904,0.14681104,0.38308665,0.46116534,0.6592171,0.11344789,0.25822636,0.59461206,0.34570742,0.2477696,-0.088259816,0.5212029,-0.08182736,-0.19093445,-0.21647643,0.009938545,807.47253,796.1905,777.6557,800.2198,922.3077,-0.02197265625,-0.05511474609375,1.00970458984375,-3.701019287109375,2.893524169921875,-14.990997314453125,1,1.0,1.0,1.0,1.0,10.00
2024-10-11 20:19:24.756,0.55867267,0.77627206,0.8541343,0.6777224,0.4945904,0.14681104,0.38308665,0.46116534,0.6592171,0.11344789,0.25822636,0.59461206,0.34570742,0.2477696,-0.088259816,0.5212029,-0.08182736,-0.19093445,-0.21647643,0.009938545,813.91943,794.17584,776.4469,805.05493,786.52014,-0.02197265625,-0.05511474609375,1.00970458984375,-3.701019287109375,2.893524169921875,-14.990997314453125,1,1.0,1.0,1.0,1.0,10.00
2024-10-11 20:19:24.757,0.55867267,0.77627206,0.8541343,0.6777224,0.4945904,0.14681104,0.38308665,0.46116534,0.6592171,0.11344789,0.25822636,0.59461206,0.34570742,0.2477696,-0.088259816,0.5212029,-0.08182736,-0.19093445,-0.21647643,0.009938545,813.1135,800.2198,778.0586,808.68134,683.36993,-0.02197265625,-0.05511474609375,1.00970458984375,-3.701019287109375,2.893524169921875,-14.990997314453125,1,1.0,1.0,1.0,1.0,10.00
2024-10-11 20:19:24.758,0.55867267,0.77627206,0.8541343,0.6777224,0.4945904,0.14681104,0.38308665,0.46116534,0.6592171,0.11344789,0.25822636,0.59461206,0.34570742,0.2477696,-0.088259816,0.5212029,-0.08182736,-0.19093445,-0.21647643,0.009938545,807.8755,804.65204,776.4469,807.47253,775.2381,-0.02197265625,-0.05511474609375,1.00970458984375,-3.701019287109375,2.893524169921875,-14.990997314453125,1,1.0,1.0,1.0,1.0,10.00
2024-10-11 20:19:24.758,0.55867267,0.77627206,0.8541343,0.6777224,0.4945904,0.14681104,0.38308665,0.46116534,0.6592171,0.11344789,0.25822636,0.59461206,0.34570742,0.2477696,-0.088259816,0.5212029,-0.08182736,-0.19093445,-0.21647643,0.009938545,814.3223,803.0403,782.0879,805.8608,861.8681,-0.02197265625,-0.05511474609375,1.00970458984375,-3.701019287109375,2.893524169921875,-14.990997314453125,1,1.0,1.0,1.0,1.0,10.00
2024-10-11 20:19:24.759,0.55867267,0.77627206,0.8541343,0.6777224,0.4945904,0.14681104,0.38308665,0.46116534,0.6592171,0.11344789,0.25822636,0.59461206,0.34570742,0.2477696,-0.088259816,0.5212029,-0.08182736,-0.19093445,-0.21647643,0.009938545,814.3223,808.2784,778.0586,803.0403,618.9011,-0.02752685546875,-0.056396484375,1.00341796875,-2.474822998046875,5.226287841796875,-13.032073974609375,1,1.0,1.0,1.0,1.0,10.00
2024-10-11 20:19:24.760,0.9100238,0.8167163,0.80434424,0.69638085,0.87893987,0.15371585,0.3164913,0.5142531,1.3366834,0.12669306,0.20028089,0.59461206,0.5433502,0.24628866,-0.0976804,0.509643,-0.034715094,-0.17582127,-0.19652472,0.017025001,817.5458,803.0403,770.80585,804.65204,574.17584,-0.02752685546875,-0.056396484375,1.00341796875,-2.474822998046875,5.226287841796875,-13.032073974609375,1,1.0,1.0,1.0,1.0,10.00
2024-10-11 20:19:24.766,0.9100238,0.8167163,0.80434424,0.69638085,0.87893987,0.15371585,0.3164913,0.5142531,1.3366834,0.12669306,0.20028089,0.59461206,0.5433502,0.24628866,-0.0976804,0.509643,-0.034715094,-0.17582127,-0.19652472,0.017025001,813.5165,796.99634,782.0879,811.9048,828.022,-0.02752685546875,-0.056396484375,1.00341796875,-2.474822998046875,5.226287841796875,-13.032073974609375,1,1.0,1.0,1.0,1.0,10.00
2024-10-11 20:19:24.767,0.9100238,0.8167163,0.80434424,0.69638085,0.87893987,0.15371585,0.3164913,0.5142531,1.3366834,0.12669306,0.20028089,0.59461206,0.5433502,0.24628866,-0.0976804,0.509643,-0.034715094,-0.17582127,-0.19652472,0.017025001,809.4872,798.60803,793.7729,811.50183,869.5238,-0.02752685546875,-0.056396484375,1.00341796875,-2.474822998046875,5.226287841796875,-13.032073974609375,1,1.0,1.0,1.0,1.0,10.00
2024-10-11 20:19:24.768,0.9100238,0.8167163,0.80434424,0.69638085,0.87893987,0.15371585,0.3164913,0.5142531,1.3366834,0.12669306,0.20028089,0.59461206,0.5433502,0.24628866,-0.0976804,0.509643,-0.034715094,-0.17582127,-0.19652472,0.017025001,820.7692,802.6374,789.34064,808.68134,535.09155,-0.02752685546875,-0.056396484375,1.00341796875,-2.474822998046875,5.226287841796875,-13.032073974609375,1,1.0,1.0,1.0,1.0,10.00
2024-10-11 20:19:24.768,0.9100238,0.8167163,0.80434424,0.69638085,0.87893987,0.15371585,0.3164913,0.5142531,1.3366834,0.12669306,0.20028089,0.59461206,0.5433502,0.24628866,-0.0976804,0.509643,-0.034715094,-0.17582127,-0.19652472,0.017025001,817.5458,799.41394,788.1319,808.68134,606.4103,-0.02752685546875,-0.056396484375,1.00341796875,-2.474822998046875,5.226287841796875,-13.032073974609375,1,1.0,1.0,1.0,1.0,10.00
2024-10-11 20:19:24.769,0.9100238,0.8167163,0.80434424,0.69638085,0.87893987,0.15371585,0.3164913,0.5142531,1.3366834,0.12669306,0.20028089,0.59461206,0.5433502,0.24628866,-0.0976804,0.509643,-0.034715094,-0.17582127,-0.19652472,0.017025001,811.50183,799.41394,791.3553,815.12823,1035.9341,-0.02752685546875,-0.056396484375,1.00341796875,-2.474822998046875,5.226287841796875,-13.032073974609375,1,1.0,1.0,1.0,1.0,10.00
2024-10-11 20:19:24.770,0.9100238,0.8167163,0.80434424,0.69638085,0.87893987,0.15371585,0.3164913,0.5142531,1.3366834,0.12669306,0.20028089,0.59461206,0.5433502,0.24628866,-0.0976804,0.509643,-0.034715094,-0.17582127,-0.19652472,0.017025001,813.5165,798.20514,791.3553,812.3077,942.4542,-0.02752685546875,-0.056396484375,1.00341796875,-2.474822998046875,5.226287841796875,-13.032073974609375,1,1.0,1.0,1.0,1.0,10.00
2024-10-11 20:19:24.770,0.9100238,0.8167163,0.80434424,0.69638085,0.87893987,0.15371585,0.3164913,0.5142531,1.3366834,0.12669306,0.20028089,0.59461206,0.5433502,0.24628866,-0.0976804,0.509643,-0.034715094,-0.17582127,-0.19652472,0.017025001,810.696,799.41394,795.78754,805.05493,525.0183,-0.02752685546875,-0.056396484375,1.00341796875,-2.474822998046875,5.226287841796875,-13.032073974609375,1,1.0,1.0,1.0,1.0,10.00
2024-10-11 20:19:24.771,0.9100238,0.8167163,0.80434424,0.69638085,0.87893987,0.15371585,0.3164913,0.5142531,1.3366834,0.12669306,0.20028089,0.59461206,0.5433502,0.24628866,-0.0976804,0.509643,-0.034715094,-0.17582127,-0.19652472,0.017025001,815.12823,808.2784,797.3993,815.5311,452.08792,-0.02752685546875,-0.056396484375,1.00341796875,-2.474822998046875,5.226287841796875,-13.032073974609375,1,1.0,1.0,1.0,1.0,10.00
2024-10-11 20:19:24.772,0.9100238,0.8167163,0.80434424,0.69638085,0.87893987,0.15371585,0.3164913,0.5142531,1.3366834,0.12669306,0.20028089,0.59461206,0.5433502,0.24628866,-0.0976804,0.509643,-0.034715094,-0.17582127,-0.19652472,0.017025001,823.1868,810.293,799.81683,821.978,949.304,-0.02752685546875,-0.056396484375,1.00341796875,-2.474822998046875,5.226287841796875,-13.032073974609375,1,1.0,1.0,1.0,1.0,10.00
2024-10-11 20:19:24.772,0.9100238,0.8167163,0.80434424,0.69638085,0.87893987,0.15371585,0.3164913,0.5142531,1.3366834,0.12669306,0.20028089,0.59461206,0.5433502,0.24628866,-0.0976804,0.509643,-0.034715094,-0.17582127,-0.19652472,0.017025001,813.5165,807.8755,803.0403,815.12823,1102.4176,-0.02752685546875,-0.056396484375,1.00341796875,-2.474822998046875,5.226287841796875,-13.032073974609375,1,1.0,1.0,1.0,1.0,10.00
2024-10-11 20:19:24.773,0.9100238,0.8167163,0.80434424,0.69638085,0.87893987,0.15371585,0.3164913,0.5142531,1.3366834,0.12669306,0.20028089,0.59461206,0.5433502,0.24628866,-0.0976804,0.509643,-0.034715094,-0.17582127,-0.19652472,0.017025001,809.0842,807.0696,796.99634,811.0989,678.5348,-0.037109375,-0.05487060546875,1.010986328125,-2.0037841796875,6.916046142578125,-10.826416015625,1,1.0,1.0,1.0,1.0,10.00
2024-10-11 20:19:24.774,0.9100238,0.8167163,0.80434424,0.69638085,0.87893987,0.15371585,0.3164913,0.5142531,1.3366834,0.12669306,0.20028089,0.59461206,0.5433502,0.24628866,-0.0976804,0.509643,-0.034715094,-0.17582127,-0.19652472,0.017025001,815.12823,799.41394,793.7729,819.9634,627.3626,-0.037109375,-0.05487060546875,1.010986328125,-2.0037841796875,6.916046142578125,-10.826416015625,1,1.0,1.0,1.0,1.0,10.00
2024-10-11 20:19:24.775,0.9100238,0.8167163,0.80434424,0.69638085,0.87893987,0.15371585,0.3164913,0.5142531,1.3366834,0.12669306,0.20028089,0.59461206,0.5433502,0.24628866,-0.0976804,0.509643,-0.034715094,-0.17582127,-0.19652472,0.017025001,809.89014,795.78754,798.20514,821.5751,908.20514,-0.037109375,-0.05487060546875,1.010986328125,-2.0037841796875,6.916046142578125,-10.826416015625,1,1.0,1.0,1.0,1.0,10.00
2024-10-11 20:19:24.775,0.9100238,0.8167163,0.80434424,0.69638085,0.87893987,0.15371585,0.3164913,0.5142531,1.3366834,0.12669306,0.20028089,0.59461206,0.5433502,0.24628866,-0.0976804,0.509643,-0.034715094,-0.17582127,-0.19652472,0.017025001,805.05493,801.8315,798.60803,813.5165,880.80585,-0.037109375,-0.05487060546875,1.010986328125,-2.0037841796875,6.916046142578125,-10.826416015625,1,1.0,1.0,1.0,1.0,10.00
2024-10-11 20:19:24.776,0.9100238,0.8167163,0.80434424,0.69638085,0.87893987,0.15371585,0.3164913,0.5142531,1.3366834,0.12669306,0.20028089,0.59461206,0.5433502,0.24628866,-0.0976804,0.509643,-0.034715094,-0.17582127,-0.19652472,0.017025001,799.41394,796.5934,796.1905,809.0842,654.7619,-0.037109375,-0.05487060546875,1.010986328125,-2.0037841796875,6.916046142578125,-10.826416015625,1,1.0,1.0,1.0,1.0,10.00
2024-10-11 20:19:24.777,0.9100238,0.8167163,0.80434424,0.69638085,0.87893987,0.15371585,0.3164913,0.5142531,1.3366834,0.12669306,0.20028089,0.59461206,0.5433502,0.24628866,-0.0976804,0.509643,-0.034715094,-0.17582127,-0.19652472,0.017025001,800.2198,790.54944,796.5934,805.8608,819.9634,-0.037109375,-0.05487060546875,1.010986328125,-2.0037841796875,6.916046142578125,-10.826416015625,1,1.0,1.0,1.0,1.0,10.00
2024-10-11 20:19:24.777,0.9100238,0.8167163,0.80434424,0.69638085,0.87893987,0.15371585,0.3164913,0.5142531,1.3366834,0.12669306,0.20028089,0.59461206,0.5433502,0.24628866,-0.0976804,0.509643,-0.034715094,-0.17582127,-0.19652472,0.017025001,808.2784,795.78754,796.99634,813.1135,1194.6886,-0.037109375,-0.05487060546875,1.010986328125,-2.0037841796875,6.916046142578125,-10.826416015625,1,1.0,1.0,1.0,1.0,10.00
2024-10-11 20:19:24.778,0.9100238,0.8167163,0.80434424,0.69638085,0.87893987,0.15371585,0.3164913,0.5142531,1.3366834,0.12669306,0.20028089,0.59461206,0.5433502,0.24628866,-0.0976804,0.509643,-0.034715094,-0.17582127,-0.19652472,0.017025001,811.50183,803.0403,795.78754,816.337,989.59705,-0.037109375,-0.05487060546875,1.010986328125,-2.0037841796875,6.916046142578125,-10.826416015625,1,1.0,1.0,1.0,1.0,10.00
2024-10-11 20:19:24.779,0.9100238,0.8167163,0.80434424,0.69638085,0.87893987,0.15371585,0.3164913,0.5142531,1.3366834,0.12669306,0.20028089,0.59461206,0.5433502,0.24628866,-0.0976804,0.509643,-0.034715094,-0.17582127,-0.19652472,0.017025001,809.0842,801.4286,795.78754,802.6374,602.7839,-0.037109375,-0.05487060546875,1.010986328125,-2.0037841796875,6.916046142578125,-10.826416015625,1,1.0,1.0,1.0,1.0,10.00
2024-10-11 20:19:24.779,0.9100238,0.8167163,0.80434424,0.69638085,0.87893987,0.15371585,0.3164913,0.5142531,1.3366834,0.12669306,0.20028089,0.59461206,0.5433502,0.24628866,-0.0976804,0.509643,-0.034715094,-0.17582127,-0.19652472,0.017025001,809.4872,797.3993,795.78754,801.8315,765.16486,-0.037109375,-0.05487060546875,1.010986328125,-2.0037841796875,6.916046142578125,-10.826416015625,1,1.0,1.0,1.0,1.0,10.00
2024-10-11 20:19:24.780,0.9100238,0.8167163,0.80434424,0.69638085,0.87893987,0.15371585,0.3164913,0.5142531,1.3366834,0.12669306,0.20028089,0.59461206,0.5433502,0.24628866,-0.0976804,0.509643,-0.034715094,-0.17582127,-0.19652472,0.017025001,817.1429,793.7729,803.0403,808.68134,869.5238,-0.037109375,-0.05487060546875,1.010986328125,-2.0037841796875,6.916046142578125,-10.826416015625,1,1.0,1.0,1.0,1.0,10.00
2024-10-11 20:19:24.781,0.9100238,0.8167163,0.80434424,0.69638085,0.87893987,0.15371585,0.3164913,0.5142531,1.3366834,0.12669306,0.20028089,0.59461206,0.5433502,0.24628866,-0.0976804,0.509643,-0.034715094,-0.17582127,-0.19652472,0.017025001,819.9634,796.5934,807.8755,810.293,809.89014,-0.037109375,-0.05487060546875,1.010986328125,-2.0037841796875,6.916046142578125,-10.826416015625,1,1.0,1.0,1.0,1.0,10.00
2024-10-11 20:19:24.853,0.9100238,0.8167163,0.80434424,0.69638085,0.87893987,0.15371585,0.3164913,0.5142531,1.3366834,0.12669306,0.20028089,0.59461206,0.5433502,0.24628866,-0.0976804,0.509643,-0.034715094,-0.17582127,-0.19652472,0.017025001,820.7692,805.4579,804.2491,816.337,766.3736,-0.0499267578125,-0.05859375,1.00616455078125,-1.55517578125,5.8917236328125,-7.76092529296875,1,1.0,1.0,1.0,1.0,10.00
2024-10-11 20:19:24.854,0.9100238,0.8167163,0.80434424,0.69638085,0.87893987,0.15371585,0.3164913,0.5142531,1.3366834,0.12669306,0.20028089,0.59461206,0.5433502,0.24628866,-0.0976804,0.509643,-0.034715094,-0.17582127,-0.19652472,0.017025001,817.5458,805.05493,803.0403,814.3223,848.97437,-0.0499267578125,-0.05859375,1.00616455078125,-1.55517578125,5.8917236328125,-7.76092529296875,1,1.0,1.0,1.0,1.0,10.00
2024-10-11 20:19:24.855,0.9100238,0.8167163,0.80434424,0.69638085,0.87893987,0.15371585,0.3164913,0.5142531,1.3366834,0.12669306,0.20028089,0.59461206,0.5433502,0.24628866,-0.0976804,0.509643,-0.034715094,-0.17582127,-0.19652472,0.017025001,809.0842,794.9817,799.81683,814.7253,1215.641,-0.0499267578125,-0.05859375,1.00616455078125,-1.55517578125,5.8917236328125,-7.76092529296875,1,1.0,1.0,1.0,1.0,10.00
2024-10-11 20:19:24.855,1.0791297,0.84752685,0.78328836,0.71737266,1.0491785,0.16397637,0.28604528,0.5779905,1.3447208,0.12781756,0.090322435,0.59461206,0.67476654,0.24796543,-0.105313875,0.48721677,-0.013265412,-0.15696168,-0.17066453,0.023791714,810.293,789.34064,804.2491,819.5604,1226.9231,-0.0499267578125,-0.05859375,1.00616455078125,-1.55517578125,5.8917236328125,-7.76092529296875,1,1.0,1.0,1.0,1.0,10.00
2024-10-11 20:19:24.862,1.0791297,0.84752685,0.78328836,0.71737266,1.0491785,0.16397637,0.28604528,0.5779905,1.3447208,0.12781756,0.090322435,0.59461206,0.67476654,0.24796543,-0.105313875,0.48721677,-0.013265412,-0.15696168,-0.17066453,0.023791714,817.5458,798.20514,801.8315,812.3077,815.12823,-0.0499267578125,-0.05859375,1.00616455078125,-1.55517578125,5.8917236328125,-7.76092529296875,1,1.0,1.0,1.0,1.0,10.00
2024-10-11 20:19:24.863,1.0791297,0.84752685,0.78328836,0.71737266,1.0491785,0.16397637,0.28604528,0.5779905,1.3447208,0.12781756,0.090322435,0.59461206,0.67476654,0.24796543,-0.105313875,0.48721677,-0.013265412,-0.15696168,-0.17066453,0.023791714,819.9634,798.60803,799.41394,809.0842,930.3663,-0.0499267578125,-0.05859375,1.00616455078125,-1.55517578125,5.8917236328125,-7.76092529296875,1,1.0,1.0,1.0,1.0,10.00
2024-10-11 20:19:24.863,1.0791297,0.84752685,0.78328836,0.71737266,1.0491785,0.16397637,0.28604528,0.5779905,1.3447208,0.12781756,0.090322435,0.59461206,0.67476654,0.24796543,-0.105313875,0.48721677,-0.013265412,-0.15696168,-0.17066453,0.023791714,817.5458,787.72894,802.23444,817.9487,1406.63,-0.0499267578125,-0.05859375,1.00616455078125,-1.55517578125,5.8917236328125,-7.76092529296875,1,1.0,1.0,1.0,1.0,10.00
2024-10-11 20:19:24.864,1.0791297,0.84752685,0.78328836,0.71737266,1.0491785,0.16397637,0.28604528,0.5779905,1.3447208,0.12781756,0.090322435,0.59461206,0.67476654,0.24796543,-0.105313875,0.48721677,-0.013265412,-0.15696168,-0.17066453,0.023791714,812.3077,794.17584,796.5934,815.12823,1216.4469,-0.0499267578125,-0.05859375,1.00616455078125,-1.55517578125,5.8917236328125,-7.76092529296875,1,1.0,1.0,1.0,1.0,10.00
2024-10-11 20:19:24.865,1.0791297,0.84752685,0.78328836,0.71737266,1.0491785,0.16397637,0.28604528,0.5779905,1.3447208,0.12781756,0.090322435,0.59461206,0.67476654,0.24796543,-0.105313875,0.48721677,-0.013265412,-0.15696168,-0.17066453,0.023791714,805.8608,803.8461,800.2198,809.4872,670.87915,-0.0499267578125,-0.05859375,1.00616455078125,-1.55517578125,5.8917236328125,-7.76092529296875,1,1.0,1.0,1.0,1.0,10.00
2024-10-11 20:19:24.865,1.0791297,0.84752685,0.78328836,0.71737266,1.0491785,0.16397637,0.28604528,0.5779905,1.3447208,0.12781756,0.090322435,0.59461206,0.67476654,0.24796543,-0.105313875,0.48721677,-0.013265412,-0.15696168,-0.17066453,0.023791714,800.2198,799.011,798.20514,815.12823,771.2088,-0.0499267578125,-0.05859375,1.00616455078125,-1.55517578125,5.8917236328125,-7.76092529296875,1,1.0,1.0,1.0,1.0,10.00
2024-10-11 20:19:24.866,1.0791297,0.84752685,0.78328836,0.71737266,1.0491785,0.16397637,0.28604528,0.5779905,1.3447208,0.12781756,0.090322435,0.59461206,0.67476654,0.24796543,-0.105313875,0.48721677,-0.013265412,-0.15696168,-0.17066453,0.023791714,800.2198,801.02563,794.17584,813.91943,812.3077,-0.0499267578125,-0.05859375,1.00616455078125,-1.55517578125,5.8917236328125,-7.76092529296875,1,1.0,1.0,1.0,1.0,10.00
