TimeStamp,Delta_TP9,Delta_AF7,Delta_AF8,Delta_TP10,Theta_TP9,Theta_AF7,Theta_AF8,Theta_TP10,Alpha_TP9,Alpha_AF7,Alpha_AF8,Alpha_TP10,Beta_TP9,Beta_AF7,Beta_AF8,Beta_TP10,Gamma_TP9,Gamma_AF7,Gamma_AF8,Gamma_TP10,RAW_TP9,RAW_AF7,RAW_AF8,RAW_TP10,AUX_RIGHT,Accelerometer_X,Accelerometer_Y,Accelerometer_Z,Gyro_X,Gyro_Y,Gyro_Z,HeadBandOn,HSI_TP9,HSI_AF7,HSI_AF8,HSI_TP10,Battery,Elements
2024-10-11 20:19:49.480,0.8363756,0.5506402,0.9045121,1.0303482,0.8738433,0.028534692,0.50739616,0.92076916,1.0699812,0.20822771,0.40173158,0.9312786,0.47635326,0.16516905,0.18952176,0.5582329,-0.022115322,0.026485462,-0.18523662,0.10571051,813.1135,801.4286,801.8315,797.8022,680.14655,-0.118408203125,0.0810546875,0.998779296875,-0.59814453125,-2.609405517578125,2.325286865234375,1,1.0,1.0,1.0,1.0,10.00
2024-10-11 20:19:49.482,0.8363756,0.5506402,0.9045121,1.0303482,0.8738433,0.028534692,0.50739616,0.92076916,1.0699812,0.20822771,0.40173158,0.9312786,0.47635326,0.16516905,0.18952176,0.5582329,-0.022115322,0.026485462,-0.18523662,0.10571051,814.7253,806.26373,797.8022,799.41394,630.989,-0.118408203125,0.0810546875,0.998779296875,-0.59814453125,-2.609405517578125,2.325286865234375,1,1.0,1.0,1.0,1.0,10.00
2024-10-11 20:19:49.483,0.8363756,0.5506402,0.9045121,1.0303482,0.8738433,0.028534692,0.50739616,0.92076916,1.0699812,0.20822771,0.40173158,0.9312786,0.47635326,0.16516905,0.18952176,0.5582329,-0.022115322,0.026485462,-0.18523662,0.10571051,817.1429,808.2784,799.011,804.65204,722.0513,-0.118408203125,0.0810546875,0.998779296875,-0.59814453125,-2.609405517578125,2.325286865234375,1,1.0,1.0,1.0,1.0,10.00
2024-10-11 20:19:49.484,0.8363756,0.5506402,0.9045121,1.0303482,0.8738433,0.028534692,0.50739616,0.92076916,1.0699812,0.20822771,0.40173158,0.9312786,0.47635326,0.16516905,0.18952176,0.5582329,-0.022115322,0.026485462,-0.18523662,0.10571051,807.8755,801.4286,799.011,794.9817,725.6777,-0.118408203125,0.0810546875,0.998779296875,-0.59814453125,-2.609405517578125,2.325286865234375,1,1.0,1.0,1.0,1.0,10.00
2024-10-11 20:19:49.485,0.8363756,0.5506402,0.9045121,1.0303482,0.8738433,0.028534692,0.50739616,0.92076916,1.0699812,0.20822771,0.40173158,0.9312786,0.47635326,0.16516905,0.18952176,0.5582329,-0.022115322,0.026485462,-0.18523662,0.10571051,810.293,797.3993,797.3993,797.8022,633.4066,-0.118408203125,0.0810546875,0.998779296875,-0.59814453125,-2.609405517578125,2.325286865234375,1,1.0,1.0,1.0,1.0,10.00
2024-10-11 20:19:49.486,0.8363756,0.5506402,0.9045121,1.0303482,0.8738433,0.028534692,0.50739616,0.92076916,1.0699812,0.20822771,0.40173158,0.9312786,0.47635326,0.16516905,0.18952176,0.5582329,-0.022115322,0.026485462,-0.18523662,0.10571051,825.2015,797.3993,807.0696,813.1135,637.8388,-0.118408203125,0.0810546875,0.998779296875,-0.59814453125,-2.609405517578125,2.325286865234375,1,1.0,1.0,1.0,1.0,10.00
2024-10-11 20:19:49.486,0.8363756,0.5506402,0.9045121,1.0303482,0.8738433,0.028534692,0.50739616,0.92076916,1.0699812,0.20822771,0.40173158,0.9312786,0.47635326,0.16516905,0.18952176,0.5582329,-0.022115322,0.026485462,-0.18523662,0.10571051,823.1868,798.20514,806.26373,816.337,948.9011,-0.118408203125,0.0810546875,0.998779296875,-0.59814453125,-2.609405517578125,2.325286865234375,1,1.0,1.0,1.0,1.0,10.00
2024-10-11 20:19:49.487,0.8363756,0.5506402,0.9045121,1.0303482,0.8738433,0.028534692,0.50739616,0.92076916,1.0699812,0.20822771,0.40173158,0.9312786,0.47635326,0.16516905,0.18952176,0.5582329,-0.022115322,0.026485462,-0.18523662,0.10571051,813.91943,794.9817,799.011,812.71063,955.34796,-0.118408203125,0.0810546875,0.998779296875,-0.59814453125,-2.609405517578125,2.325286865234375,1,1.0,1.0,1.0,1.0,10.00
2024-10-11 20:19:49.488,0.8363756,0.5506402,0.9045121,1.0303482,0.8738433,0.028534692,0.50739616,0.92076916,1.0699812,0.20822771,0.40173158,0.9312786,0.47635326,0.16516905,0.18952176,0.5582329,-0.022115322,0.026485462,-0.18523662,0.10571051,812.71063,797.8022,807.8755,816.337,681.3553,-0.118408203125,0.0810546875,0.998779296875,-0.59814453125,-2.609405517578125,2.325286865234375,1,1.0,1.0,1.0,1.0,10.00
2024-10-11 20:19:49.489,0.921408,0.57861775,0.9576948,1.0195013,0.98001534,0.07901318,0.57126313,0.93244267,1.0700458,0.3454478,0.49588442,0.92935675,0.51149446,0.16754392,0.1906901,0.57430094,-0.052457113,0.011953948,-0.1764008,0.111947685,817.9487,796.99634,803.0403,819.9634,641.8681,-0.118408203125,0.0810546875,0.998779296875,-0.59814453125,-2.609405517578125,2.325286865234375,1,1.0,1.0,1.0,1.0,10.00
2024-10-11 20:19:49.494,0.921408,0.57861775,0.9576948,1.0195013,0.98001534,0.07901318,0.57126313,0.93244267,1.0700458,0.3454478,0.49588442,0.92935675,0.51149446,0.16754392,0.1906901,0.57430094,-0.052457113,0.011953948,-0.1764008,0.111947685,810.696,787.72894,803.0403,811.9048,851.39197,-0.118408203125,0.0810546875,0.998779296875,-0.59814453125,-2.609405517578125,2.325286865234375,1,1.0,1.0,1.0,1.0,10.00
2024-10-11 20:19:49.495,0.921408,0.57861775,0.9576948,1.0195013,0.98001534,0.07901318,0.57126313,0.93244267,1.0700458,0.3454478,0.49588442,0.92935675,0.51149446,0.16754392,0.1906901,0.57430094,-0.052457113,0.011953948,-0.1764008,0.111947685,809.89014,793.7729,810.696,812.3077,948.49817,-0.118408203125,0.0810546875,0.998779296875,-0.59814453125,-2.609405517578125,2.325286865234375,1,1.0,1.0,1.0,1.0,10.00
2024-10-11 20:19:49.616,0.921408,0.57861775,0.9576948,1.0195013,0.98001534,0.07901318,0.57126313,0.93244267,1.0700458,0.3454478,0.49588442,0.92935675,0.51149446,0.16754392,0.1906901,0.57430094,-0.052457113,0.011953948,-0.1764008,0.111947685,816.337,799.011,800.6227,819.9634,742.6007,-0.11944580078125,0.07684326171875,1.00396728515625,-1.697235107421875,-2.699127197265625,2.67669677734375,1,1.0,1.0,1.0,1.0,10.00
2024-10-11 20:19:49.618,0.921408,0.57861775,0.9576948,1.0195013,0.98001534,0.07901318,0.57126313,0.93244267,1.0700458,0.3454478,0.49588442,0.92935675,0.51149446,0.16754392,0.1906901,0.57430094,-0.052457113,0.011953948,-0.1764008,0.111947685,797.8022,800.2198,799.011,807.8755,695.4579,-0.11944580078125,0.07684326171875,1.00396728515625,-1.697235107421875,-2.699127197265625,2.67669677734375,1,1.0,1.0,1.0,1.0,10.00
2024-10-11 20:19:49.620,0.921408,0.57861775,0.9576948,1.0195013,0.98001534,0.07901318,0.57126313,0.93244267,1.0700458,0.3454478,0.49588442,0.92935675,0.51149446,0.16754392,0.1906901,0.57430094,-0.052457113,0.011953948,-0.1764008,0.111947685,790.14655,805.05493,799.011,800.6227,921.0989,-0.11944580078125,0.07684326171875,1.00396728515625,-1.697235107421875,-2.699127197265625,2.67669677734375,1,1.0,1.0,1.0,1.0,10.00
2024-10-11 20:19:49.621,0.921408,0.57861775,0.9576948,1.0195013,0.98001534,0.07901318,0.57126313,0.93244267,1.0700458,0.3454478,0.49588442,0.92935675,0.51149446,0.16754392,0.1906901,0.57430094,-0.052457113,0.011953948,-0.1764008,0.111947685,806.26373,806.26373,801.4286,815.12823,1239.011,-0.11944580078125,0.07684326171875,1.00396728515625,-1.697235107421875,-2.699127197265625,2.67669677734375,1,1.0,1.0,1.0,1.0,10.00
2024-10-11 20:19:49.622,0.921408,0.57861775,0.9576948,1.0195013,0.98001534,0.07901318,0.57126313,0.93244267,1.0700458,0.3454478,0.49588442,0.92935675,0.51149446,0.16754392,0.1906901,0.57430094,-0.052457113,0.011953948,-0.1764008,0.111947685,794.57874,802.23444,809.89014,819.9634,1276.8865,-0.11944580078125,0.07684326171875,1.00396728515625,-1.697235107421875,-2.699127197265625,2.67669677734375,1,1.0,1.0,1.0,1.0,10.00
2024-10-11 20:19:49.622,0.921408,0.57861775,0.9576948,1.0195013,0.98001534,0.07901318,0.57126313,0.93244267,1.0700458,0.3454478,0.49588442,0.92935675,0.51149446,0.16754392,0.1906901,0.57430094,-0.052457113,0.011953948,-0.1764008,0.111947685,777.6557,796.5934,804.2491,801.4286,1085.8975,-0.11944580078125,0.07684326171875,1.00396728515625,-1.697235107421875,-2.699127197265625,2.67669677734375,1,1.0,1.0,1.0,1.0,10.00
2024-10-11 20:19:49.623,0.921408,0.57861775,0.9576948,1.0195013,0.98001534,0.07901318,0.57126313,0.93244267,1.0700458,0.3454478,0.49588442,0.92935675,0.51149446,0.16754392,0.1906901,0.57430094,-0.052457113,0.011953948,-0.1764008,0.111947685,788.1319,799.81683,799.011,791.3553,1039.9634,-0.11944580078125,0.07684326171875,1.00396728515625,-1.697235107421875,-2.699127197265625,2.67669677734375,1,1.0,1.0,1.0,1.0,10.00
2024-10-11 20:19:49.624,0.921408,0.57861775,0.9576948,1.0195013,0.98001534,0.07901318,0.57126313,0.93244267,1.0700458,0.3454478,0.49588442,0.92935675,0.51149446,0.16754392,0.1906901,0.57430094,-0.052457113,0.011953948,-0.1764008,0.111947685,792.1612,807.47253,797.3993,792.1612,841.7216,-0.11944580078125,0.07684326171875,1.00396728515625,-1.697235107421875,-2.699127197265625,2.67669677734375,1,1.0,1.0,1.0,1.0,10.00
2024-10-11 20:19:49.624,0.921408,0.57861775,0.9576948,1.0195013,0.98001534,0.07901318,0.57126313,0.93244267,1.0700458,0.3454478,0.49588442,0.92935675,0.51149446,0.16754392,0.1906901,0.57430094,-0.052457113,0.011953948,-0.1764008,0.111947685,791.3553,800.2198,805.05493,787.326,559.2674,-0.11944580078125,0.07684326171875,1.00396728515625,-1.697235107421875,-2.699127197265625,2.67669677734375,1,1.0,1.0,1.0,1.0,10.00
2024-10-11 20:19:49.625,0.921408,0.57861775,0.9576948,1.0195013,0.98001534,0.07901318,0.57126313,0.93244267,1.0700458,0.3454478,0.49588442,0.92935675,0.51149446,0.16754392,0.1906901,0.57430094,-0.052457113,0.011953948,-0.1764008,0.111947685,792.5641,784.10254,800.6227,793.7729,583.44324,-0.11944580078125,0.07684326171875,1.00396728515625,-1.697235107421875,-2.699127197265625,2.67669677734375,1,1.0,1.0,1.0,1.0,10.00
2024-10-11 20:19:49.626,0.921408,0.57861775,0.9576948,1.0195013,0.98001534,0.07901318,0.57126313,0.93244267,1.0700458,0.3454478,0.49588442,0.92935675,0.51149446,0.16754392,0.1906901,0.57430094,-0.052457113,0.011953948,-0.1764008,0.111947685,790.14655,792.96704,793.36993,805.8608,836.08057,-0.11944580078125,0.07684326171875,1.00396728515625,-1.697235107421875,-2.699127197265625,2.67669677734375,1,1.0,1.0,1.0,1.0,10.00
2024-10-11 20:19:49.627,0.921408,0.57861775,0.9576948,1.0195013,0.98001534,0.07901318,0.57126313,0.93244267,1.0700458,0.3454478,0.49588442,0.92935675,0.51149446,0.16754392,0.1906901,0.57430094,-0.052457113,0.011953948,-0.1764008,0.111947685,789.7436,800.6227,799.011,803.0403,804.2491,-0.11944580078125,0.07684326171875,1.00396728515625,-1.697235107421875,-2.699127197265625,2.67669677734375,1,1.0,1.0,1.0,1.0,10.00
2024-10-11 20:19:49.628,0.921408,0.57861775,0.9576948,1.0195013,0.98001534,0.07901318,0.57126313,0.93244267,1.0700458,0.3454478,0.49588442,0.92935675,0.51149446,0.16754392,0.1906901,0.57430094,-0.052457113,0.011953948,-0.1764008,0.111947685,796.1905,801.8315,803.44324,796.1905,570.14655,-0.11944580078125,0.07684326171875,1.00396728515625,-1.697235107421875,-2.699127197265625,2.67669677734375,1,1.0,1.0,1.0,1.0,10.00
2024-10-11 20:19:49.628,0.921408,0.57861775,0.9576948,1.0195013,0.98001534,0.07901318,0.57126313,0.93244267,1.0700458,0.3454478,0.49588442,0.92935675,0.51149446,0.16754392,0.1906901,0.57430094,-0.052457113,0.011953948,-0.1764008,0.111947685,802.23444,799.81683,801.8315,805.4579,635.42126,-0.11944580078125,0.07684326171875,1.00396728515625,-1.697235107421875,-2.699127197265625,2.67669677734375,1,1.0,1.0,1.0,1.0,10.00
2024-10-11 20:19:49.629,0.921408,0.57861775,0.9576948,1.0195013,0.98001534,0.07901318,0.57126313,0.93244267,1.0700458,0.3454478,0.49588442,0.92935675,0.51149446,0.16754392,0.1906901,0.57430094,-0.052457113,0.011953948,-0.1764008,0.111947685,803.0403,792.5641,805.4579,811.9048,871.13556,-0.11944580078125,0.07684326171875,1.00396728515625,-1.697235107421875,-2.699127197265625,2.67669677734375,1,1.0,1.0,1.0,1.0,10.00
2024-10-11 20:19:49.630,0.921408,0.57861775,0.9576948,1.0195013,0.98001534,0.07901318,0.57126313,0.93244267,1.0700458,0.3454478,0.49588442,0.92935675,0.51149446,0.16754392,0.1906901,0.57430094,-0.052457113,0.011953948,-0.1764008,0.111947685,807.0696,796.1905,808.68134,812.71063,784.90845,-0.11944580078125,0.07684326171875,1.00396728515625,-1.697235107421875,-2.699127197265625,2.67669677734375,1,1.0,1.0,1.0,1.0,10.00
2024-10-11 20:19:49.630,0.921408,0.57861775,0.9576948,1.0195013,0.98001534,0.07901318,0.57126313,0.93244267,1.0700458,0.3454478,0.49588442,0.92935675,0.51149446,0.16754392,0.1906901,0.57430094,-0.052457113,0.011953948,-0.1764008,0.111947685,808.68134,796.99634,806.26373,807.8755,791.75824,-0.11944580078125,0.07684326171875,1.00396728515625,-1.697235107421875,-2.699127197265625,2.67669677734375,1,1.0,1.0,1.0,1.0,10.00
2024-10-11 20:19:49.631,0.921408,0.57861775,0.9576948,1.0195013,0.98001534,0.07901318,0.57126313,0.93244267,1.0700458,0.3454478,0.49588442,0.92935675,0.51149446,0.16754392,0.1906901,0.57430094,-0.052457113,0.011953948,-0.1764008,0.111947685,803.0403,793.7729,802.6374,799.81683,1025.4579,-0.11944580078125,0.07684326171875,1.00396728515625,-1.697235107421875,-2.699127197265625,2.67669677734375,1,1.0,1.0,1.0,1.0,10.00
2024-10-11 20:19:49.632,0.921408,0.57861775,0.9576948,1.0195013,0.98001534,0.07901318,0.57126313,0.93244267,1.0700458,0.3454478,0.49588442,0.92935675,0.51149446,0.16754392,0.1906901,0.57430094,-0.052457113,0.011953948,-0.1764008,0.111947685,802.23444,794.9817,807.47253,805.8608,1118.9377,-0.11944580078125,0.07684326171875,1.00396728515625,-1.697235107421875,-2.699127197265625,2.67669677734375,1,1.0,1.0,1.0,1.0,10.00
2024-10-11 20:19:49.632,0.921408,0.57861775,0.9576948,1.0195013,0.98001534,0.07901318,0.57126313,0.93244267,1.0700458,0.3454478,0.49588442,0.92935675,0.51149446,0.16754392,0.1906901,0.57430094,-0.052457113,0.011953948,-0.1764008,0.111947685,803.44324,795.78754,808.68134,806.26373,884.83514,-0.11944580078125,0.07684326171875,1.00396728515625,-1.697235107421875,-2.699127197265625,2.67669677734375,1,1.0,1.0,1.0,1.0,10.00
2024-10-11 20:19:49.633,0.921408,0.57861775,0.9576948,1.0195013,0.98001534,0.07901318,0.57126313,0.93244267,1.0700458,0.3454478,0.49588442,0.92935675,0.51149446,0.16754392,0.1906901,0.57430094,-0.052457113,0.011953948,-0.1764008,0.111947685,804.65204,801.4286,799.81683,802.23444,720.4396,-0.11944580078125,0.07684326171875,1.00396728515625,-1.697235107421875,-2.699127197265625,2.67669677734375,1,1.0,1.0,1.0,1.0,10.00
2024-10-11 20:19:49.634,0.921408,0.57861775,0.9576948,1.0195013,0.98001534,0.07901318,0.57126313,0.93244267,1.0700458,0.3454478,0.49588442,0.92935675,0.51149446,0.16754392,0.1906901,0.57430094,-0.052457113,0.011953948,-0.1764008,0.111947685,803.8461,807.8755,801.8315,803.0403,763.95605,-0.11944580078125,0.07684326171875,1.00396728515625,-1.697235107421875,-2.699127197265625,2.67669677734375,1,1.0,1.0,1.0,1.0,10.00
2024-10-11 20:19:49.634,0.921408,0.57861775,0.9576948,1.0195013,0.98001534,0.07901318,0.57126313,0.93244267,1.0700458,0.3454478,0.49588442,0.92935675,0.51149446,0.16754392,0.1906901,0.57430094,-0.052457113,0.011953948,-0.1764008,0.111947685,797.8022,807.0696,803.44324,797.3993,746.2271,-0.11944580078125,0.07684326171875,1.00396728515625,-1.697235107421875,-2.699127197265625,2.67669677734375,1,1.0,1.0,1.0,1.0,10.00
2024-10-11 20:19:49.635,1.0182081,0.6075351,1.0141174,1.0323756,1.0465201,0.14155957,0.6552902,0.95679957,1.0769566,0.46829107,0.57724214,0.92828166,0.54483116,0.17218253,0.18567461,0.58987105,-0.07702495,-0.0020476908,-0.17526647,0.12309862,798.20514,806.26373,798.60803,799.81683,636.63007,-0.11944580078125,0.07684326171875,1.00396728515625,-1.697235107421875,-2.699127197265625,2.67669677734375,1,1.0,1.0,1.0,1.0,10.00
2024-10-11 20:19:49.642,1.0182081,0.6075351,1.0141174,1.0323756,1.0465201,0.14155957,0.6552902,0.95679957,1.0769566,0.46829107,0.57724214,0.92828166,0.54483116,0.17218253,0.18567461,0.58987105,-0.07702495,-0.0020476908,-0.17526647,0.12309862,795.38464,805.8608,799.011,801.8315,636.2271,-0.1270751953125,0.07611083984375,1.0067138671875,-2.87109375,-2.55706787109375,-0.157012939453125,1,1.0,1.0,1.0,1.0,10.00
2024-10-11 20:19:49.643,1.0182081,0.6075351,1.0141174,1.0323756,1.0465201,0.14155957,0.6552902,0.95679957,1.0769566,0.46829107,0.57724214,0.92828166,0.54483116,0.17218253,0.18567461,0.58987105,-0.07702495,-0.0020476908,-0.17526647,0.12309862,795.38464,801.8315,800.6227,801.4286,817.5458,-0.1270751953125,0.07611083984375,1.0067138671875,-2.87109375,-2.55706787109375,-0.157012939453125,1,1.0,1.0,1.0,1.0,10.00
2024-10-11 20:19:49.644,1.0182081,0.6075351,1.0141174,1.0323756,1.0465201,0.14155957,0.6552902,0.95679957,1.0769566,0.46829107,0.57724214,0.92828166,0.54483116,0.17218253,0.18567461,0.58987105,-0.07702495,-0.0020476908,-0.17526647,0.12309862,794.17584,794.17584,804.65204,801.4286,818.7546,-0.1270751953125,0.07611083984375,1.0067138671875,-2.87109375,-2.55706787109375,-0.157012939453125,1,1.0,1.0,1.0,1.0,10.00
2024-10-11 20:19:49.645,1.0182081,0.6075351,1.0141174,1.0323756,1.0465201,0.14155957,0.6552902,0.95679957,1.0769566,0.46829107,0.57724214,0.92828166,0.54483116,0.17218253,0.18567461,0.58987105,-0.07702495,-0.0020476908,-0.17526647,0.12309862,793.36993,797.8022,803.8461,797.8022,658.7912,-0.1270751953125,0.07611083984375,1.0067138671875,-2.87109375,-2.55706787109375,-0.157012939453125,1,1.0,1.0,1.0,1.0,10.00
2024-10-11 20:19:49.645,1.0182081,0.6075351,1.0141174,1.0323756,1.0465201,0.14155957,0.6552902,0.95679957,1.0769566,0.46829107,0.57724214,0.92828166,0.54483116,0.17218253,0.18567461,0.58987105,-0.07702495,-0.0020476908,-0.17526647,0.12309862,794.9817,799.81683,800.6227,801.02563,720.84247,-0.1270751953125,0.07611083984375,1.0067138671875,-2.87109375,-2.55706787109375,-0.157012939453125,1,1.0,1.0,1.0,1.0,10.00
2024-10-11 20:19:49.646,1.0182081,0.6075351,1.0141174,1.0323756,1.0465201,0.14155957,0.6552902,0.95679957,1.0769566,0.46829107,0.57724214,0.92828166,0.54483116,0.17218253,0.18567461,0.58987105,-0.07702495,-0.0020476908,-0.17526647,0.12309862,794.17584,792.5641,805.4579,800.6227,966.2271,-0.1270751953125,0.07611083984375,1.0067138671875,-2.87109375,-2.55706787109375,-0.157012939453125,1,1.0,1.0,1.0,1.0,10.00
2024-10-11 20:19:49.647,1.0182081,0.6075351,1.0141174,1.0323756,1.0465201,0.14155957,0.6552902,0.95679957,1.0769566,0.46829107,0.57724214,0.92828166,0.54483116,0.17218253,0.18567461,0.58987105,-0.07702495,-0.0020476908,-0.17526647,0.12309862,793.7729,785.31134,803.0403,796.5934,890.07324,-0.1270751953125,0.07611083984375,1.0067138671875,-2.87109375,-2.55706787109375,-0.157012939453125,1,1.0,1.0,1.0,1.0,10.00
2024-10-11 20:19:49.648,1.0182081,0.6075351,1.0141174,1.0323756,1.0465201,0.14155957,0.6552902,0.95679957,1.0769566,0.46829107,0.57724214,0.92828166,0.54483116,0.17218253,0.18567461,0.58987105,-0.07702495,-0.0020476908,-0.17526647,0.12309862,793.36993,784.90845,800.2198,800.6227,724.4689,-0.1270751953125,0.07611083984375,1.0067138671875,-2.87109375,-2.55706787109375,-0.157012939453125,1,1.0,1.0,1.0,1.0,10.00
2024-10-11 20:19:49.648,1.0182081,0.6075351,1.0141174,1.0323756,1.0465201,0.14155957,0.6552902,0.95679957,1.0769566,0.46829107,0.57724214,0.92828166,0.54483116,0.17218253,0.18567461,0.58987105,-0.07702495,-0.0020476908,-0.17526647,0.12309862,798.20514,785.7143,806.6667,803.44324,773.6264,-0.1270751953125,0.07611083984375,1.0067138671875,-2.87109375,-2.55706787109375,-0.157012939453125,1,1.0,1.0,1.0,1.0,10.00
2024-10-11 20:19:49.649,1.0182081,0.6075351,1.0141174,1.0323756,1.0465201,0.14155957,0.6552902,0.95679957,1.0769566,0.46829107,0.57724214,0.92828166,0.54483116,0.17218253,0.18567461,0.58987105,-0.07702495,-0.0020476908,-0.17526647,0.12309862,802.6374,789.7436,798.60803,803.8461,931.1722,-0.1270751953125,0.07611083984375,1.0067138671875,-2.87109375,-2.55706787109375,-0.157012939453125,1,1.0,1.0,1.0,1.0,10.00
2024-10-11 20:19:49.650,1.0182081,0.6075351,1.0141174,1.0323756,1.0465201,0.14155957,0.6552902,0.95679957,1.0769566,0.46829107,0.57724214,0.92828166,0.54483116,0.17218253,0.18567461,0.58987105,-0.07702495,-0.0020476908,-0.17526647,0.12309862,815.12823,795.78754,797.3993,805.8608,768.7912,-0.1270751953125,0.07611083984375,1.0067138671875,-2.87109375,-2.55706787109375,-0.157012939453125,1,1.0,1.0,1.0,1.0,10.00
2024-10-11 20:19:49.650,1.0182081,0.6075351,1.0141174,1.0323756,1.0465201,0.14155957,0.6552902,0.95679957,1.0769566,0.46829107,0.57724214,0.92828166,0.54483116,0.17218253,0.18567461,0.58987105,-0.07702495,-0.0020476908,-0.17526647,0.12309862,806.6667,800.2198,804.65204,800.6227,599.9634,-0.1270751953125,0.07611083984375,1.0067138671875,-2.87109375,-2.55706787109375,-0.157012939453125,1,1.0,1.0,1.0,1.0,10.00
2024-10-11 20:19:49.682,1.0182081,0.6075351,1.0141174,1.0323756,1.0465201,0.14155957,0.6552902,0.95679957,1.0769566,0.46829107,0.57724214,0.92828166,0.54483116,0.17218253,0.18567461,0.58987105,-0.07702495,-0.0020476908,-0.17526647,0.12309862,799.011,801.8315,799.011,804.65204,748.24176,-0.12200927734375,0.07061767578125,0.99725341796875,-4.94964599609375,-4.463653564453125,-5.585174560546875,1,1.0,1.0,1.0,1.0,10.00
2024-10-11 20:19:49.684,1.0182081,0.6075351,1.0141174,1.0323756,1.0465201,0.14155957,0.6552902,0.95679957,1.0769566,0.46829107,0.57724214,0.92828166,0.54483116,0.17218253,0.18567461,0.58987105,-0.07702495,-0.0020476908,-0.17526647,0.12309862,802.6374,801.8315,802.23444,813.1135,915.8608,-0.12200927734375,0.07061767578125,0.99725341796875,-4.94964599609375,-4.463653564453125,-5.585174560546875,1,1.0,1.0,1.0,1.0,10.00
2024-10-11 20:19:49.686,1.0182081,0.6075351,1.0141174,1.0323756,1.0465201,0.14155957,0.6552902,0.95679957,1.0769566,0.46829107,0.57724214,0.92828166,0.54483116,0.17218253,0.18567461,0.58987105,-0.07702495,-0.0020476908,-0.17526647,0.12309862,794.9817,803.0403,805.4579,805.8608,719.2308,-0.12200927734375,0.07061767578125,0.99725341796875,-4.94964599609375,-4.463653564453125,-5.585174560546875,1,1.0,1.0,1.0,1.0,10.00
2024-10-11 20:19:49.688,1.0182081,0.6075351,1.0141174,1.0323756,1.0465201,0.14155957,0.6552902,0.95679957,1.0769566,0.46829107,0.57724214,0.92828166,0.54483116,0.17218253,0.18567461,0.58987105,-0.07702495,-0.0020476908,-0.17526647,0.12309862,798.20514,800.6227,799.81683,805.4579,531.8681,-0.12200927734375,0.07061767578125,0.99725341796875,-4.94964599609375,-4.463653564453125,-5.585174560546875,1,1.0,1.0,1.0,1.0,10.00
2024-10-11 20:19:49.688,1.0182081,0.6075351,1.0141174,1.0323756,1.0465201,0.14155957,0.6552902,0.95679957,1.0769566,0.46829107,0.57724214,0.92828166,0.54483116,0.17218253,0.18567461,0.58987105,-0.07702495,-0.0020476908,-0.17526647,0.12309862,799.81683,798.60803,806.6667,803.0403,730.5128,-0.12200927734375,0.07061767578125,0.99725341796875,-4.94964599609375,-4.463653564453125,-5.585174560546875,1,1.0,1.0,1.0,1.0,10.00
2024-10-11 20:19:49.689,1.0182081,0.6075351,1.0141174,1.0323756,1.0465201,0.14155957,0.6552902,0.95679957,1.0769566,0.46829107,0.57724214,0.92828166,0.54483116,0.17218253,0.18567461,0.58987105,-0.07702495,-0.0020476908,-0.17526647,0.12309862,796.1905,792.5641,805.4579,810.293,1354.652,-0.12200927734375,0.07061767578125,0.99725341796875,-4.94964599609375,-4.463653564453125,-5.585174560546875,1,1.0,1.0,1.0,1.0,10.00
2024-10-11 20:19:49.690,1.0182081,0.6075351,1.0141174,1.0323756,1.0465201,0.14155957,0.6552902,0.95679957,1.0769566,0.46829107,0.57724214,0.92828166,0.54483116,0.17218253,0.18567461,0.58987105,-0.07702495,-0.0020476908,-0.17526647,0.12309862,794.17584,795.78754,795.38464,808.68134,1335.7142,-0.12200927734375,0.07061767578125,0.99725341796875,-4.94964599609375,-4.463653564453125,-5.585174560546875,1,1.0,1.0,1.0,1.0,10.00
2024-10-11 20:19:49.691,1.0182081,0.6075351,1.0141174,1.0323756,1.0465201,0.14155957,0.6552902,0.95679957,1.0769566,0.46829107,0.57724214,0.92828166,0.54483116,0.17218253,0.18567461,0.58987105,-0.07702495,-0.0020476908,-0.17526647,0.12309862,787.326,796.99634,794.57874,784.10254,726.8865,-0.12200927734375,0.07061767578125,0.99725341796875,-4.94964599609375,-4.463653564453125,-5.585174560546875,1,1.0,1.0,1.0,1.0,10.00
2024-10-11 20:19:49.691,1.0182081,0.6075351,1.0141174,1.0323756,1.0465201,0.14155957,0.6552902,0.95679957,1.0769566,0.46829107,0.57724214,0.92828166,0.54483116,0.17218253,0.18567461,0.58987105,-0.07702495,-0.0020476908,-0.17526647,0.12309862,785.31134,789.7436,793.7729,784.5055,638.24176,-0.12200927734375,0.07061767578125,0.99725341796875,-4.94964599609375,-4.463653564453125,-5.585174560546875,1,1.0,1.0,1.0,1.0,10.00
2024-10-11 20:19:49.692,1.0182081,0.6075351,1.0141174,1.0323756,1.0465201,0.14155957,0.6552902,0.95679957,1.0769566,0.46829107,0.57724214,0.92828166,0.54483116,0.17218253,0.18567461,0.58987105,-0.07702495,-0.0020476908,-0.17526647,0.12309862,778.86444,780.07324,794.9817,787.326,842.9304,-0.12200927734375,0.07061767578125,0.99725341796875,-4.94964599609375,-4.463653564453125,-5.585174560546875,1,1.0,1.0,1.0,1.0,10.00
2024-10-11 20:19:49.693,1.0182081,0.6075351,1.0141174,1.0323756,1.0465201,0.14155957,0.6552902,0.95679957,1.0769566,0.46829107,0.57724214,0.92828166,0.54483116,0.17218253,0.18567461,0.58987105,-0.07702495,-0.0020476908,-0.17526647,0.12309862,778.86444,778.0586,807.8755,799.011,765.56775,-0.12200927734375,0.07061767578125,0.99725341796875,-4.94964599609375,-4.463653564453125,-5.585174560546875,1,1.0,1.0,1.0,1.0,10.00
2024-10-11 20:19:49.693,1.0182081,0.6075351,1.0141174,1.0323756,1.0465201,0.14155957,0.6552902,0.95679957,1.0769566,0.46829107,0.57724214,0.92828166,0.54483116,0.17218253,0.18567461,0.58987105,-0.07702495,-0.0020476908,-0.17526647,0.12309862,804.2491,793.36993,813.1135,814.3223,618.49817,-0.12200927734375,0.07061767578125,0.99725341796875,-4.94964599609375,-4.463653564453125,-5.585174560546875,1,1.0,1.0,1.0,1.0,10.00
2024-10-11 20:19:49.756,1.0182081,0.6075351,1.0141174,1.0323756,1.0465201,0.14155957,0.6552902,0.95679957,1.0769566,0.46829107,0.57724214,0.92828166,0.54483116,0.17218253,0.18567461,0.58987105,-0.07702495,-0.0020476908,-0.17526647,0.12309862,801.02563,813.5165,794.9817,794.57874,808.2784,-0.1207275390625,0.0540771484375,1.0120849609375,-7.0281982421875,-5.241241455078125,-10.6768798828125,1,1.0,1.0,1.0,1.0,10.00
2024-10-11 20:19:49.757,1.0465686,0.6311833,1.0714467,1.0593057,1.0792868,0.20475376,0.7374858,0.98695225,1.0769566,0.5620302,0.59738696,0.92828166,0.5678386,0.17847395,0.17371017,0.60810083,-0.08361961,-0.010921131,-0.18211383,0.14068057,785.7143,809.0842,786.9231,777.25275,888.0586,-0.1207275390625,0.0540771484375,1.0120849609375,-7.0281982421875,-5.241241455078125,-10.6768798828125,1,1.0,1.0,1.0,1.0,10.00
2024-10-11 20:19:49.763,1.0465686,0.6311833,1.0714467,1.0593057,1.0792868,0.20475376,0.7374858,0.98695225,1.0769566,0.5620302,0.59738696,0.92828166,0.5678386,0.17847395,0.17371017,0.60810083,-0.08361961,-0.010921131,-0.18211383,0.14068057,785.7143,806.26373,781.685,779.2674,748.6447,-0.1207275390625,0.0540771484375,1.0120849609375,-7.0281982421875,-5.241241455078125,-10.6768798828125,1,1.0,1.0,1.0,1.0,10.00
2024-10-11 20:19:49.764,1.0465686,0.6311833,1.0714467,1.0593057,1.0792868,0.20475376,0.7374858,0.98695225,1.0769566,0.5620302,0.59738696,0.92828166,0.5678386,0.17847395,0.17371017,0.60810083,-0.08361961,-0.010921131,-0.18211383,0.14068057,780.87915,808.68134,779.2674,778.0586,671.28204,-0.1207275390625,0.0540771484375,1.0120849609375,-7.0281982421875,-5.241241455078125,-10.6768798828125,1,1.0,1.0,1.0,1.0,10.00
2024-10-11 20:19:49.764,1.0465686,0.6311833,1.0714467,1.0593057,1.0792868,0.20475376,0.7374858,0.98695225,1.0769566,0.5620302,0.59738696,0.92828166,0.5678386,0.17847395,0.17371017,0.60810083,-0.08361961,-0.010921131,-0.18211383,0.14068057,786.9231,804.65204,776.4469,772.8205,657.1795,-0.1207275390625,0.0540771484375,1.0120849609375,-7.0281982421875,-5.241241455078125,-10.6768798828125,1,1.0,1.0,1.0,1.0,10.00
2024-10-11 20:19:49.765,1.0465686,0.6311833,1.0714467,1.0593057,1.0792868,0.20475376,0.7374858,0.98695225,1.0769566,0.5620302,0.59738696,0.92828166,0.5678386,0.17847395,0.17371017,0.60810083,-0.08361961,-0.010921131,-0.18211383,0.14068057,785.31134,813.5165,770.80585,768.7912,698.2784,-0.1207275390625,0.0540771484375,1.0120849609375,-7.0281982421875,-5.241241455078125,-10.6768798828125,1,1.0,1.0,1.0,1.0,10.00
2024-10-11 20:19:49.766,1.0465686,0.6311833,1.0714467,1.0593057,1.0792868,0.20475376,0.7374858,0.98695225,1.0769566,0.5620302,0.59738696,0.92828166,0.5678386,0.17847395,0.17371017,0.60810083,-0.08361961,-0.010921131,-0.18211383,0.14068057,773.22345,817.5458,769.59705,762.3443,782.49084,-0.1207275390625,0.0540771484375,1.0120849609375,-7.0281982421875,-5.241241455078125,-10.6768798828125,1,1.0,1.0,1.0,1.0,10.00
2024-10-11 20:19:49.766,1.0465686,0.6311833,1.0714467,1.0593057,1.0792868,0.20475376,0.7374858,0.98695225,1.0769566,0.5620302,0.59738696,0.92828166,0.5678386,0.17847395,0.17371017,0.60810083,-0.08361961,-0.010921131,-0.18211383,0.14068057,783.69965,817.5458,765.56775,766.77655,812.71063,-0.1207275390625,0.0540771484375,1.0120849609375,-7.0281982421875,-5.241241455078125,-10.6768798828125,1,1.0,1.0,1.0,1.0,10.00
2024-10-11 20:19:49.767,1.0465686,0.6311833,1.0714467,1.0593057,1.0792868,0.20475376,0.7374858,0.98695225,1.0769566,0.5620302,0.59738696,0.92828166,0.5678386,0.17847395,0.17371017,0.60810083,-0.08361961,-0.010921131,-0.18211383,0.14068057,787.72894,820.7692,762.74725,768.7912,719.6337,-0.1207275390625,0.0540771484375,1.0120849609375,-7.0281982421875,-5.241241455078125,-10.6768798828125,1,1.0,1.0,1.0,1.0,10.00
2024-10-11 20:19:49.768,1.0465686,0.6311833,1.0714467,1.0593057,1.0792868,0.20475376,0.7374858,0.98695225,1.0769566,0.5620302,0.59738696,0.92828166,0.5678386,0.17847395,0.17371017,0.60810083,-0.08361961,-0.010921131,-0.18211383,0.14068057,774.0293,819.15753,757.9121,759.12085,538.71796,-0.1207275390625,0.0540771484375,1.0120849609375,-7.0281982421875,-5.241241455078125,-10.6768798828125,1,1.0,1.0,1.0,1.0,10.00
2024-10-11 20:19:49.769,1.0465686,0.6311833,1.0714467,1.0593057,1.0792868,0.20475376,0.7374858,0.98695225,1.0769566,0.5620302,0.59738696,0.92828166,0.5678386,0.17847395,0.17371017,0.60810083,-0.08361961,-0.010921131,-0.18211383,0.14068057,774.0293,824.7985,755.09155,757.50916,529.0476,-0.1207275390625,0.0540771484375,1.0120849609375,-7.0281982421875,-5.241241455078125,-10.6768798828125,1,1.0,1.0,1.0,1.0,10.00
2024-10-11 20:19:49.769,1.0465686,0.6311833,1.0714467,1.0593057,1.0792868,0.20475376,0.7374858,0.98695225,1.0769566,0.5620302,0.59738696,0.92828166,0.5678386,0.17847395,0.17371017,0.60810083,-0.08361961,-0.010921131,-0.18211383,0.14068057,777.25275,828.4249,754.68866,759.92676,660.0,-0.1207275390625,0.0540771484375,1.0120849609375,-7.0281982421875,-5.241241455078125,-10.6768798828125,1,1.0,1.0,1.0,1.0,10.00
2024-10-11 20:19:49.770,1.0465686,0.6311833,1.0714467,1.0593057,1.0792868,0.20475376,0.7374858,0.98695225,1.0769566,0.5620302,0.59738696,0.92828166,0.5678386,0.17847395,0.17371017,0.60810083,-0.08361961,-0.010921131,-0.18211383,0.14068057,780.4762,825.2015,753.0769,762.3443,773.6264,-0.12353515625,0.0460205078125,1.00946044921875,-8.8824462890625,-6.81884765625,-15.110626220703125,1,1.0,1.0,1.0,1.0,10.00
2024-10-11 20:19:49.771,1.0465686,0.6311833,1.0714467,1.0593057,1.0792868,0.20475376,0.7374858,0.98695225,1.0769566,0.5620302,0.59738696,0.92828166,0.5678386,0.17847395,0.17371017,0.60810083,-0.08361961,-0.010921131,-0.18211383,0.14068057,775.64105,834.4689,750.65936,760.7326,757.50916,-0.12353515625,0.0460205078125,1.00946044921875,-8.8824462890625,-6.81884765625,-15.110626220703125,1,1.0,1.0,1.0,1.0,10.00
2024-10-11 20:19:49.772,1.0465686,0.6311833,1.0714467,1.0593057,1.0792868,0.20475376,0.7374858,0.98695225,1.0769566,0.5620302,0.59738696,0.92828166,0.5678386,0.17847395,0.17371017,0.60810083,-0.08361961,-0.010921131,-0.18211383,0.14068057,773.22345,842.52747,742.6007,755.89746,688.60803,-0.12353515625,0.0460205078125,1.00946044921875,-8.8824462890625,-6.81884765625,-15.110626220703125,1,1.0,1.0,1.0,1.0,10.00
2024-10-11 20:19:49.773,1.0465686,0.6311833,1.0714467,1.0593057,1.0792868,0.20475376,0.7374858,0.98695225,1.0769566,0.5620302,0.59738696,0.92828166,0.5678386,0.17847395,0.17371017,0.60810083,-0.08361961,-0.010921131,-0.18211383,0.14068057,774.83514,836.4835,743.00366,752.27106,730.5128,-0.12353515625,0.0460205078125,1.00946044921875,-8.8824462890625,-6.81884765625,-15.110626220703125,1,1.0,1.0,1.0,1.0,10.00
2024-10-11 20:19:49.773,1.0465686,0.6311833,1.0714467,1.0593057,1.0792868,0.20475376,0.7374858,0.98695225,1.0769566,0.5620302,0.59738696,0.92828166,0.5678386,0.17847395,0.17371017,0.60810083,-0.08361961,-0.010921131,-0.18211383,0.14068057,776.04395,838.0952,747.4359,749.85345,763.95605,-0.12353515625,0.0460205078125,1.00946044921875,-8.8824462890625,-6.81884765625,-15.110626220703125,1,1.0,1.0,1.0,1.0,10.00
2024-10-11 20:19:49.774,1.0465686,0.6311833,1.0714467,1.0593057,1.0792868,0.20475376,0.7374858,0.98695225,1.0769566,0.5620302,0.59738696,0.92828166,0.5678386,0.17847395,0.17371017,0.60810083,-0.08361961,-0.010921131,-0.18211383,0.14068057,779.2674,842.52747,738.5714,748.6447,687.8022,-0.12353515625,0.0460205078125,1.00946044921875,-8.8824462890625,-6.81884765625,-15.110626220703125,1,1.0,1.0,1.0,1.0,10.00
2024-10-11 20:19:49.775,1.0465686,0.6311833,1.0714467,1.0593057,1.0792868,0.20475376,0.7374858,0.98695225,1.0769566,0.5620302,0.59738696,0.92828166,0.5678386,0.17847395,0.17371017,0.60810083,-0.08361961,-0.010921131,-0.18211383,0.14068057,771.2088,848.1685,736.55676,747.4359,745.82416,-0.12353515625,0.0460205078125,1.00946044921875,-8.8824462890625,-6.81884765625,-15.110626220703125,1,1.0,1.0,1.0,1.0,10.00
2024-10-11 20:19:49.775,1.0465686,0.6311833,1.0714467,1.0593057,1.0792868,0.20475376,0.7374858,0.98695225,1.0769566,0.5620302,0.59738696,0.92828166,0.5678386,0.17847395,0.17371017,0.60810083,-0.08361961,-0.010921131,-0.18211383,0.14068057,772.01465,855.0183,740.58606,746.2271,841.7216,-0.12353515625,0.0460205078125,1.00946044921875,-8.8824462890625,-6.81884765625,-15.110626220703125,1,1.0,1.0,1.0,1.0,10.00
2024-10-11 20:19:49.776,1.0465686,0.6311833,1.0714467,1.0593057,1.0792868,0.20475376,0.7374858,0.98695225,1.0769566,0.5620302,0.59738696,0.92828166,0.5678386,0.17847395,0.17371017,0.60810083,-0.08361961,-0.010921131,-0.18211383,0.14068057,772.8205,852.6007,740.58606,740.58606,908.60803,-0.12353515625,0.0460205078125,1.00946044921875,-8.8824462890625,-6.81884765625,-15.110626220703125,1,1.0,1.0,1.0,1.0,10.00
2024-10-11 20:19:49.777,1.0465686,0.6311833,1.0714467,1.0593057,1.0792868,0.20475376,0.7374858,0.98695225,1.0769566,0.5620302,0.59738696,0.92828166,0.5678386,0.17847395,0.17371017,0.60810083,-0.08361961,-0.010921131,-0.18211383,0.14068057,777.6557,845.34796,743.4066,740.989,674.90845,-0.12353515625,0.0460205078125,1.00946044921875,-8.8824462890625,-6.81884765625,-15.110626220703125,1,1.0,1.0,1.0,1.0,10.00
2024-10-11 20:19:49.778,1.0465686,0.6311833,1.0714467,1.0593057,1.0792868,0.20475376,0.7374858,0.98695225,1.0769566,0.5620302,0.59738696,0.92828166,0.5678386,0.17847395,0.17371017,0.60810083,-0.08361961,-0.010921131,-0.18211383,0.14068057,780.87915,840.5128,734.5421,740.58606,643.47986,-0.12353515625,0.0460205078125,1.00946044921875,-8.8824462890625,-6.81884765625,-15.110626220703125,1,1.0,1.0,1.0,1.0,10.00
2024-10-11 20:19:49.778,1.0465686,0.6311833,1.0714467,1.0593057,1.0792868,0.20475376,0.7374858,0.98695225,1.0769566,0.5620302,0.59738696,0.92828166,0.5678386,0.17847395,0.17371017,0.60810083,-0.08361961,-0.010921131,-0.18211383,0.14068057,775.2381,841.7216,733.73627,739.7802,889.2674,-0.12353515625,0.0460205078125,1.00946044921875,-8.8824462890625,-6.81884765625,-15.110626220703125,1,1.0,1.0,1.0,1.0,10.00
2024-10-11 20:19:49.808,1.0465686,0.6311833,1.0714467,1.0593057,1.0792868,0.20475376,0.7374858,0.98695225,1.0769566,0.5620302,0.59738696,0.92828166,0.5678386,0.17847395,0.17371017,0.60810083,-0.08361961,-0.010921131,-0.18211383,0.14068057,775.64105,849.3773,743.4066,738.1685,843.73627,-0.12353515625,0.0460205078125,1.00946044921875,-8.8824462890625,-6.81884765625,-15.110626220703125,1,1.0,1.0,1.0,1.0,10.00
2024-10-11 20:19:49.809,1.0465686,0.6311833,1.0714467,1.0593057,1.0792868,0.20475376,0.7374858,0.98695225,1.0769566,0.5620302,0.59738696,0.92828166,0.5678386,0.17847395,0.17371017,0.60810083,-0.08361961,-0.010921131,-0.18211383,0.14068057,781.685,852.6007,747.8388,739.3773,655.56775,-0.12353515625,0.0460205078125,1.00946044921875,-8.8824462890625,-6.81884765625,-15.110626220703125,1,1.0,1.0,1.0,1.0,10.00
2024-10-11 20:19:49.810,1.0465686,0.6311833,1.0714467,1.0593057,1.0792868,0.20475376,0.7374858,0.98695225,1.0769566,0.5620302,0.59738696,0.92828166,0.5678386,0.17847395,0.17371017,0.60810083,-0.08361961,-0.010921131,-0.18211383,0.14068057,800.6227,849.3773,748.6447,750.2564,741.79486,-0.12353515625,0.0460205078125,1.00946044921875,-8.8824462890625,-6.81884765625,-15.110626220703125,1,1.0,1.0,1.0,1.0,10.00
2024-10-11 20:19:49.811,1.0806476,0.66320735,1.0993956,1.0950335,1.1165736,0.25537506,0.7619348,1.0202751,1.0769566,0.5898881,0.59738696,0.92828166,0.598734,0.18857671,0.17184356,0.6307448,-0.07405358,-0.012582402,-0.19668998,0.16390206,805.8608,843.3333,752.674,769.59705,1039.5604,-0.12353515625,0.0460205078125,1.00946044921875,-8.8824462890625,-6.81884765625,-15.110626220703125,1,1.0,1.0,1.0,1.0,10.00
2024-10-11 20:19:49.817,1.0806476,0.66320735,1.0993956,1.0950335,1.1165736,0.25537506,0.7619348,1.0202751,1.0769566,0.5898881,0.59738696,0.92828166,0.598734,0.18857671,0.17184356,0.6307448,-0.07405358,-0.012582402,-0.19668998,0.16390206,790.9524,834.4689,758.71796,776.04395,803.44324,-0.12353515625,0.0460205078125,1.00946044921875,-8.8824462890625,-6.81884765625,-15.110626220703125,1,1.0,1.0,1.0,1.0,10.00
2024-10-11 20:19:49.818,1.0806476,0.66320735,1.0993956,1.0950335,1.1165736,0.25537506,0.7619348,1.0202751,1.0769566,0.5898881,0.59738696,0.92828166,0.598734,0.18857671,0.17184356,0.6307448,-0.07405358,-0.012582402,-0.19668998,0.16390206,781.685,831.2454,756.7033,768.7912,562.0879,-0.12353515625,0.0460205078125,1.00946044921875,-8.8824462890625,-6.81884765625,-15.110626220703125,1,1.0,1.0,1.0,1.0,10.00
2024-10-11 20:19:49.819,1.0806476,0.66320735,1.0993956,1.0950335,1.1165736,0.25537506,0.7619348,1.0202751,1.0769566,0.5898881,0.59738696,0.92828166,0.598734,0.18857671,0.17184356,0.6307448,-0.07405358,-0.012582402,-0.19668998,0.16390206,784.10254,830.0366,758.315,775.2381,714.7985,-0.12353515625,0.0460205078125,1.00946044921875,-8.8824462890625,-6.81884765625,-15.110626220703125,1,1.0,1.0,1.0,1.0,10.00
2024-10-11 20:19:49.819,1.0806476,0.66320735,1.0993956,1.0950335,1.1165736,0.25537506,0.7619348,1.0202751,1.0769566,0.5898881,0.59738696,0.92828166,0.598734,0.18857671,0.17184356,0.6307448,-0.07405358,-0.012582402,-0.19668998,0.16390206,779.67035,823.5897,759.12085,775.2381,926.337,-0.12353515625,0.0460205078125,1.00946044921875,-8.8824462890625,-6.81884765625,-15.110626220703125,1,1.0,1.0,1.0,1.0,10.00
2024-10-11 20:19:49.820,1.0806476,0.66320735,1.0993956,1.0950335,1.1165736,0.25537506,0.7619348,1.0202751,1.0769566,0.5898881,0.59738696,0.92828166,0.598734,0.18857671,0.17184356,0.6307448,-0.07405358,-0.012582402,-0.19668998,0.16390206,779.67035,825.6044,751.4652,772.01465,812.3077,-0.12353515625,0.0460205078125,1.00946044921875,-8.8824462890625,-6.81884765625,-15.110626220703125,1,1.0,1.0,1.0,1.0,10.00
2024-10-11 20:19:49.821,1.0806476,0.66320735,1.0993956,1.0950335,1.1165736,0.25537506,0.7619348,1.0202751,1.0769566,0.5898881,0.59738696,0.92828166,0.598734,0.18857671,0.17184356,0.6307448,-0.07405358,-0.012582402,-0.19668998,0.16390206,785.7143,826.8132,748.6447,781.28204,578.60803,-0.12353515625,0.0460205078125,1.00946044921875,-8.8824462890625,-6.81884765625,-15.110626220703125,1,1.0,1.0,1.0,1.0,10.00
2024-10-11 20:19:49.821,1.0806476,0.66320735,1.0993956,1.0950335,1.1165736,0.25537506,0.7619348,1.0202751,1.0769566,0.5898881,0.59738696,0.92828166,0.598734,0.18857671,0.17184356,0.6307448,-0.07405358,-0.012582402,-0.19668998,0.16390206,786.9231,823.5897,754.2857,780.87915,630.18317,-0.12353515625,0.0460205078125,1.00946044921875,-8.8824462890625,-6.81884765625,-15.110626220703125,1,1.0,1.0,1.0,1.0,10.00
2024-10-11 20:19:49.822,1.0806476,0.66320735,1.0993956,1.0950335,1.1165736,0.25537506,0.7619348,1.0202751,1.0769566,0.5898881,0.59738696,0.92828166,0.598734,0.18857671,0.17184356,0.6307448,-0.07405358,-0.012582402,-0.19668998,0.16390206,786.9231,818.7546,758.315,771.2088,800.6227,-0.12353515625,0.0460205078125,1.00946044921875,-8.8824462890625,-6.81884765625,-15.110626220703125,1,1.0,1.0,1.0,1.0,10.00
2024-10-11 20:19:49.853,1.0806476,0.66320735,1.0993956,1.0950335,1.1165736,0.25537506,0.7619348,1.0202751,1.0769566,0.5898881,0.59738696,0.92828166,0.598734,0.18857671,0.17184356,0.6307448,-0.07405358,-0.012582402,-0.19668998,0.16390206,804.65204,814.7253,754.68866,784.5055,734.1392,-0.104248046875,0.03173828125,1.0015869140625,-10.624542236328125,-8.112335205078125,-18.490142822265625,1,1.0,1.0,1.0,1.0,10.00
2024-10-11 20:19:49.854,1.0806476,0.66320735,1.0993956,1.0950335,1.1165736,0.25537506,0.7619348,1.0202751,1.0769566,0.5898881,0.59738696,0.92828166,0.598734,0.18857671,0.17184356,0.6307448,-0.07405358,-0.012582402,-0.19668998,0.16390206,809.89014,812.3077,761.53845,783.2967,623.73627,-0.104248046875,0.03173828125,1.0015869140625,-10.624542236328125,-8.112335205078125,-18.490142822265625,1,1.0,1.0,1.0,1.0,10.00
2024-10-11 20:19:49.855,1.0806476,0.66320735,1.0993956,1.0950335,1.1165736,0.25537506,0.7619348,1.0202751,1.0769566,0.5898881,0.59738696,0.92828166,0.598734,0.18857671,0.17184356,0.6307448,-0.07405358,-0.012582402,-0.19668998,0.16390206,799.81683,809.89014,772.01465,781.28204,615.2747,-0.104248046875,0.03173828125,1.0015869140625,-10.624542236328125,-8.112335205078125,-18.490142822265625,1,1.0,1.0,1.0,1.0,10.00
2024-10-11 20:19:49.855,1.0806476,0.66320735,1.0993956,1.0950335,1.1165736,0.25537506,0.7619348,1.0202751,1.0769566,0.5898881,0.59738696,0.92828166,0.598734,0.18857671,0.17184356,0.6307448,-0.07405358,-0.012582402,-0.19668998,0.16390206,808.68134,811.9048,774.0293,803.44324,1043.1868,-0.104248046875,0.03173828125,1.0015869140625,-10.624542236328125,-8.112335205078125,-18.490142822265625,1,1.0,1.0,1.0,1.0,10.00
2024-10-11 20:19:49.856,1.0806476,0.66320735,1.0993956,1.0950335,1.1165736,0.25537506,0.7619348,1.0202751,1.0769566,0.5898881,0.59738696,0.92828166,0.598734,0.18857671,0.17184356,0.6307448,-0.07405358,-0.012582402,-0.19668998,0.16390206,810.293,811.9048,777.25275,803.0403,1030.2931,-0.104248046875,0.03173828125,1.0015869140625,-10.624542236328125,-8.112335205078125,-18.490142822265625,1,1.0,1.0,1.0,1.0,10.00
2024-10-11 20:19:49.857,1.0806476,0.66320735,1.0993956,1.0950335,1.1165736,0.25537506,0.7619348,1.0202751,1.0769566,0.5898881,0.59738696,0.92828166,0.598734,0.18857671,0.17184356,0.6307448,-0.07405358,-0.012582402,-0.19668998,0.16390206,815.9341,809.89014,780.87915,795.78754,657.1795,-0.104248046875,0.03173828125,1.0015869140625,-10.624542236328125,-8.112335205078125,-18.490142822265625,1,1.0,1.0,1.0,1.0,10.00
2024-10-11 20:19:49.857,1.0806476,0.66320735,1.0993956,1.0950335,1.1165736,0.25537506,0.7619348,1.0202751,1.0769566,0.5898881,0.59738696,0.92828166,0.598734,0.18857671,0.17184356,0.6307448,-0.07405358,-0.012582402,-0.19668998,0.16390206,819.9634,812.71063,778.0586,796.1905,830.84247,-0.104248046875,0.03173828125,1.0015869140625,-10.624542236328125,-8.112335205078125,-18.490142822265625,1,1.0,1.0,1.0,1.0,10.00
2024-10-11 20:19:49.858,1.0806476,0.66320735,1.0993956,1.0950335,1.1165736,0.25537506,0.7619348,1.0202751,1.0769566,0.5898881,0.59738696,0.92828166,0.598734,0.18857671,0.17184356,0.6307448,-0.07405358,-0.012582402,-0.19668998,0.16390206,813.5165,809.89014,774.0293,793.7729,957.3626,-0.104248046875,0.03173828125,1.0015869140625,-10.624542236328125,-8.112335205078125,-18.490142822265625,1,1.0,1.0,1.0,1.0,10.00
2024-10-11 20:19:49.859,1.0806476,0.66320735,1.0993956,1.0950335,1.1165736,0.25537506,0.7619348,1.0202751,1.0769566,0.5898881,0.59738696,0.92828166,0.598734,0.18857671,0.17184356,0.6307448,-0.07405358,-0.012582402,-0.19668998,0.16390206,811.9048,807.0696,781.28204,796.99634,795.38464,-0.104248046875,0.03173828125,1.0015869140625,-10.624542236328125,-8.112335205078125,-18.490142822265625,1,1.0,1.0,1.0,1.0,10.00
2024-10-11 20:19:49.860,1.0806476,0.66320735,1.0993956,1.0950335,1.1165736,0.25537506,0.7619348,1.0202751,1.0769566,0.5898881,0.59738696,0.92828166,0.598734,0.18857671,0.17184356,0.6307448,-0.07405358,-0.012582402,-0.19668998,0.16390206,804.65204,799.41394,783.69965,796.5934,738.5714,-0.104248046875,0.03173828125,1.0015869140625,-10.624542236328125,-8.112335205078125,-18.490142822265625,1,1.0,1.0,1.0,1.0,10.00
2024-10-11 20:19:49.860,1.0806476,0.66320735,1.0993956,1.0950335,1.1165736,0.25537506,0.7619348,1.0202751,1.0769566,0.5898881,0.59738696,0.92828166,0.598734,0.18857671,0.17184356,0.6307448,-0.07405358,-0.012582402,-0.19668998,0.16390206,802.6374,791.3553,783.69965,797.3993,777.6557,-0.104248046875,0.03173828125,1.0015869140625,-10.624542236328125,-8.112335205078125,-18.490142822265625,1,1.0,1.0,1.0,1.0,10.00
2024-10-11 20:19:49.861,1.0806476,0.66320735,1.0993956,1.0950335,1.1165736,0.25537506,0.7619348,1.0202751,1.0769566,0.5898881,0.59738696,0.92828166,0.598734,0.18857671,0.17184356,0.6307448,-0.07405358,-0.012582402,-0.19668998,0.16390206,800.6227,798.60803,784.90845,802.6374,797.8022,-0.104248046875,0.03173828125,1.0015869140625,-10.624542236328125,-8.112335205078125,-18.490142822265625,1,1.0,1.0,1.0,1.0,10.00
2024-10-11 20:19:49.987,1.0806476,0.66320735,1.0993956,1.0950335,1.1165736,0.25537506,0.7619348,1.0202751,1.0769566,0.5898881,0.59738696,0.92828166,0.598734,0.18857671,0.17184356,0.6307448,-0.07405358,-0.012582402,-0.19668998,0.16390206,794.57874,803.44324,788.1319,799.011,721.6484,-0.0966796875,0.0133056640625,1.00115966796875,-11.611480712890625,-6.69921875,-18.520050048828125,1,1.0,1.0,1.0,1.0,10.00
2024-10-11 20:19:49.988,1.0806476,0.66320735,1.0993956,1.0950335,1.1165736,0.25537506,0.7619348,1.0202751,1.0769566,0.5898881,0.59738696,0.92828166,0.598734,0.18857671,0.17184356,0.6307448,-0.07405358,-0.012582402,-0.19668998,0.16390206,794.9817,801.8315,793.36993,796.1905,716.8132,-0.0966796875,0.0133056640625,1.00115966796875,-11.611480712890625,-6.69921875,-18.520050048828125,1,1.0,1.0,1.0,1.0,10.00
2024-10-11 20:19:49.988,1.0806476,0.66320735,1.0993956,1.0950335,1.1165736,0.25537506,0.7619348,1.0202751,1.0769566,0.5898881,0.59738696,0.92828166,0.598734,0.18857671,0.17184356,0.6307448,-0.07405358,-0.012582402,-0.19668998,0.16390206,801.8315,803.8461,789.7436,806.26373,852.6007,-0.0966796875,0.0133056640625,1.00115966796875,-11.611480712890625,-6.69921875,-18.520050048828125,1,1.0,1.0,1.0,1.0,10.00
2024-10-11 20:19:49.989,1.0806476,0.66320735,1.0993956,1.0950335,1.1165736,0.25537506,0.7619348,1.0202751,1.0769566,0.5898881,0.59738696,0.92828166,0.598734,0.18857671,0.17184356,0.6307448,-0.07405358,-0.012582402,-0.19668998,0.16390206,807.0696,797.3993,787.326,804.65204,784.90845,-0.0966796875,0.0133056640625,1.00115966796875,-11.611480712890625,-6.69921875,-18.520050048828125,1,1.0,1.0,1.0,1.0,10.00
2024-10-11 20:19:49.990,1.0806476,0.66320735,1.0993956,1.0950335,1.1165736,0.25537506,0.7619348,1.0202751,1.0769566,0.5898881,0.59738696,0.92828166,0.598734,0.18857671,0.17184356,0.6307448,-0.07405358,-0.012582402,-0.19668998,0.16390206,802.6374,791.3553,789.7436,802.6374,716.0073,-0.0966796875,0.0133056640625,1.00115966796875,-11.611480712890625,-6.69921875,-18.520050048828125,1,1.0,1.0,1.0,1.0,10.00
2024-10-11 20:19:49.991,1.118456,0.70175743,1.1254843,1.1351192,1.1576977,0.29721773,0.7879927,1.0572612,1.0769566,0.5927911,0.59738696,0.92828166,0.6343488,0.20603153,0.165737,0.65522224,-0.05387041,-0.0104500195,-0.20545262,0.19064976,803.8461,799.81683,792.1612,811.0989,926.7399,-0.0966796875,0.0133056640625,1.00115966796875,-11.611480712890625,-6.69921875,-18.520050048828125,1,1.0,1.0,1.0,1.0,10.00
2024-10-11 20:19:49.997,1.118456,0.70175743,1.1254843,1.1351192,1.1576977,0.29721773,0.7879927,1.0572612,1.0769566,0.5927911,0.59738696,0.92828166,0.6343488,0.20603153,0.165737,0.65522224,-0.05387041,-0.0104500195,-0.20545262,0.19064976,811.50183,802.23444,797.8022,819.15753,1141.0989,-0.0966796875,0.0133056640625,1.00115966796875,-11.611480712890625,-6.69921875,-18.520050048828125,1,1.0,1.0,1.0,1.0,10.00
2024-10-11 20:19:49.998,1.118456,0.70175743,1.1254843,1.1351192,1.1576977,0.29721773,0.7879927,1.0572612,1.0769566,0.5927911,0.59738696,0.92828166,0.6343488,0.20603153,0.165737,0.65522224,-0.05387041,-0.0104500195,-0.20545262,0.19064976,818.3516,796.99634,792.5641,817.9487,819.15753,-0.0966796875,0.0133056640625,1.00115966796875,-11.611480712890625,-6.69921875,-18.520050048828125,1,1.0,1.0,1.0,1.0,10.00
2024-10-11 20:19:49.999,1.118456,0.70175743,1.1254843,1.1351192,1.1576977,0.29721773,0.7879927,1.0572612,1.0769566,0.5927911,0.59738696,0.92828166,0.6343488,0.20603153,0.165737,0.65522224,-0.05387041,-0.0104500195,-0.20545262,0.19064976,818.3516,792.1612,789.34064,815.12823,649.92676,-0.0966796875,0.0133056640625,1.00115966796875,-11.611480712890625,-6.69921875,-18.520050048828125,1,1.0,1.0,1.0,1.0,10.00
2024-10-11 20:19:49.999,1.118456,0.70175743,1.1254843,1.1351192,1.1576977,0.29721773,0.7879927,1.0572612,1.0769566,0.5927911,0.59738696,0.92828166,0.6343488,0.20603153,0.165737,0.65522224,-0.05387041,-0.0104500195,-0.20545262,0.19064976,822.381,794.17584,791.75824,820.7692,836.4835,-0.0966796875,0.0133056640625,1.00115966796875,-11.611480712890625,-6.69921875,-18.520050048828125,1,1.0,1.0,1.0,1.0,10.00
2024-10-11 20:19:50.000,1.118456,0.70175743,1.1254843,1.1351192,1.1576977,0.29721773,0.7879927,1.0572612,1.0769566,0.5927911,0.59738696,0.92828166,0.6343488,0.20603153,0.165737,0.65522224,-0.05387041,-0.0104500195,-0.20545262,0.19064976,819.5604,793.7729,792.96704,812.3077,853.4066,-0.0966796875,0.0133056640625,1.00115966796875,-11.611480712890625,-6.69921875,-18.520050048828125,1,1.0,1.0,1.0,1.0,10.00
2024-10-11 20:19:50.001,1.118456,0.70175743,1.1254843,1.1351192,1.1576977,0.29721773,0.7879927,1.0572612,1.0769566,0.5927911,0.59738696,0.92828166,0.6343488,0.20603153,0.165737,0.65522224,-0.05387041,-0.0104500195,-0.20545262,0.19064976,822.381,800.2198,799.41394,811.50183,745.82416,-0.0966796875,0.0133056640625,1.00115966796875,-11.611480712890625,-6.69921875,-18.520050048828125,1,1.0,1.0,1.0,1.0,10.00
2024-10-11 20:19:50.030,1.118456,0.70175743,1.1254843,1.1351192,1.1576977,0.29721773,0.7879927,1.0572612,1.0769566,0.5927911,0.59738696,0.92828166,0.6343488,0.20603153,0.165737,0.65522224,-0.05387041,-0.0104500195,-0.20545262,0.19064976,828.4249,803.8461,799.011,812.3077,562.49084,-0.095458984375,-0.01123046875,1.0101318359375,-11.20025634765625,-5.241241455078125,-16.830291748046875,1,1.0,1.0,1.0,1.0,10.00
2024-10-11 20:19:50.031,1.118456,0.70175743,1.1254843,1.1351192,1.1576977,0.29721773,0.7879927,1.0572612,1.0769566,0.5927911,0.59738696,0.92828166,0.6343488,0.20603153,0.165737,0.65522224,-0.05387041,-0.0104500195,-0.20545262,0.19064976,823.5897,791.3553,796.1905,808.68134,695.05493,-0.095458984375,-0.01123046875,1.0101318359375,-11.20025634765625,-5.241241455078125,-16.830291748046875,1,1.0,1.0,1.0,1.0,10.00
2024-10-11 20:19:50.032,1.118456,0.70175743,1.1254843,1.1351192,1.1576977,0.29721773,0.7879927,1.0572612,1.0769566,0.5927911,0.59738696,0.92828166,0.6343488,0.20603153,0.165737,0.65522224,-0.05387041,-0.0104500195,-0.20545262,0.19064976,823.1868,787.72894,799.81683,817.1429,952.1245,-0.095458984375,-0.01123046875,1.0101318359375,-11.20025634765625,-5.241241455078125,-16.830291748046875,1,1.0,1.0,1.0,1.0,10.00
2024-10-11 20:19:50.033,1.118456,0.70175743,1.1254843,1.1351192,1.1576977,0.29721773,0.7879927,1.0572612,1.0769566,0.5927911,0.59738696,0.92828166,0.6343488,0.20603153,0.165737,0.65522224,-0.05387041,-0.0104500195,-0.20545262,0.19064976,824.7985,801.8315,802.23444,820.7692,737.3626,-0.095458984375,-0.01123046875,1.0101318359375,-11.20025634765625,-5.241241455078125,-16.830291748046875,1,1.0,1.0,1.0,1.0,10.00
2024-10-11 20:19:50.033,1.118456,0.70175743,1.1254843,1.1351192,1.1576977,0.29721773,0.7879927,1.0572612,1.0769566,0.5927911,0.59738696,0.92828166,0.6343488,0.20603153,0.165737,0.65522224,-0.05387041,-0.0104500195,-0.20545262,0.19064976,820.3663,803.0403,801.8315,813.91943,657.1795,-0.095458984375,-0.01123046875,1.0101318359375,-11.20025634765625,-5.241241455078125,-16.830291748046875,1,1.0,1.0,1.0,1.0,10.00
2024-10-11 20:19:50.034,1.118456,0.70175743,1.1254843,1.1351192,1.1576977,0.29721773,0.7879927,1.0572612,1.0769566,0.5927911,0.59738696,0.92828166,0.6343488,0.20603153,0.165737,0.65522224,-0.05387041,-0.0104500195,-0.20545262,0.19064976,818.3516,796.1905,795.38464,816.7399,983.1502,-0.095458984375,-0.01123046875,1.0101318359375,-11.20025634765625,-5.241241455078125,-16.830291748046875,1,1.0,1.0,1.0,1.0,10.00
2024-10-11 20:19:50.035,1.118456,0.70175743,1.1254843,1.1351192,1.1576977,0.29721773,0.7879927,1.0572612,1.0769566,0.5927911,0.59738696,0.92828166,0.6343488,0.20603153,0.165737,0.65522224,-0.05387041,-0.0104500195,-0.20545262,0.19064976,824.3956,796.99634,792.96704,821.5751,1141.9048,-0.095458984375,-0.01123046875,1.0101318359375,-11.20025634765625,-5.241241455078125,-16.830291748046875,1,1.0,1.0,1.0,1.0,10.00
2024-10-11 20:19:50.036,1.118456,0.70175743,1.1254843,1.1351192,1.1576977,0.29721773,0.7879927,1.0572612,1.0769566,0.5927911,0.59738696,0.92828166,0.6343488,0.20603153,0.165737,0.65522224,-0.05387041,-0.0104500195,-0.20545262,0.19064976,821.5751,801.02563,799.81683,815.12823,844.5421,-0.095458984375,-0.01123046875,1.0101318359375,-11.20025634765625,-5.241241455078125,-16.830291748046875,1,1.0,1.0,1.0,1.0,10.00
2024-10-11 20:19:50.036,1.118456,0.70175743,1.1254843,1.1351192,1.1576977,0.29721773,0.7879927,1.0572612,1.0769566,0.5927911,0.59738696,0.92828166,0.6343488,0.20603153,0.165737,0.65522224,-0.05387041,-0.0104500195,-0.20545262,0.19064976,811.0989,809.0842,793.7729,813.1135,630.989,-0.095458984375,-0.01123046875,1.0101318359375,-11.20025634765625,-5.241241455078125,-16.830291748046875,1,1.0,1.0,1.0,1.0,10.00
2024-10-11 20:19:50.037,1.118456,0.70175743,1.1254843,1.1351192,1.1576977,0.29721773,0.7879927,1.0572612,1.0769566,0.5927911,0.59738696,0.92828166,0.6343488,0.20603153,0.165737,0.65522224,-0.05387041,-0.0104500195,-0.20545262,0.19064976,815.5311,808.2784,798.60803,820.3663,804.65204,-0.095458984375,-0.01123046875,1.0101318359375,-11.20025634765625,-5.241241455078125,-16.830291748046875,1,1.0,1.0,1.0,1.0,10.00
2024-10-11 20:19:50.038,1.118456,0.70175743,1.1254843,1.1351192,1.1576977,0.29721773,0.7879927,1.0572612,1.0769566,0.5927911,0.59738696,0.92828166,0.6343488,0.20603153,0.165737,0.65522224,-0.05387041,-0.0104500195,-0.20545262,0.19064976,812.71063,802.6374,799.81683,817.5458,927.1429,-0.095458984375,-0.01123046875,1.0101318359375,-11.20025634765625,-5.241241455078125,-16.830291748046875,1,1.0,1.0,1.0,1.0,10.00
2024-10-11 20:19:50.038,1.118456,0.70175743,1.1254843,1.1351192,1.1576977,0.29721773,0.7879927,1.0572612,1.0769566,0.5927911,0.59738696,0.92828166,0.6343488,0.20603153,0.165737,0.65522224,-0.05387041,-0.0104500195,-0.20545262,0.19064976,805.4579,799.41394,795.38464,813.91943,883.6264,-0.095458984375,-0.01123046875,1.0101318359375,-11.20025634765625,-5.241241455078125,-16.830291748046875,1,1.0,1.0,1.0,1.0,10.00
2024-10-11 20:19:50.104,1.118456,0.70175743,1.1254843,1.1351192,1.1576977,0.29721773,0.7879927,1.0572612,1.0769566,0.5927911,0.59738696,0.92828166,0.6343488,0.20603153,0.165737,0.65522224,-0.05387041,-0.0104500195,-0.20545262,0.19064976,799.81683,792.5641,799.011,816.7399,806.26373,-0.0963134765625,-0.02734375,0.99066162109375,-9.94415283203125,-4.007568359375,-14.303131103515625,1,1.0,1.0,1.0,1.0,10.00
2024-10-11 20:19:50.105,1.118456,0.70175743,1.1254843,1.1351192,1.1576977,0.29721773,0.7879927,1.0572612,1.0769566,0.5927911,0.59738696,0.92828166,0.6343488,0.20603153,0.165737,0.65522224,-0.05387041,-0.0104500195,-0.20545262,0.19064976,798.20514,792.5641,799.41394,813.5165,887.25275,-0.0963134765625,-0.02734375,0.99066162109375,-9.94415283203125,-4.007568359375,-14.303131103515625,1,1.0,1.0,1.0,1.0,10.00
2024-10-11 20:19:50.106,1.118456,0.70175743,1.1254843,1.1351192,1.1576977,0.29721773,0.7879927,1.0572612,1.0769566,0.5927911,0.59738696,0.92828166,0.6343488,0.20603153,0.165737,0.65522224,-0.05387041,-0.0104500195,-0.20545262,0.19064976,805.8608,798.60803,798.20514,812.3077,886.4469,-0.0963134765625,-0.02734375,0.99066162109375,-9.94415283203125,-4.007568359375,-14.303131103515625,1,1.0,1.0,1.0,1.0,10.00
2024-10-11 20:19:50.107,1.118456,0.70175743,1.1254843,1.1351192,1.1576977,0.29721773,0.7879927,1.0572612,1.0769566,0.5927911,0.59738696,0.92828166,0.6343488,0.20603153,0.165737,0.65522224,-0.05387041,-0.0104500195,-0.20545262,0.19064976,801.02563,803.8461,796.99634,804.2491,745.42126,-0.0963134765625,-0.02734375,0.99066162109375,-9.94415283203125,-4.007568359375,-14.303131103515625,1,1.0,1.0,1.0,1.0,10.00
2024-10-11 20:19:50.107,1.118456,0.70175743,1.1254843,1.1351192,1.1576977,0.29721773,0.7879927,1.0572612,1.0769566,0.5927911,0.59738696,0.92828166,0.6343488,0.20603153,0.165737,0.65522224,-0.05387041,-0.0104500195,-0.20545262,0.19064976,800.6227,801.02563,801.4286,801.4286,751.06226,-0.0963134765625,-0.02734375,0.99066162109375,-9.94415283203125,-4.007568359375,-14.303131103515625,1,1.0,1.0,1.0,1.0,10.00
2024-10-11 20:19:50.108,1.118456,0.70175743,1.1254843,1.1351192,1.1576977,0.29721773,0.7879927,1.0572612,1.0769566,0.5927911,0.59738696,0.92828166,0.6343488,0.20603153,0.165737,0.65522224,-0.05387041,-0.0104500195,-0.20545262,0.19064976,813.5165,798.60803,799.011,814.7253,973.0769,-0.0963134765625,-0.02734375,0.99066162109375,-9.94415283203125,-4.007568359375,-14.303131103515625,1,1.0,1.0,1.0,1.0,10.00
2024-10-11 20:19:50.109,1.118456,0.70175743,1.1254843,1.1351192,1.1576977,0.29721773,0.7879927,1.0572612,1.0769566,0.5927911,0.59738696,0.92828166,0.6343488,0.20603153,0.165737,0.65522224,-0.05387041,-0.0104500195,-0.20545262,0.19064976,815.9341,798.20514,802.23444,815.12823,1025.0549,-0.0963134765625,-0.02734375,0.99066162109375,-9.94415283203125,-4.007568359375,-14.303131103515625,1,1.0,1.0,1.0,1.0,10.00
2024-10-11 20:19:50.109,1.153563,0.71295553,1.1433511,1.174576,1.1759405,0.31219625,0.81003666,1.0964755,1.0769566,0.5927911,0.59738696,0.92828166,0.6603251,0.20789167,0.15720177,0.67763466,-0.03116823,-0.015059095,-0.20526868,0.21747701,815.12823,798.60803,804.65204,816.337,827.2161,-0.0963134765625,-0.02734375,0.99066162109375,-9.94415283203125,-4.007568359375,-14.303131103515625,1,1.0,1.0,1.0,1.0,10.00
2024-10-11 20:19:50.116,1.153563,0.71295553,1.1433511,1.174576,1.1759405,0.31219625,0.81003666,1.0964755,1.0769566,0.5927911,0.59738696,0.92828166,0.6603251,0.20789167,0.15720177,0.67763466,-0.03116823,-0.015059095,-0.20526868,0.21747701,809.89014,799.011,800.6227,817.1429,763.1502,-0.0963134765625,-0.02734375,0.99066162109375,-9.94415283203125,-4.007568359375,-14.303131103515625,1,1.0,1.0,1.0,1.0,10.00
2024-10-11 20:19:50.117,1.153563,0.71295553,1.1433511,1.174576,1.1759405,0.31219625,0.81003666,1.0964755,1.0769566,0.5927911,0.59738696,0.92828166,0.6603251,0.20789167,0.15720177,0.67763466,-0.03116823,-0.015059095,-0.20526868,0.21747701,807.8755,800.2198,807.0696,812.71063,925.12823,-0.0963134765625,-0.02734375,0.99066162109375,-9.94415283203125,-4.007568359375,-14.303131103515625,1,1.0,1.0,1.0,1.0,10.00
2024-10-11 20:19:50.118,1.153563,0.71295553,1.1433511,1.174576,1.1759405,0.31219625,0.81003666,1.0964755,1.0769566,0.5927911,0.59738696,0.92828166,0.6603251,0.20789167,0.15720177,0.67763466,-0.03116823,-0.015059095,-0.20526868,0.21747701,817.5458,799.011,809.4872,813.91943,863.8828,-0.0963134765625,-0.02734375,0.99066162109375,-9.94415283203125,-4.007568359375,-14.303131103515625,1,1.0,1.0,1.0,1.0,10.00
2024-10-11 20:19:50.119,1.153563,0.71295553,1.1433511,1.174576,1.1759405,0.31219625,0.81003666,1.0964755,1.0769566,0.5927911,0.59738696,0.92828166,0.6603251,0.20789167,0.15720177,0.67763466,-0.03116823,-0.015059095,-0.20526868,0.21747701,808.68134,791.3553,807.8755,809.0842,764.35895,-0.0963134765625,-0.02734375,0.99066162109375,-9.94415283203125,-4.007568359375,-14.303131103515625,1,1.0,1.0,1.0,1.0,10.00
2024-10-11 20:19:50.149,1.153563,0.71295553,1.1433511,1.174576,1.1759405,0.31219625,0.81003666,1.0964755,1.0769566,0.5927911,0.59738696,0.92828166,0.6603251,0.20789167,0.15720177,0.67763466,-0.03116823,-0.015059095,-0.20526868,0.21747701,796.99634,799.81683,807.8755,807.8755,826.0073,-0.09515380859375,-0.05133056640625,0.991455078125,-7.514190673828125,-1.80938720703125,-10.265655517578125,1,1.0,1.0,1.0,1.0,10.00
2024-10-11 20:19:50.150,1.153563,0.71295553,1.1433511,1.174576,1.1759405,0.31219625,0.81003666,1.0964755,1.0769566,0.5927911,0.59738696,0.92828166,0.6603251,0.20789167,0.15720177,0.67763466,-0.03116823,-0.015059095,-0.20526868,0.21747701,798.20514,803.8461,807.47253,806.26373,887.6557,-0.09515380859375,-0.05133056640625,0.991455078125,-7.514190673828125,-1.80938720703125,-10.265655517578125,1,1.0,1.0,1.0,1.0,10.00
2024-10-11 20:19:50.151,1.153563,0.71295553,1.1433511,1.174576,1.1759405,0.31219625,0.81003666,1.0964755,1.0769566,0.5927911,0.59738696,0.92828166,0.6603251,0.20789167,0.15720177,0.67763466,-0.03116823,-0.015059095,-0.20526868,0.21747701,802.6374,798.20514,799.81683,802.23444,924.3223,-0.09515380859375,-0.05133056640625,0.991455078125,-7.514190673828125,-1.80938720703125,-10.265655517578125,1,1.0,1.0,1.0,1.0,10.00
2024-10-11 20:19:50.151,1.153563,0.71295553,1.1433511,1.174576,1.1759405,0.31219625,0.81003666,1.0964755,1.0769566,0.5927911,0.59738696,0.92828166,0.6603251,0.20789167,0.15720177,0.67763466,-0.03116823,-0.015059095,-0.20526868,0.21747701,807.47253,796.5934,794.9817,805.05493,754.68866,-0.09515380859375,-0.05133056640625,0.991455078125,-7.514190673828125,-1.80938720703125,-10.265655517578125,1,1.0,1.0,1.0,1.0,10.00
2024-10-11 20:19:50.152,1.153563,0.71295553,1.1433511,1.174576,1.1759405,0.31219625,0.81003666,1.0964755,1.0769566,0.5927911,0.59738696,0.92828166,0.6603251,0.20789167,0.15720177,0.67763466,-0.03116823,-0.015059095,-0.20526868,0.21747701,804.2491,797.3993,794.9817,805.4579,643.47986,-0.09515380859375,-0.05133056640625,0.991455078125,-7.514190673828125,-1.80938720703125,-10.265655517578125,1,1.0,1.0,1.0,1.0,10.00
2024-10-11 20:19:50.153,1.153563,0.71295553,1.1433511,1.174576,1.1759405,0.31219625,0.81003666,1.0964755,1.0769566,0.5927911,0.59738696,0.92828166,0.6603251,0.20789167,0.15720177,0.67763466,-0.03116823,-0.015059095,-0.20526868,0.21747701,805.8608,794.9817,801.8315,805.05493,880.40295,-0.09515380859375,-0.05133056640625,0.991455078125,-7.514190673828125,-1.80938720703125,-10.265655517578125,1,1.0,1.0,1.0,1.0,10.00
2024-10-11 20:19:50.153,1.153563,0.71295553,1.1433511,1.174576,1.1759405,0.31219625,0.81003666,1.0964755,1.0769566,0.5927911,0.59738696,0.92828166,0.6603251,0.20789167,0.15720177,0.67763466,-0.03116823,-0.015059095,-0.20526868,0.21747701,804.2491,796.99634,805.05493,807.8755,902.96704,-0.09515380859375,-0.05133056640625,0.991455078125,-7.514190673828125,-1.80938720703125,-10.265655517578125,1,1.0,1.0,1.0,1.0,10.00
2024-10-11 20:19:50.154,1.153563,0.71295553,1.1433511,1.174576,1.1759405,0.31219625,0.81003666,1.0964755,1.0769566,0.5927911,0.59738696,0.92828166,0.6603251,0.20789167,0.15720177,0.67763466,-0.03116823,-0.015059095,-0.20526868,0.21747701,796.99634,801.4286,800.6227,812.3077,805.4579,-0.09515380859375,-0.05133056640625,0.991455078125,-7.514190673828125,-1.80938720703125,-10.265655517578125,1,1.0,1.0,1.0,1.0,10.00
2024-10-11 20:19:50.155,1.153563,0.71295553,1.1433511,1.174576,1.1759405,0.31219625,0.81003666,1.0964755,1.0769566,0.5927911,0.59738696,0.92828166,0.6603251,0.20789167,0.15720177,0.67763466,-0.03116823,-0.015059095,-0.20526868,0.21747701,800.2198,801.02563,799.41394,813.5165,787.326,-0.09515380859375,-0.05133056640625,0.991455078125,-7.514190673828125,-1.80938720703125,-10.265655517578125,1,1.0,1.0,1.0,1.0,10.00
2024-10-11 20:19:50.156,1.153563,0.71295553,1.1433511,1.174576,1.1759405,0.31219625,0.81003666,1.0964755,1.0769566,0.5927911,0.59738696,0.92828166,0.6603251,0.20789167,0.15720177,0.67763466,-0.03116823,-0.015059095,-0.20526868,0.21747701,801.8315,799.011,802.23444,812.3077,759.92676,-0.09515380859375,-0.05133056640625,0.991455078125,-7.514190673828125,-1.80938720703125,-10.265655517578125,1,1.0,1.0,1.0,1.0,10.00
2024-10-11 20:19:50.156,1.153563,0.71295553,1.1433511,1.174576,1.1759405,0.31219625,0.81003666,1.0964755,1.0769566,0.5927911,0.59738696,0.92828166,0.6603251,0.20789167,0.15720177,0.67763466,-0.03116823,-0.015059095,-0.20526868,0.21747701,799.011,794.57874,799.41394,799.011,601.1722,-0.09515380859375,-0.05133056640625,0.991455078125,-7.514190673828125,-1.80938720703125,-10.265655517578125,1,1.0,1.0,1.0,1.0,10.00
2024-10-11 20:19:50.157,1.153563,0.71295553,1.1433511,1.174576,1.1759405,0.31219625,0.81003666,1.0964755,1.0769566,0.5927911,0.59738696,0.92828166,0.6603251,0.20789167,0.15720177,0.67763466,-0.03116823,-0.015059095,-0.20526868,0.21747701,799.011,792.1612,797.8022,798.20514,607.619,-0.09515380859375,-0.05133056640625,0.991455078125,-7.514190673828125,-1.80938720703125,-10.265655517578125,1,1.0,1.0,1.0,1.0,10.00
2024-10-11 20:19:50.158,1.153563,0.71295553,1.1433511,1.174576,1.1759405,0.31219625,0.81003666,1.0964755,1.0769566,0.5927911,0.59738696,0.92828166,0.6603251,0.20789167,0.15720177,0.67763466,-0.03116823,-0.015059095,-0.20526868,0.21747701,801.02563,793.7729,798.60803,806.26373,795.38464,-0.09515380859375,-0.05133056640625,0.991455078125,-7.514190673828125,-1.80938720703125,-10.265655517578125,1,1.0,1.0,1.0,1.0,10.00
2024-10-11 20:19:50.159,1.153563,0.71295553,1.1433511,1.174576,1.1759405,0.31219625,0.81003666,1.0964755,1.0769566,0.5927911,0.59738696,0.92828166,0.6603251,0.20789167,0.15720177,0.67763466,-0.03116823,-0.015059095,-0.20526868,0.21747701,801.02563,796.1905,794.17584,806.6667,792.1612,-0.09515380859375,-0.05133056640625,0.991455078125,-7.514190673828125,-1.80938720703125,-10.265655517578125,1,1.0,1.0,1.0,1.0,10.00
2024-10-11 20:19:50.159,1.153563,0.71295553,1.1433511,1.174576,1.1759405,0.31219625,0.81003666,1.0964755,1.0769566,0.5927911,0.59738696,0.92828166,0.6603251,0.20789167,0.15720177,0.67763466,-0.03116823,-0.015059095,-0.20526868,0.21747701,803.8461,798.20514,798.60803,805.05493,645.09155,-0.09515380859375,-0.05133056640625,0.991455078125,-7.514190673828125,-1.80938720703125,-10.265655517578125,1,1.0,1.0,1.0,1.0,10.00
2024-10-11 20:19:50.160,1.153563,0.71295553,1.1433511,1.174576,1.1759405,0.31219625,0.81003666,1.0964755,1.0769566,0.5927911,0.59738696,0.92828166,0.6603251,0.20789167,0.15720177,0.67763466,-0.03116823,-0.015059095,-0.20526868,0.21747701,806.6667,800.6227,803.0403,808.68134,710.3663,-0.09515380859375,-0.05133056640625,0.991455078125,-7.514190673828125,-1.80938720703125,-10.265655517578125,1,1.0,1.0,1.0,1.0,10.00
2024-10-11 20:19:50.161,1.153563,0.71295553,1.1433511,1.174576,1.1759405,0.31219625,0.81003666,1.0964755,1.0769566,0.5927911,0.59738696,0.92828166,0.6603251,0.20789167,0.15720177,0.67763466,-0.03116823,-0.015059095,-0.20526868,0.21747701,805.8608,795.38464,799.011,808.2784,944.87177,-0.09515380859375,-0.05133056640625,0.991455078125,-7.514190673828125,-1.80938720703125,-10.265655517578125,1,1.0,1.0,1.0,1.0,10.00
2024-10-11 20:19:50.163,1.153563,0.71295553,1.1433511,1.174576,1.1759405,0.31219625,0.81003666,1.0964755,1.0769566,0.5927911,0.59738696,0.92828166,0.6603251,0.20789167,0.15720177,0.67763466,-0.03116823,-0.015059095,-0.20526868,0.21747701,802.6374,788.93774,796.99634,810.293,917.0696,-0.09515380859375,-0.05133056640625,0.991455078125,-7.514190673828125,-1.80938720703125,-10.265655517578125,1,1.0,1.0,1.0,1.0,10.00
2024-10-11 20:19:50.164,1.153563,0.71295553,1.1433511,1.174576,1.1759405,0.31219625,0.81003666,1.0964755,1.0769566,0.5927911,0.59738696,0.92828166,0.6603251,0.20789167,0.15720177,0.67763466,-0.03116823,-0.015059095,-0.20526868,0.21747701,799.81683,790.9524,797.8022,807.8755,740.58606,-0.09515380859375,-0.05133056640625,0.991455078125,-7.514190673828125,-1.80938720703125,-10.265655517578125,1,1.0,1.0,1.0,1.0,10.00
2024-10-11 20:19:50.165,1.153563,0.71295553,1.1433511,1.174576,1.1759405,0.31219625,0.81003666,1.0964755,1.0769566,0.5927911,0.59738696,0.92828166,0.6603251,0.20789167,0.15720177,0.67763466,-0.03116823,-0.015059095,-0.20526868,0.21747701,808.68134,799.011,799.011,809.0842,805.8608,-0.09515380859375,-0.05133056640625,0.991455078125,-7.514190673828125,-1.80938720703125,-10.265655517578125,1,1.0,1.0,1.0,1.0,10.00
2024-10-11 20:19:50.165,1.153563,0.71295553,1.1433511,1.174576,1.1759405,0.31219625,0.81003666,1.0964755,1.0769566,0.5927911,0.59738696,0.92828166,0.6603251,0.20789167,0.15720177,0.67763466,-0.03116823,-0.015059095,-0.20526868,0.21747701,808.68134,804.65204,802.6374,813.91943,918.2784,-0.09515380859375,-0.05133056640625,0.991455078125,-7.514190673828125,-1.80938720703125,-10.265655517578125,1,1.0,1.0,1.0,1.0,10.00
2024-10-11 20:19:50.166,1.2037927,0.70608026,1.1448756,1.203689,1.190805,0.31979024,0.8212234,1.1354326,1.0769566,0.5927911,0.589939,0.9279717,0.68116415,0.20366299,0.15060431,0.698212,0.0019950494,-0.03259539,-0.19929314,0.23767732,805.8608,801.02563,799.41394,810.293,780.4762,-0.09515380859375,-0.05133056640625,0.991455078125,-7.514190673828125,-1.80938720703125,-10.265655517578125,1,1.0,1.0,1.0,1.0,10.00
2024-10-11 20:19:50.173,1.2037927,0.70608026,1.1448756,1.203689,1.190805,0.31979024,0.8212234,1.1354326,1.0769566,0.5927911,0.589939,0.9279717,0.68116415,0.20366299,0.15060431,0.698212,0.0019950494,-0.03259539,-0.19929314,0.23767732,806.26373,792.1612,797.3993,805.4579,655.56775,-0.09515380859375,-0.05133056640625,0.991455078125,-7.514190673828125,-1.80938720703125,-10.265655517578125,1,1.0,1.0,1.0,1.0,10.00
2024-10-11 20:19:50.174,1.2037927,0.70608026,1.1448756,1.203689,1.190805,0.31979024,0.8212234,1.1354326,1.0769566,0.5927911,0.589939,0.9279717,0.68116415,0.20366299,0.15060431,0.698212,0.0019950494,-0.03259539,-0.19929314,0.23767732,807.8755,792.1612,798.20514,802.6374,725.2747,-0.09515380859375,-0.05133056640625,0.991455078125,-7.514190673828125,-1.80938720703125,-10.265655517578125,1,1.0,1.0,1.0,1.0,10.00
2024-10-11 20:19:50.175,1.2037927,0.70608026,1.1448756,1.203689,1.190805,0.31979024,0.8212234,1.1354326,1.0769566,0.5927911,0.589939,0.9279717,0.68116415,0.20366299,0.15060431,0.698212,0.0019950494,-0.03259539,-0.19929314,0.23767732,814.3223,800.2198,805.4579,818.3516,939.6337,-0.10125732421875,-0.05438232421875,0.99365234375,-3.54400634765625,-1.136474609375,-6.160888671875,1,1.0,1.0,1.0,1.0,10.00
2024-10-11 20:19:50.176,1.2037927,0.70608026,1.1448756,1.203689,1.190805,0.31979024,0.8212234,1.1354326,1.0769566,0.5927911,0.589939,0.9279717,0.68116415,0.20366299,0.15060431,0.698212,0.0019950494,-0.03259539,-0.19929314,0.23767732,807.47253,794.57874,803.8461,815.12823,883.22345,-0.10125732421875,-0.05438232421875,0.99365234375,-3.54400634765625,-1.136474609375,-6.160888671875,1,1.0,1.0,1.0,1.0,10.00
2024-10-11 20:19:50.177,1.2037927,0.70608026,1.1448756,1.203689,1.190805,0.31979024,0.8212234,1.1354326,1.0769566,0.5927911,0.589939,0.9279717,0.68116415,0.20366299,0.15060431,0.698212,0.0019950494,-0.03259539,-0.19929314,0.23767732,799.81683,788.1319,796.5934,801.8315,751.06226,-0.10125732421875,-0.05438232421875,0.99365234375,-3.54400634765625,-1.136474609375,-6.160888671875,1,1.0,1.0,1.0,1.0,10.00
2024-10-11 20:19:50.178,1.2037927,0.70608026,1.1448756,1.203689,1.190805,0.31979024,0.8212234,1.1354326,1.0769566,0.5927911,0.589939,0.9279717,0.68116415,0.20366299,0.15060431,0.698212,0.0019950494,-0.03259539,-0.19929314,0.23767732,806.26373,786.9231,796.5934,806.6667,782.8938,-0.10125732421875,-0.05438232421875,0.99365234375,-3.54400634765625,-1.136474609375,-6.160888671875,1,1.0,1.0,1.0,1.0,10.00
2024-10-11 20:19:50.178,1.2037927,0.70608026,1.1448756,1.203689,1.190805,0.31979024,0.8212234,1.1354326,1.0769566,0.5927911,0.589939,0.9279717,0.68116415,0.20366299,0.15060431,0.698212,0.0019950494,-0.03259539,-0.19929314,0.23767732,810.293,790.9524,796.99634,813.5165,911.02563,-0.10125732421875,-0.05438232421875,0.99365234375,-3.54400634765625,-1.136474609375,-6.160888671875,1,1.0,1.0,1.0,1.0,10.00
2024-10-11 20:19:50.179,1.2037927,0.70608026,1.1448756,1.203689,1.190805,0.31979024,0.8212234,1.1354326,1.0769566,0.5927911,0.589939,0.9279717,0.68116415,0.20366299,0.15060431,0.698212,0.0019950494,-0.03259539,-0.19929314,0.23767732,809.4872,788.5348,797.3993,807.8755,910.6227,-0.10125732421875,-0.05438232421875,0.99365234375,-3.54400634765625,-1.136474609375,-6.160888671875,1,1.0,1.0,1.0,1.0,10.00
2024-10-11 20:19:50.180,1.2037927,0.70608026,1.1448756,1.203689,1.190805,0.31979024,0.8212234,1.1354326,1.0769566,0.5927911,0.589939,0.9279717,0.68116415,0.20366299,0.15060431,0.698212,0.0019950494,-0.03259539,-0.19929314,0.23767732,813.5165,778.86444,797.3993,803.44324,824.7985,-0.10125732421875,-0.05438232421875,0.99365234375,-3.54400634765625,-1.136474609375,-6.160888671875,1,1.0,1.0,1.0,1.0,10.00
2024-10-11 20:19:50.181,1.2037927,0.70608026,1.1448756,1.203689,1.190805,0.31979024,0.8212234,1.1354326,1.0769566,0.5927911,0.589939,0.9279717,0.68116415,0.20366299,0.15060431,0.698212,0.0019950494,-0.03259539,-0.19929314,0.23767732,814.3223,791.75824,802.6374,802.6374,801.8315,-0.10125732421875,-0.05438232421875,0.99365234375,-3.54400634765625,-1.136474609375,-6.160888671875,1,1.0,1.0,1.0,1.0,10.00
2024-10-11 20:19:50.182,1.2037927,0.70608026,1.1448756,1.203689,1.190805,0.31979024,0.8212234,1.1354326,1.0769566,0.5927911,0.589939,0.9279717,0.68116415,0.20366299,0.15060431,0.698212,0.0019950494,-0.03259539,-0.19929314,0.23767732,809.89014,799.41394,803.8461,803.0403,914.65204,-0.10125732421875,-0.05438232421875,0.99365234375,-3.54400634765625,-1.136474609375,-6.160888671875,1,1.0,1.0,1.0,1.0,10.00
2024-10-11 20:19:50.182,1.2037927,0.70608026,1.1448756,1.203689,1.190805,0.31979024,0.8212234,1.1354326,1.0769566,0.5927911,0.589939,0.9279717,0.68116415,0.20366299,0.15060431,0.698212,0.0019950494,-0.03259539,-0.19929314,0.23767732,813.91943,799.011,802.6374,811.0989,817.1429,-0.10125732421875,-0.05438232421875,0.99365234375,-3.54400634765625,-1.136474609375,-6.160888671875,1,1.0,1.0,1.0,1.0,10.00
2024-10-11 20:19:50.183,1.2037927,0.70608026,1.1448756,1.203689,1.190805,0.31979024,0.8212234,1.1354326,1.0769566,0.5927911,0.589939,0.9279717,0.68116415,0.20366299,0.15060431,0.698212,0.0019950494,-0.03259539,-0.19929314,0.23767732,813.1135,796.5934,801.4286,810.696,709.15753,-0.10125732421875,-0.05438232421875,0.99365234375,-3.54400634765625,-1.136474609375,-6.160888671875,1,1.0,1.0,1.0,1.0,10.00
2024-10-11 20:19:50.184,1.2037927,0.70608026,1.1448756,1.203689,1.190805,0.31979024,0.8212234,1.1354326,1.0769566,0.5927911,0.589939,0.9279717,0.68116415,0.20366299,0.15060431,0.698212,0.0019950494,-0.03259539,-0.19929314,0.23767732,805.8608,786.52014,799.41394,801.4286,776.4469,-0.10125732421875,-0.05438232421875,0.99365234375,-3.54400634765625,-1.136474609375,-6.160888671875,1,1.0,1.0,1.0,1.0,10.00
2024-10-11 20:19:50.185,1.2037927,0.70608026,1.1448756,1.203689,1.190805,0.31979024,0.8212234,1.1354326,1.0769566,0.5927911,0.589939,0.9279717,0.68116415,0.20366299,0.15060431,0.698212,0.0019950494,-0.03259539,-0.19929314,0.23767732,805.4579,793.7729,797.8022,805.05493,738.5714,-0.10162353515625,-0.05340576171875,0.99603271484375,-0.874786376953125,-2.1234130859375,-2.923431396484375,1,1.0,1.0,1.0,1.0,10.00
2024-10-11 20:19:50.186,1.2037927,0.70608026,1.1448756,1.203689,1.190805,0.31979024,0.8212234,1.1354326,1.0769566,0.5927911,0.589939,0.9279717,0.68116415,0.20366299,0.15060431,0.698212,0.0019950494,-0.03259539,-0.19929314,0.23767732,807.8755,808.68134,799.011,802.6374,640.2564,-0.10162353515625,-0.05340576171875,0.99603271484375,-0.874786376953125,-2.1234130859375,-2.923431396484375,1,1.0,1.0,1.0,1.0,10.00
2024-10-11 20:19:50.187,1.2037927,0.70608026,1.1448756,1.203689,1.190805,0.31979024,0.8212234,1.1354326,1.0769566,0.5927911,0.589939,0.9279717,0.68116415,0.20366299,0.15060431,0.698212,0.0019950494,-0.03259539,-0.19929314,0.23767732,805.4579,804.2491,803.0403,800.2198,702.3077,-0.10162353515625,-0.05340576171875,0.99603271484375,-0.874786376953125,-2.1234130859375,-2.923431396484375,1,1.0,1.0,1.0,1.0,10.00
2024-10-11 20:19:50.188,1.2037927,0.70608026,1.1448756,1.203689,1.190805,0.31979024,0.8212234,1.1354326,1.0769566,0.5927911,0.589939,0.9279717,0.68116415,0.20366299,0.15060431,0.698212,0.0019950494,-0.03259539,-0.19929314,0.23767732,801.8315,799.41394,801.8315,809.0842,920.293,-0.10162353515625,-0.05340576171875,0.99603271484375,-0.874786376953125,-2.1234130859375,-2.923431396484375,1,1.0,1.0,1.0,1.0,10.00
2024-10-11 20:19:50.189,1.2037927,0.70608026,1.1448756,1.203689,1.190805,0.31979024,0.8212234,1.1354326,1.0769566,0.5927911,0.589939,0.9279717,0.68116415,0.20366299,0.15060431,0.698212,0.0019950494,-0.03259539,-0.19929314,0.23767732,801.8315,809.89014,801.4286,807.47253,940.84247,-0.10162353515625,-0.05340576171875,0.99603271484375,-0.874786376953125,-2.1234130859375,-2.923431396484375,1,1.0,1.0,1.0,1.0,10.00
2024-10-11 20:19:50.189,1.2037927,0.70608026,1.1448756,1.203689,1.190805,0.31979024,0.8212234,1.1354326,1.0769566,0.5927911,0.589939,0.9279717,0.68116415,0.20366299,0.15060431,0.698212,0.0019950494,-0.03259539,-0.19929314,0.23767732,796.5934,803.8461,808.68134,802.6374,881.6117,-0.10162353515625,-0.05340576171875,0.99603271484375,-0.874786376953125,-2.1234130859375,-2.923431396484375,1,1.0,1.0,1.0,1.0,10.00
2024-10-11 20:19:50.190,1.2037927,0.70608026,1.1448756,1.203689,1.190805,0.31979024,0.8212234,1.1354326,1.0769566,0.5927911,0.589939,0.9279717,0.68116415,0.20366299,0.15060431,0.698212,0.0019950494,-0.03259539,-0.19929314,0.23767732,794.17584,796.5934,807.0696,804.2491,858.6447,-0.10162353515625,-0.05340576171875,0.99603271484375,-0.874786376953125,-2.1234130859375,-2.923431396484375,1,1.0,1.0,1.0,1.0,10.00
2024-10-11 20:19:50.191,1.2037927,0.70608026,1.1448756,1.203689,1.190805,0.31979024,0.8212234,1.1354326,1.0769566,0.5927911,0.589939,0.9279717,0.68116415,0.20366299,0.15060431,0.698212,0.0019950494,-0.03259539,-0.19929314,0.23767732,796.1905,799.41394,802.6374,806.26373,886.04395,-0.10162353515625,-0.05340576171875,0.99603271484375,-0.874786376953125,-2.1234130859375,-2.923431396484375,1,1.0,1.0,1.0,1.0,10.00
2024-10-11 20:19:50.192,1.2037927,0.70608026,1.1448756,1.203689,1.190805,0.31979024,0.8212234,1.1354326,1.0769566,0.5927911,0.589939,0.9279717,0.68116415,0.20366299,0.15060431,0.698212,0.0019950494,-0.03259539,-0.19929314,0.23767732,793.36993,802.23444,804.2491,801.8315,742.1978,-0.10162353515625,-0.05340576171875,0.99603271484375,-0.874786376953125,-2.1234130859375,-2.923431396484375,1,1.0,1.0,1.0,1.0,10.00
2024-10-11 20:19:50.193,1.2037927,0.70608026,1.1448756,1.203689,1.190805,0.31979024,0.8212234,1.1354326,1.0769566,0.5927911,0.589939,0.9279717,0.68116415,0.20366299,0.15060431,0.698212,0.0019950494,-0.03259539,-0.19929314,0.23767732,794.9817,804.65204,804.65204,800.6227,649.12085,-0.10162353515625,-0.05340576171875,0.99603271484375,-0.874786376953125,-2.1234130859375,-2.923431396484375,1,1.0,1.0,1.0,1.0,10.00
2024-10-11 20:19:50.194,1.2037927,0.70608026,1.1448756,1.203689,1.190805,0.31979024,0.8212234,1.1354326,1.0769566,0.5927911,0.589939,0.9279717,0.68116415,0.20366299,0.15060431,0.698212,0.0019950494,-0.03259539,-0.19929314,0.23767732,795.38464,800.2198,802.23444,806.6667,824.3956,-0.10162353515625,-0.05340576171875,0.99603271484375,-0.874786376953125,-2.1234130859375,-2.923431396484375,1,1.0,1.0,1.0,1.0,10.00
2024-10-11 20:19:50.194,1.2679238,0.67952937,1.1295012,1.2195659,1.2023236,0.31994906,0.82153505,1.176822,1.0769566,0.5927911,0.5402569,0.9279717,0.6999871,0.19219837,0.14944522,0.7216735,0.031717822,-0.0644988,-0.19062191,0.24112682,796.1905,790.14655,806.6667,808.68134,929.9634,-0.10162353515625,-0.05340576171875,0.99603271484375,-0.874786376953125,-2.1234130859375,-2.923431396484375,1,1.0,1.0,1.0,1.0,10.00
2024-10-11 20:19:50.234,1.2679238,0.67952937,1.1295012,1.2195659,1.2023236,0.31994906,0.82153505,1.176822,1.0769566,0.5927911,0.5402569,0.9279717,0.6999871,0.19219837,0.14944522,0.7216735,0.031717822,-0.0644988,-0.19062191,0.24112682,803.0403,795.78754,811.0989,805.05493,640.65936,-0.10662841796875,-0.04998779296875,0.9967041015625,0.61309814453125,-1.854248046875,-1.323394775390625,1,1.0,1.0,1.0,1.0,10.00
2024-10-11 20:19:50.235,1.2679238,0.67952937,1.1295012,1.2195659,1.2023236,0.31994906,0.82153505,1.176822,1.0769566,0.5927911,0.5402569,0.9279717,0.6999871,0.19219837,0.14944522,0.7216735,0.031717822,-0.0644988,-0.19062191,0.24112682,804.2491,800.6227,805.05493,797.3993,654.35895,-0.10662841796875,-0.04998779296875,0.9967041015625,0.61309814453125,-1.854248046875,-1.323394775390625,1,1.0,1.0,1.0,1.0,10.00
2024-10-11 20:19:50.236,1.2679238,0.67952937,1.1295012,1.2195659,1.2023236,0.31994906,0.82153505,1.176822,1.0769566,0.5927911,0.5402569,0.9279717,0.6999871,0.19219837,0.14944522,0.7216735,0.031717822,-0.0644988,-0.19062191,0.24112682,805.8608,796.1905,801.8315,804.2491,875.16486,-0.10662841796875,-0.04998779296875,0.9967041015625,0.61309814453125,-1.854248046875,-1.323394775390625,1,1.0,1.0,1.0,1.0,10.00
2024-10-11 20:19:50.237,1.2679238,0.67952937,1.1295012,1.2195659,1.2023236,0.31994906,0.82153505,1.176822,1.0769566,0.5927911,0.5402569,0.9279717,0.6999871,0.19219837,0.14944522,0.7216735,0.031717822,-0.0644988,-0.19062191,0.24112682,805.8608,787.326,795.38464,816.337,1151.5751,-0.10662841796875,-0.04998779296875,0.9967041015625,0.61309814453125,-1.854248046875,-1.323394775390625,1,1.0,1.0,1.0,1.0,10.00
2024-10-11 20:19:50.238,1.2679238,0.67952937,1.1295012,1.2195659,1.2023236,0.31994906,0.82153505,1.176822,1.0769566,0.5927911,0.5402569,0.9279717,0.6999871,0.19219837,0.14944522,0.7216735,0.031717822,-0.0644988,-0.19062191,0.24112682,793.7729,788.1319,797.3993,812.3077,1294.6154,-0.10662841796875,-0.04998779296875,0.9967041015625,0.61309814453125,-1.854248046875,-1.323394775390625,1,1.0,1.0,1.0,1.0,10.00
2024-10-11 20:19:50.239,1.2679238,0.67952937,1.1295012,1.2195659,1.2023236,0.31994906,0.82153505,1.176822,1.0769566,0.5927911,0.5402569,0.9279717,0.6999871,0.19219837,0.14944522,0.7216735,0.031717822,-0.0644988,-0.19062191,0.24112682,796.1905,793.36993,803.8461,808.68134,1277.2894,-0.10662841796875,-0.04998779296875,0.9967041015625,0.61309814453125,-1.854248046875,-1.323394775390625,1,1.0,1.0,1.0,1.0,10.00
2024-10-11 20:19:50.240,1.2679238,0.67952937,1.1295012,1.2195659,1.2023236,0.31994906,0.82153505,1.176822,1.0769566,0.5927911,0.5402569,0.9279717,0.6999871,0.19219837,0.14944522,0.7216735,0.031717822,-0.0644988,-0.19062191,0.24112682,797.3993,796.5934,803.0403,810.696,1041.978,-0.10662841796875,-0.04998779296875,0.9967041015625,0.61309814453125,-1.854248046875,-1.323394775390625,1,1.0,1.0,1.0,1.0,10.00
2024-10-11 20:19:50.241,1.2679238,0.67952937,1.1295012,1.2195659,1.2023236,0.31994906,0.82153505,1.176822,1.0769566,0.5927911,0.5402569,0.9279717,0.6999871,0.19219837,0.14944522,0.7216735,0.031717822,-0.0644988,-0.19062191,0.24112682,783.2967,796.99634,805.4579,808.2784,803.44324,-0.10662841796875,-0.04998779296875,0.9967041015625,0.61309814453125,-1.854248046875,-1.323394775390625,1,1.0,1.0,1.0,1.0,10.00
2024-10-11 20:19:50.241,1.2679238,0.67952937,1.1295012,1.2195659,1.2023236,0.31994906,0.82153505,1.176822,1.0769566,0.5927911,0.5402569,0.9279717,0.6999871,0.19219837,0.14944522,0.7216735,0.031717822,-0.0644988,-0.19062191,0.24112682,788.1319,800.2198,803.44324,808.68134,585.05493,-0.10662841796875,-0.04998779296875,0.9967041015625,0.61309814453125,-1.854248046875,-1.323394775390625,1,1.0,1.0,1.0,1.0,10.00
2024-10-11 20:19:50.242,1.2679238,0.67952937,1.1295012,1.2195659,1.2023236,0.31994906,0.82153505,1.176822,1.0769566,0.5927911,0.5402569,0.9279717,0.6999871,0.19219837,0.14944522,0.7216735,0.031717822,-0.0644988,-0.19062191,0.24112682,794.9817,795.78754,803.44324,813.5165,462.96704,-0.10662841796875,-0.04998779296875,0.9967041015625,0.61309814453125,-1.854248046875,-1.323394775390625,1,1.0,1.0,1.0,1.0,10.00
2024-10-11 20:19:50.243,1.2679238,0.67952937,1.1295012,1.2195659,1.2023236,0.31994906,0.82153505,1.176822,1.0769566,0.5927911,0.5402569,0.9279717,0.6999871,0.19219837,0.14944522,0.7216735,0.031717822,-0.0644988,-0.19062191,0.24112682,792.96704,790.14655,800.6227,810.293,707.5458,-0.10662841796875,-0.04998779296875,0.9967041015625,0.61309814453125,-1.854248046875,-1.323394775390625,1,1.0,1.0,1.0,1.0,10.00
2024-10-11 20:19:50.243,1.2679238,0.67952937,1.1295012,1.2195659,1.2023236,0.31994906,0.82153505,1.176822,1.0769566,0.5927911,0.5402569,0.9279717,0.6999871,0.19219837,0.14944522,0.7216735,0.031717822,-0.0644988,-0.19062191,0.24112682,799.81683,790.54944,801.8315,815.12823,1183.4066,-0.10662841796875,-0.04998779296875,0.9967041015625,0.61309814453125,-1.854248046875,-1.323394775390625,1,1.0,1.0,1.0,1.0,10.00
2024-10-11 20:19:50.245,1.2679238,0.67952937,1.1295012,1.2195659,1.2023236,0.31994906,0.82153505,1.176822,1.0769566,0.5927911,0.5402569,0.9279717,0.6999871,0.19219837,0.14944522,0.7216735,0.031717822,-0.0644988,-0.19062191,0.24112682,800.2198,787.72894,801.8315,813.91943,935.2015,-0.108154296875,-0.03887939453125,0.998779296875,2.848663330078125,-2.3626708984375,-1.622467041015625,1,1.0,1.0,1.0,1.0,10.00
2024-10-11 20:19:50.245,1.2679238,0.67952937,1.1295012,1.2195659,1.2023236,0.31994906,0.82153505,1.176822,1.0769566,0.5927911,0.5402569,0.9279717,0.6999871,0.19219837,0.14944522,0.7216735,0.031717822,-0.0644988,-0.19062191,0.24112682,801.02563,788.5348,796.99634,802.23444,612.0513,-0.108154296875,-0.03887939453125,0.998779296875,2.848663330078125,-2.3626708984375,-1.622467041015625,1,1.0,1.0,1.0,1.0,10.00
2024-10-11 20:19:50.246,1.2679238,0.67952937,1.1295012,1.2195659,1.2023236,0.31994906,0.82153505,1.176822,1.0769566,0.5927911,0.5402569,0.9279717,0.6999871,0.19219837,0.14944522,0.7216735,0.031717822,-0.0644988,-0.19062191,0.24112682,808.2784,791.75824,799.41394,806.6667,785.7143,-0.108154296875,-0.03887939453125,0.998779296875,2.848663330078125,-2.3626708984375,-1.622467041015625,1,1.0,1.0,1.0,1.0,10.00
2024-10-11 20:19:50.247,1.2679238,0.67952937,1.1295012,1.2195659,1.2023236,0.31994906,0.82153505,1.176822,1.0769566,0.5927911,0.5402569,0.9279717,0.6999871,0.19219837,0.14944522,0.7216735,0.031717822,-0.0644988,-0.19062191,0.24112682,808.2784,789.34064,807.47253,804.2491,705.9341,-0.108154296875,-0.03887939453125,0.998779296875,2.848663330078125,-2.3626708984375,-1.622467041015625,1,1.0,1.0,1.0,1.0,10.00
2024-10-11 20:19:50.248,1.2679238,0.67952937,1.1295012,1.2195659,1.2023236,0.31994906,0.82153505,1.176822,1.0769566,0.5927911,0.5402569,0.9279717,0.6999871,0.19219837,0.14944522,0.7216735,0.031717822,-0.0644988,-0.19062191,0.24112682,815.5311,798.20514,811.50183,805.4579,533.47986,-0.108154296875,-0.03887939453125,0.998779296875,2.848663330078125,-2.3626708984375,-1.622467041015625,1,1.0,1.0,1.0,1.0,10.00
2024-10-11 20:19:50.249,1.2679238,0.67952937,1.1295012,1.2195659,1.2023236,0.31994906,0.82153505,1.176822,1.0769566,0.5927911,0.5402569,0.9279717,0.6999871,0.19219837,0.14944522,0.7216735,0.031717822,-0.0644988,-0.19062191,0.24112682,815.5311,807.0696,812.3077,813.1135,703.91943,-0.108154296875,-0.03887939453125,0.998779296875,2.848663330078125,-2.3626708984375,-1.622467041015625,1,1.0,1.0,1.0,1.0,10.00
2024-10-11 20:19:50.250,1.2679238,0.67952937,1.1295012,1.2195659,1.2023236,0.31994906,0.82153505,1.176822,1.0769566,0.5927911,0.5402569,0.9279717,0.6999871,0.19219837,0.14944522,0.7216735,0.031717822,-0.0644988,-0.19062191,0.24112682,814.3223,800.6227,813.1135,813.5165,911.4286,-0.108154296875,-0.03887939453125,0.998779296875,2.848663330078125,-2.3626708984375,-1.622467041015625,1,1.0,1.0,1.0,1.0,10.00
2024-10-11 20:19:50.251,1.2679238,0.67952937,1.1295012,1.2195659,1.2023236,0.31994906,0.82153505,1.176822,1.0769566,0.5927911,0.5402569,0.9279717,0.6999871,0.19219837,0.14944522,0.7216735,0.031717822,-0.0644988,-0.19062191,0.24112682,823.5897,791.3553,815.12823,813.5165,740.18317,-0.108154296875,-0.03887939453125,0.998779296875,2.848663330078125,-2.3626708984375,-1.622467041015625,1,1.0,1.0,1.0,1.0,10.00
2024-10-11 20:19:50.251,1.2679238,0.67952937,1.1295012,1.2195659,1.2023236,0.31994906,0.82153505,1.176822,1.0769566,0.5927911,0.5402569,0.9279717,0.6999871,0.19219837,0.14944522,0.7216735,0.031717822,-0.0644988,-0.19062191,0.24112682,818.7546,791.75824,811.50183,806.26373,562.8938,-0.108154296875,-0.03887939453125,0.998779296875,2.848663330078125,-2.3626708984375,-1.622467041015625,1,1.0,1.0,1.0,1.0,10.00
2024-10-11 20:19:50.252,1.2679238,0.67952937,1.1295012,1.2195659,1.2023236,0.31994906,0.82153505,1.176822,1.0769566,0.5927911,0.5402569,0.9279717,0.6999871,0.19219837,0.14944522,0.7216735,0.031717822,-0.0644988,-0.19062191,0.24112682,812.3077,794.17584,803.0403,802.6374,713.5897,-0.108154296875,-0.03887939453125,0.998779296875,2.848663330078125,-2.3626708984375,-1.622467041015625,1,1.0,1.0,1.0,1.0,10.00
2024-10-11 20:19:50.253,1.2679238,0.67952937,1.1295012,1.2195659,1.2023236,0.31994906,0.82153505,1.176822,1.0769566,0.5927911,0.5402569,0.9279717,0.6999871,0.19219837,0.14944522,0.7216735,0.031717822,-0.0644988,-0.19062191,0.24112682,805.4579,793.36993,800.6227,812.71063,895.31134,-0.108154296875,-0.03887939453125,0.998779296875,2.848663330078125,-2.3626708984375,-1.622467041015625,1,1.0,1.0,1.0,1.0,10.00
2024-10-11 20:19:50.254,1.2679238,0.67952937,1.1295012,1.2195659,1.2023236,0.31994906,0.82153505,1.176822,1.0769566,0.5927911,0.5402569,0.9279717,0.6999871,0.19219837,0.14944522,0.7216735,0.031717822,-0.0644988,-0.19062191,0.24112682,806.6667,794.9817,797.3993,809.0842,759.12085,-0.108154296875,-0.03887939453125,0.998779296875,2.848663330078125,-2.3626708984375,-1.622467041015625,1,1.0,1.0,1.0,1.0,10.00
2024-10-11 20:19:50.324,1.2679238,0.67952937,1.1295012,1.2195659,1.2023236,0.31994906,0.82153505,1.176822,1.0769566,0.5927911,0.5402569,0.9279717,0.6999871,0.19219837,0.14944522,0.7216735,0.031717822,-0.0644988,-0.19062191,0.24112682,803.44324,802.23444,796.99634,798.20514,566.52014,-0.108154296875,-0.03887939453125,0.998779296875,2.848663330078125,-2.3626708984375,-1.622467041015625,1,1.0,1.0,1.0,1.0,10.00
2024-10-11 20:19:50.325,1.3303145,0.643204,1.1082848,1.2301047,1.2114023,0.31850615,0.82149005,1.2297091,1.077399,0.59140867,0.4871096,0.9279717,0.712963,0.17606819,0.15100355,0.7501885,0.04105581,-0.10068169,-0.18005449,0.22010876,796.5934,801.8315,801.8315,798.20514,657.98535,-0.108154296875,-0.03887939453125,0.998779296875,2.848663330078125,-2.3626708984375,-1.622467041015625,1,1.0,1.0,1.0,1.0,10.00
2024-10-11 20:19:50.331,1.3303145,0.643204,1.1082848,1.2301047,1.2114023,0.31850615,0.82149005,1.2297091,1.077399,0.59140867,0.4871096,0.9279717,0.712963,0.17606819,0.15100355,0.7501885,0.04105581,-0.10068169,-0.18005449,0.22010876,804.65204,799.81683,805.4579,805.05493,926.337,-0.108154296875,-0.03887939453125,0.998779296875,2.848663330078125,-2.3626708984375,-1.622467041015625,1,1.0,1.0,1.0,1.0,10.00
2024-10-11 20:19:50.332,1.3303145,0.643204,1.1082848,1.2301047,1.2114023,0.31850615,0.82149005,1.2297091,1.077399,0.59140867,0.4871096,0.9279717,0.712963,0.17606819,0.15100355,0.7501885,0.04105581,-0.10068169,-0.18005449,0.22010876,807.47253,810.696,807.47253,806.6667,809.4872,-0.108154296875,-0.03887939453125,0.998779296875,2.848663330078125,-2.3626708984375,-1.622467041015625,1,1.0,1.0,1.0,1.0,10.00
2024-10-11 20:19:50.333,1.3303145,0.643204,1.1082848,1.2301047,1.2114023,0.31850615,0.82149005,1.2297091,1.077399,0.59140867,0.4871096,0.9279717,0.712963,0.17606819,0.15100355,0.7501885,0.04105581,-0.10068169,-0.18005449,0.22010876,807.47253,808.2784,807.8755,810.293,693.44324,-0.108154296875,-0.03887939453125,0.998779296875,2.848663330078125,-2.3626708984375,-1.622467041015625,1,1.0,1.0,1.0,1.0,10.00
2024-10-11 20:19:50.333,1.3303145,0.643204,1.1082848,1.2301047,1.2114023,0.31850615,0.82149005,1.2297091,1.077399,0.59140867,0.4871096,0.9279717,0.712963,0.17606819,0.15100355,0.7501885,0.04105581,-0.10068169,-0.18005449,0.22010876,799.41394,800.6227,804.65204,807.0696,763.1502,-0.108154296875,-0.03887939453125,0.998779296875,2.848663330078125,-2.3626708984375,-1.622467041015625,1,1.0,1.0,1.0,1.0,10.00
2024-10-11 20:19:50.334,1.3303145,0.643204,1.1082848,1.2301047,1.2114023,0.31850615,0.82149005,1.2297091,1.077399,0.59140867,0.4871096,0.9279717,0.712963,0.17606819,0.15100355,0.7501885,0.04105581,-0.10068169,-0.18005449,0.22010876,790.14655,796.5934,805.8608,793.36993,776.8498,-0.108154296875,-0.03887939453125,0.998779296875,2.848663330078125,-2.3626708984375,-1.622467041015625,1,1.0,1.0,1.0,1.0,10.00
2024-10-11 20:19:50.335,1.3303145,0.643204,1.1082848,1.2301047,1.2114023,0.31850615,0.82149005,1.2297091,1.077399,0.59140867,0.4871096,0.9279717,0.712963,0.17606819,0.15100355,0.7501885,0.04105581,-0.10068169,-0.18005449,0.22010876,793.36993,806.26373,806.26373,795.38464,682.1612,-0.108154296875,-0.03887939453125,0.998779296875,2.848663330078125,-2.3626708984375,-1.622467041015625,1,1.0,1.0,1.0,1.0,10.00
2024-10-11 20:19:50.335,1.3303145,0.643204,1.1082848,1.2301047,1.2114023,0.31850615,0.82149005,1.2297091,1.077399,0.59140867,0.4871096,0.9279717,0.712963,0.17606819,0.15100355,0.7501885,0.04105581,-0.10068169,-0.18005449,0.22010876,798.20514,807.47253,803.44324,799.81683,612.4542,-0.108154296875,-0.03887939453125,0.998779296875,2.848663330078125,-2.3626708984375,-1.622467041015625,1,1.0,1.0,1.0,1.0,10.00
2024-10-11 20:19:50.336,1.3303145,0.643204,1.1082848,1.2301047,1.2114023,0.31850615,0.82149005,1.2297091,1.077399,0.59140867,0.4871096,0.9279717,0.712963,0.17606819,0.15100355,0.7501885,0.04105581,-0.10068169,-0.18005449,0.22010876,797.8022,801.4286,798.20514,804.2491,752.27106,-0.108154296875,-0.03887939453125,0.998779296875,2.848663330078125,-2.3626708984375,-1.622467041015625,1,1.0,1.0,1.0,1.0,10.00
2024-10-11 20:19:50.337,1.3303145,0.643204,1.1082848,1.2301047,1.2114023,0.31850615,0.82149005,1.2297091,1.077399,0.59140867,0.4871096,0.9279717,0.712963,0.17606819,0.15100355,0.7501885,0.04105581,-0.10068169,-0.18005449,0.22010876,790.54944,800.6227,794.57874,813.1135,1000.87915,-0.108154296875,-0.03887939453125,0.998779296875,2.848663330078125,-2.3626708984375,-1.622467041015625,1,1.0,1.0,1.0,1.0,10.00
2024-10-11 20:19:50.337,1.3303145,0.643204,1.1082848,1.2301047,1.2114023,0.31850615,0.82149005,1.2297091,1.077399,0.59140867,0.4871096,0.9279717,0.712963,0.17606819,0.15100355,0.7501885,0.04105581,-0.10068169,-0.18005449,0.22010876,791.75824,803.44324,798.20514,803.8461,797.3993,-0.108154296875,-0.03887939453125,0.998779296875,2.848663330078125,-2.3626708984375,-1.622467041015625,1,1.0,1.0,1.0,1.0,10.00
2024-10-11 20:19:50.369,1.3303145,0.643204,1.1082848,1.2301047,1.2114023,0.31850615,0.82149005,1.2297091,1.077399,0.59140867,0.4871096,0.9279717,0.712963,0.17606819,0.15100355,0.7501885,0.04105581,-0.10068169,-0.18005449,0.22010876,796.99634,793.7729,796.5934,792.96704,618.49817,-0.09796142578125,-0.0281982421875,1.00836181640625,3.476715087890625,-3.566436767578125,-1.667327880859375,1,1.0,1.0,1.0,1.0,10.00
2024-10-11 20:19:50.370,1.3303145,0.643204,1.1082848,1.2301047,1.2114023,0.31850615,0.82149005,1.2297091,1.077399,0.59140867,0.4871096,0.9279717,0.712963,0.17606819,0.15100355,0.7501885,0.04105581,-0.10068169,-0.18005449,0.22010876,798.20514,787.326,793.36993,801.02563,698.68134,-0.09796142578125,-0.0281982421875,1.00836181640625,3.476715087890625,-3.566436767578125,-1.667327880859375,1,1.0,1.0,1.0,1.0,10.00
2024-10-11 20:19:50.370,1.3303145,0.643204,1.1082848,1.2301047,1.2114023,0.31850615,0.82149005,1.2297091,1.077399,0.59140867,0.4871096,0.9279717,0.712963,0.17606819,0.15100355,0.7501885,0.04105581,-0.10068169,-0.18005449,0.22010876,806.6667,802.6374,803.0403,809.4872,645.89746,-0.09796142578125,-0.0281982421875,1.00836181640625,3.476715087890625,-3.566436767578125,-1.667327880859375,1,1.0,1.0,1.0,1.0,10.00
2024-10-11 20:19:50.371,1.3303145,0.643204,1.1082848,1.2301047,1.2114023,0.31850615,0.82149005,1.2297091,1.077399,0.59140867,0.4871096,0.9279717,0.712963,0.17606819,0.15100355,0.7501885,0.04105581,-0.10068169,-0.18005449,0.22010876,808.2784,799.81683,804.65204,803.0403,557.6557,-0.09796142578125,-0.0281982421875,1.00836181640625,3.476715087890625,-3.566436767578125,-1.667327880859375,1,1.0,1.0,1.0,1.0,10.00
2024-10-11 20:19:50.372,1.3303145,0.643204,1.1082848,1.2301047,1.2114023,0.31850615,0.82149005,1.2297091,1.077399,0.59140867,0.4871096,0.9279717,0.712963,0.17606819,0.15100355,0.7501885,0.04105581,-0.10068169,-0.18005449,0.22010876,810.293,791.75824,799.011,806.26373,734.5421,-0.09796142578125,-0.0281982421875,1.00836181640625,3.476715087890625,-3.566436767578125,-1.667327880859375,1,1.0,1.0,1.0,1.0,10.00
2024-10-11 20:19:50.372,1.3303145,0.643204,1.1082848,1.2301047,1.2114023,0.31850615,0.82149005,1.2297091,1.077399,0.59140867,0.4871096,0.9279717,0.712963,0.17606819,0.15100355,0.7501885,0.04105581,-0.10068169,-0.18005449,0.22010876,810.696,793.7729,793.7729,808.68134,964.21246,-0.09796142578125,-0.0281982421875,1.00836181640625,3.476715087890625,-3.566436767578125,-1.667327880859375,1,1.0,1.0,1.0,1.0,10.00
2024-10-11 20:19:50.373,1.3303145,0.643204,1.1082848,1.2301047,1.2114023,0.31850615,0.82149005,1.2297091,1.077399,0.59140867,0.4871096,0.9279717,0.712963,0.17606819,0.15100355,0.7501885,0.04105581,-0.10068169,-0.18005449,0.22010876,807.47253,801.8315,798.20514,804.65204,843.3333,-0.09796142578125,-0.0281982421875,1.00836181640625,3.476715087890625,-3.566436767578125,-1.667327880859375,1,1.0,1.0,1.0,1.0,10.00
2024-10-11 20:19:50.374,1.3303145,0.643204,1.1082848,1.2301047,1.2114023,0.31850615,0.82149005,1.2297091,1.077399,0.59140867,0.4871096,0.9279717,0.712963,0.17606819,0.15100355,0.7501885,0.04105581,-0.10068169,-0.18005449,0.22010876,810.696,801.02563,801.02563,812.3077,811.50183,-0.09796142578125,-0.0281982421875,1.00836181640625,3.476715087890625,-3.566436767578125,-1.667327880859375,1,1.0,1.0,1.0,1.0,10.00
2024-10-11 20:19:50.374,1.3303145,0.643204,1.1082848,1.2301047,1.2114023,0.31850615,0.82149005,1.2297091,1.077399,0.59140867,0.4871096,0.9279717,0.712963,0.17606819,0.15100355,0.7501885,0.04105581,-0.10068169,-0.18005449,0.22010876,808.68134,793.7729,798.20514,818.3516,831.6484,-0.09796142578125,-0.0281982421875,1.00836181640625,3.476715087890625,-3.566436767578125,-1.667327880859375,1,1.0,1.0,1.0,1.0,10.00
2024-10-11 20:19:50.375,1.3303145,0.643204,1.1082848,1.2301047,1.2114023,0.31850615,0.82149005,1.2297091,1.077399,0.59140867,0.4871096,0.9279717,0.712963,0.17606819,0.15100355,0.7501885,0.04105581,-0.10068169,-0.18005449,0.22010876,806.6667,796.1905,802.6374,815.12823,889.2674,-0.09796142578125,-0.0281982421875,1.00836181640625,3.476715087890625,-3.566436767578125,-1.667327880859375,1,1.0,1.0,1.0,1.0,10.00
2024-10-11 20:19:50.376,1.3303145,0.643204,1.1082848,1.2301047,1.2114023,0.31850615,0.82149005,1.2297091,1.077399,0.59140867,0.4871096,0.9279717,0.712963,0.17606819,0.15100355,0.7501885,0.04105581,-0.10068169,-0.18005449,0.22010876,807.8755,799.41394,808.68134,810.696,776.04395,-0.09796142578125,-0.0281982421875,1.00836181640625,3.476715087890625,-3.566436767578125,-1.667327880859375,1,1.0,1.0,1.0,1.0,10.00
2024-10-11 20:19:50.376,1.3303145,0.643204,1.1082848,1.2301047,1.2114023,0.31850615,0.82149005,1.2297091,1.077399,0.59140867,0.4871096,0.9279717,0.712963,0.17606819,0.15100355,0.7501885,0.04105581,-0.10068169,-0.18005449,0.22010876,802.6374,799.41394,804.65204,808.2784,562.0879,-0.09796142578125,-0.0281982421875,1.00836181640625,3.476715087890625,-3.566436767578125,-1.667327880859375,1,1.0,1.0,1.0,1.0,10.00
2024-10-11 20:19:50.407,1.3303145,0.643204,1.1082848,1.2301047,1.2114023,0.31850615,0.82149005,1.2297091,1.077399,0.59140867,0.4871096,0.9279717,0.712963,0.17606819,0.15100355,0.7501885,0.04105581,-0.10068169,-0.18005449,0.22010876,805.4579,795.38464,798.20514,811.9048,711.978,-0.08477783203125,-0.02490234375,1.00982666015625,1.861724853515625,-4.3365478515625,-1.71966552734375,1,1.0,1.0,1.0,1.0,10.00
2024-10-11 20:19:50.408,1.3303145,0.643204,1.1082848,1.2301047,1.2114023,0.31850615,0.82149005,1.2297091,1.077399,0.59140867,0.4871096,0.9279717,0.712963,0.17606819,0.15100355,0.7501885,0.04105581,-0.10068169,-0.18005449,0.22010876,806.26373,798.60803,801.02563,814.3223,1073.8096,-0.08477783203125,-0.02490234375,1.00982666015625,1.861724853515625,-4.3365478515625,-1.71966552734375,1,1.0,1.0,1.0,1.0,10.00
2024-10-11 20:19:50.408,1.3303145,0.643204,1.1082848,1.2301047,1.2114023,0.31850615,0.82149005,1.2297091,1.077399,0.59140867,0.4871096,0.9279717,0.712963,0.17606819,0.15100355,0.7501885,0.04105581,-0.10068169,-0.18005449,0.22010876,802.6374,804.2491,803.8461,807.0696,823.9927,-0.08477783203125,-0.02490234375,1.00982666015625,1.861724853515625,-4.3365478515625,-1.71966552734375,1,1.0,1.0,1.0,1.0,10.00
2024-10-11 20:19:50.409,1.3695488,0.6149662,1.1007911,1.2482189,1.2179655,0.32569125,0.83592385,1.3017745,1.077399,0.58843416,0.46978402,0.9279717,0.71231544,0.1615078,0.14757437,0.7769933,0.02103892,-0.12641184,-0.16931659,0.17555785,805.05493,796.5934,801.4286,799.011,546.77655,-0.08477783203125,-0.02490234375,1.00982666015625,1.861724853515625,-4.3365478515625,-1.71966552734375,1,1.0,1.0,1.0,1.0,10.00
2024-10-11 20:19:50.415,1.3695488,0.6149662,1.1007911,1.2482189,1.2179655,0.32569125,0.83592385,1.3017745,1.077399,0.58843416,0.46978402,0.9279717,0.71231544,0.1615078,0.14757437,0.7769933,0.02103892,-0.12641184,-0.16931659,0.17555785,808.2784,795.38464,799.011,794.17584,585.05493,-0.08477783203125,-0.02490234375,1.00982666015625,1.861724853515625,-4.3365478515625,-1.71966552734375,1,1.0,1.0,1.0,1.0,10.00
2024-10-11 20:19:50.416,1.3695488,0.6149662,1.1007911,1.2482189,1.2179655,0.32569125,0.83592385,1.3017745,1.077399,0.58843416,0.46978402,0.9279717,0.71231544,0.1615078,0.14757437,0.7769933,0.02103892,-0.12641184,-0.16931659,0.17555785,815.5311,801.8315,799.41394,802.23444,716.0073,-0.08477783203125,-0.02490234375,1.00982666015625,1.861724853515625,-4.3365478515625,-1.71966552734375,1,1.0,1.0,1.0,1.0,10.00
2024-10-11 20:19:50.417,1.3695488,0.6149662,1.1007911,1.2482189,1.2179655,0.32569125,0.83592385,1.3017745,1.077399,0.58843416,0.46978402,0.9279717,0.71231544,0.1615078,0.14757437,0.7769933,0.02103892,-0.12641184,-0.16931659,0.17555785,808.2784,803.44324,802.23444,802.23444,786.52014,-0.08477783203125,-0.02490234375,1.00982666015625,1.861724853515625,-4.3365478515625,-1.71966552734375,1,1.0,1.0,1.0,1.0,10.00
2024-10-11 20:19:50.418,1.3695488,0.6149662,1.1007911,1.2482189,1.2179655,0.32569125,0.83592385,1.3017745,1.077399,0.58843416,0.46978402,0.9279717,0.71231544,0.1615078,0.14757437,0.7769933,0.02103892,-0.12641184,-0.16931659,0.17555785,803.44324,802.23444,800.6227,794.57874,626.1539,-0.08477783203125,-0.02490234375,1.00982666015625,1.861724853515625,-4.3365478515625,-1.71966552734375,1,1.0,1.0,1.0,1.0,10.00
2024-10-11 20:19:50.418,1.3695488,0.6149662,1.1007911,1.2482189,1.2179655,0.32569125,0.83592385,1.3017745,1.077399,0.58843416,0.46978402,0.9279717,0.71231544,0.1615078,0.14757437,0.7769933,0.02103892,-0.12641184,-0.16931659,0.17555785,799.81683,795.78754,795.78754,796.5934,691.4286,-0.08477783203125,-0.02490234375,1.00982666015625,1.861724853515625,-4.3365478515625,-1.71966552734375,1,1.0,1.0,1.0,1.0,10.00
2024-10-11 20:19:50.419,1.3695488,0.6149662,1.1007911,1.2482189,1.2179655,0.32569125,0.83592385,1.3017745,1.077399,0.58843416,0.46978402,0.9279717,0.71231544,0.1615078,0.14757437,0.7769933,0.02103892,-0.12641184,-0.16931659,0.17555785,791.3553,790.54944,795.38464,802.23444,1055.6776,-0.08477783203125,-0.02490234375,1.00982666015625,1.861724853515625,-4.3365478515625,-1.71966552734375,1,1.0,1.0,1.0,1.0,10.00
2024-10-11 20:19:50.420,1.3695488,0.6149662,1.1007911,1.2482189,1.2179655,0.32569125,0.83592385,1.3017745,1.077399,0.58843416,0.46978402,0.9279717,0.71231544,0.1615078,0.14757437,0.7769933,0.02103892,-0.12641184,-0.16931659,0.17555785,795.38464,800.6227,798.20514,800.2198,828.4249,-0.08477783203125,-0.02490234375,1.00982666015625,1.861724853515625,-4.3365478515625,-1.71966552734375,1,1.0,1.0,1.0,1.0,10.00
2024-10-11 20:19:50.420,1.3695488,0.6149662,1.1007911,1.2482189,1.2179655,0.32569125,0.83592385,1.3017745,1.077399,0.58843416,0.46978402,0.9279717,0.71231544,0.1615078,0.14757437,0.7769933,0.02103892,-0.12641184,-0.16931659,0.17555785,795.38464,804.2491,793.7729,792.5641,547.1795,-0.08477783203125,-0.02490234375,1.00982666015625,1.861724853515625,-4.3365478515625,-1.71966552734375,1,1.0,1.0,1.0,1.0,10.00
2024-10-11 20:19:50.450,1.3695488,0.6149662,1.1007911,1.2482189,1.2179655,0.32569125,0.83592385,1.3017745,1.077399,0.58843416,0.46978402,0.9279717,0.71231544,0.1615078,0.14757437,0.7769933,0.02103892,-0.12641184,-0.16931659,0.17555785,789.7436,804.2491,797.8022,792.1612,684.17584,-0.08251953125,-0.0269775390625,1.002197265625,0.919647216796875,-2.564544677734375,-2.5421142578125,1,1.0,1.0,1.0,1.0,10.00
2024-10-11 20:19:50.451,1.3695488,0.6149662,1.1007911,1.2482189,1.2179655,0.32569125,0.83592385,1.3017745,1.077399,0.58843416,0.46978402,0.9279717,0.71231544,0.1615078,0.14757437,0.7769933,0.02103892,-0.12641184,-0.16931659,0.17555785,790.9524,800.2198,803.0403,798.60803,721.2454,-0.08251953125,-0.0269775390625,1.002197265625,0.919647216796875,-2.564544677734375,-2.5421142578125,1,1.0,1.0,1.0,1.0,10.00
2024-10-11 20:19:50.452,1.3695488,0.6149662,1.1007911,1.2482189,1.2179655,0.32569125,0.83592385,1.3017745,1.077399,0.58843416,0.46978402,0.9279717,0.71231544,0.1615078,0.14757437,0.7769933,0.02103892,-0.12641184,-0.16931659,0.17555785,786.9231,796.99634,798.60803,796.99634,647.9121,-0.08251953125,-0.0269775390625,1.002197265625,0.919647216796875,-2.564544677734375,-2.5421142578125,1,1.0,1.0,1.0,1.0,10.00
2024-10-11 20:19:50.452,1.3695488,0.6149662,1.1007911,1.2482189,1.2179655,0.32569125,0.83592385,1.3017745,1.077399,0.58843416,0.46978402,0.9279717,0.71231544,0.1615078,0.14757437,0.7769933,0.02103892,-0.12641184,-0.16931659,0.17555785,784.5055,794.57874,796.5934,794.17584,705.9341,-0.08251953125,-0.0269775390625,1.002197265625,0.919647216796875,-2.564544677734375,-2.5421142578125,1,1.0,1.0,1.0,1.0,10.00
2024-10-11 20:19:50.453,1.3695488,0.6149662,1.1007911,1.2482189,1.2179655,0.32569125,0.83592385,1.3017745,1.077399,0.58843416,0.46978402,0.9279717,0.71231544,0.1615078,0.14757437,0.7769933,0.02103892,-0.12641184,-0.16931659,0.17555785,775.64105,790.14655,796.99634,793.36993,781.28204,-0.08251953125,-0.0269775390625,1.002197265625,0.919647216796875,-2.564544677734375,-2.5421142578125,1,1.0,1.0,1.0,1.0,10.00
2024-10-11 20:19:50.454,1.3695488,0.6149662,1.1007911,1.2482189,1.2179655,0.32569125,0.83592385,1.3017745,1.077399,0.58843416,0.46978402,0.9279717,0.71231544,0.1615078,0.14757437,0.7769933,0.02103892,-0.12641184,-0.16931659,0.17555785,773.22345,793.36993,800.2198,786.9231,796.1905,-0.08251953125,-0.0269775390625,1.002197265625,0.919647216796875,-2.564544677734375,-2.5421142578125,1,1.0,1.0,1.0,1.0,10.00
2024-10-11 20:19:50.454,1.3695488,0.6149662,1.1007911,1.2482189,1.2179655,0.32569125,0.83592385,1.3017745,1.077399,0.58843416,0.46978402,0.9279717,0.71231544,0.1615078,0.14757437,0.7769933,0.02103892,-0.12641184,-0.16931659,0.17555785,784.5055,804.2491,803.0403,793.7729,757.1062,-0.08251953125,-0.0269775390625,1.002197265625,0.919647216796875,-2.564544677734375,-2.5421142578125,1,1.0,1.0,1.0,1.0,10.00
2024-10-11 20:19:50.455,1.3695488,0.6149662,1.1007911,1.2482189,1.2179655,0.32569125,0.83592385,1.3017745,1.077399,0.58843416,0.46978402,0.9279717,0.71231544,0.1615078,0.14757437,0.7769933,0.02103892,-0.12641184,-0.16931659,0.17555785,783.2967,803.44324,805.8608,798.20514,780.87915,-0.08251953125,-0.0269775390625,1.002197265625,0.919647216796875,-2.564544677734375,-2.5421142578125,1,1.0,1.0,1.0,1.0,10.00
2024-10-11 20:19:50.456,1.3695488,0.6149662,1.1007911,1.2482189,1.2179655,0.32569125,0.83592385,1.3017745,1.077399,0.58843416,0.46978402,0.9279717,0.71231544,0.1615078,0.14757437,0.7769933,0.02103892,-0.12641184,-0.16931659,0.17555785,782.8938,797.3993,803.0403,795.78754,880.80585,-0.08251953125,-0.0269775390625,1.002197265625,0.919647216796875,-2.564544677734375,-2.5421142578125,1,1.0,1.0,1.0,1.0,10.00
2024-10-11 20:19:50.456,1.3695488,0.6149662,1.1007911,1.2482189,1.2179655,0.32569125,0.83592385,1.3017745,1.077399,0.58843416,0.46978402,0.9279717,0.71231544,0.1615078,0.14757437,0.7769933,0.02103892,-0.12641184,-0.16931659,0.17555785,786.52014,798.20514,806.6667,794.9817,734.94507,-0.08251953125,-0.0269775390625,1.002197265625,0.919647216796875,-2.564544677734375,-2.5421142578125,1,1.0,1.0,1.0,1.0,10.00
2024-10-11 20:19:50.457,1.3695488,0.6149662,1.1007911,1.2482189,1.2179655,0.32569125,0.83592385,1.3017745,1.077399,0.58843416,0.46978402,0.9279717,0.71231544,0.1615078,0.14757437,0.7769933,0.02103892,-0.12641184,-0.16931659,0.17555785,788.5348,796.99634,806.26373,803.44324,589.4872,-0.08251953125,-0.0269775390625,1.002197265625,0.919647216796875,-2.564544677734375,-2.5421142578125,1,1.0,1.0,1.0,1.0,10.00
2024-10-11 20:19:50.458,1.3695488,0.6149662,1.1007911,1.2482189,1.2179655,0.32569125,0.83592385,1.3017745,1.077399,0.58843416,0.46978402,0.9279717,0.71231544,0.1615078,0.14757437,0.7769933,0.02103892,-0.12641184,-0.16931659,0.17555785,792.96704,795.78754,801.8315,805.4579,697.8755,-0.08251953125,-0.0269775390625,1.002197265625,0.919647216796875,-2.564544677734375,-2.5421142578125,1,1.0,1.0,1.0,1.0,10.00
2024-10-11 20:19:50.492,1.3695488,0.6149662,1.1007911,1.2482189,1.2179655,0.32569125,0.83592385,1.3017745,1.077399,0.58843416,0.46978402,0.9279717,0.71231544,0.1615078,0.14757437,0.7769933,0.02103892,-0.12641184,-0.16931659,0.17555785,795.78754,789.7436,805.8608,803.44324,985.56775,-0.082275390625,-0.02874755859375,1.01092529296875,0.5084228515625,-1.4056396484375,-2.61688232421875,1,1.0,1.0,1.0,1.0,10.00
2024-10-11 20:19:50.493,1.3695488,0.6149662,1.1007911,1.2482189,1.2179655,0.32569125,0.83592385,1.3017745,1.077399,0.58843416,0.46978402,0.9279717,0.71231544,0.1615078,0.14757437,0.7769933,0.02103892,-0.12641184,-0.16931659,0.17555785,794.17584,785.7143,806.26373,805.8608,800.2198,-0.082275390625,-0.02874755859375,1.01092529296875,0.5084228515625,-1.4056396484375,-2.61688232421875,1,1.0,1.0,1.0,1.0,10.00
2024-10-11 20:19:50.493,1.3695488,0.6149662,1.1007911,1.2482189,1.2179655,0.32569125,0.83592385,1.3017745,1.077399,0.58843416,0.46978402,0.9279717,0.71231544,0.1615078,0.14757437,0.7769933,0.02103892,-0.12641184,-0.16931659,0.17555785,789.7436,788.5348,799.81683,803.0403,715.2015,-0.082275390625,-0.02874755859375,1.01092529296875,0.5084228515625,-1.4056396484375,-2.61688232421875,1,1.0,1.0,1.0,1.0,10.00
2024-10-11 20:19:50.494,1.3695488,0.6149662,1.1007911,1.2482189,1.2179655,0.32569125,0.83592385,1.3017745,1.077399,0.58843416,0.46978402,0.9279717,0.71231544,0.1615078,0.14757437,0.7769933,0.02103892,-0.12641184,-0.16931659,0.17555785,789.34064,801.4286,805.4579,803.0403,745.0183,-0.082275390625,-0.02874755859375,1.01092529296875,0.5084228515625,-1.4056396484375,-2.61688232421875,1,1.0,1.0,1.0,1.0,10.00
2024-10-11 20:19:50.495,1.3695488,0.6149662,1.1007911,1.2482189,1.2179655,0.32569125,0.83592385,1.3017745,1.077399,0.58843416,0.46978402,0.9279717,0.71231544,0.1615078,0.14757437,0.7769933,0.02103892,-0.12641184,-0.16931659,0.17555785,794.9817,806.26373,811.50183,797.3993,705.5311,-0.082275390625,-0.02874755859375,1.01092529296875,0.5084228515625,-1.4056396484375,-2.61688232421875,1,1.0,1.0,1.0,1.0,10.00
2024-10-11 20:19:50.495,1.3565315,0.6120618,1.1211717,1.2482189,1.1840115,0.34946945,0.87025005,1.3017745,1.077399,0.5848285,0.4675273,0.9279717,0.7038738,0.156192,0.13220209,0.7769933,-0.009238356,-0.1362969,-0.15978271,0.17555785,799.41394,800.2198,803.0403,790.14655,769.59705,-0.082275390625,-0.02874755859375,1.01092529296875,0.5084228515625,-1.4056396484375,-2.61688232421875,1,1.0,1.0,1.0,1.0,10.00
2024-10-11 20:19:50.501,1.3565315,0.6120618,1.1211717,1.2482189,1.1840115,0.34946945,0.87025005,1.3017745,1.077399,0.5848285,0.4675273,0.9279717,0.7038738,0.156192,0.13220209,0.7769933,-0.009238356,-0.1362969,-0.15978271,0.17555785,795.78754,802.23444,801.8315,785.7143,785.31134,-0.082275390625,-0.02874755859375,1.01092529296875,0.5084228515625,-1.4056396484375,-2.61688232421875,1,1.0,1.0,1.0,1.0,10.00
2024-10-11 20:19:50.502,1.3565315,0.6120618,1.1211717,1.2482189,1.1840115,0.34946945,0.87025005,1.3017745,1.077399,0.5848285,0.4675273,0.9279717,0.7038738,0.156192,0.13220209,0.7769933,-0.009238356,-0.1362969,-0.15978271,0.17555785,794.17584,798.60803,804.65204,797.3993,835.6777,-0.082275390625,-0.02874755859375,1.01092529296875,0.5084228515625,-1.4056396484375,-2.61688232421875,1,1.0,1.0,1.0,1.0,10.00
2024-10-11 20:19:50.503,1.3565315,0.6120618,1.1211717,1.2482189,1.1840115,0.34946945,0.87025005,1.3017745,1.077399,0.5848285,0.4675273,0.9279717,0.7038738,0.156192,0.13220209,0.7769933,-0.009238356,-0.1362969,-0.15978271,0.17555785,799.41394,795.38464,803.44324,809.0842,976.7033,-0.082275390625,-0.02874755859375,1.01092529296875,0.5084228515625,-1.4056396484375,-2.61688232421875,1,1.0,1.0,1.0,1.0,10.00
2024-10-11 20:19:50.503,1.3565315,0.6120618,1.1211717,1.2482189,1.1840115,0.34946945,0.87025005,1.3017745,1.077399,0.5848285,0.4675273,0.9279717,0.7038738,0.156192,0.13220209,0.7769933,-0.009238356,-0.1362969,-0.15978271,0.17555785,795.78754,808.2784,801.02563,799.011,640.2564,-0.082275390625,-0.02874755859375,1.01092529296875,0.5084228515625,-1.4056396484375,-2.61688232421875,1,1.0,1.0,1.0,1.0,10.00
2024-10-11 20:19:50.504,1.3565315,0.6120618,1.1211717,1.2482189,1.1840115,0.34946945,0.87025005,1.3017745,1.077399,0.5848285,0.4675273,0.9279717,0.7038738,0.156192,0.13220209,0.7769933,-0.009238356,-0.1362969,-0.15978271,0.17555785,798.60803,805.8608,803.8461,802.6374,550.80585,-0.082275390625,-0.02874755859375,1.01092529296875,0.5084228515625,-1.4056396484375,-2.61688232421875,1,1.0,1.0,1.0,1.0,10.00
2024-10-11 20:19:50.505,1.3565315,0.6120618,1.1211717,1.2482189,1.1840115,0.34946945,0.87025005,1.3017745,1.077399,0.5848285,0.4675273,0.9279717,0.7038738,0.156192,0.13220209,0.7769933,-0.009238356,-0.1362969,-0.15978271,0.17555785,797.3993,783.2967,803.8461,804.2491,817.9487,-0.082275390625,-0.02874755859375,1.01092529296875,0.5084228515625,-1.4056396484375,-2.61688232421875,1,1.0,1.0,1.0,1.0,10.00
2024-10-11 20:19:50.534,1.3565315,0.6120618,1.1211717,1.2482189,1.1840115,0.34946945,0.87025005,1.3017745,1.077399,0.5848285,0.4675273,0.9279717,0.7038738,0.156192,0.13220209,0.7769933,-0.009238356,-0.1362969,-0.15978271,0.17555785,784.5055,789.34064,799.011,803.44324,819.5604,-0.082275390625,-0.02874755859375,1.01092529296875,0.5084228515625,-1.4056396484375,-2.61688232421875,1,1.0,1.0,1.0,1.0,10.00
2024-10-11 20:19:50.536,1.3565315,0.6120618,1.1211717,1.2482189,1.1840115,0.34946945,0.87025005,1.3017745,1.077399,0.5848285,0.4675273,0.9279717,0.7038738,0.156192,0.13220209,0.7769933,-0.009238356,-0.1362969,-0.15978271,0.17555785,782.49084,801.02563,804.65204,808.2784,677.72894,-0.082275390625,-0.02874755859375,1.01092529296875,0.5084228515625,-1.4056396484375,-2.61688232421875,1,1.0,1.0,1.0,1.0,10.00
2024-10-11 20:19:50.536,1.3565315,0.6120618,1.1211717,1.2482189,1.1840115,0.34946945,0.87025005,1.3017745,1.077399,0.5848285,0.4675273,0.9279717,0.7038738,0.156192,0.13220209,0.7769933,-0.009238356,-0.1362969,-0.15978271,0.17555785,787.72894,798.20514,805.05493,808.68134,664.0293,-0.082275390625,-0.02874755859375,1.01092529296875,0.5084228515625,-1.4056396484375,-2.61688232421875,1,1.0,1.0,1.0,1.0,10.00
2024-10-11 20:19:50.537,1.3565315,0.6120618,1.1211717,1.2482189,1.1840115,0.34946945,0.87025005,1.3017745,1.077399,0.5848285,0.4675273,0.9279717,0.7038738,0.156192,0.13220209,0.7769933,-0.009238356,-0.1362969,-0.15978271,0.17555785,790.9524,797.8022,803.44324,811.9048,902.96704,-0.082275390625,-0.02874755859375,1.01092529296875,0.5084228515625,-1.4056396484375,-2.61688232421875,1,1.0,1.0,1.0,1.0,10.00
2024-10-11 20:19:50.538,1.3565315,0.6120618,1.1211717,1.2482189,1.1840115,0.34946945,0.87025005,1.3017745,1.077399,0.5848285,0.4675273,0.9279717,0.7038738,0.156192,0.13220209,0.7769933,-0.009238356,-0.1362969,-0.15978271,0.17555785,792.1612,799.41394,798.60803,812.71063,829.2308,-0.082275390625,-0.02874755859375,1.01092529296875,0.5084228515625,-1.4056396484375,-2.61688232421875,1,1.0,1.0,1.0,1.0,10.00
2024-10-11 20:19:50.539,1.3565315,0.6120618,1.1211717,1.2482189,1.1840115,0.34946945,0.87025005,1.3017745,1.077399,0.5848285,0.4675273,0.9279717,0.7038738,0.156192,0.13220209,0.7769933,-0.009238356,-0.1362969,-0.15978271,0.17555785,788.93774,796.1905,797.3993,803.0403,716.8132,-0.082275390625,-0.02874755859375,1.01092529296875,0.5084228515625,-1.4056396484375,-2.61688232421875,1,1.0,1.0,1.0,1.0,10.00
2024-10-11 20:19:50.539,1.3565315,0.6120618,1.1211717,1.2482189,1.1840115,0.34946945,0.87025005,1.3017745,1.077399,0.5848285,0.4675273,0.9279717,0.7038738,0.156192,0.13220209,0.7769933,-0.009238356,-0.1362969,-0.15978271,0.17555785,788.5348,797.8022,803.8461,797.8022,866.30035,-0.082275390625,-0.02874755859375,1.01092529296875,0.5084228515625,-1.4056396484375,-2.61688232421875,1,1.0,1.0,1.0,1.0,10.00
2024-10-11 20:19:50.540,1.3565315,0.6120618,1.1211717,1.2482189,1.1840115,0.34946945,0.87025005,1.3017745,1.077399,0.5848285,0.4675273,0.9279717,0.7038738,0.156192,0.13220209,0.7769933,-0.009238356,-0.1362969,-0.15978271,0.17555785,801.4286,794.9817,791.3553,811.0989,1083.8828,-0.082275390625,-0.02874755859375,1.01092529296875,0.5084228515625,-1.4056396484375,-2.61688232421875,1,1.0,1.0,1.0,1.0,10.00
2024-10-11 20:19:50.541,1.3565315,0.6120618,1.1211717,1.2482189,1.1840115,0.34946945,0.87025005,1.3017745,1.077399,0.5848285,0.4675273,0.9279717,0.7038738,0.156192,0.13220209,0.7769933,-0.009238356,-0.1362969,-0.15978271,0.17555785,805.8608,799.011,794.9817,807.47253,827.2161,-0.082275390625,-0.02874755859375,1.01092529296875,0.5084228515625,-1.4056396484375,-2.61688232421875,1,1.0,1.0,1.0,1.0,10.00
2024-10-11 20:19:50.541,1.3565315,0.6120618,1.1211717,1.2482189,1.1840115,0.34946945,0.87025005,1.3017745,1.077399,0.5848285,0.4675273,0.9279717,0.7038738,0.156192,0.13220209,0.7769933,-0.009238356,-0.1362969,-0.15978271,0.17555785,801.4286,809.4872,809.4872,796.99634,511.72162,-0.082275390625,-0.02874755859375,1.01092529296875,0.5084228515625,-1.4056396484375,-2.61688232421875,1,1.0,1.0,1.0,1.0,10.00
2024-10-11 20:19:50.542,1.3565315,0.6120618,1.1211717,1.2482189,1.1840115,0.34946945,0.87025005,1.3017745,1.077399,0.5848285,0.4675273,0.9279717,0.7038738,0.156192,0.13220209,0.7769933,-0.009238356,-0.1362969,-0.15978271,0.17555785,805.4579,801.02563,800.6227,801.4286,667.25275,-0.082275390625,-0.02874755859375,1.01092529296875,0.5084228515625,-1.4056396484375,-2.61688232421875,1,1.0,1.0,1.0,1.0,10.00
2024-10-11 20:19:50.543,1.3565315,0.6120618,1.1211717,1.2482189,1.1840115,0.34946945,0.87025005,1.3017745,1.077399,0.5848285,0.4675273,0.9279717,0.7038738,0.156192,0.13220209,0.7769933,-0.009238356,-0.1362969,-0.15978271,0.17555785,801.8315,793.7729,802.6374,807.8755,951.7216,-0.082275390625,-0.02874755859375,1.01092529296875,0.5084228515625,-1.4056396484375,-2.61688232421875,1,1.0,1.0,1.0,1.0,10.00
2024-10-11 20:19:50.574,1.3565315,0.6120618,1.1211717,1.2482189,1.1840115,0.34946945,0.87025005,1.3017745,1.077399,0.5848285,0.4675273,0.9279717,0.7038738,0.156192,0.13220209,0.7769933,-0.009238356,-0.1362969,-0.15978271,0.17555785,799.81683,805.4579,802.6374,811.0989,825.2015,-0.0855712890625,-0.03125,1.01409912109375,-0.64300537109375,-0.64300537109375,-2.7813720703125,1,1.0,1.0,1.0,1.0,10.00
2024-10-11 20:19:50.575,1.3565315,0.6120618,1.1211717,1.2482189,1.1840115,0.34946945,0.87025005,1.3017745,1.077399,0.5848285,0.4675273,0.9279717,0.7038738,0.156192,0.13220209,0.7769933,-0.009238356,-0.1362969,-0.15978271,0.17555785,809.0842,808.68134,800.6227,811.50183,642.674,-0.0855712890625,-0.03125,1.01409912109375,-0.64300537109375,-0.64300537109375,-2.7813720703125,1,1.0,1.0,1.0,1.0,10.00
2024-10-11 20:19:50.576,1.3565315,0.6120618,1.1211717,1.2482189,1.1840115,0.34946945,0.87025005,1.3017745,1.077399,0.5848285,0.4675273,0.9279717,0.7038738,0.156192,0.13220209,0.7769933,-0.009238356,-0.1362969,-0.15978271,0.17555785,814.3223,801.02563,802.6374,811.9048,678.1319,-0.0855712890625,-0.03125,1.01409912109375,-0.64300537109375,-0.64300537109375,-2.7813720703125,1,1.0,1.0,1.0,1.0,10.00
