TimeStamp,Delta_TP9,Delta_AF7,Delta_AF8,Delta_TP10,Theta_TP9,Theta_AF7,Theta_AF8,Theta_TP10,Alpha_TP9,Alpha_AF7,Alpha_AF8,Alpha_TP10,Beta_TP9,Beta_AF7,Beta_AF8,Beta_TP10,Gamma_TP9,Gamma_AF7,Gamma_AF8,Gamma_TP10,RAW_TP9,RAW_AF7,RAW_AF8,RAW_TP10,AUX_RIGHT,Accelerometer_X,Accelerometer_Y,Accelerometer_Z,Gyro_X,Gyro_Y,Gyro_Z,HeadBandOn,HSI_TP9,HSI_AF7,HSI_AF8,HSI_TP10,Battery,Elements
2024-10-11 20:21:01.129,0.28881875,0.24534483,0.043096054,0.3584911,0.3306259,-0.26276234,-0.43347818,0.39969325,0.5151087,-0.01342824,0.11888239,0.8707177,0.51744795,0.097273774,0.14660311,0.6006075,-0.019252082,-0.09742398,-0.20358191,0.109225854,800.2198,796.5934,803.44324,814.3223,574.57874,-0.24700927734375,0.01324462890625,0.98858642578125,-1.712188720703125,-2.37762451171875,-5.630035400390625,1,1.0,1.0,1.0,1.0,10.00
2024-10-11 20:21:01.130,0.28881875,0.24534483,0.043096054,0.3584911,0.3306259,-0.26276234,-0.43347818,0.39969325,0.5151087,-0.01342824,0.11888239,0.8707177,0.51744795,0.097273774,0.14660311,0.6006075,-0.019252082,-0.09742398,-0.20358191,0.109225854,807.8755,798.60803,802.6374,823.5897,624.94507,-0.24700927734375,0.01324462890625,0.98858642578125,-1.712188720703125,-2.37762451171875,-5.630035400390625,1,1.0,1.0,1.0,1.0,10.00
2024-10-11 20:21:01.131,0.28881875,0.24534483,0.043096054,0.3584911,0.3306259,-0.26276234,-0.43347818,0.39969325,0.5151087,-0.01342824,0.11888239,0.8707177,0.51744795,0.097273774,0.14660311,0.6006075,-0.019252082,-0.09742398,-0.20358191,0.109225854,790.9524,796.99634,803.44324,799.81683,665.64105,-0.24700927734375,0.01324462890625,0.98858642578125,-1.712188720703125,-2.37762451171875,-5.630035400390625,1,1.0,1.0,1.0,1.0,10.00
2024-10-11 20:21:01.132,0.28881875,0.24534483,0.043096054,0.3584911,0.3306259,-0.26276234,-0.43347818,0.39969325,0.5151087,-0.01342824,0.11888239,0.8707177,0.51744795,0.097273774,0.14660311,0.6006075,-0.019252082,-0.09742398,-0.20358191,0.109225854,780.87915,810.696,801.4286,786.52014,576.99634,-0.24700927734375,0.01324462890625,0.98858642578125,-1.712188720703125,-2.37762451171875,-5.630035400390625,1,1.0,1.0,1.0,1.0,10.00
2024-10-11 20:21:01.133,0.28881875,0.24534483,0.043096054,0.3584911,0.3306259,-0.26276234,-0.43347818,0.39969325,0.5151087,-0.01342824,0.11888239,0.8707177,0.51744795,0.097273774,0.14660311,0.6006075,-0.019252082,-0.09742398,-0.20358191,0.109225854,781.28204,816.337,798.60803,785.31134,554.83514,-0.24700927734375,0.01324462890625,0.98858642578125,-1.712188720703125,-2.37762451171875,-5.630035400390625,1,1.0,1.0,1.0,1.0,10.00
2024-10-11 20:21:01.134,0.28881875,0.24534483,0.043096054,0.3584911,0.3306259,-0.26276234,-0.43347818,0.39969325,0.5151087,-0.01342824,0.11888239,0.8707177,0.51744795,0.097273774,0.14660311,0.6006075,-0.019252082,-0.09742398,-0.20358191,0.109225854,797.3993,816.337,800.6227,801.8315,875.16486,-0.24700927734375,0.01324462890625,0.98858642578125,-1.712188720703125,-2.37762451171875,-5.630035400390625,1,1.0,1.0,1.0,1.0,10.00
2024-10-11 20:21:01.135,0.28881875,0.24534483,0.043096054,0.3584911,0.3306259,-0.26276234,-0.43347818,0.39969325,0.5151087,-0.01342824,0.11888239,0.8707177,0.51744795,0.097273774,0.14660311,0.6006075,-0.019252082,-0.09742398,-0.20358191,0.109225854,790.9524,821.1722,791.3553,796.99634,1133.0403,-0.24700927734375,0.01324462890625,0.98858642578125,-1.712188720703125,-2.37762451171875,-5.630035400390625,1,1.0,1.0,1.0,1.0,10.00
2024-10-11 20:21:01.136,0.28881875,0.24534483,0.043096054,0.3584911,0.3306259,-0.26276234,-0.43347818,0.39969325,0.5151087,-0.01342824,0.11888239,0.8707177,0.51744795,0.097273774,0.14660311,0.6006075,-0.019252082,-0.09742398,-0.20358191,0.109225854,780.07324,819.9634,783.2967,776.04395,819.15753,-0.24700927734375,0.01324462890625,0.98858642578125,-1.712188720703125,-2.37762451171875,-5.630035400390625,1,1.0,1.0,1.0,1.0,10.00
2024-10-11 20:21:01.137,0.28881875,0.24534483,0.043096054,0.3584911,0.3306259,-0.26276234,-0.43347818,0.39969325,0.5151087,-0.01342824,0.11888239,0.8707177,0.51744795,0.097273774,0.14660311,0.6006075,-0.019252082,-0.09742398,-0.20358191,0.109225854,792.96704,814.3223,786.9231,782.0879,661.6117,-0.24700927734375,0.01324462890625,0.98858642578125,-1.712188720703125,-2.37762451171875,-5.630035400390625,1,1.0,1.0,1.0,1.0,10.00
2024-10-11 20:21:01.138,0.28881875,0.24534483,0.043096054,0.3584911,0.3306259,-0.26276234,-0.43347818,0.39969325,0.5151087,-0.01342824,0.11888239,0.8707177,0.51744795,0.097273774,0.14660311,0.6006075,-0.019252082,-0.09742398,-0.20358191,0.109225854,788.1319,817.1429,789.34064,783.69965,758.315,-0.24700927734375,0.01324462890625,0.98858642578125,-1.712188720703125,-2.37762451171875,-5.630035400390625,1,1.0,1.0,1.0,1.0,10.00
2024-10-11 20:21:01.139,0.28881875,0.24534483,0.043096054,0.3584911,0.3306259,-0.26276234,-0.43347818,0.39969325,0.5151087,-0.01342824,0.11888239,0.8707177,0.51744795,0.097273774,0.14660311,0.6006075,-0.019252082,-0.09742398,-0.20358191,0.109225854,784.10254,815.12823,780.87915,788.93774,992.8205,-0.24700927734375,0.01324462890625,0.98858642578125,-1.712188720703125,-2.37762451171875,-5.630035400390625,1,1.0,1.0,1.0,1.0,10.00
2024-10-11 20:21:01.140,0.28881875,0.24534483,0.043096054,0.3584911,0.3306259,-0.26276234,-0.43347818,0.39969325,0.5151087,-0.01342824,0.11888239,0.8707177,0.51744795,0.097273774,0.14660311,0.6006075,-0.019252082,-0.09742398,-0.20358191,0.109225854,789.34064,809.89014,778.86444,780.07324,846.55676,-0.24700927734375,0.01324462890625,0.98858642578125,-1.712188720703125,-2.37762451171875,-5.630035400390625,1,1.0,1.0,1.0,1.0,10.00
2024-10-11 20:21:01.141,0.28881875,0.24534483,0.043096054,0.3584911,0.3306259,-0.26276234,-0.43347818,0.39969325,0.5151087,-0.01342824,0.11888239,0.8707177,0.51744795,0.097273774,0.14660311,0.6006075,-0.019252082,-0.09742398,-0.20358191,0.109225854,789.34064,817.5458,776.8498,766.77655,555.2381,-0.24725341796875,0.00238037109375,0.97216796875,-1.9140625,-3.745880126953125,-7.73101806640625,1,1.0,1.0,1.0,1.0,10.00
2024-10-11 20:21:01.142,0.28881875,0.24534483,0.043096054,0.3584911,0.3306259,-0.26276234,-0.43347818,0.39969325,0.5151087,-0.01342824,0.11888239,0.8707177,0.51744795,0.097273774,0.14660311,0.6006075,-0.019252082,-0.09742398,-0.20358191,0.109225854,796.1905,823.1868,773.22345,777.25275,649.12085,-0.24725341796875,0.00238037109375,0.97216796875,-1.9140625,-3.745880126953125,-7.73101806640625,1,1.0,1.0,1.0,1.0,10.00
2024-10-11 20:21:01.143,0.28881875,0.24534483,0.043096054,0.3584911,0.3306259,-0.26276234,-0.43347818,0.39969325,0.5151087,-0.01342824,0.11888239,0.8707177,0.51744795,0.097273774,0.14660311,0.6006075,-0.019252082,-0.09742398,-0.20358191,0.109225854,794.17584,815.9341,768.7912,779.67035,753.47986,-0.24725341796875,0.00238037109375,0.97216796875,-1.9140625,-3.745880126953125,-7.73101806640625,1,1.0,1.0,1.0,1.0,10.00
2024-10-11 20:21:01.144,0.24108186,0.09950088,0.024713725,0.33828163,0.31593722,-0.39233527,-0.4512997,0.3577128,0.5109354,-0.047551032,0.121524744,0.8707177,0.5308415,0.096661955,0.12700401,0.5922137,-0.013333545,-0.07677727,-0.20865084,0.10320049,789.34064,809.4872,766.3736,770.80585,745.42126,-0.24725341796875,0.00238037109375,0.97216796875,-1.9140625,-3.745880126953125,-7.73101806640625,1,1.0,1.0,1.0,1.0,10.00
2024-10-11 20:21:01.149,0.24108186,0.09950088,0.024713725,0.33828163,0.31593722,-0.39233527,-0.4512997,0.3577128,0.5109354,-0.047551032,0.121524744,0.8707177,0.5308415,0.096661955,0.12700401,0.5922137,-0.013333545,-0.07677727,-0.20865084,0.10320049,796.1905,809.4872,770.40295,766.77655,638.24176,-0.24725341796875,0.00238037109375,0.97216796875,-1.9140625,-3.745880126953125,-7.73101806640625,1,1.0,1.0,1.0,1.0,10.00
2024-10-11 20:21:01.150,0.24108186,0.09950088,0.024713725,0.33828163,0.31593722,-0.39233527,-0.4512997,0.3577128,0.5109354,-0.047551032,0.121524744,0.8707177,0.5308415,0.096661955,0.12700401,0.5922137,-0.013333545,-0.07677727,-0.20865084,0.10320049,808.2784,819.15753,773.22345,776.8498,853.00366,-0.24725341796875,0.00238037109375,0.97216796875,-1.9140625,-3.745880126953125,-7.73101806640625,1,1.0,1.0,1.0,1.0,10.00
2024-10-11 20:21:01.151,0.24108186,0.09950088,0.024713725,0.33828163,0.31593722,-0.39233527,-0.4512997,0.3577128,0.5109354,-0.047551032,0.121524744,0.8707177,0.5308415,0.096661955,0.12700401,0.5922137,-0.013333545,-0.07677727,-0.20865084,0.10320049,799.81683,821.5751,770.80585,776.8498,982.3443,-0.24725341796875,0.00238037109375,0.97216796875,-1.9140625,-3.745880126953125,-7.73101806640625,1,1.0,1.0,1.0,1.0,10.00
2024-10-11 20:21:01.152,0.24108186,0.09950088,0.024713725,0.33828163,0.31593722,-0.39233527,-0.4512997,0.3577128,0.5109354,-0.047551032,0.121524744,0.8707177,0.5308415,0.096661955,0.12700401,0.5922137,-0.013333545,-0.07677727,-0.20865084,0.10320049,797.8022,814.7253,769.59705,773.22345,829.6337,-0.24725341796875,0.00238037109375,0.97216796875,-1.9140625,-3.745880126953125,-7.73101806640625,1,1.0,1.0,1.0,1.0,10.00
2024-10-11 20:21:01.153,0.24108186,0.09950088,0.024713725,0.33828163,0.31593722,-0.39233527,-0.4512997,0.3577128,0.5109354,-0.047551032,0.121524744,0.8707177,0.5308415,0.096661955,0.12700401,0.5922137,-0.013333545,-0.07677727,-0.20865084,0.10320049,805.8608,814.3223,773.6264,787.72894,672.8938,-0.24725341796875,0.00238037109375,0.97216796875,-1.9140625,-3.745880126953125,-7.73101806640625,1,1.0,1.0,1.0,1.0,10.00
2024-10-11 20:21:01.154,0.24108186,0.09950088,0.024713725,0.33828163,0.31593722,-0.39233527,-0.4512997,0.3577128,0.5109354,-0.047551032,0.121524744,0.8707177,0.5308415,0.096661955,0.12700401,0.5922137,-0.013333545,-0.07677727,-0.20865084,0.10320049,797.3993,816.7399,777.25275,782.8938,741.79486,-0.24725341796875,0.00238037109375,0.97216796875,-1.9140625,-3.745880126953125,-7.73101806640625,1,1.0,1.0,1.0,1.0,10.00
2024-10-11 20:21:01.155,0.24108186,0.09950088,0.024713725,0.33828163,0.31593722,-0.39233527,-0.4512997,0.3577128,0.5109354,-0.047551032,0.121524744,0.8707177,0.5308415,0.096661955,0.12700401,0.5922137,-0.013333545,-0.07677727,-0.20865084,0.10320049,805.4579,812.71063,774.0293,786.1172,985.56775,-0.24725341796875,0.00238037109375,0.97216796875,-1.9140625,-3.745880126953125,-7.73101806640625,1,1.0,1.0,1.0,1.0,10.00
2024-10-11 20:21:01.156,0.24108186,0.09950088,0.024713725,0.33828163,0.31593722,-0.39233527,-0.4512997,0.3577128,0.5109354,-0.047551032,0.121524744,0.8707177,0.5308415,0.096661955,0.12700401,0.5922137,-0.013333545,-0.07677727,-0.20865084,0.10320049,802.23444,812.71063,772.8205,793.7729,791.3553,-0.24725341796875,0.00238037109375,0.97216796875,-1.9140625,-3.745880126953125,-7.73101806640625,1,1.0,1.0,1.0,1.0,10.00
2024-10-11 20:21:01.158,0.24108186,0.09950088,0.024713725,0.33828163,0.31593722,-0.39233527,-0.4512997,0.3577128,0.5109354,-0.047551032,0.121524744,0.8707177,0.5308415,0.096661955,0.12700401,0.5922137,-0.013333545,-0.07677727,-0.20865084,0.10320049,794.9817,810.293,771.2088,782.8938,661.2088,-0.24114990234375,-0.00836181640625,0.96844482421875,-1.8841552734375,-5.689849853515625,-10.93109130859375,1,1.0,1.0,1.0,1.0,10.00
2024-10-11 20:21:01.158,0.24108186,0.09950088,0.024713725,0.33828163,0.31593722,-0.39233527,-0.4512997,0.3577128,0.5109354,-0.047551032,0.121524744,0.8707177,0.5308415,0.096661955,0.12700401,0.5922137,-0.013333545,-0.07677727,-0.20865084,0.10320049,801.4286,801.02563,772.4176,791.3553,788.5348,-0.24114990234375,-0.00836181640625,0.96844482421875,-1.8841552734375,-5.689849853515625,-10.93109130859375,1,1.0,1.0,1.0,1.0,10.00
2024-10-11 20:21:01.159,0.24108186,0.09950088,0.024713725,0.33828163,0.31593722,-0.39233527,-0.4512997,0.3577128,0.5109354,-0.047551032,0.121524744,0.8707177,0.5308415,0.096661955,0.12700401,0.5922137,-0.013333545,-0.07677727,-0.20865084,0.10320049,803.0403,801.4286,784.10254,799.41394,848.97437,-0.24114990234375,-0.00836181640625,0.96844482421875,-1.8841552734375,-5.689849853515625,-10.93109130859375,1,1.0,1.0,1.0,1.0,10.00
2024-10-11 20:21:01.160,0.24108186,0.09950088,0.024713725,0.33828163,0.31593722,-0.39233527,-0.4512997,0.3577128,0.5109354,-0.047551032,0.121524744,0.8707177,0.5308415,0.096661955,0.12700401,0.5922137,-0.013333545,-0.07677727,-0.20865084,0.10320049,800.2198,802.23444,788.1319,796.99634,704.3223,-0.24114990234375,-0.00836181640625,0.96844482421875,-1.8841552734375,-5.689849853515625,-10.93109130859375,1,1.0,1.0,1.0,1.0,10.00
2024-10-11 20:21:01.161,0.24108186,0.09950088,0.024713725,0.33828163,0.31593722,-0.39233527,-0.4512997,0.3577128,0.5109354,-0.047551032,0.121524744,0.8707177,0.5308415,0.096661955,0.12700401,0.5922137,-0.013333545,-0.07677727,-0.20865084,0.10320049,805.4579,802.23444,783.2967,797.3993,703.5165,-0.24114990234375,-0.00836181640625,0.96844482421875,-1.8841552734375,-5.689849853515625,-10.93109130859375,1,1.0,1.0,1.0,1.0,10.00
2024-10-11 20:21:01.162,0.24108186,0.09950088,0.024713725,0.33828163,0.31593722,-0.39233527,-0.4512997,0.3577128,0.5109354,-0.047551032,0.121524744,0.8707177,0.5308415,0.096661955,0.12700401,0.5922137,-0.013333545,-0.07677727,-0.20865084,0.10320049,809.4872,807.0696,789.7436,801.4286,852.6007,-0.24114990234375,-0.00836181640625,0.96844482421875,-1.8841552734375,-5.689849853515625,-10.93109130859375,1,1.0,1.0,1.0,1.0,10.00
2024-10-11 20:21:01.163,0.24108186,0.09950088,0.024713725,0.33828163,0.31593722,-0.39233527,-0.4512997,0.3577128,0.5109354,-0.047551032,0.121524744,0.8707177,0.5308415,0.096661955,0.12700401,0.5922137,-0.013333545,-0.07677727,-0.20865084,0.10320049,813.91943,812.3077,788.1319,803.0403,856.2271,-0.24114990234375,-0.00836181640625,0.96844482421875,-1.8841552734375,-5.689849853515625,-10.93109130859375,1,1.0,1.0,1.0,1.0,10.00
2024-10-11 20:21:01.164,0.24108186,0.09950088,0.024713725,0.33828163,0.31593722,-0.39233527,-0.4512997,0.3577128,0.5109354,-0.047551032,0.121524744,0.8707177,0.5308415,0.096661955,0.12700401,0.5922137,-0.013333545,-0.07677727,-0.20865084,0.10320049,812.3077,807.8755,780.4762,800.6227,689.41394,-0.24114990234375,-0.00836181640625,0.96844482421875,-1.8841552734375,-5.689849853515625,-10.93109130859375,1,1.0,1.0,1.0,1.0,10.00
2024-10-11 20:21:01.165,0.24108186,0.09950088,0.024713725,0.33828163,0.31593722,-0.39233527,-0.4512997,0.3577128,0.5109354,-0.047551032,0.121524744,0.8707177,0.5308415,0.096661955,0.12700401,0.5922137,-0.013333545,-0.07677727,-0.20865084,0.10320049,803.0403,804.65204,785.7143,802.23444,693.8461,-0.24114990234375,-0.00836181640625,0.96844482421875,-1.8841552734375,-5.689849853515625,-10.93109130859375,1,1.0,1.0,1.0,1.0,10.00
2024-10-11 20:21:01.166,0.24108186,0.09950088,0.024713725,0.33828163,0.31593722,-0.39233527,-0.4512997,0.3577128,0.5109354,-0.047551032,0.121524744,0.8707177,0.5308415,0.096661955,0.12700401,0.5922137,-0.013333545,-0.07677727,-0.20865084,0.10320049,801.4286,803.8461,783.2967,803.44324,880.80585,-0.24114990234375,-0.00836181640625,0.96844482421875,-1.8841552734375,-5.689849853515625,-10.93109130859375,1,1.0,1.0,1.0,1.0,10.00
2024-10-11 20:21:01.167,0.24108186,0.09950088,0.024713725,0.33828163,0.31593722,-0.39233527,-0.4512997,0.3577128,0.5109354,-0.047551032,0.121524744,0.8707177,0.5308415,0.096661955,0.12700401,0.5922137,-0.013333545,-0.07677727,-0.20865084,0.10320049,806.6667,800.6227,780.07324,797.8022,673.2967,-0.24114990234375,-0.00836181640625,0.96844482421875,-1.8841552734375,-5.689849853515625,-10.93109130859375,1,1.0,1.0,1.0,1.0,10.00
2024-10-11 20:21:01.169,0.24108186,0.09950088,0.024713725,0.33828163,0.31593722,-0.39233527,-0.4512997,0.3577128,0.5109354,-0.047551032,0.121524744,0.8707177,0.5308415,0.096661955,0.12700401,0.5922137,-0.013333545,-0.07677727,-0.20865084,0.10320049,807.0696,800.2198,781.685,798.60803,585.4579,-0.24114990234375,-0.00836181640625,0.96844482421875,-1.8841552734375,-5.689849853515625,-10.93109130859375,1,1.0,1.0,1.0,1.0,10.00
2024-10-11 20:21:01.241,0.24108186,0.09950088,0.024713725,0.33828163,0.31593722,-0.39233527,-0.4512997,0.3577128,0.5109354,-0.047551032,0.121524744,0.8707177,0.5308415,0.096661955,0.12700401,0.5922137,-0.013333545,-0.07677727,-0.20865084,0.10320049,801.8315,804.65204,790.54944,797.8022,722.8571,-0.23583984375,0.00164794921875,0.98480224609375,0.097198486328125,-8.964691162109375,-12.9498291015625,1,1.0,1.0,1.0,1.0,10.00
2024-10-11 20:21:01.242,0.24108186,0.09950088,0.024713725,0.33828163,0.31593722,-0.39233527,-0.4512997,0.3577128,0.5109354,-0.047551032,0.121524744,0.8707177,0.5308415,0.096661955,0.12700401,0.5922137,-0.013333545,-0.07677727,-0.20865084,0.10320049,801.02563,806.26373,787.72894,796.5934,697.0696,-0.23583984375,0.00164794921875,0.98480224609375,0.097198486328125,-8.964691162109375,-12.9498291015625,1,1.0,1.0,1.0,1.0,10.00
2024-10-11 20:21:01.243,0.24108186,0.09950088,0.024713725,0.33828163,0.31593722,-0.39233527,-0.4512997,0.3577128,0.5109354,-0.047551032,0.121524744,0.8707177,0.5308415,0.096661955,0.12700401,0.5922137,-0.013333545,-0.07677727,-0.20865084,0.10320049,802.6374,799.41394,784.10254,801.02563,726.4835,-0.23583984375,0.00164794921875,0.98480224609375,0.097198486328125,-8.964691162109375,-12.9498291015625,1,1.0,1.0,1.0,1.0,10.00
2024-10-11 20:21:01.244,0.24108186,0.09950088,0.024713725,0.33828163,0.31593722,-0.39233527,-0.4512997,0.3577128,0.5109354,-0.047551032,0.121524744,0.8707177,0.5308415,0.096661955,0.12700401,0.5922137,-0.013333545,-0.07677727,-0.20865084,0.10320049,806.26373,799.41394,786.1172,805.05493,755.09155,-0.23583984375,0.00164794921875,0.98480224609375,0.097198486328125,-8.964691162109375,-12.9498291015625,1,1.0,1.0,1.0,1.0,10.00
2024-10-11 20:21:01.245,0.24108186,0.09950088,0.024713725,0.33828163,0.31593722,-0.39233527,-0.4512997,0.3577128,0.5109354,-0.047551032,0.121524744,0.8707177,0.5308415,0.096661955,0.12700401,0.5922137,-0.013333545,-0.07677727,-0.20865084,0.10320049,809.89014,806.6667,780.4762,811.0989,774.0293,-0.23583984375,0.00164794921875,0.98480224609375,0.097198486328125,-8.964691162109375,-12.9498291015625,1,1.0,1.0,1.0,1.0,10.00
2024-10-11 20:21:01.247,0.20005172,0.027032405,0.029971698,0.3328285,0.3085113,-0.4143989,-0.45757443,0.33060962,0.51056623,-0.053106077,0.121524744,0.8644413,0.54591376,0.089317985,0.111388706,0.5790554,-0.008795278,-0.07128439,-0.20615506,0.08831251,801.8315,807.47253,774.0293,815.12823,856.2271,-0.23583984375,0.00164794921875,0.98480224609375,0.097198486328125,-8.964691162109375,-12.9498291015625,1,1.0,1.0,1.0,1.0,10.00
2024-10-11 20:21:01.252,0.20005172,0.027032405,0.029971698,0.3328285,0.3085113,-0.4143989,-0.45757443,0.33060962,0.51056623,-0.053106077,0.121524744,0.8644413,0.54591376,0.089317985,0.111388706,0.5790554,-0.008795278,-0.07128439,-0.20615506,0.08831251,789.34064,809.0842,775.2381,813.5165,764.35895,-0.23583984375,0.00164794921875,0.98480224609375,0.097198486328125,-8.964691162109375,-12.9498291015625,1,1.0,1.0,1.0,1.0,10.00
2024-10-11 20:21:01.253,0.20005172,0.027032405,0.029971698,0.3328285,0.3085113,-0.4143989,-0.45757443,0.33060962,0.51056623,-0.053106077,0.121524744,0.8644413,0.54591376,0.089317985,0.111388706,0.5790554,-0.008795278,-0.07128439,-0.20615506,0.08831251,790.54944,803.8461,789.34064,817.5458,721.6484,-0.23583984375,0.00164794921875,0.98480224609375,0.097198486328125,-8.964691162109375,-12.9498291015625,1,1.0,1.0,1.0,1.0,10.00
2024-10-11 20:21:01.255,0.20005172,0.027032405,0.029971698,0.3328285,0.3085113,-0.4143989,-0.45757443,0.33060962,0.51056623,-0.053106077,0.121524744,0.8644413,0.54591376,0.089317985,0.111388706,0.5790554,-0.008795278,-0.07128439,-0.20615506,0.08831251,792.1612,791.3553,792.96704,812.71063,871.13556,-0.23583984375,0.00164794921875,0.98480224609375,0.097198486328125,-8.964691162109375,-12.9498291015625,1,1.0,1.0,1.0,1.0,10.00
2024-10-11 20:21:01.256,0.20005172,0.027032405,0.029971698,0.3328285,0.3085113,-0.4143989,-0.45757443,0.33060962,0.51056623,-0.053106077,0.121524744,0.8644413,0.54591376,0.089317985,0.111388706,0.5790554,-0.008795278,-0.07128439,-0.20615506,0.08831251,797.3993,796.5934,786.9231,808.2784,897.326,-0.23583984375,0.00164794921875,0.98480224609375,0.097198486328125,-8.964691162109375,-12.9498291015625,1,1.0,1.0,1.0,1.0,10.00
2024-10-11 20:21:01.257,0.20005172,0.027032405,0.029971698,0.3328285,0.3085113,-0.4143989,-0.45757443,0.33060962,0.51056623,-0.053106077,0.121524744,0.8644413,0.54591376,0.089317985,0.111388706,0.5790554,-0.008795278,-0.07128439,-0.20615506,0.08831251,803.44324,800.2198,801.8315,808.68134,714.7985,-0.23583984375,0.00164794921875,0.98480224609375,0.097198486328125,-8.964691162109375,-12.9498291015625,1,1.0,1.0,1.0,1.0,10.00
2024-10-11 20:21:01.258,0.20005172,0.027032405,0.029971698,0.3328285,0.3085113,-0.4143989,-0.45757443,0.33060962,0.51056623,-0.053106077,0.121524744,0.8644413,0.54591376,0.089317985,0.111388706,0.5790554,-0.008795278,-0.07128439,-0.20615506,0.08831251,801.02563,796.1905,799.81683,809.89014,600.7692,-0.23583984375,0.00164794921875,0.98480224609375,0.097198486328125,-8.964691162109375,-12.9498291015625,1,1.0,1.0,1.0,1.0,10.00
2024-10-11 20:21:01.290,0.20005172,0.027032405,0.029971698,0.3328285,0.3085113,-0.4143989,-0.45757443,0.33060962,0.51056623,-0.053106077,0.121524744,0.8644413,0.54591376,0.089317985,0.111388706,0.5790554,-0.008795278,-0.07128439,-0.20615506,0.08831251,803.8461,797.3993,788.5348,815.12823,953.73627,-0.23583984375,0.00164794921875,0.98480224609375,0.097198486328125,-8.964691162109375,-12.9498291015625,1,1.0,1.0,1.0,1.0,10.00
2024-10-11 20:21:01.291,0.20005172,0.027032405,0.029971698,0.3328285,0.3085113,-0.4143989,-0.45757443,0.33060962,0.51056623,-0.053106077,0.121524744,0.8644413,0.54591376,0.089317985,0.111388706,0.5790554,-0.008795278,-0.07128439,-0.20615506,0.08831251,806.26373,790.9524,792.1612,818.7546,1141.0989,-0.23583984375,0.00164794921875,0.98480224609375,0.097198486328125,-8.964691162109375,-12.9498291015625,1,1.0,1.0,1.0,1.0,10.00
2024-10-11 20:21:01.293,0.20005172,0.027032405,0.029971698,0.3328285,0.3085113,-0.4143989,-0.45757443,0.33060962,0.51056623,-0.053106077,0.121524744,0.8644413,0.54591376,0.089317985,0.111388706,0.5790554,-0.008795278,-0.07128439,-0.20615506,0.08831251,808.68134,788.5348,799.011,814.3223,732.52747,-0.23583984375,0.00164794921875,0.98480224609375,0.097198486328125,-8.964691162109375,-12.9498291015625,1,1.0,1.0,1.0,1.0,10.00
2024-10-11 20:21:01.294,0.20005172,0.027032405,0.029971698,0.3328285,0.3085113,-0.4143989,-0.45757443,0.33060962,0.51056623,-0.053106077,0.121524744,0.8644413,0.54591376,0.089317985,0.111388706,0.5790554,-0.008795278,-0.07128439,-0.20615506,0.08831251,807.47253,800.2198,805.05493,810.696,694.2491,-0.23583984375,0.00164794921875,0.98480224609375,0.097198486328125,-8.964691162109375,-12.9498291015625,1,1.0,1.0,1.0,1.0,10.00
2024-10-11 20:21:01.295,0.20005172,0.027032405,0.029971698,0.3328285,0.3085113,-0.4143989,-0.45757443,0.33060962,0.51056623,-0.053106077,0.121524744,0.8644413,0.54591376,0.089317985,0.111388706,0.5790554,-0.008795278,-0.07128439,-0.20615506,0.08831251,811.0989,804.2491,805.05493,821.1722,799.011,-0.23583984375,0.00164794921875,0.98480224609375,0.097198486328125,-8.964691162109375,-12.9498291015625,1,1.0,1.0,1.0,1.0,10.00
2024-10-11 20:21:01.296,0.20005172,0.027032405,0.029971698,0.3328285,0.3085113,-0.4143989,-0.45757443,0.33060962,0.51056623,-0.053106077,0.121524744,0.8644413,0.54591376,0.089317985,0.111388706,0.5790554,-0.008795278,-0.07128439,-0.20615506,0.08831251,822.381,792.96704,799.011,828.8278,904.57874,-0.23583984375,0.00164794921875,0.98480224609375,0.097198486328125,-8.964691162109375,-12.9498291015625,1,1.0,1.0,1.0,1.0,10.00
2024-10-11 20:21:01.297,0.20005172,0.027032405,0.029971698,0.3328285,0.3085113,-0.4143989,-0.45757443,0.33060962,0.51056623,-0.053106077,0.121524744,0.8644413,0.54591376,0.089317985,0.111388706,0.5790554,-0.008795278,-0.07128439,-0.20615506,0.08831251,809.4872,790.54944,799.41394,813.91943,857.8388,-0.23583984375,0.00164794921875,0.98480224609375,0.097198486328125,-8.964691162109375,-12.9498291015625,1,1.0,1.0,1.0,1.0,10.00
2024-10-11 20:21:01.298,0.20005172,0.027032405,0.029971698,0.3328285,0.3085113,-0.4143989,-0.45757443,0.33060962,0.51056623,-0.053106077,0.121524744,0.8644413,0.54591376,0.089317985,0.111388706,0.5790554,-0.008795278,-0.07128439,-0.20615506,0.08831251,799.011,802.6374,800.2198,798.20514,738.1685,-0.23583984375,0.00164794921875,0.98480224609375,0.097198486328125,-8.964691162109375,-12.9498291015625,1,1.0,1.0,1.0,1.0,10.00
2024-10-11 20:21:01.299,0.20005172,0.027032405,0.029971698,0.3328285,0.3085113,-0.4143989,-0.45757443,0.33060962,0.51056623,-0.053106077,0.121524744,0.8644413,0.54591376,0.089317985,0.111388706,0.5790554,-0.008795278,-0.07128439,-0.20615506,0.08831251,794.17584,799.41394,799.41394,803.44324,1119.3407,-0.23583984375,0.00164794921875,0.98480224609375,0.097198486328125,-8.964691162109375,-12.9498291015625,1,1.0,1.0,1.0,1.0,10.00
2024-10-11 20:21:01.300,0.20005172,0.027032405,0.029971698,0.3328285,0.3085113,-0.4143989,-0.45757443,0.33060962,0.51056623,-0.053106077,0.121524744,0.8644413,0.54591376,0.089317985,0.111388706,0.5790554,-0.008795278,-0.07128439,-0.20615506,0.08831251,805.05493,796.1905,801.02563,817.1429,1123.773,-0.23583984375,0.00164794921875,0.98480224609375,0.097198486328125,-8.964691162109375,-12.9498291015625,1,1.0,1.0,1.0,1.0,10.00
2024-10-11 20:21:01.301,0.20005172,0.027032405,0.029971698,0.3328285,0.3085113,-0.4143989,-0.45757443,0.33060962,0.51056623,-0.053106077,0.121524744,0.8644413,0.54591376,0.089317985,0.111388706,0.5790554,-0.008795278,-0.07128439,-0.20615506,0.08831251,814.3223,795.78754,798.20514,812.3077,638.6447,-0.23583984375,0.00164794921875,0.98480224609375,0.097198486328125,-8.964691162109375,-12.9498291015625,1,1.0,1.0,1.0,1.0,10.00
2024-10-11 20:21:01.302,0.20005172,0.027032405,0.029971698,0.3328285,0.3085113,-0.4143989,-0.45757443,0.33060962,0.51056623,-0.053106077,0.121524744,0.8644413,0.54591376,0.089317985,0.111388706,0.5790554,-0.008795278,-0.07128439,-0.20615506,0.08831251,795.78754,787.326,789.7436,796.5934,568.1319,-0.23583984375,0.00164794921875,0.98480224609375,0.097198486328125,-8.964691162109375,-12.9498291015625,1,1.0,1.0,1.0,1.0,10.00
2024-10-11 20:21:01.303,0.20005172,0.027032405,0.029971698,0.3328285,0.3085113,-0.4143989,-0.45757443,0.33060962,0.51056623,-0.053106077,0.121524744,0.8644413,0.54591376,0.089317985,0.111388706,0.5790554,-0.008795278,-0.07128439,-0.20615506,0.08831251,808.2784,792.96704,798.60803,805.4579,709.9634,-0.22320556640625,-0.0087890625,0.9866943359375,-1.712188720703125,-12.979736328125,-14.841461181640625,1,1.0,1.0,1.0,1.0,10.00
2024-10-11 20:21:01.304,0.20005172,0.027032405,0.029971698,0.3328285,0.3085113,-0.4143989,-0.45757443,0.33060962,0.51056623,-0.053106077,0.121524744,0.8644413,0.54591376,0.089317985,0.111388706,0.5790554,-0.008795278,-0.07128439,-0.20615506,0.08831251,809.89014,801.4286,791.3553,810.696,744.21246,-0.22320556640625,-0.0087890625,0.9866943359375,-1.712188720703125,-12.979736328125,-14.841461181640625,1,1.0,1.0,1.0,1.0,10.00
2024-10-11 20:21:01.306,0.20005172,0.027032405,0.029971698,0.3328285,0.3085113,-0.4143989,-0.45757443,0.33060962,0.51056623,-0.053106077,0.121524744,0.8644413,0.54591376,0.089317985,0.111388706,0.5790554,-0.008795278,-0.07128439,-0.20615506,0.08831251,803.44324,797.8022,790.9524,803.0403,676.52014,-0.22320556640625,-0.0087890625,0.9866943359375,-1.712188720703125,-12.979736328125,-14.841461181640625,1,1.0,1.0,1.0,1.0,10.00
2024-10-11 20:21:01.307,0.20005172,0.027032405,0.029971698,0.3328285,0.3085113,-0.4143989,-0.45757443,0.33060962,0.51056623,-0.053106077,0.121524744,0.8644413,0.54591376,0.089317985,0.111388706,0.5790554,-0.008795278,-0.07128439,-0.20615506,0.08831251,816.7399,796.1905,797.3993,811.50183,694.65204,-0.22320556640625,-0.0087890625,0.9866943359375,-1.712188720703125,-12.979736328125,-14.841461181640625,1,1.0,1.0,1.0,1.0,10.00
2024-10-11 20:21:01.308,0.20005172,0.027032405,0.029971698,0.3328285,0.3085113,-0.4143989,-0.45757443,0.33060962,0.51056623,-0.053106077,0.121524744,0.8644413,0.54591376,0.089317985,0.111388706,0.5790554,-0.008795278,-0.07128439,-0.20615506,0.08831251,819.9634,805.8608,794.9817,808.2784,808.68134,-0.22320556640625,-0.0087890625,0.9866943359375,-1.712188720703125,-12.979736328125,-14.841461181640625,1,1.0,1.0,1.0,1.0,10.00
2024-10-11 20:21:01.309,0.20005172,0.027032405,0.029971698,0.3328285,0.3085113,-0.4143989,-0.45757443,0.33060962,0.51056623,-0.053106077,0.121524744,0.8644413,0.54591376,0.089317985,0.111388706,0.5790554,-0.008795278,-0.07128439,-0.20615506,0.08831251,822.381,805.4579,792.1612,805.05493,872.74725,-0.22320556640625,-0.0087890625,0.9866943359375,-1.712188720703125,-12.979736328125,-14.841461181640625,1,1.0,1.0,1.0,1.0,10.00
2024-10-11 20:21:01.310,0.20005172,0.027032405,0.029971698,0.3328285,0.3085113,-0.4143989,-0.45757443,0.33060962,0.51056623,-0.053106077,0.121524744,0.8644413,0.54591376,0.089317985,0.111388706,0.5790554,-0.008795278,-0.07128439,-0.20615506,0.08831251,806.26373,797.8022,789.34064,809.0842,785.7143,-0.22320556640625,-0.0087890625,0.9866943359375,-1.712188720703125,-12.979736328125,-14.841461181640625,1,1.0,1.0,1.0,1.0,10.00
2024-10-11 20:21:01.311,0.18626383,0.045604005,-0.04459363,0.3612097,0.29830563,-0.3426911,-0.46189308,0.318066,0.51056623,-0.009340464,0.14252397,0.838581,0.5597421,0.07565009,0.074094296,0.5532042,-0.002256521,-0.08254523,-0.20882463,0.06717612,805.4579,802.6374,794.17584,812.3077,838.0952,-0.22320556640625,-0.0087890625,0.9866943359375,-1.712188720703125,-12.979736328125,-14.841461181640625,1,1.0,1.0,1.0,1.0,10.00
2024-10-11 20:21:01.316,0.18626383,0.045604005,-0.04459363,0.3612097,0.29830563,-0.3426911,-0.46189308,0.318066,0.51056623,-0.009340464,0.14252397,0.838581,0.5597421,0.07565009,0.074094296,0.5532042,-0.002256521,-0.08254523,-0.20882463,0.06717612,811.0989,801.4286,803.8461,809.4872,788.93774,-0.22320556640625,-0.0087890625,0.9866943359375,-1.712188720703125,-12.979736328125,-14.841461181640625,1,1.0,1.0,1.0,1.0,10.00
2024-10-11 20:21:01.316,0.18626383,0.045604005,-0.04459363,0.3612097,0.29830563,-0.3426911,-0.46189308,0.318066,0.51056623,-0.009340464,0.14252397,0.838581,0.5597421,0.07565009,0.074094296,0.5532042,-0.002256521,-0.08254523,-0.20882463,0.06717612,807.8755,797.8022,807.47253,809.0842,664.0293,-0.22320556640625,-0.0087890625,0.9866943359375,-1.712188720703125,-12.979736328125,-14.841461181640625,1,1.0,1.0,1.0,1.0,10.00
2024-10-11 20:21:01.317,0.18626383,0.045604005,-0.04459363,0.3612097,0.29830563,-0.3426911,-0.46189308,0.318066,0.51056623,-0.009340464,0.14252397,0.838581,0.5597421,0.07565009,0.074094296,0.5532042,-0.002256521,-0.08254523,-0.20882463,0.06717612,810.696,798.20514,802.23444,814.7253,776.04395,-0.22320556640625,-0.0087890625,0.9866943359375,-1.712188720703125,-12.979736328125,-14.841461181640625,1,1.0,1.0,1.0,1.0,10.00
2024-10-11 20:21:01.318,0.18626383,0.045604005,-0.04459363,0.3612097,0.29830563,-0.3426911,-0.46189308,0.318066,0.51056623,-0.009340464,0.14252397,0.838581,0.5597421,0.07565009,0.074094296,0.5532042,-0.002256521,-0.08254523,-0.20882463,0.06717612,821.1722,799.41394,799.41394,818.7546,905.38464,-0.22320556640625,-0.0087890625,0.9866943359375,-1.712188720703125,-12.979736328125,-14.841461181640625,1,1.0,1.0,1.0,1.0,10.00
2024-10-11 20:21:01.371,0.18626383,0.045604005,-0.04459363,0.3612097,0.29830563,-0.3426911,-0.46189308,0.318066,0.51056623,-0.009340464,0.14252397,0.838581,0.5597421,0.07565009,0.074094296,0.5532042,-0.002256521,-0.08254523,-0.20882463,0.06717612,819.5604,792.5641,795.78754,811.50183,862.27106,-0.205078125,-0.01861572265625,0.98651123046875,-1.353302001953125,-15.791015625,-15.19287109375,1,1.0,1.0,1.0,1.0,10.00
2024-10-11 20:21:01.372,0.18626383,0.045604005,-0.04459363,0.3612097,0.29830563,-0.3426911,-0.46189308,0.318066,0.51056623,-0.009340464,0.14252397,0.838581,0.5597421,0.07565009,0.074094296,0.5532042,-0.002256521,-0.08254523,-0.20882463,0.06717612,805.05493,794.9817,789.34064,794.57874,730.9158,-0.205078125,-0.01861572265625,0.98651123046875,-1.353302001953125,-15.791015625,-15.19287109375,1,1.0,1.0,1.0,1.0,10.00
2024-10-11 20:21:01.373,0.18626383,0.045604005,-0.04459363,0.3612097,0.29830563,-0.3426911,-0.46189308,0.318066,0.51056623,-0.009340464,0.14252397,0.838581,0.5597421,0.07565009,0.074094296,0.5532042,-0.002256521,-0.08254523,-0.20882463,0.06717612,809.89014,802.6374,794.17584,797.8022,694.65204,-0.205078125,-0.01861572265625,0.98651123046875,-1.353302001953125,-15.791015625,-15.19287109375,1,1.0,1.0,1.0,1.0,10.00
2024-10-11 20:21:01.373,0.18626383,0.045604005,-0.04459363,0.3612097,0.29830563,-0.3426911,-0.46189308,0.318066,0.51056623,-0.009340464,0.14252397,0.838581,0.5597421,0.07565009,0.074094296,0.5532042,-0.002256521,-0.08254523,-0.20882463,0.06717612,815.12823,805.8608,796.5934,804.65204,873.5531,-0.205078125,-0.01861572265625,0.98651123046875,-1.353302001953125,-15.791015625,-15.19287109375,1,1.0,1.0,1.0,1.0,10.00
2024-10-11 20:21:01.374,0.18626383,0.045604005,-0.04459363,0.3612097,0.29830563,-0.3426911,-0.46189308,0.318066,0.51056623,-0.009340464,0.14252397,0.838581,0.5597421,0.07565009,0.074094296,0.5532042,-0.002256521,-0.08254523,-0.20882463,0.06717612,805.05493,805.05493,794.17584,796.99634,877.98535,-0.205078125,-0.01861572265625,0.98651123046875,-1.353302001953125,-15.791015625,-15.19287109375,1,1.0,1.0,1.0,1.0,10.00
2024-10-11 20:21:01.374,0.18626383,0.045604005,-0.04459363,0.3612097,0.29830563,-0.3426911,-0.46189308,0.318066,0.51056623,-0.009340464,0.14252397,0.838581,0.5597421,0.07565009,0.074094296,0.5532042,-0.002256521,-0.08254523,-0.20882463,0.06717612,798.60803,801.8315,796.99634,788.93774,819.5604,-0.205078125,-0.01861572265625,0.98651123046875,-1.353302001953125,-15.791015625,-15.19287109375,1,1.0,1.0,1.0,1.0,10.00
2024-10-11 20:21:01.375,0.18626383,0.045604005,-0.04459363,0.3612097,0.29830563,-0.3426911,-0.46189308,0.318066,0.51056623,-0.009340464,0.14252397,0.838581,0.5597421,0.07565009,0.074094296,0.5532042,-0.002256521,-0.08254523,-0.20882463,0.06717612,795.78754,800.2198,800.6227,788.1319,999.67035,-0.205078125,-0.01861572265625,0.98651123046875,-1.353302001953125,-15.791015625,-15.19287109375,1,1.0,1.0,1.0,1.0,10.00
2024-10-11 20:21:01.375,0.18626383,0.045604005,-0.04459363,0.3612097,0.29830563,-0.3426911,-0.46189308,0.318066,0.51056623,-0.009340464,0.14252397,0.838581,0.5597421,0.07565009,0.074094296,0.5532042,-0.002256521,-0.08254523,-0.20882463,0.06717612,795.38464,800.6227,804.65204,794.17584,1219.6703,-0.205078125,-0.01861572265625,0.98651123046875,-1.353302001953125,-15.791015625,-15.19287109375,1,1.0,1.0,1.0,1.0,10.00
2024-10-11 20:21:01.376,0.18626383,0.045604005,-0.04459363,0.3612097,0.29830563,-0.3426911,-0.46189308,0.318066,0.51056623,-0.009340464,0.14252397,0.838581,0.5597421,0.07565009,0.074094296,0.5532042,-0.002256521,-0.08254523,-0.20882463,0.06717612,799.81683,802.23444,801.4286,790.14655,1012.96704,-0.205078125,-0.01861572265625,0.98651123046875,-1.353302001953125,-15.791015625,-15.19287109375,1,1.0,1.0,1.0,1.0,10.00
2024-10-11 20:21:01.376,0.18626383,0.045604005,-0.04459363,0.3612097,0.29830563,-0.3426911,-0.46189308,0.318066,0.51056623,-0.009340464,0.14252397,0.838581,0.5597421,0.07565009,0.074094296,0.5532042,-0.002256521,-0.08254523,-0.20882463,0.06717612,792.96704,792.5641,798.60803,772.8205,689.41394,-0.205078125,-0.01861572265625,0.98651123046875,-1.353302001953125,-15.791015625,-15.19287109375,1,1.0,1.0,1.0,1.0,10.00
2024-10-11 20:21:01.377,0.18626383,0.045604005,-0.04459363,0.3612097,0.29830563,-0.3426911,-0.46189308,0.318066,0.51056623,-0.009340464,0.14252397,0.838581,0.5597421,0.07565009,0.074094296,0.5532042,-0.002256521,-0.08254523,-0.20882463,0.06717612,789.7436,785.31134,799.81683,778.46155,846.9597,-0.205078125,-0.01861572265625,0.98651123046875,-1.353302001953125,-15.791015625,-15.19287109375,1,1.0,1.0,1.0,1.0,10.00
2024-10-11 20:21:01.377,0.18626383,0.045604005,-0.04459363,0.3612097,0.29830563,-0.3426911,-0.46189308,0.318066,0.51056623,-0.009340464,0.14252397,0.838581,0.5597421,0.07565009,0.074094296,0.5532042,-0.002256521,-0.08254523,-0.20882463,0.06717612,790.14655,788.1319,796.5934,783.2967,990.0,-0.205078125,-0.01861572265625,0.98651123046875,-1.353302001953125,-15.791015625,-15.19287109375,1,1.0,1.0,1.0,1.0,10.00
2024-10-11 20:21:01.404,0.18626383,0.045604005,-0.04459363,0.3612097,0.29830563,-0.3426911,-0.46189308,0.318066,0.51056623,-0.009340464,0.14252397,0.838581,0.5597421,0.07565009,0.074094296,0.5532042,-0.002256521,-0.08254523,-0.20882463,0.06717612,788.93774,792.96704,795.78754,775.64105,768.7912,-0.1707763671875,-0.013671875,0.98779296875,-0.590667724609375,-19.387359619140625,-13.480682373046875,1,1.0,1.0,1.0,1.0,10.00
2024-10-11 20:21:01.405,0.18626383,0.045604005,-0.04459363,0.3612097,0.29830563,-0.3426911,-0.46189308,0.318066,0.51056623,-0.009340464,0.14252397,0.838581,0.5597421,0.07565009,0.074094296,0.5532042,-0.002256521,-0.08254523,-0.20882463,0.06717612,797.3993,805.8608,794.57874,783.2967,635.0183,-0.1707763671875,-0.013671875,0.98779296875,-0.590667724609375,-19.387359619140625,-13.480682373046875,1,1.0,1.0,1.0,1.0,10.00
2024-10-11 20:21:01.406,0.18626383,0.045604005,-0.04459363,0.3612097,0.29830563,-0.3426911,-0.46189308,0.318066,0.51056623,-0.009340464,0.14252397,0.838581,0.5597421,0.07565009,0.074094296,0.5532042,-0.002256521,-0.08254523,-0.20882463,0.06717612,795.78754,802.23444,792.1612,785.7143,716.0073,-0.1707763671875,-0.013671875,0.98779296875,-0.590667724609375,-19.387359619140625,-13.480682373046875,1,1.0,1.0,1.0,1.0,10.00
2024-10-11 20:21:01.406,0.18626383,0.045604005,-0.04459363,0.3612097,0.29830563,-0.3426911,-0.46189308,0.318066,0.51056623,-0.009340464,0.14252397,0.838581,0.5597421,0.07565009,0.074094296,0.5532042,-0.002256521,-0.08254523,-0.20882463,0.06717612,796.1905,797.3993,787.72894,784.5055,724.87177,-0.1707763671875,-0.013671875,0.98779296875,-0.590667724609375,-19.387359619140625,-13.480682373046875,1,1.0,1.0,1.0,1.0,10.00
2024-10-11 20:21:01.407,0.18626383,0.045604005,-0.04459363,0.3612097,0.29830563,-0.3426911,-0.46189308,0.318066,0.51056623,-0.009340464,0.14252397,0.838581,0.5597421,0.07565009,0.074094296,0.5532042,-0.002256521,-0.08254523,-0.20882463,0.06717612,798.60803,797.8022,791.75824,790.9524,653.5531,-0.1707763671875,-0.013671875,0.98779296875,-0.590667724609375,-19.387359619140625,-13.480682373046875,1,1.0,1.0,1.0,1.0,10.00
2024-10-11 20:21:01.407,0.18626383,0.045604005,-0.04459363,0.3612097,0.29830563,-0.3426911,-0.46189308,0.318066,0.51056623,-0.009340464,0.14252397,0.838581,0.5597421,0.07565009,0.074094296,0.5532042,-0.002256521,-0.08254523,-0.20882463,0.06717612,792.96704,791.3553,793.36993,789.34064,743.4066,-0.1707763671875,-0.013671875,0.98779296875,-0.590667724609375,-19.387359619140625,-13.480682373046875,1,1.0,1.0,1.0,1.0,10.00
2024-10-11 20:21:01.408,0.18626383,0.045604005,-0.04459363,0.3612097,0.29830563,-0.3426911,-0.46189308,0.318066,0.51056623,-0.009340464,0.14252397,0.838581,0.5597421,0.07565009,0.074094296,0.5532042,-0.002256521,-0.08254523,-0.20882463,0.06717612,789.34064,790.14655,794.9817,784.5055,994.0293,-0.1707763671875,-0.013671875,0.98779296875,-0.590667724609375,-19.387359619140625,-13.480682373046875,1,1.0,1.0,1.0,1.0,10.00
2024-10-11 20:21:01.408,0.18626383,0.045604005,-0.04459363,0.3612097,0.29830563,-0.3426911,-0.46189308,0.318066,0.51056623,-0.009340464,0.14252397,0.838581,0.5597421,0.07565009,0.074094296,0.5532042,-0.002256521,-0.08254523,-0.20882463,0.06717612,785.7143,792.96704,800.2198,776.4469,996.4469,-0.1707763671875,-0.013671875,0.98779296875,-0.590667724609375,-19.387359619140625,-13.480682373046875,1,1.0,1.0,1.0,1.0,10.00
2024-10-11 20:21:01.409,0.18626383,0.045604005,-0.04459363,0.3612097,0.29830563,-0.3426911,-0.46189308,0.318066,0.51056623,-0.009340464,0.14252397,0.838581,0.5597421,0.07565009,0.074094296,0.5532042,-0.002256521,-0.08254523,-0.20882463,0.06717612,786.9231,792.96704,799.81683,775.2381,779.67035,-0.1707763671875,-0.013671875,0.98779296875,-0.590667724609375,-19.387359619140625,-13.480682373046875,1,1.0,1.0,1.0,1.0,10.00
2024-10-11 20:21:01.409,0.19883709,0.11808409,0.14939678,0.43383214,0.28369477,-0.22377533,-0.35620028,0.33776253,0.5003301,0.1428991,0.22655949,0.7703871,0.569638,0.062120784,0.027181968,0.5128355,0.007433348,-0.10052843,-0.21602048,0.046305574,790.14655,790.14655,799.81683,783.2967,706.7399,-0.1707763671875,-0.013671875,0.98779296875,-0.590667724609375,-19.387359619140625,-13.480682373046875,1,1.0,1.0,1.0,1.0,10.00
2024-10-11 20:21:01.413,0.19883709,0.11808409,0.14939678,0.43383214,0.28369477,-0.22377533,-0.35620028,0.33776253,0.5003301,0.1428991,0.22655949,0.7703871,0.569638,0.062120784,0.027181968,0.5128355,0.007433348,-0.10052843,-0.21602048,0.046305574,789.34064,790.54944,794.9817,784.10254,789.34064,-0.1707763671875,-0.013671875,0.98779296875,-0.590667724609375,-19.387359619140625,-13.480682373046875,1,1.0,1.0,1.0,1.0,10.00
2024-10-11 20:21:01.414,0.19883709,0.11808409,0.14939678,0.43383214,0.28369477,-0.22377533,-0.35620028,0.33776253,0.5003301,0.1428991,0.22655949,0.7703871,0.569638,0.062120784,0.027181968,0.5128355,0.007433348,-0.10052843,-0.21602048,0.046305574,795.38464,793.36993,795.78754,796.99634,859.45056,-0.1707763671875,-0.013671875,0.98779296875,-0.590667724609375,-19.387359619140625,-13.480682373046875,1,1.0,1.0,1.0,1.0,10.00
2024-10-11 20:21:01.439,0.19883709,0.11808409,0.14939678,0.43383214,0.28369477,-0.22377533,-0.35620028,0.33776253,0.5003301,0.1428991,0.22655949,0.7703871,0.569638,0.062120784,0.027181968,0.5128355,0.007433348,-0.10052843,-0.21602048,0.046305574,787.72894,796.1905,792.1612,796.5934,742.1978,-0.1514892578125,-0.01580810546875,0.99346923828125,-1.435546875,-20.037841796875,-11.52923583984375,1,1.0,1.0,1.0,1.0,10.00
2024-10-11 20:21:01.440,0.19883709,0.11808409,0.14939678,0.43383214,0.28369477,-0.22377533,-0.35620028,0.33776253,0.5003301,0.1428991,0.22655949,0.7703871,0.569638,0.062120784,0.027181968,0.5128355,0.007433348,-0.10052843,-0.21602048,0.046305574,777.6557,792.96704,791.3553,785.31134,797.3993,-0.1514892578125,-0.01580810546875,0.99346923828125,-1.435546875,-20.037841796875,-11.52923583984375,1,1.0,1.0,1.0,1.0,10.00
2024-10-11 20:21:01.440,0.19883709,0.11808409,0.14939678,0.43383214,0.28369477,-0.22377533,-0.35620028,0.33776253,0.5003301,0.1428991,0.22655949,0.7703871,0.569638,0.062120784,0.027181968,0.5128355,0.007433348,-0.10052843,-0.21602048,0.046305574,779.2674,788.93774,795.38464,789.7436,882.4176,-0.1514892578125,-0.01580810546875,0.99346923828125,-1.435546875,-20.037841796875,-11.52923583984375,1,1.0,1.0,1.0,1.0,10.00
2024-10-11 20:21:01.441,0.19883709,0.11808409,0.14939678,0.43383214,0.28369477,-0.22377533,-0.35620028,0.33776253,0.5003301,0.1428991,0.22655949,0.7703871,0.569638,0.062120784,0.027181968,0.5128355,0.007433348,-0.10052843,-0.21602048,0.046305574,778.86444,796.99634,794.57874,790.54944,813.5165,-0.1514892578125,-0.01580810546875,0.99346923828125,-1.435546875,-20.037841796875,-11.52923583984375,1,1.0,1.0,1.0,1.0,10.00
2024-10-11 20:21:01.441,0.19883709,0.11808409,0.14939678,0.43383214,0.28369477,-0.22377533,-0.35620028,0.33776253,0.5003301,0.1428991,0.22655949,0.7703871,0.569638,0.062120784,0.027181968,0.5128355,0.007433348,-0.10052843,-0.21602048,0.046305574,777.6557,798.20514,797.3993,789.34064,788.5348,-0.1514892578125,-0.01580810546875,0.99346923828125,-1.435546875,-20.037841796875,-11.52923583984375,1,1.0,1.0,1.0,1.0,10.00
2024-10-11 20:21:01.442,0.19883709,0.11808409,0.14939678,0.43383214,0.28369477,-0.22377533,-0.35620028,0.33776253,0.5003301,0.1428991,0.22655949,0.7703871,0.569638,0.062120784,0.027181968,0.5128355,0.007433348,-0.10052843,-0.21602048,0.046305574,783.2967,785.7143,801.4286,790.9524,951.7216,-0.1514892578125,-0.01580810546875,0.99346923828125,-1.435546875,-20.037841796875,-11.52923583984375,1,1.0,1.0,1.0,1.0,10.00
2024-10-11 20:21:01.442,0.19883709,0.11808409,0.14939678,0.43383214,0.28369477,-0.22377533,-0.35620028,0.33776253,0.5003301,0.1428991,0.22655949,0.7703871,0.569638,0.062120784,0.027181968,0.5128355,0.007433348,-0.10052843,-0.21602048,0.046305574,789.7436,790.54944,793.7729,783.69965,1033.1135,-0.1514892578125,-0.01580810546875,0.99346923828125,-1.435546875,-20.037841796875,-11.52923583984375,1,1.0,1.0,1.0,1.0,10.00
2024-10-11 20:21:01.442,0.19883709,0.11808409,0.14939678,0.43383214,0.28369477,-0.22377533,-0.35620028,0.33776253,0.5003301,0.1428991,0.22655949,0.7703871,0.569638,0.062120784,0.027181968,0.5128355,0.007433348,-0.10052843,-0.21602048,0.046305574,790.54944,800.2198,794.9817,788.5348,865.4945,-0.1514892578125,-0.01580810546875,0.99346923828125,-1.435546875,-20.037841796875,-11.52923583984375,1,1.0,1.0,1.0,1.0,10.00
2024-10-11 20:21:01.443,0.19883709,0.11808409,0.14939678,0.43383214,0.28369477,-0.22377533,-0.35620028,0.33776253,0.5003301,0.1428991,0.22655949,0.7703871,0.569638,0.062120784,0.027181968,0.5128355,0.007433348,-0.10052843,-0.21602048,0.046305574,795.78754,800.6227,802.23444,796.99634,648.315,-0.1514892578125,-0.01580810546875,0.99346923828125,-1.435546875,-20.037841796875,-11.52923583984375,1,1.0,1.0,1.0,1.0,10.00
2024-10-11 20:21:01.443,0.19883709,0.11808409,0.14939678,0.43383214,0.28369477,-0.22377533,-0.35620028,0.33776253,0.5003301,0.1428991,0.22655949,0.7703871,0.569638,0.062120784,0.027181968,0.5128355,0.007433348,-0.10052843,-0.21602048,0.046305574,799.81683,799.011,806.26373,798.60803,704.7253,-0.1514892578125,-0.01580810546875,0.99346923828125,-1.435546875,-20.037841796875,-11.52923583984375,1,1.0,1.0,1.0,1.0,10.00
2024-10-11 20:21:01.444,0.19883709,0.11808409,0.14939678,0.43383214,0.28369477,-0.22377533,-0.35620028,0.33776253,0.5003301,0.1428991,0.22655949,0.7703871,0.569638,0.062120784,0.027181968,0.5128355,0.007433348,-0.10052843,-0.21602048,0.046305574,800.2198,792.5641,803.0403,806.26373,1019.41394,-0.1514892578125,-0.01580810546875,0.99346923828125,-1.435546875,-20.037841796875,-11.52923583984375,1,1.0,1.0,1.0,1.0,10.00
2024-10-11 20:21:01.444,0.19883709,0.11808409,0.14939678,0.43383214,0.28369477,-0.22377533,-0.35620028,0.33776253,0.5003301,0.1428991,0.22655949,0.7703871,0.569638,0.062120784,0.027181968,0.5128355,0.007433348,-0.10052843,-0.21602048,0.046305574,813.1135,795.38464,799.81683,818.7546,910.2198,-0.1514892578125,-0.01580810546875,0.99346923828125,-1.435546875,-20.037841796875,-11.52923583984375,1,1.0,1.0,1.0,1.0,10.00
2024-10-11 20:21:01.445,0.19883709,0.11808409,0.14939678,0.43383214,0.28369477,-0.22377533,-0.35620028,0.33776253,0.5003301,0.1428991,0.22655949,0.7703871,0.569638,0.062120784,0.027181968,0.5128355,0.007433348,-0.10052843,-0.21602048,0.046305574,822.7839,797.3993,804.65204,823.5897,754.2857,-0.1514892578125,-0.01580810546875,0.99346923828125,-1.435546875,-20.037841796875,-11.52923583984375,1,1.0,1.0,1.0,1.0,10.00
2024-10-11 20:21:01.445,0.19883709,0.11808409,0.14939678,0.43383214,0.28369477,-0.22377533,-0.35620028,0.33776253,0.5003301,0.1428991,0.22655949,0.7703871,0.569638,0.062120784,0.027181968,0.5128355,0.007433348,-0.10052843,-0.21602048,0.046305574,809.89014,801.8315,803.0403,813.1135,832.8571,-0.1514892578125,-0.01580810546875,0.99346923828125,-1.435546875,-20.037841796875,-11.52923583984375,1,1.0,1.0,1.0,1.0,10.00
2024-10-11 20:21:01.446,0.19883709,0.11808409,0.14939678,0.43383214,0.28369477,-0.22377533,-0.35620028,0.33776253,0.5003301,0.1428991,0.22655949,0.7703871,0.569638,0.062120784,0.027181968,0.5128355,0.007433348,-0.10052843,-0.21602048,0.046305574,795.78754,801.4286,806.6667,802.23444,898.1319,-0.1514892578125,-0.01580810546875,0.99346923828125,-1.435546875,-20.037841796875,-11.52923583984375,1,1.0,1.0,1.0,1.0,10.00
2024-10-11 20:21:01.446,0.19883709,0.11808409,0.14939678,0.43383214,0.28369477,-0.22377533,-0.35620028,0.33776253,0.5003301,0.1428991,0.22655949,0.7703871,0.569638,0.062120784,0.027181968,0.5128355,0.007433348,-0.10052843,-0.21602048,0.046305574,792.1612,792.96704,803.8461,794.9817,765.16486,-0.1514892578125,-0.01580810546875,0.99346923828125,-1.435546875,-20.037841796875,-11.52923583984375,1,1.0,1.0,1.0,1.0,10.00
2024-10-11 20:21:01.447,0.19883709,0.11808409,0.14939678,0.43383214,0.28369477,-0.22377533,-0.35620028,0.33776253,0.5003301,0.1428991,0.22655949,0.7703871,0.569638,0.062120784,0.027181968,0.5128355,0.007433348,-0.10052843,-0.21602048,0.046305574,799.011,796.99634,796.99634,800.6227,792.1612,-0.1514892578125,-0.01580810546875,0.99346923828125,-1.435546875,-20.037841796875,-11.52923583984375,1,1.0,1.0,1.0,1.0,10.00
2024-10-11 20:21:01.447,0.19883709,0.11808409,0.14939678,0.43383214,0.28369477,-0.22377533,-0.35620028,0.33776253,0.5003301,0.1428991,0.22655949,0.7703871,0.569638,0.062120784,0.027181968,0.5128355,0.007433348,-0.10052843,-0.21602048,0.046305574,801.02563,803.0403,798.60803,803.0403,956.55676,-0.1514892578125,-0.01580810546875,0.99346923828125,-1.435546875,-20.037841796875,-11.52923583984375,1,1.0,1.0,1.0,1.0,10.00
2024-10-11 20:21:01.448,0.19883709,0.11808409,0.14939678,0.43383214,0.28369477,-0.22377533,-0.35620028,0.33776253,0.5003301,0.1428991,0.22655949,0.7703871,0.569638,0.062120784,0.027181968,0.5128355,0.007433348,-0.10052843,-0.21602048,0.046305574,795.78754,799.41394,802.23444,805.05493,1165.6776,-0.1514892578125,-0.01580810546875,0.99346923828125,-1.435546875,-20.037841796875,-11.52923583984375,1,1.0,1.0,1.0,1.0,10.00
2024-10-11 20:21:01.448,0.19883709,0.11808409,0.14939678,0.43383214,0.28369477,-0.22377533,-0.35620028,0.33776253,0.5003301,0.1428991,0.22655949,0.7703871,0.569638,0.062120784,0.027181968,0.5128355,0.007433348,-0.10052843,-0.21602048,0.046305574,788.93774,799.011,805.8608,799.81683,881.2088,-0.1514892578125,-0.01580810546875,0.99346923828125,-1.435546875,-20.037841796875,-11.52923583984375,1,1.0,1.0,1.0,1.0,10.00
2024-10-11 20:21:01.449,0.19883709,0.11808409,0.14939678,0.43383214,0.28369477,-0.22377533,-0.35620028,0.33776253,0.5003301,0.1428991,0.22655949,0.7703871,0.569638,0.062120784,0.027181968,0.5128355,0.007433348,-0.10052843,-0.21602048,0.046305574,784.10254,794.17584,800.6227,796.5934,704.3223,-0.1514892578125,-0.01580810546875,0.99346923828125,-1.435546875,-20.037841796875,-11.52923583984375,1,1.0,1.0,1.0,1.0,10.00
2024-10-11 20:21:01.449,0.19883709,0.11808409,0.14939678,0.43383214,0.28369477,-0.22377533,-0.35620028,0.33776253,0.5003301,0.1428991,0.22655949,0.7703871,0.569638,0.062120784,0.027181968,0.5128355,0.007433348,-0.10052843,-0.21602048,0.046305574,776.4469,786.1172,799.41394,799.41394,908.60803,-0.1514892578125,-0.01580810546875,0.99346923828125,-1.435546875,-20.037841796875,-11.52923583984375,1,1.0,1.0,1.0,1.0,10.00
2024-10-11 20:21:01.449,0.19883709,0.11808409,0.14939678,0.43383214,0.28369477,-0.22377533,-0.35620028,0.33776253,0.5003301,0.1428991,0.22655949,0.7703871,0.569638,0.062120784,0.027181968,0.5128355,0.007433348,-0.10052843,-0.21602048,0.046305574,767.98535,785.31134,799.011,794.17584,852.1978,-0.1514892578125,-0.01580810546875,0.99346923828125,-1.435546875,-20.037841796875,-11.52923583984375,1,1.0,1.0,1.0,1.0,10.00
2024-10-11 20:21:01.450,0.23102991,0.21762149,0.37975603,0.54030275,0.2707729,-0.0984871,-0.20033382,0.39563394,0.4880689,0.24475467,0.3465174,0.6972789,0.5720896,0.056030978,-0.014974973,0.4637613,0.018656233,-0.115541175,-0.22000043,0.032026086,774.0293,793.36993,792.96704,792.5641,581.02563,-0.1514892578125,-0.01580810546875,0.99346923828125,-1.435546875,-20.037841796875,-11.52923583984375,1,1.0,1.0,1.0,1.0,10.00
2024-10-11 20:21:01.539,0.23102991,0.21762149,0.37975603,0.54030275,0.2707729,-0.0984871,-0.20033382,0.39563394,0.4880689,0.24475467,0.3465174,0.6972789,0.5720896,0.056030978,-0.014974973,0.4637613,0.018656233,-0.115541175,-0.22000043,0.032026086,771.6117,791.3553,794.57874,788.93774,536.30035,-0.1324462890625,-0.01837158203125,0.98291015625,-0.800018310546875,-16.31439208984375,-9.4805908203125,1,1.0,1.0,1.0,1.0,10.00
2024-10-11 20:21:01.540,0.23102991,0.21762149,0.37975603,0.54030275,0.2707729,-0.0984871,-0.20033382,0.39563394,0.4880689,0.24475467,0.3465174,0.6972789,0.5720896,0.056030978,-0.014974973,0.4637613,0.018656233,-0.115541175,-0.22000043,0.032026086,772.8205,785.7143,798.20514,798.20514,750.2564,-0.1324462890625,-0.01837158203125,0.98291015625,-0.800018310546875,-16.31439208984375,-9.4805908203125,1,1.0,1.0,1.0,1.0,10.00
2024-10-11 20:21:01.540,0.23102991,0.21762149,0.37975603,0.54030275,0.2707729,-0.0984871,-0.20033382,0.39563394,0.4880689,0.24475467,0.3465174,0.6972789,0.5720896,0.056030978,-0.014974973,0.4637613,0.018656233,-0.115541175,-0.22000043,0.032026086,775.2381,790.54944,805.4579,805.8608,697.0696,-0.1324462890625,-0.01837158203125,0.98291015625,-0.800018310546875,-16.31439208984375,-9.4805908203125,1,1.0,1.0,1.0,1.0,10.00
2024-10-11 20:21:01.541,0.23102991,0.21762149,0.37975603,0.54030275,0.2707729,-0.0984871,-0.20033382,0.39563394,0.4880689,0.24475467,0.3465174,0.6972789,0.5720896,0.056030978,-0.014974973,0.4637613,0.018656233,-0.115541175,-0.22000043,0.032026086,775.2381,795.38464,806.6667,804.65204,478.6813,-0.1324462890625,-0.01837158203125,0.98291015625,-0.800018310546875,-16.31439208984375,-9.4805908203125,1,1.0,1.0,1.0,1.0,10.00
2024-10-11 20:21:01.542,0.23102991,0.21762149,0.37975603,0.54030275,0.2707729,-0.0984871,-0.20033382,0.39563394,0.4880689,0.24475467,0.3465174,0.6972789,0.5720896,0.056030978,-0.014974973,0.4637613,0.018656233,-0.115541175,-0.22000043,0.032026086,772.4176,788.1319,801.02563,802.6374,577.8022,-0.1324462890625,-0.01837158203125,0.98291015625,-0.800018310546875,-16.31439208984375,-9.4805908203125,1,1.0,1.0,1.0,1.0,10.00
2024-10-11 20:21:01.542,0.23102991,0.21762149,0.37975603,0.54030275,0.2707729,-0.0984871,-0.20033382,0.39563394,0.4880689,0.24475467,0.3465174,0.6972789,0.5720896,0.056030978,-0.014974973,0.4637613,0.018656233,-0.115541175,-0.22000043,0.032026086,767.5824,778.86444,793.36993,797.8022,903.36993,-0.1324462890625,-0.01837158203125,0.98291015625,-0.800018310546875,-16.31439208984375,-9.4805908203125,1,1.0,1.0,1.0,1.0,10.00
2024-10-11 20:21:01.543,0.23102991,0.21762149,0.37975603,0.54030275,0.2707729,-0.0984871,-0.20033382,0.39563394,0.4880689,0.24475467,0.3465174,0.6972789,0.5720896,0.056030978,-0.014974973,0.4637613,0.018656233,-0.115541175,-0.22000043,0.032026086,776.04395,781.685,789.34064,796.5934,884.43225,-0.1324462890625,-0.01837158203125,0.98291015625,-0.800018310546875,-16.31439208984375,-9.4805908203125,1,1.0,1.0,1.0,1.0,10.00
2024-10-11 20:21:01.543,0.23102991,0.21762149,0.37975603,0.54030275,0.2707729,-0.0984871,-0.20033382,0.39563394,0.4880689,0.24475467,0.3465174,0.6972789,0.5720896,0.056030978,-0.014974973,0.4637613,0.018656233,-0.115541175,-0.22000043,0.032026086,778.0586,786.9231,801.02563,797.8022,619.304,-0.1324462890625,-0.01837158203125,0.98291015625,-0.800018310546875,-16.31439208984375,-9.4805908203125,1,1.0,1.0,1.0,1.0,10.00
2024-10-11 20:21:01.544,0.23102991,0.21762149,0.37975603,0.54030275,0.2707729,-0.0984871,-0.20033382,0.39563394,0.4880689,0.24475467,0.3465174,0.6972789,0.5720896,0.056030978,-0.014974973,0.4637613,0.018656233,-0.115541175,-0.22000043,0.032026086,777.6557,792.96704,803.44324,794.57874,553.22345,-0.1324462890625,-0.01837158203125,0.98291015625,-0.800018310546875,-16.31439208984375,-9.4805908203125,1,1.0,1.0,1.0,1.0,10.00
2024-10-11 20:21:01.544,0.23102991,0.21762149,0.37975603,0.54030275,0.2707729,-0.0984871,-0.20033382,0.39563394,0.4880689,0.24475467,0.3465174,0.6972789,0.5720896,0.056030978,-0.014974973,0.4637613,0.018656233,-0.115541175,-0.22000043,0.032026086,791.3553,799.81683,800.2198,801.8315,946.4835,-0.1324462890625,-0.01837158203125,0.98291015625,-0.800018310546875,-16.31439208984375,-9.4805908203125,1,1.0,1.0,1.0,1.0,10.00
2024-10-11 20:21:01.544,0.23102991,0.21762149,0.37975603,0.54030275,0.2707729,-0.0984871,-0.20033382,0.39563394,0.4880689,0.24475467,0.3465174,0.6972789,0.5720896,0.056030978,-0.014974973,0.4637613,0.018656233,-0.115541175,-0.22000043,0.032026086,789.7436,796.99634,805.05493,798.60803,979.12085,-0.1324462890625,-0.01837158203125,0.98291015625,-0.800018310546875,-16.31439208984375,-9.4805908203125,1,1.0,1.0,1.0,1.0,10.00
2024-10-11 20:21:01.545,0.23102991,0.21762149,0.37975603,0.54030275,0.2707729,-0.0984871,-0.20033382,0.39563394,0.4880689,0.24475467,0.3465174,0.6972789,0.5720896,0.056030978,-0.014974973,0.4637613,0.018656233,-0.115541175,-0.22000043,0.032026086,786.52014,792.1612,801.8315,791.75824,564.5055,-0.1324462890625,-0.01837158203125,0.98291015625,-0.800018310546875,-16.31439208984375,-9.4805908203125,1,1.0,1.0,1.0,1.0,10.00
2024-10-11 20:21:01.546,0.23102991,0.21762149,0.37975603,0.54030275,0.2707729,-0.0984871,-0.20033382,0.39563394,0.4880689,0.24475467,0.3465174,0.6972789,0.5720896,0.056030978,-0.014974973,0.4637613,0.018656233,-0.115541175,-0.22000043,0.032026086,788.1319,792.5641,796.99634,790.9524,506.0806,-0.12054443359375,-0.02496337890625,0.99896240234375,1.338348388671875,-11.043243408203125,-8.456268310546875,1,1.0,1.0,1.0,1.0,10.00
2024-10-11 20:21:01.546,0.23102991,0.21762149,0.37975603,0.54030275,0.2707729,-0.0984871,-0.20033382,0.39563394,0.4880689,0.24475467,0.3465174,0.6972789,0.5720896,0.056030978,-0.014974973,0.4637613,0.018656233,-0.115541175,-0.22000043,0.032026086,791.75824,800.6227,801.8315,787.72894,741.79486,-0.12054443359375,-0.02496337890625,0.99896240234375,1.338348388671875,-11.043243408203125,-8.456268310546875,1,1.0,1.0,1.0,1.0,10.00
2024-10-11 20:21:01.546,0.23102991,0.21762149,0.37975603,0.54030275,0.2707729,-0.0984871,-0.20033382,0.39563394,0.4880689,0.24475467,0.3465174,0.6972789,0.5720896,0.056030978,-0.014974973,0.4637613,0.018656233,-0.115541175,-0.22000043,0.032026086,794.9817,796.99634,803.0403,794.17584,820.3663,-0.12054443359375,-0.02496337890625,0.99896240234375,1.338348388671875,-11.043243408203125,-8.456268310546875,1,1.0,1.0,1.0,1.0,10.00
2024-10-11 20:21:01.547,0.23102991,0.21762149,0.37975603,0.54030275,0.2707729,-0.0984871,-0.20033382,0.39563394,0.4880689,0.24475467,0.3465174,0.6972789,0.5720896,0.056030978,-0.014974973,0.4637613,0.018656233,-0.115541175,-0.22000043,0.032026086,796.5934,784.90845,796.1905,791.75824,725.6777,-0.12054443359375,-0.02496337890625,0.99896240234375,1.338348388671875,-11.043243408203125,-8.456268310546875,1,1.0,1.0,1.0,1.0,10.00
2024-10-11 20:21:01.547,0.23102991,0.21762149,0.37975603,0.54030275,0.2707729,-0.0984871,-0.20033382,0.39563394,0.4880689,0.24475467,0.3465174,0.6972789,0.5720896,0.056030978,-0.014974973,0.4637613,0.018656233,-0.115541175,-0.22000043,0.032026086,806.6667,784.5055,789.34064,793.36993,728.9011,-0.12054443359375,-0.02496337890625,0.99896240234375,1.338348388671875,-11.043243408203125,-8.456268310546875,1,1.0,1.0,1.0,1.0,10.00
2024-10-11 20:21:01.548,0.23102991,0.21762149,0.37975603,0.54030275,0.2707729,-0.0984871,-0.20033382,0.39563394,0.4880689,0.24475467,0.3465174,0.6972789,0.5720896,0.056030978,-0.014974973,0.4637613,0.018656233,-0.115541175,-0.22000043,0.032026086,805.4579,796.99634,788.1319,799.011,879.59705,-0.12054443359375,-0.02496337890625,0.99896240234375,1.338348388671875,-11.043243408203125,-8.456268310546875,1,1.0,1.0,1.0,1.0,10.00
2024-10-11 20:21:01.548,0.23102991,0.21762149,0.37975603,0.54030275,0.2707729,-0.0984871,-0.20033382,0.39563394,0.4880689,0.24475467,0.3465174,0.6972789,0.5720896,0.056030978,-0.014974973,0.4637613,0.018656233,-0.115541175,-0.22000043,0.032026086,799.011,805.8608,796.99634,797.3993,897.72894,-0.12054443359375,-0.02496337890625,0.99896240234375,1.338348388671875,-11.043243408203125,-8.456268310546875,1,1.0,1.0,1.0,1.0,10.00
2024-10-11 20:21:01.549,0.23102991,0.21762149,0.37975603,0.54030275,0.2707729,-0.0984871,-0.20033382,0.39563394,0.4880689,0.24475467,0.3465174,0.6972789,0.5720896,0.056030978,-0.014974973,0.4637613,0.018656233,-0.115541175,-0.22000043,0.032026086,802.23444,807.47253,798.20514,797.8022,767.1795,-0.12054443359375,-0.02496337890625,0.99896240234375,1.338348388671875,-11.043243408203125,-8.456268310546875,1,1.0,1.0,1.0,1.0,10.00
2024-10-11 20:21:01.549,0.23102991,0.21762149,0.37975603,0.54030275,0.2707729,-0.0984871,-0.20033382,0.39563394,0.4880689,0.24475467,0.3465174,0.6972789,0.5720896,0.056030978,-0.014974973,0.4637613,0.018656233,-0.115541175,-0.22000043,0.032026086,803.8461,805.8608,801.4286,805.8608,746.2271,-0.12054443359375,-0.02496337890625,0.99896240234375,1.338348388671875,-11.043243408203125,-8.456268310546875,1,1.0,1.0,1.0,1.0,10.00
2024-10-11 20:21:01.550,0.23102991,0.21762149,0.37975603,0.54030275,0.2707729,-0.0984871,-0.20033382,0.39563394,0.4880689,0.24475467,0.3465174,0.6972789,0.5720896,0.056030978,-0.014974973,0.4637613,0.018656233,-0.115541175,-0.22000043,0.032026086,800.2198,804.65204,805.4579,808.2784,880.0,-0.12054443359375,-0.02496337890625,0.99896240234375,1.338348388671875,-11.043243408203125,-8.456268310546875,1,1.0,1.0,1.0,1.0,10.00
2024-10-11 20:21:01.550,0.23102991,0.21762149,0.37975603,0.54030275,0.2707729,-0.0984871,-0.20033382,0.39563394,0.4880689,0.24475467,0.3465174,0.6972789,0.5720896,0.056030978,-0.014974973,0.4637613,0.018656233,-0.115541175,-0.22000043,0.032026086,801.8315,803.8461,801.02563,803.0403,865.4945,-0.12054443359375,-0.02496337890625,0.99896240234375,1.338348388671875,-11.043243408203125,-8.456268310546875,1,1.0,1.0,1.0,1.0,10.00
2024-10-11 20:21:01.551,0.23102991,0.21762149,0.37975603,0.54030275,0.2707729,-0.0984871,-0.20033382,0.39563394,0.4880689,0.24475467,0.3465174,0.6972789,0.5720896,0.056030978,-0.014974973,0.4637613,0.018656233,-0.115541175,-0.22000043,0.032026086,812.3077,801.4286,803.0403,802.23444,759.12085,-0.12054443359375,-0.02496337890625,0.99896240234375,1.338348388671875,-11.043243408203125,-8.456268310546875,1,1.0,1.0,1.0,1.0,10.00
2024-10-11 20:21:01.644,0.23102991,0.21762149,0.37975603,0.54030275,0.2707729,-0.0984871,-0.20033382,0.39563394,0.4880689,0.24475467,0.3465174,0.6972789,0.5720896,0.056030978,-0.014974973,0.4637613,0.018656233,-0.115541175,-0.22000043,0.032026086,810.293,805.8608,812.3077,804.65204,805.8608,-0.10345458984375,-0.011474609375,1.00848388671875,1.876678466796875,-6.183319091796875,-3.745880126953125,1,1.0,1.0,1.0,1.0,10.00
2024-10-11 20:21:01.645,0.2925271,0.31474853,0.54732054,0.6571632,0.27350536,0.0034101047,-0.0641281,0.470809,0.4841502,0.27867407,0.42023894,0.69159037,0.56493306,0.059800103,-0.035363093,0.41770983,0.03101298,-0.1277127,-0.21194524,0.024021482,804.65204,795.38464,803.8461,807.0696,734.1392,-0.10345458984375,-0.011474609375,1.00848388671875,1.876678466796875,-6.183319091796875,-3.745880126953125,1,1.0,1.0,1.0,1.0,10.00
2024-10-11 20:21:01.650,0.2925271,0.31474853,0.54732054,0.6571632,0.27350536,0.0034101047,-0.0641281,0.470809,0.4841502,0.27867407,0.42023894,0.69159037,0.56493306,0.059800103,-0.035363093,0.41770983,0.03101298,-0.1277127,-0.21194524,0.024021482,805.8608,781.28204,796.5934,809.89014,733.73627,-0.10345458984375,-0.011474609375,1.00848388671875,1.876678466796875,-6.183319091796875,-3.745880126953125,1,1.0,1.0,1.0,1.0,10.00
2024-10-11 20:21:01.651,0.2925271,0.31474853,0.54732054,0.6571632,0.27350536,0.0034101047,-0.0641281,0.470809,0.4841502,0.27867407,0.42023894,0.69159037,0.56493306,0.059800103,-0.035363093,0.41770983,0.03101298,-0.1277127,-0.21194524,0.024021482,806.26373,792.96704,795.78754,806.26373,716.0073,-0.10345458984375,-0.011474609375,1.00848388671875,1.876678466796875,-6.183319091796875,-3.745880126953125,1,1.0,1.0,1.0,1.0,10.00
2024-10-11 20:21:01.651,0.2925271,0.31474853,0.54732054,0.6571632,0.27350536,0.0034101047,-0.0641281,0.470809,0.4841502,0.27867407,0.42023894,0.69159037,0.56493306,0.059800103,-0.035363093,0.41770983,0.03101298,-0.1277127,-0.21194524,0.024021482,808.2784,802.6374,802.23444,810.293,985.56775,-0.10345458984375,-0.011474609375,1.00848388671875,1.876678466796875,-6.183319091796875,-3.745880126953125,1,1.0,1.0,1.0,1.0,10.00
2024-10-11 20:21:01.652,0.2925271,0.31474853,0.54732054,0.6571632,0.27350536,0.0034101047,-0.0641281,0.470809,0.4841502,0.27867407,0.42023894,0.69159037,0.56493306,0.059800103,-0.035363093,0.41770983,0.03101298,-0.1277127,-0.21194524,0.024021482,810.696,806.6667,810.293,815.9341,1211.6117,-0.10345458984375,-0.011474609375,1.00848388671875,1.876678466796875,-6.183319091796875,-3.745880126953125,1,1.0,1.0,1.0,1.0,10.00
2024-10-11 20:21:01.652,0.2925271,0.31474853,0.54732054,0.6571632,0.27350536,0.0034101047,-0.0641281,0.470809,0.4841502,0.27867407,0.42023894,0.69159037,0.56493306,0.059800103,-0.035363093,0.41770983,0.03101298,-0.1277127,-0.21194524,0.024021482,808.68134,806.26373,807.8755,813.1135,940.84247,-0.10345458984375,-0.011474609375,1.00848388671875,1.876678466796875,-6.183319091796875,-3.745880126953125,1,1.0,1.0,1.0,1.0,10.00
2024-10-11 20:21:01.653,0.2925271,0.31474853,0.54732054,0.6571632,0.27350536,0.0034101047,-0.0641281,0.470809,0.4841502,0.27867407,0.42023894,0.69159037,0.56493306,0.059800103,-0.035363093,0.41770983,0.03101298,-0.1277127,-0.21194524,0.024021482,799.011,800.6227,805.8608,810.696,828.022,-0.10345458984375,-0.011474609375,1.00848388671875,1.876678466796875,-6.183319091796875,-3.745880126953125,1,1.0,1.0,1.0,1.0,10.00
2024-10-11 20:21:01.653,0.2925271,0.31474853,0.54732054,0.6571632,0.27350536,0.0034101047,-0.0641281,0.470809,0.4841502,0.27867407,0.42023894,0.69159037,0.56493306,0.059800103,-0.035363093,0.41770983,0.03101298,-0.1277127,-0.21194524,0.024021482,801.02563,800.2198,811.0989,818.3516,1103.2234,-0.10345458984375,-0.011474609375,1.00848388671875,1.876678466796875,-6.183319091796875,-3.745880126953125,1,1.0,1.0,1.0,1.0,10.00
2024-10-11 20:21:01.654,0.2925271,0.31474853,0.54732054,0.6571632,0.27350536,0.0034101047,-0.0641281,0.470809,0.4841502,0.27867407,0.42023894,0.69159037,0.56493306,0.059800103,-0.035363093,0.41770983,0.03101298,-0.1277127,-0.21194524,0.024021482,802.23444,803.8461,813.5165,815.5311,1062.1245,-0.10345458984375,-0.011474609375,1.00848388671875,1.876678466796875,-6.183319091796875,-3.745880126953125,1,1.0,1.0,1.0,1.0,10.00
2024-10-11 20:21:01.654,0.2925271,0.31474853,0.54732054,0.6571632,0.27350536,0.0034101047,-0.0641281,0.470809,0.4841502,0.27867407,0.42023894,0.69159037,0.56493306,0.059800103,-0.035363093,0.41770983,0.03101298,-0.1277127,-0.21194524,0.024021482,797.3993,796.5934,806.6667,803.8461,672.49084,-0.10345458984375,-0.011474609375,1.00848388671875,1.876678466796875,-6.183319091796875,-3.745880126953125,1,1.0,1.0,1.0,1.0,10.00
2024-10-11 20:21:01.655,0.2925271,0.31474853,0.54732054,0.6571632,0.27350536,0.0034101047,-0.0641281,0.470809,0.4841502,0.27867407,0.42023894,0.69159037,0.56493306,0.059800103,-0.035363093,0.41770983,0.03101298,-0.1277127,-0.21194524,0.024021482,802.6374,790.14655,803.8461,805.05493,758.315,-0.10345458984375,-0.011474609375,1.00848388671875,1.876678466796875,-6.183319091796875,-3.745880126953125,1,1.0,1.0,1.0,1.0,10.00
2024-10-11 20:21:01.682,0.2925271,0.31474853,0.54732054,0.6571632,0.27350536,0.0034101047,-0.0641281,0.470809,0.4841502,0.27867407,0.42023894,0.69159037,0.56493306,0.059800103,-0.035363093,0.41770983,0.03101298,-0.1277127,-0.21194524,0.024021482,801.8315,795.38464,799.41394,801.8315,906.5934,-0.11676025390625,-0.0076904296875,1.00299072265625,0.665435791015625,-2.295379638671875,3.84307861328125,1,1.0,1.0,1.0,1.0,10.00
2024-10-11 20:21:01.683,0.2925271,0.31474853,0.54732054,0.6571632,0.27350536,0.0034101047,-0.0641281,0.470809,0.4841502,0.27867407,0.42023894,0.69159037,0.56493306,0.059800103,-0.035363093,0.41770983,0.03101298,-0.1277127,-0.21194524,0.024021482,795.38464,797.8022,801.4286,794.17584,690.2198,-0.11676025390625,-0.0076904296875,1.00299072265625,0.665435791015625,-2.295379638671875,3.84307861328125,1,1.0,1.0,1.0,1.0,10.00
2024-10-11 20:21:01.684,0.2925271,0.31474853,0.54732054,0.6571632,0.27350536,0.0034101047,-0.0641281,0.470809,0.4841502,0.27867407,0.42023894,0.69159037,0.56493306,0.059800103,-0.035363093,0.41770983,0.03101298,-0.1277127,-0.21194524,0.024021482,795.38464,802.6374,794.57874,791.3553,546.3736,-0.11676025390625,-0.0076904296875,1.00299072265625,0.665435791015625,-2.295379638671875,3.84307861328125,1,1.0,1.0,1.0,1.0,10.00
2024-10-11 20:21:01.685,0.2925271,0.31474853,0.54732054,0.6571632,0.27350536,0.0034101047,-0.0641281,0.470809,0.4841502,0.27867407,0.42023894,0.69159037,0.56493306,0.059800103,-0.035363093,0.41770983,0.03101298,-0.1277127,-0.21194524,0.024021482,790.9524,796.99634,788.93774,793.7729,765.9707,-0.11676025390625,-0.0076904296875,1.00299072265625,0.665435791015625,-2.295379638671875,3.84307861328125,1,1.0,1.0,1.0,1.0,10.00
2024-10-11 20:21:01.685,0.2925271,0.31474853,0.54732054,0.6571632,0.27350536,0.0034101047,-0.0641281,0.470809,0.4841502,0.27867407,0.42023894,0.69159037,0.56493306,0.059800103,-0.035363093,0.41770983,0.03101298,-0.1277127,-0.21194524,0.024021482,789.34064,791.75824,796.5934,795.78754,853.00366,-0.11676025390625,-0.0076904296875,1.00299072265625,0.665435791015625,-2.295379638671875,3.84307861328125,1,1.0,1.0,1.0,1.0,10.00
2024-10-11 20:21:01.686,0.2925271,0.31474853,0.54732054,0.6571632,0.27350536,0.0034101047,-0.0641281,0.470809,0.4841502,0.27867407,0.42023894,0.69159037,0.56493306,0.059800103,-0.035363093,0.41770983,0.03101298,-0.1277127,-0.21194524,0.024021482,793.36993,796.99634,795.78754,790.14655,830.0366,-0.11676025390625,-0.0076904296875,1.00299072265625,0.665435791015625,-2.295379638671875,3.84307861328125,1,1.0,1.0,1.0,1.0,10.00
2024-10-11 20:21:01.687,0.2925271,0.31474853,0.54732054,0.6571632,0.27350536,0.0034101047,-0.0641281,0.470809,0.4841502,0.27867407,0.42023894,0.69159037,0.56493306,0.059800103,-0.035363093,0.41770983,0.03101298,-0.1277127,-0.21194524,0.024021482,802.6374,795.38464,794.17584,794.57874,847.3626,-0.11676025390625,-0.0076904296875,1.00299072265625,0.665435791015625,-2.295379638671875,3.84307861328125,1,1.0,1.0,1.0,1.0,10.00
2024-10-11 20:21:01.688,0.2925271,0.31474853,0.54732054,0.6571632,0.27350536,0.0034101047,-0.0641281,0.470809,0.4841502,0.27867407,0.42023894,0.69159037,0.56493306,0.059800103,-0.035363093,0.41770983,0.03101298,-0.1277127,-0.21194524,0.024021482,805.05493,789.34064,797.3993,802.6374,843.3333,-0.11676025390625,-0.0076904296875,1.00299072265625,0.665435791015625,-2.295379638671875,3.84307861328125,1,1.0,1.0,1.0,1.0,10.00
2024-10-11 20:21:01.688,0.2925271,0.31474853,0.54732054,0.6571632,0.27350536,0.0034101047,-0.0641281,0.470809,0.4841502,0.27867407,0.42023894,0.69159037,0.56493306,0.059800103,-0.035363093,0.41770983,0.03101298,-0.1277127,-0.21194524,0.024021482,793.7729,796.1905,794.9817,797.3993,833.663,-0.11676025390625,-0.0076904296875,1.00299072265625,0.665435791015625,-2.295379638671875,3.84307861328125,1,1.0,1.0,1.0,1.0,10.00
2024-10-11 20:21:01.689,0.2925271,0.31474853,0.54732054,0.6571632,0.27350536,0.0034101047,-0.0641281,0.470809,0.4841502,0.27867407,0.42023894,0.69159037,0.56493306,0.059800103,-0.035363093,0.41770983,0.03101298,-0.1277127,-0.21194524,0.024021482,798.20514,796.99634,797.3993,801.02563,673.69965,-0.11676025390625,-0.0076904296875,1.00299072265625,0.665435791015625,-2.295379638671875,3.84307861328125,1,1.0,1.0,1.0,1.0,10.00
2024-10-11 20:21:01.690,0.2925271,0.31474853,0.54732054,0.6571632,0.27350536,0.0034101047,-0.0641281,0.470809,0.4841502,0.27867407,0.42023894,0.69159037,0.56493306,0.059800103,-0.035363093,0.41770983,0.03101298,-0.1277127,-0.21194524,0.024021482,806.6667,796.5934,801.4286,800.6227,600.7692,-0.11676025390625,-0.0076904296875,1.00299072265625,0.665435791015625,-2.295379638671875,3.84307861328125,1,1.0,1.0,1.0,1.0,10.00
2024-10-11 20:21:01.690,0.2925271,0.31474853,0.54732054,0.6571632,0.27350536,0.0034101047,-0.0641281,0.470809,0.4841502,0.27867407,0.42023894,0.69159037,0.56493306,0.059800103,-0.035363093,0.41770983,0.03101298,-0.1277127,-0.21194524,0.024021482,800.6227,782.8938,799.81683,801.02563,779.2674,-0.11676025390625,-0.0076904296875,1.00299072265625,0.665435791015625,-2.295379638671875,3.84307861328125,1,1.0,1.0,1.0,1.0,10.00
2024-10-11 20:21:01.748,0.2925271,0.31474853,0.54732054,0.6571632,0.27350536,0.0034101047,-0.0641281,0.470809,0.4841502,0.27867407,0.42023894,0.69159037,0.56493306,0.059800103,-0.035363093,0.41770983,0.03101298,-0.1277127,-0.21194524,0.024021482,796.99634,784.5055,798.20514,805.4579,862.27106,-0.11676025390625,-0.0076904296875,1.00299072265625,0.665435791015625,-2.295379638671875,3.84307861328125,1,1.0,1.0,1.0,1.0,10.00
2024-10-11 20:21:01.749,0.2925271,0.31474853,0.54732054,0.6571632,0.27350536,0.0034101047,-0.0641281,0.470809,0.4841502,0.27867407,0.42023894,0.69159037,0.56493306,0.059800103,-0.035363093,0.41770983,0.03101298,-0.1277127,-0.21194524,0.024021482,793.36993,807.0696,792.96704,799.011,686.5934,-0.11676025390625,-0.0076904296875,1.00299072265625,0.665435791015625,-2.295379638671875,3.84307861328125,1,1.0,1.0,1.0,1.0,10.00
2024-10-11 20:21:01.750,0.2925271,0.31474853,0.54732054,0.6571632,0.27350536,0.0034101047,-0.0641281,0.470809,0.4841502,0.27867407,0.42023894,0.69159037,0.56493306,0.059800103,-0.035363093,0.41770983,0.03101298,-0.1277127,-0.21194524,0.024021482,796.5934,806.6667,789.34064,794.9817,628.1685,-0.11676025390625,-0.0076904296875,1.00299072265625,0.665435791015625,-2.295379638671875,3.84307861328125,1,1.0,1.0,1.0,1.0,10.00
2024-10-11 20:21:01.751,0.37768888,0.3857408,0.6493124,0.75494856,0.3030789,0.07349152,0.024879677,0.5390786,0.49356636,0.28179985,0.42608374,0.7082486,0.55073404,0.06941316,-0.032636445,0.38526055,0.045576293,-0.14276801,-0.1926158,0.017688716,798.60803,796.5934,794.17584,804.65204,955.7509,-0.11676025390625,-0.0076904296875,1.00299072265625,0.665435791015625,-2.295379638671875,3.84307861328125,1,1.0,1.0,1.0,1.0,10.00
2024-10-11 20:21:01.756,0.37768888,0.3857408,0.6493124,0.75494856,0.3030789,0.07349152,0.024879677,0.5390786,0.49356636,0.28179985,0.42608374,0.7082486,0.55073404,0.06941316,-0.032636445,0.38526055,0.045576293,-0.14276801,-0.1926158,0.017688716,792.5641,786.1172,804.2491,811.0989,945.2747,-0.11676025390625,-0.0076904296875,1.00299072265625,0.665435791015625,-2.295379638671875,3.84307861328125,1,1.0,1.0,1.0,1.0,10.00
2024-10-11 20:21:01.757,0.37768888,0.3857408,0.6493124,0.75494856,0.3030789,0.07349152,0.024879677,0.5390786,0.49356636,0.28179985,0.42608374,0.7082486,0.55073404,0.06941316,-0.032636445,0.38526055,0.045576293,-0.14276801,-0.1926158,0.017688716,782.0879,793.36993,811.9048,803.0403,779.2674,-0.11676025390625,-0.0076904296875,1.00299072265625,0.665435791015625,-2.295379638671875,3.84307861328125,1,1.0,1.0,1.0,1.0,10.00
2024-10-11 20:21:01.758,0.37768888,0.3857408,0.6493124,0.75494856,0.3030789,0.07349152,0.024879677,0.5390786,0.49356636,0.28179985,0.42608374,0.7082486,0.55073404,0.06941316,-0.032636445,0.38526055,0.045576293,-0.14276801,-0.1926158,0.017688716,772.8205,801.02563,809.89014,792.5641,882.4176,-0.11676025390625,-0.0076904296875,1.00299072265625,0.665435791015625,-2.295379638671875,3.84307861328125,1,1.0,1.0,1.0,1.0,10.00
2024-10-11 20:21:01.759,0.37768888,0.3857408,0.6493124,0.75494856,0.3030789,0.07349152,0.024879677,0.5390786,0.49356636,0.28179985,0.42608374,0.7082486,0.55073404,0.06941316,-0.032636445,0.38526055,0.045576293,-0.14276801,-0.1926158,0.017688716,774.83514,796.1905,803.44324,790.54944,960.989,-0.11676025390625,-0.0076904296875,1.00299072265625,0.665435791015625,-2.295379638671875,3.84307861328125,1,1.0,1.0,1.0,1.0,10.00
2024-10-11 20:21:01.760,0.37768888,0.3857408,0.6493124,0.75494856,0.3030789,0.07349152,0.024879677,0.5390786,0.49356636,0.28179985,0.42608374,0.7082486,0.55073404,0.06941316,-0.032636445,0.38526055,0.045576293,-0.14276801,-0.1926158,0.017688716,779.2674,795.78754,796.99634,795.38464,786.9231,-0.11676025390625,-0.0076904296875,1.00299072265625,0.665435791015625,-2.295379638671875,3.84307861328125,1,1.0,1.0,1.0,1.0,10.00
2024-10-11 20:21:01.760,0.37768888,0.3857408,0.6493124,0.75494856,0.3030789,0.07349152,0.024879677,0.5390786,0.49356636,0.28179985,0.42608374,0.7082486,0.55073404,0.06941316,-0.032636445,0.38526055,0.045576293,-0.14276801,-0.1926158,0.017688716,781.28204,793.36993,794.9817,797.3993,633.4066,-0.11676025390625,-0.0076904296875,1.00299072265625,0.665435791015625,-2.295379638671875,3.84307861328125,1,1.0,1.0,1.0,1.0,10.00
2024-10-11 20:21:01.761,0.37768888,0.3857408,0.6493124,0.75494856,0.3030789,0.07349152,0.024879677,0.5390786,0.49356636,0.28179985,0.42608374,0.7082486,0.55073404,0.06941316,-0.032636445,0.38526055,0.045576293,-0.14276801,-0.1926158,0.017688716,789.34064,789.7436,805.4579,802.23444,678.1319,-0.11676025390625,-0.0076904296875,1.00299072265625,0.665435791015625,-2.295379638671875,3.84307861328125,1,1.0,1.0,1.0,1.0,10.00
2024-10-11 20:21:01.762,0.37768888,0.3857408,0.6493124,0.75494856,0.3030789,0.07349152,0.024879677,0.5390786,0.49356636,0.28179985,0.42608374,0.7082486,0.55073404,0.06941316,-0.032636445,0.38526055,0.045576293,-0.14276801,-0.1926158,0.017688716,797.8022,782.49084,806.26373,808.2784,857.03296,-0.11676025390625,-0.0076904296875,1.00299072265625,0.665435791015625,-2.295379638671875,3.84307861328125,1,1.0,1.0,1.0,1.0,10.00
2024-10-11 20:21:01.866,0.37768888,0.3857408,0.6493124,0.75494856,0.3030789,0.07349152,0.024879677,0.5390786,0.49356636,0.28179985,0.42608374,0.7082486,0.55073404,0.06941316,-0.032636445,0.38526055,0.045576293,-0.14276801,-0.1926158,0.017688716,797.8022,786.52014,806.6667,805.8608,877.5824,-0.1380615234375,-0.00970458984375,1.005615234375,0.306549072265625,-0.874786376953125,6.400146484375,1,1.0,1.0,1.0,1.0,10.00
2024-10-11 20:21:01.867,0.37768888,0.3857408,0.6493124,0.75494856,0.3030789,0.07349152,0.024879677,0.5390786,0.49356636,0.28179985,0.42608374,0.7082486,0.55073404,0.06941316,-0.032636445,0.38526055,0.045576293,-0.14276801,-0.1926158,0.017688716,801.02563,799.011,809.4872,803.44324,811.50183,-0.1380615234375,-0.00970458984375,1.005615234375,0.306549072265625,-0.874786376953125,6.400146484375,1,1.0,1.0,1.0,1.0,10.00
2024-10-11 20:21:01.868,0.37768888,0.3857408,0.6493124,0.75494856,0.3030789,0.07349152,0.024879677,0.5390786,0.49356636,0.28179985,0.42608374,0.7082486,0.55073404,0.06941316,-0.032636445,0.38526055,0.045576293,-0.14276801,-0.1926158,0.017688716,811.0989,803.8461,808.2784,809.0842,843.3333,-0.1380615234375,-0.00970458984375,1.005615234375,0.306549072265625,-0.874786376953125,6.400146484375,1,1.0,1.0,1.0,1.0,10.00
2024-10-11 20:21:01.869,0.37768888,0.3857408,0.6493124,0.75494856,0.3030789,0.07349152,0.024879677,0.5390786,0.49356636,0.28179985,0.42608374,0.7082486,0.55073404,0.06941316,-0.032636445,0.38526055,0.045576293,-0.14276801,-0.1926158,0.017688716,808.2784,809.0842,804.2491,806.26373,864.68866,-0.1380615234375,-0.00970458984375,1.005615234375,0.306549072265625,-0.874786376953125,6.400146484375,1,1.0,1.0,1.0,1.0,10.00
2024-10-11 20:21:01.870,0.37768888,0.3857408,0.6493124,0.75494856,0.3030789,0.07349152,0.024879677,0.5390786,0.49356636,0.28179985,0.42608374,0.7082486,0.55073404,0.06941316,-0.032636445,0.38526055,0.045576293,-0.14276801,-0.1926158,0.017688716,802.6374,809.89014,802.23444,796.5934,756.30035,-0.1380615234375,-0.00970458984375,1.005615234375,0.306549072265625,-0.874786376953125,6.400146484375,1,1.0,1.0,1.0,1.0,10.00
2024-10-11 20:21:01.870,0.37768888,0.3857408,0.6493124,0.75494856,0.3030789,0.07349152,0.024879677,0.5390786,0.49356636,0.28179985,0.42608374,0.7082486,0.55073404,0.06941316,-0.032636445,0.38526055,0.045576293,-0.14276801,-0.1926158,0.017688716,806.26373,802.6374,802.6374,801.02563,784.10254,-0.1380615234375,-0.00970458984375,1.005615234375,0.306549072265625,-0.874786376953125,6.400146484375,1,1.0,1.0,1.0,1.0,10.00
2024-10-11 20:21:01.871,0.37768888,0.3857408,0.6493124,0.75494856,0.3030789,0.07349152,0.024879677,0.5390786,0.49356636,0.28179985,0.42608374,0.7082486,0.55073404,0.06941316,-0.032636445,0.38526055,0.045576293,-0.14276801,-0.1926158,0.017688716,800.6227,793.7729,798.20514,802.6374,816.7399,-0.1380615234375,-0.00970458984375,1.005615234375,0.306549072265625,-0.874786376953125,6.400146484375,1,1.0,1.0,1.0,1.0,10.00
2024-10-11 20:21:01.872,0.37768888,0.3857408,0.6493124,0.75494856,0.3030789,0.07349152,0.024879677,0.5390786,0.49356636,0.28179985,0.42608374,0.7082486,0.55073404,0.06941316,-0.032636445,0.38526055,0.045576293,-0.14276801,-0.1926158,0.017688716,796.99634,792.5641,798.20514,799.81683,825.2015,-0.1380615234375,-0.00970458984375,1.005615234375,0.306549072265625,-0.874786376953125,6.400146484375,1,1.0,1.0,1.0,1.0,10.00
2024-10-11 20:21:01.872,0.37768888,0.3857408,0.6493124,0.75494856,0.3030789,0.07349152,0.024879677,0.5390786,0.49356636,0.28179985,0.42608374,0.7082486,0.55073404,0.06941316,-0.032636445,0.38526055,0.045576293,-0.14276801,-0.1926158,0.017688716,795.78754,793.7729,804.2491,803.0403,672.0879,-0.1380615234375,-0.00970458984375,1.005615234375,0.306549072265625,-0.874786376953125,6.400146484375,1,1.0,1.0,1.0,1.0,10.00
2024-10-11 20:21:01.873,0.37768888,0.3857408,0.6493124,0.75494856,0.3030789,0.07349152,0.024879677,0.5390786,0.49356636,0.28179985,0.42608374,0.7082486,0.55073404,0.06941316,-0.032636445,0.38526055,0.045576293,-0.14276801,-0.1926158,0.017688716,801.8315,796.99634,799.011,803.8461,637.03296,-0.1380615234375,-0.00970458984375,1.005615234375,0.306549072265625,-0.874786376953125,6.400146484375,1,1.0,1.0,1.0,1.0,10.00
2024-10-11 20:21:01.874,0.37768888,0.3857408,0.6493124,0.75494856,0.3030789,0.07349152,0.024879677,0.5390786,0.49356636,0.28179985,0.42608374,0.7082486,0.55073404,0.06941316,-0.032636445,0.38526055,0.045576293,-0.14276801,-0.1926158,0.017688716,797.3993,794.17584,799.81683,801.02563,807.8755,-0.1380615234375,-0.00970458984375,1.005615234375,0.306549072265625,-0.874786376953125,6.400146484375,1,1.0,1.0,1.0,1.0,10.00
2024-10-11 20:21:01.874,0.37768888,0.3857408,0.6493124,0.75494856,0.3030789,0.07349152,0.024879677,0.5390786,0.49356636,0.28179985,0.42608374,0.7082486,0.55073404,0.06941316,-0.032636445,0.38526055,0.045576293,-0.14276801,-0.1926158,0.017688716,794.17584,794.17584,804.2491,803.0403,748.6447,-0.1380615234375,-0.00970458984375,1.005615234375,0.306549072265625,-0.874786376953125,6.400146484375,1,1.0,1.0,1.0,1.0,10.00
2024-10-11 20:21:01.906,0.37768888,0.3857408,0.6493124,0.75494856,0.3030789,0.07349152,0.024879677,0.5390786,0.49356636,0.28179985,0.42608374,0.7082486,0.55073404,0.06941316,-0.032636445,0.38526055,0.045576293,-0.14276801,-0.1926158,0.017688716,795.38464,806.6667,794.57874,805.05493,596.7399,-0.1414794921875,-0.01800537109375,0.9937744140625,-0.605621337890625,-0.770111083984375,3.431854248046875,1,1.0,1.0,1.0,1.0,10.00
2024-10-11 20:21:01.908,0.37768888,0.3857408,0.6493124,0.75494856,0.3030789,0.07349152,0.024879677,0.5390786,0.49356636,0.28179985,0.42608374,0.7082486,0.55073404,0.06941316,-0.032636445,0.38526055,0.045576293,-0.14276801,-0.1926158,0.017688716,801.4286,808.2784,790.14655,809.4872,767.5824,-0.1414794921875,-0.01800537109375,0.9937744140625,-0.605621337890625,-0.770111083984375,3.431854248046875,1,1.0,1.0,1.0,1.0,10.00
2024-10-11 20:21:01.908,0.37768888,0.3857408,0.6493124,0.75494856,0.3030789,0.07349152,0.024879677,0.5390786,0.49356636,0.28179985,0.42608374,0.7082486,0.55073404,0.06941316,-0.032636445,0.38526055,0.045576293,-0.14276801,-0.1926158,0.017688716,803.44324,811.50183,790.9524,807.0696,900.9524,-0.1414794921875,-0.01800537109375,0.9937744140625,-0.605621337890625,-0.770111083984375,3.431854248046875,1,1.0,1.0,1.0,1.0,10.00
2024-10-11 20:21:01.909,0.37768888,0.3857408,0.6493124,0.75494856,0.3030789,0.07349152,0.024879677,0.5390786,0.49356636,0.28179985,0.42608374,0.7082486,0.55073404,0.06941316,-0.032636445,0.38526055,0.045576293,-0.14276801,-0.1926158,0.017688716,799.011,810.696,801.02563,804.2491,700.293,-0.1414794921875,-0.01800537109375,0.9937744140625,-0.605621337890625,-0.770111083984375,3.431854248046875,1,1.0,1.0,1.0,1.0,10.00
2024-10-11 20:21:01.910,0.37768888,0.3857408,0.6493124,0.75494856,0.3030789,0.07349152,0.024879677,0.5390786,0.49356636,0.28179985,0.42608374,0.7082486,0.55073404,0.06941316,-0.032636445,0.38526055,0.045576293,-0.14276801,-0.1926158,0.017688716,801.4286,801.02563,807.8755,805.8608,606.0073,-0.1414794921875,-0.01800537109375,0.9937744140625,-0.605621337890625,-0.770111083984375,3.431854248046875,1,1.0,1.0,1.0,1.0,10.00
2024-10-11 20:21:01.911,0.4767467,0.42752847,0.70059144,0.8213065,0.36098784,0.11800596,0.071046144,0.59171104,0.59100306,0.2688478,0.4321601,0.73384863,0.5351196,0.08068046,-0.020069195,0.3701515,0.06281004,-0.16180588,-0.1697166,0.010052111,807.47253,795.38464,798.20514,807.0696,774.43225,-0.1414794921875,-0.01800537109375,0.9937744140625,-0.605621337890625,-0.770111083984375,3.431854248046875,1,1.0,1.0,1.0,1.0,10.00
2024-10-11 20:21:01.917,0.4767467,0.42752847,0.70059144,0.8213065,0.36098784,0.11800596,0.071046144,0.59171104,0.59100306,0.2688478,0.4321601,0.73384863,0.5351196,0.08068046,-0.020069195,0.3701515,0.06281004,-0.16180588,-0.1697166,0.010052111,801.4286,796.99634,798.20514,809.0842,597.1429,-0.1414794921875,-0.01800537109375,0.9937744140625,-0.605621337890625,-0.770111083984375,3.431854248046875,1,1.0,1.0,1.0,1.0,10.00
2024-10-11 20:21:01.918,0.4767467,0.42752847,0.70059144,0.8213065,0.36098784,0.11800596,0.071046144,0.59171104,0.59100306,0.2688478,0.4321601,0.73384863,0.5351196,0.08068046,-0.020069195,0.3701515,0.06281004,-0.16180588,-0.1697166,0.010052111,803.0403,792.1612,802.23444,819.5604,642.27106,-0.1414794921875,-0.01800537109375,0.9937744140625,-0.605621337890625,-0.770111083984375,3.431854248046875,1,1.0,1.0,1.0,1.0,10.00
2024-10-11 20:21:01.918,0.4767467,0.42752847,0.70059144,0.8213065,0.36098784,0.11800596,0.071046144,0.59171104,0.59100306,0.2688478,0.4321601,0.73384863,0.5351196,0.08068046,-0.020069195,0.3701515,0.06281004,-0.16180588,-0.1697166,0.010052111,796.5934,790.14655,801.02563,820.3663,983.95605,-0.1414794921875,-0.01800537109375,0.9937744140625,-0.605621337890625,-0.770111083984375,3.431854248046875,1,1.0,1.0,1.0,1.0,10.00
2024-10-11 20:21:01.919,0.4767467,0.42752847,0.70059144,0.8213065,0.36098784,0.11800596,0.071046144,0.59171104,0.59100306,0.2688478,0.4321601,0.73384863,0.5351196,0.08068046,-0.020069195,0.3701515,0.06281004,-0.16180588,-0.1697166,0.010052111,793.7729,804.65204,797.3993,805.4579,802.23444,-0.1414794921875,-0.01800537109375,0.9937744140625,-0.605621337890625,-0.770111083984375,3.431854248046875,1,1.0,1.0,1.0,1.0,10.00
2024-10-11 20:21:01.920,0.4767467,0.42752847,0.70059144,0.8213065,0.36098784,0.11800596,0.071046144,0.59171104,0.59100306,0.2688478,0.4321601,0.73384863,0.5351196,0.08068046,-0.020069195,0.3701515,0.06281004,-0.16180588,-0.1697166,0.010052111,799.81683,808.68134,794.17584,803.0403,608.4249,-0.1414794921875,-0.01800537109375,0.9937744140625,-0.605621337890625,-0.770111083984375,3.431854248046875,1,1.0,1.0,1.0,1.0,10.00
2024-10-11 20:21:01.920,0.4767467,0.42752847,0.70059144,0.8213065,0.36098784,0.11800596,0.071046144,0.59171104,0.59100306,0.2688478,0.4321601,0.73384863,0.5351196,0.08068046,-0.020069195,0.3701515,0.06281004,-0.16180588,-0.1697166,0.010052111,801.02563,803.44324,796.5934,804.65204,624.5421,-0.1414794921875,-0.01800537109375,0.9937744140625,-0.605621337890625,-0.770111083984375,3.431854248046875,1,1.0,1.0,1.0,1.0,10.00
2024-10-11 20:21:01.987,0.4767467,0.42752847,0.70059144,0.8213065,0.36098784,0.11800596,0.071046144,0.59171104,0.59100306,0.2688478,0.4321601,0.73384863,0.5351196,0.08068046,-0.020069195,0.3701515,0.06281004,-0.16180588,-0.1697166,0.010052111,798.60803,799.011,799.81683,807.8755,833.663,-0.13446044921875,-0.02325439453125,0.99853515625,-1.443023681640625,-0.6280517578125,2.175750732421875,1,1.0,1.0,1.0,1.0,10.00
2024-10-11 20:21:01.988,0.4767467,0.42752847,0.70059144,0.8213065,0.36098784,0.11800596,0.071046144,0.59171104,0.59100306,0.2688478,0.4321601,0.73384863,0.5351196,0.08068046,-0.020069195,0.3701515,0.06281004,-0.16180588,-0.1697166,0.010052111,795.38464,795.38464,801.02563,799.011,813.91943,-0.13446044921875,-0.02325439453125,0.99853515625,-1.443023681640625,-0.6280517578125,2.175750732421875,1,1.0,1.0,1.0,1.0,10.00
2024-10-11 20:21:01.989,0.4767467,0.42752847,0.70059144,0.8213065,0.36098784,0.11800596,0.071046144,0.59171104,0.59100306,0.2688478,0.4321601,0.73384863,0.5351196,0.08068046,-0.020069195,0.3701515,0.06281004,-0.16180588,-0.1697166,0.010052111,803.0403,791.75824,799.41394,795.78754,597.5458,-0.13446044921875,-0.02325439453125,0.99853515625,-1.443023681640625,-0.6280517578125,2.175750732421875,1,1.0,1.0,1.0,1.0,10.00
2024-10-11 20:21:01.990,0.4767467,0.42752847,0.70059144,0.8213065,0.36098784,0.11800596,0.071046144,0.59171104,0.59100306,0.2688478,0.4321601,0.73384863,0.5351196,0.08068046,-0.020069195,0.3701515,0.06281004,-0.16180588,-0.1697166,0.010052111,803.0403,788.93774,794.17584,805.4579,602.381,-0.13446044921875,-0.02325439453125,0.99853515625,-1.443023681640625,-0.6280517578125,2.175750732421875,1,1.0,1.0,1.0,1.0,10.00
2024-10-11 20:21:01.990,0.4767467,0.42752847,0.70059144,0.8213065,0.36098784,0.11800596,0.071046144,0.59171104,0.59100306,0.2688478,0.4321601,0.73384863,0.5351196,0.08068046,-0.020069195,0.3701515,0.06281004,-0.16180588,-0.1697166,0.010052111,794.57874,794.17584,796.1905,810.293,818.3516,-0.13446044921875,-0.02325439453125,0.99853515625,-1.443023681640625,-0.6280517578125,2.175750732421875,1,1.0,1.0,1.0,1.0,10.00
2024-10-11 20:21:01.991,0.4767467,0.42752847,0.70059144,0.8213065,0.36098784,0.11800596,0.071046144,0.59171104,0.59100306,0.2688478,0.4321601,0.73384863,0.5351196,0.08068046,-0.020069195,0.3701515,0.06281004,-0.16180588,-0.1697166,0.010052111,790.9524,798.20514,799.41394,809.0842,833.663,-0.13446044921875,-0.02325439453125,0.99853515625,-1.443023681640625,-0.6280517578125,2.175750732421875,1,1.0,1.0,1.0,1.0,10.00
2024-10-11 20:21:01.992,0.4767467,0.42752847,0.70059144,0.8213065,0.36098784,0.11800596,0.071046144,0.59171104,0.59100306,0.2688478,0.4321601,0.73384863,0.5351196,0.08068046,-0.020069195,0.3701515,0.06281004,-0.16180588,-0.1697166,0.010052111,799.011,795.38464,795.78754,809.0842,774.83514,-0.13446044921875,-0.02325439453125,0.99853515625,-1.443023681640625,-0.6280517578125,2.175750732421875,1,1.0,1.0,1.0,1.0,10.00
2024-10-11 20:21:01.992,0.4767467,0.42752847,0.70059144,0.8213065,0.36098784,0.11800596,0.071046144,0.59171104,0.59100306,0.2688478,0.4321601,0.73384863,0.5351196,0.08068046,-0.020069195,0.3701515,0.06281004,-0.16180588,-0.1697166,0.010052111,803.8461,798.60803,800.6227,809.0842,859.0476,-0.13446044921875,-0.02325439453125,0.99853515625,-1.443023681640625,-0.6280517578125,2.175750732421875,1,1.0,1.0,1.0,1.0,10.00
2024-10-11 20:21:01.993,0.4767467,0.42752847,0.70059144,0.8213065,0.36098784,0.11800596,0.071046144,0.59171104,0.59100306,0.2688478,0.4321601,0.73384863,0.5351196,0.08068046,-0.020069195,0.3701515,0.06281004,-0.16180588,-0.1697166,0.010052111,813.5165,802.23444,807.0696,811.9048,940.4396,-0.13446044921875,-0.02325439453125,0.99853515625,-1.443023681640625,-0.6280517578125,2.175750732421875,1,1.0,1.0,1.0,1.0,10.00
2024-10-11 20:21:01.994,0.4767467,0.42752847,0.70059144,0.8213065,0.36098784,0.11800596,0.071046144,0.59171104,0.59100306,0.2688478,0.4321601,0.73384863,0.5351196,0.08068046,-0.020069195,0.3701515,0.06281004,-0.16180588,-0.1697166,0.010052111,815.12823,802.6374,804.2491,812.71063,882.8205,-0.13446044921875,-0.02325439453125,0.99853515625,-1.443023681640625,-0.6280517578125,2.175750732421875,1,1.0,1.0,1.0,1.0,10.00
2024-10-11 20:21:01.994,0.4767467,0.42752847,0.70059144,0.8213065,0.36098784,0.11800596,0.071046144,0.59171104,0.59100306,0.2688478,0.4321601,0.73384863,0.5351196,0.08068046,-0.020069195,0.3701515,0.06281004,-0.16180588,-0.1697166,0.010052111,802.6374,802.6374,801.02563,803.0403,760.32965,-0.13446044921875,-0.02325439453125,0.99853515625,-1.443023681640625,-0.6280517578125,2.175750732421875,1,1.0,1.0,1.0,1.0,10.00
2024-10-11 20:21:01.995,0.4767467,0.42752847,0.70059144,0.8213065,0.36098784,0.11800596,0.071046144,0.59171104,0.59100306,0.2688478,0.4321601,0.73384863,0.5351196,0.08068046,-0.020069195,0.3701515,0.06281004,-0.16180588,-0.1697166,0.010052111,806.26373,800.6227,798.20514,800.2198,759.12085,-0.13446044921875,-0.02325439453125,0.99853515625,-1.443023681640625,-0.6280517578125,2.175750732421875,1,1.0,1.0,1.0,1.0,10.00
2024-10-11 20:21:02.028,0.4767467,0.42752847,0.70059144,0.8213065,0.36098784,0.11800596,0.071046144,0.59171104,0.59100306,0.2688478,0.4321601,0.73384863,0.5351196,0.08068046,-0.020069195,0.3701515,0.06281004,-0.16180588,-0.1697166,0.010052111,806.6667,794.9817,793.36993,803.0403,776.4469,-0.1339111328125,-0.0194091796875,1.00567626953125,-1.652374267578125,-0.844879150390625,3.15521240234375,1,1.0,1.0,1.0,1.0,10.00
2024-10-11 20:21:02.029,0.4767467,0.42752847,0.70059144,0.8213065,0.36098784,0.11800596,0.071046144,0.59171104,0.59100306,0.2688478,0.4321601,0.73384863,0.5351196,0.08068046,-0.020069195,0.3701515,0.06281004,-0.16180588,-0.1697166,0.010052111,799.011,795.78754,792.5641,794.9817,765.56775,-0.1339111328125,-0.0194091796875,1.00567626953125,-1.652374267578125,-0.844879150390625,3.15521240234375,1,1.0,1.0,1.0,1.0,10.00
2024-10-11 20:21:02.030,0.4767467,0.42752847,0.70059144,0.8213065,0.36098784,0.11800596,0.071046144,0.59171104,0.59100306,0.2688478,0.4321601,0.73384863,0.5351196,0.08068046,-0.020069195,0.3701515,0.06281004,-0.16180588,-0.1697166,0.010052111,801.8315,793.7729,792.96704,794.57874,739.7802,-0.1339111328125,-0.0194091796875,1.00567626953125,-1.652374267578125,-0.844879150390625,3.15521240234375,1,1.0,1.0,1.0,1.0,10.00
2024-10-11 20:21:02.031,0.4767467,0.42752847,0.70059144,0.8213065,0.36098784,0.11800596,0.071046144,0.59171104,0.59100306,0.2688478,0.4321601,0.73384863,0.5351196,0.08068046,-0.020069195,0.3701515,0.06281004,-0.16180588,-0.1697166,0.010052111,807.0696,791.75824,799.41394,799.011,788.1319,-0.1339111328125,-0.0194091796875,1.00567626953125,-1.652374267578125,-0.844879150390625,3.15521240234375,1,1.0,1.0,1.0,1.0,10.00
2024-10-11 20:21:02.031,0.4767467,0.42752847,0.70059144,0.8213065,0.36098784,0.11800596,0.071046144,0.59171104,0.59100306,0.2688478,0.4321601,0.73384863,0.5351196,0.08068046,-0.020069195,0.3701515,0.06281004,-0.16180588,-0.1697166,0.010052111,804.2491,796.99634,799.011,800.6227,676.1172,-0.1339111328125,-0.0194091796875,1.00567626953125,-1.652374267578125,-0.844879150390625,3.15521240234375,1,1.0,1.0,1.0,1.0,10.00
2024-10-11 20:21:02.032,0.4767467,0.42752847,0.70059144,0.8213065,0.36098784,0.11800596,0.071046144,0.59171104,0.59100306,0.2688478,0.4321601,0.73384863,0.5351196,0.08068046,-0.020069195,0.3701515,0.06281004,-0.16180588,-0.1697166,0.010052111,803.44324,797.8022,799.011,803.44324,742.1978,-0.1339111328125,-0.0194091796875,1.00567626953125,-1.652374267578125,-0.844879150390625,3.15521240234375,1,1.0,1.0,1.0,1.0,10.00
2024-10-11 20:21:02.033,0.4767467,0.42752847,0.70059144,0.8213065,0.36098784,0.11800596,0.071046144,0.59171104,0.59100306,0.2688478,0.4321601,0.73384863,0.5351196,0.08068046,-0.020069195,0.3701515,0.06281004,-0.16180588,-0.1697166,0.010052111,802.23444,794.9817,811.0989,802.23444,935.2015,-0.1339111328125,-0.0194091796875,1.00567626953125,-1.652374267578125,-0.844879150390625,3.15521240234375,1,1.0,1.0,1.0,1.0,10.00
2024-10-11 20:21:02.033,0.56383985,0.4489778,0.7207669,0.8573203,0.43615443,0.1497622,0.094057865,0.6297238,0.76044655,0.25171787,0.43248552,0.748301,0.5221431,0.094156004,-0.008065526,0.36943114,0.08081524,-0.17573361,-0.14920084,0.0031335284,802.23444,800.2198,810.696,808.2784,880.40295,-0.1339111328125,-0.0194091796875,1.00567626953125,-1.652374267578125,-0.844879150390625,3.15521240234375,1,1.0,1.0,1.0,1.0,10.00
2024-10-11 20:21:02.040,0.56383985,0.4489778,0.7207669,0.8573203,0.43615443,0.1497622,0.094057865,0.6297238,0.76044655,0.25171787,0.43248552,0.748301,0.5221431,0.094156004,-0.008065526,0.36943114,0.08081524,-0.17573361,-0.14920084,0.0031335284,807.47253,799.41394,805.8608,808.2784,693.8461,-0.1339111328125,-0.0194091796875,1.00567626953125,-1.652374267578125,-0.844879150390625,3.15521240234375,1,1.0,1.0,1.0,1.0,10.00
2024-10-11 20:21:02.040,0.56383985,0.4489778,0.7207669,0.8573203,0.43615443,0.1497622,0.094057865,0.6297238,0.76044655,0.25171787,0.43248552,0.748301,0.5221431,0.094156004,-0.008065526,0.36943114,0.08081524,-0.17573361,-0.14920084,0.0031335284,803.44324,796.99634,807.0696,802.23444,705.5311,-0.1339111328125,-0.0194091796875,1.00567626953125,-1.652374267578125,-0.844879150390625,3.15521240234375,1,1.0,1.0,1.0,1.0,10.00
2024-10-11 20:21:02.041,0.56383985,0.4489778,0.7207669,0.8573203,0.43615443,0.1497622,0.094057865,0.6297238,0.76044655,0.25171787,0.43248552,0.748301,0.5221431,0.094156004,-0.008065526,0.36943114,0.08081524,-0.17573361,-0.14920084,0.0031335284,806.26373,801.02563,800.2198,805.05493,767.1795,-0.1339111328125,-0.0194091796875,1.00567626953125,-1.652374267578125,-0.844879150390625,3.15521240234375,1,1.0,1.0,1.0,1.0,10.00
2024-10-11 20:21:02.042,0.56383985,0.4489778,0.7207669,0.8573203,0.43615443,0.1497622,0.094057865,0.6297238,0.76044655,0.25171787,0.43248552,0.748301,0.5221431,0.094156004,-0.008065526,0.36943114,0.08081524,-0.17573361,-0.14920084,0.0031335284,805.8608,800.6227,801.8315,808.2784,836.08057,-0.1339111328125,-0.0194091796875,1.00567626953125,-1.652374267578125,-0.844879150390625,3.15521240234375,1,1.0,1.0,1.0,1.0,10.00
2024-10-11 20:21:02.043,0.56383985,0.4489778,0.7207669,0.8573203,0.43615443,0.1497622,0.094057865,0.6297238,0.76044655,0.25171787,0.43248552,0.748301,0.5221431,0.094156004,-0.008065526,0.36943114,0.08081524,-0.17573361,-0.14920084,0.0031335284,801.4286,798.20514,799.81683,801.4286,770.40295,-0.1407470703125,-0.022705078125,1.0028076171875,-0.28411865234375,-1.80938720703125,3.3197021484375,1,1.0,1.0,1.0,1.0,10.00
2024-10-11 20:21:02.043,0.56383985,0.4489778,0.7207669,0.8573203,0.43615443,0.1497622,0.094057865,0.6297238,0.76044655,0.25171787,0.43248552,0.748301,0.5221431,0.094156004,-0.008065526,0.36943114,0.08081524,-0.17573361,-0.14920084,0.0031335284,805.05493,796.99634,792.1612,804.65204,662.01465,-0.1407470703125,-0.022705078125,1.0028076171875,-0.28411865234375,-1.80938720703125,3.3197021484375,1,1.0,1.0,1.0,1.0,10.00
2024-10-11 20:21:02.044,0.56383985,0.4489778,0.7207669,0.8573203,0.43615443,0.1497622,0.094057865,0.6297238,0.76044655,0.25171787,0.43248552,0.748301,0.5221431,0.094156004,-0.008065526,0.36943114,0.08081524,-0.17573361,-0.14920084,0.0031335284,811.50183,791.75824,794.57874,807.8755,710.7692,-0.1407470703125,-0.022705078125,1.0028076171875,-0.28411865234375,-1.80938720703125,3.3197021484375,1,1.0,1.0,1.0,1.0,10.00
2024-10-11 20:21:02.045,0.56383985,0.4489778,0.7207669,0.8573203,0.43615443,0.1497622,0.094057865,0.6297238,0.76044655,0.25171787,0.43248552,0.748301,0.5221431,0.094156004,-0.008065526,0.36943114,0.08081524,-0.17573361,-0.14920084,0.0031335284,808.68134,788.1319,801.02563,803.8461,754.2857,-0.1407470703125,-0.022705078125,1.0028076171875,-0.28411865234375,-1.80938720703125,3.3197021484375,1,1.0,1.0,1.0,1.0,10.00
2024-10-11 20:21:02.045,0.56383985,0.4489778,0.7207669,0.8573203,0.43615443,0.1497622,0.094057865,0.6297238,0.76044655,0.25171787,0.43248552,0.748301,0.5221431,0.094156004,-0.008065526,0.36943114,0.08081524,-0.17573361,-0.14920084,0.0031335284,803.8461,798.20514,801.02563,801.02563,570.54944,-0.1407470703125,-0.022705078125,1.0028076171875,-0.28411865234375,-1.80938720703125,3.3197021484375,1,1.0,1.0,1.0,1.0,10.00
2024-10-11 20:21:02.046,0.56383985,0.4489778,0.7207669,0.8573203,0.43615443,0.1497622,0.094057865,0.6297238,0.76044655,0.25171787,0.43248552,0.748301,0.5221431,0.094156004,-0.008065526,0.36943114,0.08081524,-0.17573361,-0.14920084,0.0031335284,805.05493,800.6227,801.4286,801.8315,587.0696,-0.1407470703125,-0.022705078125,1.0028076171875,-0.28411865234375,-1.80938720703125,3.3197021484375,1,1.0,1.0,1.0,1.0,10.00
2024-10-11 20:21:02.047,0.56383985,0.4489778,0.7207669,0.8573203,0.43615443,0.1497622,0.094057865,0.6297238,0.76044655,0.25171787,0.43248552,0.748301,0.5221431,0.094156004,-0.008065526,0.36943114,0.08081524,-0.17573361,-0.14920084,0.0031335284,800.6227,786.9231,801.4286,806.6667,914.65204,-0.1407470703125,-0.022705078125,1.0028076171875,-0.28411865234375,-1.80938720703125,3.3197021484375,1,1.0,1.0,1.0,1.0,10.00
2024-10-11 20:21:02.048,0.56383985,0.4489778,0.7207669,0.8573203,0.43615443,0.1497622,0.094057865,0.6297238,0.76044655,0.25171787,0.43248552,0.748301,0.5221431,0.094156004,-0.008065526,0.36943114,0.08081524,-0.17573361,-0.14920084,0.0031335284,796.5934,791.75824,794.9817,807.47253,808.68134,-0.1407470703125,-0.022705078125,1.0028076171875,-0.28411865234375,-1.80938720703125,3.3197021484375,1,1.0,1.0,1.0,1.0,10.00
2024-10-11 20:21:02.048,0.56383985,0.4489778,0.7207669,0.8573203,0.43615443,0.1497622,0.094057865,0.6297238,0.76044655,0.25171787,0.43248552,0.748301,0.5221431,0.094156004,-0.008065526,0.36943114,0.08081524,-0.17573361,-0.14920084,0.0031335284,800.6227,803.0403,795.78754,801.8315,427.91208,-0.1407470703125,-0.022705078125,1.0028076171875,-0.28411865234375,-1.80938720703125,3.3197021484375,1,1.0,1.0,1.0,1.0,10.00
2024-10-11 20:21:02.049,0.56383985,0.4489778,0.7207669,0.8573203,0.43615443,0.1497622,0.094057865,0.6297238,0.76044655,0.25171787,0.43248552,0.748301,0.5221431,0.094156004,-0.008065526,0.36943114,0.08081524,-0.17573361,-0.14920084,0.0031335284,811.0989,803.44324,803.44324,802.6374,454.90842,-0.1407470703125,-0.022705078125,1.0028076171875,-0.28411865234375,-1.80938720703125,3.3197021484375,1,1.0,1.0,1.0,1.0,10.00
2024-10-11 20:21:02.050,0.56383985,0.4489778,0.7207669,0.8573203,0.43615443,0.1497622,0.094057865,0.6297238,0.76044655,0.25171787,0.43248552,0.748301,0.5221431,0.094156004,-0.008065526,0.36943114,0.08081524,-0.17573361,-0.14920084,0.0031335284,814.7253,802.6374,799.81683,807.8755,764.7619,-0.1407470703125,-0.022705078125,1.0028076171875,-0.28411865234375,-1.80938720703125,3.3197021484375,1,1.0,1.0,1.0,1.0,10.00
2024-10-11 20:21:02.050,0.56383985,0.4489778,0.7207669,0.8573203,0.43615443,0.1497622,0.094057865,0.6297238,0.76044655,0.25171787,0.43248552,0.748301,0.5221431,0.094156004,-0.008065526,0.36943114,0.08081524,-0.17573361,-0.14920084,0.0031335284,804.65204,789.7436,794.17584,808.2784,808.68134,-0.1407470703125,-0.022705078125,1.0028076171875,-0.28411865234375,-1.80938720703125,3.3197021484375,1,1.0,1.0,1.0,1.0,10.00
2024-10-11 20:21:02.051,0.56383985,0.4489778,0.7207669,0.8573203,0.43615443,0.1497622,0.094057865,0.6297238,0.76044655,0.25171787,0.43248552,0.748301,0.5221431,0.094156004,-0.008065526,0.36943114,0.08081524,-0.17573361,-0.14920084,0.0031335284,792.5641,787.326,799.81683,801.4286,554.43225,-0.1407470703125,-0.022705078125,1.0028076171875,-0.28411865234375,-1.80938720703125,3.3197021484375,1,1.0,1.0,1.0,1.0,10.00
2024-10-11 20:21:02.052,0.56383985,0.4489778,0.7207669,0.8573203,0.43615443,0.1497622,0.094057865,0.6297238,0.76044655,0.25171787,0.43248552,0.748301,0.5221431,0.094156004,-0.008065526,0.36943114,0.08081524,-0.17573361,-0.14920084,0.0031335284,797.3993,788.93774,795.38464,798.20514,514.1392,-0.1407470703125,-0.022705078125,1.0028076171875,-0.28411865234375,-1.80938720703125,3.3197021484375,1,1.0,1.0,1.0,1.0,10.00
2024-10-11 20:21:02.052,0.56383985,0.4489778,0.7207669,0.8573203,0.43615443,0.1497622,0.094057865,0.6297238,0.76044655,0.25171787,0.43248552,0.748301,0.5221431,0.094156004,-0.008065526,0.36943114,0.08081524,-0.17573361,-0.14920084,0.0031335284,796.99634,791.3553,791.75824,803.8461,821.1722,-0.1407470703125,-0.022705078125,1.0028076171875,-0.28411865234375,-1.80938720703125,3.3197021484375,1,1.0,1.0,1.0,1.0,10.00
2024-10-11 20:21:02.053,0.56383985,0.4489778,0.7207669,0.8573203,0.43615443,0.1497622,0.094057865,0.6297238,0.76044655,0.25171787,0.43248552,0.748301,0.5221431,0.094156004,-0.008065526,0.36943114,0.08081524,-0.17573361,-0.14920084,0.0031335284,798.60803,794.9817,794.9817,806.26373,860.65936,-0.1407470703125,-0.022705078125,1.0028076171875,-0.28411865234375,-1.80938720703125,3.3197021484375,1,1.0,1.0,1.0,1.0,10.00
2024-10-11 20:21:02.054,0.56383985,0.4489778,0.7207669,0.8573203,0.43615443,0.1497622,0.094057865,0.6297238,0.76044655,0.25171787,0.43248552,0.748301,0.5221431,0.094156004,-0.008065526,0.36943114,0.08081524,-0.17573361,-0.14920084,0.0031335284,798.20514,800.6227,799.011,802.23444,691.4286,-0.1407470703125,-0.022705078125,1.0028076171875,-0.28411865234375,-1.80938720703125,3.3197021484375,1,1.0,1.0,1.0,1.0,10.00
2024-10-11 20:21:02.054,0.56383985,0.4489778,0.7207669,0.8573203,0.43615443,0.1497622,0.094057865,0.6297238,0.76044655,0.25171787,0.43248552,0.748301,0.5221431,0.094156004,-0.008065526,0.36943114,0.08081524,-0.17573361,-0.14920084,0.0031335284,799.011,804.65204,801.02563,801.4286,848.5714,-0.1407470703125,-0.022705078125,1.0028076171875,-0.28411865234375,-1.80938720703125,3.3197021484375,1,1.0,1.0,1.0,1.0,10.00
2024-10-11 20:21:02.055,0.56383985,0.4489778,0.7207669,0.8573203,0.43615443,0.1497622,0.094057865,0.6297238,0.76044655,0.25171787,0.43248552,0.748301,0.5221431,0.094156004,-0.008065526,0.36943114,0.08081524,-0.17573361,-0.14920084,0.0031335284,805.8608,799.011,801.02563,811.0989,1133.0403,-0.1407470703125,-0.022705078125,1.0028076171875,-0.28411865234375,-1.80938720703125,3.3197021484375,1,1.0,1.0,1.0,1.0,10.00
2024-10-11 20:21:02.056,0.56383985,0.4489778,0.7207669,0.8573203,0.43615443,0.1497622,0.094057865,0.6297238,0.76044655,0.25171787,0.43248552,0.748301,0.5221431,0.094156004,-0.008065526,0.36943114,0.08081524,-0.17573361,-0.14920084,0.0031335284,799.011,792.5641,805.05493,810.293,966.63007,-0.1407470703125,-0.022705078125,1.0028076171875,-0.28411865234375,-1.80938720703125,3.3197021484375,1,1.0,1.0,1.0,1.0,10.00
2024-10-11 20:21:02.057,0.56383985,0.4489778,0.7207669,0.8573203,0.43615443,0.1497622,0.094057865,0.6297238,0.76044655,0.25171787,0.43248552,0.748301,0.5221431,0.094156004,-0.008065526,0.36943114,0.08081524,-0.17573361,-0.14920084,0.0031335284,794.9817,794.17584,806.6667,802.6374,724.87177,-0.1407470703125,-0.022705078125,1.0028076171875,-0.28411865234375,-1.80938720703125,3.3197021484375,1,1.0,1.0,1.0,1.0,10.00
2024-10-11 20:21:02.058,0.6223608,0.4578573,0.7288066,0.8701906,0.50912535,0.17671469,0.1129887,0.65608007,0.8175236,0.24374774,0.4406691,0.748301,0.5139217,0.11626367,3.9650343E-4,0.3765212,0.0960176,-0.17249635,-0.12865987,-0.0017426095,795.78754,797.8022,801.4286,801.8315,703.91943,-0.1407470703125,-0.022705078125,1.0028076171875,-0.28411865234375,-1.80938720703125,3.3197021484375,1,1.0,1.0,1.0,1.0,10.00
2024-10-11 20:21:02.065,0.6223608,0.4578573,0.7288066,0.8701906,0.50912535,0.17671469,0.1129887,0.65608007,0.8175236,0.24374774,0.4406691,0.748301,0.5139217,0.11626367,3.9650343E-4,0.3765212,0.0960176,-0.17249635,-0.12865987,-0.0017426095,800.6227,793.7729,797.3993,811.50183,829.6337,-0.1407470703125,-0.022705078125,1.0028076171875,-0.28411865234375,-1.80938720703125,3.3197021484375,1,1.0,1.0,1.0,1.0,10.00
2024-10-11 20:21:02.065,0.6223608,0.4578573,0.7288066,0.8701906,0.50912535,0.17671469,0.1129887,0.65608007,0.8175236,0.24374774,0.4406691,0.748301,0.5139217,0.11626367,3.9650343E-4,0.3765212,0.0960176,-0.17249635,-0.12865987,-0.0017426095,799.011,789.7436,795.38464,810.696,798.60803,-0.1407470703125,-0.022705078125,1.0028076171875,-0.28411865234375,-1.80938720703125,3.3197021484375,1,1.0,1.0,1.0,1.0,10.00
2024-10-11 20:21:02.067,0.6223608,0.4578573,0.7288066,0.8701906,0.50912535,0.17671469,0.1129887,0.65608007,0.8175236,0.24374774,0.4406691,0.748301,0.5139217,0.11626367,3.9650343E-4,0.3765212,0.0960176,-0.17249635,-0.12865987,-0.0017426095,802.6374,783.69965,788.5348,801.8315,693.8461,-0.13897705078125,-0.02325439453125,1.00244140625,-0.964508056640625,-2.19818115234375,1.2261962890625,1,1.0,1.0,1.0,1.0,10.00
2024-10-11 20:21:02.068,0.6223608,0.4578573,0.7288066,0.8701906,0.50912535,0.17671469,0.1129887,0.65608007,0.8175236,0.24374774,0.4406691,0.748301,0.5139217,0.11626367,3.9650343E-4,0.3765212,0.0960176,-0.17249635,-0.12865987,-0.0017426095,809.0842,788.1319,787.72894,799.81683,703.91943,-0.13897705078125,-0.02325439453125,1.00244140625,-0.964508056640625,-2.19818115234375,1.2261962890625,1,1.0,1.0,1.0,1.0,10.00
2024-10-11 20:21:02.069,0.6223608,0.4578573,0.7288066,0.8701906,0.50912535,0.17671469,0.1129887,0.65608007,0.8175236,0.24374774,0.4406691,0.748301,0.5139217,0.11626367,3.9650343E-4,0.3765212,0.0960176,-0.17249635,-0.12865987,-0.0017426095,796.99634,795.78754,791.3553,795.38464,728.0952,-0.13897705078125,-0.02325439453125,1.00244140625,-0.964508056640625,-2.19818115234375,1.2261962890625,1,1.0,1.0,1.0,1.0,10.00
2024-10-11 20:21:02.069,0.6223608,0.4578573,0.7288066,0.8701906,0.50912535,0.17671469,0.1129887,0.65608007,0.8175236,0.24374774,0.4406691,0.748301,0.5139217,0.11626367,3.9650343E-4,0.3765212,0.0960176,-0.17249635,-0.12865987,-0.0017426095,799.011,797.8022,797.8022,793.36993,741.79486,-0.13897705078125,-0.02325439453125,1.00244140625,-0.964508056640625,-2.19818115234375,1.2261962890625,1,1.0,1.0,1.0,1.0,10.00
2024-10-11 20:21:02.070,0.6223608,0.4578573,0.7288066,0.8701906,0.50912535,0.17671469,0.1129887,0.65608007,0.8175236,0.24374774,0.4406691,0.748301,0.5139217,0.11626367,3.9650343E-4,0.3765212,0.0960176,-0.17249635,-0.12865987,-0.0017426095,801.02563,801.02563,791.75824,794.17584,782.0879,-0.13897705078125,-0.02325439453125,1.00244140625,-0.964508056640625,-2.19818115234375,1.2261962890625,1,1.0,1.0,1.0,1.0,10.00
2024-10-11 20:21:02.071,0.6223608,0.4578573,0.7288066,0.8701906,0.50912535,0.17671469,0.1129887,0.65608007,0.8175236,0.24374774,0.4406691,0.748301,0.5139217,0.11626367,3.9650343E-4,0.3765212,0.0960176,-0.17249635,-0.12865987,-0.0017426095,799.41394,793.7729,790.54944,794.9817,930.7692,-0.13897705078125,-0.02325439453125,1.00244140625,-0.964508056640625,-2.19818115234375,1.2261962890625,1,1.0,1.0,1.0,1.0,10.00
2024-10-11 20:21:02.072,0.6223608,0.4578573,0.7288066,0.8701906,0.50912535,0.17671469,0.1129887,0.65608007,0.8175236,0.24374774,0.4406691,0.748301,0.5139217,0.11626367,3.9650343E-4,0.3765212,0.0960176,-0.17249635,-0.12865987,-0.0017426095,796.99634,780.4762,793.36993,796.1905,945.2747,-0.13897705078125,-0.02325439453125,1.00244140625,-0.964508056640625,-2.19818115234375,1.2261962890625,1,1.0,1.0,1.0,1.0,10.00
2024-10-11 20:21:02.072,0.6223608,0.4578573,0.7288066,0.8701906,0.50912535,0.17671469,0.1129887,0.65608007,0.8175236,0.24374774,0.4406691,0.748301,0.5139217,0.11626367,3.9650343E-4,0.3765212,0.0960176,-0.17249635,-0.12865987,-0.0017426095,799.41394,788.1319,791.75824,798.60803,726.08057,-0.13897705078125,-0.02325439453125,1.00244140625,-0.964508056640625,-2.19818115234375,1.2261962890625,1,1.0,1.0,1.0,1.0,10.00
2024-10-11 20:21:02.073,0.6223608,0.4578573,0.7288066,0.8701906,0.50912535,0.17671469,0.1129887,0.65608007,0.8175236,0.24374774,0.4406691,0.748301,0.5139217,0.11626367,3.9650343E-4,0.3765212,0.0960176,-0.17249635,-0.12865987,-0.0017426095,803.8461,789.7436,797.8022,804.65204,735.7509,-0.13897705078125,-0.02325439453125,1.00244140625,-0.964508056640625,-2.19818115234375,1.2261962890625,1,1.0,1.0,1.0,1.0,10.00
2024-10-11 20:21:02.074,0.6223608,0.4578573,0.7288066,0.8701906,0.50912535,0.17671469,0.1129887,0.65608007,0.8175236,0.24374774,0.4406691,0.748301,0.5139217,0.11626367,3.9650343E-4,0.3765212,0.0960176,-0.17249635,-0.12865987,-0.0017426095,805.8608,779.67035,794.57874,803.44324,846.1539,-0.13897705078125,-0.02325439453125,1.00244140625,-0.964508056640625,-2.19818115234375,1.2261962890625,1,1.0,1.0,1.0,1.0,10.00
2024-10-11 20:21:02.075,0.6223608,0.4578573,0.7288066,0.8701906,0.50912535,0.17671469,0.1129887,0.65608007,0.8175236,0.24374774,0.4406691,0.748301,0.5139217,0.11626367,3.9650343E-4,0.3765212,0.0960176,-0.17249635,-0.12865987,-0.0017426095,805.05493,789.34064,792.96704,802.23444,807.0696,-0.13897705078125,-0.02325439453125,1.00244140625,-0.964508056640625,-2.19818115234375,1.2261962890625,1,1.0,1.0,1.0,1.0,10.00
2024-10-11 20:21:02.076,0.6223608,0.4578573,0.7288066,0.8701906,0.50912535,0.17671469,0.1129887,0.65608007,0.8175236,0.24374774,0.4406691,0.748301,0.5139217,0.11626367,3.9650343E-4,0.3765212,0.0960176,-0.17249635,-0.12865987,-0.0017426095,797.8022,801.8315,798.60803,805.05493,647.50916,-0.13897705078125,-0.02325439453125,1.00244140625,-0.964508056640625,-2.19818115234375,1.2261962890625,1,1.0,1.0,1.0,1.0,10.00
2024-10-11 20:21:02.112,0.6223608,0.4578573,0.7288066,0.8701906,0.50912535,0.17671469,0.1129887,0.65608007,0.8175236,0.24374774,0.4406691,0.748301,0.5139217,0.11626367,3.9650343E-4,0.3765212,0.0960176,-0.17249635,-0.12865987,-0.0017426095,795.78754,801.02563,797.3993,801.8315,624.5421,-0.13507080078125,-0.0323486328125,0.9942626953125,-2.011260986328125,-2.220611572265625,-1.173858642578125,1,1.0,1.0,1.0,1.0,10.00
2024-10-11 20:21:02.113,0.6223608,0.4578573,0.7288066,0.8701906,0.50912535,0.17671469,0.1129887,0.65608007,0.8175236,0.24374774,0.4406691,0.748301,0.5139217,0.11626367,3.9650343E-4,0.3765212,0.0960176,-0.17249635,-0.12865987,-0.0017426095,792.96704,798.60803,796.1905,795.38464,849.3773,-0.13507080078125,-0.0323486328125,0.9942626953125,-2.011260986328125,-2.220611572265625,-1.173858642578125,1,1.0,1.0,1.0,1.0,10.00
2024-10-11 20:21:02.114,0.6223608,0.4578573,0.7288066,0.8701906,0.50912535,0.17671469,0.1129887,0.65608007,0.8175236,0.24374774,0.4406691,0.748301,0.5139217,0.11626367,3.9650343E-4,0.3765212,0.0960176,-0.17249635,-0.12865987,-0.0017426095,791.75824,798.60803,799.81683,793.36993,780.07324,-0.13507080078125,-0.0323486328125,0.9942626953125,-2.011260986328125,-2.220611572265625,-1.173858642578125,1,1.0,1.0,1.0,1.0,10.00
2024-10-11 20:21:02.115,0.6223608,0.4578573,0.7288066,0.8701906,0.50912535,0.17671469,0.1129887,0.65608007,0.8175236,0.24374774,0.4406691,0.748301,0.5139217,0.11626367,3.9650343E-4,0.3765212,0.0960176,-0.17249635,-0.12865987,-0.0017426095,798.60803,801.4286,804.65204,794.17584,620.10986,-0.13507080078125,-0.0323486328125,0.9942626953125,-2.011260986328125,-2.220611572265625,-1.173858642578125,1,1.0,1.0,1.0,1.0,10.00
2024-10-11 20:21:02.116,0.6223608,0.4578573,0.7288066,0.8701906,0.50912535,0.17671469,0.1129887,0.65608007,0.8175236,0.24374774,0.4406691,0.748301,0.5139217,0.11626367,3.9650343E-4,0.3765212,0.0960176,-0.17249635,-0.12865987,-0.0017426095,799.011,800.2198,799.011,799.41394,768.7912,-0.13507080078125,-0.0323486328125,0.9942626953125,-2.011260986328125,-2.220611572265625,-1.173858642578125,1,1.0,1.0,1.0,1.0,10.00
2024-10-11 20:21:02.117,0.6223608,0.4578573,0.7288066,0.8701906,0.50912535,0.17671469,0.1129887,0.65608007,0.8175236,0.24374774,0.4406691,0.748301,0.5139217,0.11626367,3.9650343E-4,0.3765212,0.0960176,-0.17249635,-0.12865987,-0.0017426095,793.36993,790.9524,792.5641,811.0989,1076.63,-0.13507080078125,-0.0323486328125,0.9942626953125,-2.011260986328125,-2.220611572265625,-1.173858642578125,1,1.0,1.0,1.0,1.0,10.00
2024-10-11 20:21:02.118,0.6223608,0.4578573,0.7288066,0.8701906,0.50912535,0.17671469,0.1129887,0.65608007,0.8175236,0.24374774,0.4406691,0.748301,0.5139217,0.11626367,3.9650343E-4,0.3765212,0.0960176,-0.17249635,-0.12865987,-0.0017426095,786.52014,790.14655,799.011,821.978,1347.3993,-0.13507080078125,-0.0323486328125,0.9942626953125,-2.011260986328125,-2.220611572265625,-1.173858642578125,1,1.0,1.0,1.0,1.0,10.00
2024-10-11 20:21:02.119,0.6223608,0.4578573,0.7288066,0.8701906,0.50912535,0.17671469,0.1129887,0.65608007,0.8175236,0.24374774,0.4406691,0.748301,0.5139217,0.11626367,3.9650343E-4,0.3765212,0.0960176,-0.17249635,-0.12865987,-0.0017426095,786.9231,796.5934,803.44324,819.15753,1282.9304,-0.13507080078125,-0.0323486328125,0.9942626953125,-2.011260986328125,-2.220611572265625,-1.173858642578125,1,1.0,1.0,1.0,1.0,10.00
2024-10-11 20:21:02.121,0.6223608,0.4578573,0.7288066,0.8701906,0.50912535,0.17671469,0.1129887,0.65608007,0.8175236,0.24374774,0.4406691,0.748301,0.5139217,0.11626367,3.9650343E-4,0.3765212,0.0960176,-0.17249635,-0.12865987,-0.0017426095,798.60803,800.6227,804.2491,809.89014,1095.9707,-0.13507080078125,-0.0323486328125,0.9942626953125,-2.011260986328125,-2.220611572265625,-1.173858642578125,1,1.0,1.0,1.0,1.0,10.00
2024-10-11 20:21:02.122,0.6223608,0.4578573,0.7288066,0.8701906,0.50912535,0.17671469,0.1129887,0.65608007,0.8175236,0.24374774,0.4406691,0.748301,0.5139217,0.11626367,3.9650343E-4,0.3765212,0.0960176,-0.17249635,-0.12865987,-0.0017426095,796.99634,796.5934,803.44324,802.6374,910.2198,-0.13507080078125,-0.0323486328125,0.9942626953125,-2.011260986328125,-2.220611572265625,-1.173858642578125,1,1.0,1.0,1.0,1.0,10.00
2024-10-11 20:21:02.123,0.6223608,0.4578573,0.7288066,0.8701906,0.50912535,0.17671469,0.1129887,0.65608007,0.8175236,0.24374774,0.4406691,0.748301,0.5139217,0.11626367,3.9650343E-4,0.3765212,0.0960176,-0.17249635,-0.12865987,-0.0017426095,790.54944,790.9524,804.65204,801.4286,637.4359,-0.13507080078125,-0.0323486328125,0.9942626953125,-2.011260986328125,-2.220611572265625,-1.173858642578125,1,1.0,1.0,1.0,1.0,10.00
2024-10-11 20:21:02.123,0.6533422,0.45777786,0.7318306,0.8704943,0.56389314,0.19908617,0.13269284,0.67113286,0.8211867,0.23624797,0.45918036,0.748301,0.5099741,0.15212409,0.006952515,0.38521048,0.10608715,-0.15000364,-0.10397254,-0.0062761144,793.7729,795.78754,805.4579,799.011,498.82785,-0.13507080078125,-0.0323486328125,0.9942626953125,-2.011260986328125,-2.220611572265625,-1.173858642578125,1,1.0,1.0,1.0,1.0,10.00
2024-10-11 20:21:02.164,0.6533422,0.45777786,0.7318306,0.8704943,0.56389314,0.19908617,0.13269284,0.67113286,0.8211867,0.23624797,0.45918036,0.748301,0.5099741,0.15212409,0.006952515,0.38521048,0.10608715,-0.15000364,-0.10397254,-0.0062761144,795.78754,801.8315,803.8461,799.011,572.1612,-0.120849609375,-0.031982421875,0.9962158203125,-1.353302001953125,-1.502838134765625,-0.979461669921875,1,1.0,1.0,1.0,1.0,10.00
2024-10-11 20:21:02.165,0.6533422,0.45777786,0.7318306,0.8704943,0.56389314,0.19908617,0.13269284,0.67113286,0.8211867,0.23624797,0.45918036,0.748301,0.5099741,0.15212409,0.006952515,0.38521048,0.10608715,-0.15000364,-0.10397254,-0.0062761144,797.8022,797.8022,803.0403,803.44324,997.6557,-0.120849609375,-0.031982421875,0.9962158203125,-1.353302001953125,-1.502838134765625,-0.979461669921875,1,1.0,1.0,1.0,1.0,10.00
2024-10-11 20:21:02.166,0.6533422,0.45777786,0.7318306,0.8704943,0.56389314,0.19908617,0.13269284,0.67113286,0.8211867,0.23624797,0.45918036,0.748301,0.5099741,0.15212409,0.006952515,0.38521048,0.10608715,-0.15000364,-0.10397254,-0.0062761144,798.60803,789.7436,798.60803,805.05493,1143.9194,-0.120849609375,-0.031982421875,0.9962158203125,-1.353302001953125,-1.502838134765625,-0.979461669921875,1,1.0,1.0,1.0,1.0,10.00
2024-10-11 20:21:02.166,0.6533422,0.45777786,0.7318306,0.8704943,0.56389314,0.19908617,0.13269284,0.67113286,0.8211867,0.23624797,0.45918036,0.748301,0.5099741,0.15212409,0.006952515,0.38521048,0.10608715,-0.15000364,-0.10397254,-0.0062761144,789.7436,792.5641,798.60803,796.99634,664.0293,-0.120849609375,-0.031982421875,0.9962158203125,-1.353302001953125,-1.502838134765625,-0.979461669921875,1,1.0,1.0,1.0,1.0,10.00
2024-10-11 20:21:02.167,0.6533422,0.45777786,0.7318306,0.8704943,0.56389314,0.19908617,0.13269284,0.67113286,0.8211867,0.23624797,0.45918036,0.748301,0.5099741,0.15212409,0.006952515,0.38521048,0.10608715,-0.15000364,-0.10397254,-0.0062761144,793.36993,792.1612,799.011,793.7729,594.7253,-0.120849609375,-0.031982421875,0.9962158203125,-1.353302001953125,-1.502838134765625,-0.979461669921875,1,1.0,1.0,1.0,1.0,10.00
2024-10-11 20:21:02.168,0.6533422,0.45777786,0.7318306,0.8704943,0.56389314,0.19908617,0.13269284,0.67113286,0.8211867,0.23624797,0.45918036,0.748301,0.5099741,0.15212409,0.006952515,0.38521048,0.10608715,-0.15000364,-0.10397254,-0.0062761144,809.0842,786.9231,795.38464,803.8461,819.9634,-0.120849609375,-0.031982421875,0.9962158203125,-1.353302001953125,-1.502838134765625,-0.979461669921875,1,1.0,1.0,1.0,1.0,10.00
2024-10-11 20:21:02.169,0.6533422,0.45777786,0.7318306,0.8704943,0.56389314,0.19908617,0.13269284,0.67113286,0.8211867,0.23624797,0.45918036,0.748301,0.5099741,0.15212409,0.006952515,0.38521048,0.10608715,-0.15000364,-0.10397254,-0.0062761144,802.6374,787.72894,800.6227,803.44324,660.80585,-0.120849609375,-0.031982421875,0.9962158203125,-1.353302001953125,-1.502838134765625,-0.979461669921875,1,1.0,1.0,1.0,1.0,10.00
2024-10-11 20:21:02.169,0.6533422,0.45777786,0.7318306,0.8704943,0.56389314,0.19908617,0.13269284,0.67113286,0.8211867,0.23624797,0.45918036,0.748301,0.5099741,0.15212409,0.006952515,0.38521048,0.10608715,-0.15000364,-0.10397254,-0.0062761144,794.9817,790.14655,806.26373,793.7729,516.1539,-0.120849609375,-0.031982421875,0.9962158203125,-1.353302001953125,-1.502838134765625,-0.979461669921875,1,1.0,1.0,1.0,1.0,10.00
