TimeStamp,Delta_TP9,Delta_AF7,Delta_AF8,Delta_TP10,Theta_TP9,Theta_AF7,Theta_AF8,Theta_TP10,Alpha_TP9,Alpha_AF7,Alpha_AF8,Alpha_TP10,Beta_TP9,Beta_AF7,Beta_AF8,Beta_TP10,Gamma_TP9,Gamma_AF7,Gamma_AF8,Gamma_TP10,RAW_TP9,RAW_AF7,RAW_AF8,RAW_TP10,AUX_RIGHT,Accelerometer_X,Accelerometer_Y,Accelerometer_Z,Gyro_X,Gyro_Y,Gyro_Z,HeadBandOn,HSI_TP9,HSI_AF7,HSI_AF8,HSI_TP10,Battery,Elements
2024-10-11 20:18:03.290,0.41843265,0.017420296,0.70946676,0.35603863,0.68959886,-0.03304031,0.4661944,-0.07378404,0.6869567,-0.011427461,0.13486496,0.57072264,0.6058285,0.17135307,0.12920229,0.6640708,0.060994077,-0.23315938,-0.25063768,0.105408706,794.17584,794.57874,801.4286,807.0696,653.1502,-0.1397705078125,0.08441162109375,0.99285888671875,1.682281494140625,1.278533935546875,3.521575927734375,1,1.0,1.0,1.0,1.0,10.00
2024-10-11 20:18:03.291,0.41843265,0.017420296,0.70946676,0.35603863,0.68959886,-0.03304031,0.4661944,-0.07378404,0.6869567,-0.011427461,0.13486496,0.57072264,0.6058285,0.17135307,0.12920229,0.6640708,0.060994077,-0.23315938,-0.25063768,0.105408706,799.41394,796.1905,794.9817,813.1135,596.7399,-0.1397705078125,0.08441162109375,0.99285888671875,1.682281494140625,1.278533935546875,3.521575927734375,1,1.0,1.0,1.0,1.0,10.00
2024-10-11 20:18:03.293,0.41843265,0.017420296,0.70946676,0.35603863,0.68959886,-0.03304031,0.4661944,-0.07378404,0.6869567,-0.011427461,0.13486496,0.57072264,0.6058285,0.17135307,0.12920229,0.6640708,0.060994077,-0.23315938,-0.25063768,0.105408706,796.1905,794.17584,799.011,818.3516,693.8461,-0.1397705078125,0.08441162109375,0.99285888671875,1.682281494140625,1.278533935546875,3.521575927734375,1,1.0,1.0,1.0,1.0,10.00
2024-10-11 20:18:03.295,0.41843265,0.017420296,0.70946676,0.35603863,0.68959886,-0.03304031,0.4661944,-0.07378404,0.6869567,-0.011427461,0.13486496,0.57072264,0.6058285,0.17135307,0.12920229,0.6640708,0.060994077,-0.23315938,-0.25063768,0.105408706,795.38464,790.14655,802.6374,818.3516,664.43225,-0.1397705078125,0.08441162109375,0.99285888671875,1.682281494140625,1.278533935546875,3.521575927734375,1,1.0,1.0,1.0,1.0,10.00
2024-10-11 20:18:03.296,0.41843265,0.017420296,0.70946676,0.35603863,0.68959886,-0.03304031,0.4661944,-0.07378404,0.6869567,-0.011427461,0.13486496,0.57072264,0.6058285,0.17135307,0.12920229,0.6640708,0.060994077,-0.23315938,-0.25063768,0.105408706,802.23444,791.3553,806.6667,813.91943,560.4762,-0.1397705078125,0.08441162109375,0.99285888671875,1.682281494140625,1.278533935546875,3.521575927734375,1,1.0,1.0,1.0,1.0,10.00
2024-10-11 20:18:03.297,0.41843265,0.32766268,0.75455004,0.35603863,0.68959886,0.025488663,0.5004586,-0.07378404,0.6869567,0.1396223,0.13486496,0.57072264,0.6058285,0.15210615,0.13248374,0.6640708,0.060994077,-0.17036611,-0.24899535,0.105408706,797.8022,788.5348,807.0696,812.3077,709.9634,-0.1397705078125,0.08441162109375,0.99285888671875,1.682281494140625,1.278533935546875,3.521575927734375,1,1.0,1.0,1.0,1.0,10.00
2024-10-11 20:18:03.302,0.41843265,0.32766268,0.75455004,0.35603863,0.68959886,0.025488663,0.5004586,-0.07378404,0.6869567,0.1396223,0.13486496,0.57072264,0.6058285,0.15210615,0.13248374,0.6640708,0.060994077,-0.17036611,-0.24899535,0.105408706,793.36993,789.7436,804.65204,813.5165,942.8571,-0.1397705078125,0.08441162109375,0.99285888671875,1.682281494140625,1.278533935546875,3.521575927734375,1,1.0,1.0,1.0,1.0,10.00
2024-10-11 20:18:03.302,0.41843265,0.32766268,0.75455004,0.35603863,0.68959886,0.025488663,0.5004586,-0.07378404,0.6869567,0.1396223,0.13486496,0.57072264,0.6058285,0.15210615,0.13248374,0.6640708,0.060994077,-0.17036611,-0.24899535,0.105408706,789.7436,794.57874,803.8461,804.2491,910.6227,-0.1397705078125,0.08441162109375,0.99285888671875,1.682281494140625,1.278533935546875,3.521575927734375,1,1.0,1.0,1.0,1.0,10.00
2024-10-11 20:18:03.303,0.41843265,0.32766268,0.75455004,0.35603863,0.68959886,0.025488663,0.5004586,-0.07378404,0.6869567,0.1396223,0.13486496,0.57072264,0.6058285,0.15210615,0.13248374,0.6640708,0.060994077,-0.17036611,-0.24899535,0.105408706,784.10254,799.41394,799.81683,794.9817,705.12823,-0.1397705078125,0.08441162109375,0.99285888671875,1.682281494140625,1.278533935546875,3.521575927734375,1,1.0,1.0,1.0,1.0,10.00
2024-10-11 20:18:03.304,0.41843265,0.32766268,0.75455004,0.35603863,0.68959886,0.025488663,0.5004586,-0.07378404,0.6869567,0.1396223,0.13486496,0.57072264,0.6058285,0.15210615,0.13248374,0.6640708,0.060994077,-0.17036611,-0.24899535,0.105408706,794.17584,799.81683,799.011,795.78754,652.74725,-0.1397705078125,0.08441162109375,0.99285888671875,1.682281494140625,1.278533935546875,3.521575927734375,1,1.0,1.0,1.0,1.0,10.00
2024-10-11 20:18:03.305,0.41843265,0.32766268,0.75455004,0.35603863,0.68959886,0.025488663,0.5004586,-0.07378404,0.6869567,0.1396223,0.13486496,0.57072264,0.6058285,0.15210615,0.13248374,0.6640708,0.060994077,-0.17036611,-0.24899535,0.105408706,801.02563,801.02563,798.60803,802.23444,833.2601,-0.1397705078125,0.08441162109375,0.99285888671875,1.682281494140625,1.278533935546875,3.521575927734375,1,1.0,1.0,1.0,1.0,10.00
2024-10-11 20:18:03.307,0.41843265,0.32766268,0.75455004,0.35603863,0.68959886,0.025488663,0.5004586,-0.07378404,0.6869567,0.1396223,0.13486496,0.57072264,0.6058285,0.15210615,0.13248374,0.6640708,0.060994077,-0.17036611,-0.24899535,0.105408706,798.20514,800.2198,800.6227,800.2198,747.8388,-0.1397705078125,0.08441162109375,0.99285888671875,1.682281494140625,1.278533935546875,3.521575927734375,1,1.0,1.0,1.0,1.0,10.00
2024-10-11 20:18:03.391,0.41843265,0.32766268,0.75455004,0.35603863,0.68959886,0.025488663,0.5004586,-0.07378404,0.6869567,0.1396223,0.13486496,0.57072264,0.6058285,0.15210615,0.13248374,0.6640708,0.060994077,-0.17036611,-0.24899535,0.105408706,800.2198,796.1905,804.2491,797.8022,592.3077,-0.16510009765625,0.0877685546875,1.00213623046875,1.36077880859375,0.336456298828125,3.99261474609375,1,1.0,1.0,1.0,1.0,10.00
2024-10-11 20:18:03.392,0.41843265,0.32766268,0.75455004,0.35603863,0.68959886,0.025488663,0.5004586,-0.07378404,0.6869567,0.1396223,0.13486496,0.57072264,0.6058285,0.15210615,0.13248374,0.6640708,0.060994077,-0.17036611,-0.24899535,0.105408706,799.81683,793.36993,803.8461,804.2491,830.84247,-0.16510009765625,0.0877685546875,1.00213623046875,1.36077880859375,0.336456298828125,3.99261474609375,1,1.0,1.0,1.0,1.0,10.00
2024-10-11 20:18:03.393,0.41843265,0.32766268,0.75455004,0.35603863,0.68959886,0.025488663,0.5004586,-0.07378404,0.6869567,0.1396223,0.13486496,0.57072264,0.6058285,0.15210615,0.13248374,0.6640708,0.060994077,-0.17036611,-0.24899535,0.105408706,801.4286,797.8022,804.2491,806.26373,992.4176,-0.16510009765625,0.0877685546875,1.00213623046875,1.36077880859375,0.336456298828125,3.99261474609375,1,1.0,1.0,1.0,1.0,10.00
2024-10-11 20:18:03.394,0.41843265,0.32766268,0.75455004,0.35603863,0.68959886,0.025488663,0.5004586,-0.07378404,0.6869567,0.1396223,0.13486496,0.57072264,0.6058285,0.15210615,0.13248374,0.6640708,0.060994077,-0.17036611,-0.24899535,0.105408706,803.8461,801.8315,803.44324,805.05493,766.77655,-0.16510009765625,0.0877685546875,1.00213623046875,1.36077880859375,0.336456298828125,3.99261474609375,1,1.0,1.0,1.0,1.0,10.00
2024-10-11 20:18:03.395,0.41843265,0.32766268,0.75455004,0.35603863,0.68959886,0.025488663,0.5004586,-0.07378404,0.6869567,0.1396223,0.13486496,0.57072264,0.6058285,0.15210615,0.13248374,0.6640708,0.060994077,-0.17036611,-0.24899535,0.105408706,799.41394,801.02563,799.41394,805.4579,691.02563,-0.16510009765625,0.0877685546875,1.00213623046875,1.36077880859375,0.336456298828125,3.99261474609375,1,1.0,1.0,1.0,1.0,10.00
2024-10-11 20:18:03.396,0.41843265,0.32766268,0.75455004,0.35603863,0.68959886,0.025488663,0.5004586,-0.07378404,0.6869567,0.1396223,0.13486496,0.57072264,0.6058285,0.15210615,0.13248374,0.6640708,0.060994077,-0.17036611,-0.24899535,0.105408706,801.4286,794.57874,801.02563,811.50183,868.71796,-0.16510009765625,0.0877685546875,1.00213623046875,1.36077880859375,0.336456298828125,3.99261474609375,1,1.0,1.0,1.0,1.0,10.00
2024-10-11 20:18:03.397,0.41843265,0.32766268,0.75455004,0.35603863,0.68959886,0.025488663,0.5004586,-0.07378404,0.6869567,0.1396223,0.13486496,0.57072264,0.6058285,0.15210615,0.13248374,0.6640708,0.060994077,-0.17036611,-0.24899535,0.105408706,804.65204,796.5934,797.8022,815.5311,775.2381,-0.16510009765625,0.0877685546875,1.00213623046875,1.36077880859375,0.336456298828125,3.99261474609375,1,1.0,1.0,1.0,1.0,10.00
2024-10-11 20:18:03.398,0.41843265,0.32766268,0.75455004,0.35603863,0.68959886,0.025488663,0.5004586,-0.07378404,0.6869567,0.1396223,0.13486496,0.57072264,0.6058285,0.15210615,0.13248374,0.6640708,0.060994077,-0.17036611,-0.24899535,0.105408706,808.2784,807.0696,798.20514,811.0989,646.7033,-0.16510009765625,0.0877685546875,1.00213623046875,1.36077880859375,0.336456298828125,3.99261474609375,1,1.0,1.0,1.0,1.0,10.00
2024-10-11 20:18:03.399,0.41843265,0.32766268,0.75455004,0.35603863,0.68959886,0.025488663,0.5004586,-0.07378404,0.6869567,0.1396223,0.13486496,0.57072264,0.6058285,0.15210615,0.13248374,0.6640708,0.060994077,-0.17036611,-0.24899535,0.105408706,803.8461,802.6374,802.6374,805.05493,749.45056,-0.16510009765625,0.0877685546875,1.00213623046875,1.36077880859375,0.336456298828125,3.99261474609375,1,1.0,1.0,1.0,1.0,10.00
2024-10-11 20:18:03.400,0.41843265,0.32766268,0.75455004,0.35603863,0.68959886,0.025488663,0.5004586,-0.07378404,0.6869567,0.1396223,0.13486496,0.57072264,0.6058285,0.15210615,0.13248374,0.6640708,0.060994077,-0.17036611,-0.24899535,0.105408706,802.23444,796.99634,799.41394,808.68134,951.7216,-0.16510009765625,0.0877685546875,1.00213623046875,1.36077880859375,0.336456298828125,3.99261474609375,1,1.0,1.0,1.0,1.0,10.00
2024-10-11 20:18:03.401,0.41843265,0.32766268,0.75455004,0.35603863,0.68959886,0.025488663,0.5004586,-0.07378404,0.6869567,0.1396223,0.13486496,0.57072264,0.6058285,0.15210615,0.13248374,0.6640708,0.060994077,-0.17036611,-0.24899535,0.105408706,797.8022,807.8755,797.3993,804.65204,929.9634,-0.16510009765625,0.0877685546875,1.00213623046875,1.36077880859375,0.336456298828125,3.99261474609375,1,1.0,1.0,1.0,1.0,10.00
2024-10-11 20:18:03.403,0.41843265,0.32766268,0.75455004,0.35603863,0.68959886,0.025488663,0.5004586,-0.07378404,0.6869567,0.1396223,0.13486496,0.57072264,0.6058285,0.15210615,0.13248374,0.6640708,0.060994077,-0.17036611,-0.24899535,0.105408706,790.9524,804.65204,797.8022,801.4286,733.73627,-0.16510009765625,0.0877685546875,1.00213623046875,1.36077880859375,0.336456298828125,3.99261474609375,1,1.0,1.0,1.0,1.0,10.00
2024-10-11 20:18:03.404,0.41843265,0.32766268,0.75455004,0.35603863,0.68959886,0.025488663,0.5004586,-0.07378404,0.6869567,0.1396223,0.13486496,0.57072264,0.6058285,0.15210615,0.13248374,0.6640708,0.060994077,-0.17036611,-0.24899535,0.105408706,789.34064,799.41394,801.02563,806.6667,720.4396,-0.2076416015625,0.091796875,0.99884033203125,-2.213134765625,-6.62445068359375,-1.68975830078125,1,1.0,1.0,1.0,1.0,10.00
2024-10-11 20:18:03.405,0.41843265,0.32766268,0.75455004,0.35603863,0.68959886,0.025488663,0.5004586,-0.07378404,0.6869567,0.1396223,0.13486496,0.57072264,0.6058285,0.15210615,0.13248374,0.6640708,0.060994077,-0.17036611,-0.24899535,0.105408706,788.93774,802.6374,801.8315,807.47253,810.293,-0.2076416015625,0.091796875,0.99884033203125,-2.213134765625,-6.62445068359375,-1.68975830078125,1,1.0,1.0,1.0,1.0,10.00
2024-10-11 20:18:03.406,0.41843265,0.32766268,0.75455004,0.35603863,0.68959886,0.025488663,0.5004586,-0.07378404,0.6869567,0.1396223,0.13486496,0.57072264,0.6058285,0.15210615,0.13248374,0.6640708,0.060994077,-0.17036611,-0.24899535,0.105408706,788.1319,793.36993,803.44324,807.47253,683.36993,-0.2076416015625,0.091796875,0.99884033203125,-2.213134765625,-6.62445068359375,-1.68975830078125,1,1.0,1.0,1.0,1.0,10.00
2024-10-11 20:18:03.408,0.41843265,0.32766268,0.75455004,0.35603863,0.68959886,0.025488663,0.5004586,-0.07378404,0.6869567,0.1396223,0.13486496,0.57072264,0.6058285,0.15210615,0.13248374,0.6640708,0.060994077,-0.17036611,-0.24899535,0.105408706,791.3553,796.99634,803.0403,805.05493,658.3883,-0.2076416015625,0.091796875,0.99884033203125,-2.213134765625,-6.62445068359375,-1.68975830078125,1,1.0,1.0,1.0,1.0,10.00
2024-10-11 20:18:03.409,0.41843265,0.32766268,0.75455004,0.35603863,0.68959886,0.025488663,0.5004586,-0.07378404,0.6869567,0.1396223,0.13486496,0.57072264,0.6058285,0.15210615,0.13248374,0.6640708,0.060994077,-0.17036611,-0.24899535,0.105408706,792.1612,801.8315,796.5934,799.011,782.49084,-0.2076416015625,0.091796875,0.99884033203125,-2.213134765625,-6.62445068359375,-1.68975830078125,1,1.0,1.0,1.0,1.0,10.00
2024-10-11 20:18:03.411,0.41843265,0.32766268,0.75455004,0.35603863,0.68959886,0.025488663,0.5004586,-0.07378404,0.6869567,0.1396223,0.13486496,0.57072264,0.6058285,0.15210615,0.13248374,0.6640708,0.060994077,-0.17036611,-0.24899535,0.105408706,788.93774,801.02563,801.02563,797.8022,945.6777,-0.2076416015625,0.091796875,0.99884033203125,-2.213134765625,-6.62445068359375,-1.68975830078125,1,1.0,1.0,1.0,1.0,10.00
2024-10-11 20:18:03.413,0.41843265,0.32766268,0.75455004,0.35603863,0.68959886,0.025488663,0.5004586,-0.07378404,0.6869567,0.1396223,0.13486496,0.57072264,0.6058285,0.15210615,0.13248374,0.6640708,0.060994077,-0.17036611,-0.24899535,0.105408706,789.7436,802.23444,803.0403,793.36993,983.1502,-0.2076416015625,0.091796875,0.99884033203125,-2.213134765625,-6.62445068359375,-1.68975830078125,1,1.0,1.0,1.0,1.0,10.00
2024-10-11 20:18:03.415,0.41843265,0.5377604,0.80383766,0.35603863,0.68959886,0.11004189,0.5345423,-0.07378404,0.6869567,0.27414072,0.14073953,0.57072264,0.6058285,0.13303609,0.13630013,0.6640708,0.060994077,-0.12558833,-0.24263571,0.105408706,793.7729,804.65204,802.6374,797.3993,866.7033,-0.2076416015625,0.091796875,0.99884033203125,-2.213134765625,-6.62445068359375,-1.68975830078125,1,1.0,1.0,1.0,1.0,10.00
2024-10-11 20:18:03.420,0.41843265,0.5377604,0.80383766,0.35603863,0.68959886,0.11004189,0.5345423,-0.07378404,0.6869567,0.27414072,0.14073953,0.57072264,0.6058285,0.13303609,0.13630013,0.6640708,0.060994077,-0.12558833,-0.24263571,0.105408706,794.9817,797.3993,803.0403,803.8461,900.54944,-0.2076416015625,0.091796875,0.99884033203125,-2.213134765625,-6.62445068359375,-1.68975830078125,1,1.0,1.0,1.0,1.0,10.00
2024-10-11 20:18:03.421,0.41843265,0.5377604,0.80383766,0.35603863,0.68959886,0.11004189,0.5345423,-0.07378404,0.6869567,0.27414072,0.14073953,0.57072264,0.6058285,0.13303609,0.13630013,0.6640708,0.060994077,-0.12558833,-0.24263571,0.105408706,795.38464,793.7729,802.23444,798.20514,942.0513,-0.2076416015625,0.091796875,0.99884033203125,-2.213134765625,-6.62445068359375,-1.68975830078125,1,1.0,1.0,1.0,1.0,10.00
2024-10-11 20:18:03.422,0.41843265,0.5377604,0.80383766,0.35603863,0.68959886,0.11004189,0.5345423,-0.07378404,0.6869567,0.27414072,0.14073953,0.57072264,0.6058285,0.13303609,0.13630013,0.6640708,0.060994077,-0.12558833,-0.24263571,0.105408706,794.57874,803.0403,802.23444,797.3993,737.3626,-0.2076416015625,0.091796875,0.99884033203125,-2.213134765625,-6.62445068359375,-1.68975830078125,1,1.0,1.0,1.0,1.0,10.00
2024-10-11 20:18:03.424,0.41843265,0.5377604,0.80383766,0.35603863,0.68959886,0.11004189,0.5345423,-0.07378404,0.6869567,0.27414072,0.14073953,0.57072264,0.6058285,0.13303609,0.13630013,0.6640708,0.060994077,-0.12558833,-0.24263571,0.105408706,794.9817,801.02563,805.8608,800.6227,690.6227,-0.2076416015625,0.091796875,0.99884033203125,-2.213134765625,-6.62445068359375,-1.68975830078125,1,1.0,1.0,1.0,1.0,10.00
2024-10-11 20:18:03.460,0.41843265,0.5377604,0.80383766,0.35603863,0.68959886,0.11004189,0.5345423,-0.07378404,0.6869567,0.27414072,0.14073953,0.57072264,0.6058285,0.13303609,0.13630013,0.6640708,0.060994077,-0.12558833,-0.24263571,0.105408706,796.1905,795.78754,805.8608,797.8022,923.1135,-0.2127685546875,0.08197021484375,0.9970703125,-5.00946044921875,-21.48834228515625,-13.749847412109375,1,1.0,1.0,1.0,1.0,10.00
2024-10-11 20:18:03.462,0.41843265,0.5377604,0.80383766,0.35603863,0.68959886,0.11004189,0.5345423,-0.07378404,0.6869567,0.27414072,0.14073953,0.57072264,0.6058285,0.13303609,0.13630013,0.6640708,0.060994077,-0.12558833,-0.24263571,0.105408706,792.1612,796.99634,802.23444,793.36993,994.43225,-0.2127685546875,0.08197021484375,0.9970703125,-5.00946044921875,-21.48834228515625,-13.749847412109375,1,1.0,1.0,1.0,1.0,10.00
2024-10-11 20:18:03.463,0.41843265,0.5377604,0.80383766,0.35603863,0.68959886,0.11004189,0.5345423,-0.07378404,0.6869567,0.27414072,0.14073953,0.57072264,0.6058285,0.13303609,0.13630013,0.6640708,0.060994077,-0.12558833,-0.24263571,0.105408706,795.38464,801.02563,801.4286,790.9524,753.0769,-0.2127685546875,0.08197021484375,0.9970703125,-5.00946044921875,-21.48834228515625,-13.749847412109375,1,1.0,1.0,1.0,1.0,10.00
2024-10-11 20:18:03.464,0.41843265,0.5377604,0.80383766,0.35603863,0.68959886,0.11004189,0.5345423,-0.07378404,0.6869567,0.27414072,0.14073953,0.57072264,0.6058285,0.13303609,0.13630013,0.6640708,0.060994077,-0.12558833,-0.24263571,0.105408706,800.6227,801.4286,801.8315,792.5641,653.1502,-0.2127685546875,0.08197021484375,0.9970703125,-5.00946044921875,-21.48834228515625,-13.749847412109375,1,1.0,1.0,1.0,1.0,10.00
2024-10-11 20:18:03.466,0.41843265,0.5377604,0.80383766,0.35603863,0.68959886,0.11004189,0.5345423,-0.07378404,0.6869567,0.27414072,0.14073953,0.57072264,0.6058285,0.13303609,0.13630013,0.6640708,0.060994077,-0.12558833,-0.24263571,0.105408706,798.60803,794.57874,801.4286,801.8315,930.3663,-0.2127685546875,0.08197021484375,0.9970703125,-5.00946044921875,-21.48834228515625,-13.749847412109375,1,1.0,1.0,1.0,1.0,10.00
2024-10-11 20:18:03.467,0.41843265,0.5377604,0.80383766,0.35603863,0.68959886,0.11004189,0.5345423,-0.07378404,0.6869567,0.27414072,0.14073953,0.57072264,0.6058285,0.13303609,0.13630013,0.6640708,0.060994077,-0.12558833,-0.24263571,0.105408706,799.011,797.3993,796.99634,805.8608,1058.4982,-0.2127685546875,0.08197021484375,0.9970703125,-5.00946044921875,-21.48834228515625,-13.749847412109375,1,1.0,1.0,1.0,1.0,10.00
2024-10-11 20:18:03.468,0.41843265,0.5377604,0.80383766,0.35603863,0.68959886,0.11004189,0.5345423,-0.07378404,0.6869567,0.27414072,0.14073953,0.57072264,0.6058285,0.13303609,0.13630013,0.6640708,0.060994077,-0.12558833,-0.24263571,0.105408706,802.6374,803.0403,796.5934,802.6374,872.74725,-0.2127685546875,0.08197021484375,0.9970703125,-5.00946044921875,-21.48834228515625,-13.749847412109375,1,1.0,1.0,1.0,1.0,10.00
2024-10-11 20:18:03.469,0.41843265,0.5377604,0.80383766,0.35603863,0.68959886,0.11004189,0.5345423,-0.07378404,0.6869567,0.27414072,0.14073953,0.57072264,0.6058285,0.13303609,0.13630013,0.6640708,0.060994077,-0.12558833,-0.24263571,0.105408706,802.6374,799.011,799.41394,803.8461,846.9597,-0.2127685546875,0.08197021484375,0.9970703125,-5.00946044921875,-21.48834228515625,-13.749847412109375,1,1.0,1.0,1.0,1.0,10.00
2024-10-11 20:18:03.470,0.41843265,0.5377604,0.80383766,0.35603863,0.68959886,0.11004189,0.5345423,-0.07378404,0.6869567,0.27414072,0.14073953,0.57072264,0.6058285,0.13303609,0.13630013,0.6640708,0.060994077,-0.12558833,-0.24263571,0.105408706,802.23444,797.8022,802.6374,803.0403,1033.5165,-0.2127685546875,0.08197021484375,0.9970703125,-5.00946044921875,-21.48834228515625,-13.749847412109375,1,1.0,1.0,1.0,1.0,10.00
2024-10-11 20:18:03.471,0.41843265,0.5377604,0.80383766,0.35603863,0.68959886,0.11004189,0.5345423,-0.07378404,0.6869567,0.27414072,0.14073953,0.57072264,0.6058285,0.13303609,0.13630013,0.6640708,0.060994077,-0.12558833,-0.24263571,0.105408706,795.78754,803.0403,804.2491,789.7436,987.1795,-0.2127685546875,0.08197021484375,0.9970703125,-5.00946044921875,-21.48834228515625,-13.749847412109375,1,1.0,1.0,1.0,1.0,10.00
2024-10-11 20:18:03.471,0.41843265,0.5377604,0.80383766,0.35603863,0.68959886,0.11004189,0.5345423,-0.07378404,0.6869567,0.27414072,0.14073953,0.57072264,0.6058285,0.13303609,0.13630013,0.6640708,0.060994077,-0.12558833,-0.24263571,0.105408706,789.7436,794.57874,811.50183,788.1319,758.315,-0.2127685546875,0.08197021484375,0.9970703125,-5.00946044921875,-21.48834228515625,-13.749847412109375,1,1.0,1.0,1.0,1.0,10.00
2024-10-11 20:18:03.472,0.41843265,0.5377604,0.80383766,0.35603863,0.68959886,0.11004189,0.5345423,-0.07378404,0.6869567,0.27414072,0.14073953,0.57072264,0.6058285,0.13303609,0.13630013,0.6640708,0.060994077,-0.12558833,-0.24263571,0.105408706,799.011,785.31134,815.5311,806.6667,611.6484,-0.2127685546875,0.08197021484375,0.9970703125,-5.00946044921875,-21.48834228515625,-13.749847412109375,1,1.0,1.0,1.0,1.0,10.00
2024-10-11 20:18:03.473,0.41843265,0.5377604,0.80383766,0.35603863,0.68959886,0.11004189,0.5345423,-0.07378404,0.6869567,0.27414072,0.14073953,0.57072264,0.6058285,0.13303609,0.13630013,0.6640708,0.060994077,-0.12558833,-0.24263571,0.105408706,810.696,803.44324,799.81683,815.5311,1009.7436,-0.2127685546875,0.08197021484375,0.9970703125,-5.00946044921875,-21.48834228515625,-13.749847412109375,1,1.0,1.0,1.0,1.0,10.00
2024-10-11 20:18:03.475,0.41843265,0.5377604,0.80383766,0.35603863,0.68959886,0.11004189,0.5345423,-0.07378404,0.6869567,0.27414072,0.14073953,0.57072264,0.6058285,0.13303609,0.13630013,0.6640708,0.060994077,-0.12558833,-0.24263571,0.105408706,802.23444,812.3077,793.36993,803.0403,1299.0476,-0.2127685546875,0.08197021484375,0.9970703125,-5.00946044921875,-21.48834228515625,-13.749847412109375,1,1.0,1.0,1.0,1.0,10.00
2024-10-11 20:18:03.476,0.41843265,0.5377604,0.80383766,0.35603863,0.68959886,0.11004189,0.5345423,-0.07378404,0.6869567,0.27414072,0.14073953,0.57072264,0.6058285,0.13303609,0.13630013,0.6640708,0.060994077,-0.12558833,-0.24263571,0.105408706,788.5348,805.8608,794.17584,787.326,853.4066,-0.2127685546875,0.08197021484375,0.9970703125,-5.00946044921875,-21.48834228515625,-13.749847412109375,1,1.0,1.0,1.0,1.0,10.00
2024-10-11 20:18:03.477,0.41843265,0.5377604,0.80383766,0.35603863,0.68959886,0.11004189,0.5345423,-0.07378404,0.6869567,0.27414072,0.14073953,0.57072264,0.6058285,0.13303609,0.13630013,0.6640708,0.060994077,-0.12558833,-0.24263571,0.105408706,794.57874,797.8022,794.57874,794.9817,794.9817,-0.2127685546875,0.08197021484375,0.9970703125,-5.00946044921875,-21.48834228515625,-13.749847412109375,1,1.0,1.0,1.0,1.0,10.00
2024-10-11 20:18:03.478,0.41843265,0.5377604,0.80383766,0.35603863,0.68959886,0.11004189,0.5345423,-0.07378404,0.6869567,0.27414072,0.14073953,0.57072264,0.6058285,0.13303609,0.13630013,0.6640708,0.060994077,-0.12558833,-0.24263571,0.105408706,807.47253,805.4579,793.36993,811.0989,931.978,-0.2127685546875,0.08197021484375,0.9970703125,-5.00946044921875,-21.48834228515625,-13.749847412109375,1,1.0,1.0,1.0,1.0,10.00
2024-10-11 20:18:03.479,0.41843265,0.5377604,0.80383766,0.35603863,0.68959886,0.11004189,0.5345423,-0.07378404,0.6869567,0.27414072,0.14073953,0.57072264,0.6058285,0.13303609,0.13630013,0.6640708,0.060994077,-0.12558833,-0.24263571,0.105408706,798.60803,819.15753,787.326,797.8022,845.7509,-0.2127685546875,0.08197021484375,0.9970703125,-5.00946044921875,-21.48834228515625,-13.749847412109375,1,1.0,1.0,1.0,1.0,10.00
2024-10-11 20:18:03.480,0.41843265,0.5377604,0.80383766,0.35603863,0.68959886,0.11004189,0.5345423,-0.07378404,0.6869567,0.27414072,0.14073953,0.57072264,0.6058285,0.13303609,0.13630013,0.6640708,0.060994077,-0.12558833,-0.24263571,0.105408706,780.87915,816.337,784.5055,780.87915,838.9011,-0.2127685546875,0.08197021484375,0.9970703125,-5.00946044921875,-21.48834228515625,-13.749847412109375,1,1.0,1.0,1.0,1.0,10.00
2024-10-11 20:18:03.480,0.41843265,0.5377604,0.80383766,0.35603863,0.68959886,0.11004189,0.5345423,-0.07378404,0.6869567,0.27414072,0.14073953,0.57072264,0.6058285,0.13303609,0.13630013,0.6640708,0.060994077,-0.12558833,-0.24263571,0.105408706,774.0293,810.696,776.8498,776.8498,797.8022,-0.2127685546875,0.08197021484375,0.9970703125,-5.00946044921875,-21.48834228515625,-13.749847412109375,1,1.0,1.0,1.0,1.0,10.00
2024-10-11 20:18:03.481,0.41843265,0.5377604,0.80383766,0.35603863,0.68959886,0.11004189,0.5345423,-0.07378404,0.6869567,0.27414072,0.14073953,0.57072264,0.6058285,0.13303609,0.13630013,0.6640708,0.060994077,-0.12558833,-0.24263571,0.105408706,774.83514,814.3223,773.6264,773.6264,850.18317,-0.2127685546875,0.08197021484375,0.9970703125,-5.00946044921875,-21.48834228515625,-13.749847412109375,1,1.0,1.0,1.0,1.0,10.00
2024-10-11 20:18:03.482,0.41843265,0.665449,0.8374161,0.35603863,0.68959886,0.18195903,0.5482176,-0.07378404,0.6869567,0.29024732,0.17435242,0.57072264,0.6058285,0.12397778,0.13977826,0.6640708,0.060994077,-0.10233794,-0.24056304,0.105408706,769.19415,819.5604,777.25275,772.8205,682.5641,-0.2127685546875,0.08197021484375,0.9970703125,-5.00946044921875,-21.48834228515625,-13.749847412109375,1,1.0,1.0,1.0,1.0,10.00
2024-10-11 20:18:03.487,0.41843265,0.665449,0.8374161,0.35603863,0.68959886,0.18195903,0.5482176,-0.07378404,0.6869567,0.29024732,0.17435242,0.57072264,0.6058285,0.12397778,0.13977826,0.6640708,0.060994077,-0.10233794,-0.24056304,0.105408706,769.19415,817.5458,772.8205,775.2381,655.9707,-0.2127685546875,0.08197021484375,0.9970703125,-5.00946044921875,-21.48834228515625,-13.749847412109375,1,1.0,1.0,1.0,1.0,10.00
2024-10-11 20:18:03.488,0.41843265,0.665449,0.8374161,0.35603863,0.68959886,0.18195903,0.5482176,-0.07378404,0.6869567,0.29024732,0.17435242,0.57072264,0.6058285,0.12397778,0.13977826,0.6640708,0.060994077,-0.10233794,-0.24056304,0.105408706,779.67035,819.5604,769.19415,771.2088,806.6667,-0.2127685546875,0.08197021484375,0.9970703125,-5.00946044921875,-21.48834228515625,-13.749847412109375,1,1.0,1.0,1.0,1.0,10.00
2024-10-11 20:18:03.489,0.41843265,0.665449,0.8374161,0.35603863,0.68959886,0.18195903,0.5482176,-0.07378404,0.6869567,0.29024732,0.17435242,0.57072264,0.6058285,0.12397778,0.13977826,0.6640708,0.060994077,-0.10233794,-0.24056304,0.105408706,786.1172,821.1722,771.6117,763.95605,835.6777,-0.16650390625,0.07611083984375,0.98895263671875,-5.016937255859375,-39.79156494140625,-28.66607666015625,1,1.0,1.0,1.0,1.0,10.00
2024-10-11 20:18:03.490,0.41843265,0.665449,0.8374161,0.35603863,0.68959886,0.18195903,0.5482176,-0.07378404,0.6869567,0.29024732,0.17435242,0.57072264,0.6058285,0.12397778,0.13977826,0.6640708,0.060994077,-0.10233794,-0.24056304,0.105408706,786.1172,823.5897,771.6117,767.5824,746.2271,-0.16650390625,0.07611083984375,0.98895263671875,-5.016937255859375,-39.79156494140625,-28.66607666015625,1,1.0,1.0,1.0,1.0,10.00
2024-10-11 20:18:03.491,0.41843265,0.665449,0.8374161,0.35603863,0.68959886,0.18195903,0.5482176,-0.07378404,0.6869567,0.29024732,0.17435242,0.57072264,0.6058285,0.12397778,0.13977826,0.6640708,0.060994077,-0.10233794,-0.24056304,0.105408706,783.2967,823.9927,771.2088,767.1795,684.17584,-0.16650390625,0.07611083984375,0.98895263671875,-5.016937255859375,-39.79156494140625,-28.66607666015625,1,1.0,1.0,1.0,1.0,10.00
2024-10-11 20:18:03.492,0.41843265,0.665449,0.8374161,0.35603863,0.68959886,0.18195903,0.5482176,-0.07378404,0.6869567,0.29024732,0.17435242,0.57072264,0.6058285,0.12397778,0.13977826,0.6640708,0.060994077,-0.10233794,-0.24056304,0.105408706,777.6557,814.7253,767.1795,763.1502,861.06226,-0.16650390625,0.07611083984375,0.98895263671875,-5.016937255859375,-39.79156494140625,-28.66607666015625,1,1.0,1.0,1.0,1.0,10.00
2024-10-11 20:18:03.493,0.41843265,0.665449,0.8374161,0.35603863,0.68959886,0.18195903,0.5482176,-0.07378404,0.6869567,0.29024732,0.17435242,0.57072264,0.6058285,0.12397778,0.13977826,0.6640708,0.060994077,-0.10233794,-0.24056304,0.105408706,775.2381,813.91943,761.53845,761.53845,836.8865,-0.16650390625,0.07611083984375,0.98895263671875,-5.016937255859375,-39.79156494140625,-28.66607666015625,1,1.0,1.0,1.0,1.0,10.00
2024-10-11 20:18:03.494,0.41843265,0.665449,0.8374161,0.35603863,0.68959886,0.18195903,0.5482176,-0.07378404,0.6869567,0.29024732,0.17435242,0.57072264,0.6058285,0.12397778,0.13977826,0.6640708,0.060994077,-0.10233794,-0.24056304,0.105408706,759.12085,815.9341,756.30035,748.24176,697.8755,-0.16650390625,0.07611083984375,0.98895263671875,-5.016937255859375,-39.79156494140625,-28.66607666015625,1,1.0,1.0,1.0,1.0,10.00
2024-10-11 20:18:03.495,0.41843265,0.665449,0.8374161,0.35603863,0.68959886,0.18195903,0.5482176,-0.07378404,0.6869567,0.29024732,0.17435242,0.57072264,0.6058285,0.12397778,0.13977826,0.6640708,0.060994077,-0.10233794,-0.24056304,0.105408706,746.63007,820.3663,753.47986,754.68866,896.9231,-0.16650390625,0.07611083984375,0.98895263671875,-5.016937255859375,-39.79156494140625,-28.66607666015625,1,1.0,1.0,1.0,1.0,10.00
2024-10-11 20:18:03.496,0.41843265,0.665449,0.8374161,0.35603863,0.68959886,0.18195903,0.5482176,-0.07378404,0.6869567,0.29024732,0.17435242,0.57072264,0.6058285,0.12397778,0.13977826,0.6640708,0.060994077,-0.10233794,-0.24056304,0.105408706,746.2271,814.3223,757.9121,763.1502,1083.8828,-0.16650390625,0.07611083984375,0.98895263671875,-5.016937255859375,-39.79156494140625,-28.66607666015625,1,1.0,1.0,1.0,1.0,10.00
2024-10-11 20:18:03.497,0.41843265,0.665449,0.8374161,0.35603863,0.68959886,0.18195903,0.5482176,-0.07378404,0.6869567,0.29024732,0.17435242,0.57072264,0.6058285,0.12397778,0.13977826,0.6640708,0.060994077,-0.10233794,-0.24056304,0.105408706,741.39197,809.0842,755.4945,747.8388,865.89746,-0.16650390625,0.07611083984375,0.98895263671875,-5.016937255859375,-39.79156494140625,-28.66607666015625,1,1.0,1.0,1.0,1.0,10.00
2024-10-11 20:18:03.498,0.41843265,0.665449,0.8374161,0.35603863,0.68959886,0.18195903,0.5482176,-0.07378404,0.6869567,0.29024732,0.17435242,0.57072264,0.6058285,0.12397778,0.13977826,0.6640708,0.060994077,-0.10233794,-0.24056304,0.105408706,741.39197,816.7399,752.27106,732.1245,595.5311,-0.16650390625,0.07611083984375,0.98895263671875,-5.016937255859375,-39.79156494140625,-28.66607666015625,1,1.0,1.0,1.0,1.0,10.00
2024-10-11 20:18:03.499,0.41843265,0.665449,0.8374161,0.35603863,0.68959886,0.18195903,0.5482176,-0.07378404,0.6869567,0.29024732,0.17435242,0.57072264,0.6058285,0.12397778,0.13977826,0.6640708,0.060994077,-0.10233794,-0.24056304,0.105408706,753.8828,818.7546,753.47986,735.7509,764.35895,-0.16650390625,0.07611083984375,0.98895263671875,-5.016937255859375,-39.79156494140625,-28.66607666015625,1,1.0,1.0,1.0,1.0,10.00
2024-10-11 20:18:03.500,0.41843265,0.665449,0.8374161,0.35603863,0.68959886,0.18195903,0.5482176,-0.07378404,0.6869567,0.29024732,0.17435242,0.57072264,0.6058285,0.12397778,0.13977826,0.6640708,0.060994077,-0.10233794,-0.24056304,0.105408706,758.71796,815.12823,751.4652,738.5714,1092.7472,-0.16650390625,0.07611083984375,0.98895263671875,-5.016937255859375,-39.79156494140625,-28.66607666015625,1,1.0,1.0,1.0,1.0,10.00
2024-10-11 20:18:03.531,0.41843265,0.665449,0.8374161,0.35603863,0.68959886,0.18195903,0.5482176,-0.07378404,0.6869567,0.29024732,0.17435242,0.57072264,0.6058285,0.12397778,0.13977826,0.6640708,0.060994077,-0.10233794,-0.24056304,0.105408706,746.2271,812.3077,751.8681,726.08057,899.34064,-0.0484619140625,0.0679931640625,1.00830078125,-6.930999755859375,-39.739227294921875,-43.17108154296875,1,1.0,1.0,1.0,1.0,10.00
2024-10-11 20:18:03.532,0.41843265,0.665449,0.8374161,0.35603863,0.68959886,0.18195903,0.5482176,-0.07378404,0.6869567,0.29024732,0.17435242,0.57072264,0.6058285,0.12397778,0.13977826,0.6640708,0.060994077,-0.10233794,-0.24056304,0.105408706,756.30035,805.8608,751.8681,731.7216,541.13556,-0.0484619140625,0.0679931640625,1.00830078125,-6.930999755859375,-39.739227294921875,-43.17108154296875,1,1.0,1.0,1.0,1.0,10.00
2024-10-11 20:18:03.533,0.41843265,0.665449,0.8374161,0.35603863,0.68959886,0.18195903,0.5482176,-0.07378404,0.6869567,0.29024732,0.17435242,0.57072264,0.6058285,0.12397778,0.13977826,0.6640708,0.060994077,-0.10233794,-0.24056304,0.105408706,767.1795,803.8461,753.0769,742.6007,614.4689,-0.0484619140625,0.0679931640625,1.00830078125,-6.930999755859375,-39.739227294921875,-43.17108154296875,1,1.0,1.0,1.0,1.0,10.00
2024-10-11 20:18:03.533,0.41843265,0.665449,0.8374161,0.35603863,0.68959886,0.18195903,0.5482176,-0.07378404,0.6869567,0.29024732,0.17435242,0.57072264,0.6058285,0.12397778,0.13977826,0.6640708,0.060994077,-0.10233794,-0.24056304,0.105408706,751.4652,808.68134,755.4945,735.34796,719.6337,-0.0484619140625,0.0679931640625,1.00830078125,-6.930999755859375,-39.739227294921875,-43.17108154296875,1,1.0,1.0,1.0,1.0,10.00
2024-10-11 20:18:03.534,0.41843265,0.665449,0.8374161,0.35603863,0.68959886,0.18195903,0.5482176,-0.07378404,0.6869567,0.29024732,0.17435242,0.57072264,0.6058285,0.12397778,0.13977826,0.6640708,0.060994077,-0.10233794,-0.24056304,0.105408706,754.2857,811.9048,755.4945,740.18317,687.8022,-0.0484619140625,0.0679931640625,1.00830078125,-6.930999755859375,-39.739227294921875,-43.17108154296875,1,1.0,1.0,1.0,1.0,10.00
2024-10-11 20:18:03.534,0.41843265,0.665449,0.8374161,0.35603863,0.68959886,0.18195903,0.5482176,-0.07378404,0.6869567,0.29024732,0.17435242,0.57072264,0.6058285,0.12397778,0.13977826,0.6640708,0.060994077,-0.10233794,-0.24056304,0.105408706,746.2271,817.1429,755.4945,747.03296,734.5421,-0.0484619140625,0.0679931640625,1.00830078125,-6.930999755859375,-39.739227294921875,-43.17108154296875,1,1.0,1.0,1.0,1.0,10.00
2024-10-11 20:18:03.535,0.41843265,0.665449,0.8374161,0.35603863,0.68959886,0.18195903,0.5482176,-0.07378404,0.6869567,0.29024732,0.17435242,0.57072264,0.6058285,0.12397778,0.13977826,0.6640708,0.060994077,-0.10233794,-0.24056304,0.105408706,734.1392,812.3077,757.50916,754.2857,933.1868,-0.0484619140625,0.0679931640625,1.00830078125,-6.930999755859375,-39.739227294921875,-43.17108154296875,1,1.0,1.0,1.0,1.0,10.00
2024-10-11 20:18:03.536,0.41843265,0.665449,0.8374161,0.35603863,0.68959886,0.18195903,0.5482176,-0.07378404,0.6869567,0.29024732,0.17435242,0.57072264,0.6058285,0.12397778,0.13977826,0.6640708,0.060994077,-0.10233794,-0.24056304,0.105408706,748.6447,807.47253,759.92676,756.30035,987.98535,-0.0484619140625,0.0679931640625,1.00830078125,-6.930999755859375,-39.739227294921875,-43.17108154296875,1,1.0,1.0,1.0,1.0,10.00
2024-10-11 20:18:03.537,0.41843265,0.665449,0.8374161,0.35603863,0.68959886,0.18195903,0.5482176,-0.07378404,0.6869567,0.29024732,0.17435242,0.57072264,0.6058285,0.12397778,0.13977826,0.6640708,0.060994077,-0.10233794,-0.24056304,0.105408706,766.3736,806.26373,762.74725,747.8388,804.2491,-0.0484619140625,0.0679931640625,1.00830078125,-6.930999755859375,-39.739227294921875,-43.17108154296875,1,1.0,1.0,1.0,1.0,10.00
2024-10-11 20:18:03.537,0.41843265,0.665449,0.8374161,0.35603863,0.68959886,0.18195903,0.5482176,-0.07378404,0.6869567,0.29024732,0.17435242,0.57072264,0.6058285,0.12397778,0.13977826,0.6640708,0.060994077,-0.10233794,-0.24056304,0.105408706,766.77655,803.8461,765.16486,740.58606,659.19415,-0.0484619140625,0.0679931640625,1.00830078125,-6.930999755859375,-39.739227294921875,-43.17108154296875,1,1.0,1.0,1.0,1.0,10.00
2024-10-11 20:18:03.538,0.41843265,0.665449,0.8374161,0.35603863,0.68959886,0.18195903,0.5482176,-0.07378404,0.6869567,0.29024732,0.17435242,0.57072264,0.6058285,0.12397778,0.13977826,0.6640708,0.060994077,-0.10233794,-0.24056304,0.105408706,761.9414,804.2491,764.7619,741.39197,873.5531,-0.0484619140625,0.0679931640625,1.00830078125,-6.930999755859375,-39.739227294921875,-43.17108154296875,1,1.0,1.0,1.0,1.0,10.00
2024-10-11 20:18:03.538,0.41843265,0.73352766,0.86288404,0.35603863,0.68959886,0.22417703,0.530011,-0.07378404,0.6869567,0.2968462,0.21431835,0.57072264,0.6058285,0.12066722,0.14141314,0.6640708,0.060994077,-0.09700956,-0.24721682,0.105408706,765.16486,804.2491,763.5531,747.03296,1224.5055,-0.0484619140625,0.0679931640625,1.00830078125,-6.930999755859375,-39.739227294921875,-43.17108154296875,1,1.0,1.0,1.0,1.0,10.00
2024-10-11 20:18:03.627,0.41843265,0.73352766,0.86288404,0.35603863,0.68959886,0.22417703,0.530011,-0.07378404,0.6869567,0.2968462,0.21431835,0.57072264,0.6058285,0.12066722,0.14141314,0.6640708,0.060994077,-0.09700956,-0.24721682,0.105408706,757.1062,803.8461,764.7619,742.1978,916.26373,0.06256103515625,0.05328369140625,1.02276611328125,-7.334747314453125,-20.538787841796875,-48.40484619140625,1,1.0,1.0,1.0,1.0,10.00
2024-10-11 20:18:03.628,0.41843265,0.73352766,0.86288404,0.35603863,0.68959886,0.22417703,0.530011,-0.07378404,0.6869567,0.2968462,0.21431835,0.57072264,0.6058285,0.12066722,0.14141314,0.6640708,0.060994077,-0.09700956,-0.24721682,0.105408706,767.5824,804.2491,766.77655,753.8828,722.4542,0.06256103515625,0.05328369140625,1.02276611328125,-7.334747314453125,-20.538787841796875,-48.40484619140625,1,1.0,1.0,1.0,1.0,10.00
2024-10-11 20:18:03.628,0.41843265,0.73352766,0.86288404,0.35603863,0.68959886,0.22417703,0.530011,-0.07378404,0.6869567,0.2968462,0.21431835,0.57072264,0.6058285,0.12066722,0.14141314,0.6640708,0.060994077,-0.09700956,-0.24721682,0.105408706,786.52014,799.41394,773.6264,769.59705,853.8095,0.06256103515625,0.05328369140625,1.02276611328125,-7.334747314453125,-20.538787841796875,-48.40484619140625,1,1.0,1.0,1.0,1.0,10.00
2024-10-11 20:18:03.629,0.41843265,0.73352766,0.86288404,0.35603863,0.68959886,0.22417703,0.530011,-0.07378404,0.6869567,0.2968462,0.21431835,0.57072264,0.6058285,0.12066722,0.14141314,0.6640708,0.060994077,-0.09700956,-0.24721682,0.105408706,783.69965,794.17584,777.25275,767.98535,871.13556,0.06256103515625,0.05328369140625,1.02276611328125,-7.334747314453125,-20.538787841796875,-48.40484619140625,1,1.0,1.0,1.0,1.0,10.00
2024-10-11 20:18:03.630,0.41843265,0.73352766,0.86288404,0.35603863,0.68959886,0.22417703,0.530011,-0.07378404,0.6869567,0.2968462,0.21431835,0.57072264,0.6058285,0.12066722,0.14141314,0.6640708,0.060994077,-0.09700956,-0.24721682,0.105408706,784.10254,801.02563,773.22345,759.92676,821.978,0.06256103515625,0.05328369140625,1.02276611328125,-7.334747314453125,-20.538787841796875,-48.40484619140625,1,1.0,1.0,1.0,1.0,10.00
2024-10-11 20:18:03.630,0.41843265,0.73352766,0.86288404,0.35603863,0.68959886,0.22417703,0.530011,-0.07378404,0.6869567,0.2968462,0.21431835,0.57072264,0.6058285,0.12066722,0.14141314,0.6640708,0.060994077,-0.09700956,-0.24721682,0.105408706,799.011,807.8755,772.8205,755.4945,848.1685,0.06256103515625,0.05328369140625,1.02276611328125,-7.334747314453125,-20.538787841796875,-48.40484619140625,1,1.0,1.0,1.0,1.0,10.00
2024-10-11 20:18:03.631,0.41843265,0.73352766,0.86288404,0.35603863,0.68959886,0.22417703,0.530011,-0.07378404,0.6869567,0.2968462,0.21431835,0.57072264,0.6058285,0.12066722,0.14141314,0.6640708,0.060994077,-0.09700956,-0.24721682,0.105408706,807.47253,804.65204,772.8205,763.1502,1095.1648,0.06256103515625,0.05328369140625,1.02276611328125,-7.334747314453125,-20.538787841796875,-48.40484619140625,1,1.0,1.0,1.0,1.0,10.00
2024-10-11 20:18:03.632,0.41843265,0.73352766,0.86288404,0.35603863,0.68959886,0.22417703,0.530011,-0.07378404,0.6869567,0.2968462,0.21431835,0.57072264,0.6058285,0.12066722,0.14141314,0.6640708,0.060994077,-0.09700956,-0.24721682,0.105408706,809.4872,808.2784,780.07324,769.59705,1089.9268,0.06256103515625,0.05328369140625,1.02276611328125,-7.334747314453125,-20.538787841796875,-48.40484619140625,1,1.0,1.0,1.0,1.0,10.00
2024-10-11 20:18:03.632,0.41843265,0.73352766,0.86288404,0.35603863,0.68959886,0.22417703,0.530011,-0.07378404,0.6869567,0.2968462,0.21431835,0.57072264,0.6058285,0.12066722,0.14141314,0.6640708,0.060994077,-0.09700956,-0.24721682,0.105408706,821.978,810.293,786.9231,768.3883,744.21246,0.06256103515625,0.05328369140625,1.02276611328125,-7.334747314453125,-20.538787841796875,-48.40484619140625,1,1.0,1.0,1.0,1.0,10.00
2024-10-11 20:18:03.633,0.41843265,0.73352766,0.86288404,0.35603863,0.68959886,0.22417703,0.530011,-0.07378404,0.6869567,0.2968462,0.21431835,0.57072264,0.6058285,0.12066722,0.14141314,0.6640708,0.060994077,-0.09700956,-0.24721682,0.105408706,814.7253,805.8608,783.2967,767.5824,670.4762,0.06256103515625,0.05328369140625,1.02276611328125,-7.334747314453125,-20.538787841796875,-48.40484619140625,1,1.0,1.0,1.0,1.0,10.00
2024-10-11 20:18:03.634,0.41843265,0.73352766,0.86288404,0.35603863,0.68959886,0.22417703,0.530011,-0.07378404,0.6869567,0.2968462,0.21431835,0.57072264,0.6058285,0.12066722,0.14141314,0.6640708,0.060994077,-0.09700956,-0.24721682,0.105408706,804.65204,803.44324,781.28204,770.0,778.0586,0.06256103515625,0.05328369140625,1.02276611328125,-7.334747314453125,-20.538787841796875,-48.40484619140625,1,1.0,1.0,1.0,1.0,10.00
2024-10-11 20:18:03.634,0.41843265,0.73352766,0.86288404,0.35603863,0.68959886,0.22417703,0.530011,-0.07378404,0.6869567,0.2968462,0.21431835,0.57072264,0.6058285,0.12066722,0.14141314,0.6640708,0.060994077,-0.09700956,-0.24721682,0.105408706,794.57874,799.81683,786.1172,778.0586,794.17584,0.06256103515625,0.05328369140625,1.02276611328125,-7.334747314453125,-20.538787841796875,-48.40484619140625,1,1.0,1.0,1.0,1.0,10.00
2024-10-11 20:18:03.662,0.41843265,0.73352766,0.86288404,0.35603863,0.68959886,0.22417703,0.530011,-0.07378404,0.6869567,0.2968462,0.21431835,0.57072264,0.6058285,0.12066722,0.14141314,0.6640708,0.060994077,-0.09700956,-0.24721682,0.105408706,784.90845,800.2198,789.34064,787.326,753.0769,0.07342529296875,0.033935546875,1.0091552734375,-9.024505615234375,-5.884246826171875,-43.55987548828125,1,1.0,1.0,1.0,1.0,10.00
2024-10-11 20:18:03.663,0.41843265,0.73352766,0.86288404,0.35603863,0.68959886,0.22417703,0.530011,-0.07378404,0.6869567,0.2968462,0.21431835,0.57072264,0.6058285,0.12066722,0.14141314,0.6640708,0.060994077,-0.09700956,-0.24721682,0.105408706,785.31134,797.3993,788.93774,790.14655,730.9158,0.07342529296875,0.033935546875,1.0091552734375,-9.024505615234375,-5.884246826171875,-43.55987548828125,1,1.0,1.0,1.0,1.0,10.00
2024-10-11 20:18:03.664,0.41843265,0.73352766,0.86288404,0.35603863,0.68959886,0.22417703,0.530011,-0.07378404,0.6869567,0.2968462,0.21431835,0.57072264,0.6058285,0.12066722,0.14141314,0.6640708,0.060994077,-0.09700956,-0.24721682,0.105408706,782.8938,794.17584,790.14655,785.7143,702.71063,0.07342529296875,0.033935546875,1.0091552734375,-9.024505615234375,-5.884246826171875,-43.55987548828125,1,1.0,1.0,1.0,1.0,10.00
2024-10-11 20:18:03.665,0.41843265,0.73352766,0.86288404,0.35603863,0.68959886,0.22417703,0.530011,-0.07378404,0.6869567,0.2968462,0.21431835,0.57072264,0.6058285,0.12066722,0.14141314,0.6640708,0.060994077,-0.09700956,-0.24721682,0.105408706,772.01465,796.1905,793.7729,783.2967,656.3736,0.07342529296875,0.033935546875,1.0091552734375,-9.024505615234375,-5.884246826171875,-43.55987548828125,1,1.0,1.0,1.0,1.0,10.00
2024-10-11 20:18:03.665,0.41843265,0.73352766,0.86288404,0.35603863,0.68959886,0.22417703,0.530011,-0.07378404,0.6869567,0.2968462,0.21431835,0.57072264,0.6058285,0.12066722,0.14141314,0.6640708,0.060994077,-0.09700956,-0.24721682,0.105408706,763.95605,800.2198,792.96704,780.4762,706.337,0.07342529296875,0.033935546875,1.0091552734375,-9.024505615234375,-5.884246826171875,-43.55987548828125,1,1.0,1.0,1.0,1.0,10.00
2024-10-11 20:18:03.667,0.41843265,0.73352766,0.86288404,0.35603863,0.68959886,0.22417703,0.530011,-0.07378404,0.6869567,0.2968462,0.21431835,0.57072264,0.6058285,0.12066722,0.14141314,0.6640708,0.060994077,-0.09700956,-0.24721682,0.105408706,770.80585,796.5934,794.9817,784.10254,936.8132,0.07342529296875,0.033935546875,1.0091552734375,-9.024505615234375,-5.884246826171875,-43.55987548828125,1,1.0,1.0,1.0,1.0,10.00
2024-10-11 20:18:03.668,0.41843265,0.73352766,0.86288404,0.35603863,0.68959886,0.22417703,0.530011,-0.07378404,0.6869567,0.2968462,0.21431835,0.57072264,0.6058285,0.12066722,0.14141314,0.6640708,0.060994077,-0.09700956,-0.24721682,0.105408706,773.22345,794.17584,797.3993,792.96704,1006.9231,0.07342529296875,0.033935546875,1.0091552734375,-9.024505615234375,-5.884246826171875,-43.55987548828125,1,1.0,1.0,1.0,1.0,10.00
2024-10-11 20:18:03.668,0.41843265,0.73352766,0.86288404,0.35603863,0.68959886,0.22417703,0.530011,-0.07378404,0.6869567,0.2968462,0.21431835,0.57072264,0.6058285,0.12066722,0.14141314,0.6640708,0.060994077,-0.09700956,-0.24721682,0.105408706,778.86444,800.2198,798.60803,790.9524,710.7692,0.07342529296875,0.033935546875,1.0091552734375,-9.024505615234375,-5.884246826171875,-43.55987548828125,1,1.0,1.0,1.0,1.0,10.00
2024-10-11 20:18:03.669,0.41843265,0.73352766,0.86288404,0.35603863,0.68959886,0.22417703,0.530011,-0.07378404,0.6869567,0.2968462,0.21431835,0.57072264,0.6058285,0.12066722,0.14141314,0.6640708,0.060994077,-0.09700956,-0.24721682,0.105408706,786.1172,803.0403,802.23444,782.8938,646.30035,0.07342529296875,0.033935546875,1.0091552734375,-9.024505615234375,-5.884246826171875,-43.55987548828125,1,1.0,1.0,1.0,1.0,10.00
2024-10-11 20:18:03.670,0.41843265,0.73352766,0.86288404,0.35603863,0.68959886,0.22417703,0.530011,-0.07378404,0.6869567,0.2968462,0.21431835,0.57072264,0.6058285,0.12066722,0.14141314,0.6640708,0.060994077,-0.09700956,-0.24721682,0.105408706,784.10254,800.6227,794.57874,789.34064,775.64105,0.07342529296875,0.033935546875,1.0091552734375,-9.024505615234375,-5.884246826171875,-43.55987548828125,1,1.0,1.0,1.0,1.0,10.00
2024-10-11 20:18:03.671,0.41843265,0.73352766,0.86288404,0.35603863,0.68959886,0.22417703,0.530011,-0.07378404,0.6869567,0.2968462,0.21431835,0.57072264,0.6058285,0.12066722,0.14141314,0.6640708,0.060994077,-0.09700956,-0.24721682,0.105408706,789.7436,799.81683,790.54944,796.1905,766.3736,0.07342529296875,0.033935546875,1.0091552734375,-9.024505615234375,-5.884246826171875,-43.55987548828125,1,1.0,1.0,1.0,1.0,10.00
2024-10-11 20:18:03.672,0.41843265,0.73352766,0.86288404,0.35603863,0.68959886,0.22417703,0.530011,-0.07378404,0.6869567,0.2968462,0.21431835,0.57072264,0.6058285,0.12066722,0.14141314,0.6640708,0.060994077,-0.09700956,-0.24721682,0.105408706,795.38464,804.2491,796.5934,788.93774,582.6374,0.07342529296875,0.033935546875,1.0091552734375,-9.024505615234375,-5.884246826171875,-43.55987548828125,1,1.0,1.0,1.0,1.0,10.00
2024-10-11 20:18:03.695,0.41843265,0.73352766,0.86288404,0.35603863,0.68959886,0.22417703,0.530011,-0.07378404,0.6869567,0.2968462,0.21431835,0.57072264,0.6058285,0.12066722,0.14141314,0.6640708,0.060994077,-0.09700956,-0.24721682,0.105408706,799.011,805.8608,800.6227,794.17584,626.1539,0.07342529296875,0.033935546875,1.0091552734375,-9.024505615234375,-5.884246826171875,-43.55987548828125,1,1.0,1.0,1.0,1.0,10.00
2024-10-11 20:18:03.696,0.41843265,0.75706416,0.88242114,0.35603863,0.68959886,0.24182205,0.49129632,-0.07378404,0.6869567,0.2991479,0.22874963,0.57072264,0.6058285,0.11529564,0.13981882,0.6640708,0.060994077,-0.10268379,-0.25847292,0.105408706,798.60803,799.81683,805.05493,798.60803,834.0659,0.07342529296875,0.033935546875,1.0091552734375,-9.024505615234375,-5.884246826171875,-43.55987548828125,1,1.0,1.0,1.0,1.0,10.00
2024-10-11 20:18:03.701,0.41843265,0.75706416,0.88242114,0.35603863,0.68959886,0.24182205,0.49129632,-0.07378404,0.6869567,0.2991479,0.22874963,0.57072264,0.6058285,0.11529564,0.13981882,0.6640708,0.060994077,-0.10268379,-0.25847292,0.105408706,795.38464,796.99634,800.2198,796.1905,836.08057,0.07342529296875,0.033935546875,1.0091552734375,-9.024505615234375,-5.884246826171875,-43.55987548828125,1,1.0,1.0,1.0,1.0,10.00
2024-10-11 20:18:03.702,0.41843265,0.75706416,0.88242114,0.35603863,0.68959886,0.24182205,0.49129632,-0.07378404,0.6869567,0.2991479,0.22874963,0.57072264,0.6058285,0.11529564,0.13981882,0.6640708,0.060994077,-0.10268379,-0.25847292,0.105408706,787.326,800.6227,798.60803,795.38464,701.9048,0.07342529296875,0.033935546875,1.0091552734375,-9.024505615234375,-5.884246826171875,-43.55987548828125,1,1.0,1.0,1.0,1.0,10.00
2024-10-11 20:18:03.703,0.41843265,0.75706416,0.88242114,0.35603863,0.68959886,0.24182205,0.49129632,-0.07378404,0.6869567,0.2991479,0.22874963,0.57072264,0.6058285,0.11529564,0.13981882,0.6640708,0.060994077,-0.10268379,-0.25847292,0.105408706,784.5055,799.011,799.81683,794.17584,684.57874,0.07342529296875,0.033935546875,1.0091552734375,-9.024505615234375,-5.884246826171875,-43.55987548828125,1,1.0,1.0,1.0,1.0,10.00
2024-10-11 20:18:03.704,0.41843265,0.75706416,0.88242114,0.35603863,0.68959886,0.24182205,0.49129632,-0.07378404,0.6869567,0.2991479,0.22874963,0.57072264,0.6058285,0.11529564,0.13981882,0.6640708,0.060994077,-0.10268379,-0.25847292,0.105408706,788.5348,793.7729,799.81683,797.8022,983.5531,0.07342529296875,0.033935546875,1.0091552734375,-9.024505615234375,-5.884246826171875,-43.55987548828125,1,1.0,1.0,1.0,1.0,10.00
2024-10-11 20:18:03.705,0.41843265,0.75706416,0.88242114,0.35603863,0.68959886,0.24182205,0.49129632,-0.07378404,0.6869567,0.2991479,0.22874963,0.57072264,0.6058285,0.11529564,0.13981882,0.6640708,0.060994077,-0.10268379,-0.25847292,0.105408706,791.75824,790.54944,807.47253,805.8608,890.07324,0.07342529296875,0.033935546875,1.0091552734375,-9.024505615234375,-5.884246826171875,-43.55987548828125,1,1.0,1.0,1.0,1.0,10.00
2024-10-11 20:18:03.705,0.41843265,0.75706416,0.88242114,0.35603863,0.68959886,0.24182205,0.49129632,-0.07378404,0.6869567,0.2991479,0.22874963,0.57072264,0.6058285,0.11529564,0.13981882,0.6640708,0.060994077,-0.10268379,-0.25847292,0.105408706,791.3553,790.54944,811.50183,801.4286,623.73627,0.07342529296875,0.033935546875,1.0091552734375,-9.024505615234375,-5.884246826171875,-43.55987548828125,1,1.0,1.0,1.0,1.0,10.00
2024-10-11 20:18:03.706,0.41843265,0.75706416,0.88242114,0.35603863,0.68959886,0.24182205,0.49129632,-0.07378404,0.6869567,0.2991479,0.22874963,0.57072264,0.6058285,0.11529564,0.13981882,0.6640708,0.060994077,-0.10268379,-0.25847292,0.105408706,791.3553,801.4286,812.71063,799.011,662.4176,0.07342529296875,0.033935546875,1.0091552734375,-9.024505615234375,-5.884246826171875,-43.55987548828125,1,1.0,1.0,1.0,1.0,10.00
2024-10-11 20:18:03.707,0.41843265,0.75706416,0.88242114,0.35603863,0.68959886,0.24182205,0.49129632,-0.07378404,0.6869567,0.2991479,0.22874963,0.57072264,0.6058285,0.11529564,0.13981882,0.6640708,0.060994077,-0.10268379,-0.25847292,0.105408706,795.78754,808.68134,808.2784,802.23444,855.82416,0.07342529296875,0.033935546875,1.0091552734375,-9.024505615234375,-5.884246826171875,-43.55987548828125,1,1.0,1.0,1.0,1.0,10.00
2024-10-11 20:18:03.708,0.41843265,0.75706416,0.88242114,0.35603863,0.68959886,0.24182205,0.49129632,-0.07378404,0.6869567,0.2991479,0.22874963,0.57072264,0.6058285,0.11529564,0.13981882,0.6640708,0.060994077,-0.10268379,-0.25847292,0.105408706,795.78754,810.293,810.696,798.60803,801.02563,0.07342529296875,0.033935546875,1.0091552734375,-9.024505615234375,-5.884246826171875,-43.55987548828125,1,1.0,1.0,1.0,1.0,10.00
2024-10-11 20:18:03.709,0.41843265,0.75706416,0.88242114,0.35603863,0.68959886,0.24182205,0.49129632,-0.07378404,0.6869567,0.2991479,0.22874963,0.57072264,0.6058285,0.11529564,0.13981882,0.6640708,0.060994077,-0.10268379,-0.25847292,0.105408706,792.5641,809.0842,813.1135,797.3993,641.4652,0.07342529296875,0.033935546875,1.0091552734375,-9.024505615234375,-5.884246826171875,-43.55987548828125,1,1.0,1.0,1.0,1.0,10.00
2024-10-11 20:18:03.710,0.41843265,0.75706416,0.88242114,0.35603863,0.68959886,0.24182205,0.49129632,-0.07378404,0.6869567,0.2991479,0.22874963,0.57072264,0.6058285,0.11529564,0.13981882,0.6640708,0.060994077,-0.10268379,-0.25847292,0.105408706,786.9231,803.8461,803.8461,798.60803,660.40295,0.043212890625,0.00982666015625,0.99859619140625,-8.23944091796875,7.902984619140625,-37.780303955078125,1,1.0,1.0,1.0,1.0,10.00
2024-10-11 20:18:03.710,0.41843265,0.75706416,0.88242114,0.35603863,0.68959886,0.24182205,0.49129632,-0.07378404,0.6869567,0.2991479,0.22874963,0.57072264,0.6058285,0.11529564,0.13981882,0.6640708,0.060994077,-0.10268379,-0.25847292,0.105408706,791.75824,796.99634,801.8315,808.68134,1087.5092,0.043212890625,0.00982666015625,0.99859619140625,-8.23944091796875,7.902984619140625,-37.780303955078125,1,1.0,1.0,1.0,1.0,10.00
2024-10-11 20:18:03.711,0.41843265,0.75706416,0.88242114,0.35603863,0.68959886,0.24182205,0.49129632,-0.07378404,0.6869567,0.2991479,0.22874963,0.57072264,0.6058285,0.11529564,0.13981882,0.6640708,0.060994077,-0.10268379,-0.25847292,0.105408706,796.99634,786.9231,802.6374,810.696,1183.0037,0.043212890625,0.00982666015625,0.99859619140625,-8.23944091796875,7.902984619140625,-37.780303955078125,1,1.0,1.0,1.0,1.0,10.00
2024-10-11 20:18:03.712,0.41843265,0.75706416,0.88242114,0.35603863,0.68959886,0.24182205,0.49129632,-0.07378404,0.6869567,0.2991479,0.22874963,0.57072264,0.6058285,0.11529564,0.13981882,0.6640708,0.060994077,-0.10268379,-0.25847292,0.105408706,796.1905,791.3553,803.44324,803.0403,662.01465,0.043212890625,0.00982666015625,0.99859619140625,-8.23944091796875,7.902984619140625,-37.780303955078125,1,1.0,1.0,1.0,1.0,10.00
2024-10-11 20:18:03.713,0.41843265,0.75706416,0.88242114,0.35603863,0.68959886,0.24182205,0.49129632,-0.07378404,0.6869567,0.2991479,0.22874963,0.57072264,0.6058285,0.11529564,0.13981882,0.6640708,0.060994077,-0.10268379,-0.25847292,0.105408706,801.4286,798.20514,806.26373,800.2198,641.06226,0.043212890625,0.00982666015625,0.99859619140625,-8.23944091796875,7.902984619140625,-37.780303955078125,1,1.0,1.0,1.0,1.0,10.00
2024-10-11 20:18:03.713,0.41843265,0.75706416,0.88242114,0.35603863,0.68959886,0.24182205,0.49129632,-0.07378404,0.6869567,0.2991479,0.22874963,0.57072264,0.6058285,0.11529564,0.13981882,0.6640708,0.060994077,-0.10268379,-0.25847292,0.105408706,809.0842,796.1905,803.0403,800.2198,1112.8938,0.043212890625,0.00982666015625,0.99859619140625,-8.23944091796875,7.902984619140625,-37.780303955078125,1,1.0,1.0,1.0,1.0,10.00
2024-10-11 20:18:03.714,0.41843265,0.75706416,0.88242114,0.35603863,0.68959886,0.24182205,0.49129632,-0.07378404,0.6869567,0.2991479,0.22874963,0.57072264,0.6058285,0.11529564,0.13981882,0.6640708,0.060994077,-0.10268379,-0.25847292,0.105408706,801.8315,794.9817,805.4579,803.44324,973.8828,0.043212890625,0.00982666015625,0.99859619140625,-8.23944091796875,7.902984619140625,-37.780303955078125,1,1.0,1.0,1.0,1.0,10.00
2024-10-11 20:18:03.715,0.41843265,0.75706416,0.88242114,0.35603863,0.68959886,0.24182205,0.49129632,-0.07378404,0.6869567,0.2991479,0.22874963,0.57072264,0.6058285,0.11529564,0.13981882,0.6640708,0.060994077,-0.10268379,-0.25847292,0.105408706,796.1905,789.34064,814.7253,805.8608,728.49817,0.043212890625,0.00982666015625,0.99859619140625,-8.23944091796875,7.902984619140625,-37.780303955078125,1,1.0,1.0,1.0,1.0,10.00
2024-10-11 20:18:03.715,0.41843265,0.75706416,0.88242114,0.35603863,0.68959886,0.24182205,0.49129632,-0.07378404,0.6869567,0.2991479,0.22874963,0.57072264,0.6058285,0.11529564,0.13981882,0.6640708,0.060994077,-0.10268379,-0.25847292,0.105408706,796.5934,792.5641,819.5604,805.8608,763.95605,0.043212890625,0.00982666015625,0.99859619140625,-8.23944091796875,7.902984619140625,-37.780303955078125,1,1.0,1.0,1.0,1.0,10.00
2024-10-11 20:18:03.716,0.41843265,0.75706416,0.88242114,0.35603863,0.68959886,0.24182205,0.49129632,-0.07378404,0.6869567,0.2991479,0.22874963,0.57072264,0.6058285,0.11529564,0.13981882,0.6640708,0.060994077,-0.10268379,-0.25847292,0.105408706,794.17584,801.02563,815.5311,805.8608,830.4396,0.043212890625,0.00982666015625,0.99859619140625,-8.23944091796875,7.902984619140625,-37.780303955078125,1,1.0,1.0,1.0,1.0,10.00
2024-10-11 20:18:03.716,0.41843265,0.75706416,0.88242114,0.35603863,0.68959886,0.24182205,0.49129632,-0.07378404,0.6869567,0.2991479,0.22874963,0.57072264,0.6058285,0.11529564,0.13981882,0.6640708,0.060994077,-0.10268379,-0.25847292,0.105408706,800.6227,790.54944,813.5165,803.44324,785.31134,0.043212890625,0.00982666015625,0.99859619140625,-8.23944091796875,7.902984619140625,-37.780303955078125,1,1.0,1.0,1.0,1.0,10.00
2024-10-11 20:18:03.717,0.41843265,0.75706416,0.88242114,0.35603863,0.68959886,0.24182205,0.49129632,-0.07378404,0.6869567,0.2991479,0.22874963,0.57072264,0.6058285,0.11529564,0.13981882,0.6640708,0.060994077,-0.10268379,-0.25847292,0.105408706,803.0403,793.36993,815.12823,805.05493,697.8755,0.043212890625,0.00982666015625,0.99859619140625,-8.23944091796875,7.902984619140625,-37.780303955078125,1,1.0,1.0,1.0,1.0,10.00
2024-10-11 20:18:03.747,0.41843265,0.75706416,0.88242114,0.35603863,0.68959886,0.24182205,0.49129632,-0.07378404,0.6869567,0.2991479,0.22874963,0.57072264,0.6058285,0.11529564,0.13981882,0.6640708,0.060994077,-0.10268379,-0.25847292,0.105408706,805.8608,803.8461,810.293,803.8461,757.9121,0.00750732421875,-8.544921875E-4,1.0028076171875,-4.044952392578125,12.463836669921875,-33.54095458984375,1,1.0,1.0,1.0,1.0,10.00
2024-10-11 20:18:03.749,0.41843265,0.75706416,0.88242114,0.35603863,0.68959886,0.24182205,0.49129632,-0.07378404,0.6869567,0.2991479,0.22874963,0.57072264,0.6058285,0.11529564,0.13981882,0.6640708,0.060994077,-0.10268379,-0.25847292,0.105408706,813.1135,805.05493,806.26373,802.6374,729.304,0.00750732421875,-8.544921875E-4,1.0028076171875,-4.044952392578125,12.463836669921875,-33.54095458984375,1,1.0,1.0,1.0,1.0,10.00
2024-10-11 20:18:03.750,0.41843265,0.75706416,0.88242114,0.35603863,0.68959886,0.24182205,0.49129632,-0.07378404,0.6869567,0.2991479,0.22874963,0.57072264,0.6058285,0.11529564,0.13981882,0.6640708,0.060994077,-0.10268379,-0.25847292,0.105408706,816.337,795.38464,805.8608,811.0989,711.5751,0.00750732421875,-8.544921875E-4,1.0028076171875,-4.044952392578125,12.463836669921875,-33.54095458984375,1,1.0,1.0,1.0,1.0,10.00
2024-10-11 20:18:03.752,0.41843265,0.7700888,0.8667329,0.35603863,0.68959886,0.25598922,0.45326132,-0.07378404,0.6869567,0.30085045,0.22874963,0.57072264,0.6058285,0.10469925,0.13492145,0.6640708,0.060994077,-0.111837044,-0.26268744,0.105408706,807.0696,786.52014,805.4579,809.89014,746.63007,0.00750732421875,-8.544921875E-4,1.0028076171875,-4.044952392578125,12.463836669921875,-33.54095458984375,1,1.0,1.0,1.0,1.0,10.00
2024-10-11 20:18:03.756,0.41843265,0.7700888,0.8667329,0.35603863,0.68959886,0.25598922,0.45326132,-0.07378404,0.6869567,0.30085045,0.22874963,0.57072264,0.6058285,0.10469925,0.13492145,0.6640708,0.060994077,-0.111837044,-0.26268744,0.105408706,789.7436,792.96704,805.05493,812.3077,816.337,0.00750732421875,-8.544921875E-4,1.0028076171875,-4.044952392578125,12.463836669921875,-33.54095458984375,1,1.0,1.0,1.0,1.0,10.00
2024-10-11 20:18:03.757,0.41843265,0.7700888,0.8667329,0.35603863,0.68959886,0.25598922,0.45326132,-0.07378404,0.6869567,0.30085045,0.22874963,0.57072264,0.6058285,0.10469925,0.13492145,0.6640708,0.060994077,-0.111837044,-0.26268744,0.105408706,785.7143,795.78754,804.2491,818.7546,921.0989,0.00750732421875,-8.544921875E-4,1.0028076171875,-4.044952392578125,12.463836669921875,-33.54095458984375,1,1.0,1.0,1.0,1.0,10.00
2024-10-11 20:18:03.758,0.41843265,0.7700888,0.8667329,0.35603863,0.68959886,0.25598922,0.45326132,-0.07378404,0.6869567,0.30085045,0.22874963,0.57072264,0.6058285,0.10469925,0.13492145,0.6640708,0.060994077,-0.111837044,-0.26268744,0.105408706,791.75824,790.9524,801.4286,812.3077,919.4872,0.00750732421875,-8.544921875E-4,1.0028076171875,-4.044952392578125,12.463836669921875,-33.54095458984375,1,1.0,1.0,1.0,1.0,10.00
2024-10-11 20:18:03.758,0.41843265,0.7700888,0.8667329,0.35603863,0.68959886,0.25598922,0.45326132,-0.07378404,0.6869567,0.30085045,0.22874963,0.57072264,0.6058285,0.10469925,0.13492145,0.6640708,0.060994077,-0.111837044,-0.26268744,0.105408706,793.7729,795.78754,805.05493,814.7253,809.0842,0.00750732421875,-8.544921875E-4,1.0028076171875,-4.044952392578125,12.463836669921875,-33.54095458984375,1,1.0,1.0,1.0,1.0,10.00
2024-10-11 20:18:03.759,0.41843265,0.7700888,0.8667329,0.35603863,0.68959886,0.25598922,0.45326132,-0.07378404,0.6869567,0.30085045,0.22874963,0.57072264,0.6058285,0.10469925,0.13492145,0.6640708,0.060994077,-0.111837044,-0.26268744,0.105408706,794.57874,796.5934,804.65204,817.5458,961.79486,0.00750732421875,-8.544921875E-4,1.0028076171875,-4.044952392578125,12.463836669921875,-33.54095458984375,1,1.0,1.0,1.0,1.0,10.00
2024-10-11 20:18:03.760,0.41843265,0.7700888,0.8667329,0.35603863,0.68959886,0.25598922,0.45326132,-0.07378404,0.6869567,0.30085045,0.22874963,0.57072264,0.6058285,0.10469925,0.13492145,0.6640708,0.060994077,-0.111837044,-0.26268744,0.105408706,794.17584,791.75824,807.47253,816.337,1202.3444,0.00750732421875,-8.544921875E-4,1.0028076171875,-4.044952392578125,12.463836669921875,-33.54095458984375,1,1.0,1.0,1.0,1.0,10.00
2024-10-11 20:18:03.760,0.41843265,0.7700888,0.8667329,0.35603863,0.68959886,0.25598922,0.45326132,-0.07378404,0.6869567,0.30085045,0.22874963,0.57072264,0.6058285,0.10469925,0.13492145,0.6640708,0.060994077,-0.111837044,-0.26268744,0.105408706,806.26373,795.78754,813.1135,817.9487,1094.359,0.00750732421875,-8.544921875E-4,1.0028076171875,-4.044952392578125,12.463836669921875,-33.54095458984375,1,1.0,1.0,1.0,1.0,10.00
2024-10-11 20:18:03.761,0.41843265,0.7700888,0.8667329,0.35603863,0.68959886,0.25598922,0.45326132,-0.07378404,0.6869567,0.30085045,0.22874963,0.57072264,0.6058285,0.10469925,0.13492145,0.6640708,0.060994077,-0.111837044,-0.26268744,0.105408706,808.2784,794.9817,808.68134,812.3077,770.40295,0.00750732421875,-8.544921875E-4,1.0028076171875,-4.044952392578125,12.463836669921875,-33.54095458984375,1,1.0,1.0,1.0,1.0,10.00
2024-10-11 20:18:03.815,0.41843265,0.7700888,0.8667329,0.35603863,0.68959886,0.25598922,0.45326132,-0.07378404,0.6869567,0.30085045,0.22874963,0.57072264,0.6058285,0.10469925,0.13492145,0.6640708,0.060994077,-0.111837044,-0.26268744,0.105408706,797.8022,792.96704,807.47253,807.8755,744.61536,-0.02374267578125,0.0068359375,1.003662109375,-0.142059326171875,14.213409423828125,-28.389434814453125,1,1.0,1.0,1.0,1.0,10.00
2024-10-11 20:18:03.816,0.41843265,0.7700888,0.8667329,0.35603863,0.68959886,0.25598922,0.45326132,-0.07378404,0.6869567,0.30085045,0.22874963,0.57072264,0.6058285,0.10469925,0.13492145,0.6640708,0.060994077,-0.111837044,-0.26268744,0.105408706,802.6374,793.7729,807.8755,809.0842,692.6374,-0.02374267578125,0.0068359375,1.003662109375,-0.142059326171875,14.213409423828125,-28.389434814453125,1,1.0,1.0,1.0,1.0,10.00
2024-10-11 20:18:03.817,0.41843265,0.7700888,0.8667329,0.35603863,0.68959886,0.25598922,0.45326132,-0.07378404,0.6869567,0.30085045,0.22874963,0.57072264,0.6058285,0.10469925,0.13492145,0.6640708,0.060994077,-0.111837044,-0.26268744,0.105408706,801.8315,796.1905,809.4872,809.89014,639.45056,-0.02374267578125,0.0068359375,1.003662109375,-0.142059326171875,14.213409423828125,-28.389434814453125,1,1.0,1.0,1.0,1.0,10.00
2024-10-11 20:18:03.818,0.41843265,0.7700888,0.8667329,0.35603863,0.68959886,0.25598922,0.45326132,-0.07378404,0.6869567,0.30085045,0.22874963,0.57072264,0.6058285,0.10469925,0.13492145,0.6640708,0.060994077,-0.111837044,-0.26268744,0.105408706,794.57874,799.011,808.68134,811.50183,778.0586,-0.02374267578125,0.0068359375,1.003662109375,-0.142059326171875,14.213409423828125,-28.389434814453125,1,1.0,1.0,1.0,1.0,10.00
2024-10-11 20:18:03.819,0.41843265,0.7700888,0.8667329,0.35603863,0.68959886,0.25598922,0.45326132,-0.07378404,0.6869567,0.30085045,0.22874963,0.57072264,0.6058285,0.10469925,0.13492145,0.6640708,0.060994077,-0.111837044,-0.26268744,0.105408706,793.36993,796.5934,805.8608,805.05493,785.31134,-0.02374267578125,0.0068359375,1.003662109375,-0.142059326171875,14.213409423828125,-28.389434814453125,1,1.0,1.0,1.0,1.0,10.00
2024-10-11 20:18:03.820,0.41843265,0.7700888,0.8667329,0.35603863,0.68959886,0.25598922,0.45326132,-0.07378404,0.6869567,0.30085045,0.22874963,0.57072264,0.6058285,0.10469925,0.13492145,0.6640708,0.060994077,-0.111837044,-0.26268744,0.105408706,793.36993,794.9817,808.2784,804.65204,807.47253,-0.02374267578125,0.0068359375,1.003662109375,-0.142059326171875,14.213409423828125,-28.389434814453125,1,1.0,1.0,1.0,1.0,10.00
2024-10-11 20:18:03.821,0.41843265,0.7700888,0.8667329,0.35603863,0.68959886,0.25598922,0.45326132,-0.07378404,0.6869567,0.30085045,0.22874963,0.57072264,0.6058285,0.10469925,0.13492145,0.6640708,0.060994077,-0.111837044,-0.26268744,0.105408706,800.6227,797.3993,811.9048,807.47253,792.1612,-0.02374267578125,0.0068359375,1.003662109375,-0.142059326171875,14.213409423828125,-28.389434814453125,1,1.0,1.0,1.0,1.0,10.00
2024-10-11 20:18:03.821,0.41843265,0.7700888,0.8667329,0.35603863,0.68959886,0.25598922,0.45326132,-0.07378404,0.6869567,0.30085045,0.22874963,0.57072264,0.6058285,0.10469925,0.13492145,0.6640708,0.060994077,-0.111837044,-0.26268744,0.105408706,804.65204,800.2198,807.8755,805.8608,861.8681,-0.02374267578125,0.0068359375,1.003662109375,-0.142059326171875,14.213409423828125,-28.389434814453125,1,1.0,1.0,1.0,1.0,10.00
2024-10-11 20:18:03.822,0.41843265,0.7700888,0.8667329,0.35603863,0.68959886,0.25598922,0.45326132,-0.07378404,0.6869567,0.30085045,0.22874963,0.57072264,0.6058285,0.10469925,0.13492145,0.6640708,0.060994077,-0.111837044,-0.26268744,0.105408706,794.57874,792.96704,804.2491,807.0696,856.2271,-0.02374267578125,0.0068359375,1.003662109375,-0.142059326171875,14.213409423828125,-28.389434814453125,1,1.0,1.0,1.0,1.0,10.00
2024-10-11 20:18:03.823,0.41843265,0.7700888,0.8667329,0.35603863,0.68959886,0.25598922,0.45326132,-0.07378404,0.6869567,0.30085045,0.22874963,0.57072264,0.6058285,0.10469925,0.13492145,0.6640708,0.060994077,-0.111837044,-0.26268744,0.105408706,798.20514,792.1612,802.6374,809.89014,632.6007,-0.02374267578125,0.0068359375,1.003662109375,-0.142059326171875,14.213409423828125,-28.389434814453125,1,1.0,1.0,1.0,1.0,10.00
2024-10-11 20:18:03.824,0.41843265,0.7700888,0.8667329,0.35603863,0.68959886,0.25598922,0.45326132,-0.07378404,0.6869567,0.30085045,0.22874963,0.57072264,0.6058285,0.10469925,0.13492145,0.6640708,0.060994077,-0.111837044,-0.26268744,0.105408706,802.6374,796.1905,803.0403,816.7399,454.10257,-0.02374267578125,0.0068359375,1.003662109375,-0.142059326171875,14.213409423828125,-28.389434814453125,1,1.0,1.0,1.0,1.0,10.00
2024-10-11 20:18:03.824,0.41843265,0.7700888,0.8667329,0.35603863,0.68959886,0.25598922,0.45326132,-0.07378404,0.6869567,0.30085045,0.22874963,0.57072264,0.6058285,0.10469925,0.13492145,0.6640708,0.060994077,-0.111837044,-0.26268744,0.105408706,806.6667,785.7143,806.6667,823.5897,786.52014,-0.02374267578125,0.0068359375,1.003662109375,-0.142059326171875,14.213409423828125,-28.389434814453125,1,1.0,1.0,1.0,1.0,10.00
2024-10-11 20:18:03.850,0.41843265,0.7700888,0.8667329,0.35603863,0.68959886,0.25598922,0.45326132,-0.07378404,0.6869567,0.30085045,0.22874963,0.57072264,0.6058285,0.10469925,0.13492145,0.6640708,0.060994077,-0.111837044,-0.26268744,0.105408706,807.0696,783.2967,809.0842,829.2308,1277.6923,-0.07061767578125,0.0037841796875,1.00823974609375,1.128997802734375,16.830291748046875,-23.559417724609375,1,1.0,1.0,1.0,1.0,10.00
2024-10-11 20:18:03.851,0.41843265,0.7700888,0.8667329,0.35603863,0.68959886,0.25598922,0.45326132,-0.07378404,0.6869567,0.30085045,0.22874963,0.57072264,0.6058285,0.10469925,0.13492145,0.6640708,0.060994077,-0.111837044,-0.26268744,0.105408706,804.2491,792.96704,808.68134,821.978,907.8022,-0.07061767578125,0.0037841796875,1.00823974609375,1.128997802734375,16.830291748046875,-23.559417724609375,1,1.0,1.0,1.0,1.0,10.00
2024-10-11 20:18:03.852,0.41843265,0.7700888,0.8667329,0.35603863,0.68959886,0.25598922,0.45326132,-0.07378404,0.6869567,0.30085045,0.22874963,0.57072264,0.6058285,0.10469925,0.13492145,0.6640708,0.060994077,-0.111837044,-0.26268744,0.105408706,799.81683,794.9817,814.7253,813.1135,599.9634,-0.07061767578125,0.0037841796875,1.00823974609375,1.128997802734375,16.830291748046875,-23.559417724609375,1,1.0,1.0,1.0,1.0,10.00
2024-10-11 20:18:03.853,0.41843265,0.7700888,0.8667329,0.35603863,0.68959886,0.25598922,0.45326132,-0.07378404,0.6869567,0.30085045,0.22874963,0.57072264,0.6058285,0.10469925,0.13492145,0.6640708,0.060994077,-0.111837044,-0.26268744,0.105408706,807.8755,797.3993,814.3223,813.5165,713.5897,-0.07061767578125,0.0037841796875,1.00823974609375,1.128997802734375,16.830291748046875,-23.559417724609375,1,1.0,1.0,1.0,1.0,10.00
2024-10-11 20:18:03.854,0.41843265,0.7700888,0.8667329,0.35603863,0.68959886,0.25598922,0.45326132,-0.07378404,0.6869567,0.30085045,0.22874963,0.57072264,0.6058285,0.10469925,0.13492145,0.6640708,0.060994077,-0.111837044,-0.26268744,0.105408706,820.3663,798.60803,803.44324,821.1722,728.9011,-0.07061767578125,0.0037841796875,1.00823974609375,1.128997802734375,16.830291748046875,-23.559417724609375,1,1.0,1.0,1.0,1.0,10.00
2024-10-11 20:18:03.855,0.41843265,0.79522896,0.8673763,0.35603863,0.68959886,0.27847636,0.431338,-0.07378404,0.6869567,0.30085045,0.22696164,0.57072264,0.6058285,0.09378898,0.124750584,0.6640708,0.060994077,-0.11813224,-0.27110836,0.105408706,809.4872,793.36993,804.2491,828.022,685.78754,-0.07061767578125,0.0037841796875,1.00823974609375,1.128997802734375,16.830291748046875,-23.559417724609375,1,1.0,1.0,1.0,1.0,10.00
2024-10-11 20:18:03.859,0.41843265,0.79522896,0.8673763,0.35603863,0.68959886,0.27847636,0.431338,-0.07378404,0.6869567,0.30085045,0.22696164,0.57072264,0.6058285,0.09378898,0.124750584,0.6640708,0.060994077,-0.11813224,-0.27110836,0.105408706,804.65204,797.8022,803.0403,819.15753,665.2381,-0.07061767578125,0.0037841796875,1.00823974609375,1.128997802734375,16.830291748046875,-23.559417724609375,1,1.0,1.0,1.0,1.0,10.00
2024-10-11 20:18:03.860,0.41843265,0.79522896,0.8673763,0.35603863,0.68959886,0.27847636,0.431338,-0.07378404,0.6869567,0.30085045,0.22696164,0.57072264,0.6058285,0.09378898,0.124750584,0.6640708,0.060994077,-0.11813224,-0.27110836,0.105408706,807.47253,799.41394,802.23444,818.7546,910.6227,-0.07061767578125,0.0037841796875,1.00823974609375,1.128997802734375,16.830291748046875,-23.559417724609375,1,1.0,1.0,1.0,1.0,10.00
2024-10-11 20:18:03.861,0.41843265,0.79522896,0.8673763,0.35603863,0.68959886,0.27847636,0.431338,-0.07378404,0.6869567,0.30085045,0.22696164,0.57072264,0.6058285,0.09378898,0.124750584,0.6640708,0.060994077,-0.11813224,-0.27110836,0.105408706,813.1135,802.6374,807.47253,824.7985,937.619,-0.07061767578125,0.0037841796875,1.00823974609375,1.128997802734375,16.830291748046875,-23.559417724609375,1,1.0,1.0,1.0,1.0,10.00
2024-10-11 20:18:03.862,0.41843265,0.79522896,0.8673763,0.35603863,0.68959886,0.27847636,0.431338,-0.07378404,0.6869567,0.30085045,0.22696164,0.57072264,0.6058285,0.09378898,0.124750584,0.6640708,0.060994077,-0.11813224,-0.27110836,0.105408706,799.41394,799.41394,809.0842,812.71063,690.2198,-0.07061767578125,0.0037841796875,1.00823974609375,1.128997802734375,16.830291748046875,-23.559417724609375,1,1.0,1.0,1.0,1.0,10.00
2024-10-11 20:18:03.863,0.41843265,0.79522896,0.8673763,0.35603863,0.68959886,0.27847636,0.431338,-0.07378404,0.6869567,0.30085045,0.22696164,0.57072264,0.6058285,0.09378898,0.124750584,0.6640708,0.060994077,-0.11813224,-0.27110836,0.105408706,788.1319,791.3553,803.0403,802.6374,725.2747,-0.07061767578125,0.0037841796875,1.00823974609375,1.128997802734375,16.830291748046875,-23.559417724609375,1,1.0,1.0,1.0,1.0,10.00
2024-10-11 20:18:03.864,0.41843265,0.79522896,0.8673763,0.35603863,0.68959886,0.27847636,0.431338,-0.07378404,0.6869567,0.30085045,0.22696164,0.57072264,0.6058285,0.09378898,0.124750584,0.6640708,0.060994077,-0.11813224,-0.27110836,0.105408706,794.17584,787.326,800.2198,805.8608,781.28204,-0.07061767578125,0.0037841796875,1.00823974609375,1.128997802734375,16.830291748046875,-23.559417724609375,1,1.0,1.0,1.0,1.0,10.00
2024-10-11 20:18:03.888,0.41843265,0.79522896,0.8673763,0.35603863,0.68959886,0.27847636,0.431338,-0.07378404,0.6869567,0.30085045,0.22696164,0.57072264,0.6058285,0.09378898,0.124750584,0.6640708,0.060994077,-0.11813224,-0.27110836,0.105408706,787.72894,784.5055,802.23444,805.8608,790.14655,-0.095703125,0.00848388671875,1.00775146484375,1.5252685546875,23.3575439453125,-18.2733154296875,1,1.0,1.0,1.0,1.0,10.00
2024-10-11 20:18:03.889,0.41843265,0.79522896,0.8673763,0.35603863,0.68959886,0.27847636,0.431338,-0.07378404,0.6869567,0.30085045,0.22696164,0.57072264,0.6058285,0.09378898,0.124750584,0.6640708,0.060994077,-0.11813224,-0.27110836,0.105408706,790.54944,789.34064,799.011,805.8608,799.81683,-0.095703125,0.00848388671875,1.00775146484375,1.5252685546875,23.3575439453125,-18.2733154296875,1,1.0,1.0,1.0,1.0,10.00
2024-10-11 20:18:03.889,0.41843265,0.79522896,0.8673763,0.35603863,0.68959886,0.27847636,0.431338,-0.07378404,0.6869567,0.30085045,0.22696164,0.57072264,0.6058285,0.09378898,0.124750584,0.6640708,0.060994077,-0.11813224,-0.27110836,0.105408706,800.6227,792.1612,802.6374,805.4579,882.4176,-0.095703125,0.00848388671875,1.00775146484375,1.5252685546875,23.3575439453125,-18.2733154296875,1,1.0,1.0,1.0,1.0,10.00
2024-10-11 20:18:03.890,0.41843265,0.79522896,0.8673763,0.35603863,0.68959886,0.27847636,0.431338,-0.07378404,0.6869567,0.30085045,0.22696164,0.57072264,0.6058285,0.09378898,0.124750584,0.6640708,0.060994077,-0.11813224,-0.27110836,0.105408706,800.2198,789.7436,804.2491,808.2784,780.07324,-0.095703125,0.00848388671875,1.00775146484375,1.5252685546875,23.3575439453125,-18.2733154296875,1,1.0,1.0,1.0,1.0,10.00
2024-10-11 20:18:03.890,0.41843265,0.79522896,0.8673763,0.35603863,0.68959886,0.27847636,0.431338,-0.07378404,0.6869567,0.30085045,0.22696164,0.57072264,0.6058285,0.09378898,0.124750584,0.6640708,0.060994077,-0.11813224,-0.27110836,0.105408706,794.57874,778.46155,800.6227,815.5311,671.685,-0.095703125,0.00848388671875,1.00775146484375,1.5252685546875,23.3575439453125,-18.2733154296875,1,1.0,1.0,1.0,1.0,10.00
2024-10-11 20:18:03.891,0.41843265,0.79522896,0.8673763,0.35603863,0.68959886,0.27847636,0.431338,-0.07378404,0.6869567,0.30085045,0.22696164,0.57072264,0.6058285,0.09378898,0.124750584,0.6640708,0.060994077,-0.11813224,-0.27110836,0.105408706,794.57874,770.0,800.2198,816.7399,781.685,-0.095703125,0.00848388671875,1.00775146484375,1.5252685546875,23.3575439453125,-18.2733154296875,1,1.0,1.0,1.0,1.0,10.00
2024-10-11 20:18:03.891,0.41843265,0.79522896,0.8673763,0.35603863,0.68959886,0.27847636,0.431338,-0.07378404,0.6869567,0.30085045,0.22696164,0.57072264,0.6058285,0.09378898,0.124750584,0.6640708,0.060994077,-0.11813224,-0.27110836,0.105408706,797.3993,786.9231,801.8315,813.1135,825.2015,-0.095703125,0.00848388671875,1.00775146484375,1.5252685546875,23.3575439453125,-18.2733154296875,1,1.0,1.0,1.0,1.0,10.00
2024-10-11 20:18:03.892,0.41843265,0.79522896,0.8673763,0.35603863,0.68959886,0.27847636,0.431338,-0.07378404,0.6869567,0.30085045,0.22696164,0.57072264,0.6058285,0.09378898,0.124750584,0.6640708,0.060994077,-0.11813224,-0.27110836,0.105408706,801.8315,805.8608,810.696,815.12823,846.1539,-0.095703125,0.00848388671875,1.00775146484375,1.5252685546875,23.3575439453125,-18.2733154296875,1,1.0,1.0,1.0,1.0,10.00
2024-10-11 20:18:03.892,0.41843265,0.79522896,0.8673763,0.35603863,0.68959886,0.27847636,0.431338,-0.07378404,0.6869567,0.30085045,0.22696164,0.57072264,0.6058285,0.09378898,0.124750584,0.6640708,0.060994077,-0.11813224,-0.27110836,0.105408706,806.26373,808.68134,814.7253,812.71063,744.61536,-0.095703125,0.00848388671875,1.00775146484375,1.5252685546875,23.3575439453125,-18.2733154296875,1,1.0,1.0,1.0,1.0,10.00
2024-10-11 20:18:03.893,0.41843265,0.79522896,0.8673763,0.35603863,0.68959886,0.27847636,0.431338,-0.07378404,0.6869567,0.30085045,0.22696164,0.57072264,0.6058285,0.09378898,0.124750584,0.6640708,0.060994077,-0.11813224,-0.27110836,0.105408706,799.81683,795.78754,812.71063,809.89014,688.20514,-0.095703125,0.00848388671875,1.00775146484375,1.5252685546875,23.3575439453125,-18.2733154296875,1,1.0,1.0,1.0,1.0,10.00
2024-10-11 20:18:03.894,0.41843265,0.79522896,0.8673763,0.35603863,0.68959886,0.27847636,0.431338,-0.07378404,0.6869567,0.30085045,0.22696164,0.57072264,0.6058285,0.09378898,0.124750584,0.6640708,0.060994077,-0.11813224,-0.27110836,0.105408706,812.71063,790.54944,816.7399,830.84247,767.5824,-0.095703125,0.00848388671875,1.00775146484375,1.5252685546875,23.3575439453125,-18.2733154296875,1,1.0,1.0,1.0,1.0,10.00
2024-10-11 20:18:03.894,0.41843265,0.79522896,0.8673763,0.35603863,0.68959886,0.27847636,0.431338,-0.07378404,0.6869567,0.30085045,0.22696164,0.57072264,0.6058285,0.09378898,0.124750584,0.6640708,0.060994077,-0.11813224,-0.27110836,0.105408706,813.1135,804.65204,812.3077,821.1722,727.6923,-0.095703125,0.00848388671875,1.00775146484375,1.5252685546875,23.3575439453125,-18.2733154296875,1,1.0,1.0,1.0,1.0,10.00
2024-10-11 20:18:03.918,0.41843265,0.79522896,0.8673763,0.35603863,0.68959886,0.27847636,0.431338,-0.07378404,0.6869567,0.30085045,0.22696164,0.57072264,0.6058285,0.09378898,0.124750584,0.6640708,0.060994077,-0.11813224,-0.27110836,0.105408706,788.93774,807.0696,799.41394,784.5055,635.0183,-0.095703125,0.00848388671875,1.00775146484375,1.5252685546875,23.3575439453125,-18.2733154296875,1,1.0,1.0,1.0,1.0,10.00
2024-10-11 20:18:03.919,0.41843265,0.79522896,0.8673763,0.35603863,0.68959886,0.27847636,0.431338,-0.07378404,0.6869567,0.30085045,0.22696164,0.57072264,0.6058285,0.09378898,0.124750584,0.6640708,0.060994077,-0.11813224,-0.27110836,0.105408706,807.0696,795.78754,795.38464,787.72894,683.36993,-0.095703125,0.00848388671875,1.00775146484375,1.5252685546875,23.3575439453125,-18.2733154296875,1,1.0,1.0,1.0,1.0,10.00
2024-10-11 20:18:03.919,0.41843265,0.79522896,0.8673763,0.35603863,0.68959886,0.27847636,0.431338,-0.07378404,0.6869567,0.30085045,0.22696164,0.57072264,0.6058285,0.09378898,0.124750584,0.6640708,0.060994077,-0.11813224,-0.27110836,0.105408706,824.7985,776.04395,799.41394,799.41394,887.25275,-0.095703125,0.00848388671875,1.00775146484375,1.5252685546875,23.3575439453125,-18.2733154296875,1,1.0,1.0,1.0,1.0,10.00
2024-10-11 20:18:03.920,0.41843265,0.79522896,0.8673763,0.35603863,0.68959886,0.27847636,0.431338,-0.07378404,0.6869567,0.30085045,0.22696164,0.57072264,0.6058285,0.09378898,0.124750584,0.6640708,0.060994077,-0.11813224,-0.27110836,0.105408706,808.2784,791.75824,797.8022,793.7729,893.69965,-0.095703125,0.00848388671875,1.00775146484375,1.5252685546875,23.3575439453125,-18.2733154296875,1,1.0,1.0,1.0,1.0,10.00
2024-10-11 20:18:03.921,0.41843265,0.79522896,0.8673763,0.35603863,0.68959886,0.27847636,0.431338,-0.07378404,0.6869567,0.30085045,0.22696164,0.57072264,0.6058285,0.09378898,0.124750584,0.6640708,0.060994077,-0.11813224,-0.27110836,0.105408706,810.696,798.60803,800.2198,799.011,681.3553,-0.095703125,0.00848388671875,1.00775146484375,1.5252685546875,23.3575439453125,-18.2733154296875,1,1.0,1.0,1.0,1.0,10.00
2024-10-11 20:18:03.921,0.41843265,0.79522896,0.8673763,0.35603863,0.68959886,0.27847636,0.431338,-0.07378404,0.6869567,0.30085045,0.22696164,0.57072264,0.6058285,0.09378898,0.124750584,0.6640708,0.060994077,-0.11813224,-0.27110836,0.105408706,811.0989,804.65204,801.4286,807.0696,842.52747,-0.095703125,0.00848388671875,1.00775146484375,1.5252685546875,23.3575439453125,-18.2733154296875,1,1.0,1.0,1.0,1.0,10.00
2024-10-11 20:18:03.922,0.41843265,0.79522896,0.8673763,0.35603863,0.68959886,0.27847636,0.431338,-0.07378404,0.6869567,0.30085045,0.22696164,0.57072264,0.6058285,0.09378898,0.124750584,0.6640708,0.060994077,-0.11813224,-0.27110836,0.105408706,792.5641,801.8315,795.38464,799.81683,1181.7949,-0.095703125,0.00848388671875,1.00775146484375,1.5252685546875,23.3575439453125,-18.2733154296875,1,1.0,1.0,1.0,1.0,10.00
2024-10-11 20:18:03.923,0.41843265,0.82306737,0.8829897,0.35603863,0.68959886,0.29969627,0.42917535,-0.07378404,0.6869567,0.30085045,0.21415497,0.57072264,0.6058285,0.090943985,0.11199641,0.6640708,0.060994077,-0.11645754,-0.28480494,0.105408706,797.8022,783.2967,793.36993,791.75824,1106.8499,-0.095703125,0.00848388671875,1.00775146484375,1.5252685546875,23.3575439453125,-18.2733154296875,1,1.0,1.0,1.0,1.0,10.00
2024-10-11 20:18:03.927,0.41843265,0.82306737,0.8829897,0.35603863,0.68959886,0.29969627,0.42917535,-0.07378404,0.6869567,0.30085045,0.21415497,0.57072264,0.6058285,0.090943985,0.11199641,0.6640708,0.060994077,-0.11645754,-0.28480494,0.105408706,803.8461,815.5311,794.57874,784.5055,661.2088,-0.095703125,0.00848388671875,1.00775146484375,1.5252685546875,23.3575439453125,-18.2733154296875,1,1.0,1.0,1.0,1.0,10.00
2024-10-11 20:18:03.928,0.41843265,0.82306737,0.8829897,0.35603863,0.68959886,0.29969627,0.42917535,-0.07378404,0.6869567,0.30085045,0.21415497,0.57072264,0.6058285,0.090943985,0.11199641,0.6640708,0.060994077,-0.11645754,-0.28480494,0.105408706,803.0403,812.71063,798.20514,788.5348,683.36993,-0.095703125,0.00848388671875,1.00775146484375,1.5252685546875,23.3575439453125,-18.2733154296875,1,1.0,1.0,1.0,1.0,10.00
2024-10-11 20:18:03.928,0.41843265,0.82306737,0.8829897,0.35603863,0.68959886,0.29969627,0.42917535,-0.07378404,0.6869567,0.30085045,0.21415497,0.57072264,0.6058285,0.090943985,0.11199641,0.6640708,0.060994077,-0.11645754,-0.28480494,0.105408706,806.26373,800.6227,796.5934,801.4286,806.6667,-0.095703125,0.00848388671875,1.00775146484375,1.5252685546875,23.3575439453125,-18.2733154296875,1,1.0,1.0,1.0,1.0,10.00
2024-10-11 20:18:03.929,0.41843265,0.82306737,0.8829897,0.35603863,0.68959886,0.29969627,0.42917535,-0.07378404,0.6869567,0.30085045,0.21415497,0.57072264,0.6058285,0.090943985,0.11199641,0.6640708,0.060994077,-0.11645754,-0.28480494,0.105408706,795.78754,806.6667,789.34064,803.0403,676.52014,-0.095703125,0.00848388671875,1.00775146484375,1.5252685546875,23.3575439453125,-18.2733154296875,1,1.0,1.0,1.0,1.0,10.00
2024-10-11 20:18:03.966,0.41843265,0.82306737,0.8829897,0.35603863,0.68959886,0.29969627,0.42917535,-0.07378404,0.6869567,0.30085045,0.21415497,0.57072264,0.6058285,0.090943985,0.11199641,0.6640708,0.060994077,-0.11645754,-0.28480494,0.105408706,784.90845,781.685,790.9524,792.1612,570.14655,-0.15216064453125,0.0101318359375,1.00689697265625,1.614990234375,26.684722900390625,-11.536712646484375,1,1.0,1.0,1.0,1.0,10.00
2024-10-11 20:18:03.967,0.41843265,0.82306737,0.8829897,0.35603863,0.68959886,0.29969627,0.42917535,-0.07378404,0.6869567,0.30085045,0.21415497,0.57072264,0.6058285,0.090943985,0.11199641,0.6640708,0.060994077,-0.11645754,-0.28480494,0.105408706,776.4469,794.57874,787.326,790.14655,616.08057,-0.15216064453125,0.0101318359375,1.00689697265625,1.614990234375,26.684722900390625,-11.536712646484375,1,1.0,1.0,1.0,1.0,10.00
2024-10-11 20:18:03.968,0.41843265,0.82306737,0.8829897,0.35603863,0.68959886,0.29969627,0.42917535,-0.07378404,0.6869567,0.30085045,0.21415497,0.57072264,0.6058285,0.090943985,0.11199641,0.6640708,0.060994077,-0.11645754,-0.28480494,0.105408706,777.6557,817.5458,781.685,790.54944,741.39197,-0.15216064453125,0.0101318359375,1.00689697265625,1.614990234375,26.684722900390625,-11.536712646484375,1,1.0,1.0,1.0,1.0,10.00
2024-10-11 20:18:03.969,0.41843265,0.82306737,0.8829897,0.35603863,0.68959886,0.29969627,0.42917535,-0.07378404,0.6869567,0.30085045,0.21415497,0.57072264,0.6058285,0.090943985,0.11199641,0.6640708,0.060994077,-0.11645754,-0.28480494,0.105408706,776.04395,815.12823,784.10254,783.2967,707.1429,-0.15216064453125,0.0101318359375,1.00689697265625,1.614990234375,26.684722900390625,-11.536712646484375,1,1.0,1.0,1.0,1.0,10.00
2024-10-11 20:18:03.970,0.41843265,0.82306737,0.8829897,0.35603863,0.68959886,0.29969627,0.42917535,-0.07378404,0.6869567,0.30085045,0.21415497,0.57072264,0.6058285,0.090943985,0.11199641,0.6640708,0.060994077,-0.11645754,-0.28480494,0.105408706,770.80585,812.71063,786.9231,783.69965,581.02563,-0.15216064453125,0.0101318359375,1.00689697265625,1.614990234375,26.684722900390625,-11.536712646484375,1,1.0,1.0,1.0,1.0,10.00
2024-10-11 20:18:03.971,0.41843265,0.82306737,0.8829897,0.35603863,0.68959886,0.29969627,0.42917535,-0.07378404,0.6869567,0.30085045,0.21415497,0.57072264,0.6058285,0.090943985,0.11199641,0.6640708,0.060994077,-0.11645754,-0.28480494,0.105408706,784.5055,803.44324,783.69965,799.011,747.8388,-0.15216064453125,0.0101318359375,1.00689697265625,1.614990234375,26.684722900390625,-11.536712646484375,1,1.0,1.0,1.0,1.0,10.00
2024-10-11 20:18:03.971,0.41843265,0.82306737,0.8829897,0.35603863,0.68959886,0.29969627,0.42917535,-0.07378404,0.6869567,0.30085045,0.21415497,0.57072264,0.6058285,0.090943985,0.11199641,0.6640708,0.060994077,-0.11645754,-0.28480494,0.105408706,791.75824,794.17584,780.4762,801.4286,934.3956,-0.15216064453125,0.0101318359375,1.00689697265625,1.614990234375,26.684722900390625,-11.536712646484375,1,1.0,1.0,1.0,1.0,10.00
2024-10-11 20:18:03.972,0.41843265,0.82306737,0.8829897,0.35603863,0.68959886,0.29969627,0.42917535,-0.07378404,0.6869567,0.30085045,0.21415497,0.57072264,0.6058285,0.090943985,0.11199641,0.6640708,0.060994077,-0.11645754,-0.28480494,0.105408706,790.54944,797.3993,784.90845,790.54944,840.5128,-0.15216064453125,0.0101318359375,1.00689697265625,1.614990234375,26.684722900390625,-11.536712646484375,1,1.0,1.0,1.0,1.0,10.00
2024-10-11 20:18:03.973,0.41843265,0.82306737,0.8829897,0.35603863,0.68959886,0.29969627,0.42917535,-0.07378404,0.6869567,0.30085045,0.21415497,0.57072264,0.6058285,0.090943985,0.11199641,0.6640708,0.060994077,-0.11645754,-0.28480494,0.105408706,794.17584,800.6227,788.93774,784.5055,738.5714,-0.15216064453125,0.0101318359375,1.00689697265625,1.614990234375,26.684722900390625,-11.536712646484375,1,1.0,1.0,1.0,1.0,10.00
2024-10-11 20:18:03.973,0.41843265,0.82306737,0.8829897,0.35603863,0.68959886,0.29969627,0.42917535,-0.07378404,0.6869567,0.30085045,0.21415497,0.57072264,0.6058285,0.090943985,0.11199641,0.6640708,0.060994077,-0.11645754,-0.28480494,0.105408706,806.26373,802.6374,788.93774,785.7143,681.3553,-0.15216064453125,0.0101318359375,1.00689697265625,1.614990234375,26.684722900390625,-11.536712646484375,1,1.0,1.0,1.0,1.0,10.00
2024-10-11 20:18:03.974,0.41843265,0.82306737,0.8829897,0.35603863,0.68959886,0.29969627,0.42917535,-0.07378404,0.6869567,0.30085045,0.21415497,0.57072264,0.6058285,0.090943985,0.11199641,0.6640708,0.060994077,-0.11645754,-0.28480494,0.105408706,807.8755,791.3553,797.8022,796.1905,744.21246,-0.15216064453125,0.0101318359375,1.00689697265625,1.614990234375,26.684722900390625,-11.536712646484375,1,1.0,1.0,1.0,1.0,10.00
2024-10-11 20:18:03.974,0.41843265,0.82306737,0.8829897,0.35603863,0.68959886,0.29969627,0.42917535,-0.07378404,0.6869567,0.30085045,0.21415497,0.57072264,0.6058285,0.090943985,0.11199641,0.6640708,0.060994077,-0.11645754,-0.28480494,0.105408706,804.2491,792.96704,795.78754,797.8022,694.2491,-0.15216064453125,0.0101318359375,1.00689697265625,1.614990234375,26.684722900390625,-11.536712646484375,1,1.0,1.0,1.0,1.0,10.00
2024-10-11 20:18:04.018,0.41843265,0.82306737,0.8829897,0.35603863,0.68959886,0.29969627,0.42917535,-0.07378404,0.6869567,0.30085045,0.21415497,0.57072264,0.6058285,0.090943985,0.11199641,0.6640708,0.060994077,-0.11645754,-0.28480494,0.105408706,805.05493,805.4579,789.34064,801.4286,535.89746,-0.20587158203125,0.0093994140625,0.9908447265625,0.650482177734375,21.951904296875,-8.23944091796875,1,1.0,1.0,1.0,1.0,10.00
2024-10-11 20:18:04.019,0.41843265,0.82306737,0.8829897,0.35603863,0.68959886,0.29969627,0.42917535,-0.07378404,0.6869567,0.30085045,0.21415497,0.57072264,0.6058285,0.090943985,0.11199641,0.6640708,0.060994077,-0.11645754,-0.28480494,0.105408706,807.47253,801.02563,789.7436,807.47253,595.5311,-0.20587158203125,0.0093994140625,0.9908447265625,0.650482177734375,21.951904296875,-8.23944091796875,1,1.0,1.0,1.0,1.0,10.00
2024-10-11 20:18:04.020,0.41843265,0.82306737,0.8829897,0.35603863,0.68959886,0.29969627,0.42917535,-0.07378404,0.6869567,0.30085045,0.21415497,0.57072264,0.6058285,0.090943985,0.11199641,0.6640708,0.060994077,-0.11645754,-0.28480494,0.105408706,805.8608,802.23444,793.36993,806.6667,714.7985,-0.20587158203125,0.0093994140625,0.9908447265625,0.650482177734375,21.951904296875,-8.23944091796875,1,1.0,1.0,1.0,1.0,10.00
2024-10-11 20:18:04.021,0.41843265,0.82306737,0.8829897,0.35603863,0.68959886,0.29969627,0.42917535,-0.07378404,0.6869567,0.30085045,0.21415497,0.57072264,0.6058285,0.090943985,0.11199641,0.6640708,0.060994077,-0.11645754,-0.28480494,0.105408706,807.47253,805.05493,799.41394,804.2491,679.7436,-0.20587158203125,0.0093994140625,0.9908447265625,0.650482177734375,21.951904296875,-8.23944091796875,1,1.0,1.0,1.0,1.0,10.00
2024-10-11 20:18:04.022,0.41843265,0.82306737,0.8829897,0.35603863,0.68959886,0.29969627,0.42917535,-0.07378404,0.6869567,0.30085045,0.21415497,0.57072264,0.6058285,0.090943985,0.11199641,0.6640708,0.060994077,-0.11645754,-0.28480494,0.105408706,811.0989,803.0403,801.4286,800.6227,696.26373,-0.20587158203125,0.0093994140625,0.9908447265625,0.650482177734375,21.951904296875,-8.23944091796875,1,1.0,1.0,1.0,1.0,10.00
2024-10-11 20:18:04.023,0.41843265,0.82306737,0.8829897,0.35603863,0.68959886,0.29969627,0.42917535,-0.07378404,0.6869567,0.30085045,0.21415497,0.57072264,0.6058285,0.090943985,0.11199641,0.6640708,0.060994077,-0.11645754,-0.28480494,0.105408706,815.5311,799.011,801.4286,809.89014,811.50183,-0.20587158203125,0.0093994140625,0.9908447265625,0.650482177734375,21.951904296875,-8.23944091796875,1,1.0,1.0,1.0,1.0,10.00
2024-10-11 20:18:04.023,0.41843265,0.82306737,0.8829897,0.35603863,0.68959886,0.29969627,0.42917535,-0.07378404,0.6869567,0.30085045,0.21415497,0.57072264,0.6058285,0.090943985,0.11199641,0.6640708,0.060994077,-0.11645754,-0.28480494,0.105408706,823.5897,791.3553,803.0403,817.1429,847.3626,-0.20587158203125,0.0093994140625,0.9908447265625,0.650482177734375,21.951904296875,-8.23944091796875,1,1.0,1.0,1.0,1.0,10.00
2024-10-11 20:18:04.024,0.41843265,0.82306737,0.8829897,0.35603863,0.68959886,0.29969627,0.42917535,-0.07378404,0.6869567,0.30085045,0.21415497,0.57072264,0.6058285,0.090943985,0.11199641,0.6640708,0.060994077,-0.11645754,-0.28480494,0.105408706,816.7399,799.81683,803.44324,816.337,781.685,-0.20587158203125,0.0093994140625,0.9908447265625,0.650482177734375,21.951904296875,-8.23944091796875,1,1.0,1.0,1.0,1.0,10.00
2024-10-11 20:18:04.025,0.41843265,0.82306737,0.8829897,0.35603863,0.68959886,0.29969627,0.42917535,-0.07378404,0.6869567,0.30085045,0.21415497,0.57072264,0.6058285,0.090943985,0.11199641,0.6640708,0.060994077,-0.11645754,-0.28480494,0.105408706,807.0696,805.05493,806.6667,821.978,646.30035,-0.20587158203125,0.0093994140625,0.9908447265625,0.650482177734375,21.951904296875,-8.23944091796875,1,1.0,1.0,1.0,1.0,10.00
2024-10-11 20:18:04.026,0.41843265,0.8361001,0.90633863,0.35603863,0.68959886,0.30731502,0.44064236,-0.07378404,0.6869567,0.30085045,0.19396886,0.57072264,0.6058285,0.10034706,0.101238355,0.6640708,0.060994077,-0.10575033,-0.30089894,0.105408706,805.4579,796.1905,801.4286,821.978,813.91943,-0.20587158203125,0.0093994140625,0.9908447265625,0.650482177734375,21.951904296875,-8.23944091796875,1,1.0,1.0,1.0,1.0,10.00
2024-10-11 20:18:04.031,0.41843265,0.8361001,0.90633863,0.35603863,0.68959886,0.30731502,0.44064236,-0.07378404,0.6869567,0.30085045,0.19396886,0.57072264,0.6058285,0.10034706,0.101238355,0.6640708,0.060994077,-0.10575033,-0.30089894,0.105408706,803.0403,795.38464,796.99634,815.5311,901.3553,-0.20587158203125,0.0093994140625,0.9908447265625,0.650482177734375,21.951904296875,-8.23944091796875,1,1.0,1.0,1.0,1.0,10.00
2024-10-11 20:18:04.032,0.41843265,0.8361001,0.90633863,0.35603863,0.68959886,0.30731502,0.44064236,-0.07378404,0.6869567,0.30085045,0.19396886,0.57072264,0.6058285,0.10034706,0.101238355,0.6640708,0.060994077,-0.10575033,-0.30089894,0.105408706,801.8315,798.20514,797.8022,816.337,735.7509,-0.20587158203125,0.0093994140625,0.9908447265625,0.650482177734375,21.951904296875,-8.23944091796875,1,1.0,1.0,1.0,1.0,10.00
2024-10-11 20:18:04.084,0.41843265,0.8361001,0.90633863,0.35603863,0.68959886,0.30731502,0.44064236,-0.07378404,0.6869567,0.30085045,0.19396886,0.57072264,0.6058285,0.10034706,0.101238355,0.6640708,0.060994077,-0.10575033,-0.30089894,0.105408706,805.4579,796.5934,797.8022,823.5897,762.74725,-0.22821044921875,0.007568359375,0.9820556640625,1.2860107421875,18.4527587890625,-7.185211181640625,1,1.0,1.0,1.0,1.0,10.00
2024-10-11 20:18:04.085,0.41843265,0.8361001,0.90633863,0.35603863,0.68959886,0.30731502,0.44064236,-0.07378404,0.6869567,0.30085045,0.19396886,0.57072264,0.6058285,0.10034706,0.101238355,0.6640708,0.060994077,-0.10575033,-0.30089894,0.105408706,814.7253,800.2198,804.2491,826.0073,812.71063,-0.22821044921875,0.007568359375,0.9820556640625,1.2860107421875,18.4527587890625,-7.185211181640625,1,1.0,1.0,1.0,1.0,10.00
2024-10-11 20:18:04.086,0.41843265,0.8361001,0.90633863,0.35603863,0.68959886,0.30731502,0.44064236,-0.07378404,0.6869567,0.30085045,0.19396886,0.57072264,0.6058285,0.10034706,0.101238355,0.6640708,0.060994077,-0.10575033,-0.30089894,0.105408706,819.9634,799.41394,803.8461,819.9634,616.08057,-0.22821044921875,0.007568359375,0.9820556640625,1.2860107421875,18.4527587890625,-7.185211181640625,1,1.0,1.0,1.0,1.0,10.00
2024-10-11 20:18:04.087,0.41843265,0.8361001,0.90633863,0.35603863,0.68959886,0.30731502,0.44064236,-0.07378404,0.6869567,0.30085045,0.19396886,0.57072264,0.6058285,0.10034706,0.101238355,0.6640708,0.060994077,-0.10575033,-0.30089894,0.105408706,809.4872,793.36993,795.78754,818.3516,623.3333,-0.22821044921875,0.007568359375,0.9820556640625,1.2860107421875,18.4527587890625,-7.185211181640625,1,1.0,1.0,1.0,1.0,10.00
2024-10-11 20:18:04.088,0.41843265,0.8361001,0.90633863,0.35603863,0.68959886,0.30731502,0.44064236,-0.07378404,0.6869567,0.30085045,0.19396886,0.57072264,0.6058285,0.10034706,0.101238355,0.6640708,0.060994077,-0.10575033,-0.30089894,0.105408706,805.8608,796.1905,791.75824,811.0989,701.0989,-0.22821044921875,0.007568359375,0.9820556640625,1.2860107421875,18.4527587890625,-7.185211181640625,1,1.0,1.0,1.0,1.0,10.00
2024-10-11 20:18:04.088,0.41843265,0.8361001,0.90633863,0.35603863,0.68959886,0.30731502,0.44064236,-0.07378404,0.6869567,0.30085045,0.19396886,0.57072264,0.6058285,0.10034706,0.101238355,0.6640708,0.060994077,-0.10575033,-0.30089894,0.105408706,810.293,789.34064,796.1905,807.0696,651.53845,-0.22821044921875,0.007568359375,0.9820556640625,1.2860107421875,18.4527587890625,-7.185211181640625,1,1.0,1.0,1.0,1.0,10.00
2024-10-11 20:18:04.089,0.41843265,0.8361001,0.90633863,0.35603863,0.68959886,0.30731502,0.44064236,-0.07378404,0.6869567,0.30085045,0.19396886,0.57072264,0.6058285,0.10034706,0.101238355,0.6640708,0.060994077,-0.10575033,-0.30089894,0.105408706,807.47253,783.69965,798.20514,809.0842,629.3773,-0.22821044921875,0.007568359375,0.9820556640625,1.2860107421875,18.4527587890625,-7.185211181640625,1,1.0,1.0,1.0,1.0,10.00
2024-10-11 20:18:04.090,0.41843265,0.8361001,0.90633863,0.35603863,0.68959886,0.30731502,0.44064236,-0.07378404,0.6869567,0.30085045,0.19396886,0.57072264,0.6058285,0.10034706,0.101238355,0.6640708,0.060994077,-0.10575033,-0.30089894,0.105408706,805.4579,788.5348,800.2198,803.44324,503.26007,-0.22821044921875,0.007568359375,0.9820556640625,1.2860107421875,18.4527587890625,-7.185211181640625,1,1.0,1.0,1.0,1.0,10.00
2024-10-11 20:18:04.090,0.41843265,0.8361001,0.90633863,0.35603863,0.68959886,0.30731502,0.44064236,-0.07378404,0.6869567,0.30085045,0.19396886,0.57072264,0.6058285,0.10034706,0.101238355,0.6640708,0.060994077,-0.10575033,-0.30089894,0.105408706,807.0696,786.1172,803.8461,800.6227,692.23444,-0.22821044921875,0.007568359375,0.9820556640625,1.2860107421875,18.4527587890625,-7.185211181640625,1,1.0,1.0,1.0,1.0,10.00
2024-10-11 20:18:04.091,0.41843265,0.8361001,0.90633863,0.35603863,0.68959886,0.30731502,0.44064236,-0.07378404,0.6869567,0.30085045,0.19396886,0.57072264,0.6058285,0.10034706,0.101238355,0.6640708,0.060994077,-0.10575033,-0.30089894,0.105408706,805.05493,794.17584,801.02563,803.8461,908.60803,-0.22821044921875,0.007568359375,0.9820556640625,1.2860107421875,18.4527587890625,-7.185211181640625,1,1.0,1.0,1.0,1.0,10.00
2024-10-11 20:18:04.092,0.41843265,0.8361001,0.90633863,0.35603863,0.68959886,0.30731502,0.44064236,-0.07378404,0.6869567,0.30085045,0.19396886,0.57072264,0.6058285,0.10034706,0.101238355,0.6640708,0.060994077,-0.10575033,-0.30089894,0.105408706,806.6667,799.011,794.9817,800.6227,608.4249,-0.22821044921875,0.007568359375,0.9820556640625,1.2860107421875,18.4527587890625,-7.185211181640625,1,1.0,1.0,1.0,1.0,10.00
2024-10-11 20:18:04.093,0.41843265,0.8361001,0.90633863,0.35603863,0.68959886,0.30731502,0.44064236,-0.07378404,0.6869567,0.30085045,0.19396886,0.57072264,0.6058285,0.10034706,0.101238355,0.6640708,0.060994077,-0.10575033,-0.30089894,0.105408706,812.3077,799.011,795.38464,799.81683,507.69232,-0.22821044921875,0.007568359375,0.9820556640625,1.2860107421875,18.4527587890625,-7.185211181640625,1,1.0,1.0,1.0,1.0,10.00
2024-10-11 20:18:04.151,0.41843265,0.8361001,0.90633863,0.35603863,0.68959886,0.30731502,0.44064236,-0.07378404,0.6869567,0.30085045,0.19396886,0.57072264,0.6058285,0.10034706,0.101238355,0.6640708,0.060994077,-0.10575033,-0.30089894,0.105408706,813.1135,795.78754,797.3993,801.02563,730.10986,-0.22479248046875,0.0152587890625,0.98248291015625,2.6318359375,17.406005859375,-8.456268310546875,1,1.0,1.0,1.0,1.0,10.00
2024-10-11 20:18:04.152,0.41843265,0.8361001,0.90633863,0.35603863,0.68959886,0.30731502,0.44064236,-0.07378404,0.6869567,0.30085045,0.19396886,0.57072264,0.6058285,0.10034706,0.101238355,0.6640708,0.060994077,-0.10575033,-0.30089894,0.105408706,817.9487,790.9524,795.38464,798.60803,839.304,-0.22479248046875,0.0152587890625,0.98248291015625,2.6318359375,17.406005859375,-8.456268310546875,1,1.0,1.0,1.0,1.0,10.00
2024-10-11 20:18:04.153,0.41843265,0.8361001,0.90633863,0.35603863,0.68959886,0.30731502,0.44064236,-0.07378404,0.6869567,0.30085045,0.19396886,0.57072264,0.6058285,0.10034706,0.101238355,0.6640708,0.060994077,-0.10575033,-0.30089894,0.105408706,812.3077,793.7729,795.38464,800.2198,652.74725,-0.22479248046875,0.0152587890625,0.98248291015625,2.6318359375,17.406005859375,-8.456268310546875,1,1.0,1.0,1.0,1.0,10.00
2024-10-11 20:18:04.154,0.41843265,0.8361001,0.90633863,0.35603863,0.68959886,0.30731502,0.44064236,-0.07378404,0.6869567,0.30085045,0.19396886,0.57072264,0.6058285,0.10034706,0.101238355,0.6640708,0.060994077,-0.10575033,-0.30089894,0.105408706,787.326,802.23444,801.4286,804.65204,598.3516,-0.22479248046875,0.0152587890625,0.98248291015625,2.6318359375,17.406005859375,-8.456268310546875,1,1.0,1.0,1.0,1.0,10.00
2024-10-11 20:18:04.155,0.41843265,0.8361001,0.90633863,0.35603863,0.68959886,0.30731502,0.44064236,-0.07378404,0.6869567,0.30085045,0.19396886,0.57072264,0.6058285,0.10034706,0.101238355,0.6640708,0.060994077,-0.10575033,-0.30089894,0.105408706,784.10254,786.52014,801.02563,807.0696,938.8278,-0.22479248046875,0.0152587890625,0.98248291015625,2.6318359375,17.406005859375,-8.456268310546875,1,1.0,1.0,1.0,1.0,10.00
2024-10-11 20:18:04.155,0.41843265,0.8361001,0.90633863,0.35603863,0.68959886,0.30731502,0.44064236,-0.07378404,0.6869567,0.30085045,0.19396886,0.57072264,0.6058285,0.10034706,0.101238355,0.6640708,0.060994077,-0.10575033,-0.30089894,0.105408706,779.67035,777.25275,798.20514,805.8608,1006.1172,-0.22479248046875,0.0152587890625,0.98248291015625,2.6318359375,17.406005859375,-8.456268310546875,1,1.0,1.0,1.0,1.0,10.00
2024-10-11 20:18:04.156,0.41843265,0.8361001,0.90633863,0.35603863,0.68959886,0.30731502,0.44064236,-0.07378404,0.6869567,0.30085045,0.19396886,0.57072264,0.6058285,0.10034706,0.101238355,0.6640708,0.060994077,-0.10575033,-0.30089894,0.105408706,774.0293,808.68134,796.5934,803.0403,817.5458,-0.22479248046875,0.0152587890625,0.98248291015625,2.6318359375,17.406005859375,-8.456268310546875,1,1.0,1.0,1.0,1.0,10.00
2024-10-11 20:18:04.157,0.41843265,0.8361001,0.90633863,0.35603863,0.68959886,0.30731502,0.44064236,-0.07378404,0.6869567,0.30085045,0.19396886,0.57072264,0.6058285,0.10034706,0.101238355,0.6640708,0.060994077,-0.10575033,-0.30089894,0.105408706,783.69965,810.293,799.41394,803.44324,666.8498,-0.22479248046875,0.0152587890625,0.98248291015625,2.6318359375,17.406005859375,-8.456268310546875,1,1.0,1.0,1.0,1.0,10.00
2024-10-11 20:18:04.157,0.41843265,0.8361001,0.90633863,0.35603863,0.68959886,0.30731502,0.44064236,-0.07378404,0.6869567,0.30085045,0.19396886,0.57072264,0.6058285,0.10034706,0.101238355,0.6640708,0.060994077,-0.10575033,-0.30089894,0.105408706,793.7729,784.10254,802.23444,814.7253,901.3553,-0.22479248046875,0.0152587890625,0.98248291015625,2.6318359375,17.406005859375,-8.456268310546875,1,1.0,1.0,1.0,1.0,10.00
2024-10-11 20:18:04.158,0.41843265,0.8361001,0.90633863,0.35603863,0.68959886,0.30731502,0.44064236,-0.07378404,0.6869567,0.30085045,0.19396886,0.57072264,0.6058285,0.10034706,0.101238355,0.6640708,0.060994077,-0.10575033,-0.30089894,0.105408706,792.1612,782.0879,806.6667,818.7546,941.2454,-0.22479248046875,0.0152587890625,0.98248291015625,2.6318359375,17.406005859375,-8.456268310546875,1,1.0,1.0,1.0,1.0,10.00
2024-10-11 20:18:04.159,0.41843265,0.8361001,0.90633863,0.35603863,0.68959886,0.30731502,0.44064236,-0.07378404,0.6869567,0.30085045,0.19396886,0.57072264,0.6058285,0.10034706,0.101238355,0.6640708,0.060994077,-0.10575033,-0.30089894,0.105408706,787.326,801.02563,803.8461,806.26373,670.4762,-0.22479248046875,0.0152587890625,0.98248291015625,2.6318359375,17.406005859375,-8.456268310546875,1,1.0,1.0,1.0,1.0,10.00
2024-10-11 20:18:04.159,0.41843265,0.83671516,0.9356067,0.35603863,0.68959886,0.2997991,0.4618895,-0.07378404,0.6869567,0.30085045,0.18634263,0.57072264,0.6058285,0.1219085,0.09665741,0.6640708,0.060994077,-0.08911292,-0.31196284,0.105408706,790.9524,802.23444,799.81683,809.4872,699.89014,-0.22479248046875,0.0152587890625,0.98248291015625,2.6318359375,17.406005859375,-8.456268310546875,1,1.0,1.0,1.0,1.0,10.00
2024-10-11 20:18:04.187,0.41843265,0.83671516,0.9356067,0.35603863,0.68959886,0.2997991,0.4618895,-0.07378404,0.6869567,0.30085045,0.18634263,0.57072264,0.6058285,0.1219085,0.09665741,0.6640708,0.060994077,-0.08911292,-0.31196284,0.105408706,792.96704,801.02563,801.8315,819.15753,979.12085,-0.22479248046875,0.0152587890625,0.98248291015625,2.6318359375,17.406005859375,-8.456268310546875,1,1.0,1.0,1.0,1.0,10.00
2024-10-11 20:18:04.188,0.41843265,0.83671516,0.9356067,0.35603863,0.68959886,0.2997991,0.4618895,-0.07378404,0.6869567,0.30085045,0.18634263,0.57072264,0.6058285,0.1219085,0.09665741,0.6640708,0.060994077,-0.08911292,-0.31196284,0.105408706,787.326,808.2784,800.6227,809.0842,869.5238,-0.22479248046875,0.0152587890625,0.98248291015625,2.6318359375,17.406005859375,-8.456268310546875,1,1.0,1.0,1.0,1.0,10.00
2024-10-11 20:18:04.188,0.41843265,0.83671516,0.9356067,0.35603863,0.68959886,0.2997991,0.4618895,-0.07378404,0.6869567,0.30085045,0.18634263,0.57072264,0.6058285,0.1219085,0.09665741,0.6640708,0.060994077,-0.08911292,-0.31196284,0.105408706,796.5934,799.011,803.0403,806.6667,628.5714,-0.22479248046875,0.0152587890625,0.98248291015625,2.6318359375,17.406005859375,-8.456268310546875,1,1.0,1.0,1.0,1.0,10.00
2024-10-11 20:18:04.189,0.41843265,0.83671516,0.9356067,0.35603863,0.68959886,0.2997991,0.4618895,-0.07378404,0.6869567,0.30085045,0.18634263,0.57072264,0.6058285,0.1219085,0.09665741,0.6640708,0.060994077,-0.08911292,-0.31196284,0.105408706,813.1135,770.0,810.696,816.337,722.0513,-0.22479248046875,0.0152587890625,0.98248291015625,2.6318359375,17.406005859375,-8.456268310546875,1,1.0,1.0,1.0,1.0,10.00
2024-10-11 20:18:04.190,0.41843265,0.83671516,0.9356067,0.35603863,0.68959886,0.2997991,0.4618895,-0.07378404,0.6869567,0.30085045,0.18634263,0.57072264,0.6058285,0.1219085,0.09665741,0.6640708,0.060994077,-0.08911292,-0.31196284,0.105408706,813.5165,775.64105,809.4872,814.7253,824.3956,-0.22479248046875,0.0152587890625,0.98248291015625,2.6318359375,17.406005859375,-8.456268310546875,1,1.0,1.0,1.0,1.0,10.00
2024-10-11 20:18:04.190,0.41843265,0.83671516,0.9356067,0.35603863,0.68959886,0.2997991,0.4618895,-0.07378404,0.6869567,0.30085045,0.18634263,0.57072264,0.6058285,0.1219085,0.09665741,0.6640708,0.060994077,-0.08911292,-0.31196284,0.105408706,821.978,805.4579,803.0403,815.5311,897.326,-0.22479248046875,0.0152587890625,0.98248291015625,2.6318359375,17.406005859375,-8.456268310546875,1,1.0,1.0,1.0,1.0,10.00
2024-10-11 20:18:04.191,0.41843265,0.83671516,0.9356067,0.35603863,0.68959886,0.2997991,0.4618895,-0.07378404,0.6869567,0.30085045,0.18634263,0.57072264,0.6058285,0.1219085,0.09665741,0.6640708,0.060994077,-0.08911292,-0.31196284,0.105408706,826.4103,805.4579,802.6374,813.91943,886.8498,-0.22479248046875,0.0152587890625,0.98248291015625,2.6318359375,17.406005859375,-8.456268310546875,1,1.0,1.0,1.0,1.0,10.00
2024-10-11 20:18:04.192,0.41843265,0.83671516,0.9356067,0.35603863,0.68959886,0.2997991,0.4618895,-0.07378404,0.6869567,0.30085045,0.18634263,0.57072264,0.6058285,0.1219085,0.09665741,0.6640708,0.060994077,-0.08911292,-0.31196284,0.105408706,821.978,788.93774,802.23444,809.4872,718.022,-0.22479248046875,0.0152587890625,0.98248291015625,2.6318359375,17.406005859375,-8.456268310546875,1,1.0,1.0,1.0,1.0,10.00
2024-10-11 20:18:04.192,0.41843265,0.83671516,0.9356067,0.35603863,0.68959886,0.2997991,0.4618895,-0.07378404,0.6869567,0.30085045,0.18634263,0.57072264,0.6058285,0.1219085,0.09665741,0.6640708,0.060994077,-0.08911292,-0.31196284,0.105408706,819.5604,796.5934,807.8755,821.1722,608.4249,-0.22479248046875,0.0152587890625,0.98248291015625,2.6318359375,17.406005859375,-8.456268310546875,1,1.0,1.0,1.0,1.0,10.00
2024-10-11 20:18:04.193,0.41843265,0.83671516,0.9356067,0.35603863,0.68959886,0.2997991,0.4618895,-0.07378404,0.6869567,0.30085045,0.18634263,0.57072264,0.6058285,0.1219085,0.09665741,0.6640708,0.060994077,-0.08911292,-0.31196284,0.105408706,813.91943,815.9341,800.6227,809.0842,521.39197,-0.22479248046875,0.0152587890625,0.98248291015625,2.6318359375,17.406005859375,-8.456268310546875,1,1.0,1.0,1.0,1.0,10.00
2024-10-11 20:18:04.193,0.41843265,0.83671516,0.9356067,0.35603863,0.68959886,0.2997991,0.4618895,-0.07378404,0.6869567,0.30085045,0.18634263,0.57072264,0.6058285,0.1219085,0.09665741,0.6640708,0.060994077,-0.08911292,-0.31196284,0.105408706,817.9487,825.6044,798.20514,787.72894,527.03296,-0.22479248046875,0.0152587890625,0.98248291015625,2.6318359375,17.406005859375,-8.456268310546875,1,1.0,1.0,1.0,1.0,10.00
2024-10-11 20:18:04.194,0.41843265,0.83671516,0.9356067,0.35603863,0.68959886,0.2997991,0.4618895,-0.07378404,0.6869567,0.30085045,0.18634263,0.57072264,0.6058285,0.1219085,0.09665741,0.6640708,0.060994077,-0.08911292,-0.31196284,0.105408706,836.8865,793.7729,805.4579,790.54944,568.93774,-0.22479248046875,0.0152587890625,0.98248291015625,2.6318359375,17.406005859375,-8.456268310546875,1,1.0,1.0,1.0,1.0,10.00
2024-10-11 20:18:04.288,0.41843265,0.83671516,0.9356067,0.35603863,0.68959886,0.2997991,0.4618895,-0.07378404,0.6869567,0.30085045,0.18634263,0.57072264,0.6058285,0.1219085,0.09665741,0.6640708,0.060994077,-0.08911292,-0.31196284,0.105408706,833.663,751.4652,809.4872,797.8022,556.04395,-0.2386474609375,0.02545166015625,0.97943115234375,5.03936767578125,21.929473876953125,-5.1739501953125,1,1.0,1.0,1.0,1.0,10.00
2024-10-11 20:18:04.289,0.41843265,0.83671516,0.9356067,0.35603863,0.68959886,0.2997991,0.4618895,-0.07378404,0.6869567,0.30085045,0.18634263,0.57072264,0.6058285,0.1219085,0.09665741,0.6640708,0.060994077,-0.08911292,-0.31196284,0.105408706,810.696,786.1172,804.2491,794.17584,515.7509,-0.2386474609375,0.02545166015625,0.97943115234375,5.03936767578125,21.929473876953125,-5.1739501953125,1,1.0,1.0,1.0,1.0,10.00
2024-10-11 20:18:04.290,0.41843265,0.83671516,0.9356067,0.35603863,0.68959886,0.2997991,0.4618895,-0.07378404,0.6869567,0.30085045,0.18634263,0.57072264,0.6058285,0.1219085,0.09665741,0.6640708,0.060994077,-0.08911292,-0.31196284,0.105408706,807.0696,833.663,797.3993,794.17584,603.1868,-0.2386474609375,0.02545166015625,0.97943115234375,5.03936767578125,21.929473876953125,-5.1739501953125,1,1.0,1.0,1.0,1.0,10.00
2024-10-11 20:18:04.291,0.41843265,0.83671516,0.9356067,0.35603863,0.68959886,0.2997991,0.4618895,-0.07378404,0.6869567,0.30085045,0.18634263,0.57072264,0.6058285,0.1219085,0.09665741,0.6640708,0.060994077,-0.08911292,-0.31196284,0.105408706,800.6227,821.1722,798.60803,798.20514,755.4945,-0.2386474609375,0.02545166015625,0.97943115234375,5.03936767578125,21.929473876953125,-5.1739501953125,1,1.0,1.0,1.0,1.0,10.00
2024-10-11 20:18:04.291,0.41843265,0.83671516,0.9356067,0.35603863,0.68959886,0.2997991,0.4618895,-0.07378404,0.6869567,0.30085045,0.18634263,0.57072264,0.6058285,0.1219085,0.09665741,0.6640708,0.060994077,-0.08911292,-0.31196284,0.105408706,786.9231,793.7729,800.6227,795.78754,669.2674,-0.2386474609375,0.02545166015625,0.97943115234375,5.03936767578125,21.929473876953125,-5.1739501953125,1,1.0,1.0,1.0,1.0,10.00
2024-10-11 20:18:04.292,0.41843265,0.83671516,0.9356067,0.35603863,0.68959886,0.2997991,0.4618895,-0.07378404,0.6869567,0.30085045,0.18634263,0.57072264,0.6058285,0.1219085,0.09665741,0.6640708,0.060994077,-0.08911292,-0.31196284,0.105408706,762.74725,784.90845,803.8461,800.6227,594.3223,-0.2386474609375,0.02545166015625,0.97943115234375,5.03936767578125,21.929473876953125,-5.1739501953125,1,1.0,1.0,1.0,1.0,10.00
2024-10-11 20:18:04.293,0.41843265,0.83671516,0.9356067,0.35603863,0.68959886,0.2997991,0.4618895,-0.07378404,0.6869567,0.30085045,0.18634263,0.57072264,0.6058285,0.1219085,0.09665741,0.6640708,0.060994077,-0.08911292,-0.31196284,0.105408706,753.0769,795.78754,801.02563,809.89014,706.337,-0.2386474609375,0.02545166015625,0.97943115234375,5.03936767578125,21.929473876953125,-5.1739501953125,1,1.0,1.0,1.0,1.0,10.00
2024-10-11 20:18:04.294,0.41843265,0.83671516,0.9356067,0.35603863,0.68959886,0.2997991,0.4618895,-0.07378404,0.6869567,0.30085045,0.18634263,0.57072264,0.6058285,0.1219085,0.09665741,0.6640708,0.060994077,-0.08911292,-0.31196284,0.105408706,756.7033,810.696,800.6227,809.0842,885.64105,-0.2386474609375,0.02545166015625,0.97943115234375,5.03936767578125,21.929473876953125,-5.1739501953125,1,1.0,1.0,1.0,1.0,10.00
2024-10-11 20:18:04.295,0.41843265,0.83671516,0.9356067,0.35603863,0.68959886,0.2997991,0.4618895,-0.07378404,0.6869567,0.30085045,0.18634263,0.57072264,0.6058285,0.1219085,0.09665741,0.6640708,0.060994077,-0.08911292,-0.31196284,0.105408706,768.3883,806.26373,803.8461,803.44324,701.50183,-0.2386474609375,0.02545166015625,0.97943115234375,5.03936767578125,21.929473876953125,-5.1739501953125,1,1.0,1.0,1.0,1.0,10.00
2024-10-11 20:18:04.296,0.41843265,0.83671516,0.9356067,0.35603863,0.68959886,0.2997991,0.4618895,-0.07378404,0.6869567,0.30085045,0.18634263,0.57072264,0.6058285,0.1219085,0.09665741,0.6640708,0.060994077,-0.08911292,-0.31196284,0.105408706,776.04395,805.8608,799.81683,802.6374,492.38095,-0.2386474609375,0.02545166015625,0.97943115234375,5.03936767578125,21.929473876953125,-5.1739501953125,1,1.0,1.0,1.0,1.0,10.00
2024-10-11 20:18:04.297,0.41843265,0.83671516,0.9356067,0.35603863,0.68959886,0.2997991,0.4618895,-0.07378404,0.6869567,0.30085045,0.18634263,0.57072264,0.6058285,0.1219085,0.09665741,0.6640708,0.060994077,-0.08911292,-0.31196284,0.105408706,788.5348,799.81683,801.8315,804.65204,660.80585,-0.2386474609375,0.02545166015625,0.97943115234375,5.03936767578125,21.929473876953125,-5.1739501953125,1,1.0,1.0,1.0,1.0,10.00
2024-10-11 20:18:04.297,0.41843265,0.83671516,0.9356067,0.35603863,0.68959886,0.2997991,0.4618895,-0.07378404,0.6869567,0.30085045,0.18634263,0.57072264,0.6058285,0.1219085,0.09665741,0.6640708,0.060994077,-0.08911292,-0.31196284,0.105408706,789.34064,788.93774,802.23444,805.8608,894.10254,-0.2386474609375,0.02545166015625,0.97943115234375,5.03936767578125,21.929473876953125,-5.1739501953125,1,1.0,1.0,1.0,1.0,10.00
2024-10-11 20:18:04.322,0.41843265,0.83671516,0.9356067,0.35603863,0.68959886,0.2997991,0.4618895,-0.07378404,0.6869567,0.30085045,0.18634263,0.57072264,0.6058285,0.1219085,0.09665741,0.6640708,0.060994077,-0.08911292,-0.31196284,0.105408706,787.326,791.75824,801.4286,801.02563,718.4249,-0.26513671875,0.0325927734375,0.9742431640625,4.044952392578125,21.81732177734375,-5.7122802734375,1,1.0,1.0,1.0,1.0,10.00
2024-10-11 20:18:04.322,0.41843265,0.82689476,0.97179866,0.35603863,0.68959886,0.28572595,0.49342176,-0.07378404,0.6869567,0.30085045,0.18634263,0.57072264,0.6058285,0.15212055,0.10045958,0.6640708,0.060994077,-0.069707915,-0.31075817,0.105408706,797.8022,799.011,806.26373,799.011,483.9194,-0.26513671875,0.0325927734375,0.9742431640625,4.044952392578125,21.81732177734375,-5.7122802734375,1,2.0,1.0,1.0,2.0,10.00
2024-10-11 20:18:04.327,0.41843265,0.82689476,0.97179866,0.35603863,0.68959886,0.28572595,0.49342176,-0.07378404,0.6869567,0.30085045,0.18634263,0.57072264,0.6058285,0.15212055,0.10045958,0.6640708,0.060994077,-0.069707915,-0.31075817,0.105408706,795.38464,796.5934,797.3993,799.41394,593.91943,-0.26513671875,0.0325927734375,0.9742431640625,4.044952392578125,21.81732177734375,-5.7122802734375,1,2.0,1.0,1.0,2.0,10.00
2024-10-11 20:18:04.328,0.41843265,0.82689476,0.97179866,0.35603863,0.68959886,0.28572595,0.49342176,-0.07378404,0.6869567,0.30085045,0.18634263,0.57072264,0.6058285,0.15212055,0.10045958,0.6640708,0.060994077,-0.069707915,-0.31075817,0.105408706,794.17584,783.69965,792.1612,801.8315,835.2747,-0.26513671875,0.0325927734375,0.9742431640625,4.044952392578125,21.81732177734375,-5.7122802734375,1,2.0,1.0,1.0,2.0,10.00
2024-10-11 20:18:04.329,0.41843265,0.82689476,0.97179866,0.35603863,0.68959886,0.28572595,0.49342176,-0.07378404,0.6869567,0.30085045,0.18634263,0.57072264,0.6058285,0.15212055,0.10045958,0.6640708,0.060994077,-0.069707915,-0.31075817,0.105408706,802.23444,776.4469,801.4286,803.0403,704.7253,-0.26513671875,0.0325927734375,0.9742431640625,4.044952392578125,21.81732177734375,-5.7122802734375,1,2.0,1.0,1.0,2.0,10.00
2024-10-11 20:18:04.329,0.41843265,0.82689476,0.97179866,0.35603863,0.68959886,0.28572595,0.49342176,-0.07378404,0.6869567,0.30085045,0.18634263,0.57072264,0.6058285,0.15212055,0.10045958,0.6640708,0.060994077,-0.069707915,-0.31075817,0.105408706,799.81683,792.5641,803.44324,797.8022,620.5128,-0.26513671875,0.0325927734375,0.9742431640625,4.044952392578125,21.81732177734375,-5.7122802734375,1,2.0,1.0,1.0,2.0,10.00
2024-10-11 20:18:04.330,0.41843265,0.82689476,0.97179866,0.35603863,0.68959886,0.28572595,0.49342176,-0.07378404,0.6869567,0.30085045,0.18634263,0.57072264,0.6058285,0.15212055,0.10045958,0.6640708,0.060994077,-0.069707915,-0.31075817,0.105408706,803.0403,803.0403,803.0403,794.9817,901.3553,-0.26513671875,0.0325927734375,0.9742431640625,4.044952392578125,21.81732177734375,-5.7122802734375,1,2.0,1.0,1.0,2.0,10.00
2024-10-11 20:18:04.331,0.41843265,0.82689476,0.97179866,0.35603863,0.68959886,0.28572595,0.49342176,-0.07378404,0.6869567,0.30085045,0.18634263,0.57072264,0.6058285,0.15212055,0.10045958,0.6640708,0.060994077,-0.069707915,-0.31075817,0.105408706,811.50183,802.6374,799.41394,807.8755,926.337,-0.26513671875,0.0325927734375,0.9742431640625,4.044952392578125,21.81732177734375,-5.7122802734375,1,2.0,1.0,1.0,2.0,10.00
2024-10-11 20:18:04.331,0.41843265,0.82689476,0.97179866,0.35603863,0.68959886,0.28572595,0.49342176,-0.07378404,0.6869567,0.30085045,0.18634263,0.57072264,0.6058285,0.15212055,0.10045958,0.6640708,0.060994077,-0.069707915,-0.31075817,0.105408706,809.0842,804.2491,796.1905,805.4579,653.5531,-0.26513671875,0.0325927734375,0.9742431640625,4.044952392578125,21.81732177734375,-5.7122802734375,1,2.0,1.0,1.0,2.0,10.00
2024-10-11 20:18:04.332,0.41843265,0.82689476,0.97179866,0.35603863,0.68959886,0.28572595,0.49342176,-0.07378404,0.6869567,0.30085045,0.18634263,0.57072264,0.6058285,0.15212055,0.10045958,0.6640708,0.060994077,-0.069707915,-0.31075817,0.105408706,800.2198,803.8461,804.65204,792.1612,557.25275,-0.26513671875,0.0325927734375,0.9742431640625,4.044952392578125,21.81732177734375,-5.7122802734375,1,2.0,1.0,1.0,2.0,10.00
2024-10-11 20:18:04.333,0.41843265,0.82689476,0.97179866,0.35603863,0.68959886,0.28572595,0.49342176,-0.07378404,0.6869567,0.30085045,0.18634263,0.57072264,0.6058285,0.15212055,0.10045958,0.6640708,0.060994077,-0.069707915,-0.31075817,0.105408706,792.96704,791.3553,807.8755,795.78754,655.16486,-0.26513671875,0.0325927734375,0.9742431640625,4.044952392578125,21.81732177734375,-5.7122802734375,1,2.0,1.0,1.0,2.0,10.00
2024-10-11 20:18:04.334,0.41843265,0.82689476,0.97179866,0.35603863,0.68959886,0.28572595,0.49342176,-0.07378404,0.6869567,0.30085045,0.18634263,0.57072264,0.6058285,0.15212055,0.10045958,0.6640708,0.060994077,-0.069707915,-0.31075817,0.105408706,794.9817,790.54944,802.6374,807.47253,801.4286,-0.26513671875,0.0325927734375,0.9742431640625,4.044952392578125,21.81732177734375,-5.7122802734375,1,2.0,1.0,1.0,2.0,10.00
2024-10-11 20:18:04.388,0.41843265,0.82689476,0.97179866,0.35603863,0.68959886,0.28572595,0.49342176,-0.07378404,0.6869567,0.30085045,0.18634263,0.57072264,0.6058285,0.15212055,0.10045958,0.6640708,0.060994077,-0.069707915,-0.31075817,0.105408706,794.9817,799.81683,801.8315,805.4579,711.1722,-0.30621337890625,0.015869140625,0.96868896484375,2.983245849609375,18.639678955078125,-7.73101806640625,1,2.0,1.0,1.0,2.0,10.00
2024-10-11 20:18:04.389,0.41843265,0.82689476,0.97179866,0.35603863,0.68959886,0.28572595,0.49342176,-0.07378404,0.6869567,0.30085045,0.18634263,0.57072264,0.6058285,0.15212055,0.10045958,0.6640708,0.060994077,-0.069707915,-0.31075817,0.105408706,791.3553,796.1905,809.4872,797.8022,620.9158,-0.30621337890625,0.015869140625,0.96868896484375,2.983245849609375,18.639678955078125,-7.73101806640625,1,2.0,1.0,1.0,2.0,10.00
2024-10-11 20:18:04.389,0.41843265,0.82689476,0.97179866,0.35603863,0.68959886,0.28572595,0.49342176,-0.07378404,0.6869567,0.30085045,0.18634263,0.57072264,0.6058285,0.15212055,0.10045958,0.6640708,0.060994077,-0.069707915,-0.31075817,0.105408706,795.38464,803.0403,805.8608,800.2198,740.18317,-0.30621337890625,0.015869140625,0.96868896484375,2.983245849609375,18.639678955078125,-7.73101806640625,1,2.0,1.0,1.0,2.0,10.00
2024-10-11 20:18:04.390,0.41843265,0.82689476,0.97179866,0.35603863,0.68959886,0.28572595,0.49342176,-0.07378404,0.6869567,0.30085045,0.18634263,0.57072264,0.6058285,0.15212055,0.10045958,0.6640708,0.060994077,-0.069707915,-0.31075817,0.105408706,788.93774,811.9048,802.6374,794.9817,817.9487,-0.30621337890625,0.015869140625,0.96868896484375,2.983245849609375,18.639678955078125,-7.73101806640625,1,2.0,1.0,1.0,2.0,10.00
2024-10-11 20:18:04.391,0.41843265,0.82689476,0.97179866,0.35603863,0.68959886,0.28572595,0.49342176,-0.07378404,0.6869567,0.30085045,0.18634263,0.57072264,0.6058285,0.15212055,0.10045958,0.6640708,0.060994077,-0.069707915,-0.31075817,0.105408706,791.75824,810.293,803.8461,793.36993,746.63007,-0.30621337890625,0.015869140625,0.96868896484375,2.983245849609375,18.639678955078125,-7.73101806640625,1,2.0,1.0,1.0,2.0,10.00
2024-10-11 20:18:04.392,0.41843265,0.82689476,0.97179866,0.35603863,0.68959886,0.28572595,0.49342176,-0.07378404,0.6869567,0.30085045,0.18634263,0.57072264,0.6058285,0.15212055,0.10045958,0.6640708,0.060994077,-0.069707915,-0.31075817,0.105408706,799.41394,790.9524,803.44324,800.6227,743.00366,-0.30621337890625,0.015869140625,0.96868896484375,2.983245849609375,18.639678955078125,-7.73101806640625,1,2.0,1.0,1.0,2.0,10.00
2024-10-11 20:18:04.392,0.41843265,0.82689476,0.97179866,0.35603863,0.68959886,0.28572595,0.49342176,-0.07378404,0.6869567,0.30085045,0.18634263,0.57072264,0.6058285,0.15212055,0.10045958,0.6640708,0.060994077,-0.069707915,-0.31075817,0.105408706,789.7436,782.49084,801.8315,797.8022,954.5421,-0.30621337890625,0.015869140625,0.96868896484375,2.983245849609375,18.639678955078125,-7.73101806640625,1,2.0,1.0,1.0,2.0,10.00
2024-10-11 20:18:04.393,0.41843265,0.82689476,0.97179866,0.35603863,0.68959886,0.28572595,0.49342176,-0.07378404,0.6869567,0.30085045,0.18634263,0.57072264,0.6058285,0.15212055,0.10045958,0.6640708,0.060994077,-0.069707915,-0.31075817,0.105408706,788.5348,807.0696,807.0696,794.57874,865.89746,-0.30621337890625,0.015869140625,0.96868896484375,2.983245849609375,18.639678955078125,-7.73101806640625,1,2.0,1.0,1.0,2.0,10.00
2024-10-11 20:18:04.394,0.41843265,0.82689476,0.97179866,0.35603863,0.68959886,0.28572595,0.49342176,-0.07378404,0.6869567,0.30085045,0.18634263,0.57072264,0.6058285,0.15212055,0.10045958,0.6640708,0.060994077,-0.069707915,-0.31075817,0.105408706,788.93774,813.1135,808.2784,801.8315,644.2857,-0.30621337890625,0.015869140625,0.96868896484375,2.983245849609375,18.639678955078125,-7.73101806640625,1,2.0,1.0,1.0,2.0,10.00
