TimeStamp,Delta_TP9,Delta_AF7,Delta_AF8,Delta_TP10,Theta_TP9,Theta_AF7,Theta_AF8,Theta_TP10,Alpha_TP9,Alpha_AF7,Alpha_AF8,Alpha_TP10,Beta_TP9,Beta_AF7,Beta_AF8,Beta_TP10,Gamma_TP9,Gamma_AF7,Gamma_AF8,Gamma_TP10,RAW_TP9,RAW_AF7,RAW_AF8,RAW_TP10,AUX_RIGHT,Accelerometer_X,Accelerometer_Y,Accelerometer_Z,Gyro_X,Gyro_Y,Gyro_Z,HeadBandOn,HSI_TP9,HSI_AF7,HSI_AF8,HSI_TP10,Battery,Elements
2024-10-11 20:18:40.568,1.1459153,0.23280449,0.8951744,0.69606996,0.27768177,0.09857031,0.48838732,0.18633027,0.76277846,-0.03967597,0.45384112,0.5718314,0.5729701,0.05623661,0.10271982,0.4273136,0.44820297,-0.13994941,-0.3220382,-0.11268677,788.1319,799.81683,803.8461,801.02563,726.4835,-0.0234375,0.0869140625,1.002685546875,-0.3289794921875,-2.130889892578125,-2.7215576171875,1,1.0,1.0,1.0,1.0,10.00
2024-10-11 20:18:40.569,1.1459153,0.23280449,0.8951744,0.69606996,0.27768177,0.09857031,0.48838732,0.18633027,0.76277846,-0.03967597,0.45384112,0.5718314,0.5729701,0.05623661,0.10271982,0.4273136,0.44820297,-0.13994941,-0.3220382,-0.11268677,788.93774,798.20514,799.41394,807.8755,703.1135,-0.0234375,0.0869140625,1.002685546875,-0.3289794921875,-2.130889892578125,-2.7215576171875,1,1.0,1.0,1.0,1.0,10.00
2024-10-11 20:18:40.571,1.1459153,0.23280449,0.8951744,0.69606996,0.27768177,0.09857031,0.48838732,0.18633027,0.76277846,-0.03967597,0.45384112,0.5718314,0.5729701,0.05623661,0.10271982,0.4273136,0.44820297,-0.13994941,-0.3220382,-0.11268677,788.5348,789.34064,799.41394,807.47253,671.28204,-0.0234375,0.0869140625,1.002685546875,-0.3289794921875,-2.130889892578125,-2.7215576171875,1,1.0,1.0,1.0,1.0,10.00
2024-10-11 20:18:40.572,1.1459153,0.23280449,0.8951744,0.69606996,0.27768177,0.09857031,0.48838732,0.18633027,0.76277846,-0.03967597,0.45384112,0.5718314,0.5729701,0.05623661,0.10271982,0.4273136,0.44820297,-0.13994941,-0.3220382,-0.11268677,795.38464,788.93774,801.8315,807.0696,854.61536,-0.0234375,0.0869140625,1.002685546875,-0.3289794921875,-2.130889892578125,-2.7215576171875,1,1.0,1.0,1.0,1.0,10.00
2024-10-11 20:18:40.572,1.1459153,0.23280449,0.8951744,0.69606996,0.27768177,0.09857031,0.48838732,0.18633027,0.76277846,-0.03967597,0.45384112,0.5718314,0.5729701,0.05623661,0.10271982,0.4273136,0.44820297,-0.13994941,-0.3220382,-0.11268677,801.8315,802.6374,798.20514,805.4579,855.42126,-0.0234375,0.0869140625,1.002685546875,-0.3289794921875,-2.130889892578125,-2.7215576171875,1,1.0,1.0,1.0,1.0,10.00
2024-10-11 20:18:40.573,1.1459153,0.23280449,0.8951744,0.69606996,0.27768177,0.09857031,0.48838732,0.18633027,0.76277846,-0.03967597,0.45384112,0.5718314,0.5729701,0.05623661,0.10271982,0.4273136,0.44820297,-0.13994941,-0.3220382,-0.11268677,796.99634,802.23444,798.60803,804.2491,848.5714,-0.0234375,0.0869140625,1.002685546875,-0.3289794921875,-2.130889892578125,-2.7215576171875,1,1.0,1.0,1.0,1.0,10.00
2024-10-11 20:18:40.574,1.1459153,0.23280449,0.8951744,0.69606996,0.27768177,0.09857031,0.48838732,0.18633027,0.76277846,-0.03967597,0.45384112,0.5718314,0.5729701,0.05623661,0.10271982,0.4273136,0.44820297,-0.13994941,-0.3220382,-0.11268677,801.4286,795.78754,801.4286,805.05493,829.2308,-0.0234375,0.0869140625,1.002685546875,-0.3289794921875,-2.130889892578125,-2.7215576171875,1,1.0,1.0,1.0,1.0,10.00
2024-10-11 20:18:40.574,1.1459153,0.23280449,0.8951744,0.69606996,0.27768177,0.09857031,0.48838732,0.18633027,0.76277846,-0.03967597,0.45384112,0.5718314,0.5729701,0.05623661,0.10271982,0.4273136,0.44820297,-0.13994941,-0.3220382,-0.11268677,808.68134,799.41394,801.8315,801.8315,901.75824,-0.0234375,0.0869140625,1.002685546875,-0.3289794921875,-2.130889892578125,-2.7215576171875,1,1.0,1.0,1.0,1.0,10.00
2024-10-11 20:18:40.575,1.1459153,0.23280449,0.8951744,0.69606996,0.27768177,0.09857031,0.48838732,0.18633027,0.76277846,-0.03967597,0.45384112,0.5718314,0.5729701,0.05623661,0.10271982,0.4273136,0.44820297,-0.13994941,-0.3220382,-0.11268677,809.4872,798.60803,802.23444,795.38464,884.83514,-0.0234375,0.0869140625,1.002685546875,-0.3289794921875,-2.130889892578125,-2.7215576171875,1,1.0,1.0,1.0,1.0,10.00
2024-10-11 20:18:40.576,1.1459153,0.23280449,0.8951744,0.69606996,0.27768177,0.09857031,0.48838732,0.18633027,0.76277846,-0.03967597,0.45384112,0.5718314,0.5729701,0.05623661,0.10271982,0.4273136,0.44820297,-0.13994941,-0.3220382,-0.11268677,807.0696,793.7729,800.6227,791.75824,679.7436,-0.0234375,0.0869140625,1.002685546875,-0.3289794921875,-2.130889892578125,-2.7215576171875,1,1.0,1.0,1.0,1.0,10.00
2024-10-11 20:18:40.576,1.1459153,0.23280449,0.8951744,0.69606996,0.27768177,0.09857031,0.48838732,0.18633027,0.76277846,-0.03967597,0.45384112,0.5718314,0.5729701,0.05623661,0.10271982,0.4273136,0.44820297,-0.13994941,-0.3220382,-0.11268677,797.3993,795.38464,800.6227,797.8022,753.8828,-0.0234375,0.0869140625,1.002685546875,-0.3289794921875,-2.130889892578125,-2.7215576171875,1,1.0,1.0,1.0,1.0,10.00
2024-10-11 20:18:40.577,1.1459153,0.23280449,0.8951744,0.69606996,0.27768177,0.09857031,0.48838732,0.18633027,0.76277846,-0.03967597,0.45384112,0.5718314,0.5729701,0.05623661,0.10271982,0.4273136,0.44820297,-0.13994941,-0.3220382,-0.11268677,784.5055,794.9817,806.6667,805.05493,809.0842,-0.0234375,0.0869140625,1.002685546875,-0.3289794921875,-2.130889892578125,-2.7215576171875,1,1.0,1.0,1.0,1.0,10.00
2024-10-11 20:18:40.621,1.1459153,0.23280449,0.8951744,0.69606996,0.27768177,0.09857031,0.48838732,0.18633027,0.76277846,-0.03967597,0.45384112,0.5718314,0.5729701,0.05623661,0.10271982,0.4273136,0.44820297,-0.13994941,-0.3220382,-0.11268677,770.80585,796.1905,807.0696,805.05493,714.3956,-0.04144287109375,0.0849609375,1.00537109375,-0.665435791015625,-1.278533935546875,-5.704803466796875,1,1.0,1.0,1.0,1.0,10.00
2024-10-11 20:18:40.623,1.1459153,0.23280449,0.8951744,0.69606996,0.27768177,0.09857031,0.48838732,0.18633027,0.76277846,-0.03967597,0.45384112,0.5718314,0.5729701,0.05623661,0.10271982,0.4273136,0.44820297,-0.13994941,-0.3220382,-0.11268677,776.04395,794.57874,806.6667,806.26373,750.2564,-0.04144287109375,0.0849609375,1.00537109375,-0.665435791015625,-1.278533935546875,-5.704803466796875,1,1.0,1.0,1.0,1.0,10.00
2024-10-11 20:18:40.625,1.1459153,0.23280449,0.8951744,0.69606996,0.27768177,0.09857031,0.48838732,0.18633027,0.76277846,-0.03967597,0.45384112,0.5718314,0.5729701,0.05623661,0.10271982,0.4273136,0.44820297,-0.13994941,-0.3220382,-0.11268677,786.52014,794.17584,807.0696,808.2784,890.07324,-0.04144287109375,0.0849609375,1.00537109375,-0.665435791015625,-1.278533935546875,-5.704803466796875,1,1.0,1.0,1.0,1.0,10.00
2024-10-11 20:18:40.627,1.1459153,0.23280449,0.8951744,0.69606996,0.27768177,0.09857031,0.48838732,0.18633027,0.76277846,-0.03967597,0.45384112,0.5718314,0.5729701,0.05623661,0.10271982,0.4273136,0.44820297,-0.13994941,-0.3220382,-0.11268677,784.10254,799.011,803.44324,801.8315,948.9011,-0.04144287109375,0.0849609375,1.00537109375,-0.665435791015625,-1.278533935546875,-5.704803466796875,1,1.0,1.0,1.0,1.0,10.00
2024-10-11 20:18:40.628,1.1459153,0.23280449,0.8951744,0.69606996,0.27768177,0.09857031,0.48838732,0.18633027,0.76277846,-0.03967597,0.45384112,0.5718314,0.5729701,0.05623661,0.10271982,0.4273136,0.44820297,-0.13994941,-0.3220382,-0.11268677,785.31134,799.41394,798.20514,794.57874,789.34064,-0.04144287109375,0.0849609375,1.00537109375,-0.665435791015625,-1.278533935546875,-5.704803466796875,1,1.0,1.0,1.0,1.0,10.00
2024-10-11 20:18:40.629,1.1459153,0.23280449,0.8951744,0.69606996,0.27768177,0.09857031,0.48838732,0.18633027,0.76277846,-0.03967597,0.45384112,0.5718314,0.5729701,0.05623661,0.10271982,0.4273136,0.44820297,-0.13994941,-0.3220382,-0.11268677,794.9817,802.6374,797.3993,795.78754,743.00366,-0.04144287109375,0.0849609375,1.00537109375,-0.665435791015625,-1.278533935546875,-5.704803466796875,1,1.0,1.0,1.0,1.0,10.00
2024-10-11 20:18:40.630,1.1459153,0.23280449,0.8951744,0.69606996,0.27768177,0.09857031,0.48838732,0.18633027,0.76277846,-0.03967597,0.45384112,0.5718314,0.5729701,0.05623661,0.10271982,0.4273136,0.44820297,-0.13994941,-0.3220382,-0.11268677,797.8022,802.23444,801.02563,801.02563,1066.1538,-0.04144287109375,0.0849609375,1.00537109375,-0.665435791015625,-1.278533935546875,-5.704803466796875,1,1.0,1.0,1.0,1.0,10.00
2024-10-11 20:18:40.630,1.1459153,0.05795486,0.8509782,0.70520926,0.27768177,0.07009308,0.44656426,0.18328734,0.76277846,-0.044079635,0.45384112,0.5718314,0.5729701,0.056608714,0.10442804,0.4087105,0.44820297,-0.14528088,-0.33982602,-0.059220638,795.78754,797.8022,802.23444,807.47253,1166.0806,-0.04144287109375,0.0849609375,1.00537109375,-0.665435791015625,-1.278533935546875,-5.704803466796875,1,1.0,1.0,1.0,1.0,10.00
2024-10-11 20:18:40.638,1.1459153,0.05795486,0.8509782,0.70520926,0.27768177,0.07009308,0.44656426,0.18328734,0.76277846,-0.044079635,0.45384112,0.5718314,0.5729701,0.056608714,0.10442804,0.4087105,0.44820297,-0.14528088,-0.33982602,-0.059220638,791.75824,796.99634,803.0403,805.05493,833.663,-0.04144287109375,0.0849609375,1.00537109375,-0.665435791015625,-1.278533935546875,-5.704803466796875,1,1.0,1.0,1.0,1.0,10.00
2024-10-11 20:18:40.639,1.1459153,0.05795486,0.8509782,0.70520926,0.27768177,0.07009308,0.44656426,0.18328734,0.76277846,-0.044079635,0.45384112,0.5718314,0.5729701,0.056608714,0.10442804,0.4087105,0.44820297,-0.14528088,-0.33982602,-0.059220638,784.10254,795.78754,798.20514,799.011,715.6044,-0.04144287109375,0.0849609375,1.00537109375,-0.665435791015625,-1.278533935546875,-5.704803466796875,1,1.0,1.0,1.0,1.0,10.00
2024-10-11 20:18:40.640,1.1459153,0.05795486,0.8509782,0.70520926,0.27768177,0.07009308,0.44656426,0.18328734,0.76277846,-0.044079635,0.45384112,0.5718314,0.5729701,0.056608714,0.10442804,0.4087105,0.44820297,-0.14528088,-0.33982602,-0.059220638,791.3553,793.36993,793.7729,803.0403,1029.4872,-0.04144287109375,0.0849609375,1.00537109375,-0.665435791015625,-1.278533935546875,-5.704803466796875,1,1.0,1.0,1.0,1.0,10.00
2024-10-11 20:18:40.641,1.1459153,0.05795486,0.8509782,0.70520926,0.27768177,0.07009308,0.44656426,0.18328734,0.76277846,-0.044079635,0.45384112,0.5718314,0.5729701,0.056608714,0.10442804,0.4087105,0.44820297,-0.14528088,-0.33982602,-0.059220638,795.78754,798.20514,801.4286,808.68134,967.4359,-0.04144287109375,0.0849609375,1.00537109375,-0.665435791015625,-1.278533935546875,-5.704803466796875,1,1.0,1.0,1.0,1.0,10.00
2024-10-11 20:18:40.691,1.1459153,0.05795486,0.8509782,0.70520926,0.27768177,0.07009308,0.44656426,0.18328734,0.76277846,-0.044079635,0.45384112,0.5718314,0.5729701,0.056608714,0.10442804,0.4087105,0.44820297,-0.14528088,-0.33982602,-0.059220638,803.44324,801.02563,802.23444,809.89014,626.9597,-0.06097412109375,0.08868408203125,1.0067138671875,-0.994415283203125,-0.964508056640625,-12.493743896484375,1,1.0,1.0,1.0,1.0,10.00
2024-10-11 20:18:40.692,1.1459153,0.05795486,0.8509782,0.70520926,0.27768177,0.07009308,0.44656426,0.18328734,0.76277846,-0.044079635,0.45384112,0.5718314,0.5729701,0.056608714,0.10442804,0.4087105,0.44820297,-0.14528088,-0.33982602,-0.059220638,807.8755,796.5934,798.20514,808.2784,607.619,-0.06097412109375,0.08868408203125,1.0067138671875,-0.994415283203125,-0.964508056640625,-12.493743896484375,1,1.0,1.0,1.0,1.0,10.00
2024-10-11 20:18:40.693,1.1459153,0.05795486,0.8509782,0.70520926,0.27768177,0.07009308,0.44656426,0.18328734,0.76277846,-0.044079635,0.45384112,0.5718314,0.5729701,0.056608714,0.10442804,0.4087105,0.44820297,-0.14528088,-0.33982602,-0.059220638,807.8755,794.57874,800.2198,808.68134,790.9524,-0.06097412109375,0.08868408203125,1.0067138671875,-0.994415283203125,-0.964508056640625,-12.493743896484375,1,1.0,1.0,1.0,1.0,10.00
2024-10-11 20:18:40.693,1.1459153,0.05795486,0.8509782,0.70520926,0.27768177,0.07009308,0.44656426,0.18328734,0.76277846,-0.044079635,0.45384112,0.5718314,0.5729701,0.056608714,0.10442804,0.4087105,0.44820297,-0.14528088,-0.33982602,-0.059220638,823.1868,799.81683,802.6374,810.293,860.2564,-0.06097412109375,0.08868408203125,1.0067138671875,-0.994415283203125,-0.964508056640625,-12.493743896484375,1,1.0,1.0,1.0,1.0,10.00
2024-10-11 20:18:40.694,1.1459153,0.05795486,0.8509782,0.70520926,0.27768177,0.07009308,0.44656426,0.18328734,0.76277846,-0.044079635,0.45384112,0.5718314,0.5729701,0.056608714,0.10442804,0.4087105,0.44820297,-0.14528088,-0.33982602,-0.059220638,818.7546,807.0696,798.60803,809.0842,621.7216,-0.06097412109375,0.08868408203125,1.0067138671875,-0.994415283203125,-0.964508056640625,-12.493743896484375,1,1.0,1.0,1.0,1.0,10.00
2024-10-11 20:18:40.694,1.1459153,0.05795486,0.8509782,0.70520926,0.27768177,0.07009308,0.44656426,0.18328734,0.76277846,-0.044079635,0.45384112,0.5718314,0.5729701,0.056608714,0.10442804,0.4087105,0.44820297,-0.14528088,-0.33982602,-0.059220638,796.1905,803.0403,798.20514,808.68134,679.7436,-0.06097412109375,0.08868408203125,1.0067138671875,-0.994415283203125,-0.964508056640625,-12.493743896484375,1,1.0,1.0,1.0,1.0,10.00
2024-10-11 20:18:40.695,1.1459153,0.05795486,0.8509782,0.70520926,0.27768177,0.07009308,0.44656426,0.18328734,0.76277846,-0.044079635,0.45384112,0.5718314,0.5729701,0.056608714,0.10442804,0.4087105,0.44820297,-0.14528088,-0.33982602,-0.059220638,790.14655,801.02563,802.23444,808.2784,1034.7252,-0.06097412109375,0.08868408203125,1.0067138671875,-0.994415283203125,-0.964508056640625,-12.493743896484375,1,1.0,1.0,1.0,1.0,10.00
2024-10-11 20:18:40.696,1.1459153,0.05795486,0.8509782,0.70520926,0.27768177,0.07009308,0.44656426,0.18328734,0.76277846,-0.044079635,0.45384112,0.5718314,0.5729701,0.056608714,0.10442804,0.4087105,0.44820297,-0.14528088,-0.33982602,-0.059220638,780.07324,797.3993,799.81683,806.26373,956.1539,-0.06097412109375,0.08868408203125,1.0067138671875,-0.994415283203125,-0.964508056640625,-12.493743896484375,1,1.0,1.0,1.0,1.0,10.00
2024-10-11 20:18:40.696,1.1459153,0.05795486,0.8509782,0.70520926,0.27768177,0.07009308,0.44656426,0.18328734,0.76277846,-0.044079635,0.45384112,0.5718314,0.5729701,0.056608714,0.10442804,0.4087105,0.44820297,-0.14528088,-0.33982602,-0.059220638,773.6264,793.7729,798.60803,805.4579,714.7985,-0.06097412109375,0.08868408203125,1.0067138671875,-0.994415283203125,-0.964508056640625,-12.493743896484375,1,1.0,1.0,1.0,1.0,10.00
2024-10-11 20:18:40.697,1.1459153,0.05795486,0.8509782,0.70520926,0.27768177,0.07009308,0.44656426,0.18328734,0.76277846,-0.044079635,0.45384112,0.5718314,0.5729701,0.056608714,0.10442804,0.4087105,0.44820297,-0.14528088,-0.33982602,-0.059220638,775.64105,797.8022,801.4286,804.2491,731.31866,-0.06097412109375,0.08868408203125,1.0067138671875,-0.994415283203125,-0.964508056640625,-12.493743896484375,1,1.0,1.0,1.0,1.0,10.00
2024-10-11 20:18:40.697,1.1459153,0.05795486,0.8509782,0.70520926,0.27768177,0.07009308,0.44656426,0.18328734,0.76277846,-0.044079635,0.45384112,0.5718314,0.5729701,0.056608714,0.10442804,0.4087105,0.44820297,-0.14528088,-0.33982602,-0.059220638,778.86444,797.8022,803.44324,805.4579,857.8388,-0.06097412109375,0.08868408203125,1.0067138671875,-0.994415283203125,-0.964508056640625,-12.493743896484375,1,1.0,1.0,1.0,1.0,10.00
2024-10-11 20:18:40.698,1.1459153,0.05795486,0.8509782,0.70520926,0.27768177,0.07009308,0.44656426,0.18328734,0.76277846,-0.044079635,0.45384112,0.5718314,0.5729701,0.056608714,0.10442804,0.4087105,0.44820297,-0.14528088,-0.33982602,-0.059220638,784.90845,789.34064,796.5934,809.89014,808.2784,-0.06097412109375,0.08868408203125,1.0067138671875,-0.994415283203125,-0.964508056640625,-12.493743896484375,1,1.0,1.0,1.0,1.0,10.00
2024-10-11 20:18:40.756,1.1459153,0.05795486,0.8509782,0.70520926,0.27768177,0.07009308,0.44656426,0.18328734,0.76277846,-0.044079635,0.45384112,0.5718314,0.5729701,0.056608714,0.10442804,0.4087105,0.44820297,-0.14528088,-0.33982602,-0.059220638,782.0879,789.7436,788.93774,805.05493,730.10986,-0.06793212890625,0.0821533203125,1.0123291015625,-2.130889892578125,-1.12152099609375,-23.454742431640625,1,1.0,1.0,1.0,1.0,10.00
2024-10-11 20:18:40.757,1.1459153,0.05795486,0.8509782,0.70520926,0.27768177,0.07009308,0.44656426,0.18328734,0.76277846,-0.044079635,0.45384112,0.5718314,0.5729701,0.056608714,0.10442804,0.4087105,0.44820297,-0.14528088,-0.33982602,-0.059220638,780.07324,796.5934,795.38464,798.20514,858.6447,-0.06793212890625,0.0821533203125,1.0123291015625,-2.130889892578125,-1.12152099609375,-23.454742431640625,1,1.0,1.0,1.0,1.0,10.00
2024-10-11 20:18:40.758,1.1459153,0.05795486,0.8509782,0.70520926,0.27768177,0.07009308,0.44656426,0.18328734,0.76277846,-0.044079635,0.45384112,0.5718314,0.5729701,0.056608714,0.10442804,0.4087105,0.44820297,-0.14528088,-0.33982602,-0.059220638,788.93774,798.60803,797.8022,797.3993,869.5238,-0.06793212890625,0.0821533203125,1.0123291015625,-2.130889892578125,-1.12152099609375,-23.454742431640625,1,1.0,1.0,1.0,1.0,10.00
2024-10-11 20:18:40.758,1.1459153,0.05795486,0.8509782,0.70520926,0.27768177,0.07009308,0.44656426,0.18328734,0.76277846,-0.044079635,0.45384112,0.5718314,0.5729701,0.056608714,0.10442804,0.4087105,0.44820297,-0.14528088,-0.33982602,-0.059220638,792.5641,794.9817,801.02563,797.3993,806.26373,-0.06793212890625,0.0821533203125,1.0123291015625,-2.130889892578125,-1.12152099609375,-23.454742431640625,1,1.0,1.0,1.0,1.0,10.00
2024-10-11 20:18:40.759,1.1459153,0.05795486,0.8509782,0.70520926,0.27768177,0.07009308,0.44656426,0.18328734,0.76277846,-0.044079635,0.45384112,0.5718314,0.5729701,0.056608714,0.10442804,0.4087105,0.44820297,-0.14528088,-0.33982602,-0.059220638,789.34064,799.41394,801.4286,799.41394,761.9414,-0.06793212890625,0.0821533203125,1.0123291015625,-2.130889892578125,-1.12152099609375,-23.454742431640625,1,1.0,1.0,1.0,1.0,10.00
2024-10-11 20:18:40.759,1.1459153,0.05795486,0.8509782,0.70520926,0.27768177,0.07009308,0.44656426,0.18328734,0.76277846,-0.044079635,0.45384112,0.5718314,0.5729701,0.056608714,0.10442804,0.4087105,0.44820297,-0.14528088,-0.33982602,-0.059220638,788.1319,796.99634,799.41394,807.8755,894.5055,-0.06793212890625,0.0821533203125,1.0123291015625,-2.130889892578125,-1.12152099609375,-23.454742431640625,1,1.0,1.0,1.0,1.0,10.00
2024-10-11 20:18:40.760,1.1459153,0.05795486,0.8509782,0.70520926,0.27768177,0.07009308,0.44656426,0.18328734,0.76277846,-0.044079635,0.45384112,0.5718314,0.5729701,0.056608714,0.10442804,0.4087105,0.44820297,-0.14528088,-0.33982602,-0.059220638,804.65204,784.10254,799.81683,820.7692,1035.1282,-0.06793212890625,0.0821533203125,1.0123291015625,-2.130889892578125,-1.12152099609375,-23.454742431640625,1,1.0,1.0,1.0,1.0,10.00
2024-10-11 20:18:40.760,1.1459153,0.05795486,0.8509782,0.70520926,0.27768177,0.07009308,0.44656426,0.18328734,0.76277846,-0.044079635,0.45384112,0.5718314,0.5729701,0.056608714,0.10442804,0.4087105,0.44820297,-0.14528088,-0.33982602,-0.059220638,822.381,797.3993,798.60803,828.4249,870.7326,-0.06793212890625,0.0821533203125,1.0123291015625,-2.130889892578125,-1.12152099609375,-23.454742431640625,1,1.0,1.0,1.0,1.0,10.00
2024-10-11 20:18:40.761,1.1459153,0.05795486,0.8509782,0.70520926,0.27768177,0.07009308,0.44656426,0.18328734,0.76277846,-0.044079635,0.45384112,0.5718314,0.5729701,0.056608714,0.10442804,0.4087105,0.44820297,-0.14528088,-0.33982602,-0.059220638,815.5311,809.0842,799.011,813.1135,760.32965,-0.06793212890625,0.0821533203125,1.0123291015625,-2.130889892578125,-1.12152099609375,-23.454742431640625,1,1.0,1.0,1.0,1.0,10.00
2024-10-11 20:18:40.762,1.1459153,-0.17206624,0.8245172,0.69171035,0.27768177,0.011426378,0.41567916,0.17069744,0.76277846,-0.049938712,0.45384112,0.5840898,0.5729701,0.04718834,0.09703711,0.39567536,0.44820297,-0.15194254,-0.3571051,-0.0022086492,793.36993,805.4579,793.7729,779.2674,871.53845,-0.06793212890625,0.0821533203125,1.0123291015625,-2.130889892578125,-1.12152099609375,-23.454742431640625,1,1.0,1.0,1.0,1.0,10.00
2024-10-11 20:18:40.766,1.1459153,-0.17206624,0.8245172,0.69171035,0.27768177,0.011426378,0.41567916,0.17069744,0.76277846,-0.049938712,0.45384112,0.5840898,0.5729701,0.04718834,0.09703711,0.39567536,0.44820297,-0.15194254,-0.3571051,-0.0022086492,780.87915,805.8608,790.14655,770.80585,855.0183,-0.06793212890625,0.0821533203125,1.0123291015625,-2.130889892578125,-1.12152099609375,-23.454742431640625,1,1.0,1.0,1.0,1.0,10.00
2024-10-11 20:18:40.767,1.1459153,-0.17206624,0.8245172,0.69171035,0.27768177,0.011426378,0.41567916,0.17069744,0.76277846,-0.049938712,0.45384112,0.5840898,0.5729701,0.04718834,0.09703711,0.39567536,0.44820297,-0.15194254,-0.3571051,-0.0022086492,765.9707,808.2784,784.90845,764.35895,698.68134,-0.06793212890625,0.0821533203125,1.0123291015625,-2.130889892578125,-1.12152099609375,-23.454742431640625,1,1.0,1.0,1.0,1.0,10.00
2024-10-11 20:18:40.793,1.1459153,-0.17206624,0.8245172,0.69171035,0.27768177,0.011426378,0.41567916,0.17069744,0.76277846,-0.049938712,0.45384112,0.5840898,0.5729701,0.04718834,0.09703711,0.39567536,0.44820297,-0.15194254,-0.3571051,-0.0022086492,763.95605,804.2491,782.8938,750.65936,764.7619,-0.06793212890625,0.0821533203125,1.0123291015625,-2.130889892578125,-1.12152099609375,-23.454742431640625,1,1.0,1.0,1.0,1.0,10.00
2024-10-11 20:18:40.794,1.1459153,-0.17206624,0.8245172,0.69171035,0.27768177,0.011426378,0.41567916,0.17069744,0.76277846,-0.049938712,0.45384112,0.5840898,0.5729701,0.04718834,0.09703711,0.39567536,0.44820297,-0.15194254,-0.3571051,-0.0022086492,770.80585,805.8608,786.9231,755.09155,844.5421,-0.06793212890625,0.0821533203125,1.0123291015625,-2.130889892578125,-1.12152099609375,-23.454742431640625,1,1.0,1.0,1.0,1.0,10.00
2024-10-11 20:18:40.795,1.1459153,-0.17206624,0.8245172,0.69171035,0.27768177,0.011426378,0.41567916,0.17069744,0.76277846,-0.049938712,0.45384112,0.5840898,0.5729701,0.04718834,0.09703711,0.39567536,0.44820297,-0.15194254,-0.3571051,-0.0022086492,760.7326,808.2784,778.86444,743.8095,711.1722,-0.06793212890625,0.0821533203125,1.0123291015625,-2.130889892578125,-1.12152099609375,-23.454742431640625,1,1.0,1.0,1.0,1.0,10.00
2024-10-11 20:18:40.795,1.1459153,-0.17206624,0.8245172,0.69171035,0.27768177,0.011426378,0.41567916,0.17069744,0.76277846,-0.049938712,0.45384112,0.5840898,0.5729701,0.04718834,0.09703711,0.39567536,0.44820297,-0.15194254,-0.3571051,-0.0022086492,745.82416,805.4579,776.04395,730.9158,665.2381,-0.06793212890625,0.0821533203125,1.0123291015625,-2.130889892578125,-1.12152099609375,-23.454742431640625,1,1.0,1.0,1.0,1.0,10.00
2024-10-11 20:18:40.796,1.1459153,-0.17206624,0.8245172,0.69171035,0.27768177,0.011426378,0.41567916,0.17069744,0.76277846,-0.049938712,0.45384112,0.5840898,0.5729701,0.04718834,0.09703711,0.39567536,0.44820297,-0.15194254,-0.3571051,-0.0022086492,737.3626,806.26373,774.43225,733.73627,878.3883,-0.06793212890625,0.0821533203125,1.0123291015625,-2.130889892578125,-1.12152099609375,-23.454742431640625,1,1.0,1.0,1.0,1.0,10.00
2024-10-11 20:18:40.796,1.1459153,-0.17206624,0.8245172,0.69171035,0.27768177,0.011426378,0.41567916,0.17069744,0.76277846,-0.049938712,0.45384112,0.5840898,0.5729701,0.04718834,0.09703711,0.39567536,0.44820297,-0.15194254,-0.3571051,-0.0022086492,730.5128,808.68134,763.5531,729.304,1040.7693,-0.06793212890625,0.0821533203125,1.0123291015625,-2.130889892578125,-1.12152099609375,-23.454742431640625,1,1.0,1.0,1.0,1.0,10.00
2024-10-11 20:18:40.797,1.1459153,-0.17206624,0.8245172,0.69171035,0.27768177,0.011426378,0.41567916,0.17069744,0.76277846,-0.049938712,0.45384112,0.5840898,0.5729701,0.04718834,0.09703711,0.39567536,0.44820297,-0.15194254,-0.3571051,-0.0022086492,723.663,818.7546,773.22345,721.6484,866.30035,-0.06793212890625,0.0821533203125,1.0123291015625,-2.130889892578125,-1.12152099609375,-23.454742431640625,1,1.0,1.0,1.0,1.0,10.00
2024-10-11 20:18:40.798,1.1459153,-0.17206624,0.8245172,0.69171035,0.27768177,0.011426378,0.41567916,0.17069744,0.76277846,-0.049938712,0.45384112,0.5840898,0.5729701,0.04718834,0.09703711,0.39567536,0.44820297,-0.15194254,-0.3571051,-0.0022086492,721.2454,826.0073,780.07324,716.8132,599.9634,-0.06793212890625,0.0821533203125,1.0123291015625,-2.130889892578125,-1.12152099609375,-23.454742431640625,1,1.0,1.0,1.0,1.0,10.00
2024-10-11 20:18:40.798,1.1459153,-0.17206624,0.8245172,0.69171035,0.27768177,0.011426378,0.41567916,0.17069744,0.76277846,-0.049938712,0.45384112,0.5840898,0.5729701,0.04718834,0.09703711,0.39567536,0.44820297,-0.15194254,-0.3571051,-0.0022086492,708.7546,817.5458,766.77655,713.9927,742.1978,-0.06793212890625,0.0821533203125,1.0123291015625,-2.130889892578125,-1.12152099609375,-23.454742431640625,1,1.0,1.0,1.0,1.0,10.00
2024-10-11 20:18:40.799,1.1459153,-0.17206624,0.8245172,0.69171035,0.27768177,0.011426378,0.41567916,0.17069744,0.76277846,-0.049938712,0.45384112,0.5840898,0.5729701,0.04718834,0.09703711,0.39567536,0.44820297,-0.15194254,-0.3571051,-0.0022086492,711.5751,817.5458,764.35895,714.3956,906.1905,-0.06793212890625,0.0821533203125,1.0123291015625,-2.130889892578125,-1.12152099609375,-23.454742431640625,1,1.0,1.0,1.0,1.0,10.00
2024-10-11 20:18:40.799,1.1459153,-0.17206624,0.8245172,0.69171035,0.27768177,0.011426378,0.41567916,0.17069744,0.76277846,-0.049938712,0.45384112,0.5840898,0.5729701,0.04718834,0.09703711,0.39567536,0.44820297,-0.15194254,-0.3571051,-0.0022086492,716.4103,828.022,765.16486,702.71063,820.7692,-0.06793212890625,0.0821533203125,1.0123291015625,-2.130889892578125,-1.12152099609375,-23.454742431640625,1,1.0,1.0,1.0,1.0,10.00
2024-10-11 20:18:40.800,1.1459153,-0.17206624,0.8245172,0.69171035,0.27768177,0.011426378,0.41567916,0.17069744,0.76277846,-0.049938712,0.45384112,0.5840898,0.5729701,0.04718834,0.09703711,0.39567536,0.44820297,-0.15194254,-0.3571051,-0.0022086492,712.381,834.87177,761.53845,693.8461,592.3077,-0.06793212890625,0.0821533203125,1.0123291015625,-2.130889892578125,-1.12152099609375,-23.454742431640625,1,1.0,1.0,1.0,1.0,10.00
2024-10-11 20:18:40.824,1.1459153,-0.17206624,0.8245172,0.69171035,0.27768177,0.011426378,0.41567916,0.17069744,0.76277846,-0.049938712,0.45384112,0.5840898,0.5729701,0.04718834,0.09703711,0.39567536,0.44820297,-0.15194254,-0.3571051,-0.0022086492,715.6044,832.0513,757.1062,706.337,716.8132,-0.0596923828125,0.0723876953125,1.00909423828125,-3.51409912109375,-1.846771240234375,-34.09423828125,1,1.0,1.0,1.0,1.0,10.00
2024-10-11 20:18:40.825,1.1459153,-0.17206624,0.8245172,0.69171035,0.27768177,0.011426378,0.41567916,0.17069744,0.76277846,-0.049938712,0.45384112,0.5840898,0.5729701,0.04718834,0.09703711,0.39567536,0.44820297,-0.15194254,-0.3571051,-0.0022086492,722.0513,832.0513,759.5238,713.5897,879.59705,-0.0596923828125,0.0723876953125,1.00909423828125,-3.51409912109375,-1.846771240234375,-34.09423828125,1,1.0,1.0,1.0,1.0,10.00
2024-10-11 20:18:40.826,1.1459153,-0.17206624,0.8245172,0.69171035,0.27768177,0.011426378,0.41567916,0.17069744,0.76277846,-0.049938712,0.45384112,0.5840898,0.5729701,0.04718834,0.09703711,0.39567536,0.44820297,-0.15194254,-0.3571051,-0.0022086492,722.0513,838.49817,761.9414,707.9487,715.2015,-0.0596923828125,0.0723876953125,1.00909423828125,-3.51409912109375,-1.846771240234375,-34.09423828125,1,1.0,1.0,1.0,1.0,10.00
2024-10-11 20:18:40.826,1.1459153,-0.17206624,0.8245172,0.69171035,0.27768177,0.011426378,0.41567916,0.17069744,0.76277846,-0.049938712,0.45384112,0.5840898,0.5729701,0.04718834,0.09703711,0.39567536,0.44820297,-0.15194254,-0.3571051,-0.0022086492,712.381,840.10986,760.7326,695.05493,683.36993,-0.0596923828125,0.0723876953125,1.00909423828125,-3.51409912109375,-1.846771240234375,-34.09423828125,1,1.0,1.0,1.0,1.0,10.00
2024-10-11 20:18:40.827,1.1459153,-0.17206624,0.8245172,0.69171035,0.27768177,0.011426378,0.41567916,0.17069744,0.76277846,-0.049938712,0.45384112,0.5840898,0.5729701,0.04718834,0.09703711,0.39567536,0.44820297,-0.15194254,-0.3571051,-0.0022086492,709.5604,832.0513,760.32965,693.44324,921.9048,-0.0596923828125,0.0723876953125,1.00909423828125,-3.51409912109375,-1.846771240234375,-34.09423828125,1,1.0,1.0,1.0,1.0,10.00
2024-10-11 20:18:40.828,1.1459153,-0.17206624,0.8245172,0.69171035,0.27768177,0.011426378,0.41567916,0.17069744,0.76277846,-0.049938712,0.45384112,0.5840898,0.5729701,0.04718834,0.09703711,0.39567536,0.44820297,-0.15194254,-0.3571051,-0.0022086492,715.6044,832.0513,760.7326,704.7253,1134.652,-0.0596923828125,0.0723876953125,1.00909423828125,-3.51409912109375,-1.846771240234375,-34.09423828125,1,1.0,1.0,1.0,1.0,10.00
2024-10-11 20:18:40.828,1.1459153,-0.17206624,0.8245172,0.69171035,0.27768177,0.011426378,0.41567916,0.17069744,0.76277846,-0.049938712,0.45384112,0.5840898,0.5729701,0.04718834,0.09703711,0.39567536,0.44820297,-0.15194254,-0.3571051,-0.0022086492,711.978,841.7216,760.7326,691.4286,919.4872,-0.0596923828125,0.0723876953125,1.00909423828125,-3.51409912109375,-1.846771240234375,-34.09423828125,1,1.0,1.0,1.0,1.0,10.00
2024-10-11 20:18:40.829,1.1459153,-0.17206624,0.8245172,0.69171035,0.27768177,0.011426378,0.41567916,0.17069744,0.76277846,-0.049938712,0.45384112,0.5840898,0.5729701,0.04718834,0.09703711,0.39567536,0.44820297,-0.15194254,-0.3571051,-0.0022086492,715.2015,842.52747,757.1062,689.81683,842.1245,-0.0596923828125,0.0723876953125,1.00909423828125,-3.51409912109375,-1.846771240234375,-34.09423828125,1,1.0,1.0,1.0,1.0,10.00
2024-10-11 20:18:40.829,1.1459153,-0.17206624,0.8245172,0.69171035,0.27768177,0.011426378,0.41567916,0.17069744,0.76277846,-0.049938712,0.45384112,0.5840898,0.5729701,0.04718834,0.09703711,0.39567536,0.44820297,-0.15194254,-0.3571051,-0.0022086492,732.9304,844.1392,758.71796,704.7253,1037.9487,-0.0596923828125,0.0723876953125,1.00909423828125,-3.51409912109375,-1.846771240234375,-34.09423828125,1,1.0,1.0,1.0,1.0,10.00
2024-10-11 20:18:40.830,1.1459153,-0.17206624,0.8245172,0.69171035,0.27768177,0.011426378,0.41567916,0.17069744,0.76277846,-0.049938712,0.45384112,0.5840898,0.5729701,0.04718834,0.09703711,0.39567536,0.44820297,-0.15194254,-0.3571051,-0.0022086492,725.2747,836.8865,765.9707,699.4872,1033.5165,-0.0596923828125,0.0723876953125,1.00909423828125,-3.51409912109375,-1.846771240234375,-34.09423828125,1,1.0,1.0,1.0,1.0,10.00
2024-10-11 20:18:40.831,1.1459153,-0.17206624,0.8245172,0.69171035,0.27768177,0.011426378,0.41567916,0.17069744,0.76277846,-0.049938712,0.45384112,0.5840898,0.5729701,0.04718834,0.09703711,0.39567536,0.44820297,-0.15194254,-0.3571051,-0.0022086492,711.978,833.2601,770.40295,697.47253,903.7729,-0.0596923828125,0.0723876953125,1.00909423828125,-3.51409912109375,-1.846771240234375,-34.09423828125,1,1.0,1.0,1.0,1.0,10.00
2024-10-11 20:18:40.831,1.1459153,-0.3713093,0.83252543,0.69171035,0.27768177,-0.07207915,0.41314852,0.17069744,0.76277846,-0.062068366,0.44929692,0.5840898,0.5729701,0.021374773,0.0807445,0.39567536,0.44820297,-0.1562464,-0.3793207,-0.0022086492,722.8571,838.0952,765.9707,708.3516,846.9597,-0.0596923828125,0.0723876953125,1.00909423828125,-3.51409912109375,-1.846771240234375,-34.09423828125,1,1.0,1.0,1.0,1.0,10.00
2024-10-11 20:18:40.836,1.1459153,-0.3713093,0.83252543,0.69171035,0.27768177,-0.07207915,0.41314852,0.17069744,0.76277846,-0.062068366,0.44929692,0.5840898,0.5729701,0.021374773,0.0807445,0.39567536,0.44820297,-0.1562464,-0.3793207,-0.0022086492,738.1685,834.4689,762.74725,721.2454,927.9487,-0.03515625,0.06396484375,1.01043701171875,-3.312225341796875,-2.011260986328125,-37.256927490234375,1,1.0,1.0,1.0,1.0,10.00
2024-10-11 20:18:40.837,1.1459153,-0.3713093,0.83252543,0.69171035,0.27768177,-0.07207915,0.41314852,0.17069744,0.76277846,-0.062068366,0.44929692,0.5840898,0.5729701,0.021374773,0.0807445,0.39567536,0.44820297,-0.1562464,-0.3793207,-0.0022086492,743.4066,819.15753,771.2088,722.4542,993.22345,-0.03515625,0.06396484375,1.01043701171875,-3.312225341796875,-2.011260986328125,-37.256927490234375,1,1.0,1.0,1.0,1.0,10.00
2024-10-11 20:18:40.838,1.1459153,-0.3713093,0.83252543,0.69171035,0.27768177,-0.07207915,0.41314852,0.17069744,0.76277846,-0.062068366,0.44929692,0.5840898,0.5729701,0.021374773,0.0807445,0.39567536,0.44820297,-0.1562464,-0.3793207,-0.0022086492,736.9597,812.3077,776.4469,712.7839,790.54944,-0.03515625,0.06396484375,1.01043701171875,-3.312225341796875,-2.011260986328125,-37.256927490234375,1,1.0,1.0,1.0,1.0,10.00
2024-10-11 20:18:40.838,1.1459153,-0.3713093,0.83252543,0.69171035,0.27768177,-0.07207915,0.41314852,0.17069744,0.76277846,-0.062068366,0.44929692,0.5840898,0.5729701,0.021374773,0.0807445,0.39567536,0.44820297,-0.1562464,-0.3793207,-0.0022086492,747.8388,826.0073,776.4469,734.1392,703.5165,-0.03515625,0.06396484375,1.01043701171875,-3.312225341796875,-2.011260986328125,-37.256927490234375,1,1.0,1.0,1.0,1.0,10.00
2024-10-11 20:18:40.839,1.1459153,-0.3713093,0.83252543,0.69171035,0.27768177,-0.07207915,0.41314852,0.17069744,0.76277846,-0.062068366,0.44929692,0.5840898,0.5729701,0.021374773,0.0807445,0.39567536,0.44820297,-0.1562464,-0.3793207,-0.0022086492,761.13556,830.0366,776.04395,755.09155,790.14655,-0.03515625,0.06396484375,1.01043701171875,-3.312225341796875,-2.011260986328125,-37.256927490234375,1,1.0,1.0,1.0,1.0,10.00
2024-10-11 20:18:40.839,1.1459153,-0.3713093,0.83252543,0.69171035,0.27768177,-0.07207915,0.41314852,0.17069744,0.76277846,-0.062068366,0.44929692,0.5840898,0.5729701,0.021374773,0.0807445,0.39567536,0.44820297,-0.1562464,-0.3793207,-0.0022086492,749.85345,827.2161,772.4176,747.03296,894.10254,-0.03515625,0.06396484375,1.01043701171875,-3.312225341796875,-2.011260986328125,-37.256927490234375,1,1.0,1.0,1.0,1.0,10.00
2024-10-11 20:18:40.840,1.1459153,-0.3713093,0.83252543,0.69171035,0.27768177,-0.07207915,0.41314852,0.17069744,0.76277846,-0.062068366,0.44929692,0.5840898,0.5729701,0.021374773,0.0807445,0.39567536,0.44820297,-0.1562464,-0.3793207,-0.0022086492,759.5238,823.9927,776.8498,747.4359,850.18317,-0.03515625,0.06396484375,1.01043701171875,-3.312225341796875,-2.011260986328125,-37.256927490234375,1,1.0,1.0,1.0,1.0,10.00
2024-10-11 20:18:40.841,1.1459153,-0.3713093,0.83252543,0.69171035,0.27768177,-0.07207915,0.41314852,0.17069744,0.76277846,-0.062068366,0.44929692,0.5840898,0.5729701,0.021374773,0.0807445,0.39567536,0.44820297,-0.1562464,-0.3793207,-0.0022086492,780.07324,819.9634,781.685,755.89746,727.28937,-0.03515625,0.06396484375,1.01043701171875,-3.312225341796875,-2.011260986328125,-37.256927490234375,1,1.0,1.0,1.0,1.0,10.00
2024-10-11 20:18:40.841,1.1459153,-0.3713093,0.83252543,0.69171035,0.27768177,-0.07207915,0.41314852,0.17069744,0.76277846,-0.062068366,0.44929692,0.5840898,0.5729701,0.021374773,0.0807445,0.39567536,0.44820297,-0.1562464,-0.3793207,-0.0022086492,770.40295,819.9634,780.87915,757.50916,690.2198,-0.03515625,0.06396484375,1.01043701171875,-3.312225341796875,-2.011260986328125,-37.256927490234375,1,1.0,1.0,1.0,1.0,10.00
2024-10-11 20:18:40.842,1.1459153,-0.3713093,0.83252543,0.69171035,0.27768177,-0.07207915,0.41314852,0.17069744,0.76277846,-0.062068366,0.44929692,0.5840898,0.5729701,0.021374773,0.0807445,0.39567536,0.44820297,-0.1562464,-0.3793207,-0.0022086492,764.35895,813.5165,784.10254,767.98535,797.3993,-0.03515625,0.06396484375,1.01043701171875,-3.312225341796875,-2.011260986328125,-37.256927490234375,1,1.0,1.0,1.0,1.0,10.00
2024-10-11 20:18:40.842,1.1459153,-0.3713093,0.83252543,0.69171035,0.27768177,-0.07207915,0.41314852,0.17069744,0.76277846,-0.062068366,0.44929692,0.5840898,0.5729701,0.021374773,0.0807445,0.39567536,0.44820297,-0.1562464,-0.3793207,-0.0022086492,774.83514,811.9048,784.5055,773.22345,754.68866,-0.03515625,0.06396484375,1.01043701171875,-3.312225341796875,-2.011260986328125,-37.256927490234375,1,1.0,1.0,1.0,1.0,10.00
2024-10-11 20:18:40.843,1.1459153,-0.3713093,0.83252543,0.69171035,0.27768177,-0.07207915,0.41314852,0.17069744,0.76277846,-0.062068366,0.44929692,0.5840898,0.5729701,0.021374773,0.0807445,0.39567536,0.44820297,-0.1562464,-0.3793207,-0.0022086492,783.69965,807.8755,780.87915,769.19415,688.20514,-0.03515625,0.06396484375,1.01043701171875,-3.312225341796875,-2.011260986328125,-37.256927490234375,1,1.0,1.0,1.0,1.0,10.00
2024-10-11 20:18:40.844,1.1459153,-0.3713093,0.83252543,0.69171035,0.27768177,-0.07207915,0.41314852,0.17069744,0.76277846,-0.062068366,0.44929692,0.5840898,0.5729701,0.021374773,0.0807445,0.39567536,0.44820297,-0.1562464,-0.3793207,-0.0022086492,782.49084,810.293,782.0879,778.0586,719.6337,-0.015869140625,0.056396484375,0.99310302734375,-5.8319091796875,-1.2261962890625,-33.69049072265625,1,1.0,1.0,1.0,1.0,10.00
2024-10-11 20:18:40.844,1.1459153,-0.3713093,0.83252543,0.69171035,0.27768177,-0.07207915,0.41314852,0.17069744,0.76277846,-0.062068366,0.44929692,0.5840898,0.5729701,0.021374773,0.0807445,0.39567536,0.44820297,-0.1562464,-0.3793207,-0.0022086492,780.87915,813.1135,778.46155,788.1319,576.99634,-0.015869140625,0.056396484375,0.99310302734375,-5.8319091796875,-1.2261962890625,-33.69049072265625,1,1.0,1.0,1.0,1.0,10.00
2024-10-11 20:18:40.845,1.1459153,-0.3713093,0.83252543,0.69171035,0.27768177,-0.07207915,0.41314852,0.17069744,0.76277846,-0.062068366,0.44929692,0.5840898,0.5729701,0.021374773,0.0807445,0.39567536,0.44820297,-0.1562464,-0.3793207,-0.0022086492,786.52014,806.6667,777.25275,793.36993,585.8608,-0.015869140625,0.056396484375,0.99310302734375,-5.8319091796875,-1.2261962890625,-33.69049072265625,1,1.0,1.0,1.0,1.0,10.00
2024-10-11 20:18:40.845,1.1459153,-0.3713093,0.83252543,0.69171035,0.27768177,-0.07207915,0.41314852,0.17069744,0.76277846,-0.062068366,0.44929692,0.5840898,0.5729701,0.021374773,0.0807445,0.39567536,0.44820297,-0.1562464,-0.3793207,-0.0022086492,784.10254,805.4579,784.10254,790.9524,751.06226,-0.015869140625,0.056396484375,0.99310302734375,-5.8319091796875,-1.2261962890625,-33.69049072265625,1,1.0,1.0,1.0,1.0,10.00
2024-10-11 20:18:40.846,1.1459153,-0.3713093,0.83252543,0.69171035,0.27768177,-0.07207915,0.41314852,0.17069744,0.76277846,-0.062068366,0.44929692,0.5840898,0.5729701,0.021374773,0.0807445,0.39567536,0.44820297,-0.1562464,-0.3793207,-0.0022086492,788.93774,800.6227,789.34064,791.75824,727.28937,-0.015869140625,0.056396484375,0.99310302734375,-5.8319091796875,-1.2261962890625,-33.69049072265625,1,1.0,1.0,1.0,1.0,10.00
2024-10-11 20:18:40.847,1.1459153,-0.3713093,0.83252543,0.69171035,0.27768177,-0.07207915,0.41314852,0.17069744,0.76277846,-0.062068366,0.44929692,0.5840898,0.5729701,0.021374773,0.0807445,0.39567536,0.44820297,-0.1562464,-0.3793207,-0.0022086492,803.8461,797.8022,791.3553,800.6227,725.2747,-0.015869140625,0.056396484375,0.99310302734375,-5.8319091796875,-1.2261962890625,-33.69049072265625,1,1.0,1.0,1.0,1.0,10.00
2024-10-11 20:18:40.847,1.1459153,-0.3713093,0.83252543,0.69171035,0.27768177,-0.07207915,0.41314852,0.17069744,0.76277846,-0.062068366,0.44929692,0.5840898,0.5729701,0.021374773,0.0807445,0.39567536,0.44820297,-0.1562464,-0.3793207,-0.0022086492,811.9048,798.60803,789.7436,807.8755,799.81683,-0.015869140625,0.056396484375,0.99310302734375,-5.8319091796875,-1.2261962890625,-33.69049072265625,1,1.0,1.0,1.0,1.0,10.00
2024-10-11 20:18:40.848,1.1459153,-0.3713093,0.83252543,0.69171035,0.27768177,-0.07207915,0.41314852,0.17069744,0.76277846,-0.062068366,0.44929692,0.5840898,0.5729701,0.021374773,0.0807445,0.39567536,0.44820297,-0.1562464,-0.3793207,-0.0022086492,812.3077,796.5934,790.14655,814.7253,912.23444,-0.015869140625,0.056396484375,0.99310302734375,-5.8319091796875,-1.2261962890625,-33.69049072265625,1,1.0,1.0,1.0,1.0,10.00
2024-10-11 20:18:40.849,1.1459153,-0.3713093,0.83252543,0.69171035,0.27768177,-0.07207915,0.41314852,0.17069744,0.76277846,-0.062068366,0.44929692,0.5840898,0.5729701,0.021374773,0.0807445,0.39567536,0.44820297,-0.1562464,-0.3793207,-0.0022086492,809.0842,792.96704,790.54944,811.9048,892.0879,-0.015869140625,0.056396484375,0.99310302734375,-5.8319091796875,-1.2261962890625,-33.69049072265625,1,1.0,1.0,1.0,1.0,10.00
2024-10-11 20:18:40.849,1.1459153,-0.3713093,0.83252543,0.69171035,0.27768177,-0.07207915,0.41314852,0.17069744,0.76277846,-0.062068366,0.44929692,0.5840898,0.5729701,0.021374773,0.0807445,0.39567536,0.44820297,-0.1562464,-0.3793207,-0.0022086492,812.3077,792.1612,790.54944,804.2491,612.0513,-0.015869140625,0.056396484375,0.99310302734375,-5.8319091796875,-1.2261962890625,-33.69049072265625,1,1.0,1.0,1.0,1.0,10.00
2024-10-11 20:18:40.850,1.1459153,-0.3713093,0.83252543,0.69171035,0.27768177,-0.07207915,0.41314852,0.17069744,0.76277846,-0.062068366,0.44929692,0.5840898,0.5729701,0.021374773,0.0807445,0.39567536,0.44820297,-0.1562464,-0.3793207,-0.0022086492,810.696,794.17584,793.36993,797.3993,561.28204,-0.015869140625,0.056396484375,0.99310302734375,-5.8319091796875,-1.2261962890625,-33.69049072265625,1,1.0,1.0,1.0,1.0,10.00
2024-10-11 20:18:40.850,1.1459153,-0.3713093,0.83252543,0.69171035,0.27768177,-0.07207915,0.41314852,0.17069744,0.76277846,-0.062068366,0.44929692,0.5840898,0.5729701,0.021374773,0.0807445,0.39567536,0.44820297,-0.1562464,-0.3793207,-0.0022086492,813.1135,794.17584,794.57874,803.8461,819.9634,-0.015869140625,0.056396484375,0.99310302734375,-5.8319091796875,-1.2261962890625,-33.69049072265625,1,1.0,1.0,1.0,1.0,10.00
2024-10-11 20:18:40.851,1.1459153,-0.3713093,0.83252543,0.69171035,0.27768177,-0.07207915,0.41314852,0.17069744,0.76277846,-0.062068366,0.44929692,0.5840898,0.5729701,0.021374773,0.0807445,0.39567536,0.44820297,-0.1562464,-0.3793207,-0.0022086492,811.0989,784.5055,793.36993,812.71063,957.3626,-0.02392578125,0.03826904296875,1.0120849609375,-6.467437744140625,-1.487884521484375,-26.51275634765625,1,1.0,1.0,1.0,1.0,10.00
2024-10-11 20:18:40.852,1.1459153,0.10591872,0.8677894,0.69171035,0.27768177,-0.07856956,0.43823355,0.17069744,0.76277846,-0.087899506,0.43378657,0.5840898,0.5729701,-0.009768411,0.056811906,0.39567536,0.44820297,-0.15618566,-0.4105141,-0.0022086492,811.50183,786.9231,793.36993,813.91943,769.59705,-0.02392578125,0.03826904296875,1.0120849609375,-6.467437744140625,-1.487884521484375,-26.51275634765625,1,1.0,1.0,1.0,1.0,10.00
2024-10-11 20:18:40.857,1.1459153,0.10591872,0.8677894,0.69171035,0.27768177,-0.07856956,0.43823355,0.17069744,0.76277846,-0.087899506,0.43378657,0.5840898,0.5729701,-0.009768411,0.056811906,0.39567536,0.44820297,-0.15618566,-0.4105141,-0.0022086492,822.381,797.3993,794.17584,811.0989,703.1135,-0.02392578125,0.03826904296875,1.0120849609375,-6.467437744140625,-1.487884521484375,-26.51275634765625,1,1.0,1.0,1.0,1.0,10.00
2024-10-11 20:18:40.857,1.1459153,0.10591872,0.8677894,0.69171035,0.27768177,-0.07856956,0.43823355,0.17069744,0.76277846,-0.087899506,0.43378657,0.5840898,0.5729701,-0.009768411,0.056811906,0.39567536,0.44820297,-0.15618566,-0.4105141,-0.0022086492,823.9927,794.17584,794.57874,809.4872,908.60803,-0.02392578125,0.03826904296875,1.0120849609375,-6.467437744140625,-1.487884521484375,-26.51275634765625,1,1.0,1.0,1.0,1.0,10.00
2024-10-11 20:18:40.858,1.1459153,0.10591872,0.8677894,0.69171035,0.27768177,-0.07856956,0.43823355,0.17069744,0.76277846,-0.087899506,0.43378657,0.5840898,0.5729701,-0.009768411,0.056811906,0.39567536,0.44820297,-0.15618566,-0.4105141,-0.0022086492,823.1868,793.7729,794.57874,807.0696,969.0476,-0.02392578125,0.03826904296875,1.0120849609375,-6.467437744140625,-1.487884521484375,-26.51275634765625,1,1.0,1.0,1.0,1.0,10.00
2024-10-11 20:18:40.858,1.1459153,0.10591872,0.8677894,0.69171035,0.27768177,-0.07856956,0.43823355,0.17069744,0.76277846,-0.087899506,0.43378657,0.5840898,0.5729701,-0.009768411,0.056811906,0.39567536,0.44820297,-0.15618566,-0.4105141,-0.0022086492,822.7839,794.17584,786.9231,804.65204,742.6007,-0.02392578125,0.03826904296875,1.0120849609375,-6.467437744140625,-1.487884521484375,-26.51275634765625,1,1.0,1.0,1.0,1.0,10.00
2024-10-11 20:18:40.859,1.1459153,0.10591872,0.8677894,0.69171035,0.27768177,-0.07856956,0.43823355,0.17069744,0.76277846,-0.087899506,0.43378657,0.5840898,0.5729701,-0.009768411,0.056811906,0.39567536,0.44820297,-0.15618566,-0.4105141,-0.0022086492,819.9634,792.5641,791.3553,803.8461,794.17584,-0.02392578125,0.03826904296875,1.0120849609375,-6.467437744140625,-1.487884521484375,-26.51275634765625,1,1.0,1.0,1.0,1.0,10.00
2024-10-11 20:18:40.860,1.1459153,0.10591872,0.8677894,0.69171035,0.27768177,-0.07856956,0.43823355,0.17069744,0.76277846,-0.087899506,0.43378657,0.5840898,0.5729701,-0.009768411,0.056811906,0.39567536,0.44820297,-0.15618566,-0.4105141,-0.0022086492,820.7692,788.93774,797.3993,808.68134,987.1795,-0.02392578125,0.03826904296875,1.0120849609375,-6.467437744140625,-1.487884521484375,-26.51275634765625,1,1.0,1.0,1.0,1.0,10.00
2024-10-11 20:18:40.860,1.1459153,0.10591872,0.8677894,0.69171035,0.27768177,-0.07856956,0.43823355,0.17069744,0.76277846,-0.087899506,0.43378657,0.5840898,0.5729701,-0.009768411,0.056811906,0.39567536,0.44820297,-0.15618566,-0.4105141,-0.0022086492,817.5458,790.14655,798.60803,816.7399,809.89014,-0.02392578125,0.03826904296875,1.0120849609375,-6.467437744140625,-1.487884521484375,-26.51275634765625,1,1.0,1.0,1.0,1.0,10.00
2024-10-11 20:18:40.861,1.1459153,0.10591872,0.8677894,0.69171035,0.27768177,-0.07856956,0.43823355,0.17069744,0.76277846,-0.087899506,0.43378657,0.5840898,0.5729701,-0.009768411,0.056811906,0.39567536,0.44820297,-0.15618566,-0.4105141,-0.0022086492,812.3077,792.5641,801.02563,817.1429,591.9048,-0.02392578125,0.03826904296875,1.0120849609375,-6.467437744140625,-1.487884521484375,-26.51275634765625,1,1.0,1.0,1.0,1.0,10.00
2024-10-11 20:18:40.861,1.1459153,0.10591872,0.8677894,0.69171035,0.27768177,-0.07856956,0.43823355,0.17069744,0.76277846,-0.087899506,0.43378657,0.5840898,0.5729701,-0.009768411,0.056811906,0.39567536,0.44820297,-0.15618566,-0.4105141,-0.0022086492,810.293,782.49084,800.2198,816.7399,693.0403,-0.02392578125,0.03826904296875,1.0120849609375,-6.467437744140625,-1.487884521484375,-26.51275634765625,1,1.0,1.0,1.0,1.0,10.00
2024-10-11 20:18:40.862,1.1459153,0.10591872,0.8677894,0.69171035,0.27768177,-0.07856956,0.43823355,0.17069744,0.76277846,-0.087899506,0.43378657,0.5840898,0.5729701,-0.009768411,0.056811906,0.39567536,0.44820297,-0.15618566,-0.4105141,-0.0022086492,810.696,787.72894,801.02563,817.5458,985.9707,-0.02392578125,0.03826904296875,1.0120849609375,-6.467437744140625,-1.487884521484375,-26.51275634765625,1,1.0,1.0,1.0,1.0,10.00
2024-10-11 20:18:40.890,1.1459153,0.10591872,0.8677894,0.69171035,0.27768177,-0.07856956,0.43823355,0.17069744,0.76277846,-0.087899506,0.43378657,0.5840898,0.5729701,-0.009768411,0.056811906,0.39567536,0.44820297,-0.15618566,-0.4105141,-0.0022086492,805.8608,795.78754,803.8461,817.5458,1007.72894,-0.02392578125,0.03826904296875,1.0120849609375,-6.467437744140625,-1.487884521484375,-26.51275634765625,1,1.0,1.0,1.0,1.0,10.00
2024-10-11 20:18:40.891,1.1459153,0.10591872,0.8677894,0.69171035,0.27768177,-0.07856956,0.43823355,0.17069744,0.76277846,-0.087899506,0.43378657,0.5840898,0.5729701,-0.009768411,0.056811906,0.39567536,0.44820297,-0.15618566,-0.4105141,-0.0022086492,800.2198,790.54944,804.65204,818.3516,708.3516,-0.02392578125,0.03826904296875,1.0120849609375,-6.467437744140625,-1.487884521484375,-26.51275634765625,1,1.0,1.0,1.0,1.0,10.00
2024-10-11 20:18:40.891,1.1459153,0.10591872,0.8677894,0.69171035,0.27768177,-0.07856956,0.43823355,0.17069744,0.76277846,-0.087899506,0.43378657,0.5840898,0.5729701,-0.009768411,0.056811906,0.39567536,0.44820297,-0.15618566,-0.4105141,-0.0022086492,798.60803,792.1612,807.47253,810.293,709.5604,-0.02392578125,0.03826904296875,1.0120849609375,-6.467437744140625,-1.487884521484375,-26.51275634765625,1,1.0,1.0,1.0,1.0,10.00
2024-10-11 20:18:40.892,1.1459153,0.10591872,0.8677894,0.69171035,0.27768177,-0.07856956,0.43823355,0.17069744,0.76277846,-0.087899506,0.43378657,0.5840898,0.5729701,-0.009768411,0.056811906,0.39567536,0.44820297,-0.15618566,-0.4105141,-0.0022086492,803.0403,794.17584,808.68134,807.0696,887.6557,-0.02392578125,0.03826904296875,1.0120849609375,-6.467437744140625,-1.487884521484375,-26.51275634765625,1,1.0,1.0,1.0,1.0,10.00
2024-10-11 20:18:40.892,1.1459153,0.10591872,0.8677894,0.69171035,0.27768177,-0.07856956,0.43823355,0.17069744,0.76277846,-0.087899506,0.43378657,0.5840898,0.5729701,-0.009768411,0.056811906,0.39567536,0.44820297,-0.15618566,-0.4105141,-0.0022086492,807.47253,793.7729,804.65204,811.50183,835.2747,-0.02392578125,0.03826904296875,1.0120849609375,-6.467437744140625,-1.487884521484375,-26.51275634765625,1,1.0,1.0,1.0,1.0,10.00
2024-10-11 20:18:40.893,1.1459153,0.10591872,0.8677894,0.69171035,0.27768177,-0.07856956,0.43823355,0.17069744,0.76277846,-0.087899506,0.43378657,0.5840898,0.5729701,-0.009768411,0.056811906,0.39567536,0.44820297,-0.15618566,-0.4105141,-0.0022086492,800.6227,790.54944,798.20514,805.05493,839.304,-0.02392578125,0.03826904296875,1.0120849609375,-6.467437744140625,-1.487884521484375,-26.51275634765625,1,1.0,1.0,1.0,1.0,10.00
2024-10-11 20:18:40.894,1.1459153,0.10591872,0.8677894,0.69171035,0.27768177,-0.07856956,0.43823355,0.17069744,0.76277846,-0.087899506,0.43378657,0.5840898,0.5729701,-0.009768411,0.056811906,0.39567536,0.44820297,-0.15618566,-0.4105141,-0.0022086492,801.8315,790.14655,801.4286,803.44324,958.5714,-0.02392578125,0.03826904296875,1.0120849609375,-6.467437744140625,-1.487884521484375,-26.51275634765625,1,1.0,1.0,1.0,1.0,10.00
2024-10-11 20:18:40.894,1.1459153,0.10591872,0.8677894,0.69171035,0.27768177,-0.07856956,0.43823355,0.17069744,0.76277846,-0.087899506,0.43378657,0.5840898,0.5729701,-0.009768411,0.056811906,0.39567536,0.44820297,-0.15618566,-0.4105141,-0.0022086492,806.6667,787.326,801.8315,809.89014,1200.3297,-0.02392578125,0.03826904296875,1.0120849609375,-6.467437744140625,-1.487884521484375,-26.51275634765625,1,1.0,1.0,1.0,1.0,10.00
2024-10-11 20:18:40.895,1.1459153,0.10591872,0.8677894,0.69171035,0.27768177,-0.07856956,0.43823355,0.17069744,0.76277846,-0.087899506,0.43378657,0.5840898,0.5729701,-0.009768411,0.056811906,0.39567536,0.44820297,-0.15618566,-0.4105141,-0.0022086492,812.71063,783.2967,796.99634,813.5165,1379.6337,-0.02392578125,0.03826904296875,1.0120849609375,-6.467437744140625,-1.487884521484375,-26.51275634765625,1,1.0,1.0,1.0,1.0,10.00
2024-10-11 20:18:40.895,1.1459153,0.10591872,0.8677894,0.69171035,0.27768177,-0.07856956,0.43823355,0.17069744,0.76277846,-0.087899506,0.43378657,0.5840898,0.5729701,-0.009768411,0.056811906,0.39567536,0.44820297,-0.15618566,-0.4105141,-0.0022086492,819.9634,784.5055,800.6227,813.1135,1187.033,-0.02392578125,0.03826904296875,1.0120849609375,-6.467437744140625,-1.487884521484375,-26.51275634765625,1,1.0,1.0,1.0,1.0,10.00
2024-10-11 20:18:40.896,1.1459153,0.10591872,0.8677894,0.69171035,0.27768177,-0.07856956,0.43823355,0.17069744,0.76277846,-0.087899506,0.43378657,0.5840898,0.5729701,-0.009768411,0.056811906,0.39567536,0.44820297,-0.15618566,-0.4105141,-0.0022086492,820.3663,782.49084,801.02563,804.65204,821.5751,-0.02392578125,0.03826904296875,1.0120849609375,-6.467437744140625,-1.487884521484375,-26.51275634765625,1,1.0,1.0,1.0,1.0,10.00
2024-10-11 20:18:40.896,1.1459153,0.10591872,0.8677894,0.69171035,0.27768177,-0.07856956,0.43823355,0.17069744,0.76277846,-0.087899506,0.43378657,0.5840898,0.5729701,-0.009768411,0.056811906,0.39567536,0.44820297,-0.15618566,-0.4105141,-0.0022086492,815.9341,784.90845,797.8022,800.6227,664.43225,-0.02392578125,0.03826904296875,1.0120849609375,-6.467437744140625,-1.487884521484375,-26.51275634765625,1,1.0,1.0,1.0,1.0,10.00
2024-10-11 20:18:40.922,1.1459153,0.10591872,0.8677894,0.69171035,0.27768177,-0.07856956,0.43823355,0.17069744,0.76277846,-0.087899506,0.43378657,0.5840898,0.5729701,-0.009768411,0.056811906,0.39567536,0.44820297,-0.15618566,-0.4105141,-0.0022086492,809.89014,792.5641,794.17584,807.47253,639.0476,-0.0191650390625,0.0277099609375,1.00299072265625,-5.316009521484375,-1.6748046875,-20.344390869140625,1,1.0,1.0,1.0,1.0,10.00
2024-10-11 20:18:40.923,1.1459153,0.10591872,0.8677894,0.69171035,0.27768177,-0.07856956,0.43823355,0.17069744,0.76277846,-0.087899506,0.43378657,0.5840898,0.5729701,-0.009768411,0.056811906,0.39567536,0.44820297,-0.15618566,-0.4105141,-0.0022086492,799.011,796.5934,794.9817,810.293,637.03296,-0.0191650390625,0.0277099609375,1.00299072265625,-5.316009521484375,-1.6748046875,-20.344390869140625,1,1.0,1.0,1.0,1.0,10.00
2024-10-11 20:18:40.924,1.1459153,0.10591872,0.8677894,0.69171035,0.27768177,-0.07856956,0.43823355,0.17069744,0.76277846,-0.087899506,0.43378657,0.5840898,0.5729701,-0.009768411,0.056811906,0.39567536,0.44820297,-0.15618566,-0.4105141,-0.0022086492,792.1612,789.34064,794.17584,805.8608,791.3553,-0.0191650390625,0.0277099609375,1.00299072265625,-5.316009521484375,-1.6748046875,-20.344390869140625,1,1.0,1.0,1.0,1.0,10.00
2024-10-11 20:18:40,,,,,,,,,,,,,,,,,,,,,,,,,,,,,,,,,,,,,,/muse/elements/blink
2024-10-11 20:18:40.924,1.1459153,0.42061955,0.91559887,0.69171035,0.27768177,0.050873466,0.47958115,0.17069744,0.76277846,-0.09493379,0.42012239,0.5840898,0.5729701,-0.0512291,0.023426862,0.39567536,0.44820297,-0.16893427,-0.44307408,-0.0022086492,794.17584,784.90845,799.81683,813.91943,1228.5348,-0.0191650390625,0.0277099609375,1.00299072265625,-5.316009521484375,-1.6748046875,-20.344390869140625,1,1.0,1.0,1.0,1.0,10.00
2024-10-11 20:18:40.929,1.1459153,0.42061955,0.91559887,0.69171035,0.27768177,0.050873466,0.47958115,0.17069744,0.76277846,-0.09493379,0.42012239,0.5840898,0.5729701,-0.0512291,0.023426862,0.39567536,0.44820297,-0.16893427,-0.44307408,-0.0022086492,805.4579,788.93774,803.44324,819.5604,1271.6483,-0.0191650390625,0.0277099609375,1.00299072265625,-5.316009521484375,-1.6748046875,-20.344390869140625,1,1.0,1.0,1.0,1.0,10.00
2024-10-11 20:18:40.930,1.1459153,0.42061955,0.91559887,0.69171035,0.27768177,0.050873466,0.47958115,0.17069744,0.76277846,-0.09493379,0.42012239,0.5840898,0.5729701,-0.0512291,0.023426862,0.39567536,0.44820297,-0.16893427,-0.44307408,-0.0022086492,804.2491,780.87915,790.9524,807.47253,899.7436,-0.0191650390625,0.0277099609375,1.00299072265625,-5.316009521484375,-1.6748046875,-20.344390869140625,1,1.0,1.0,1.0,1.0,10.00
2024-10-11 20:18:40.931,1.1459153,0.42061955,0.91559887,0.69171035,0.27768177,0.050873466,0.47958115,0.17069744,0.76277846,-0.09493379,0.42012239,0.5840898,0.5729701,-0.0512291,0.023426862,0.39567536,0.44820297,-0.16893427,-0.44307408,-0.0022086492,795.38464,775.2381,790.54944,808.2784,969.45056,-0.0191650390625,0.0277099609375,1.00299072265625,-5.316009521484375,-1.6748046875,-20.344390869140625,1,1.0,1.0,1.0,1.0,10.00
2024-10-11 20:18:40.931,1.1459153,0.42061955,0.91559887,0.69171035,0.27768177,0.050873466,0.47958115,0.17069744,0.76277846,-0.09493379,0.42012239,0.5840898,0.5729701,-0.0512291,0.023426862,0.39567536,0.44820297,-0.16893427,-0.44307408,-0.0022086492,798.20514,784.5055,799.41394,809.89014,942.0513,-0.0191650390625,0.0277099609375,1.00299072265625,-5.316009521484375,-1.6748046875,-20.344390869140625,1,1.0,1.0,1.0,1.0,10.00
2024-10-11 20:18:40.932,1.1459153,0.42061955,0.91559887,0.69171035,0.27768177,0.050873466,0.47958115,0.17069744,0.76277846,-0.09493379,0.42012239,0.5840898,0.5729701,-0.0512291,0.023426862,0.39567536,0.44820297,-0.16893427,-0.44307408,-0.0022086492,807.0696,790.54944,805.4579,803.0403,593.1135,-0.0191650390625,0.0277099609375,1.00299072265625,-5.316009521484375,-1.6748046875,-20.344390869140625,1,1.0,1.0,1.0,1.0,10.00
2024-10-11 20:18:40.932,1.1459153,0.42061955,0.91559887,0.69171035,0.27768177,0.050873466,0.47958115,0.17069744,0.76277846,-0.09493379,0.42012239,0.5840898,0.5729701,-0.0512291,0.023426862,0.39567536,0.44820297,-0.16893427,-0.44307408,-0.0022086492,808.2784,790.54944,807.0696,804.65204,618.9011,-0.0191650390625,0.0277099609375,1.00299072265625,-5.316009521484375,-1.6748046875,-20.344390869140625,1,1.0,1.0,1.0,1.0,10.00
2024-10-11 20:18:40.933,1.1459153,0.42061955,0.91559887,0.69171035,0.27768177,0.050873466,0.47958115,0.17069744,0.76277846,-0.09493379,0.42012239,0.5840898,0.5729701,-0.0512291,0.023426862,0.39567536,0.44820297,-0.16893427,-0.44307408,-0.0022086492,801.4286,780.87915,805.8608,813.1135,894.90845,-0.0191650390625,0.0277099609375,1.00299072265625,-5.316009521484375,-1.6748046875,-20.344390869140625,1,1.0,1.0,1.0,1.0,10.00
2024-10-11 20:18:40.933,1.1459153,0.42061955,0.91559887,0.69171035,0.27768177,0.050873466,0.47958115,0.17069744,0.76277846,-0.09493379,0.42012239,0.5840898,0.5729701,-0.0512291,0.023426862,0.39567536,0.44820297,-0.16893427,-0.44307408,-0.0022086492,801.8315,785.7143,805.8608,812.3077,751.06226,-0.0191650390625,0.0277099609375,1.00299072265625,-5.316009521484375,-1.6748046875,-20.344390869140625,1,1.0,1.0,1.0,1.0,10.00
2024-10-11 20:18:40.957,1.1459153,0.42061955,0.91559887,0.69171035,0.27768177,0.050873466,0.47958115,0.17069744,0.76277846,-0.09493379,0.42012239,0.5840898,0.5729701,-0.0512291,0.023426862,0.39567536,0.44820297,-0.16893427,-0.44307408,-0.0022086492,808.2784,795.78754,804.2491,810.293,425.89743,-0.02655029296875,0.02880859375,0.9940185546875,-2.250518798828125,-1.472930908203125,-16.090087890625,1,1.0,1.0,1.0,1.0,10.00
2024-10-11 20:18:40.958,1.1459153,0.42061955,0.91559887,0.69171035,0.27768177,0.050873466,0.47958115,0.17069744,0.76277846,-0.09493379,0.42012239,0.5840898,0.5729701,-0.0512291,0.023426862,0.39567536,0.44820297,-0.16893427,-0.44307408,-0.0022086492,812.3077,793.36993,811.50183,818.3516,577.8022,-0.02655029296875,0.02880859375,0.9940185546875,-2.250518798828125,-1.472930908203125,-16.090087890625,1,1.0,1.0,1.0,1.0,10.00
2024-10-11 20:18:40.959,1.1459153,0.42061955,0.91559887,0.69171035,0.27768177,0.050873466,0.47958115,0.17069744,0.76277846,-0.09493379,0.42012239,0.5840898,0.5729701,-0.0512291,0.023426862,0.39567536,0.44820297,-0.16893427,-0.44307408,-0.0022086492,808.68134,792.96704,810.293,816.7399,644.2857,-0.02655029296875,0.02880859375,0.9940185546875,-2.250518798828125,-1.472930908203125,-16.090087890625,1,1.0,1.0,1.0,1.0,10.00
2024-10-11 20:18:40.959,1.1459153,0.42061955,0.91559887,0.69171035,0.27768177,0.050873466,0.47958115,0.17069744,0.76277846,-0.09493379,0.42012239,0.5840898,0.5729701,-0.0512291,0.023426862,0.39567536,0.44820297,-0.16893427,-0.44307408,-0.0022086492,808.68134,793.7729,805.8608,808.2784,523.4066,-0.02655029296875,0.02880859375,0.9940185546875,-2.250518798828125,-1.472930908203125,-16.090087890625,1,1.0,1.0,1.0,1.0,10.00
2024-10-11 20:18:40.960,1.1459153,0.42061955,0.91559887,0.69171035,0.27768177,0.050873466,0.47958115,0.17069744,0.76277846,-0.09493379,0.42012239,0.5840898,0.5729701,-0.0512291,0.023426862,0.39567536,0.44820297,-0.16893427,-0.44307408,-0.0022086492,813.1135,791.75824,807.47253,800.6227,434.35898,-0.02655029296875,0.02880859375,0.9940185546875,-2.250518798828125,-1.472930908203125,-16.090087890625,1,1.0,1.0,1.0,1.0,10.00
2024-10-11 20:18:40.960,1.1459153,0.42061955,0.91559887,0.69171035,0.27768177,0.050873466,0.47958115,0.17069744,0.76277846,-0.09493379,0.42012239,0.5840898,0.5729701,-0.0512291,0.023426862,0.39567536,0.44820297,-0.16893427,-0.44307408,-0.0022086492,809.0842,788.93774,803.44324,803.44324,695.4579,-0.02655029296875,0.02880859375,0.9940185546875,-2.250518798828125,-1.472930908203125,-16.090087890625,1,1.0,1.0,1.0,1.0,10.00
2024-10-11 20:18:40.961,1.1459153,0.42061955,0.91559887,0.69171035,0.27768177,0.050873466,0.47958115,0.17069744,0.76277846,-0.09493379,0.42012239,0.5840898,0.5729701,-0.0512291,0.023426862,0.39567536,0.44820297,-0.16893427,-0.44307408,-0.0022086492,808.2784,788.5348,803.0403,804.65204,948.9011,-0.02655029296875,0.02880859375,0.9940185546875,-2.250518798828125,-1.472930908203125,-16.090087890625,1,1.0,1.0,1.0,1.0,10.00
2024-10-11 20:18:40.961,1.1459153,0.42061955,0.91559887,0.69171035,0.27768177,0.050873466,0.47958115,0.17069744,0.76277846,-0.09493379,0.42012239,0.5840898,0.5729701,-0.0512291,0.023426862,0.39567536,0.44820297,-0.16893427,-0.44307408,-0.0022086492,809.89014,794.17584,808.68134,803.44324,628.5714,-0.02655029296875,0.02880859375,0.9940185546875,-2.250518798828125,-1.472930908203125,-16.090087890625,1,1.0,1.0,1.0,1.0,10.00
2024-10-11 20:18:40.962,1.1459153,0.42061955,0.91559887,0.69171035,0.27768177,0.050873466,0.47958115,0.17069744,0.76277846,-0.09493379,0.42012239,0.5840898,0.5729701,-0.0512291,0.023426862,0.39567536,0.44820297,-0.16893427,-0.44307408,-0.0022086492,805.8608,789.34064,808.2784,806.6667,476.26373,-0.02655029296875,0.02880859375,0.9940185546875,-2.250518798828125,-1.472930908203125,-16.090087890625,1,1.0,1.0,1.0,1.0,10.00
2024-10-11 20:18:40.963,1.1459153,0.42061955,0.91559887,0.69171035,0.27768177,0.050873466,0.47958115,0.17069744,0.76277846,-0.09493379,0.42012239,0.5840898,0.5729701,-0.0512291,0.023426862,0.39567536,0.44820297,-0.16893427,-0.44307408,-0.0022086492,811.9048,790.9524,809.89014,811.9048,842.1245,-0.02655029296875,0.02880859375,0.9940185546875,-2.250518798828125,-1.472930908203125,-16.090087890625,1,1.0,1.0,1.0,1.0,10.00
2024-10-11 20:18:40.963,1.1459153,0.42061955,0.91559887,0.69171035,0.27768177,0.050873466,0.47958115,0.17069744,0.76277846,-0.09493379,0.42012239,0.5840898,0.5729701,-0.0512291,0.023426862,0.39567536,0.44820297,-0.16893427,-0.44307408,-0.0022086492,811.50183,798.20514,811.0989,819.15753,954.1392,-0.02655029296875,0.02880859375,0.9940185546875,-2.250518798828125,-1.472930908203125,-16.090087890625,1,1.0,1.0,1.0,1.0,10.00
2024-10-11 20:18:40.964,1.1459153,0.42061955,0.91559887,0.69171035,0.27768177,0.050873466,0.47958115,0.17069744,0.76277846,-0.09493379,0.42012239,0.5840898,0.5729701,-0.0512291,0.023426862,0.39567536,0.44820297,-0.16893427,-0.44307408,-0.0022086492,807.8755,797.8022,811.9048,815.12823,545.16486,-0.02655029296875,0.02880859375,0.9940185546875,-2.250518798828125,-1.472930908203125,-16.090087890625,1,1.0,1.0,1.0,1.0,10.00
2024-10-11 20:18:41.056,1.1459153,0.42061955,0.91559887,0.69171035,0.27768177,0.050873466,0.47958115,0.17069744,0.76277846,-0.09493379,0.42012239,0.5840898,0.5729701,-0.0512291,0.023426862,0.39567536,0.44820297,-0.16893427,-0.44307408,-0.0022086492,811.50183,795.38464,813.1135,811.9048,480.69598,-0.040771484375,0.03167724609375,1.00738525390625,-0.650482177734375,-0.605621337890625,-14.318084716796875,1,1.0,1.0,1.0,1.0,10.00
2024-10-11 20:18:41.057,1.1459153,0.42061955,0.91559887,0.69171035,0.27768177,0.050873466,0.47958115,0.17069744,0.76277846,-0.09493379,0.42012239,0.5840898,0.5729701,-0.0512291,0.023426862,0.39567536,0.44820297,-0.16893427,-0.44307408,-0.0022086492,807.8755,792.5641,806.6667,810.696,617.28937,-0.040771484375,0.03167724609375,1.00738525390625,-0.650482177734375,-0.605621337890625,-14.318084716796875,1,1.0,1.0,1.0,1.0,10.00
2024-10-11 20:18:41.058,1.1459153,0.42061955,0.91559887,0.69171035,0.27768177,0.050873466,0.47958115,0.17069744,0.76277846,-0.09493379,0.42012239,0.5840898,0.5729701,-0.0512291,0.023426862,0.39567536,0.44820297,-0.16893427,-0.44307408,-0.0022086492,806.26373,790.9524,809.89014,812.71063,713.1868,-0.040771484375,0.03167724609375,1.00738525390625,-0.650482177734375,-0.605621337890625,-14.318084716796875,1,1.0,1.0,1.0,1.0,10.00
2024-10-11 20:18:41.058,1.1459153,0.42061955,0.91559887,0.69171035,0.27768177,0.050873466,0.47958115,0.17069744,0.76277846,-0.09493379,0.42012239,0.5840898,0.5729701,-0.0512291,0.023426862,0.39567536,0.44820297,-0.16893427,-0.44307408,-0.0022086492,805.8608,786.52014,813.5165,808.2784,598.3516,-0.040771484375,0.03167724609375,1.00738525390625,-0.650482177734375,-0.605621337890625,-14.318084716796875,1,1.0,1.0,1.0,1.0,10.00
2024-10-11 20:18:41.059,1.1459153,0.42061955,0.91559887,0.69171035,0.27768177,0.050873466,0.47958115,0.17069744,0.76277846,-0.09493379,0.42012239,0.5840898,0.5729701,-0.0512291,0.023426862,0.39567536,0.44820297,-0.16893427,-0.44307408,-0.0022086492,808.68134,786.52014,814.3223,804.65204,536.7033,-0.040771484375,0.03167724609375,1.00738525390625,-0.650482177734375,-0.605621337890625,-14.318084716796875,1,1.0,1.0,1.0,1.0,10.00
2024-10-11 20:18:41.060,1.1459153,0.4804537,1.0689605,0.69171035,0.27768177,0.0648107,0.55139333,0.17069744,0.76277846,-0.11546264,0.4192837,0.5840898,0.5729701,-0.08481249,-0.029526921,0.39567536,0.44820297,-0.16277552,-0.45399874,-0.0022086492,801.4286,789.7436,811.0989,810.696,744.21246,-0.040771484375,0.03167724609375,1.00738525390625,-0.650482177734375,-0.605621337890625,-14.318084716796875,1,1.0,1.0,1.0,1.0,10.00
2024-10-11 20:18:41.064,1.1459153,0.4804537,1.0689605,0.69171035,0.27768177,0.0648107,0.55139333,0.17069744,0.76277846,-0.11546264,0.4192837,0.5840898,0.5729701,-0.08481249,-0.029526921,0.39567536,0.44820297,-0.16277552,-0.45399874,-0.0022086492,790.9524,796.1905,810.696,813.5165,857.03296,-0.040771484375,0.03167724609375,1.00738525390625,-0.650482177734375,-0.605621337890625,-14.318084716796875,1,1.0,1.0,1.0,1.0,10.00
2024-10-11 20:18:41.065,1.1459153,0.4804537,1.0689605,0.69171035,0.27768177,0.0648107,0.55139333,0.17069744,0.76277846,-0.11546264,0.4192837,0.5840898,0.5729701,-0.08481249,-0.029526921,0.39567536,0.44820297,-0.16277552,-0.45399874,-0.0022086492,792.5641,789.7436,810.696,815.12823,711.5751,-0.040771484375,0.03167724609375,1.00738525390625,-0.650482177734375,-0.605621337890625,-14.318084716796875,1,1.0,1.0,1.0,1.0,10.00
2024-10-11 20:18:41.066,1.1459153,0.4804537,1.0689605,0.69171035,0.27768177,0.0648107,0.55139333,0.17069744,0.76277846,-0.11546264,0.4192837,0.5840898,0.5729701,-0.08481249,-0.029526921,0.39567536,0.44820297,-0.16277552,-0.45399874,-0.0022086492,792.96704,788.93774,807.8755,817.9487,535.89746,-0.040771484375,0.03167724609375,1.00738525390625,-0.650482177734375,-0.605621337890625,-14.318084716796875,1,1.0,1.0,1.0,1.0,10.00
2024-10-11 20:18:41.066,1.1459153,0.4804537,1.0689605,0.69171035,0.27768177,0.0648107,0.55139333,0.17069744,0.76277846,-0.11546264,0.4192837,0.5840898,0.5729701,-0.08481249,-0.029526921,0.39567536,0.44820297,-0.16277552,-0.45399874,-0.0022086492,794.9817,793.36993,810.293,825.6044,804.65204,-0.040771484375,0.03167724609375,1.00738525390625,-0.650482177734375,-0.605621337890625,-14.318084716796875,1,1.0,1.0,1.0,1.0,10.00
2024-10-11 20:18:41.067,1.1459153,0.4804537,1.0689605,0.69171035,0.27768177,0.0648107,0.55139333,0.17069744,0.76277846,-0.11546264,0.4192837,0.5840898,0.5729701,-0.08481249,-0.029526921,0.39567536,0.44820297,-0.16277552,-0.45399874,-0.0022086492,797.3993,791.3553,805.05493,821.978,879.59705,-0.040771484375,0.03167724609375,1.00738525390625,-0.650482177734375,-0.605621337890625,-14.318084716796875,1,1.0,1.0,1.0,1.0,10.00
2024-10-11 20:18:41.067,1.1459153,0.4804537,1.0689605,0.69171035,0.27768177,0.0648107,0.55139333,0.17069744,0.76277846,-0.11546264,0.4192837,0.5840898,0.5729701,-0.08481249,-0.029526921,0.39567536,0.44820297,-0.16277552,-0.45399874,-0.0022086492,800.6227,792.1612,808.2784,811.50183,761.53845,-0.040771484375,0.03167724609375,1.00738525390625,-0.650482177734375,-0.605621337890625,-14.318084716796875,1,1.0,1.0,1.0,1.0,10.00
2024-10-11 20:18:41.068,1.1459153,0.4804537,1.0689605,0.69171035,0.27768177,0.0648107,0.55139333,0.17069744,0.76277846,-0.11546264,0.4192837,0.5840898,0.5729701,-0.08481249,-0.029526921,0.39567536,0.44820297,-0.16277552,-0.45399874,-0.0022086492,797.8022,793.7729,812.71063,817.9487,805.8608,-0.05029296875,0.02880859375,1.00396728515625,-0.28411865234375,0.366363525390625,-14.49005126953125,1,1.0,1.0,1.0,1.0,10.00
2024-10-11 20:18:41.069,1.1459153,0.4804537,1.0689605,0.69171035,0.27768177,0.0648107,0.55139333,0.17069744,0.76277846,-0.11546264,0.4192837,0.5840898,0.5729701,-0.08481249,-0.029526921,0.39567536,0.44820297,-0.16277552,-0.45399874,-0.0022086492,794.57874,796.99634,805.8608,820.3663,772.8205,-0.05029296875,0.02880859375,1.00396728515625,-0.28411865234375,0.366363525390625,-14.49005126953125,1,1.0,1.0,1.0,1.0,10.00
2024-10-11 20:18:41.070,1.1459153,0.4804537,1.0689605,0.69171035,0.27768177,0.0648107,0.55139333,0.17069744,0.76277846,-0.11546264,0.4192837,0.5840898,0.5729701,-0.08481249,-0.029526921,0.39567536,0.44820297,-0.16277552,-0.45399874,-0.0022086492,799.41394,796.99634,801.02563,813.5165,697.0696,-0.05029296875,0.02880859375,1.00396728515625,-0.28411865234375,0.366363525390625,-14.49005126953125,1,1.0,1.0,1.0,1.0,10.00
2024-10-11 20:18:41.070,1.1459153,0.4804537,1.0689605,0.69171035,0.27768177,0.0648107,0.55139333,0.17069744,0.76277846,-0.11546264,0.4192837,0.5840898,0.5729701,-0.08481249,-0.029526921,0.39567536,0.44820297,-0.16277552,-0.45399874,-0.0022086492,803.44324,790.54944,805.05493,811.9048,605.2015,-0.05029296875,0.02880859375,1.00396728515625,-0.28411865234375,0.366363525390625,-14.49005126953125,1,1.0,1.0,1.0,1.0,10.00
2024-10-11 20:18:41.071,1.1459153,0.4804537,1.0689605,0.69171035,0.27768177,0.0648107,0.55139333,0.17069744,0.76277846,-0.11546264,0.4192837,0.5840898,0.5729701,-0.08481249,-0.029526921,0.39567536,0.44820297,-0.16277552,-0.45399874,-0.0022086492,799.81683,796.5934,809.0842,809.89014,686.1905,-0.05029296875,0.02880859375,1.00396728515625,-0.28411865234375,0.366363525390625,-14.49005126953125,1,1.0,1.0,1.0,1.0,10.00
2024-10-11 20:18:41.071,1.1459153,0.4804537,1.0689605,0.69171035,0.27768177,0.0648107,0.55139333,0.17069744,0.76277846,-0.11546264,0.4192837,0.5840898,0.5729701,-0.08481249,-0.029526921,0.39567536,0.44820297,-0.16277552,-0.45399874,-0.0022086492,798.20514,800.6227,801.8315,807.0696,767.5824,-0.05029296875,0.02880859375,1.00396728515625,-0.28411865234375,0.366363525390625,-14.49005126953125,1,1.0,1.0,1.0,1.0,10.00
2024-10-11 20:18:41.072,1.1459153,0.4804537,1.0689605,0.69171035,0.27768177,0.0648107,0.55139333,0.17069744,0.76277846,-0.11546264,0.4192837,0.5840898,0.5729701,-0.08481249,-0.029526921,0.39567536,0.44820297,-0.16277552,-0.45399874,-0.0022086492,797.8022,793.36993,795.38464,800.2198,805.4579,-0.05029296875,0.02880859375,1.00396728515625,-0.28411865234375,0.366363525390625,-14.49005126953125,1,1.0,1.0,1.0,1.0,10.00
2024-10-11 20:18:41.072,1.1459153,0.4804537,1.0689605,0.69171035,0.27768177,0.0648107,0.55139333,0.17069744,0.76277846,-0.11546264,0.4192837,0.5840898,0.5729701,-0.08481249,-0.029526921,0.39567536,0.44820297,-0.16277552,-0.45399874,-0.0022086492,802.6374,792.1612,799.011,802.23444,831.2454,-0.05029296875,0.02880859375,1.00396728515625,-0.28411865234375,0.366363525390625,-14.49005126953125,1,1.0,1.0,1.0,1.0,10.00
2024-10-11 20:18:41.073,1.1459153,0.4804537,1.0689605,0.69171035,0.27768177,0.0648107,0.55139333,0.17069744,0.76277846,-0.11546264,0.4192837,0.5840898,0.5729701,-0.08481249,-0.029526921,0.39567536,0.44820297,-0.16277552,-0.45399874,-0.0022086492,811.0989,796.1905,806.6667,809.4872,918.2784,-0.05029296875,0.02880859375,1.00396728515625,-0.28411865234375,0.366363525390625,-14.49005126953125,1,1.0,1.0,1.0,1.0,10.00
2024-10-11 20:18:41.073,1.1459153,0.4804537,1.0689605,0.69171035,0.27768177,0.0648107,0.55139333,0.17069744,0.76277846,-0.11546264,0.4192837,0.5840898,0.5729701,-0.08481249,-0.029526921,0.39567536,0.44820297,-0.16277552,-0.45399874,-0.0022086492,813.5165,800.6227,812.71063,804.2491,855.42126,-0.05029296875,0.02880859375,1.00396728515625,-0.28411865234375,0.366363525390625,-14.49005126953125,1,1.0,1.0,1.0,1.0,10.00
2024-10-11 20:18:41.074,1.1459153,0.4804537,1.0689605,0.69171035,0.27768177,0.0648107,0.55139333,0.17069744,0.76277846,-0.11546264,0.4192837,0.5840898,0.5729701,-0.08481249,-0.029526921,0.39567536,0.44820297,-0.16277552,-0.45399874,-0.0022086492,809.0842,801.8315,809.89014,799.011,652.74725,-0.05029296875,0.02880859375,1.00396728515625,-0.28411865234375,0.366363525390625,-14.49005126953125,1,1.0,1.0,1.0,1.0,10.00
2024-10-11 20:18:41.075,1.1459153,0.4804537,1.0689605,0.69171035,0.27768177,0.0648107,0.55139333,0.17069744,0.76277846,-0.11546264,0.4192837,0.5840898,0.5729701,-0.08481249,-0.029526921,0.39567536,0.44820297,-0.16277552,-0.45399874,-0.0022086492,815.5311,791.3553,803.0403,805.8608,719.2308,-0.05029296875,0.02880859375,1.00396728515625,-0.28411865234375,0.366363525390625,-14.49005126953125,1,1.0,1.0,1.0,1.0,10.00
2024-10-11 20:18:41.101,1.1459153,0.4804537,1.0689605,0.69171035,0.27768177,0.0648107,0.55139333,0.17069744,0.76277846,-0.11546264,0.4192837,0.5840898,0.5729701,-0.08481249,-0.029526921,0.39567536,0.44820297,-0.16277552,-0.45399874,-0.0022086492,807.8755,784.10254,803.44324,803.0403,812.71063,-0.05206298828125,0.03717041015625,1.00811767578125,1.5850830078125,0.0299072265625,-11.207733154296875,1,1.0,1.0,1.0,1.0,10.00
2024-10-11 20:18:41.102,1.1459153,0.4804537,1.0689605,0.69171035,0.27768177,0.0648107,0.55139333,0.17069744,0.76277846,-0.11546264,0.4192837,0.5840898,0.5729701,-0.08481249,-0.029526921,0.39567536,0.44820297,-0.16277552,-0.45399874,-0.0022086492,796.99634,791.75824,804.65204,798.60803,706.7399,-0.05206298828125,0.03717041015625,1.00811767578125,1.5850830078125,0.0299072265625,-11.207733154296875,1,1.0,1.0,1.0,1.0,10.00
2024-10-11 20:18:41.102,1.1459153,0.4804537,1.0689605,0.69171035,0.27768177,0.0648107,0.55139333,0.17069744,0.76277846,-0.11546264,0.4192837,0.5840898,0.5729701,-0.08481249,-0.029526921,0.39567536,0.44820297,-0.16277552,-0.45399874,-0.0022086492,803.44324,794.9817,803.0403,804.2491,633.8095,-0.05206298828125,0.03717041015625,1.00811767578125,1.5850830078125,0.0299072265625,-11.207733154296875,1,1.0,1.0,1.0,1.0,10.00
2024-10-11 20:18:41.103,1.1459153,0.4804537,1.0689605,0.69171035,0.27768177,0.0648107,0.55139333,0.17069744,0.76277846,-0.11546264,0.4192837,0.5840898,0.5729701,-0.08481249,-0.029526921,0.39567536,0.44820297,-0.16277552,-0.45399874,-0.0022086492,801.8315,792.96704,799.81683,804.2491,676.9231,-0.05206298828125,0.03717041015625,1.00811767578125,1.5850830078125,0.0299072265625,-11.207733154296875,1,1.0,1.0,1.0,1.0,10.00
2024-10-11 20:18:41.104,1.1459153,0.4804537,1.0689605,0.69171035,0.27768177,0.0648107,0.55139333,0.17069744,0.76277846,-0.11546264,0.4192837,0.5840898,0.5729701,-0.08481249,-0.029526921,0.39567536,0.44820297,-0.16277552,-0.45399874,-0.0022086492,800.2198,795.38464,799.011,807.8755,942.8571,-0.05206298828125,0.03717041015625,1.00811767578125,1.5850830078125,0.0299072265625,-11.207733154296875,1,1.0,1.0,1.0,1.0,10.00
2024-10-11 20:18:41.104,1.1459153,0.4804537,1.0689605,0.69171035,0.27768177,0.0648107,0.55139333,0.17069744,0.76277846,-0.11546264,0.4192837,0.5840898,0.5729701,-0.08481249,-0.029526921,0.39567536,0.44820297,-0.16277552,-0.45399874,-0.0022086492,799.011,797.8022,802.6374,813.1135,1315.1648,-0.05206298828125,0.03717041015625,1.00811767578125,1.5850830078125,0.0299072265625,-11.207733154296875,1,1.0,1.0,1.0,1.0,10.00
2024-10-11 20:18:41.105,1.1459153,0.4804537,1.0689605,0.69171035,0.27768177,0.0648107,0.55139333,0.17069744,0.76277846,-0.11546264,0.4192837,0.5840898,0.5729701,-0.08481249,-0.029526921,0.39567536,0.44820297,-0.16277552,-0.45399874,-0.0022086492,801.8315,799.41394,809.0842,801.8315,1009.34064,-0.05206298828125,0.03717041015625,1.00811767578125,1.5850830078125,0.0299072265625,-11.207733154296875,1,1.0,1.0,1.0,1.0,10.00
2024-10-11 20:18:41.105,1.1459153,0.5560212,1.2276167,0.69171035,0.27768177,0.09999267,0.64082396,0.17069744,0.76277846,-0.119980805,0.4192837,0.5840898,0.5729701,-0.09336586,-0.07885012,0.39567536,0.44820297,-0.16499116,-0.4241838,-0.0022086492,811.0989,796.99634,805.4579,801.02563,737.3626,-0.05206298828125,0.03717041015625,1.00811767578125,1.5850830078125,0.0299072265625,-11.207733154296875,1,1.0,1.0,1.0,1.0,10.00
2024-10-11 20:18:41.110,1.1459153,0.5560212,1.2276167,0.69171035,0.27768177,0.09999267,0.64082396,0.17069744,0.76277846,-0.119980805,0.4192837,0.5840898,0.5729701,-0.09336586,-0.07885012,0.39567536,0.44820297,-0.16499116,-0.4241838,-0.0022086492,818.7546,796.99634,802.23444,813.1135,953.3333,-0.05206298828125,0.03717041015625,1.00811767578125,1.5850830078125,0.0299072265625,-11.207733154296875,1,1.0,1.0,1.0,1.0,10.00
2024-10-11 20:18:41.111,1.1459153,0.5560212,1.2276167,0.69171035,0.27768177,0.09999267,0.64082396,0.17069744,0.76277846,-0.119980805,0.4192837,0.5840898,0.5729701,-0.09336586,-0.07885012,0.39567536,0.44820297,-0.16499116,-0.4241838,-0.0022086492,819.9634,799.81683,805.05493,808.68134,807.0696,-0.05206298828125,0.03717041015625,1.00811767578125,1.5850830078125,0.0299072265625,-11.207733154296875,1,1.0,1.0,1.0,1.0,10.00
2024-10-11 20:18:41.112,1.1459153,0.5560212,1.2276167,0.69171035,0.27768177,0.09999267,0.64082396,0.17069744,0.76277846,-0.119980805,0.4192837,0.5840898,0.5729701,-0.09336586,-0.07885012,0.39567536,0.44820297,-0.16499116,-0.4241838,-0.0022086492,825.2015,796.5934,803.0403,808.2784,527.8388,-0.05206298828125,0.03717041015625,1.00811767578125,1.5850830078125,0.0299072265625,-11.207733154296875,1,1.0,1.0,1.0,1.0,10.00
2024-10-11 20:18:41.112,1.1459153,0.5560212,1.2276167,0.69171035,0.27768177,0.09999267,0.64082396,0.17069744,0.76277846,-0.119980805,0.4192837,0.5840898,0.5729701,-0.09336586,-0.07885012,0.39567536,0.44820297,-0.16499116,-0.4241838,-0.0022086492,832.0513,795.38464,804.65204,817.5458,674.10254,-0.05206298828125,0.03717041015625,1.00811767578125,1.5850830078125,0.0299072265625,-11.207733154296875,1,1.0,1.0,1.0,1.0,10.00
2024-10-11 20:18:41.145,1.1459153,0.5560212,1.2276167,0.69171035,0.27768177,0.09999267,0.64082396,0.17069744,0.76277846,-0.119980805,0.4192837,0.5840898,0.5729701,-0.09336586,-0.07885012,0.39567536,0.44820297,-0.16499116,-0.4241838,-0.0022086492,821.978,796.5934,808.68134,818.7546,783.2967,-0.05206298828125,0.03717041015625,1.00811767578125,1.5850830078125,0.0299072265625,-11.207733154296875,1,1.0,1.0,1.0,1.0,10.00
2024-10-11 20:18:41.146,1.1459153,0.5560212,1.2276167,0.69171035,0.27768177,0.09999267,0.64082396,0.17069744,0.76277846,-0.119980805,0.4192837,0.5840898,0.5729701,-0.09336586,-0.07885012,0.39567536,0.44820297,-0.16499116,-0.4241838,-0.0022086492,810.696,793.7729,809.89014,818.7546,631.79486,-0.05206298828125,0.03717041015625,1.00811767578125,1.5850830078125,0.0299072265625,-11.207733154296875,1,1.0,1.0,1.0,1.0,10.00
2024-10-11 20:18:41.146,1.1459153,0.5560212,1.2276167,0.69171035,0.27768177,0.09999267,0.64082396,0.17069744,0.76277846,-0.119980805,0.4192837,0.5840898,0.5729701,-0.09336586,-0.07885012,0.39567536,0.44820297,-0.16499116,-0.4241838,-0.0022086492,807.8755,797.3993,810.696,815.9341,601.1722,-0.05206298828125,0.03717041015625,1.00811767578125,1.5850830078125,0.0299072265625,-11.207733154296875,1,1.0,1.0,1.0,1.0,10.00
2024-10-11 20:18:41.147,1.1459153,0.5560212,1.2276167,0.69171035,0.27768177,0.09999267,0.64082396,0.17069744,0.76277846,-0.119980805,0.4192837,0.5840898,0.5729701,-0.09336586,-0.07885012,0.39567536,0.44820297,-0.16499116,-0.4241838,-0.0022086492,810.293,798.60803,811.50183,822.381,639.0476,-0.05206298828125,0.03717041015625,1.00811767578125,1.5850830078125,0.0299072265625,-11.207733154296875,1,1.0,1.0,1.0,1.0,10.00
2024-10-11 20:18:41.148,1.1459153,0.5560212,1.2276167,0.69171035,0.27768177,0.09999267,0.64082396,0.17069744,0.76277846,-0.119980805,0.4192837,0.5840898,0.5729701,-0.09336586,-0.07885012,0.39567536,0.44820297,-0.16499116,-0.4241838,-0.0022086492,808.68134,794.9817,809.0842,833.2601,779.67035,-0.05206298828125,0.03717041015625,1.00811767578125,1.5850830078125,0.0299072265625,-11.207733154296875,1,1.0,1.0,1.0,1.0,10.00
2024-10-11 20:18:41.148,1.1459153,0.5560212,1.2276167,0.69171035,0.27768177,0.09999267,0.64082396,0.17069744,0.76277846,-0.119980805,0.4192837,0.5840898,0.5729701,-0.09336586,-0.07885012,0.39567536,0.44820297,-0.16499116,-0.4241838,-0.0022086492,804.65204,786.52014,813.91943,830.84247,936.0073,-0.05206298828125,0.03717041015625,1.00811767578125,1.5850830078125,0.0299072265625,-11.207733154296875,1,1.0,1.0,1.0,1.0,10.00
2024-10-11 20:18:41.149,1.1459153,0.5560212,1.2276167,0.69171035,0.27768177,0.09999267,0.64082396,0.17069744,0.76277846,-0.119980805,0.4192837,0.5840898,0.5729701,-0.09336586,-0.07885012,0.39567536,0.44820297,-0.16499116,-0.4241838,-0.0022086492,808.68134,794.9817,816.337,823.9927,863.0769,-0.05206298828125,0.03717041015625,1.00811767578125,1.5850830078125,0.0299072265625,-11.207733154296875,1,1.0,1.0,1.0,1.0,10.00
2024-10-11 20:18:41.149,1.1459153,0.5560212,1.2276167,0.69171035,0.27768177,0.09999267,0.64082396,0.17069744,0.76277846,-0.119980805,0.4192837,0.5840898,0.5729701,-0.09336586,-0.07885012,0.39567536,0.44820297,-0.16499116,-0.4241838,-0.0022086492,807.0696,802.6374,807.47253,819.15753,952.1245,-0.05206298828125,0.03717041015625,1.00811767578125,1.5850830078125,0.0299072265625,-11.207733154296875,1,1.0,1.0,1.0,1.0,10.00
2024-10-11 20:18:41.150,1.1459153,0.5560212,1.2276167,0.69171035,0.27768177,0.09999267,0.64082396,0.17069744,0.76277846,-0.119980805,0.4192837,0.5840898,0.5729701,-0.09336586,-0.07885012,0.39567536,0.44820297,-0.16499116,-0.4241838,-0.0022086492,796.1905,796.5934,806.6667,812.71063,1193.4799,-0.05206298828125,0.03717041015625,1.00811767578125,1.5850830078125,0.0299072265625,-11.207733154296875,1,1.0,1.0,1.0,1.0,10.00
2024-10-11 20:18:41.151,1.1459153,0.5560212,1.2276167,0.69171035,0.27768177,0.09999267,0.64082396,0.17069744,0.76277846,-0.119980805,0.4192837,0.5840898,0.5729701,-0.09336586,-0.07885012,0.39567536,0.44820297,-0.16499116,-0.4241838,-0.0022086492,792.5641,796.5934,811.9048,808.2784,952.52747,-0.05206298828125,0.03717041015625,1.00811767578125,1.5850830078125,0.0299072265625,-11.207733154296875,1,1.0,1.0,1.0,1.0,10.00
2024-10-11 20:18:41.151,1.1459153,0.5560212,1.2276167,0.69171035,0.27768177,0.09999267,0.64082396,0.17069744,0.76277846,-0.119980805,0.4192837,0.5840898,0.5729701,-0.09336586,-0.07885012,0.39567536,0.44820297,-0.16499116,-0.4241838,-0.0022086492,791.75824,793.36993,813.1135,806.26373,629.3773,-0.05206298828125,0.03717041015625,1.00811767578125,1.5850830078125,0.0299072265625,-11.207733154296875,1,1.0,1.0,1.0,1.0,10.00
2024-10-11 20:18:41.152,1.1459153,0.5560212,1.2276167,0.69171035,0.27768177,0.09999267,0.64082396,0.17069744,0.76277846,-0.119980805,0.4192837,0.5840898,0.5729701,-0.09336586,-0.07885012,0.39567536,0.44820297,-0.16499116,-0.4241838,-0.0022086492,790.9524,792.5641,810.696,807.0696,700.293,-0.05206298828125,0.03717041015625,1.00811767578125,1.5850830078125,0.0299072265625,-11.207733154296875,1,1.0,1.0,1.0,1.0,10.00
2024-10-11 20:18:41.177,1.1459153,0.5560212,1.2276167,0.69171035,0.27768177,0.09999267,0.64082396,0.17069744,0.76277846,-0.119980805,0.4192837,0.5840898,0.5729701,-0.09336586,-0.07885012,0.39567536,0.44820297,-0.16499116,-0.4241838,-0.0022086492,791.75824,801.4286,809.4872,810.696,703.5165,-0.04052734375,0.0494384765625,1.01434326171875,3.282318115234375,-2.938385009765625,-7.73101806640625,1,1.0,1.0,1.0,1.0,10.00
2024-10-11 20:18:41.178,1.1459153,0.5560212,1.2276167,0.69171035,0.27768177,0.09999267,0.64082396,0.17069744,0.76277846,-0.119980805,0.4192837,0.5840898,0.5729701,-0.09336586,-0.07885012,0.39567536,0.44820297,-0.16499116,-0.4241838,-0.0022086492,790.54944,800.2198,805.4579,806.26373,583.8461,-0.04052734375,0.0494384765625,1.01434326171875,3.282318115234375,-2.938385009765625,-7.73101806640625,1,1.0,1.0,1.0,1.0,10.00
2024-10-11 20:18:41.179,1.1459153,0.5560212,1.2276167,0.69171035,0.27768177,0.09999267,0.64082396,0.17069744,0.76277846,-0.119980805,0.4192837,0.5840898,0.5729701,-0.09336586,-0.07885012,0.39567536,0.44820297,-0.16499116,-0.4241838,-0.0022086492,793.36993,799.81683,802.23444,809.4872,621.7216,-0.04052734375,0.0494384765625,1.01434326171875,3.282318115234375,-2.938385009765625,-7.73101806640625,1,1.0,1.0,1.0,1.0,10.00
2024-10-11 20:18:41.179,1.1459153,0.5560212,1.2276167,0.69171035,0.27768177,0.09999267,0.64082396,0.17069744,0.76277846,-0.119980805,0.4192837,0.5840898,0.5729701,-0.09336586,-0.07885012,0.39567536,0.44820297,-0.16499116,-0.4241838,-0.0022086492,792.1612,806.26373,804.2491,810.696,648.315,-0.04052734375,0.0494384765625,1.01434326171875,3.282318115234375,-2.938385009765625,-7.73101806640625,1,1.0,1.0,1.0,1.0,10.00
2024-10-11 20:18:41.180,1.1459153,0.5560212,1.2276167,0.69171035,0.27768177,0.09999267,0.64082396,0.17069744,0.76277846,-0.119980805,0.4192837,0.5840898,0.5729701,-0.09336586,-0.07885012,0.39567536,0.44820297,-0.16499116,-0.4241838,-0.0022086492,789.7436,804.65204,801.4286,805.05493,704.3223,-0.04052734375,0.0494384765625,1.01434326171875,3.282318115234375,-2.938385009765625,-7.73101806640625,1,1.0,1.0,1.0,1.0,10.00
2024-10-11 20:18:41.180,1.1459153,0.5560212,1.2276167,0.69171035,0.27768177,0.09999267,0.64082396,0.17069744,0.76277846,-0.119980805,0.4192837,0.5840898,0.5729701,-0.09336586,-0.07885012,0.39567536,0.44820297,-0.16499116,-0.4241838,-0.0022086492,807.0696,796.1905,799.81683,805.4579,847.3626,-0.04052734375,0.0494384765625,1.01434326171875,3.282318115234375,-2.938385009765625,-7.73101806640625,1,1.0,1.0,1.0,1.0,10.00
2024-10-11 20:18:41.181,1.1459153,0.5560212,1.2276167,0.69171035,0.27768177,0.09999267,0.64082396,0.17069744,0.76277846,-0.119980805,0.4192837,0.5840898,0.5729701,-0.09336586,-0.07885012,0.39567536,0.44820297,-0.16499116,-0.4241838,-0.0022086492,812.3077,789.7436,802.23444,803.44324,882.01465,-0.04052734375,0.0494384765625,1.01434326171875,3.282318115234375,-2.938385009765625,-7.73101806640625,1,1.0,1.0,1.0,1.0,10.00
2024-10-11 20:18:41.182,1.1459153,0.5560212,1.2276167,0.69171035,0.27768177,0.09999267,0.64082396,0.17069744,0.76277846,-0.119980805,0.4192837,0.5840898,0.5729701,-0.09336586,-0.07885012,0.39567536,0.44820297,-0.16499116,-0.4241838,-0.0022086492,805.4579,793.7729,800.2198,804.65204,909.41394,-0.04052734375,0.0494384765625,1.01434326171875,3.282318115234375,-2.938385009765625,-7.73101806640625,1,1.0,1.0,1.0,1.0,10.00
2024-10-11 20:18:41.182,1.1459153,0.5560212,1.2276167,0.69171035,0.27768177,0.09999267,0.64082396,0.17069744,0.76277846,-0.119980805,0.4192837,0.5840898,0.5729701,-0.09336586,-0.07885012,0.39567536,0.44820297,-0.16499116,-0.4241838,-0.0022086492,807.47253,797.3993,800.2198,808.68134,788.1319,-0.04052734375,0.0494384765625,1.01434326171875,3.282318115234375,-2.938385009765625,-7.73101806640625,1,1.0,1.0,1.0,1.0,10.00
2024-10-11 20:18:41.183,1.1459153,0.6499036,1.3538362,0.73002243,0.27768177,0.16081558,0.7159084,0.20518366,0.76277846,-0.12653317,0.4192837,0.5840898,0.5729701,-0.072788894,-0.10685882,0.4011552,0.44820297,-0.18131544,-0.37670577,0.017146464,809.89014,795.78754,796.5934,809.0842,630.58606,-0.04052734375,0.0494384765625,1.01434326171875,3.282318115234375,-2.938385009765625,-7.73101806640625,1,1.0,1.0,1.0,1.0,10.00
2024-10-11 20:18:41.188,1.1459153,0.6499036,1.3538362,0.73002243,0.27768177,0.16081558,0.7159084,0.20518366,0.76277846,-0.12653317,0.4192837,0.5840898,0.5729701,-0.072788894,-0.10685882,0.4011552,0.44820297,-0.18131544,-0.37670577,0.017146464,807.0696,796.5934,795.78754,808.2784,606.0073,-0.04052734375,0.0494384765625,1.01434326171875,3.282318115234375,-2.938385009765625,-7.73101806640625,1,1.0,1.0,1.0,1.0,10.00
2024-10-11 20:18:41.189,1.1459153,0.6499036,1.3538362,0.73002243,0.27768177,0.16081558,0.7159084,0.20518366,0.76277846,-0.12653317,0.4192837,0.5840898,0.5729701,-0.072788894,-0.10685882,0.4011552,0.44820297,-0.18131544,-0.37670577,0.017146464,802.6374,788.93774,795.38464,811.0989,969.85345,-0.04052734375,0.0494384765625,1.01434326171875,3.282318115234375,-2.938385009765625,-7.73101806640625,1,1.0,1.0,1.0,1.0,10.00
2024-10-11 20:18:41.241,1.1459153,0.6499036,1.3538362,0.73002243,0.27768177,0.16081558,0.7159084,0.20518366,0.76277846,-0.12653317,0.4192837,0.5840898,0.5729701,-0.072788894,-0.10685882,0.4011552,0.44820297,-0.18131544,-0.37670577,0.017146464,803.44324,785.7143,802.23444,811.9048,1020.6227,-0.0357666015625,0.056884765625,1.01043701171875,1.577606201171875,-2.6019287109375,-6.706695556640625,1,1.0,1.0,1.0,1.0,10.00
2024-10-11 20:18:41.242,1.1459153,0.6499036,1.3538362,0.73002243,0.27768177,0.16081558,0.7159084,0.20518366,0.76277846,-0.12653317,0.4192837,0.5840898,0.5729701,-0.072788894,-0.10685882,0.4011552,0.44820297,-0.18131544,-0.37670577,0.017146464,806.26373,799.81683,812.71063,809.4872,671.28204,-0.0357666015625,0.056884765625,1.01043701171875,1.577606201171875,-2.6019287109375,-6.706695556640625,1,1.0,1.0,1.0,1.0,10.00
2024-10-11 20:18:41.243,1.1459153,0.6499036,1.3538362,0.73002243,0.27768177,0.16081558,0.7159084,0.20518366,0.76277846,-0.12653317,0.4192837,0.5840898,0.5729701,-0.072788894,-0.10685882,0.4011552,0.44820297,-0.18131544,-0.37670577,0.017146464,807.0696,799.81683,809.0842,813.91943,722.4542,-0.0357666015625,0.056884765625,1.01043701171875,1.577606201171875,-2.6019287109375,-6.706695556640625,1,1.0,1.0,1.0,1.0,10.00
2024-10-11 20:18:41.244,1.1459153,0.6499036,1.3538362,0.73002243,0.27768177,0.16081558,0.7159084,0.20518366,0.76277846,-0.12653317,0.4192837,0.5840898,0.5729701,-0.072788894,-0.10685882,0.4011552,0.44820297,-0.18131544,-0.37670577,0.017146464,804.2491,797.8022,806.26373,815.12823,647.50916,-0.0357666015625,0.056884765625,1.01043701171875,1.577606201171875,-2.6019287109375,-6.706695556640625,1,1.0,1.0,1.0,1.0,10.00
2024-10-11 20:18:41.244,1.1459153,0.6499036,1.3538362,0.73002243,0.27768177,0.16081558,0.7159084,0.20518366,0.76277846,-0.12653317,0.4192837,0.5840898,0.5729701,-0.072788894,-0.10685882,0.4011552,0.44820297,-0.18131544,-0.37670577,0.017146464,809.89014,802.6374,806.26373,813.1135,550.0,-0.0357666015625,0.056884765625,1.01043701171875,1.577606201171875,-2.6019287109375,-6.706695556640625,1,1.0,1.0,1.0,1.0,10.00
2024-10-11 20:18:41.245,1.1459153,0.6499036,1.3538362,0.73002243,0.27768177,0.16081558,0.7159084,0.20518366,0.76277846,-0.12653317,0.4192837,0.5840898,0.5729701,-0.072788894,-0.10685882,0.4011552,0.44820297,-0.18131544,-0.37670577,0.017146464,809.4872,799.41394,808.2784,811.50183,651.53845,-0.0357666015625,0.056884765625,1.01043701171875,1.577606201171875,-2.6019287109375,-6.706695556640625,1,1.0,1.0,1.0,1.0,10.00
2024-10-11 20:18:41.245,1.1459153,0.6499036,1.3538362,0.73002243,0.27768177,0.16081558,0.7159084,0.20518366,0.76277846,-0.12653317,0.4192837,0.5840898,0.5729701,-0.072788894,-0.10685882,0.4011552,0.44820297,-0.18131544,-0.37670577,0.017146464,802.23444,796.5934,812.71063,815.5311,953.3333,-0.0357666015625,0.056884765625,1.01043701171875,1.577606201171875,-2.6019287109375,-6.706695556640625,1,1.0,1.0,1.0,1.0,10.00
2024-10-11 20:18:41.246,1.1459153,0.6499036,1.3538362,0.73002243,0.27768177,0.16081558,0.7159084,0.20518366,0.76277846,-0.12653317,0.4192837,0.5840898,0.5729701,-0.072788894,-0.10685882,0.4011552,0.44820297,-0.18131544,-0.37670577,0.017146464,800.2198,796.5934,808.2784,823.1868,1064.9451,-0.0357666015625,0.056884765625,1.01043701171875,1.577606201171875,-2.6019287109375,-6.706695556640625,1,1.0,1.0,1.0,1.0,10.00
2024-10-11 20:18:41.247,1.1459153,0.6499036,1.3538362,0.73002243,0.27768177,0.16081558,0.7159084,0.20518366,0.76277846,-0.12653317,0.4192837,0.5840898,0.5729701,-0.072788894,-0.10685882,0.4011552,0.44820297,-0.18131544,-0.37670577,0.017146464,796.1905,791.75824,807.0696,819.9634,608.8278,-0.0357666015625,0.056884765625,1.01043701171875,1.577606201171875,-2.6019287109375,-6.706695556640625,1,1.0,1.0,1.0,1.0,10.00
2024-10-11 20:18:41.247,1.1459153,0.6499036,1.3538362,0.73002243,0.27768177,0.16081558,0.7159084,0.20518366,0.76277846,-0.12653317,0.4192837,0.5840898,0.5729701,-0.072788894,-0.10685882,0.4011552,0.44820297,-0.18131544,-0.37670577,0.017146464,796.5934,791.3553,809.0842,815.12823,429.5238,-0.0357666015625,0.056884765625,1.01043701171875,1.577606201171875,-2.6019287109375,-6.706695556640625,1,1.0,1.0,1.0,1.0,10.00
2024-10-11 20:18:41.248,1.1459153,0.6499036,1.3538362,0.73002243,0.27768177,0.16081558,0.7159084,0.20518366,0.76277846,-0.12653317,0.4192837,0.5840898,0.5729701,-0.072788894,-0.10685882,0.4011552,0.44820297,-0.18131544,-0.37670577,0.017146464,792.96704,791.75824,804.65204,819.15753,824.3956,-0.0357666015625,0.056884765625,1.01043701171875,1.577606201171875,-2.6019287109375,-6.706695556640625,1,1.0,1.0,1.0,1.0,10.00
2024-10-11 20:18:41.248,1.1459153,0.6499036,1.3538362,0.73002243,0.27768177,0.16081558,0.7159084,0.20518366,0.76277846,-0.12653317,0.4192837,0.5840898,0.5729701,-0.072788894,-0.10685882,0.4011552,0.44820297,-0.18131544,-0.37670577,0.017146464,789.34064,785.7143,807.47253,817.5458,855.42126,-0.0357666015625,0.056884765625,1.01043701171875,1.577606201171875,-2.6019287109375,-6.706695556640625,1,1.0,1.0,1.0,1.0,10.00
2024-10-11 20:18:41.308,1.1459153,0.6499036,1.3538362,0.73002243,0.27768177,0.16081558,0.7159084,0.20518366,0.76277846,-0.12653317,0.4192837,0.5840898,0.5729701,-0.072788894,-0.10685882,0.4011552,0.44820297,-0.18131544,-0.37670577,0.017146464,788.93774,790.54944,810.293,809.4872,601.1722,-0.0469970703125,0.043212890625,1.01190185546875,-0.770111083984375,0.73272705078125,-6.676788330078125,1,1.0,1.0,1.0,1.0,10.00
2024-10-11 20:18:41.309,1.1459153,0.6499036,1.3538362,0.73002243,0.27768177,0.16081558,0.7159084,0.20518366,0.76277846,-0.12653317,0.4192837,0.5840898,0.5729701,-0.072788894,-0.10685882,0.4011552,0.44820297,-0.18131544,-0.37670577,0.017146464,785.31134,792.5641,805.8608,807.8755,639.0476,-0.0469970703125,0.043212890625,1.01190185546875,-0.770111083984375,0.73272705078125,-6.676788330078125,1,1.0,1.0,1.0,1.0,10.00
2024-10-11 20:18:41.310,1.1459153,0.6499036,1.3538362,0.73002243,0.27768177,0.16081558,0.7159084,0.20518366,0.76277846,-0.12653317,0.4192837,0.5840898,0.5729701,-0.072788894,-0.10685882,0.4011552,0.44820297,-0.18131544,-0.37670577,0.017146464,786.52014,790.54944,802.6374,815.9341,779.2674,-0.0469970703125,0.043212890625,1.01190185546875,-0.770111083984375,0.73272705078125,-6.676788330078125,1,1.0,1.0,1.0,1.0,10.00
2024-10-11 20:18:41.311,1.1459153,0.6499036,1.3538362,0.73002243,0.27768177,0.16081558,0.7159084,0.20518366,0.76277846,-0.12653317,0.4192837,0.5840898,0.5729701,-0.072788894,-0.10685882,0.4011552,0.44820297,-0.18131544,-0.37670577,0.017146464,785.7143,792.1612,803.0403,814.3223,813.5165,-0.0469970703125,0.043212890625,1.01190185546875,-0.770111083984375,0.73272705078125,-6.676788330078125,1,1.0,1.0,1.0,1.0,10.00
2024-10-11 20:18:41.311,1.1459153,0.6499036,1.3538362,0.73002243,0.27768177,0.16081558,0.7159084,0.20518366,0.76277846,-0.12653317,0.4192837,0.5840898,0.5729701,-0.072788894,-0.10685882,0.4011552,0.44820297,-0.18131544,-0.37670577,0.017146464,780.4762,792.96704,801.4286,803.44324,734.5421,-0.0469970703125,0.043212890625,1.01190185546875,-0.770111083984375,0.73272705078125,-6.676788330078125,1,1.0,1.0,1.0,1.0,10.00
2024-10-11 20:18:41.312,1.1459153,0.6499036,1.3538362,0.73002243,0.27768177,0.16081558,0.7159084,0.20518366,0.76277846,-0.12653317,0.4192837,0.5840898,0.5729701,-0.072788894,-0.10685882,0.4011552,0.44820297,-0.18131544,-0.37670577,0.017146464,786.9231,791.75824,794.9817,799.81683,730.9158,-0.0469970703125,0.043212890625,1.01190185546875,-0.770111083984375,0.73272705078125,-6.676788330078125,1,1.0,1.0,1.0,1.0,10.00
2024-10-11 20:18:41.313,1.1459153,0.6499036,1.3538362,0.73002243,0.27768177,0.16081558,0.7159084,0.20518366,0.76277846,-0.12653317,0.4192837,0.5840898,0.5729701,-0.072788894,-0.10685882,0.4011552,0.44820297,-0.18131544,-0.37670577,0.017146464,796.1905,790.14655,792.96704,807.0696,1042.7839,-0.0469970703125,0.043212890625,1.01190185546875,-0.770111083984375,0.73272705078125,-6.676788330078125,1,1.0,1.0,1.0,1.0,10.00
2024-10-11 20:18:41.316,1.1459153,0.6499036,1.3538362,0.73002243,0.27768177,0.16081558,0.7159084,0.20518366,0.76277846,-0.12653317,0.4192837,0.5840898,0.5729701,-0.072788894,-0.10685882,0.4011552,0.44820297,-0.18131544,-0.37670577,0.017146464,794.17584,787.326,799.011,803.44324,1027.0696,-0.0469970703125,0.043212890625,1.01190185546875,-0.770111083984375,0.73272705078125,-6.676788330078125,1,1.0,1.0,1.0,1.0,10.00
2024-10-11 20:18:41.316,1.1459153,0.6499036,1.3538362,0.73002243,0.27768177,0.16081558,0.7159084,0.20518366,0.76277846,-0.12653317,0.4192837,0.5840898,0.5729701,-0.072788894,-0.10685882,0.4011552,0.44820297,-0.18131544,-0.37670577,0.017146464,797.3993,791.75824,798.20514,793.36993,605.2015,-0.0469970703125,0.043212890625,1.01190185546875,-0.770111083984375,0.73272705078125,-6.676788330078125,1,1.0,1.0,1.0,1.0,10.00
2024-10-11 20:18:41.317,1.1459153,0.6499036,1.3538362,0.73002243,0.27768177,0.16081558,0.7159084,0.20518366,0.76277846,-0.12653317,0.4192837,0.5840898,0.5729701,-0.072788894,-0.10685882,0.4011552,0.44820297,-0.18131544,-0.37670577,0.017146464,805.05493,801.4286,796.5934,793.36993,559.67035,-0.0469970703125,0.043212890625,1.01190185546875,-0.770111083984375,0.73272705078125,-6.676788330078125,1,1.0,1.0,1.0,1.0,10.00
2024-10-11 20:18:41.318,1.1459153,0.6499036,1.3538362,0.73002243,0.27768177,0.16081558,0.7159084,0.20518366,0.76277846,-0.12653317,0.4192837,0.5840898,0.5729701,-0.072788894,-0.10685882,0.4011552,0.44820297,-0.18131544,-0.37670577,0.017146464,800.2198,794.9817,801.02563,798.20514,725.6777,-0.0469970703125,0.043212890625,1.01190185546875,-0.770111083984375,0.73272705078125,-6.676788330078125,1,1.0,1.0,1.0,1.0,10.00
2024-10-11 20:18:41.319,1.1459153,0.6499036,1.4353801,0.76908046,0.27768177,0.16081558,0.76406276,0.24372894,0.76277846,-0.12653317,0.42441276,0.5440506,0.5729701,-0.072788894,-0.109236084,0.3996417,0.44820297,-0.18131544,-0.33150834,0.043754283,797.3993,787.72894,805.8608,801.8315,803.8461,-0.0469970703125,0.043212890625,1.01190185546875,-0.770111083984375,0.73272705078125,-6.676788330078125,1,1.0,1.0,1.0,1.0,10.00
2024-10-11 20:18:41.348,1.1459153,0.6499036,1.4353801,0.76908046,0.27768177,0.16081558,0.76406276,0.24372894,0.76277846,-0.12653317,0.42441276,0.5440506,0.5729701,-0.072788894,-0.109236084,0.3996417,0.44820297,-0.18131544,-0.33150834,0.043754283,807.8755,790.54944,802.6374,797.8022,708.7546,-0.0517578125,0.029296875,0.9906005859375,-1.517791748046875,0.859832763671875,-6.841278076171875,1,1.0,1.0,1.0,1.0,10.00
2024-10-11 20:18:41.349,1.1459153,0.6499036,1.4353801,0.76908046,0.27768177,0.16081558,0.76406276,0.24372894,0.76277846,-0.12653317,0.42441276,0.5440506,0.5729701,-0.072788894,-0.109236084,0.3996417,0.44820297,-0.18131544,-0.33150834,0.043754283,811.9048,798.20514,795.38464,801.4286,859.85345,-0.0517578125,0.029296875,0.9906005859375,-1.517791748046875,0.859832763671875,-6.841278076171875,1,1.0,1.0,1.0,1.0,10.00
2024-10-11 20:18:41.349,1.1459153,0.6499036,1.4353801,0.76908046,0.27768177,0.16081558,0.76406276,0.24372894,0.76277846,-0.12653317,0.42441276,0.5440506,0.5729701,-0.072788894,-0.109236084,0.3996417,0.44820297,-0.18131544,-0.33150834,0.043754283,808.2784,800.2198,795.78754,805.4579,873.95605,-0.0517578125,0.029296875,0.9906005859375,-1.517791748046875,0.859832763671875,-6.841278076171875,1,1.0,1.0,1.0,1.0,10.00
2024-10-11 20:18:41.350,1.1459153,0.6499036,1.4353801,0.76908046,0.27768177,0.16081558,0.76406276,0.24372894,0.76277846,-0.12653317,0.42441276,0.5440506,0.5729701,-0.072788894,-0.109236084,0.3996417,0.44820297,-0.18131544,-0.33150834,0.043754283,806.6667,795.78754,802.6374,806.6667,769.19415,-0.0517578125,0.029296875,0.9906005859375,-1.517791748046875,0.859832763671875,-6.841278076171875,1,1.0,1.0,1.0,1.0,10.00
2024-10-11 20:18:41.351,1.1459153,0.6499036,1.4353801,0.76908046,0.27768177,0.16081558,0.76406276,0.24372894,0.76277846,-0.12653317,0.42441276,0.5440506,0.5729701,-0.072788894,-0.109236084,0.3996417,0.44820297,-0.18131544,-0.33150834,0.043754283,803.8461,796.5934,794.9817,797.3993,739.7802,-0.0517578125,0.029296875,0.9906005859375,-1.517791748046875,0.859832763671875,-6.841278076171875,1,1.0,1.0,1.0,1.0,10.00
2024-10-11 20:18:41.351,1.1459153,0.6499036,1.4353801,0.76908046,0.27768177,0.16081558,0.76406276,0.24372894,0.76277846,-0.12653317,0.42441276,0.5440506,0.5729701,-0.072788894,-0.109236084,0.3996417,0.44820297,-0.18131544,-0.33150834,0.043754283,807.0696,794.17584,793.36993,794.17584,875.16486,-0.0517578125,0.029296875,0.9906005859375,-1.517791748046875,0.859832763671875,-6.841278076171875,1,1.0,1.0,1.0,1.0,10.00
2024-10-11 20:18:41.352,1.1459153,0.6499036,1.4353801,0.76908046,0.27768177,0.16081558,0.76406276,0.24372894,0.76277846,-0.12653317,0.42441276,0.5440506,0.5729701,-0.072788894,-0.109236084,0.3996417,0.44820297,-0.18131544,-0.33150834,0.043754283,803.0403,794.57874,808.68134,802.23444,1085.0916,-0.0517578125,0.029296875,0.9906005859375,-1.517791748046875,0.859832763671875,-6.841278076171875,1,1.0,1.0,1.0,1.0,10.00
2024-10-11 20:18:41.353,1.1459153,0.6499036,1.4353801,0.76908046,0.27768177,0.16081558,0.76406276,0.24372894,0.76277846,-0.12653317,0.42441276,0.5440506,0.5729701,-0.072788894,-0.109236084,0.3996417,0.44820297,-0.18131544,-0.33150834,0.043754283,799.41394,794.17584,809.89014,802.6374,837.28937,-0.0517578125,0.029296875,0.9906005859375,-1.517791748046875,0.859832763671875,-6.841278076171875,1,1.0,1.0,1.0,1.0,10.00
2024-10-11 20:18:41.353,1.1459153,0.6499036,1.4353801,0.76908046,0.27768177,0.16081558,0.76406276,0.24372894,0.76277846,-0.12653317,0.42441276,0.5440506,0.5729701,-0.072788894,-0.109236084,0.3996417,0.44820297,-0.18131544,-0.33150834,0.043754283,796.5934,786.1172,806.6667,807.0696,610.4396,-0.0517578125,0.029296875,0.9906005859375,-1.517791748046875,0.859832763671875,-6.841278076171875,1,1.0,1.0,1.0,1.0,10.00
2024-10-11 20:18:41.354,1.1459153,0.6499036,1.4353801,0.76908046,0.27768177,0.16081558,0.76406276,0.24372894,0.76277846,-0.12653317,0.42441276,0.5440506,0.5729701,-0.072788894,-0.109236084,0.3996417,0.44820297,-0.18131544,-0.33150834,0.043754283,792.1612,784.90845,807.0696,812.71063,724.87177,-0.0517578125,0.029296875,0.9906005859375,-1.517791748046875,0.859832763671875,-6.841278076171875,1,1.0,1.0,1.0,1.0,10.00
2024-10-11 20:18:41.355,1.1459153,0.6499036,1.4353801,0.76908046,0.27768177,0.16081558,0.76406276,0.24372894,0.76277846,-0.12653317,0.42441276,0.5440506,0.5729701,-0.072788894,-0.109236084,0.3996417,0.44820297,-0.18131544,-0.33150834,0.043754283,787.72894,789.7436,807.8755,816.7399,770.0,-0.0517578125,0.029296875,0.9906005859375,-1.517791748046875,0.859832763671875,-6.841278076171875,1,1.0,1.0,1.0,1.0,10.00
2024-10-11 20:18:41.355,1.1459153,0.6499036,1.4353801,0.76908046,0.27768177,0.16081558,0.76406276,0.24372894,0.76277846,-0.12653317,0.42441276,0.5440506,0.5729701,-0.072788894,-0.109236084,0.3996417,0.44820297,-0.18131544,-0.33150834,0.043754283,778.46155,789.7436,811.50183,818.7546,766.77655,-0.0517578125,0.029296875,0.9906005859375,-1.517791748046875,0.859832763671875,-6.841278076171875,1,1.0,1.0,1.0,1.0,10.00
2024-10-11 20:18:41.409,1.1459153,0.6499036,1.4353801,0.76908046,0.27768177,0.16081558,0.76406276,0.24372894,0.76277846,-0.12653317,0.42441276,0.5440506,0.5729701,-0.072788894,-0.109236084,0.3996417,0.44820297,-0.18131544,-0.33150834,0.043754283,785.31134,797.3993,815.9341,815.5311,779.2674,-0.0517578125,0.029296875,0.9906005859375,-1.517791748046875,0.859832763671875,-6.841278076171875,1,1.0,1.0,1.0,1.0,10.00
2024-10-11 20:18:41.410,1.1459153,0.6499036,1.4353801,0.76908046,0.27768177,0.16081558,0.76406276,0.24372894,0.76277846,-0.12653317,0.42441276,0.5440506,0.5729701,-0.072788894,-0.109236084,0.3996417,0.44820297,-0.18131544,-0.33150834,0.043754283,778.46155,797.3993,815.12823,813.1135,952.1245,-0.0517578125,0.029296875,0.9906005859375,-1.517791748046875,0.859832763671875,-6.841278076171875,1,1.0,1.0,1.0,1.0,10.00
2024-10-11 20:18:41.410,1.1459153,0.6499036,1.4353801,0.76908046,0.27768177,0.16081558,0.76406276,0.24372894,0.76277846,-0.12653317,0.42441276,0.5440506,0.5729701,-0.072788894,-0.109236084,0.3996417,0.44820297,-0.18131544,-0.33150834,0.043754283,767.98535,786.1172,809.4872,814.3223,1014.9817,-0.0517578125,0.029296875,0.9906005859375,-1.517791748046875,0.859832763671875,-6.841278076171875,1,1.0,1.0,1.0,1.0,10.00
2024-10-11 20:18:41.411,1.1459153,0.6499036,1.4353801,0.76908046,0.27768177,0.16081558,0.76406276,0.24372894,0.76277846,-0.12653317,0.42441276,0.5440506,0.5729701,-0.072788894,-0.109236084,0.3996417,0.44820297,-0.18131544,-0.33150834,0.043754283,778.46155,784.5055,808.2784,815.12823,813.5165,-0.0517578125,0.029296875,0.9906005859375,-1.517791748046875,0.859832763671875,-6.841278076171875,1,1.0,1.0,1.0,1.0,10.00
2024-10-11 20:18:41.411,1.1459153,0.6499036,1.4353801,0.76908046,0.27768177,0.16081558,0.76406276,0.24372894,0.76277846,-0.12653317,0.42441276,0.5440506,0.5729701,-0.072788894,-0.109236084,0.3996417,0.44820297,-0.18131544,-0.33150834,0.043754283,778.46155,789.34064,803.8461,816.7399,931.978,-0.0517578125,0.029296875,0.9906005859375,-1.517791748046875,0.859832763671875,-6.841278076171875,1,1.0,1.0,1.0,1.0,10.00
2024-10-11 20:18:41.412,1.1459153,0.6499036,1.4353801,0.76908046,0.27768177,0.16081558,0.76406276,0.24372894,0.76277846,-0.12653317,0.42441276,0.5440506,0.5729701,-0.072788894,-0.109236084,0.3996417,0.44820297,-0.18131544,-0.33150834,0.043754283,778.86444,790.9524,804.65204,811.0989,1018.60803,-0.0517578125,0.029296875,0.9906005859375,-1.517791748046875,0.859832763671875,-6.841278076171875,1,1.0,1.0,1.0,1.0,10.00
2024-10-11 20:18:41.412,1.1459153,0.6499036,1.4353801,0.76908046,0.27768177,0.16081558,0.76406276,0.24372894,0.76277846,-0.12653317,0.42441276,0.5440506,0.5729701,-0.072788894,-0.109236084,0.3996417,0.44820297,-0.18131544,-0.33150834,0.043754283,791.3553,790.9524,810.293,804.65204,889.67035,-0.0517578125,0.029296875,0.9906005859375,-1.517791748046875,0.859832763671875,-6.841278076171875,1,1.0,1.0,1.0,1.0,10.00
2024-10-11 20:18:41.413,1.1459153,0.6499036,1.4353801,0.76908046,0.27768177,0.16081558,0.76406276,0.24372894,0.76277846,-0.12653317,0.42441276,0.5440506,0.5729701,-0.072788894,-0.109236084,0.3996417,0.44820297,-0.18131544,-0.33150834,0.043754283,796.99634,792.96704,803.44324,806.6667,687.8022,-0.0517578125,0.029296875,0.9906005859375,-1.517791748046875,0.859832763671875,-6.841278076171875,1,1.0,1.0,1.0,1.0,10.00
2024-10-11 20:18:41.414,1.1459153,0.6499036,1.4353801,0.76908046,0.27768177,0.16081558,0.76406276,0.24372894,0.76277846,-0.12653317,0.42441276,0.5440506,0.5729701,-0.072788894,-0.109236084,0.3996417,0.44820297,-0.18131544,-0.33150834,0.043754283,801.8315,797.3993,801.02563,815.12823,662.01465,-0.0517578125,0.029296875,0.9906005859375,-1.517791748046875,0.859832763671875,-6.841278076171875,1,1.0,1.0,1.0,1.0,10.00
2024-10-11 20:18:41.414,1.1459153,0.6499036,1.4353801,0.76908046,0.27768177,0.16081558,0.76406276,0.24372894,0.76277846,-0.12653317,0.42441276,0.5440506,0.5729701,-0.072788894,-0.109236084,0.3996417,0.44820297,-0.18131544,-0.33150834,0.043754283,806.26373,797.3993,809.0842,823.1868,964.61536,-0.0517578125,0.029296875,0.9906005859375,-1.517791748046875,0.859832763671875,-6.841278076171875,1,1.0,1.0,1.0,1.0,10.00
2024-10-11 20:18:41.415,1.1459153,0.6499036,1.4353801,0.76908046,0.27768177,0.16081558,0.76406276,0.24372894,0.76277846,-0.12653317,0.42441276,0.5440506,0.5729701,-0.072788894,-0.109236084,0.3996417,0.44820297,-0.18131544,-0.33150834,0.043754283,799.41394,792.5641,802.23444,816.337,934.7985,-0.0517578125,0.029296875,0.9906005859375,-1.517791748046875,0.859832763671875,-6.841278076171875,1,1.0,1.0,1.0,1.0,10.00
2024-10-11 20:18:41.415,1.1459153,0.6499036,1.4353801,0.76908046,0.27768177,0.16081558,0.76406276,0.24372894,0.76277846,-0.12653317,0.42441276,0.5440506,0.5729701,-0.072788894,-0.109236084,0.3996417,0.44820297,-0.18131544,-0.33150834,0.043754283,808.2784,790.9524,795.38464,807.47253,594.7253,-0.0517578125,0.029296875,0.9906005859375,-1.517791748046875,0.859832763671875,-6.841278076171875,1,1.0,1.0,1.0,1.0,10.00
2024-10-11 20:18:41.442,1.1459153,0.6499036,1.4353801,0.76908046,0.27768177,0.16081558,0.76406276,0.24372894,0.76277846,-0.12653317,0.42441276,0.5440506,0.5729701,-0.072788894,-0.109236084,0.3996417,0.44820297,-0.18131544,-0.33150834,0.043754283,815.5311,795.78754,796.1905,809.0842,698.2784,-0.064208984375,0.0347900390625,1.00933837890625,1.36077880859375,-0.785064697265625,-5.973968505859375,1,1.0,1.0,1.0,1.0,10.00
2024-10-11 20:18:41.442,1.1459153,0.6499036,1.478211,0.8063015,0.27768177,0.16081558,0.7848922,0.27679405,0.76277846,-0.12653317,0.43293852,0.50485796,0.5729701,-0.072788894,-0.10290142,0.38357407,0.44820297,-0.18131544,-0.29754248,0.073585354,815.9341,796.99634,795.38464,807.8755,749.85345,-0.064208984375,0.0347900390625,1.00933837890625,1.36077880859375,-0.785064697265625,-5.973968505859375,1,1.0,1.0,1.0,1.0,10.00
2024-10-11 20:18:41.447,1.1459153,0.6499036,1.478211,0.8063015,0.27768177,0.16081558,0.7848922,0.27679405,0.76277846,-0.12653317,0.43293852,0.50485796,0.5729701,-0.072788894,-0.10290142,0.38357407,0.44820297,-0.18131544,-0.29754248,0.073585354,817.9487,797.3993,794.9817,804.2491,645.4945,-0.064208984375,0.0347900390625,1.00933837890625,1.36077880859375,-0.785064697265625,-5.973968505859375,1,1.0,1.0,1.0,1.0,10.00
2024-10-11 20:18:41.448,1.1459153,0.6499036,1.478211,0.8063015,0.27768177,0.16081558,0.7848922,0.27679405,0.76277846,-0.12653317,0.43293852,0.50485796,0.5729701,-0.072788894,-0.10290142,0.38357407,0.44820297,-0.18131544,-0.29754248,0.073585354,815.9341,801.02563,796.99634,802.23444,582.6374,-0.064208984375,0.0347900390625,1.00933837890625,1.36077880859375,-0.785064697265625,-5.973968505859375,1,1.0,1.0,1.0,1.0,10.00
2024-10-11 20:18:41.448,1.1459153,0.6499036,1.478211,0.8063015,0.27768177,0.16081558,0.7848922,0.27679405,0.76277846,-0.12653317,0.43293852,0.50485796,0.5729701,-0.072788894,-0.10290142,0.38357407,0.44820297,-0.18131544,-0.29754248,0.073585354,814.3223,804.65204,799.81683,803.8461,712.7839,-0.064208984375,0.0347900390625,1.00933837890625,1.36077880859375,-0.785064697265625,-5.973968505859375,1,1.0,1.0,1.0,1.0,10.00
2024-10-11 20:18:41.449,1.1459153,0.6499036,1.478211,0.8063015,0.27768177,0.16081558,0.7848922,0.27679405,0.76277846,-0.12653317,0.43293852,0.50485796,0.5729701,-0.072788894,-0.10290142,0.38357407,0.44820297,-0.18131544,-0.29754248,0.073585354,809.89014,803.44324,802.6374,810.696,881.2088,-0.064208984375,0.0347900390625,1.00933837890625,1.36077880859375,-0.785064697265625,-5.973968505859375,1,1.0,1.0,1.0,1.0,10.00
2024-10-11 20:18:41.449,1.1459153,0.6499036,1.478211,0.8063015,0.27768177,0.16081558,0.7848922,0.27679405,0.76277846,-0.12653317,0.43293852,0.50485796,0.5729701,-0.072788894,-0.10290142,0.38357407,0.44820297,-0.18131544,-0.29754248,0.073585354,806.26373,800.2198,803.8461,811.50183,794.57874,-0.064208984375,0.0347900390625,1.00933837890625,1.36077880859375,-0.785064697265625,-5.973968505859375,1,1.0,1.0,1.0,1.0,10.00
2024-10-11 20:18:41.450,1.1459153,0.6499036,1.478211,0.8063015,0.27768177,0.16081558,0.7848922,0.27679405,0.76277846,-0.12653317,0.43293852,0.50485796,0.5729701,-0.072788894,-0.10290142,0.38357407,0.44820297,-0.18131544,-0.29754248,0.073585354,802.23444,794.17584,804.2491,807.47253,710.3663,-0.064208984375,0.0347900390625,1.00933837890625,1.36077880859375,-0.785064697265625,-5.973968505859375,1,1.0,1.0,1.0,1.0,10.00
2024-10-11 20:18:41.450,1.1459153,0.6499036,1.478211,0.8063015,0.27768177,0.16081558,0.7848922,0.27679405,0.76277846,-0.12653317,0.43293852,0.50485796,0.5729701,-0.072788894,-0.10290142,0.38357407,0.44820297,-0.18131544,-0.29754248,0.073585354,801.8315,799.81683,800.6227,814.3223,810.293,-0.064208984375,0.0347900390625,1.00933837890625,1.36077880859375,-0.785064697265625,-5.973968505859375,1,1.0,1.0,1.0,1.0,10.00
2024-10-11 20:18:41.451,1.1459153,0.6499036,1.478211,0.8063015,0.27768177,0.16081558,0.7848922,0.27679405,0.76277846,-0.12653317,0.43293852,0.50485796,0.5729701,-0.072788894,-0.10290142,0.38357407,0.44820297,-0.18131544,-0.29754248,0.073585354,807.47253,804.2491,793.7729,820.3663,900.14655,-0.064208984375,0.0347900390625,1.00933837890625,1.36077880859375,-0.785064697265625,-5.973968505859375,1,1.0,1.0,1.0,1.0,10.00
2024-10-11 20:18:41.452,1.1459153,0.6499036,1.478211,0.8063015,0.27768177,0.16081558,0.7848922,0.27679405,0.76277846,-0.12653317,0.43293852,0.50485796,0.5729701,-0.072788894,-0.10290142,0.38357407,0.44820297,-0.18131544,-0.29754248,0.073585354,810.696,800.2198,801.4286,814.7253,758.71796,-0.064208984375,0.0347900390625,1.00933837890625,1.36077880859375,-0.785064697265625,-5.973968505859375,1,1.0,1.0,1.0,1.0,10.00
2024-10-11 20:18:41.452,1.1459153,0.6499036,1.478211,0.8063015,0.27768177,0.16081558,0.7848922,0.27679405,0.76277846,-0.12653317,0.43293852,0.50485796,0.5729701,-0.072788894,-0.10290142,0.38357407,0.44820297,-0.18131544,-0.29754248,0.073585354,809.4872,803.8461,808.2784,817.1429,682.96704,-0.064208984375,0.0347900390625,1.00933837890625,1.36077880859375,-0.785064697265625,-5.973968505859375,1,1.0,1.0,1.0,1.0,10.00
2024-10-11 20:18:41.475,1.1459153,0.6499036,1.478211,0.8063015,0.27768177,0.16081558,0.7848922,0.27679405,0.76277846,-0.12653317,0.43293852,0.50485796,0.5729701,-0.072788894,-0.10290142,0.38357407,0.44820297,-0.18131544,-0.29754248,0.073585354,805.8608,794.9817,808.68134,819.5604,669.2674,-0.05340576171875,0.0538330078125,1.0015869140625,2.609405517578125,-0.590667724609375,-4.18701171875,1,1.0,1.0,1.0,1.0,10.00
2024-10-11 20:18:41.476,1.1459153,0.6499036,1.478211,0.8063015,0.27768177,0.16081558,0.7848922,0.27679405,0.76277846,-0.12653317,0.43293852,0.50485796,0.5729701,-0.072788894,-0.10290142,0.38357407,0.44820297,-0.18131544,-0.29754248,0.073585354,803.0403,792.1612,814.3223,816.7399,691.8315,-0.05340576171875,0.0538330078125,1.0015869140625,2.609405517578125,-0.590667724609375,-4.18701171875,1,1.0,1.0,1.0,1.0,10.00
2024-10-11 20:18:41.477,1.1459153,0.6499036,1.478211,0.8063015,0.27768177,0.16081558,0.7848922,0.27679405,0.76277846,-0.12653317,0.43293852,0.50485796,0.5729701,-0.072788894,-0.10290142,0.38357407,0.44820297,-0.18131544,-0.29754248,0.073585354,801.02563,797.8022,812.71063,809.89014,665.64105,-0.05340576171875,0.0538330078125,1.0015869140625,2.609405517578125,-0.590667724609375,-4.18701171875,1,1.0,1.0,1.0,1.0,10.00
2024-10-11 20:18:41.477,1.1459153,0.6499036,1.478211,0.8063015,0.27768177,0.16081558,0.7848922,0.27679405,0.76277846,-0.12653317,0.43293852,0.50485796,0.5729701,-0.072788894,-0.10290142,0.38357407,0.44820297,-0.18131544,-0.29754248,0.073585354,798.20514,799.41394,809.89014,806.26373,614.0659,-0.05340576171875,0.0538330078125,1.0015869140625,2.609405517578125,-0.590667724609375,-4.18701171875,1,1.0,1.0,1.0,1.0,10.00
2024-10-11 20:18:41.478,1.1459153,0.6499036,1.478211,0.8063015,0.27768177,0.16081558,0.7848922,0.27679405,0.76277846,-0.12653317,0.43293852,0.50485796,0.5729701,-0.072788894,-0.10290142,0.38357407,0.44820297,-0.18131544,-0.29754248,0.073585354,789.34064,799.41394,815.12823,807.0696,740.18317,-0.05340576171875,0.0538330078125,1.0015869140625,2.609405517578125,-0.590667724609375,-4.18701171875,1,1.0,1.0,1.0,1.0,10.00
2024-10-11 20:18:41.479,1.1459153,0.6499036,1.478211,0.8063015,0.27768177,0.16081558,0.7848922,0.27679405,0.76277846,-0.12653317,0.43293852,0.50485796,0.5729701,-0.072788894,-0.10290142,0.38357407,0.44820297,-0.18131544,-0.29754248,0.073585354,784.10254,795.78754,813.91943,799.81683,905.78754,-0.05340576171875,0.0538330078125,1.0015869140625,2.609405517578125,-0.590667724609375,-4.18701171875,1,1.0,1.0,1.0,1.0,10.00
2024-10-11 20:18:41.479,1.1459153,0.6499036,1.478211,0.8063015,0.27768177,0.16081558,0.7848922,0.27679405,0.76277846,-0.12653317,0.43293852,0.50485796,0.5729701,-0.072788894,-0.10290142,0.38357407,0.44820297,-0.18131544,-0.29754248,0.073585354,787.72894,791.75824,813.5165,795.78754,877.5824,-0.05340576171875,0.0538330078125,1.0015869140625,2.609405517578125,-0.590667724609375,-4.18701171875,1,1.0,1.0,1.0,1.0,10.00
2024-10-11 20:18:41.480,1.1459153,0.6499036,1.478211,0.8063015,0.27768177,0.16081558,0.7848922,0.27679405,0.76277846,-0.12653317,0.43293852,0.50485796,0.5729701,-0.072788894,-0.10290142,0.38357407,0.44820297,-0.18131544,-0.29754248,0.073585354,793.36993,790.54944,813.91943,796.1905,696.6667,-0.05340576171875,0.0538330078125,1.0015869140625,2.609405517578125,-0.590667724609375,-4.18701171875,1,1.0,1.0,1.0,1.0,10.00
2024-10-11 20:18:41.480,1.1459153,0.6499036,1.478211,0.8063015,0.27768177,0.16081558,0.7848922,0.27679405,0.76277846,-0.12653317,0.43293852,0.50485796,0.5729701,-0.072788894,-0.10290142,0.38357407,0.44820297,-0.18131544,-0.29754248,0.073585354,795.38464,790.9524,810.293,798.20514,772.01465,-0.05340576171875,0.0538330078125,1.0015869140625,2.609405517578125,-0.590667724609375,-4.18701171875,1,1.0,1.0,1.0,1.0,10.00
2024-10-11 20:18:41.481,1.1459153,0.6499036,1.478211,0.8063015,0.27768177,0.16081558,0.7848922,0.27679405,0.76277846,-0.12653317,0.43293852,0.50485796,0.5729701,-0.072788894,-0.10290142,0.38357407,0.44820297,-0.18131544,-0.29754248,0.073585354,794.9817,788.1319,806.26373,801.8315,1154.7986,-0.05340576171875,0.0538330078125,1.0015869140625,2.609405517578125,-0.590667724609375,-4.18701171875,1,1.0,1.0,1.0,1.0,10.00
2024-10-11 20:18:41.481,1.1459153,0.6499036,1.478211,0.8063015,0.27768177,0.16081558,0.7848922,0.27679405,0.76277846,-0.12653317,0.43293852,0.50485796,0.5729701,-0.072788894,-0.10290142,0.38357407,0.44820297,-0.18131544,-0.29754248,0.073585354,792.1612,794.17584,804.65204,796.5934,1014.57874,-0.05340576171875,0.0538330078125,1.0015869140625,2.609405517578125,-0.590667724609375,-4.18701171875,1,1.0,1.0,1.0,1.0,10.00
2024-10-11 20:18:41.482,1.1459153,0.6499036,1.478211,0.8063015,0.27768177,0.16081558,0.7848922,0.27679405,0.76277846,-0.12653317,0.43293852,0.50485796,0.5729701,-0.072788894,-0.10290142,0.38357407,0.44820297,-0.18131544,-0.29754248,0.073585354,791.3553,797.8022,801.8315,788.5348,732.52747,-0.05340576171875,0.0538330078125,1.0015869140625,2.609405517578125,-0.590667724609375,-4.18701171875,1,1.0,1.0,1.0,1.0,10.00
2024-10-11 20:18:41.576,1.1459153,0.6499036,1.478211,0.8063015,0.27768177,0.16081558,0.7848922,0.27679405,0.76277846,-0.12653317,0.43293852,0.50485796,0.5729701,-0.072788894,-0.10290142,0.38357407,0.44820297,-0.18131544,-0.29754248,0.073585354,799.41394,794.17584,790.54944,786.52014,755.09155,-0.05853271484375,0.057373046875,1.03662109375,-0.657958984375,-1.55517578125,-0.605621337890625,1,1.0,1.0,1.0,1.0,10.00
2024-10-11 20:18:41.578,1.1459153,0.6499036,1.478211,0.8063015,0.27768177,0.16081558,0.7848922,0.27679405,0.76277846,-0.12653317,0.43293852,0.50485796,0.5729701,-0.072788894,-0.10290142,0.38357407,0.44820297,-0.18131544,-0.29754248,0.073585354,799.011,793.36993,788.5348,784.10254,731.31866,-0.05853271484375,0.057373046875,1.03662109375,-0.657958984375,-1.55517578125,-0.605621337890625,1,1.0,1.0,1.0,1.0,10.00
2024-10-11 20:18:41.578,1.1459153,0.6499036,1.478211,0.8063015,0.27768177,0.16081558,0.7848922,0.27679405,0.76277846,-0.12653317,0.43293852,0.50485796,0.5729701,-0.072788894,-0.10290142,0.38357407,0.44820297,-0.18131544,-0.29754248,0.073585354,798.60803,789.7436,796.5934,792.1612,728.9011,-0.05853271484375,0.057373046875,1.03662109375,-0.657958984375,-1.55517578125,-0.605621337890625,1,1.0,1.0,1.0,1.0,10.00
2024-10-11 20:18:41.579,1.1459153,0.6499036,1.488448,0.839259,0.27768177,0.16081558,0.78297704,0.29305342,0.76277846,-0.12653317,0.45799285,0.48707154,0.5729701,-0.072788894,-0.09787007,0.35229158,0.44820297,-0.18131544,-0.27368876,0.10404367,801.8315,788.5348,804.65204,798.20514,810.293,-0.05853271484375,0.057373046875,1.03662109375,-0.657958984375,-1.55517578125,-0.605621337890625,1,1.0,1.0,1.0,1.0,10.00
2024-10-11 20:18:41.583,1.1459153,0.6499036,1.488448,0.839259,0.27768177,0.16081558,0.78297704,0.29305342,0.76277846,-0.12653317,0.45799285,0.48707154,0.5729701,-0.072788894,-0.09787007,0.35229158,0.44820297,-0.18131544,-0.27368876,0.10404367,799.41394,796.99634,807.8755,793.36993,770.80585,-0.05853271484375,0.057373046875,1.03662109375,-0.657958984375,-1.55517578125,-0.605621337890625,1,1.0,1.0,1.0,1.0,10.00
2024-10-11 20:18:41.584,1.1459153,0.6499036,1.488448,0.839259,0.27768177,0.16081558,0.78297704,0.29305342,0.76277846,-0.12653317,0.45799285,0.48707154,0.5729701,-0.072788894,-0.09787007,0.35229158,0.44820297,-0.18131544,-0.27368876,0.10404367,793.36993,796.5934,799.81683,785.31134,697.47253,-0.05853271484375,0.057373046875,1.03662109375,-0.657958984375,-1.55517578125,-0.605621337890625,1,1.0,1.0,1.0,1.0,10.00
2024-10-11 20:18:41.585,1.1459153,0.6499036,1.488448,0.839259,0.27768177,0.16081558,0.78297704,0.29305342,0.76277846,-0.12653317,0.45799285,0.48707154,0.5729701,-0.072788894,-0.09787007,0.35229158,0.44820297,-0.18131544,-0.27368876,0.10404367,792.96704,793.7729,796.1905,782.8938,736.9597,-0.05853271484375,0.057373046875,1.03662109375,-0.657958984375,-1.55517578125,-0.605621337890625,1,1.0,1.0,1.0,1.0,10.00
2024-10-11 20:18:41.585,1.1459153,0.6499036,1.488448,0.839259,0.27768177,0.16081558,0.78297704,0.29305342,0.76277846,-0.12653317,0.45799285,0.48707154,0.5729701,-0.072788894,-0.09787007,0.35229158,0.44820297,-0.18131544,-0.27368876,0.10404367,794.57874,796.1905,798.60803,784.5055,882.8205,-0.05853271484375,0.057373046875,1.03662109375,-0.657958984375,-1.55517578125,-0.605621337890625,1,1.0,1.0,1.0,1.0,10.00
