TimeStamp,Delta_TP9,Delta_AF7,Delta_AF8,Delta_TP10,Theta_TP9,Theta_AF7,Theta_AF8,Theta_TP10,Alpha_TP9,Alpha_AF7,Alpha_AF8,Alpha_TP10,Beta_TP9,Beta_AF7,Beta_AF8,Beta_TP10,Gamma_TP9,Gamma_AF7,Gamma_AF8,Gamma_TP10,RAW_TP9,RAW_AF7,RAW_AF8,RAW_TP10,AUX_RIGHT,Accelerometer_X,Accelerometer_Y,Accelerometer_Z,Gyro_X,Gyro_Y,Gyro_Z,HeadBandOn,HSI_TP9,HSI_AF7,HSI_AF8,HSI_TP10,Battery,Elements
2024-10-11 20:19:19.676,0.48026305,0.82213944,0.7735247,0.101430014,0.41487324,0.45975983,-0.03945617,-0.021126315,0.36198702,0.15222076,0.22495791,0.45381102,0.5526023,0.17177498,0.08967495,0.34673467,-0.108783595,0.026685061,-0.16533925,-0.018124815,743.8095,830.4396,819.9634,732.52747,815.5311,-0.2506103515625,0.0562744140625,0.98577880859375,-1.876678466796875,-27.4249267578125,-9.1815185546875,1,1.0,1.0,1.0,1.0,10.00
2024-10-11 20:19:19.677,0.48026305,0.82213944,0.7735247,0.101430014,0.41487324,0.45975983,-0.03945617,-0.021126315,0.36198702,0.15222076,0.22495791,0.45381102,0.5526023,0.17177498,0.08967495,0.34673467,-0.108783595,0.026685061,-0.16533925,-0.018124815,724.87177,822.381,814.3223,713.9927,813.91943,-0.2506103515625,0.0562744140625,0.98577880859375,-1.876678466796875,-27.4249267578125,-9.1815185546875,1,1.0,1.0,1.0,1.0,10.00
2024-10-11 20:19:19.678,0.48026305,0.82213944,0.7735247,0.101430014,0.41487324,0.45975983,-0.03945617,-0.021126315,0.36198702,0.15222076,0.22495791,0.45381102,0.5526023,0.17177498,0.08967495,0.34673467,-0.108783595,0.026685061,-0.16533925,-0.018124815,733.73627,829.2308,809.89014,727.28937,649.12085,-0.2506103515625,0.0562744140625,0.98577880859375,-1.876678466796875,-27.4249267578125,-9.1815185546875,1,1.0,1.0,1.0,1.0,10.00
2024-10-11 20:19:19.679,0.48026305,0.82213944,0.7735247,0.101430014,0.41487324,0.45975983,-0.03945617,-0.021126315,0.36198702,0.15222076,0.22495791,0.45381102,0.5526023,0.17177498,0.08967495,0.34673467,-0.108783595,0.026685061,-0.16533925,-0.018124815,749.85345,823.9927,816.337,745.42126,555.64105,-0.2506103515625,0.0562744140625,0.98577880859375,-1.876678466796875,-27.4249267578125,-9.1815185546875,1,1.0,1.0,1.0,1.0,10.00
2024-10-11 20:19:19.680,0.48026305,0.82213944,0.7735247,0.101430014,0.41487324,0.45975983,-0.03945617,-0.021126315,0.36198702,0.15222076,0.22495791,0.45381102,0.5526023,0.17177498,0.08967495,0.34673467,-0.108783595,0.026685061,-0.16533925,-0.018124815,750.2564,801.02563,819.9634,760.7326,924.7253,-0.2506103515625,0.0562744140625,0.98577880859375,-1.876678466796875,-27.4249267578125,-9.1815185546875,1,1.0,1.0,1.0,1.0,10.00
2024-10-11 20:19:19.681,0.48026305,0.82213944,0.7735247,0.101430014,0.41487324,0.45975983,-0.03945617,-0.021126315,0.36198702,0.15222076,0.22495791,0.45381102,0.5526023,0.17177498,0.08967495,0.34673467,-0.108783595,0.026685061,-0.16533925,-0.018124815,752.674,802.6374,814.3223,763.5531,1231.3553,-0.2506103515625,0.0562744140625,0.98577880859375,-1.876678466796875,-27.4249267578125,-9.1815185546875,1,1.0,1.0,1.0,1.0,10.00
2024-10-11 20:19:19.681,0.48026305,0.82213944,0.7735247,0.101430014,0.41487324,0.45975983,-0.03945617,-0.021126315,0.36198702,0.15222076,0.22495791,0.45381102,0.5526023,0.17177498,0.08967495,0.34673467,-0.108783595,0.026685061,-0.16533925,-0.018124815,761.13556,814.7253,810.293,761.13556,896.9231,-0.2506103515625,0.0562744140625,0.98577880859375,-1.876678466796875,-27.4249267578125,-9.1815185546875,1,1.0,1.0,1.0,1.0,10.00
2024-10-11 20:19:19.682,0.48026305,0.82213944,0.7735247,0.101430014,0.41487324,0.45975983,-0.03945617,-0.021126315,0.36198702,0.15222076,0.22495791,0.45381102,0.5526023,0.17177498,0.08967495,0.34673467,-0.108783595,0.026685061,-0.16533925,-0.018124815,776.04395,819.15753,808.2784,766.3736,757.9121,-0.2506103515625,0.0562744140625,0.98577880859375,-1.876678466796875,-27.4249267578125,-9.1815185546875,1,1.0,1.0,1.0,1.0,10.00
2024-10-11 20:19:19.683,0.48026305,0.82213944,0.7735247,0.101430014,0.41487324,0.45975983,-0.03945617,-0.021126315,0.36198702,0.15222076,0.22495791,0.45381102,0.5526023,0.17177498,0.08967495,0.34673467,-0.108783595,0.026685061,-0.16533925,-0.018124815,774.43225,817.9487,803.8461,780.07324,1028.2784,-0.2506103515625,0.0562744140625,0.98577880859375,-1.876678466796875,-27.4249267578125,-9.1815185546875,1,1.0,1.0,1.0,1.0,10.00
2024-10-11 20:19:19.684,0.48026305,0.82213944,0.7735247,0.101430014,0.41487324,0.45975983,-0.03945617,-0.021126315,0.36198702,0.15222076,0.22495791,0.45381102,0.5526023,0.17177498,0.08967495,0.34673467,-0.108783595,0.026685061,-0.16533925,-0.018124815,780.4762,814.7253,799.41394,794.9817,1039.9634,-0.2506103515625,0.0562744140625,0.98577880859375,-1.876678466796875,-27.4249267578125,-9.1815185546875,1,1.0,1.0,1.0,1.0,10.00
2024-10-11 20:19:19.685,0.48026305,0.82213944,0.7735247,0.101430014,0.41487324,0.45975983,-0.03945617,-0.021126315,0.36198702,0.15222076,0.22495791,0.45381102,0.5526023,0.17177498,0.08967495,0.34673467,-0.108783595,0.026685061,-0.16533925,-0.018124815,796.5934,811.0989,807.47253,799.81683,683.7729,-0.2506103515625,0.0562744140625,0.98577880859375,-1.876678466796875,-27.4249267578125,-9.1815185546875,1,1.0,1.0,1.0,1.0,10.00
2024-10-11 20:19:19.686,0.48026305,0.82213944,0.7735247,0.101430014,0.41487324,0.45975983,-0.03945617,-0.021126315,0.36198702,0.15222076,0.22495791,0.45381102,0.5526023,0.17177498,0.08967495,0.34673467,-0.108783595,0.026685061,-0.16533925,-0.018124815,811.0989,807.0696,806.26373,811.0989,669.67035,-0.2506103515625,0.0562744140625,0.98577880859375,-1.876678466796875,-27.4249267578125,-9.1815185546875,1,1.0,1.0,1.0,1.0,10.00
2024-10-11 20:19:19.756,0.48026305,0.82213944,0.7735247,0.101430014,0.41487324,0.45975983,-0.03945617,-0.021126315,0.36198702,0.15222076,0.22495791,0.45381102,0.5526023,0.17177498,0.08967495,0.34673467,-0.108783595,0.026685061,-0.16533925,-0.018124815,811.9048,805.05493,792.5641,813.5165,831.2454,-0.215576171875,0.0494384765625,0.98468017578125,-2.175750732421875,-38.44573974609375,-17.51068115234375,1,1.0,1.0,1.0,1.0,10.00
2024-10-11 20:19:19.757,0.48026305,0.82213944,0.7735247,0.101430014,0.41487324,0.45975983,-0.03945617,-0.021126315,0.36198702,0.15222076,0.22495791,0.45381102,0.5526023,0.17177498,0.08967495,0.34673467,-0.108783595,0.026685061,-0.16533925,-0.018124815,805.4579,803.0403,790.9524,811.50183,807.47253,-0.215576171875,0.0494384765625,0.98468017578125,-2.175750732421875,-38.44573974609375,-17.51068115234375,1,1.0,1.0,1.0,1.0,10.00
2024-10-11 20:19:19.758,0.48026305,0.82213944,0.7735247,0.101430014,0.41487324,0.45975983,-0.03945617,-0.021126315,0.36198702,0.15222076,0.22495791,0.45381102,0.5526023,0.17177498,0.08967495,0.34673467,-0.108783595,0.026685061,-0.16533925,-0.018124815,801.4286,789.7436,796.5934,826.8132,651.13556,-0.215576171875,0.0494384765625,0.98468017578125,-2.175750732421875,-38.44573974609375,-17.51068115234375,1,1.0,1.0,1.0,1.0,10.00
2024-10-11 20:19:19.760,0.48026305,0.82213944,0.7735247,0.101430014,0.41487324,0.45975983,-0.03945617,-0.021126315,0.36198702,0.15222076,0.22495791,0.45381102,0.5526023,0.17177498,0.08967495,0.34673467,-0.108783595,0.026685061,-0.16533925,-0.018124815,820.7692,785.7143,797.8022,843.73627,657.98535,-0.215576171875,0.0494384765625,0.98468017578125,-2.175750732421875,-38.44573974609375,-17.51068115234375,1,1.0,1.0,1.0,1.0,10.00
2024-10-11 20:19:19.762,0.48026305,0.82213944,0.7735247,0.101430014,0.41487324,0.45975983,-0.03945617,-0.021126315,0.36198702,0.15222076,0.22495791,0.45381102,0.5526023,0.17177498,0.08967495,0.34673467,-0.108783595,0.026685061,-0.16533925,-0.018124815,827.619,794.9817,797.8022,831.2454,669.67035,-0.215576171875,0.0494384765625,0.98468017578125,-2.175750732421875,-38.44573974609375,-17.51068115234375,1,1.0,1.0,1.0,1.0,10.00
2024-10-11 20:19:19.763,0.48026305,0.82213944,0.7735247,0.101430014,0.41487324,0.45975983,-0.03945617,-0.021126315,0.36198702,0.15222076,0.22495791,0.45381102,0.5526023,0.17177498,0.08967495,0.34673467,-0.108783595,0.026685061,-0.16533925,-0.018124815,814.7253,792.5641,798.60803,820.3663,819.15753,-0.215576171875,0.0494384765625,0.98468017578125,-2.175750732421875,-38.44573974609375,-17.51068115234375,1,1.0,1.0,1.0,1.0,10.00
2024-10-11 20:19:19.764,0.48026305,0.82213944,0.7735247,0.101430014,0.41487324,0.45975983,-0.03945617,-0.021126315,0.36198702,0.15222076,0.22495791,0.45381102,0.5526023,0.17177498,0.08967495,0.34673467,-0.108783595,0.026685061,-0.16533925,-0.018124815,832.4542,786.9231,794.57874,840.9158,897.326,-0.215576171875,0.0494384765625,0.98468017578125,-2.175750732421875,-38.44573974609375,-17.51068115234375,1,1.0,1.0,1.0,1.0,10.00
2024-10-11 20:19:19.765,0.48026305,0.82213944,0.7735247,0.101430014,0.41487324,0.45975983,-0.03945617,-0.021126315,0.36198702,0.15222076,0.22495791,0.45381102,0.5526023,0.17177498,0.08967495,0.34673467,-0.108783595,0.026685061,-0.16533925,-0.018124815,849.7802,789.7436,795.78754,856.63007,892.49084,-0.215576171875,0.0494384765625,0.98468017578125,-2.175750732421875,-38.44573974609375,-17.51068115234375,1,1.0,1.0,1.0,1.0,10.00
2024-10-11 20:19:19.766,0.48026305,0.82213944,0.7735247,0.101430014,0.41487324,0.45975983,-0.03945617,-0.021126315,0.36198702,0.15222076,0.22495791,0.45381102,0.5526023,0.17177498,0.08967495,0.34673467,-0.108783595,0.026685061,-0.16533925,-0.018124815,844.1392,789.34064,795.38464,846.9597,1006.9231,-0.215576171875,0.0494384765625,0.98468017578125,-2.175750732421875,-38.44573974609375,-17.51068115234375,1,1.0,1.0,1.0,1.0,10.00
2024-10-11 20:19:19.767,0.48026305,0.82213944,0.7735247,0.101430014,0.41487324,0.45975983,-0.03945617,-0.021126315,0.36198702,0.15222076,0.22495791,0.45381102,0.5526023,0.17177498,0.08967495,0.34673467,-0.108783595,0.026685061,-0.16533925,-0.018124815,828.022,783.69965,796.5934,826.4103,909.81683,-0.215576171875,0.0494384765625,0.98468017578125,-2.175750732421875,-38.44573974609375,-17.51068115234375,1,1.0,1.0,1.0,1.0,10.00
2024-10-11 20:19:19.769,0.48026305,0.82213944,0.7735247,0.101430014,0.41487324,0.45975983,-0.03945617,-0.021126315,0.36198702,0.15222076,0.22495791,0.45381102,0.5526023,0.17177498,0.08967495,0.34673467,-0.108783595,0.026685061,-0.16533925,-0.018124815,835.6777,780.87915,796.1905,829.2308,749.45056,-0.215576171875,0.0494384765625,0.98468017578125,-2.175750732421875,-38.44573974609375,-17.51068115234375,1,1.0,1.0,1.0,1.0,10.00
2024-10-11 20:19:19.770,0.48026305,0.84636956,0.8301304,0.101430014,0.41487324,0.47553647,0.07156333,-0.021126315,0.36198702,0.15693307,0.29503423,0.45381102,0.5526023,0.19491634,0.10257213,0.34673467,-0.108783595,0.027869591,-0.17871714,-0.018124815,843.3333,787.326,793.36993,843.3333,736.1539,-0.215576171875,0.0494384765625,0.98468017578125,-2.175750732421875,-38.44573974609375,-17.51068115234375,1,1.0,1.0,1.0,1.0,10.00
2024-10-11 20:19:19.803,0.48026305,0.84636956,0.8301304,0.101430014,0.41487324,0.47553647,0.07156333,-0.021126315,0.36198702,0.15693307,0.29503423,0.45381102,0.5526023,0.19491634,0.10257213,0.34673467,-0.108783595,0.027869591,-0.17871714,-0.018124815,840.10986,787.326,793.36993,843.73627,673.69965,-0.140869140625,0.046630859375,0.9920654296875,-2.811279296875,-46.468353271484375,-26.60247802734375,1,1.0,1.0,1.0,1.0,10.00
2024-10-11 20:19:19.804,0.48026305,0.84636956,0.8301304,0.101430014,0.41487324,0.47553647,0.07156333,-0.021126315,0.36198702,0.15693307,0.29503423,0.45381102,0.5526023,0.19491634,0.10257213,0.34673467,-0.108783595,0.027869591,-0.17871714,-0.018124815,840.5128,784.90845,798.60803,841.7216,562.0879,-0.140869140625,0.046630859375,0.9920654296875,-2.811279296875,-46.468353271484375,-26.60247802734375,1,1.0,1.0,1.0,1.0,10.00
2024-10-11 20:19:19.805,0.48026305,0.84636956,0.8301304,0.101430014,0.41487324,0.47553647,0.07156333,-0.021126315,0.36198702,0.15693307,0.29503423,0.45381102,0.5526023,0.19491634,0.10257213,0.34673467,-0.108783595,0.027869591,-0.17871714,-0.018124815,846.55676,785.7143,805.8608,852.1978,673.69965,-0.140869140625,0.046630859375,0.9920654296875,-2.811279296875,-46.468353271484375,-26.60247802734375,1,1.0,1.0,1.0,1.0,10.00
2024-10-11 20:19:19.806,0.48026305,0.84636956,0.8301304,0.101430014,0.41487324,0.47553647,0.07156333,-0.021126315,0.36198702,0.15693307,0.29503423,0.45381102,0.5526023,0.19491634,0.10257213,0.34673467,-0.108783595,0.027869591,-0.17871714,-0.018124815,840.9158,781.28204,808.68134,847.3626,749.0476,-0.140869140625,0.046630859375,0.9920654296875,-2.811279296875,-46.468353271484375,-26.60247802734375,1,1.0,1.0,1.0,1.0,10.00
2024-10-11 20:19:19.807,0.48026305,0.84636956,0.8301304,0.101430014,0.41487324,0.47553647,0.07156333,-0.021126315,0.36198702,0.15693307,0.29503423,0.45381102,0.5526023,0.19491634,0.10257213,0.34673467,-0.108783595,0.027869591,-0.17871714,-0.018124815,829.6337,781.28204,803.44324,830.4396,774.0293,-0.140869140625,0.046630859375,0.9920654296875,-2.811279296875,-46.468353271484375,-26.60247802734375,1,1.0,1.0,1.0,1.0,10.00
2024-10-11 20:19:19.808,0.48026305,0.84636956,0.8301304,0.101430014,0.41487324,0.47553647,0.07156333,-0.021126315,0.36198702,0.15693307,0.29503423,0.45381102,0.5526023,0.19491634,0.10257213,0.34673467,-0.108783595,0.027869591,-0.17871714,-0.018124815,830.0366,779.2674,793.7729,830.4396,884.0293,-0.140869140625,0.046630859375,0.9920654296875,-2.811279296875,-46.468353271484375,-26.60247802734375,1,1.0,1.0,1.0,1.0,10.00
2024-10-11 20:19:19.809,0.48026305,0.84636956,0.8301304,0.101430014,0.41487324,0.47553647,0.07156333,-0.021126315,0.36198702,0.15693307,0.29503423,0.45381102,0.5526023,0.19491634,0.10257213,0.34673467,-0.108783595,0.027869591,-0.17871714,-0.018124815,830.4396,775.64105,792.1612,842.1245,1027.0696,-0.140869140625,0.046630859375,0.9920654296875,-2.811279296875,-46.468353271484375,-26.60247802734375,1,1.0,1.0,1.0,1.0,10.00
2024-10-11 20:19:19.810,0.48026305,0.84636956,0.8301304,0.101430014,0.41487324,0.47553647,0.07156333,-0.021126315,0.36198702,0.15693307,0.29503423,0.45381102,0.5526023,0.19491634,0.10257213,0.34673467,-0.108783595,0.027869591,-0.17871714,-0.018124815,836.08057,778.46155,797.3993,855.42126,1120.5494,-0.140869140625,0.046630859375,0.9920654296875,-2.811279296875,-46.468353271484375,-26.60247802734375,1,1.0,1.0,1.0,1.0,10.00
2024-10-11 20:19:19.810,0.48026305,0.84636956,0.8301304,0.101430014,0.41487324,0.47553647,0.07156333,-0.021126315,0.36198702,0.15693307,0.29503423,0.45381102,0.5526023,0.19491634,0.10257213,0.34673467,-0.108783595,0.027869591,-0.17871714,-0.018124815,828.4249,786.1172,803.44324,846.55676,977.1062,-0.140869140625,0.046630859375,0.9920654296875,-2.811279296875,-46.468353271484375,-26.60247802734375,1,1.0,1.0,1.0,1.0,10.00
2024-10-11 20:19:19.811,0.48026305,0.84636956,0.8301304,0.101430014,0.41487324,0.47553647,0.07156333,-0.021126315,0.36198702,0.15693307,0.29503423,0.45381102,0.5526023,0.19491634,0.10257213,0.34673467,-0.108783595,0.027869591,-0.17871714,-0.018124815,815.5311,789.34064,801.8315,826.8132,748.6447,-0.140869140625,0.046630859375,0.9920654296875,-2.811279296875,-46.468353271484375,-26.60247802734375,1,1.0,1.0,1.0,1.0,10.00
2024-10-11 20:19:19.812,0.48026305,0.84636956,0.8301304,0.101430014,0.41487324,0.47553647,0.07156333,-0.021126315,0.36198702,0.15693307,0.29503423,0.45381102,0.5526023,0.19491634,0.10257213,0.34673467,-0.108783595,0.027869591,-0.17871714,-0.018124815,824.7985,791.75824,796.99634,830.0366,781.685,-0.140869140625,0.046630859375,0.9920654296875,-2.811279296875,-46.468353271484375,-26.60247802734375,1,1.0,1.0,1.0,1.0,10.00
2024-10-11 20:19:19.813,0.48026305,0.84636956,0.8301304,0.101430014,0.41487324,0.47553647,0.07156333,-0.021126315,0.36198702,0.15693307,0.29503423,0.45381102,0.5526023,0.19491634,0.10257213,0.34673467,-0.108783595,0.027869591,-0.17871714,-0.018124815,837.6923,794.17584,794.9817,855.0183,1041.5751,-0.140869140625,0.046630859375,0.9920654296875,-2.811279296875,-46.468353271484375,-26.60247802734375,1,1.0,1.0,1.0,1.0,10.00
2024-10-11 20:19:19.815,0.48026305,0.84636956,0.8301304,0.101430014,0.41487324,0.47553647,0.07156333,-0.021126315,0.36198702,0.15693307,0.29503423,0.45381102,0.5526023,0.19491634,0.10257213,0.34673467,-0.108783595,0.027869591,-0.17871714,-0.018124815,828.4249,789.7436,797.8022,849.7802,975.4945,-0.0460205078125,0.0452880859375,1.00958251953125,-4.68048095703125,-45.458984375,-31.170806884765625,1,1.0,1.0,1.0,1.0,10.00
2024-10-11 20:19:19.816,0.48026305,0.84636956,0.8301304,0.101430014,0.41487324,0.47553647,0.07156333,-0.021126315,0.36198702,0.15693307,0.29503423,0.45381102,0.5526023,0.19491634,0.10257213,0.34673467,-0.108783595,0.027869591,-0.17871714,-0.018124815,809.89014,788.5348,803.0403,815.12823,653.1502,-0.0460205078125,0.0452880859375,1.00958251953125,-4.68048095703125,-45.458984375,-31.170806884765625,1,1.0,1.0,1.0,1.0,10.00
2024-10-11 20:19:19.817,0.48026305,0.84636956,0.8301304,0.101430014,0.41487324,0.47553647,0.07156333,-0.021126315,0.36198702,0.15693307,0.29503423,0.45381102,0.5526023,0.19491634,0.10257213,0.34673467,-0.108783595,0.027869591,-0.17871714,-0.018124815,811.50183,786.9231,799.41394,826.4103,717.2161,-0.0460205078125,0.0452880859375,1.00958251953125,-4.68048095703125,-45.458984375,-31.170806884765625,1,1.0,1.0,1.0,1.0,10.00
2024-10-11 20:19:19.818,0.48026305,0.84636956,0.8301304,0.101430014,0.41487324,0.47553647,0.07156333,-0.021126315,0.36198702,0.15693307,0.29503423,0.45381102,0.5526023,0.19491634,0.10257213,0.34673467,-0.108783595,0.027869591,-0.17871714,-0.018124815,817.5458,788.93774,794.57874,840.10986,838.0952,-0.0460205078125,0.0452880859375,1.00958251953125,-4.68048095703125,-45.458984375,-31.170806884765625,1,1.0,1.0,1.0,1.0,10.00
2024-10-11 20:19:19.819,0.48026305,0.84636956,0.8301304,0.101430014,0.41487324,0.47553647,0.07156333,-0.021126315,0.36198702,0.15693307,0.29503423,0.45381102,0.5526023,0.19491634,0.10257213,0.34673467,-0.108783595,0.027869591,-0.17871714,-0.018124815,807.47253,784.90845,797.8022,818.7546,662.8205,-0.0460205078125,0.0452880859375,1.00958251953125,-4.68048095703125,-45.458984375,-31.170806884765625,1,1.0,1.0,1.0,1.0,10.00
2024-10-11 20:19:19.820,0.48026305,0.84636956,0.8301304,0.101430014,0.41487324,0.47553647,0.07156333,-0.021126315,0.36198702,0.15693307,0.29503423,0.45381102,0.5526023,0.19491634,0.10257213,0.34673467,-0.108783595,0.027869591,-0.17871714,-0.018124815,805.05493,786.1172,791.3553,812.3077,560.87915,-0.0460205078125,0.0452880859375,1.00958251953125,-4.68048095703125,-45.458984375,-31.170806884765625,1,1.0,1.0,1.0,1.0,10.00
2024-10-11 20:19:19.821,0.48026305,0.84636956,0.8301304,0.101430014,0.41487324,0.47553647,0.07156333,-0.021126315,0.36198702,0.15693307,0.29503423,0.45381102,0.5526023,0.19491634,0.10257213,0.34673467,-0.108783595,0.027869591,-0.17871714,-0.018124815,807.47253,793.36993,789.34064,813.5165,888.86444,-0.0460205078125,0.0452880859375,1.00958251953125,-4.68048095703125,-45.458984375,-31.170806884765625,1,1.0,1.0,1.0,1.0,10.00
2024-10-11 20:19:19.823,0.48026305,0.84636956,0.8301304,0.101430014,0.41487324,0.47553647,0.07156333,-0.021126315,0.36198702,0.15693307,0.29503423,0.45381102,0.5526023,0.19491634,0.10257213,0.34673467,-0.108783595,0.027869591,-0.17871714,-0.018124815,812.3077,792.1612,795.38464,811.9048,969.0476,-0.0460205078125,0.0452880859375,1.00958251953125,-4.68048095703125,-45.458984375,-31.170806884765625,1,1.0,1.0,1.0,1.0,10.00
2024-10-11 20:19:19.824,0.48026305,0.84636956,0.8301304,0.101430014,0.41487324,0.47553647,0.07156333,-0.021126315,0.36198702,0.15693307,0.29503423,0.45381102,0.5526023,0.19491634,0.10257213,0.34673467,-0.108783595,0.027869591,-0.17871714,-0.018124815,805.4579,792.5641,801.02563,805.05493,665.64105,-0.0460205078125,0.0452880859375,1.00958251953125,-4.68048095703125,-45.458984375,-31.170806884765625,1,1.0,1.0,1.0,1.0,10.00
2024-10-11 20:19:19.825,0.48026305,0.84636956,0.8301304,0.101430014,0.41487324,0.47553647,0.07156333,-0.021126315,0.36198702,0.15693307,0.29503423,0.45381102,0.5526023,0.19491634,0.10257213,0.34673467,-0.108783595,0.027869591,-0.17871714,-0.018124815,802.6374,797.3993,797.8022,802.23444,682.5641,-0.0460205078125,0.0452880859375,1.00958251953125,-4.68048095703125,-45.458984375,-31.170806884765625,1,1.0,1.0,1.0,1.0,10.00
2024-10-11 20:19:19.826,0.48026305,0.84636956,0.8301304,0.101430014,0.41487324,0.47553647,0.07156333,-0.021126315,0.36198702,0.15693307,0.29503423,0.45381102,0.5526023,0.19491634,0.10257213,0.34673467,-0.108783595,0.027869591,-0.17871714,-0.018124815,805.4579,796.5934,797.8022,802.23444,903.7729,-0.0460205078125,0.0452880859375,1.00958251953125,-4.68048095703125,-45.458984375,-31.170806884765625,1,1.0,1.0,1.0,1.0,10.00
2024-10-11 20:19:19.827,0.48026305,0.84636956,0.8301304,0.101430014,0.41487324,0.47553647,0.07156333,-0.021126315,0.36198702,0.15693307,0.29503423,0.45381102,0.5526023,0.19491634,0.10257213,0.34673467,-0.108783595,0.027869591,-0.17871714,-0.018124815,794.17584,794.9817,794.9817,790.14655,996.04395,-0.0460205078125,0.0452880859375,1.00958251953125,-4.68048095703125,-45.458984375,-31.170806884765625,1,1.0,1.0,1.0,1.0,10.00
2024-10-11 20:19:19.865,0.48026305,0.84636956,0.8301304,0.101430014,0.41487324,0.47553647,0.07156333,-0.021126315,0.36198702,0.15693307,0.29503423,0.45381102,0.5526023,0.19491634,0.10257213,0.34673467,-0.108783595,0.027869591,-0.17871714,-0.018124815,790.9524,796.99634,788.5348,786.9231,764.7619,-0.0460205078125,0.0452880859375,1.00958251953125,-4.68048095703125,-45.458984375,-31.170806884765625,1,1.0,1.0,1.0,1.0,10.00
2024-10-11 20:19:19,,,,,,,,,,,,,,,,,,,,,,,,,,,,,,,,,,,,,,/muse/elements/blink
2024-10-11 20:19:19.866,0.48026305,0.8412673,0.87205714,0.101430014,0.41487324,0.4708438,0.15470302,-0.021126315,0.36198702,0.1576177,0.33715817,0.45381102,0.5526023,0.21793465,0.11867573,0.34673467,-0.108783595,0.024096973,-0.19525291,-0.018124815,801.4286,796.5934,782.0879,797.3993,562.0879,-0.0460205078125,0.0452880859375,1.00958251953125,-4.68048095703125,-45.458984375,-31.170806884765625,1,1.0,1.0,1.0,1.0,10.00
2024-10-11 20:19:19.870,0.48026305,0.8412673,0.87205714,0.101430014,0.41487324,0.4708438,0.15470302,-0.021126315,0.36198702,0.1576177,0.33715817,0.45381102,0.5526023,0.21793465,0.11867573,0.34673467,-0.108783595,0.024096973,-0.19525291,-0.018124815,804.65204,797.8022,778.46155,803.0403,866.7033,-0.0460205078125,0.0452880859375,1.00958251953125,-4.68048095703125,-45.458984375,-31.170806884765625,1,1.0,1.0,1.0,1.0,10.00
2024-10-11 20:19:19.871,0.48026305,0.8412673,0.87205714,0.101430014,0.41487324,0.4708438,0.15470302,-0.021126315,0.36198702,0.1576177,0.33715817,0.45381102,0.5526023,0.21793465,0.11867573,0.34673467,-0.108783595,0.024096973,-0.19525291,-0.018124815,796.1905,800.6227,790.9524,805.4579,1162.8572,-0.0460205078125,0.0452880859375,1.00958251953125,-4.68048095703125,-45.458984375,-31.170806884765625,1,1.0,1.0,1.0,1.0,10.00
2024-10-11 20:19:19.872,0.48026305,0.8412673,0.87205714,0.101430014,0.41487324,0.4708438,0.15470302,-0.021126315,0.36198702,0.1576177,0.33715817,0.45381102,0.5526023,0.21793465,0.11867573,0.34673467,-0.108783595,0.024096973,-0.19525291,-0.018124815,790.54944,803.44324,795.38464,798.60803,799.011,-0.0460205078125,0.0452880859375,1.00958251953125,-4.68048095703125,-45.458984375,-31.170806884765625,1,1.0,1.0,1.0,1.0,10.00
2024-10-11 20:19:19.873,0.48026305,0.8412673,0.87205714,0.101430014,0.41487324,0.4708438,0.15470302,-0.021126315,0.36198702,0.1576177,0.33715817,0.45381102,0.5526023,0.21793465,0.11867573,0.34673467,-0.108783595,0.024096973,-0.19525291,-0.018124815,785.7143,799.011,796.1905,792.5641,782.0879,-0.0460205078125,0.0452880859375,1.00958251953125,-4.68048095703125,-45.458984375,-31.170806884765625,1,1.0,1.0,1.0,1.0,10.00
2024-10-11 20:19:19.874,0.48026305,0.8412673,0.87205714,0.101430014,0.41487324,0.4708438,0.15470302,-0.021126315,0.36198702,0.1576177,0.33715817,0.45381102,0.5526023,0.21793465,0.11867573,0.34673467,-0.108783595,0.024096973,-0.19525291,-0.018124815,788.5348,798.60803,791.75824,790.14655,924.7253,-0.0460205078125,0.0452880859375,1.00958251953125,-4.68048095703125,-45.458984375,-31.170806884765625,1,1.0,1.0,1.0,1.0,10.00
2024-10-11 20:19:19.875,0.48026305,0.8412673,0.87205714,0.101430014,0.41487324,0.4708438,0.15470302,-0.021126315,0.36198702,0.1576177,0.33715817,0.45381102,0.5526023,0.21793465,0.11867573,0.34673467,-0.108783595,0.024096973,-0.19525291,-0.018124815,789.7436,800.6227,788.5348,787.72894,791.75824,-0.0460205078125,0.0452880859375,1.00958251953125,-4.68048095703125,-45.458984375,-31.170806884765625,1,1.0,1.0,1.0,1.0,10.00
2024-10-11 20:19:19.876,0.48026305,0.8412673,0.87205714,0.101430014,0.41487324,0.4708438,0.15470302,-0.021126315,0.36198702,0.1576177,0.33715817,0.45381102,0.5526023,0.21793465,0.11867573,0.34673467,-0.108783595,0.024096973,-0.19525291,-0.018124815,786.52014,798.20514,790.9524,783.69965,654.35895,-0.0460205078125,0.0452880859375,1.00958251953125,-4.68048095703125,-45.458984375,-31.170806884765625,1,1.0,1.0,1.0,1.0,10.00
2024-10-11 20:19:19.878,0.48026305,0.8412673,0.87205714,0.101430014,0.41487324,0.4708438,0.15470302,-0.021126315,0.36198702,0.1576177,0.33715817,0.45381102,0.5526023,0.21793465,0.11867573,0.34673467,-0.108783595,0.024096973,-0.19525291,-0.018124815,792.96704,802.23444,794.9817,783.69965,594.3223,-0.0460205078125,0.0452880859375,1.00958251953125,-4.68048095703125,-45.458984375,-31.170806884765625,1,1.0,1.0,1.0,1.0,10.00
2024-10-11 20:19:19.879,0.48026305,0.8412673,0.87205714,0.101430014,0.41487324,0.4708438,0.15470302,-0.021126315,0.36198702,0.1576177,0.33715817,0.45381102,0.5526023,0.21793465,0.11867573,0.34673467,-0.108783595,0.024096973,-0.19525291,-0.018124815,798.60803,802.23444,796.99634,790.9524,822.381,-0.0460205078125,0.0452880859375,1.00958251953125,-4.68048095703125,-45.458984375,-31.170806884765625,1,1.0,1.0,1.0,1.0,10.00
2024-10-11 20:19:19.879,0.48026305,0.8412673,0.87205714,0.101430014,0.41487324,0.4708438,0.15470302,-0.021126315,0.36198702,0.1576177,0.33715817,0.45381102,0.5526023,0.21793465,0.11867573,0.34673467,-0.108783595,0.024096973,-0.19525291,-0.018124815,791.75824,794.17584,801.4286,783.69965,842.52747,-0.0460205078125,0.0452880859375,1.00958251953125,-4.68048095703125,-45.458984375,-31.170806884765625,1,1.0,1.0,1.0,1.0,10.00
2024-10-11 20:19:19.880,0.48026305,0.8412673,0.87205714,0.101430014,0.41487324,0.4708438,0.15470302,-0.021126315,0.36198702,0.1576177,0.33715817,0.45381102,0.5526023,0.21793465,0.11867573,0.34673467,-0.108783595,0.024096973,-0.19525291,-0.018124815,791.75824,799.41394,803.44324,782.0879,622.9304,0.01416015625,0.03363037109375,1.0111083984375,-8.50860595703125,-34.939117431640625,-29.488525390625,1,1.0,1.0,1.0,1.0,10.00
2024-10-11 20:19:19.881,0.48026305,0.8412673,0.87205714,0.101430014,0.41487324,0.4708438,0.15470302,-0.021126315,0.36198702,0.1576177,0.33715817,0.45381102,0.5526023,0.21793465,0.11867573,0.34673467,-0.108783595,0.024096973,-0.19525291,-0.018124815,794.17584,805.4579,800.6227,790.14655,737.76556,0.01416015625,0.03363037109375,1.0111083984375,-8.50860595703125,-34.939117431640625,-29.488525390625,1,1.0,1.0,1.0,1.0,10.00
2024-10-11 20:19:19.882,0.48026305,0.8412673,0.87205714,0.101430014,0.41487324,0.4708438,0.15470302,-0.021126315,0.36198702,0.1576177,0.33715817,0.45381102,0.5526023,0.21793465,0.11867573,0.34673467,-0.108783595,0.024096973,-0.19525291,-0.018124815,793.36993,803.44324,807.0696,790.54944,820.3663,0.01416015625,0.03363037109375,1.0111083984375,-8.50860595703125,-34.939117431640625,-29.488525390625,1,1.0,1.0,1.0,1.0,10.00
2024-10-11 20:19:19.882,0.48026305,0.8412673,0.87205714,0.101430014,0.41487324,0.4708438,0.15470302,-0.021126315,0.36198702,0.1576177,0.33715817,0.45381102,0.5526023,0.21793465,0.11867573,0.34673467,-0.108783595,0.024096973,-0.19525291,-0.018124815,793.7729,804.2491,813.5165,794.57874,760.32965,0.01416015625,0.03363037109375,1.0111083984375,-8.50860595703125,-34.939117431640625,-29.488525390625,1,1.0,1.0,1.0,1.0,10.00
2024-10-11 20:19:19.882,0.48026305,0.8412673,0.87205714,0.101430014,0.41487324,0.4708438,0.15470302,-0.021126315,0.36198702,0.1576177,0.33715817,0.45381102,0.5526023,0.21793465,0.11867573,0.34673467,-0.108783595,0.024096973,-0.19525291,-0.018124815,794.9817,813.91943,808.2784,790.14655,750.2564,0.01416015625,0.03363037109375,1.0111083984375,-8.50860595703125,-34.939117431640625,-29.488525390625,1,1.0,1.0,1.0,1.0,10.00
2024-10-11 20:19:19.883,0.48026305,0.8412673,0.87205714,0.101430014,0.41487324,0.4708438,0.15470302,-0.021126315,0.36198702,0.1576177,0.33715817,0.45381102,0.5526023,0.21793465,0.11867573,0.34673467,-0.108783595,0.024096973,-0.19525291,-0.018124815,796.99634,808.2784,799.81683,792.1612,1012.96704,0.01416015625,0.03363037109375,1.0111083984375,-8.50860595703125,-34.939117431640625,-29.488525390625,1,1.0,1.0,1.0,1.0,10.00
2024-10-11 20:19:19.883,0.48026305,0.8412673,0.87205714,0.101430014,0.41487324,0.4708438,0.15470302,-0.021126315,0.36198702,0.1576177,0.33715817,0.45381102,0.5526023,0.21793465,0.11867573,0.34673467,-0.108783595,0.024096973,-0.19525291,-0.018124815,797.8022,793.36993,801.8315,793.36993,1132.6373,0.01416015625,0.03363037109375,1.0111083984375,-8.50860595703125,-34.939117431640625,-29.488525390625,1,1.0,1.0,1.0,1.0,10.00
2024-10-11 20:19:19.884,0.48026305,0.8412673,0.87205714,0.101430014,0.41487324,0.4708438,0.15470302,-0.021126315,0.36198702,0.1576177,0.33715817,0.45381102,0.5526023,0.21793465,0.11867573,0.34673467,-0.108783595,0.024096973,-0.19525291,-0.018124815,798.60803,803.8461,800.2198,787.72894,807.47253,0.01416015625,0.03363037109375,1.0111083984375,-8.50860595703125,-34.939117431640625,-29.488525390625,1,1.0,1.0,1.0,1.0,10.00
2024-10-11 20:19:19.884,0.48026305,0.8412673,0.87205714,0.101430014,0.41487324,0.4708438,0.15470302,-0.021126315,0.36198702,0.1576177,0.33715817,0.45381102,0.5526023,0.21793465,0.11867573,0.34673467,-0.108783595,0.024096973,-0.19525291,-0.018124815,788.93774,813.5165,801.02563,786.52014,656.77655,0.01416015625,0.03363037109375,1.0111083984375,-8.50860595703125,-34.939117431640625,-29.488525390625,1,1.0,1.0,1.0,1.0,10.00
2024-10-11 20:19:19.885,0.48026305,0.8412673,0.87205714,0.101430014,0.41487324,0.4708438,0.15470302,-0.021126315,0.36198702,0.1576177,0.33715817,0.45381102,0.5526023,0.21793465,0.11867573,0.34673467,-0.108783595,0.024096973,-0.19525291,-0.018124815,788.5348,807.8755,802.23444,790.54944,867.1062,0.01416015625,0.03363037109375,1.0111083984375,-8.50860595703125,-34.939117431640625,-29.488525390625,1,1.0,1.0,1.0,1.0,10.00
2024-10-11 20:19:19.885,0.48026305,0.8412673,0.87205714,0.101430014,0.41487324,0.4708438,0.15470302,-0.021126315,0.36198702,0.1576177,0.33715817,0.45381102,0.5526023,0.21793465,0.11867573,0.34673467,-0.108783595,0.024096973,-0.19525291,-0.018124815,793.36993,807.0696,801.4286,790.54944,1028.6813,0.01416015625,0.03363037109375,1.0111083984375,-8.50860595703125,-34.939117431640625,-29.488525390625,1,1.0,1.0,1.0,1.0,10.00
2024-10-11 20:19:19.886,0.48026305,0.8412673,0.87205714,0.101430014,0.41487324,0.4708438,0.15470302,-0.021126315,0.36198702,0.1576177,0.33715817,0.45381102,0.5526023,0.21793465,0.11867573,0.34673467,-0.108783595,0.024096973,-0.19525291,-0.018124815,796.5934,807.47253,807.0696,789.34064,721.2454,0.01416015625,0.03363037109375,1.0111083984375,-8.50860595703125,-34.939117431640625,-29.488525390625,1,1.0,1.0,1.0,1.0,10.00
2024-10-11 20:19:19.925,0.48026305,0.8412673,0.87205714,0.101430014,0.41487324,0.4708438,0.15470302,-0.021126315,0.36198702,0.1576177,0.33715817,0.45381102,0.5526023,0.21793465,0.11867573,0.34673467,-0.108783595,0.024096973,-0.19525291,-0.018124815,796.99634,808.2784,804.65204,797.8022,556.8498,0.05816650390625,0.01361083984375,1.0123291015625,-11.3348388671875,-22.53509521484375,-24.082794189453125,1,1.0,1.0,1.0,1.0,10.00
2024-10-11 20:19:19.926,0.48026305,0.8412673,0.87205714,0.101430014,0.41487324,0.4708438,0.15470302,-0.021126315,0.36198702,0.1576177,0.33715817,0.45381102,0.5526023,0.21793465,0.11867573,0.34673467,-0.108783595,0.024096973,-0.19525291,-0.018124815,793.36993,807.8755,803.44324,801.02563,804.65204,0.05816650390625,0.01361083984375,1.0123291015625,-11.3348388671875,-22.53509521484375,-24.082794189453125,1,1.0,1.0,1.0,1.0,10.00
2024-10-11 20:19:19.928,0.48026305,0.8412673,0.87205714,0.101430014,0.41487324,0.4708438,0.15470302,-0.021126315,0.36198702,0.1576177,0.33715817,0.45381102,0.5526023,0.21793465,0.11867573,0.34673467,-0.108783595,0.024096973,-0.19525291,-0.018124815,790.14655,803.8461,804.65204,795.38464,879.19415,0.05816650390625,0.01361083984375,1.0123291015625,-11.3348388671875,-22.53509521484375,-24.082794189453125,1,1.0,1.0,1.0,1.0,10.00
2024-10-11 20:19:19.929,0.48026305,0.8318942,0.90771645,0.101430014,0.41487324,0.48126268,0.21698646,-0.021126315,0.36198702,0.1576177,0.3826815,0.45381102,0.5526023,0.23747827,0.13095035,0.34673467,-0.108783595,0.016436633,-0.21094176,-0.018124815,785.31134,801.8315,804.2491,788.93774,655.16486,0.05816650390625,0.01361083984375,1.0123291015625,-11.3348388671875,-22.53509521484375,-24.082794189453125,1,1.0,1.0,1.0,1.0,10.00
2024-10-11 20:19:19.933,0.48026305,0.8318942,0.90771645,0.101430014,0.41487324,0.48126268,0.21698646,-0.021126315,0.36198702,0.1576177,0.3826815,0.45381102,0.5526023,0.23747827,0.13095035,0.34673467,-0.108783595,0.016436633,-0.21094176,-0.018124815,790.14655,806.26373,801.8315,792.5641,614.4689,0.05816650390625,0.01361083984375,1.0123291015625,-11.3348388671875,-22.53509521484375,-24.082794189453125,1,1.0,1.0,1.0,1.0,10.00
2024-10-11 20:19:19.934,0.48026305,0.8318942,0.90771645,0.101430014,0.41487324,0.48126268,0.21698646,-0.021126315,0.36198702,0.1576177,0.3826815,0.45381102,0.5526023,0.23747827,0.13095035,0.34673467,-0.108783595,0.016436633,-0.21094176,-0.018124815,801.02563,809.4872,801.4286,798.60803,915.4579,0.05816650390625,0.01361083984375,1.0123291015625,-11.3348388671875,-22.53509521484375,-24.082794189453125,1,1.0,1.0,1.0,1.0,10.00
2024-10-11 20:19:19.934,0.48026305,0.8318942,0.90771645,0.101430014,0.41487324,0.48126268,0.21698646,-0.021126315,0.36198702,0.1576177,0.3826815,0.45381102,0.5526023,0.23747827,0.13095035,0.34673467,-0.108783595,0.016436633,-0.21094176,-0.018124815,799.81683,800.2198,802.6374,800.6227,991.6117,0.05816650390625,0.01361083984375,1.0123291015625,-11.3348388671875,-22.53509521484375,-24.082794189453125,1,1.0,1.0,1.0,1.0,10.00
2024-10-11 20:19:19.935,0.48026305,0.8318942,0.90771645,0.101430014,0.41487324,0.48126268,0.21698646,-0.021126315,0.36198702,0.1576177,0.3826815,0.45381102,0.5526023,0.23747827,0.13095035,0.34673467,-0.108783595,0.016436633,-0.21094176,-0.018124815,790.54944,795.38464,800.2198,792.5641,707.5458,0.05816650390625,0.01361083984375,1.0123291015625,-11.3348388671875,-22.53509521484375,-24.082794189453125,1,1.0,1.0,1.0,1.0,10.00
2024-10-11 20:19:19.935,0.48026305,0.8318942,0.90771645,0.101430014,0.41487324,0.48126268,0.21698646,-0.021126315,0.36198702,0.1576177,0.3826815,0.45381102,0.5526023,0.23747827,0.13095035,0.34673467,-0.108783595,0.016436633,-0.21094176,-0.018124815,799.81683,803.44324,799.41394,785.7143,635.42126,0.05816650390625,0.01361083984375,1.0123291015625,-11.3348388671875,-22.53509521484375,-24.082794189453125,1,1.0,1.0,1.0,1.0,10.00
2024-10-11 20:19:19.936,0.48026305,0.8318942,0.90771645,0.101430014,0.41487324,0.48126268,0.21698646,-0.021126315,0.36198702,0.1576177,0.3826815,0.45381102,0.5526023,0.23747827,0.13095035,0.34673467,-0.108783595,0.016436633,-0.21094176,-0.018124815,803.0403,806.26373,796.99634,794.57874,992.4176,0.05816650390625,0.01361083984375,1.0123291015625,-11.3348388671875,-22.53509521484375,-24.082794189453125,1,1.0,1.0,1.0,1.0,10.00
2024-10-11 20:19:19.936,0.48026305,0.8318942,0.90771645,0.101430014,0.41487324,0.48126268,0.21698646,-0.021126315,0.36198702,0.1576177,0.3826815,0.45381102,0.5526023,0.23747827,0.13095035,0.34673467,-0.108783595,0.016436633,-0.21094176,-0.018124815,796.99634,802.6374,800.2198,800.6227,1113.6996,0.05816650390625,0.01361083984375,1.0123291015625,-11.3348388671875,-22.53509521484375,-24.082794189453125,1,1.0,1.0,1.0,1.0,10.00
2024-10-11 20:19:19.937,0.48026305,0.8318942,0.90771645,0.101430014,0.41487324,0.48126268,0.21698646,-0.021126315,0.36198702,0.1576177,0.3826815,0.45381102,0.5526023,0.23747827,0.13095035,0.34673467,-0.108783595,0.016436633,-0.21094176,-0.018124815,797.3993,801.8315,797.3993,794.57874,744.61536,0.05816650390625,0.01361083984375,1.0123291015625,-11.3348388671875,-22.53509521484375,-24.082794189453125,1,1.0,1.0,1.0,1.0,10.00
2024-10-11 20:19:19.972,0.48026305,0.8318942,0.90771645,0.101430014,0.41487324,0.48126268,0.21698646,-0.021126315,0.36198702,0.1576177,0.3826815,0.45381102,0.5526023,0.23747827,0.13095035,0.34673467,-0.108783595,0.016436633,-0.21094176,-0.018124815,792.96704,797.3993,798.20514,788.1319,591.9048,0.05499267578125,-0.01580810546875,1.0059814453125,-12.7703857421875,-11.79840087890625,-19.088287353515625,1,1.0,1.0,1.0,1.0,10.00
2024-10-11 20:19:19.973,0.48026305,0.8318942,0.90771645,0.101430014,0.41487324,0.48126268,0.21698646,-0.021126315,0.36198702,0.1576177,0.3826815,0.45381102,0.5526023,0.23747827,0.13095035,0.34673467,-0.108783595,0.016436633,-0.21094176,-0.018124815,788.1319,794.17584,801.4286,792.5641,713.9927,0.05499267578125,-0.01580810546875,1.0059814453125,-12.7703857421875,-11.79840087890625,-19.088287353515625,1,1.0,1.0,1.0,1.0,10.00
2024-10-11 20:19:19.973,0.48026305,0.8318942,0.90771645,0.101430014,0.41487324,0.48126268,0.21698646,-0.021126315,0.36198702,0.1576177,0.3826815,0.45381102,0.5526023,0.23747827,0.13095035,0.34673467,-0.108783595,0.016436633,-0.21094176,-0.018124815,779.2674,795.38464,797.3993,790.14655,788.93774,0.05499267578125,-0.01580810546875,1.0059814453125,-12.7703857421875,-11.79840087890625,-19.088287353515625,1,1.0,1.0,1.0,1.0,10.00
2024-10-11 20:19:19.974,0.48026305,0.8318942,0.90771645,0.101430014,0.41487324,0.48126268,0.21698646,-0.021126315,0.36198702,0.1576177,0.3826815,0.45381102,0.5526023,0.23747827,0.13095035,0.34673467,-0.108783595,0.016436633,-0.21094176,-0.018124815,779.67035,799.011,797.8022,786.9231,691.02563,0.05499267578125,-0.01580810546875,1.0059814453125,-12.7703857421875,-11.79840087890625,-19.088287353515625,1,1.0,1.0,1.0,1.0,10.00
2024-10-11 20:19:19.974,0.48026305,0.8318942,0.90771645,0.101430014,0.41487324,0.48126268,0.21698646,-0.021126315,0.36198702,0.1576177,0.3826815,0.45381102,0.5526023,0.23747827,0.13095035,0.34673467,-0.108783595,0.016436633,-0.21094176,-0.018124815,777.25275,790.14655,801.02563,786.52014,651.13556,0.05499267578125,-0.01580810546875,1.0059814453125,-12.7703857421875,-11.79840087890625,-19.088287353515625,1,1.0,1.0,1.0,1.0,10.00
2024-10-11 20:19:19.975,0.48026305,0.8318942,0.90771645,0.101430014,0.41487324,0.48126268,0.21698646,-0.021126315,0.36198702,0.1576177,0.3826815,0.45381102,0.5526023,0.23747827,0.13095035,0.34673467,-0.108783595,0.016436633,-0.21094176,-0.018124815,772.8205,780.87915,801.4286,786.1172,835.2747,0.05499267578125,-0.01580810546875,1.0059814453125,-12.7703857421875,-11.79840087890625,-19.088287353515625,1,1.0,1.0,1.0,1.0,10.00
2024-10-11 20:19:19.975,0.48026305,0.8318942,0.90771645,0.101430014,0.41487324,0.48126268,0.21698646,-0.021126315,0.36198702,0.1576177,0.3826815,0.45381102,0.5526023,0.23747827,0.13095035,0.34673467,-0.108783595,0.016436633,-0.21094176,-0.018124815,788.5348,788.93774,796.1905,790.9524,873.95605,0.05499267578125,-0.01580810546875,1.0059814453125,-12.7703857421875,-11.79840087890625,-19.088287353515625,1,1.0,1.0,1.0,1.0,10.00
2024-10-11 20:19:19.976,0.48026305,0.8318942,0.90771645,0.101430014,0.41487324,0.48126268,0.21698646,-0.021126315,0.36198702,0.1576177,0.3826815,0.45381102,0.5526023,0.23747827,0.13095035,0.34673467,-0.108783595,0.016436633,-0.21094176,-0.018124815,795.78754,795.38464,793.36993,794.57874,678.93774,0.05499267578125,-0.01580810546875,1.0059814453125,-12.7703857421875,-11.79840087890625,-19.088287353515625,1,1.0,1.0,1.0,1.0,10.00
2024-10-11 20:19:19.976,0.48026305,0.8318942,0.90771645,0.101430014,0.41487324,0.48126268,0.21698646,-0.021126315,0.36198702,0.1576177,0.3826815,0.45381102,0.5526023,0.23747827,0.13095035,0.34673467,-0.108783595,0.016436633,-0.21094176,-0.018124815,792.96704,799.81683,803.44324,797.3993,765.56775,0.05499267578125,-0.01580810546875,1.0059814453125,-12.7703857421875,-11.79840087890625,-19.088287353515625,1,1.0,1.0,1.0,1.0,10.00
2024-10-11 20:19:19.977,0.48026305,0.8318942,0.90771645,0.101430014,0.41487324,0.48126268,0.21698646,-0.021126315,0.36198702,0.1576177,0.3826815,0.45381102,0.5526023,0.23747827,0.13095035,0.34673467,-0.108783595,0.016436633,-0.21094176,-0.018124815,789.7436,801.8315,803.8461,805.4579,985.9707,0.05499267578125,-0.01580810546875,1.0059814453125,-12.7703857421875,-11.79840087890625,-19.088287353515625,1,1.0,1.0,1.0,1.0,10.00
2024-10-11 20:19:19.977,0.48026305,0.8318942,0.90771645,0.101430014,0.41487324,0.48126268,0.21698646,-0.021126315,0.36198702,0.1576177,0.3826815,0.45381102,0.5526023,0.23747827,0.13095035,0.34673467,-0.108783595,0.016436633,-0.21094176,-0.018124815,786.9231,806.26373,799.81683,802.6374,853.4066,0.05499267578125,-0.01580810546875,1.0059814453125,-12.7703857421875,-11.79840087890625,-19.088287353515625,1,1.0,1.0,1.0,1.0,10.00
2024-10-11 20:19:19.978,0.48026305,0.8318942,0.90771645,0.101430014,0.41487324,0.48126268,0.21698646,-0.021126315,0.36198702,0.1576177,0.3826815,0.45381102,0.5526023,0.23747827,0.13095035,0.34673467,-0.108783595,0.016436633,-0.21094176,-0.018124815,793.36993,804.65204,799.81683,792.1612,767.98535,0.05499267578125,-0.01580810546875,1.0059814453125,-12.7703857421875,-11.79840087890625,-19.088287353515625,1,1.0,1.0,1.0,1.0,10.00
2024-10-11 20:19:20.039,0.48026305,0.8318942,0.90771645,0.101430014,0.41487324,0.48126268,0.21698646,-0.021126315,0.36198702,0.1576177,0.3826815,0.45381102,0.5526023,0.23747827,0.13095035,0.34673467,-0.108783595,0.016436633,-0.21094176,-0.018124815,792.5641,801.02563,794.9817,790.9524,824.7985,0.05352783203125,-0.0419921875,1.00592041015625,-11.962890625,-5.66741943359375,-18.82659912109375,1,1.0,1.0,1.0,1.0,10.00
2024-10-11 20:19:20.040,0.48026305,0.8318942,0.90771645,0.101430014,0.41487324,0.48126268,0.21698646,-0.021126315,0.36198702,0.1576177,0.3826815,0.45381102,0.5526023,0.23747827,0.13095035,0.34673467,-0.108783595,0.016436633,-0.21094176,-0.018124815,788.5348,799.011,796.1905,794.17584,756.30035,0.05352783203125,-0.0419921875,1.00592041015625,-11.962890625,-5.66741943359375,-18.82659912109375,1,1.0,1.0,1.0,1.0,10.00
2024-10-11 20:19:20.041,0.48026305,0.8318942,0.90771645,0.101430014,0.41487324,0.48126268,0.21698646,-0.021126315,0.36198702,0.1576177,0.3826815,0.45381102,0.5526023,0.23747827,0.13095035,0.34673467,-0.108783595,0.016436633,-0.21094176,-0.018124815,787.72894,793.36993,803.8461,794.57874,624.5421,0.05352783203125,-0.0419921875,1.00592041015625,-11.962890625,-5.66741943359375,-18.82659912109375,1,1.0,1.0,1.0,1.0,10.00
2024-10-11 20:19:20.041,0.48026305,0.8318942,0.90771645,0.101430014,0.41487324,0.48126268,0.21698646,-0.021126315,0.36198702,0.1576177,0.3826815,0.45381102,0.5526023,0.23747827,0.13095035,0.34673467,-0.108783595,0.016436633,-0.21094176,-0.018124815,791.75824,796.5934,802.6374,792.5641,656.77655,0.05352783203125,-0.0419921875,1.00592041015625,-11.962890625,-5.66741943359375,-18.82659912109375,1,1.0,1.0,1.0,1.0,10.00
2024-10-11 20:19:20.042,0.48026305,0.8318942,0.90771645,0.101430014,0.41487324,0.48126268,0.21698646,-0.021126315,0.36198702,0.1576177,0.3826815,0.45381102,0.5526023,0.23747827,0.13095035,0.34673467,-0.108783595,0.016436633,-0.21094176,-0.018124815,792.96704,790.14655,804.2491,793.36993,622.9304,0.05352783203125,-0.0419921875,1.00592041015625,-11.962890625,-5.66741943359375,-18.82659912109375,1,1.0,1.0,1.0,1.0,10.00
2024-10-11 20:19:20.042,0.48026305,0.8632754,0.9436878,0.101430014,0.41487324,0.5402808,0.26852953,-0.021126315,0.36198702,0.20672053,0.4329871,0.45381102,0.5526023,0.2625496,0.13516465,0.34673467,-0.108783595,-0.0064883446,-0.22023605,-0.018124815,792.5641,785.31134,801.4286,785.7143,710.3663,0.05352783203125,-0.0419921875,1.00592041015625,-11.962890625,-5.66741943359375,-18.82659912109375,1,1.0,1.0,1.0,1.0,10.00
2024-10-11 20:19:20.046,0.48026305,0.8632754,0.9436878,0.101430014,0.41487324,0.5402808,0.26852953,-0.021126315,0.36198702,0.20672053,0.4329871,0.45381102,0.5526023,0.2625496,0.13516465,0.34673467,-0.108783595,-0.0064883446,-0.22023605,-0.018124815,793.7729,795.38464,798.20514,782.8938,857.4359,0.05352783203125,-0.0419921875,1.00592041015625,-11.962890625,-5.66741943359375,-18.82659912109375,1,1.0,1.0,1.0,1.0,10.00
2024-10-11 20:19:20.047,0.48026305,0.8632754,0.9436878,0.101430014,0.41487324,0.5402808,0.26852953,-0.021126315,0.36198702,0.20672053,0.4329871,0.45381102,0.5526023,0.2625496,0.13516465,0.34673467,-0.108783595,-0.0064883446,-0.22023605,-0.018124815,794.17584,796.1905,799.011,793.36993,813.5165,0.05352783203125,-0.0419921875,1.00592041015625,-11.962890625,-5.66741943359375,-18.82659912109375,1,1.0,1.0,1.0,1.0,10.00
2024-10-11 20:19:20.048,0.48026305,0.8632754,0.9436878,0.101430014,0.41487324,0.5402808,0.26852953,-0.021126315,0.36198702,0.20672053,0.4329871,0.45381102,0.5526023,0.2625496,0.13516465,0.34673467,-0.108783595,-0.0064883446,-0.22023605,-0.018124815,794.57874,805.05493,798.60803,800.6227,856.63007,0.05352783203125,-0.0419921875,1.00592041015625,-11.962890625,-5.66741943359375,-18.82659912109375,1,1.0,1.0,1.0,1.0,10.00
2024-10-11 20:19:20.048,0.48026305,0.8632754,0.9436878,0.101430014,0.41487324,0.5402808,0.26852953,-0.021126315,0.36198702,0.20672053,0.4329871,0.45381102,0.5526023,0.2625496,0.13516465,0.34673467,-0.108783595,-0.0064883446,-0.22023605,-0.018124815,785.7143,812.71063,809.4872,797.3993,743.00366,0.05352783203125,-0.0419921875,1.00592041015625,-11.962890625,-5.66741943359375,-18.82659912109375,1,1.0,1.0,1.0,1.0,10.00
2024-10-11 20:19:20.049,0.48026305,0.8632754,0.9436878,0.101430014,0.41487324,0.5402808,0.26852953,-0.021126315,0.36198702,0.20672053,0.4329871,0.45381102,0.5526023,0.2625496,0.13516465,0.34673467,-0.108783595,-0.0064883446,-0.22023605,-0.018124815,783.2967,808.68134,802.6374,790.9524,627.3626,0.05352783203125,-0.0419921875,1.00592041015625,-11.962890625,-5.66741943359375,-18.82659912109375,1,1.0,1.0,1.0,1.0,10.00
2024-10-11 20:19:20.049,0.48026305,0.8632754,0.9436878,0.101430014,0.41487324,0.5402808,0.26852953,-0.021126315,0.36198702,0.20672053,0.4329871,0.45381102,0.5526023,0.2625496,0.13516465,0.34673467,-0.108783595,-0.0064883446,-0.22023605,-0.018124815,782.8938,803.44324,805.4579,795.78754,828.022,0.05352783203125,-0.0419921875,1.00592041015625,-11.962890625,-5.66741943359375,-18.82659912109375,1,1.0,1.0,1.0,1.0,10.00
2024-10-11 20:19:20.073,0.48026305,0.8632754,0.9436878,0.101430014,0.41487324,0.5402808,0.26852953,-0.021126315,0.36198702,0.20672053,0.4329871,0.45381102,0.5526023,0.2625496,0.13516465,0.34673467,-0.108783595,-0.0064883446,-0.22023605,-0.018124815,779.67035,797.8022,811.0989,799.41394,1025.4579,0.0404052734375,-0.048828125,1.0023193359375,-9.25628662109375,-0.7177734375,-19.192962646484375,1,1.0,1.0,1.0,1.0,10.00
2024-10-11 20:19:20.074,0.48026305,0.8632754,0.9436878,0.101430014,0.41487324,0.5402808,0.26852953,-0.021126315,0.36198702,0.20672053,0.4329871,0.45381102,0.5526023,0.2625496,0.13516465,0.34673467,-0.108783595,-0.0064883446,-0.22023605,-0.018124815,781.685,793.7729,802.6374,790.54944,900.14655,0.0404052734375,-0.048828125,1.0023193359375,-9.25628662109375,-0.7177734375,-19.192962646484375,1,1.0,1.0,1.0,1.0,10.00
2024-10-11 20:19:20.074,0.48026305,0.8632754,0.9436878,0.101430014,0.41487324,0.5402808,0.26852953,-0.021126315,0.36198702,0.20672053,0.4329871,0.45381102,0.5526023,0.2625496,0.13516465,0.34673467,-0.108783595,-0.0064883446,-0.22023605,-0.018124815,781.28204,795.78754,802.23444,788.1319,713.5897,0.0404052734375,-0.048828125,1.0023193359375,-9.25628662109375,-0.7177734375,-19.192962646484375,1,1.0,1.0,1.0,1.0,10.00
2024-10-11 20:19:20.075,0.48026305,0.8632754,0.9436878,0.101430014,0.41487324,0.5402808,0.26852953,-0.021126315,0.36198702,0.20672053,0.4329871,0.45381102,0.5526023,0.2625496,0.13516465,0.34673467,-0.108783595,-0.0064883446,-0.22023605,-0.018124815,789.7436,796.99634,804.65204,804.2491,839.304,0.0404052734375,-0.048828125,1.0023193359375,-9.25628662109375,-0.7177734375,-19.192962646484375,1,1.0,1.0,1.0,1.0,10.00
2024-10-11 20:19:20.075,0.48026305,0.8632754,0.9436878,0.101430014,0.41487324,0.5402808,0.26852953,-0.021126315,0.36198702,0.20672053,0.4329871,0.45381102,0.5526023,0.2625496,0.13516465,0.34673467,-0.108783595,-0.0064883446,-0.22023605,-0.018124815,795.38464,795.38464,804.2491,810.696,956.1539,0.0404052734375,-0.048828125,1.0023193359375,-9.25628662109375,-0.7177734375,-19.192962646484375,1,1.0,1.0,1.0,1.0,10.00
2024-10-11 20:19:20.076,0.48026305,0.8632754,0.9436878,0.101430014,0.41487324,0.5402808,0.26852953,-0.021126315,0.36198702,0.20672053,0.4329871,0.45381102,0.5526023,0.2625496,0.13516465,0.34673467,-0.108783595,-0.0064883446,-0.22023605,-0.018124815,792.96704,798.60803,802.6374,800.6227,867.50916,0.0404052734375,-0.048828125,1.0023193359375,-9.25628662109375,-0.7177734375,-19.192962646484375,1,1.0,1.0,1.0,1.0,10.00
2024-10-11 20:19:20.076,0.48026305,0.8632754,0.9436878,0.101430014,0.41487324,0.5402808,0.26852953,-0.021126315,0.36198702,0.20672053,0.4329871,0.45381102,0.5526023,0.2625496,0.13516465,0.34673467,-0.108783595,-0.0064883446,-0.22023605,-0.018124815,790.14655,796.1905,802.6374,795.38464,845.34796,0.0404052734375,-0.048828125,1.0023193359375,-9.25628662109375,-0.7177734375,-19.192962646484375,1,1.0,1.0,1.0,1.0,10.00
2024-10-11 20:19:20.077,0.48026305,0.8632754,0.9436878,0.101430014,0.41487324,0.5402808,0.26852953,-0.021126315,0.36198702,0.20672053,0.4329871,0.45381102,0.5526023,0.2625496,0.13516465,0.34673467,-0.108783595,-0.0064883446,-0.22023605,-0.018124815,790.9524,794.57874,803.44324,798.60803,953.73627,0.0404052734375,-0.048828125,1.0023193359375,-9.25628662109375,-0.7177734375,-19.192962646484375,1,1.0,1.0,1.0,1.0,10.00
2024-10-11 20:19:20.078,0.48026305,0.8632754,0.9436878,0.101430014,0.41487324,0.5402808,0.26852953,-0.021126315,0.36198702,0.20672053,0.4329871,0.45381102,0.5526023,0.2625496,0.13516465,0.34673467,-0.108783595,-0.0064883446,-0.22023605,-0.018124815,795.38464,793.7729,803.44324,802.23444,923.91943,0.0404052734375,-0.048828125,1.0023193359375,-9.25628662109375,-0.7177734375,-19.192962646484375,1,1.0,1.0,1.0,1.0,10.00
2024-10-11 20:19:20.078,0.48026305,0.8632754,0.9436878,0.101430014,0.41487324,0.5402808,0.26852953,-0.021126315,0.36198702,0.20672053,0.4329871,0.45381102,0.5526023,0.2625496,0.13516465,0.34673467,-0.108783595,-0.0064883446,-0.22023605,-0.018124815,794.57874,797.3993,800.6227,792.5641,753.47986,0.0404052734375,-0.048828125,1.0023193359375,-9.25628662109375,-0.7177734375,-19.192962646484375,1,1.0,1.0,1.0,1.0,10.00
2024-10-11 20:19:20.078,0.48026305,0.8632754,0.9436878,0.101430014,0.41487324,0.5402808,0.26852953,-0.021126315,0.36198702,0.20672053,0.4329871,0.45381102,0.5526023,0.2625496,0.13516465,0.34673467,-0.108783595,-0.0064883446,-0.22023605,-0.018124815,797.8022,800.2198,803.0403,792.96704,584.2491,0.0404052734375,-0.048828125,1.0023193359375,-9.25628662109375,-0.7177734375,-19.192962646484375,1,1.0,1.0,1.0,1.0,10.00
2024-10-11 20:19:20.079,0.48026305,0.8632754,0.9436878,0.101430014,0.41487324,0.5402808,0.26852953,-0.021126315,0.36198702,0.20672053,0.4329871,0.45381102,0.5526023,0.2625496,0.13516465,0.34673467,-0.108783595,-0.0064883446,-0.22023605,-0.018124815,799.81683,802.23444,805.4579,804.65204,859.0476,0.0404052734375,-0.048828125,1.0023193359375,-9.25628662109375,-0.7177734375,-19.192962646484375,1,1.0,1.0,1.0,1.0,10.00
2024-10-11 20:19:20.080,0.48026305,0.8632754,0.9436878,0.101430014,0.41487324,0.5402808,0.26852953,-0.021126315,0.36198702,0.20672053,0.4329871,0.45381102,0.5526023,0.2625496,0.13516465,0.34673467,-0.108783595,-0.0064883446,-0.22023605,-0.018124815,800.2198,797.3993,811.9048,803.8461,1091.9414,0.0404052734375,-0.048828125,1.0023193359375,-9.25628662109375,-0.7177734375,-19.192962646484375,1,1.0,1.0,1.0,1.0,10.00
2024-10-11 20:19:20.080,0.48026305,0.8632754,0.9436878,0.101430014,0.41487324,0.5402808,0.26852953,-0.021126315,0.36198702,0.20672053,0.4329871,0.45381102,0.5526023,0.2625496,0.13516465,0.34673467,-0.108783595,-0.0064883446,-0.22023605,-0.018124815,794.17584,793.7729,815.9341,802.6374,722.0513,0.0404052734375,-0.048828125,1.0023193359375,-9.25628662109375,-0.7177734375,-19.192962646484375,1,1.0,1.0,1.0,1.0,10.00
2024-10-11 20:19:20.081,0.48026305,0.8632754,0.9436878,0.101430014,0.41487324,0.5402808,0.26852953,-0.021126315,0.36198702,0.20672053,0.4329871,0.45381102,0.5526023,0.2625496,0.13516465,0.34673467,-0.108783595,-0.0064883446,-0.22023605,-0.018124815,784.90845,796.5934,805.05493,803.44324,508.9011,0.0404052734375,-0.048828125,1.0023193359375,-9.25628662109375,-0.7177734375,-19.192962646484375,1,1.0,1.0,1.0,1.0,10.00
2024-10-11 20:19:20.081,0.48026305,0.8632754,0.9436878,0.101430014,0.41487324,0.5402808,0.26852953,-0.021126315,0.36198702,0.20672053,0.4329871,0.45381102,0.5526023,0.2625496,0.13516465,0.34673467,-0.108783595,-0.0064883446,-0.22023605,-0.018124815,788.93774,800.6227,806.6667,806.6667,678.93774,0.0404052734375,-0.048828125,1.0023193359375,-9.25628662109375,-0.7177734375,-19.192962646484375,1,1.0,1.0,1.0,1.0,10.00
2024-10-11 20:19:20.082,0.48026305,0.8632754,0.9436878,0.101430014,0.41487324,0.5402808,0.26852953,-0.021126315,0.36198702,0.20672053,0.4329871,0.45381102,0.5526023,0.2625496,0.13516465,0.34673467,-0.108783595,-0.0064883446,-0.22023605,-0.018124815,794.9817,800.2198,811.50183,812.3077,855.42126,0.0404052734375,-0.048828125,1.0023193359375,-9.25628662109375,-0.7177734375,-19.192962646484375,1,1.0,1.0,1.0,1.0,10.00
2024-10-11 20:19:20.082,0.48026305,0.8632754,0.9436878,0.101430014,0.41487324,0.5402808,0.26852953,-0.021126315,0.36198702,0.20672053,0.4329871,0.45381102,0.5526023,0.2625496,0.13516465,0.34673467,-0.108783595,-0.0064883446,-0.22023605,-0.018124815,796.99634,798.20514,809.0842,803.44324,713.1868,0.0404052734375,-0.048828125,1.0023193359375,-9.25628662109375,-0.7177734375,-19.192962646484375,1,1.0,1.0,1.0,1.0,10.00
2024-10-11 20:19:20.083,0.48026305,0.8632754,0.9436878,0.101430014,0.41487324,0.5402808,0.26852953,-0.021126315,0.36198702,0.20672053,0.4329871,0.45381102,0.5526023,0.2625496,0.13516465,0.34673467,-0.108783595,-0.0064883446,-0.22023605,-0.018124815,796.1905,795.78754,803.44324,795.38464,717.2161,0.0404052734375,-0.048828125,1.0023193359375,-9.25628662109375,-0.7177734375,-19.192962646484375,1,1.0,1.0,1.0,1.0,10.00
2024-10-11 20:19:20.083,0.37701407,0.9074223,0.9708275,0.0857143,0.3276406,0.6120378,0.31653422,0.0028691576,0.329396,0.25352263,0.46447167,0.45381102,0.54145545,0.28373456,0.13390236,0.29999804,-0.1049799,-0.022351028,-0.22091883,-0.043676507,785.31134,793.36993,803.44324,789.7436,824.7985,0.0404052734375,-0.048828125,1.0023193359375,-9.25628662109375,-0.7177734375,-19.192962646484375,1,1.0,1.0,1.0,1.0,10.00
2024-10-11 20:19:20.088,0.37701407,0.9074223,0.9708275,0.0857143,0.3276406,0.6120378,0.31653422,0.0028691576,0.329396,0.25352263,0.46447167,0.45381102,0.54145545,0.28373456,0.13390236,0.29999804,-0.1049799,-0.022351028,-0.22091883,-0.043676507,790.54944,792.5641,810.293,808.68134,778.86444,0.0404052734375,-0.048828125,1.0023193359375,-9.25628662109375,-0.7177734375,-19.192962646484375,1,1.0,1.0,1.0,1.0,10.00
2024-10-11 20:19:20.088,0.37701407,0.9074223,0.9708275,0.0857143,0.3276406,0.6120378,0.31653422,0.0028691576,0.329396,0.25352263,0.46447167,0.45381102,0.54145545,0.28373456,0.13390236,0.29999804,-0.1049799,-0.022351028,-0.22091883,-0.043676507,807.47253,801.4286,808.2784,827.2161,633.8095,0.0404052734375,-0.048828125,1.0023193359375,-9.25628662109375,-0.7177734375,-19.192962646484375,1,1.0,1.0,1.0,1.0,10.00
2024-10-11 20:19:20.089,0.37701407,0.9074223,0.9708275,0.0857143,0.3276406,0.6120378,0.31653422,0.0028691576,0.329396,0.25352263,0.46447167,0.45381102,0.54145545,0.28373456,0.13390236,0.29999804,-0.1049799,-0.022351028,-0.22091883,-0.043676507,789.34064,809.4872,801.4286,788.93774,504.06595,0.0404052734375,-0.048828125,1.0023193359375,-9.25628662109375,-0.7177734375,-19.192962646484375,1,1.0,1.0,1.0,1.0,10.00
2024-10-11 20:19:20.089,0.37701407,0.9074223,0.9708275,0.0857143,0.3276406,0.6120378,0.31653422,0.0028691576,0.329396,0.25352263,0.46447167,0.45381102,0.54145545,0.28373456,0.13390236,0.29999804,-0.1049799,-0.022351028,-0.22091883,-0.043676507,780.07324,800.2198,798.20514,775.2381,745.0183,0.0404052734375,-0.048828125,1.0023193359375,-9.25628662109375,-0.7177734375,-19.192962646484375,1,1.0,1.0,1.0,1.0,10.00
2024-10-11 20:19:20.179,0.37701407,0.9074223,0.9708275,0.0857143,0.3276406,0.6120378,0.31653422,0.0028691576,0.329396,0.25352263,0.46447167,0.45381102,0.54145545,0.28373456,0.13390236,0.29999804,-0.1049799,-0.022351028,-0.22091883,-0.043676507,786.1172,797.3993,795.38464,791.75824,931.1722,0.03350830078125,-0.046142578125,0.99639892578125,-6.160888671875,2.43743896484375,-20.598602294921875,1,1.0,1.0,1.0,1.0,10.00
2024-10-11 20:19:20.180,0.37701407,0.9074223,0.9708275,0.0857143,0.3276406,0.6120378,0.31653422,0.0028691576,0.329396,0.25352263,0.46447167,0.45381102,0.54145545,0.28373456,0.13390236,0.29999804,-0.1049799,-0.022351028,-0.22091883,-0.043676507,794.9817,803.44324,794.17584,799.81683,695.8608,0.03350830078125,-0.046142578125,0.99639892578125,-6.160888671875,2.43743896484375,-20.598602294921875,1,1.0,1.0,1.0,1.0,10.00
2024-10-11 20:19:20.181,0.37701407,0.9074223,0.9708275,0.0857143,0.3276406,0.6120378,0.31653422,0.0028691576,0.329396,0.25352263,0.46447167,0.45381102,0.54145545,0.28373456,0.13390236,0.29999804,-0.1049799,-0.022351028,-0.22091883,-0.043676507,791.3553,801.8315,793.7729,790.54944,663.6264,0.03350830078125,-0.046142578125,0.99639892578125,-6.160888671875,2.43743896484375,-20.598602294921875,1,1.0,1.0,1.0,1.0,10.00
2024-10-11 20:19:20.182,0.37701407,0.9074223,0.9708275,0.0857143,0.3276406,0.6120378,0.31653422,0.0028691576,0.329396,0.25352263,0.46447167,0.45381102,0.54145545,0.28373456,0.13390236,0.29999804,-0.1049799,-0.022351028,-0.22091883,-0.043676507,782.49084,800.2198,788.93774,770.0,608.022,0.03350830078125,-0.046142578125,0.99639892578125,-6.160888671875,2.43743896484375,-20.598602294921875,1,1.0,1.0,1.0,1.0,10.00
2024-10-11 20:19:20.183,0.37701407,0.9074223,0.9708275,0.0857143,0.3276406,0.6120378,0.31653422,0.0028691576,0.329396,0.25352263,0.46447167,0.45381102,0.54145545,0.28373456,0.13390236,0.29999804,-0.1049799,-0.022351028,-0.22091883,-0.043676507,796.99634,799.41394,788.93774,789.7436,608.4249,0.03350830078125,-0.046142578125,0.99639892578125,-6.160888671875,2.43743896484375,-20.598602294921875,1,1.0,1.0,1.0,1.0,10.00
2024-10-11 20:19:20.183,0.37701407,0.9074223,0.9708275,0.0857143,0.3276406,0.6120378,0.31653422,0.0028691576,0.329396,0.25352263,0.46447167,0.45381102,0.54145545,0.28373456,0.13390236,0.29999804,-0.1049799,-0.022351028,-0.22091883,-0.043676507,792.1612,798.20514,790.9524,791.75824,757.50916,0.03350830078125,-0.046142578125,0.99639892578125,-6.160888671875,2.43743896484375,-20.598602294921875,1,1.0,1.0,1.0,1.0,10.00
2024-10-11 20:19:20.184,0.37701407,0.9074223,0.9708275,0.0857143,0.3276406,0.6120378,0.31653422,0.0028691576,0.329396,0.25352263,0.46447167,0.45381102,0.54145545,0.28373456,0.13390236,0.29999804,-0.1049799,-0.022351028,-0.22091883,-0.043676507,773.22345,802.23444,789.34064,772.01465,900.9524,0.03350830078125,-0.046142578125,0.99639892578125,-6.160888671875,2.43743896484375,-20.598602294921875,1,1.0,1.0,1.0,1.0,10.00
2024-10-11 20:19:20.185,0.37701407,0.9074223,0.9708275,0.0857143,0.3276406,0.6120378,0.31653422,0.0028691576,0.329396,0.25352263,0.46447167,0.45381102,0.54145545,0.28373456,0.13390236,0.29999804,-0.1049799,-0.022351028,-0.22091883,-0.043676507,784.90845,789.34064,788.5348,789.34064,1147.9487,0.03350830078125,-0.046142578125,0.99639892578125,-6.160888671875,2.43743896484375,-20.598602294921875,1,1.0,1.0,1.0,1.0,10.00
2024-10-11 20:19:20.185,0.37701407,0.9074223,0.9708275,0.0857143,0.3276406,0.6120378,0.31653422,0.0028691576,0.329396,0.25352263,0.46447167,0.45381102,0.54145545,0.28373456,0.13390236,0.29999804,-0.1049799,-0.022351028,-0.22091883,-0.043676507,786.1172,786.52014,792.1612,788.93774,967.03296,0.03350830078125,-0.046142578125,0.99639892578125,-6.160888671875,2.43743896484375,-20.598602294921875,1,1.0,1.0,1.0,1.0,10.00
2024-10-11 20:19:20.186,0.37701407,0.9074223,0.9708275,0.0857143,0.3276406,0.6120378,0.31653422,0.0028691576,0.329396,0.25352263,0.46447167,0.45381102,0.54145545,0.28373456,0.13390236,0.29999804,-0.1049799,-0.022351028,-0.22091883,-0.043676507,773.22345,796.5934,788.5348,777.6557,655.56775,0.03350830078125,-0.046142578125,0.99639892578125,-6.160888671875,2.43743896484375,-20.598602294921875,1,1.0,1.0,1.0,1.0,10.00
2024-10-11 20:19:20.187,0.37701407,0.9074223,0.9708275,0.0857143,0.3276406,0.6120378,0.31653422,0.0028691576,0.329396,0.25352263,0.46447167,0.45381102,0.54145545,0.28373456,0.13390236,0.29999804,-0.1049799,-0.022351028,-0.22091883,-0.043676507,779.67035,788.5348,786.1172,783.69965,773.22345,0.03350830078125,-0.046142578125,0.99639892578125,-6.160888671875,2.43743896484375,-20.598602294921875,1,1.0,1.0,1.0,1.0,10.00
2024-10-11 20:19:20.188,0.37701407,0.9074223,0.9708275,0.0857143,0.3276406,0.6120378,0.31653422,0.0028691576,0.329396,0.25352263,0.46447167,0.45381102,0.54145545,0.28373456,0.13390236,0.29999804,-0.1049799,-0.022351028,-0.22091883,-0.043676507,786.9231,788.93774,792.5641,784.10254,738.5714,0.03350830078125,-0.046142578125,0.99639892578125,-6.160888671875,2.43743896484375,-20.598602294921875,1,1.0,1.0,1.0,1.0,10.00
2024-10-11 20:19:20.214,0.37701407,0.9074223,0.9708275,0.0857143,0.3276406,0.6120378,0.31653422,0.0028691576,0.329396,0.25352263,0.46447167,0.45381102,0.54145545,0.28373456,0.13390236,0.29999804,-0.1049799,-0.022351028,-0.22091883,-0.043676507,782.49084,784.90845,791.3553,788.1319,510.1099,0.0294189453125,-0.04559326171875,1.00042724609375,-3.252410888671875,4.246826171875,-18.6920166015625,1,1.0,1.0,1.0,1.0,10.00
2024-10-11 20:19:20.216,0.37701407,0.9074223,0.9708275,0.0857143,0.3276406,0.6120378,0.31653422,0.0028691576,0.329396,0.25352263,0.46447167,0.45381102,0.54145545,0.28373456,0.13390236,0.29999804,-0.1049799,-0.022351028,-0.22091883,-0.043676507,783.2967,779.67035,792.96704,788.93774,586.6667,0.0294189453125,-0.04559326171875,1.00042724609375,-3.252410888671875,4.246826171875,-18.6920166015625,1,1.0,1.0,1.0,1.0,10.00
2024-10-11 20:19:20.216,0.37701407,0.9074223,0.9708275,0.0857143,0.3276406,0.6120378,0.31653422,0.0028691576,0.329396,0.25352263,0.46447167,0.45381102,0.54145545,0.28373456,0.13390236,0.29999804,-0.1049799,-0.022351028,-0.22091883,-0.043676507,785.7143,794.57874,795.78754,784.10254,699.0842,0.0294189453125,-0.04559326171875,1.00042724609375,-3.252410888671875,4.246826171875,-18.6920166015625,1,1.0,1.0,1.0,1.0,10.00
2024-10-11 20:19:20.217,0.37701407,0.9074223,0.9708275,0.0857143,0.3276406,0.6120378,0.31653422,0.0028691576,0.329396,0.25352263,0.46447167,0.45381102,0.54145545,0.28373456,0.13390236,0.29999804,-0.1049799,-0.022351028,-0.22091883,-0.043676507,790.54944,801.4286,793.36993,786.1172,654.7619,0.0294189453125,-0.04559326171875,1.00042724609375,-3.252410888671875,4.246826171875,-18.6920166015625,1,1.0,1.0,1.0,1.0,10.00
2024-10-11 20:19:20.218,0.37701407,0.9074223,0.9708275,0.0857143,0.3276406,0.6120378,0.31653422,0.0028691576,0.329396,0.25352263,0.46447167,0.45381102,0.54145545,0.28373456,0.13390236,0.29999804,-0.1049799,-0.022351028,-0.22091883,-0.043676507,788.93774,797.3993,790.54944,786.1172,576.1905,0.0294189453125,-0.04559326171875,1.00042724609375,-3.252410888671875,4.246826171875,-18.6920166015625,1,1.0,1.0,1.0,1.0,10.00
2024-10-11 20:19:20.219,0.37701407,0.9074223,0.9708275,0.0857143,0.3276406,0.6120378,0.31653422,0.0028691576,0.329396,0.25352263,0.46447167,0.45381102,0.54145545,0.28373456,0.13390236,0.29999804,-0.1049799,-0.022351028,-0.22091883,-0.043676507,790.54944,798.60803,796.1905,790.54944,698.2784,0.0294189453125,-0.04559326171875,1.00042724609375,-3.252410888671875,4.246826171875,-18.6920166015625,1,1.0,1.0,1.0,1.0,10.00
2024-10-11 20:19:20.219,0.37701407,0.9074223,0.9708275,0.0857143,0.3276406,0.6120378,0.31653422,0.0028691576,0.329396,0.25352263,0.46447167,0.45381102,0.54145545,0.28373456,0.13390236,0.29999804,-0.1049799,-0.022351028,-0.22091883,-0.043676507,790.54944,786.52014,807.0696,801.8315,1100.0,0.0294189453125,-0.04559326171875,1.00042724609375,-3.252410888671875,4.246826171875,-18.6920166015625,1,1.0,1.0,1.0,1.0,10.00
2024-10-11 20:19:20.220,0.37701407,0.9074223,0.9708275,0.0857143,0.3276406,0.6120378,0.31653422,0.0028691576,0.329396,0.25352263,0.46447167,0.45381102,0.54145545,0.28373456,0.13390236,0.29999804,-0.1049799,-0.022351028,-0.22091883,-0.043676507,788.5348,779.2674,797.8022,793.7729,1027.0696,0.0294189453125,-0.04559326171875,1.00042724609375,-3.252410888671875,4.246826171875,-18.6920166015625,1,1.0,1.0,1.0,1.0,10.00
2024-10-11 20:19:20.221,0.37701407,0.9074223,0.9708275,0.0857143,0.3276406,0.6120378,0.31653422,0.0028691576,0.329396,0.25352263,0.46447167,0.45381102,0.54145545,0.28373456,0.13390236,0.29999804,-0.1049799,-0.022351028,-0.22091883,-0.043676507,796.5934,800.2198,790.14655,793.7729,554.43225,0.0294189453125,-0.04559326171875,1.00042724609375,-3.252410888671875,4.246826171875,-18.6920166015625,1,1.0,1.0,1.0,1.0,10.00
2024-10-11 20:19:20.221,0.37701407,0.9504115,0.9883236,0.0857143,0.3276406,0.6724303,0.35818627,0.0028691576,0.329396,0.25860554,0.46578383,0.45381102,0.54145545,0.30119514,0.13209033,0.29999804,-0.1049799,-0.027759321,-0.21684045,-0.043676507,798.60803,800.2198,796.5934,803.0403,531.4652,0.0294189453125,-0.04559326171875,1.00042724609375,-3.252410888671875,4.246826171875,-18.6920166015625,1,1.0,1.0,1.0,1.0,10.00
2024-10-11 20:19:20.227,0.37701407,0.9504115,0.9883236,0.0857143,0.3276406,0.6724303,0.35818627,0.0028691576,0.329396,0.25860554,0.46578383,0.45381102,0.54145545,0.30119514,0.13209033,0.29999804,-0.1049799,-0.027759321,-0.21684045,-0.043676507,796.5934,793.7729,798.60803,811.9048,1037.9487,0.0294189453125,-0.04559326171875,1.00042724609375,-3.252410888671875,4.246826171875,-18.6920166015625,1,1.0,1.0,1.0,1.0,10.00
2024-10-11 20:19:20.228,0.37701407,0.9504115,0.9883236,0.0857143,0.3276406,0.6724303,0.35818627,0.0028691576,0.329396,0.25860554,0.46578383,0.45381102,0.54145545,0.30119514,0.13209033,0.29999804,-0.1049799,-0.027759321,-0.21684045,-0.043676507,788.5348,797.3993,798.20514,810.293,1030.6959,0.0294189453125,-0.04559326171875,1.00042724609375,-3.252410888671875,4.246826171875,-18.6920166015625,1,1.0,1.0,1.0,1.0,10.00
2024-10-11 20:19:20.254,0.37701407,0.9504115,0.9883236,0.0857143,0.3276406,0.6724303,0.35818627,0.0028691576,0.329396,0.25860554,0.46578383,0.45381102,0.54145545,0.30119514,0.13209033,0.29999804,-0.1049799,-0.027759321,-0.21684045,-0.043676507,784.5055,799.41394,799.81683,801.02563,608.8278,0.02197265625,-0.04449462890625,1.01470947265625,-1.607513427734375,8.142242431640625,-14.662017822265625,1,1.0,1.0,1.0,1.0,10.00
2024-10-11 20:19:20.255,0.37701407,0.9504115,0.9883236,0.0857143,0.3276406,0.6724303,0.35818627,0.0028691576,0.329396,0.25860554,0.46578383,0.45381102,0.54145545,0.30119514,0.13209033,0.29999804,-0.1049799,-0.027759321,-0.21684045,-0.043676507,794.9817,795.38464,801.8315,807.0696,585.4579,0.02197265625,-0.04449462890625,1.01470947265625,-1.607513427734375,8.142242431640625,-14.662017822265625,1,1.0,1.0,1.0,1.0,10.00
2024-10-11 20:19:20.256,0.37701407,0.9504115,0.9883236,0.0857143,0.3276406,0.6724303,0.35818627,0.0028691576,0.329396,0.25860554,0.46578383,0.45381102,0.54145545,0.30119514,0.13209033,0.29999804,-0.1049799,-0.027759321,-0.21684045,-0.043676507,798.20514,792.96704,797.8022,807.8755,691.4286,0.02197265625,-0.04449462890625,1.01470947265625,-1.607513427734375,8.142242431640625,-14.662017822265625,1,1.0,1.0,1.0,1.0,10.00
2024-10-11 20:19:20.256,0.37701407,0.9504115,0.9883236,0.0857143,0.3276406,0.6724303,0.35818627,0.0028691576,0.329396,0.25860554,0.46578383,0.45381102,0.54145545,0.30119514,0.13209033,0.29999804,-0.1049799,-0.027759321,-0.21684045,-0.043676507,796.99634,795.38464,797.3993,807.8755,688.20514,0.02197265625,-0.04449462890625,1.01470947265625,-1.607513427734375,8.142242431640625,-14.662017822265625,1,1.0,1.0,1.0,1.0,10.00
2024-10-11 20:19:20.258,0.37701407,0.9504115,0.9883236,0.0857143,0.3276406,0.6724303,0.35818627,0.0028691576,0.329396,0.25860554,0.46578383,0.45381102,0.54145545,0.30119514,0.13209033,0.29999804,-0.1049799,-0.027759321,-0.21684045,-0.043676507,793.36993,793.7729,800.6227,799.81683,597.9487,0.02197265625,-0.04449462890625,1.01470947265625,-1.607513427734375,8.142242431640625,-14.662017822265625,1,1.0,1.0,1.0,1.0,10.00
2024-10-11 20:19:20.258,0.37701407,0.9504115,0.9883236,0.0857143,0.3276406,0.6724303,0.35818627,0.0028691576,0.329396,0.25860554,0.46578383,0.45381102,0.54145545,0.30119514,0.13209033,0.29999804,-0.1049799,-0.027759321,-0.21684045,-0.043676507,789.34064,792.5641,799.011,796.5934,856.2271,0.02197265625,-0.04449462890625,1.01470947265625,-1.607513427734375,8.142242431640625,-14.662017822265625,1,1.0,1.0,1.0,1.0,10.00
2024-10-11 20:19:20.259,0.37701407,0.9504115,0.9883236,0.0857143,0.3276406,0.6724303,0.35818627,0.0028691576,0.329396,0.25860554,0.46578383,0.45381102,0.54145545,0.30119514,0.13209033,0.29999804,-0.1049799,-0.027759321,-0.21684045,-0.043676507,796.99634,788.5348,796.99634,813.91943,1101.2087,0.02197265625,-0.04449462890625,1.01470947265625,-1.607513427734375,8.142242431640625,-14.662017822265625,1,1.0,1.0,1.0,1.0,10.00
2024-10-11 20:19:20.259,0.37701407,0.9504115,0.9883236,0.0857143,0.3276406,0.6724303,0.35818627,0.0028691576,0.329396,0.25860554,0.46578383,0.45381102,0.54145545,0.30119514,0.13209033,0.29999804,-0.1049799,-0.027759321,-0.21684045,-0.043676507,803.8461,788.1319,800.2198,809.89014,780.07324,0.02197265625,-0.04449462890625,1.01470947265625,-1.607513427734375,8.142242431640625,-14.662017822265625,1,1.0,1.0,1.0,1.0,10.00
2024-10-11 20:19:20.260,0.37701407,0.9504115,0.9883236,0.0857143,0.3276406,0.6724303,0.35818627,0.0028691576,0.329396,0.25860554,0.46578383,0.45381102,0.54145545,0.30119514,0.13209033,0.29999804,-0.1049799,-0.027759321,-0.21684045,-0.043676507,799.41394,800.2198,805.05493,801.8315,562.49084,0.02197265625,-0.04449462890625,1.01470947265625,-1.607513427734375,8.142242431640625,-14.662017822265625,1,1.0,1.0,1.0,1.0,10.00
2024-10-11 20:19:20.261,0.37701407,0.9504115,0.9883236,0.0857143,0.3276406,0.6724303,0.35818627,0.0028691576,0.329396,0.25860554,0.46578383,0.45381102,0.54145545,0.30119514,0.13209033,0.29999804,-0.1049799,-0.027759321,-0.21684045,-0.043676507,798.20514,800.2198,809.4872,805.4579,712.7839,0.02197265625,-0.04449462890625,1.01470947265625,-1.607513427734375,8.142242431640625,-14.662017822265625,1,1.0,1.0,1.0,1.0,10.00
2024-10-11 20:19:20.262,0.37701407,0.9504115,0.9883236,0.0857143,0.3276406,0.6724303,0.35818627,0.0028691576,0.329396,0.25860554,0.46578383,0.45381102,0.54145545,0.30119514,0.13209033,0.29999804,-0.1049799,-0.027759321,-0.21684045,-0.043676507,797.8022,796.5934,806.26373,802.23444,811.9048,0.02197265625,-0.04449462890625,1.01470947265625,-1.607513427734375,8.142242431640625,-14.662017822265625,1,1.0,1.0,1.0,1.0,10.00
2024-10-11 20:19:20.262,0.37701407,0.9504115,0.9883236,0.0857143,0.3276406,0.6724303,0.35818627,0.0028691576,0.329396,0.25860554,0.46578383,0.45381102,0.54145545,0.30119514,0.13209033,0.29999804,-0.1049799,-0.027759321,-0.21684045,-0.043676507,798.60803,799.81683,802.23444,803.8461,720.4396,0.02197265625,-0.04449462890625,1.01470947265625,-1.607513427734375,8.142242431640625,-14.662017822265625,1,1.0,1.0,1.0,1.0,10.00
2024-10-11 20:19:20.285,0.37701407,0.9504115,0.9883236,0.0857143,0.3276406,0.6724303,0.35818627,0.0028691576,0.329396,0.25860554,0.46578383,0.45381102,0.54145545,0.30119514,0.13209033,0.29999804,-0.1049799,-0.027759321,-0.21684045,-0.043676507,785.31134,793.36993,805.4579,808.68134,734.94507,0.00408935546875,-0.04486083984375,1.00390625,-0.680389404296875,11.05072021484375,-10.325469970703125,1,1.0,1.0,1.0,1.0,10.00
2024-10-11 20:19:20.286,0.37701407,0.9504115,0.9883236,0.0857143,0.3276406,0.6724303,0.35818627,0.0028691576,0.329396,0.25860554,0.46578383,0.45381102,0.54145545,0.30119514,0.13209033,0.29999804,-0.1049799,-0.027759321,-0.21684045,-0.043676507,785.7143,796.1905,801.02563,806.26373,917.0696,0.00408935546875,-0.04486083984375,1.00390625,-0.680389404296875,11.05072021484375,-10.325469970703125,1,1.0,1.0,1.0,1.0,10.00
2024-10-11 20:19:20.287,0.37701407,0.9504115,0.9883236,0.0857143,0.3276406,0.6724303,0.35818627,0.0028691576,0.329396,0.25860554,0.46578383,0.45381102,0.54145545,0.30119514,0.13209033,0.29999804,-0.1049799,-0.027759321,-0.21684045,-0.043676507,799.81683,801.02563,794.9817,807.8755,853.4066,0.00408935546875,-0.04486083984375,1.00390625,-0.680389404296875,11.05072021484375,-10.325469970703125,1,1.0,1.0,1.0,1.0,10.00
2024-10-11 20:19:20.287,0.37701407,0.9504115,0.9883236,0.0857143,0.3276406,0.6724303,0.35818627,0.0028691576,0.329396,0.25860554,0.46578383,0.45381102,0.54145545,0.30119514,0.13209033,0.29999804,-0.1049799,-0.027759321,-0.21684045,-0.043676507,799.41394,801.02563,810.696,807.47253,715.2015,0.00408935546875,-0.04486083984375,1.00390625,-0.680389404296875,11.05072021484375,-10.325469970703125,1,1.0,1.0,1.0,1.0,10.00
2024-10-11 20:19:20.288,0.37701407,0.9504115,0.9883236,0.0857143,0.3276406,0.6724303,0.35818627,0.0028691576,0.329396,0.25860554,0.46578383,0.45381102,0.54145545,0.30119514,0.13209033,0.29999804,-0.1049799,-0.027759321,-0.21684045,-0.043676507,804.65204,805.4579,812.3077,811.50183,732.1245,0.00408935546875,-0.04486083984375,1.00390625,-0.680389404296875,11.05072021484375,-10.325469970703125,1,1.0,1.0,1.0,1.0,10.00
2024-10-11 20:19:20.289,0.37701407,0.9504115,0.9883236,0.0857143,0.3276406,0.6724303,0.35818627,0.0028691576,0.329396,0.25860554,0.46578383,0.45381102,0.54145545,0.30119514,0.13209033,0.29999804,-0.1049799,-0.027759321,-0.21684045,-0.043676507,802.23444,796.1905,803.0403,813.1135,774.43225,0.00408935546875,-0.04486083984375,1.00390625,-0.680389404296875,11.05072021484375,-10.325469970703125,1,1.0,1.0,1.0,1.0,10.00
2024-10-11 20:19:20.289,0.37701407,0.9504115,0.9883236,0.0857143,0.3276406,0.6724303,0.35818627,0.0028691576,0.329396,0.25860554,0.46578383,0.45381102,0.54145545,0.30119514,0.13209033,0.29999804,-0.1049799,-0.027759321,-0.21684045,-0.043676507,805.8608,784.90845,809.4872,825.2015,760.7326,0.00408935546875,-0.04486083984375,1.00390625,-0.680389404296875,11.05072021484375,-10.325469970703125,1,1.0,1.0,1.0,1.0,10.00
2024-10-11 20:19:20.290,0.37701407,0.9504115,0.9883236,0.0857143,0.3276406,0.6724303,0.35818627,0.0028691576,0.329396,0.25860554,0.46578383,0.45381102,0.54145545,0.30119514,0.13209033,0.29999804,-0.1049799,-0.027759321,-0.21684045,-0.043676507,805.8608,789.34064,805.4579,826.4103,729.707,0.00408935546875,-0.04486083984375,1.00390625,-0.680389404296875,11.05072021484375,-10.325469970703125,1,1.0,1.0,1.0,1.0,10.00
2024-10-11 20:19:20.291,0.37701407,0.9504115,0.9883236,0.0857143,0.3276406,0.6724303,0.35818627,0.0028691576,0.329396,0.25860554,0.46578383,0.45381102,0.54145545,0.30119514,0.13209033,0.29999804,-0.1049799,-0.027759321,-0.21684045,-0.043676507,780.4762,802.23444,799.011,789.34064,682.96704,0.00408935546875,-0.04486083984375,1.00390625,-0.680389404296875,11.05072021484375,-10.325469970703125,1,1.0,1.0,1.0,1.0,10.00
2024-10-11 20:19:20.291,0.37701407,0.9504115,0.9883236,0.0857143,0.3276406,0.6724303,0.35818627,0.0028691576,0.329396,0.25860554,0.46578383,0.45381102,0.54145545,0.30119514,0.13209033,0.29999804,-0.1049799,-0.027759321,-0.21684045,-0.043676507,773.6264,795.38464,796.5934,783.2967,949.707,0.00408935546875,-0.04486083984375,1.00390625,-0.680389404296875,11.05072021484375,-10.325469970703125,1,1.0,1.0,1.0,1.0,10.00
2024-10-11 20:19:20.292,0.37701407,0.9504115,0.9883236,0.0857143,0.3276406,0.6724303,0.35818627,0.0028691576,0.329396,0.25860554,0.46578383,0.45381102,0.54145545,0.30119514,0.13209033,0.29999804,-0.1049799,-0.027759321,-0.21684045,-0.043676507,787.72894,786.1172,797.8022,805.8608,998.86444,0.00408935546875,-0.04486083984375,1.00390625,-0.680389404296875,11.05072021484375,-10.325469970703125,1,1.0,1.0,1.0,1.0,10.00
2024-10-11 20:19:20.292,0.37701407,0.9803564,0.99855065,0.0857143,0.3276406,0.7102533,0.39081702,0.0028691576,0.329396,0.25860554,0.46715853,0.45381102,0.54145545,0.3179181,0.13069256,0.29999804,-0.1049799,-0.025374074,-0.21479204,-0.043676507,792.5641,792.5641,802.6374,813.1135,679.34064,0.00408935546875,-0.04486083984375,1.00390625,-0.680389404296875,11.05072021484375,-10.325469970703125,1,1.0,1.0,1.0,1.0,10.00
2024-10-11 20:19:20.345,0.37701407,0.9803564,0.99855065,0.0857143,0.3276406,0.7102533,0.39081702,0.0028691576,0.329396,0.25860554,0.46715853,0.45381102,0.54145545,0.3179181,0.13069256,0.29999804,-0.1049799,-0.025374074,-0.21479204,-0.043676507,784.10254,800.6227,799.011,801.8315,733.73627,0.00408935546875,-0.04486083984375,1.00390625,-0.680389404296875,11.05072021484375,-10.325469970703125,1,1.0,1.0,1.0,1.0,10.00
2024-10-11 20:19:20.346,0.37701407,0.9803564,0.99855065,0.0857143,0.3276406,0.7102533,0.39081702,0.0028691576,0.329396,0.25860554,0.46715853,0.45381102,0.54145545,0.3179181,0.13069256,0.29999804,-0.1049799,-0.025374074,-0.21479204,-0.043676507,763.5531,805.4579,792.5641,774.43225,725.2747,0.00408935546875,-0.04486083984375,1.00390625,-0.680389404296875,11.05072021484375,-10.325469970703125,1,1.0,1.0,1.0,1.0,10.00
2024-10-11 20:19:20.347,0.37701407,0.9803564,0.99855065,0.0857143,0.3276406,0.7102533,0.39081702,0.0028691576,0.329396,0.25860554,0.46715853,0.45381102,0.54145545,0.3179181,0.13069256,0.29999804,-0.1049799,-0.025374074,-0.21479204,-0.043676507,772.01465,794.9817,789.7436,775.64105,510.51282,0.00408935546875,-0.04486083984375,1.00390625,-0.680389404296875,11.05072021484375,-10.325469970703125,1,1.0,1.0,1.0,1.0,10.00
2024-10-11 20:19:20.348,0.37701407,0.9803564,0.99855065,0.0857143,0.3276406,0.7102533,0.39081702,0.0028691576,0.329396,0.25860554,0.46715853,0.45381102,0.54145545,0.3179181,0.13069256,0.29999804,-0.1049799,-0.025374074,-0.21479204,-0.043676507,794.57874,793.36993,792.1612,795.78754,556.4469,0.00408935546875,-0.04486083984375,1.00390625,-0.680389404296875,11.05072021484375,-10.325469970703125,1,1.0,1.0,1.0,1.0,10.00
2024-10-11 20:19:20.349,0.37701407,0.9803564,0.99855065,0.0857143,0.3276406,0.7102533,0.39081702,0.0028691576,0.329396,0.25860554,0.46715853,0.45381102,0.54145545,0.3179181,0.13069256,0.29999804,-0.1049799,-0.025374074,-0.21479204,-0.043676507,775.64105,801.8315,788.5348,787.72894,884.43225,0.00408935546875,-0.04486083984375,1.00390625,-0.680389404296875,11.05072021484375,-10.325469970703125,1,1.0,1.0,1.0,1.0,10.00
2024-10-11 20:19:20.349,0.37701407,0.9803564,0.99855065,0.0857143,0.3276406,0.7102533,0.39081702,0.0028691576,0.329396,0.25860554,0.46715853,0.45381102,0.54145545,0.3179181,0.13069256,0.29999804,-0.1049799,-0.025374074,-0.21479204,-0.043676507,772.01465,799.41394,786.9231,784.10254,1052.0513,0.00408935546875,-0.04486083984375,1.00390625,-0.680389404296875,11.05072021484375,-10.325469970703125,1,1.0,1.0,1.0,1.0,10.00
2024-10-11 20:19:20.350,0.37701407,0.9803564,0.99855065,0.0857143,0.3276406,0.7102533,0.39081702,0.0028691576,0.329396,0.25860554,0.46715853,0.45381102,0.54145545,0.3179181,0.13069256,0.29999804,-0.1049799,-0.025374074,-0.21479204,-0.043676507,770.80585,788.93774,794.9817,773.6264,830.4396,0.00408935546875,-0.04486083984375,1.00390625,-0.680389404296875,11.05072021484375,-10.325469970703125,1,1.0,1.0,1.0,1.0,10.00
2024-10-11 20:19:20.351,0.37701407,0.9803564,0.99855065,0.0857143,0.3276406,0.7102533,0.39081702,0.0028691576,0.329396,0.25860554,0.46715853,0.45381102,0.54145545,0.3179181,0.13069256,0.29999804,-0.1049799,-0.025374074,-0.21479204,-0.043676507,763.95605,792.1612,796.1905,761.13556,583.44324,0.00408935546875,-0.04486083984375,1.00390625,-0.680389404296875,11.05072021484375,-10.325469970703125,1,1.0,1.0,1.0,1.0,10.00
2024-10-11 20:19:20.351,0.37701407,0.9803564,0.99855065,0.0857143,0.3276406,0.7102533,0.39081702,0.0028691576,0.329396,0.25860554,0.46715853,0.45381102,0.54145545,0.3179181,0.13069256,0.29999804,-0.1049799,-0.025374074,-0.21479204,-0.043676507,778.0586,785.7143,790.9524,778.0586,802.23444,0.00408935546875,-0.04486083984375,1.00390625,-0.680389404296875,11.05072021484375,-10.325469970703125,1,1.0,1.0,1.0,1.0,10.00
2024-10-11 20:19:20.352,0.37701407,0.9803564,0.99855065,0.0857143,0.3276406,0.7102533,0.39081702,0.0028691576,0.329396,0.25860554,0.46715853,0.45381102,0.54145545,0.3179181,0.13069256,0.29999804,-0.1049799,-0.025374074,-0.21479204,-0.043676507,777.6557,786.52014,788.93774,783.69965,979.5238,0.00408935546875,-0.04486083984375,1.00390625,-0.680389404296875,11.05072021484375,-10.325469970703125,1,1.0,1.0,1.0,1.0,10.00
2024-10-11 20:19:20.354,0.37701407,0.9803564,0.99855065,0.0857143,0.3276406,0.7102533,0.39081702,0.0028691576,0.329396,0.25860554,0.46715853,0.45381102,0.54145545,0.3179181,0.13069256,0.29999804,-0.1049799,-0.025374074,-0.21479204,-0.043676507,777.6557,801.4286,786.52014,780.07324,648.315,0.00408935546875,-0.04486083984375,1.00390625,-0.680389404296875,11.05072021484375,-10.325469970703125,1,1.0,1.0,1.0,1.0,10.00
2024-10-11 20:19:20.355,0.37701407,0.9803564,0.99855065,0.0857143,0.3276406,0.7102533,0.39081702,0.0028691576,0.329396,0.25860554,0.46715853,0.45381102,0.54145545,0.3179181,0.13069256,0.29999804,-0.1049799,-0.025374074,-0.21479204,-0.043676507,797.3993,795.38464,780.4762,788.1319,495.6044,0.00408935546875,-0.04486083984375,1.00390625,-0.680389404296875,11.05072021484375,-10.325469970703125,1,1.0,1.0,1.0,1.0,10.00
2024-10-11 20:19:20.417,0.37701407,0.9803564,0.99855065,0.0857143,0.3276406,0.7102533,0.39081702,0.0028691576,0.329396,0.25860554,0.46715853,0.45381102,0.54145545,0.3179181,0.13069256,0.29999804,-0.1049799,-0.025374074,-0.21479204,-0.043676507,798.20514,794.17584,785.7143,792.96704,807.0696,-0.02728271484375,-0.0487060546875,1.00421142578125,0.216827392578125,18.1536865234375,-6.86370849609375,1,1.0,1.0,1.0,1.0,10.00
2024-10-11 20:19:20.418,0.37701407,0.9803564,0.99855065,0.0857143,0.3276406,0.7102533,0.39081702,0.0028691576,0.329396,0.25860554,0.46715853,0.45381102,0.54145545,0.3179181,0.13069256,0.29999804,-0.1049799,-0.025374074,-0.21479204,-0.043676507,786.1172,776.8498,793.7729,793.36993,898.1319,-0.02728271484375,-0.0487060546875,1.00421142578125,0.216827392578125,18.1536865234375,-6.86370849609375,1,1.0,1.0,1.0,1.0,10.00
2024-10-11 20:19:20.419,0.37701407,0.9803564,0.99855065,0.0857143,0.3276406,0.7102533,0.39081702,0.0028691576,0.329396,0.25860554,0.46715853,0.45381102,0.54145545,0.3179181,0.13069256,0.29999804,-0.1049799,-0.025374074,-0.21479204,-0.043676507,778.86444,782.0879,789.34064,788.5348,637.03296,-0.02728271484375,-0.0487060546875,1.00421142578125,0.216827392578125,18.1536865234375,-6.86370849609375,1,1.0,1.0,1.0,1.0,10.00
2024-10-11 20:19:20.420,0.37701407,0.9803564,0.99855065,0.0857143,0.3276406,0.7102533,0.39081702,0.0028691576,0.329396,0.25860554,0.46715853,0.45381102,0.54145545,0.3179181,0.13069256,0.29999804,-0.1049799,-0.025374074,-0.21479204,-0.043676507,776.8498,796.5934,791.75824,788.93774,542.3443,-0.02728271484375,-0.0487060546875,1.00421142578125,0.216827392578125,18.1536865234375,-6.86370849609375,1,1.0,1.0,1.0,1.0,10.00
2024-10-11 20:19:20.422,0.37701407,0.9803564,0.99855065,0.0857143,0.3276406,0.7102533,0.39081702,0.0028691576,0.329396,0.25860554,0.46715853,0.45381102,0.54145545,0.3179181,0.13069256,0.29999804,-0.1049799,-0.025374074,-0.21479204,-0.043676507,784.5055,792.96704,803.44324,799.81683,702.3077,-0.02728271484375,-0.0487060546875,1.00421142578125,0.216827392578125,18.1536865234375,-6.86370849609375,1,1.0,1.0,1.0,1.0,10.00
2024-10-11 20:19:20.423,0.37701407,0.9803564,0.99855065,0.0857143,0.3276406,0.7102533,0.39081702,0.0028691576,0.329396,0.25860554,0.46715853,0.45381102,0.54145545,0.3179181,0.13069256,0.29999804,-0.1049799,-0.025374074,-0.21479204,-0.043676507,779.67035,796.99634,794.17584,800.6227,927.5458,-0.02728271484375,-0.0487060546875,1.00421142578125,0.216827392578125,18.1536865234375,-6.86370849609375,1,1.0,1.0,1.0,1.0,10.00
2024-10-11 20:19:20.424,0.37701407,0.9803564,0.99855065,0.0857143,0.3276406,0.7102533,0.39081702,0.0028691576,0.329396,0.25860554,0.46715853,0.45381102,0.54145545,0.3179181,0.13069256,0.29999804,-0.1049799,-0.025374074,-0.21479204,-0.043676507,778.0586,800.2198,789.7436,790.9524,845.34796,-0.02728271484375,-0.0487060546875,1.00421142578125,0.216827392578125,18.1536865234375,-6.86370849609375,1,1.0,1.0,1.0,1.0,10.00
2024-10-11 20:19:20.425,0.37701407,0.9803564,0.99855065,0.0857143,0.3276406,0.7102533,0.39081702,0.0028691576,0.329396,0.25860554,0.46715853,0.45381102,0.54145545,0.3179181,0.13069256,0.29999804,-0.1049799,-0.025374074,-0.21479204,-0.043676507,794.17584,801.8315,796.1905,794.17584,707.1429,-0.02728271484375,-0.0487060546875,1.00421142578125,0.216827392578125,18.1536865234375,-6.86370849609375,1,1.0,1.0,1.0,1.0,10.00
2024-10-11 20:19:20.425,0.37701407,0.9803564,0.99855065,0.0857143,0.3276406,0.7102533,0.39081702,0.0028691576,0.329396,0.25860554,0.46715853,0.45381102,0.54145545,0.3179181,0.13069256,0.29999804,-0.1049799,-0.025374074,-0.21479204,-0.043676507,792.96704,795.38464,798.20514,799.011,833.2601,-0.02728271484375,-0.0487060546875,1.00421142578125,0.216827392578125,18.1536865234375,-6.86370849609375,1,1.0,1.0,1.0,1.0,10.00
2024-10-11 20:19:20.427,0.37701407,0.9803564,0.99855065,0.0857143,0.3276406,0.7102533,0.39081702,0.0028691576,0.329396,0.25860554,0.46715853,0.45381102,0.54145545,0.3179181,0.13069256,0.29999804,-0.1049799,-0.025374074,-0.21479204,-0.043676507,790.54944,794.17584,799.41394,800.2198,949.707,-0.02728271484375,-0.0487060546875,1.00421142578125,0.216827392578125,18.1536865234375,-6.86370849609375,1,1.0,1.0,1.0,1.0,10.00
2024-10-11 20:19:20.428,0.37701407,0.9803564,0.99855065,0.0857143,0.3276406,0.7102533,0.39081702,0.0028691576,0.329396,0.25860554,0.46715853,0.45381102,0.54145545,0.3179181,0.13069256,0.29999804,-0.1049799,-0.025374074,-0.21479204,-0.043676507,783.2967,791.3553,793.36993,795.78754,855.42126,-0.02728271484375,-0.0487060546875,1.00421142578125,0.216827392578125,18.1536865234375,-6.86370849609375,1,1.0,1.0,1.0,1.0,10.00
2024-10-11 20:19:20.431,0.37701407,0.9803564,0.99855065,0.0857143,0.3276406,0.7102533,0.39081702,0.0028691576,0.329396,0.25860554,0.46715853,0.45381102,0.54145545,0.3179181,0.13069256,0.29999804,-0.1049799,-0.025374074,-0.21479204,-0.043676507,792.96704,781.28204,794.9817,794.57874,788.5348,-0.02728271484375,-0.0487060546875,1.00421142578125,0.216827392578125,18.1536865234375,-6.86370849609375,1,1.0,1.0,1.0,1.0,10.00
2024-10-11 20:19:20.458,0.37701407,0.9803564,0.99855065,0.0857143,0.3276406,0.7102533,0.39081702,0.0028691576,0.329396,0.25860554,0.46715853,0.45381102,0.54145545,0.3179181,0.13069256,0.29999804,-0.1049799,-0.025374074,-0.21479204,-0.043676507,796.5934,786.9231,794.17584,803.0403,1078.2417,-0.0513916015625,-0.047607421875,1.00433349609375,0.650482177734375,21.12945556640625,-3.641204833984375,1,1.0,1.0,1.0,1.0,10.00
2024-10-11 20:19:20.459,0.37701407,0.9948417,1.0033039,0.0857143,0.3276406,0.72806853,0.41925564,0.0028691576,0.329396,0.25860554,0.47017893,0.45381102,0.54145545,0.33543643,0.12553655,0.29999804,-0.1049799,-0.016625596,-0.21879542,-0.043676507,789.34064,791.75824,789.34064,801.4286,1109.6703,-0.0513916015625,-0.047607421875,1.00433349609375,0.650482177734375,21.12945556640625,-3.641204833984375,1,1.0,1.0,1.0,1.0,10.00
2024-10-11 20:19:20.464,0.37701407,0.9948417,1.0033039,0.0857143,0.3276406,0.72806853,0.41925564,0.0028691576,0.329396,0.25860554,0.47017893,0.45381102,0.54145545,0.33543643,0.12553655,0.29999804,-0.1049799,-0.016625596,-0.21879542,-0.043676507,805.4579,795.78754,790.14655,793.36993,806.6667,-0.0513916015625,-0.047607421875,1.00433349609375,0.650482177734375,21.12945556640625,-3.641204833984375,1,1.0,1.0,1.0,1.0,10.00
2024-10-11 20:19:20.465,0.37701407,0.9948417,1.0033039,0.0857143,0.3276406,0.72806853,0.41925564,0.0028691576,0.329396,0.25860554,0.47017893,0.45381102,0.54145545,0.33543643,0.12553655,0.29999804,-0.1049799,-0.016625596,-0.21879542,-0.043676507,802.6374,797.3993,797.3993,793.36993,781.28204,-0.0513916015625,-0.047607421875,1.00433349609375,0.650482177734375,21.12945556640625,-3.641204833984375,1,1.0,1.0,1.0,1.0,10.00
2024-10-11 20:19:20.465,0.37701407,0.9948417,1.0033039,0.0857143,0.3276406,0.72806853,0.41925564,0.0028691576,0.329396,0.25860554,0.47017893,0.45381102,0.54145545,0.33543643,0.12553655,0.29999804,-0.1049799,-0.016625596,-0.21879542,-0.043676507,792.96704,791.3553,803.0403,801.4286,804.65204,-0.0513916015625,-0.047607421875,1.00433349609375,0.650482177734375,21.12945556640625,-3.641204833984375,1,1.0,1.0,1.0,1.0,10.00
2024-10-11 20:19:20.466,0.37701407,0.9948417,1.0033039,0.0857143,0.3276406,0.72806853,0.41925564,0.0028691576,0.329396,0.25860554,0.47017893,0.45381102,0.54145545,0.33543643,0.12553655,0.29999804,-0.1049799,-0.016625596,-0.21879542,-0.043676507,799.011,794.57874,801.02563,801.8315,815.5311,-0.0513916015625,-0.047607421875,1.00433349609375,0.650482177734375,21.12945556640625,-3.641204833984375,1,1.0,1.0,1.0,1.0,10.00
2024-10-11 20:19:20.467,0.37701407,0.9948417,1.0033039,0.0857143,0.3276406,0.72806853,0.41925564,0.0028691576,0.329396,0.25860554,0.47017893,0.45381102,0.54145545,0.33543643,0.12553655,0.29999804,-0.1049799,-0.016625596,-0.21879542,-0.043676507,801.8315,801.02563,798.20514,801.02563,920.293,-0.0513916015625,-0.047607421875,1.00433349609375,0.650482177734375,21.12945556640625,-3.641204833984375,1,1.0,1.0,1.0,1.0,10.00
2024-10-11 20:19:20.468,0.37701407,0.9948417,1.0033039,0.0857143,0.3276406,0.72806853,0.41925564,0.0028691576,0.329396,0.25860554,0.47017893,0.45381102,0.54145545,0.33543643,0.12553655,0.29999804,-0.1049799,-0.016625596,-0.21879542,-0.043676507,803.44324,799.81683,797.3993,813.91943,977.50916,-0.0513916015625,-0.047607421875,1.00433349609375,0.650482177734375,21.12945556640625,-3.641204833984375,1,1.0,1.0,1.0,1.0,10.00
2024-10-11 20:19:20.468,0.37701407,0.9948417,1.0033039,0.0857143,0.3276406,0.72806853,0.41925564,0.0028691576,0.329396,0.25860554,0.47017893,0.45381102,0.54145545,0.33543643,0.12553655,0.29999804,-0.1049799,-0.016625596,-0.21879542,-0.043676507,804.2491,798.20514,799.41394,813.91943,902.1612,-0.0513916015625,-0.047607421875,1.00433349609375,0.650482177734375,21.12945556640625,-3.641204833984375,1,1.0,1.0,1.0,1.0,10.00
2024-10-11 20:19:20.469,0.37701407,0.9948417,1.0033039,0.0857143,0.3276406,0.72806853,0.41925564,0.0028691576,0.329396,0.25860554,0.47017893,0.45381102,0.54145545,0.33543643,0.12553655,0.29999804,-0.1049799,-0.016625596,-0.21879542,-0.043676507,806.6667,798.60803,806.6667,809.0842,859.45056,-0.0513916015625,-0.047607421875,1.00433349609375,0.650482177734375,21.12945556640625,-3.641204833984375,1,1.0,1.0,1.0,1.0,10.00
2024-10-11 20:19:20.470,0.37701407,0.9948417,1.0033039,0.0857143,0.3276406,0.72806853,0.41925564,0.0028691576,0.329396,0.25860554,0.47017893,0.45381102,0.54145545,0.33543643,0.12553655,0.29999804,-0.1049799,-0.016625596,-0.21879542,-0.043676507,810.293,800.6227,806.26373,814.3223,840.5128,-0.0513916015625,-0.047607421875,1.00433349609375,0.650482177734375,21.12945556640625,-3.641204833984375,1,1.0,1.0,1.0,1.0,10.00
2024-10-11 20:19:20.470,0.37701407,0.9948417,1.0033039,0.0857143,0.3276406,0.72806853,0.41925564,0.0028691576,0.329396,0.25860554,0.47017893,0.45381102,0.54145545,0.33543643,0.12553655,0.29999804,-0.1049799,-0.016625596,-0.21879542,-0.043676507,803.8461,797.8022,801.02563,818.7546,794.57874,-0.0513916015625,-0.047607421875,1.00433349609375,0.650482177734375,21.12945556640625,-3.641204833984375,1,1.0,1.0,1.0,1.0,10.00
2024-10-11 20:19:20.471,0.37701407,0.9948417,1.0033039,0.0857143,0.3276406,0.72806853,0.41925564,0.0028691576,0.329396,0.25860554,0.47017893,0.45381102,0.54145545,0.33543643,0.12553655,0.29999804,-0.1049799,-0.016625596,-0.21879542,-0.043676507,800.2198,794.57874,803.8461,819.5604,730.5128,-0.0885009765625,-0.04583740234375,1.00128173828125,1.188812255859375,19.731292724609375,-1.622467041015625,1,1.0,1.0,1.0,1.0,10.00
2024-10-11 20:19:20.472,0.37701407,0.9948417,1.0033039,0.0857143,0.3276406,0.72806853,0.41925564,0.0028691576,0.329396,0.25860554,0.47017893,0.45381102,0.54145545,0.33543643,0.12553655,0.29999804,-0.1049799,-0.016625596,-0.21879542,-0.043676507,805.05493,801.4286,802.6374,817.5458,677.326,-0.0885009765625,-0.04583740234375,1.00128173828125,1.188812255859375,19.731292724609375,-1.622467041015625,1,1.0,1.0,1.0,1.0,10.00
2024-10-11 20:19:20.473,0.37701407,0.9948417,1.0033039,0.0857143,0.3276406,0.72806853,0.41925564,0.0028691576,0.329396,0.25860554,0.47017893,0.45381102,0.54145545,0.33543643,0.12553655,0.29999804,-0.1049799,-0.016625596,-0.21879542,-0.043676507,801.4286,803.0403,804.2491,819.5604,731.7216,-0.0885009765625,-0.04583740234375,1.00128173828125,1.188812255859375,19.731292724609375,-1.622467041015625,1,1.0,1.0,1.0,1.0,10.00
2024-10-11 20:19:20.473,0.37701407,0.9948417,1.0033039,0.0857143,0.3276406,0.72806853,0.41925564,0.0028691576,0.329396,0.25860554,0.47017893,0.45381102,0.54145545,0.33543643,0.12553655,0.29999804,-0.1049799,-0.016625596,-0.21879542,-0.043676507,800.6227,798.60803,805.8608,824.7985,848.97437,-0.0885009765625,-0.04583740234375,1.00128173828125,1.188812255859375,19.731292724609375,-1.622467041015625,1,1.0,1.0,1.0,1.0,10.00
2024-10-11 20:19:20.474,0.37701407,0.9948417,1.0033039,0.0857143,0.3276406,0.72806853,0.41925564,0.0028691576,0.329396,0.25860554,0.47017893,0.45381102,0.54145545,0.33543643,0.12553655,0.29999804,-0.1049799,-0.016625596,-0.21879542,-0.043676507,802.23444,792.96704,801.4286,818.7546,781.28204,-0.0885009765625,-0.04583740234375,1.00128173828125,1.188812255859375,19.731292724609375,-1.622467041015625,1,1.0,1.0,1.0,1.0,10.00
2024-10-11 20:19:20.475,0.37701407,0.9948417,1.0033039,0.0857143,0.3276406,0.72806853,0.41925564,0.0028691576,0.329396,0.25860554,0.47017893,0.45381102,0.54145545,0.33543643,0.12553655,0.29999804,-0.1049799,-0.016625596,-0.21879542,-0.043676507,803.0403,785.31134,800.6227,812.3077,647.9121,-0.0885009765625,-0.04583740234375,1.00128173828125,1.188812255859375,19.731292724609375,-1.622467041015625,1,1.0,1.0,1.0,1.0,10.00
2024-10-11 20:19:20.475,0.37701407,0.9948417,1.0033039,0.0857143,0.3276406,0.72806853,0.41925564,0.0028691576,0.329396,0.25860554,0.47017893,0.45381102,0.54145545,0.33543643,0.12553655,0.29999804,-0.1049799,-0.016625596,-0.21879542,-0.043676507,803.8461,795.38464,801.4286,818.3516,657.1795,-0.0885009765625,-0.04583740234375,1.00128173828125,1.188812255859375,19.731292724609375,-1.622467041015625,1,1.0,1.0,1.0,1.0,10.00
2024-10-11 20:19:20.476,0.37701407,0.9948417,1.0033039,0.0857143,0.3276406,0.72806853,0.41925564,0.0028691576,0.329396,0.25860554,0.47017893,0.45381102,0.54145545,0.33543643,0.12553655,0.29999804,-0.1049799,-0.016625596,-0.21879542,-0.043676507,805.4579,800.6227,799.41394,821.1722,813.5165,-0.0885009765625,-0.04583740234375,1.00128173828125,1.188812255859375,19.731292724609375,-1.622467041015625,1,1.0,1.0,1.0,1.0,10.00
2024-10-11 20:19:20.477,0.37701407,0.9948417,1.0033039,0.0857143,0.3276406,0.72806853,0.41925564,0.0028691576,0.329396,0.25860554,0.47017893,0.45381102,0.54145545,0.33543643,0.12553655,0.29999804,-0.1049799,-0.016625596,-0.21879542,-0.043676507,814.7253,785.31134,796.99634,827.619,1203.5531,-0.0885009765625,-0.04583740234375,1.00128173828125,1.188812255859375,19.731292724609375,-1.622467041015625,1,1.0,1.0,1.0,1.0,10.00
2024-10-11 20:19:20.478,0.37701407,0.9948417,1.0033039,0.0857143,0.3276406,0.72806853,0.41925564,0.0028691576,0.329396,0.25860554,0.47017893,0.45381102,0.54145545,0.33543643,0.12553655,0.29999804,-0.1049799,-0.016625596,-0.21879542,-0.043676507,806.6667,792.1612,809.0842,820.3663,936.0073,-0.0885009765625,-0.04583740234375,1.00128173828125,1.188812255859375,19.731292724609375,-1.622467041015625,1,1.0,1.0,1.0,1.0,10.00
2024-10-11 20:19:20.478,0.37701407,0.9948417,1.0033039,0.0857143,0.3276406,0.72806853,0.41925564,0.0028691576,0.329396,0.25860554,0.47017893,0.45381102,0.54145545,0.33543643,0.12553655,0.29999804,-0.1049799,-0.016625596,-0.21879542,-0.043676507,790.54944,799.011,809.0842,812.3077,632.6007,-0.0885009765625,-0.04583740234375,1.00128173828125,1.188812255859375,19.731292724609375,-1.622467041015625,1,1.0,1.0,1.0,1.0,10.00
2024-10-11 20:19:20.479,0.37701407,0.9948417,1.0033039,0.0857143,0.3276406,0.72806853,0.41925564,0.0028691576,0.329396,0.25860554,0.47017893,0.45381102,0.54145545,0.33543643,0.12553655,0.29999804,-0.1049799,-0.016625596,-0.21879542,-0.043676507,791.3553,800.6227,798.60803,816.337,806.26373,-0.0885009765625,-0.04583740234375,1.00128173828125,1.188812255859375,19.731292724609375,-1.622467041015625,1,1.0,1.0,1.0,1.0,10.00
2024-10-11 20:19:20.535,0.37701407,0.9948417,1.0033039,0.0857143,0.3276406,0.72806853,0.41925564,0.0028691576,0.329396,0.25860554,0.47017893,0.45381102,0.54145545,0.33543643,0.12553655,0.29999804,-0.1049799,-0.016625596,-0.21879542,-0.043676507,795.78754,802.23444,794.17584,812.71063,803.44324,-0.11663818359375,-0.037353515625,0.99468994140625,3.1103515625,19.06585693359375,-0.179443359375,1,1.0,1.0,1.0,1.0,10.00
2024-10-11 20:19:20.536,0.37701407,0.9948417,1.0033039,0.0857143,0.3276406,0.72806853,0.41925564,0.0028691576,0.329396,0.25860554,0.47017893,0.45381102,0.54145545,0.33543643,0.12553655,0.29999804,-0.1049799,-0.016625596,-0.21879542,-0.043676507,800.2198,802.23444,790.54944,807.0696,575.78754,-0.11663818359375,-0.037353515625,0.99468994140625,3.1103515625,19.06585693359375,-0.179443359375,1,1.0,1.0,1.0,1.0,10.00
2024-10-11 20:19:20.537,0.37701407,0.9948417,1.0033039,0.0857143,0.3276406,0.72806853,0.41925564,0.0028691576,0.329396,0.25860554,0.47017893,0.45381102,0.54145545,0.33543643,0.12553655,0.29999804,-0.1049799,-0.016625596,-0.21879542,-0.043676507,797.8022,799.41394,796.1905,809.89014,675.7143,-0.11663818359375,-0.037353515625,0.99468994140625,3.1103515625,19.06585693359375,-0.179443359375,1,1.0,1.0,1.0,1.0,10.00
2024-10-11 20:19:20.538,0.37701407,1.0004109,1.0049036,0.0857143,0.3276406,0.7341187,0.4505892,0.0028691576,0.329396,0.25860554,0.46834704,0.45381102,0.54145545,0.35085842,0.113209195,0.29999804,-0.1049799,-0.0018313241,-0.22630613,-0.043676507,798.60803,793.7729,800.2198,814.3223,865.89746,-0.11663818359375,-0.037353515625,0.99468994140625,3.1103515625,19.06585693359375,-0.179443359375,1,1.0,1.0,1.0,1.0,10.00
2024-10-11 20:19:20.543,0.37701407,1.0004109,1.0049036,0.0857143,0.3276406,0.7341187,0.4505892,0.0028691576,0.329396,0.25860554,0.46834704,0.45381102,0.54145545,0.35085842,0.113209195,0.29999804,-0.1049799,-0.0018313241,-0.22630613,-0.043676507,802.6374,791.3553,805.05493,811.50183,697.47253,-0.11663818359375,-0.037353515625,0.99468994140625,3.1103515625,19.06585693359375,-0.179443359375,1,1.0,1.0,1.0,1.0,10.00
2024-10-11 20:19:20.544,0.37701407,1.0004109,1.0049036,0.0857143,0.3276406,0.7341187,0.4505892,0.0028691576,0.329396,0.25860554,0.46834704,0.45381102,0.54145545,0.35085842,0.113209195,0.29999804,-0.1049799,-0.0018313241,-0.22630613,-0.043676507,808.68134,792.96704,798.60803,812.3077,603.9927,-0.11663818359375,-0.037353515625,0.99468994140625,3.1103515625,19.06585693359375,-0.179443359375,1,1.0,1.0,1.0,1.0,10.00
2024-10-11 20:19:20.545,0.37701407,1.0004109,1.0049036,0.0857143,0.3276406,0.7341187,0.4505892,0.0028691576,0.329396,0.25860554,0.46834704,0.45381102,0.54145545,0.35085842,0.113209195,0.29999804,-0.1049799,-0.0018313241,-0.22630613,-0.043676507,805.4579,792.96704,791.3553,813.1135,801.8315,-0.11663818359375,-0.037353515625,0.99468994140625,3.1103515625,19.06585693359375,-0.179443359375,1,1.0,1.0,1.0,1.0,10.00
2024-10-11 20:19:20.545,0.37701407,1.0004109,1.0049036,0.0857143,0.3276406,0.7341187,0.4505892,0.0028691576,0.329396,0.25860554,0.46834704,0.45381102,0.54145545,0.35085842,0.113209195,0.29999804,-0.1049799,-0.0018313241,-0.22630613,-0.043676507,806.6667,785.31134,801.4286,831.2454,1052.8572,-0.11663818359375,-0.037353515625,0.99468994140625,3.1103515625,19.06585693359375,-0.179443359375,1,1.0,1.0,1.0,1.0,10.00
2024-10-11 20:19:20.546,0.37701407,1.0004109,1.0049036,0.0857143,0.3276406,0.7341187,0.4505892,0.0028691576,0.329396,0.25860554,0.46834704,0.45381102,0.54145545,0.35085842,0.113209195,0.29999804,-0.1049799,-0.0018313241,-0.22630613,-0.043676507,813.91943,791.75824,799.81683,828.4249,813.91943,-0.11663818359375,-0.037353515625,0.99468994140625,3.1103515625,19.06585693359375,-0.179443359375,1,1.0,1.0,1.0,1.0,10.00
2024-10-11 20:19:20.547,0.37701407,1.0004109,1.0049036,0.0857143,0.3276406,0.7341187,0.4505892,0.0028691576,0.329396,0.25860554,0.46834704,0.45381102,0.54145545,0.35085842,0.113209195,0.29999804,-0.1049799,-0.0018313241,-0.22630613,-0.043676507,792.96704,805.8608,792.96704,790.54944,619.304,-0.11663818359375,-0.037353515625,0.99468994140625,3.1103515625,19.06585693359375,-0.179443359375,1,1.0,1.0,1.0,1.0,10.00
2024-10-11 20:19:20.548,0.37701407,1.0004109,1.0049036,0.0857143,0.3276406,0.7341187,0.4505892,0.0028691576,0.329396,0.25860554,0.46834704,0.45381102,0.54145545,0.35085842,0.113209195,0.29999804,-0.1049799,-0.0018313241,-0.22630613,-0.043676507,786.52014,805.8608,789.34064,788.93774,667.25275,-0.11663818359375,-0.037353515625,0.99468994140625,3.1103515625,19.06585693359375,-0.179443359375,1,1.0,1.0,1.0,1.0,10.00
2024-10-11 20:19:20.548,0.37701407,1.0004109,1.0049036,0.0857143,0.3276406,0.7341187,0.4505892,0.0028691576,0.329396,0.25860554,0.46834704,0.45381102,0.54145545,0.35085842,0.113209195,0.29999804,-0.1049799,-0.0018313241,-0.22630613,-0.043676507,795.78754,804.65204,792.96704,797.8022,724.87177,-0.11663818359375,-0.037353515625,0.99468994140625,3.1103515625,19.06585693359375,-0.179443359375,1,1.0,1.0,1.0,1.0,10.00
2024-10-11 20:19:20.619,0.37701407,1.0004109,1.0049036,0.0857143,0.3276406,0.7341187,0.4505892,0.0028691576,0.329396,0.25860554,0.46834704,0.45381102,0.54145545,0.35085842,0.113209195,0.29999804,-0.1049799,-0.0018313241,-0.22630613,-0.043676507,801.8315,807.8755,790.54944,793.36993,759.12085,-0.11663818359375,-0.037353515625,0.99468994140625,3.1103515625,19.06585693359375,-0.179443359375,1,1.0,1.0,1.0,1.0,10.00
2024-10-11 20:19:20.620,0.37701407,1.0004109,1.0049036,0.0857143,0.3276406,0.7341187,0.4505892,0.0028691576,0.329396,0.25860554,0.46834704,0.45381102,0.54145545,0.35085842,0.113209195,0.29999804,-0.1049799,-0.0018313241,-0.22630613,-0.043676507,801.4286,802.23444,787.72894,792.1612,667.6557,-0.11663818359375,-0.037353515625,0.99468994140625,3.1103515625,19.06585693359375,-0.179443359375,1,1.0,1.0,1.0,1.0,10.00
2024-10-11 20:19:20.620,0.37701407,1.0004109,1.0049036,0.0857143,0.3276406,0.7341187,0.4505892,0.0028691576,0.329396,0.25860554,0.46834704,0.45381102,0.54145545,0.35085842,0.113209195,0.29999804,-0.1049799,-0.0018313241,-0.22630613,-0.043676507,794.17584,803.8461,791.75824,785.7143,603.9927,-0.11663818359375,-0.037353515625,0.99468994140625,3.1103515625,19.06585693359375,-0.179443359375,1,1.0,1.0,1.0,1.0,10.00
2024-10-11 20:19:20.621,0.37701407,1.0004109,1.0049036,0.0857143,0.3276406,0.7341187,0.4505892,0.0028691576,0.329396,0.25860554,0.46834704,0.45381102,0.54145545,0.35085842,0.113209195,0.29999804,-0.1049799,-0.0018313241,-0.22630613,-0.043676507,807.8755,809.4872,790.54944,797.3993,684.57874,-0.11663818359375,-0.037353515625,0.99468994140625,3.1103515625,19.06585693359375,-0.179443359375,1,1.0,1.0,1.0,1.0,10.00
2024-10-11 20:19:20.622,0.37701407,1.0004109,1.0049036,0.0857143,0.3276406,0.7341187,0.4505892,0.0028691576,0.329396,0.25860554,0.46834704,0.45381102,0.54145545,0.35085842,0.113209195,0.29999804,-0.1049799,-0.0018313241,-0.22630613,-0.043676507,805.4579,798.60803,790.14655,801.8315,746.63007,-0.11663818359375,-0.037353515625,0.99468994140625,3.1103515625,19.06585693359375,-0.179443359375,1,1.0,1.0,1.0,1.0,10.00
2024-10-11 20:19:20.622,0.37701407,1.0004109,1.0049036,0.0857143,0.3276406,0.7341187,0.4505892,0.0028691576,0.329396,0.25860554,0.46834704,0.45381102,0.54145545,0.35085842,0.113209195,0.29999804,-0.1049799,-0.0018313241,-0.22630613,-0.043676507,802.23444,799.41394,799.011,803.8461,740.989,-0.11663818359375,-0.037353515625,0.99468994140625,3.1103515625,19.06585693359375,-0.179443359375,1,1.0,1.0,1.0,1.0,10.00
2024-10-11 20:19:20.623,0.37701407,1.0004109,1.0049036,0.0857143,0.3276406,0.7341187,0.4505892,0.0028691576,0.329396,0.25860554,0.46834704,0.45381102,0.54145545,0.35085842,0.113209195,0.29999804,-0.1049799,-0.0018313241,-0.22630613,-0.043676507,803.44324,805.05493,803.0403,815.9341,1062.1245,-0.11663818359375,-0.037353515625,0.99468994140625,3.1103515625,19.06585693359375,-0.179443359375,1,1.0,1.0,1.0,1.0,10.00
2024-10-11 20:19:20.624,0.37701407,1.0004109,1.0049036,0.0857143,0.3276406,0.7341187,0.4505892,0.0028691576,0.329396,0.25860554,0.46834704,0.45381102,0.54145545,0.35085842,0.113209195,0.29999804,-0.1049799,-0.0018313241,-0.22630613,-0.043676507,799.011,800.6227,798.60803,814.3223,1086.3004,-0.11663818359375,-0.037353515625,0.99468994140625,3.1103515625,19.06585693359375,-0.179443359375,1,1.0,1.0,1.0,1.0,10.00
2024-10-11 20:19:20.624,0.37701407,1.0004109,1.0049036,0.0857143,0.3276406,0.7341187,0.4505892,0.0028691576,0.329396,0.25860554,0.46834704,0.45381102,0.54145545,0.35085842,0.113209195,0.29999804,-0.1049799,-0.0018313241,-0.22630613,-0.043676507,798.60803,805.8608,799.41394,805.8608,711.5751,-0.11663818359375,-0.037353515625,0.99468994140625,3.1103515625,19.06585693359375,-0.179443359375,1,1.0,1.0,1.0,1.0,10.00
2024-10-11 20:19:20.625,0.37701407,1.0004109,1.0049036,0.0857143,0.3276406,0.7341187,0.4505892,0.0028691576,0.329396,0.25860554,0.46834704,0.45381102,0.54145545,0.35085842,0.113209195,0.29999804,-0.1049799,-0.0018313241,-0.22630613,-0.043676507,801.02563,801.8315,806.6667,803.8461,665.64105,-0.11663818359375,-0.037353515625,0.99468994140625,3.1103515625,19.06585693359375,-0.179443359375,1,1.0,1.0,1.0,1.0,10.00
2024-10-11 20:19:20.625,0.37701407,1.0004109,1.0049036,0.0857143,0.3276406,0.7341187,0.4505892,0.0028691576,0.329396,0.25860554,0.46834704,0.45381102,0.54145545,0.35085842,0.113209195,0.29999804,-0.1049799,-0.0018313241,-0.22630613,-0.043676507,799.41394,785.7143,795.78754,809.89014,874.35895,-0.11663818359375,-0.037353515625,0.99468994140625,3.1103515625,19.06585693359375,-0.179443359375,1,1.0,1.0,1.0,1.0,10.00
2024-10-11 20:19:20.626,0.37701407,1.0004109,1.0049036,0.0857143,0.3276406,0.7341187,0.4505892,0.0028691576,0.329396,0.25860554,0.46834704,0.45381102,0.54145545,0.35085842,0.113209195,0.29999804,-0.1049799,-0.0018313241,-0.22630613,-0.043676507,789.34064,788.5348,786.9231,805.8608,898.1319,-0.11663818359375,-0.037353515625,0.99468994140625,3.1103515625,19.06585693359375,-0.179443359375,1,1.0,1.0,1.0,1.0,10.00
2024-10-11 20:19:20.654,0.37701407,1.0004109,1.0049036,0.0857143,0.3276406,0.7341187,0.4505892,0.0028691576,0.329396,0.25860554,0.46834704,0.45381102,0.54145545,0.35085842,0.113209195,0.29999804,-0.1049799,-0.0018313241,-0.22630613,-0.043676507,792.5641,800.2198,791.3553,799.011,622.52747,-0.13323974609375,-0.0318603515625,0.99072265625,3.22998046875,16.277008056640625,0.19439697265625,1,1.0,1.0,1.0,1.0,10.00
2024-10-11 20:19:20.655,0.37701407,1.0004109,1.0049036,0.0857143,0.3276406,0.7341187,0.4505892,0.0028691576,0.329396,0.25860554,0.46834704,0.45381102,0.54145545,0.35085842,0.113209195,0.29999804,-0.1049799,-0.0018313241,-0.22630613,-0.043676507,794.9817,801.8315,791.75824,799.41394,676.52014,-0.13323974609375,-0.0318603515625,0.99072265625,3.22998046875,16.277008056640625,0.19439697265625,1,1.0,1.0,1.0,1.0,10.00
2024-10-11 20:19:20.656,0.37701407,1.0004109,1.0049036,0.0857143,0.3276406,0.7341187,0.4505892,0.0028691576,0.329396,0.25860554,0.46834704,0.45381102,0.54145545,0.35085842,0.113209195,0.29999804,-0.1049799,-0.0018313241,-0.22630613,-0.043676507,796.5934,798.60803,791.75824,798.60803,689.81683,-0.13323974609375,-0.0318603515625,0.99072265625,3.22998046875,16.277008056640625,0.19439697265625,1,1.0,1.0,1.0,1.0,10.00
2024-10-11 20:19:20.657,0.37701407,1.0004109,1.0049036,0.0857143,0.3276406,0.7341187,0.4505892,0.0028691576,0.329396,0.25860554,0.46834704,0.45381102,0.54145545,0.35085842,0.113209195,0.29999804,-0.1049799,-0.0018313241,-0.22630613,-0.043676507,806.6667,797.3993,790.54944,801.4286,571.3553,-0.13323974609375,-0.0318603515625,0.99072265625,3.22998046875,16.277008056640625,0.19439697265625,1,1.0,1.0,1.0,1.0,10.00
2024-10-11 20:19:20.658,0.37701407,1.0004109,1.0049036,0.0857143,0.3276406,0.7341187,0.4505892,0.0028691576,0.329396,0.25860554,0.46834704,0.45381102,0.54145545,0.35085842,0.113209195,0.29999804,-0.1049799,-0.0018313241,-0.22630613,-0.043676507,802.6374,798.20514,789.34064,807.47253,540.32965,-0.13323974609375,-0.0318603515625,0.99072265625,3.22998046875,16.277008056640625,0.19439697265625,1,1.0,1.0,1.0,1.0,10.00
2024-10-11 20:19:20.658,0.37701407,0.99901414,1.0043042,0.0857143,0.3276406,0.734672,0.48743904,0.0028691576,0.329396,0.2557208,0.46119323,0.45381102,0.54145545,0.36065626,0.09637482,0.29999804,-0.1049799,0.014343318,-0.22931421,-0.043676507,798.20514,793.7729,792.96704,811.50183,741.39197,-0.13323974609375,-0.0318603515625,0.99072265625,3.22998046875,16.277008056640625,0.19439697265625,1,1.0,1.0,1.0,1.0,10.00
2024-10-11 20:19:20.664,0.37701407,0.99901414,1.0043042,0.0857143,0.3276406,0.734672,0.48743904,0.0028691576,0.329396,0.2557208,0.46119323,0.45381102,0.54145545,0.36065626,0.09637482,0.29999804,-0.1049799,0.014343318,-0.22931421,-0.043676507,799.011,792.96704,794.9817,804.2491,947.6923,-0.13323974609375,-0.0318603515625,0.99072265625,3.22998046875,16.277008056640625,0.19439697265625,1,1.0,1.0,1.0,1.0,10.00
2024-10-11 20:19:20.665,0.37701407,0.99901414,1.0043042,0.0857143,0.3276406,0.734672,0.48743904,0.0028691576,0.329396,0.2557208,0.46119323,0.45381102,0.54145545,0.36065626,0.09637482,0.29999804,-0.1049799,0.014343318,-0.22931421,-0.043676507,798.20514,800.2198,799.81683,798.60803,651.13556,-0.13323974609375,-0.0318603515625,0.99072265625,3.22998046875,16.277008056640625,0.19439697265625,1,1.0,1.0,1.0,1.0,10.00
2024-10-11 20:19:20.665,0.37701407,0.99901414,1.0043042,0.0857143,0.3276406,0.734672,0.48743904,0.0028691576,0.329396,0.2557208,0.46119323,0.45381102,0.54145545,0.36065626,0.09637482,0.29999804,-0.1049799,0.014343318,-0.22931421,-0.043676507,792.96704,802.23444,797.3993,794.9817,452.08792,-0.13323974609375,-0.0318603515625,0.99072265625,3.22998046875,16.277008056640625,0.19439697265625,1,1.0,1.0,1.0,1.0,10.00
2024-10-11 20:19:20.666,0.37701407,0.99901414,1.0043042,0.0857143,0.3276406,0.734672,0.48743904,0.0028691576,0.329396,0.2557208,0.46119323,0.45381102,0.54145545,0.36065626,0.09637482,0.29999804,-0.1049799,0.014343318,-0.22931421,-0.043676507,788.1319,796.99634,798.60803,792.96704,590.696,-0.13323974609375,-0.0318603515625,0.99072265625,3.22998046875,16.277008056640625,0.19439697265625,1,1.0,1.0,1.0,1.0,10.00
2024-10-11 20:19:20.667,0.37701407,0.99901414,1.0043042,0.0857143,0.3276406,0.734672,0.48743904,0.0028691576,0.329396,0.2557208,0.46119323,0.45381102,0.54145545,0.36065626,0.09637482,0.29999804,-0.1049799,0.014343318,-0.22931421,-0.043676507,787.326,791.3553,802.23444,798.20514,654.7619,-0.13323974609375,-0.0318603515625,0.99072265625,3.22998046875,16.277008056640625,0.19439697265625,1,1.0,1.0,1.0,1.0,10.00
2024-10-11 20:19:20.668,0.37701407,0.99901414,1.0043042,0.0857143,0.3276406,0.734672,0.48743904,0.0028691576,0.329396,0.2557208,0.46119323,0.45381102,0.54145545,0.36065626,0.09637482,0.29999804,-0.1049799,0.014343318,-0.22931421,-0.043676507,781.685,788.1319,799.011,799.81683,527.4359,-0.13323974609375,-0.0318603515625,0.99072265625,3.22998046875,16.277008056640625,0.19439697265625,1,1.0,1.0,1.0,1.0,10.00
2024-10-11 20:19:20.669,0.37701407,0.99901414,1.0043042,0.0857143,0.3276406,0.734672,0.48743904,0.0028691576,0.329396,0.2557208,0.46119323,0.45381102,0.54145545,0.36065626,0.09637482,0.29999804,-0.1049799,0.014343318,-0.22931421,-0.043676507,782.0879,793.7729,790.9524,799.81683,488.75458,-0.15069580078125,-0.02801513671875,0.996826171875,2.863616943359375,14.0264892578125,2.564544677734375,1,1.0,1.0,1.0,1.0,10.00
2024-10-11 20:19:20.669,0.37701407,0.99901414,1.0043042,0.0857143,0.3276406,0.734672,0.48743904,0.0028691576,0.329396,0.2557208,0.46119323,0.45381102,0.54145545,0.36065626,0.09637482,0.29999804,-0.1049799,0.014343318,-0.22931421,-0.043676507,794.9817,790.14655,796.5934,803.44324,713.1868,-0.15069580078125,-0.02801513671875,0.996826171875,2.863616943359375,14.0264892578125,2.564544677734375,1,1.0,1.0,1.0,1.0,10.00
2024-10-11 20:19:20.670,0.37701407,0.99901414,1.0043042,0.0857143,0.3276406,0.734672,0.48743904,0.0028691576,0.329396,0.2557208,0.46119323,0.45381102,0.54145545,0.36065626,0.09637482,0.29999804,-0.1049799,0.014343318,-0.22931421,-0.043676507,798.60803,776.4469,801.4286,804.2491,752.674,-0.15069580078125,-0.02801513671875,0.996826171875,2.863616943359375,14.0264892578125,2.564544677734375,1,1.0,1.0,1.0,1.0,10.00
2024-10-11 20:19:20.671,0.37701407,0.99901414,1.0043042,0.0857143,0.3276406,0.734672,0.48743904,0.0028691576,0.329396,0.2557208,0.46119323,0.45381102,0.54145545,0.36065626,0.09637482,0.29999804,-0.1049799,0.014343318,-0.22931421,-0.043676507,799.41394,795.38464,799.011,802.6374,529.85345,-0.15069580078125,-0.02801513671875,0.996826171875,2.863616943359375,14.0264892578125,2.564544677734375,1,1.0,1.0,1.0,1.0,10.00
2024-10-11 20:19:20.671,0.37701407,0.99901414,1.0043042,0.0857143,0.3276406,0.734672,0.48743904,0.0028691576,0.329396,0.2557208,0.46119323,0.45381102,0.54145545,0.36065626,0.09637482,0.29999804,-0.1049799,0.014343318,-0.22931421,-0.043676507,798.20514,808.2784,794.17584,801.4286,510.91574,-0.15069580078125,-0.02801513671875,0.996826171875,2.863616943359375,14.0264892578125,2.564544677734375,1,1.0,1.0,1.0,1.0,10.00
2024-10-11 20:19:20.672,0.37701407,0.99901414,1.0043042,0.0857143,0.3276406,0.734672,0.48743904,0.0028691576,0.329396,0.2557208,0.46119323,0.45381102,0.54145545,0.36065626,0.09637482,0.29999804,-0.1049799,0.014343318,-0.22931421,-0.043676507,801.4286,795.78754,798.20514,805.4579,858.24176,-0.15069580078125,-0.02801513671875,0.996826171875,2.863616943359375,14.0264892578125,2.564544677734375,1,1.0,1.0,1.0,1.0,10.00
2024-10-11 20:19:20.673,0.37701407,0.99901414,1.0043042,0.0857143,0.3276406,0.734672,0.48743904,0.0028691576,0.329396,0.2557208,0.46119323,0.45381102,0.54145545,0.36065626,0.09637482,0.29999804,-0.1049799,0.014343318,-0.22931421,-0.043676507,799.011,796.1905,803.0403,811.9048,982.3443,-0.15069580078125,-0.02801513671875,0.996826171875,2.863616943359375,14.0264892578125,2.564544677734375,1,1.0,1.0,1.0,1.0,10.00
2024-10-11 20:19:20.673,0.37701407,0.99901414,1.0043042,0.0857143,0.3276406,0.734672,0.48743904,0.0028691576,0.329396,0.2557208,0.46119323,0.45381102,0.54145545,0.36065626,0.09637482,0.29999804,-0.1049799,0.014343318,-0.22931421,-0.043676507,786.9231,796.99634,801.4286,809.0842,694.2491,-0.15069580078125,-0.02801513671875,0.996826171875,2.863616943359375,14.0264892578125,2.564544677734375,1,1.0,1.0,1.0,1.0,10.00
2024-10-11 20:19:20.674,0.37701407,0.99901414,1.0043042,0.0857143,0.3276406,0.734672,0.48743904,0.0028691576,0.329396,0.2557208,0.46119323,0.45381102,0.54145545,0.36065626,0.09637482,0.29999804,-0.1049799,0.014343318,-0.22931421,-0.043676507,782.8938,796.99634,803.44324,801.8315,666.8498,-0.15069580078125,-0.02801513671875,0.996826171875,2.863616943359375,14.0264892578125,2.564544677734375,1,1.0,1.0,1.0,1.0,10.00
2024-10-11 20:19:20.675,0.37701407,0.99901414,1.0043042,0.0857143,0.3276406,0.734672,0.48743904,0.0028691576,0.329396,0.2557208,0.46119323,0.45381102,0.54145545,0.36065626,0.09637482,0.29999804,-0.1049799,0.014343318,-0.22931421,-0.043676507,791.3553,798.20514,796.1905,807.47253,906.99634,-0.15069580078125,-0.02801513671875,0.996826171875,2.863616943359375,14.0264892578125,2.564544677734375,1,1.0,1.0,1.0,1.0,10.00
2024-10-11 20:19:20.675,0.37701407,0.99901414,1.0043042,0.0857143,0.3276406,0.734672,0.48743904,0.0028691576,0.329396,0.2557208,0.46119323,0.45381102,0.54145545,0.36065626,0.09637482,0.29999804,-0.1049799,0.014343318,-0.22931421,-0.043676507,790.54944,792.96704,792.96704,805.8608,861.8681,-0.15069580078125,-0.02801513671875,0.996826171875,2.863616943359375,14.0264892578125,2.564544677734375,1,1.0,1.0,1.0,1.0,10.00
2024-10-11 20:19:20.676,0.37701407,0.99901414,1.0043042,0.0857143,0.3276406,0.734672,0.48743904,0.0028691576,0.329396,0.2557208,0.46119323,0.45381102,0.54145545,0.36065626,0.09637482,0.29999804,-0.1049799,0.014343318,-0.22931421,-0.043676507,794.57874,800.2198,794.9817,800.6227,643.47986,-0.15069580078125,-0.02801513671875,0.996826171875,2.863616943359375,14.0264892578125,2.564544677734375,1,1.0,1.0,1.0,1.0,10.00
2024-10-11 20:19:20.705,0.37701407,0.99901414,1.0043042,0.0857143,0.3276406,0.734672,0.48743904,0.0028691576,0.329396,0.2557208,0.46119323,0.45381102,0.54145545,0.36065626,0.09637482,0.29999804,-0.1049799,0.014343318,-0.22931421,-0.043676507,801.4286,800.6227,796.5934,797.8022,562.49084,-0.16253662109375,-0.02020263671875,0.9959716796875,2.6617431640625,13.660125732421875,6.602020263671875,1,1.0,1.0,1.0,1.0,10.00
2024-10-11 20:19:20.706,0.37701407,0.99901414,1.0043042,0.0857143,0.3276406,0.734672,0.48743904,0.0028691576,0.329396,0.2557208,0.46119323,0.45381102,0.54145545,0.36065626,0.09637482,0.29999804,-0.1049799,0.014343318,-0.22931421,-0.043676507,790.9524,792.1612,795.38464,794.17584,1039.5604,-0.16253662109375,-0.02020263671875,0.9959716796875,2.6617431640625,13.660125732421875,6.602020263671875,1,1.0,1.0,1.0,1.0,10.00
2024-10-11 20:19:20.706,0.37701407,0.99901414,1.0043042,0.0857143,0.3276406,0.734672,0.48743904,0.0028691576,0.329396,0.2557208,0.46119323,0.45381102,0.54145545,0.36065626,0.09637482,0.29999804,-0.1049799,0.014343318,-0.22931421,-0.043676507,792.96704,796.5934,794.57874,798.60803,1172.1245,-0.16253662109375,-0.02020263671875,0.9959716796875,2.6617431640625,13.660125732421875,6.602020263671875,1,1.0,1.0,1.0,1.0,10.00
2024-10-11 20:19:20.707,0.37701407,0.99901414,1.0043042,0.0857143,0.3276406,0.734672,0.48743904,0.0028691576,0.329396,0.2557208,0.46119323,0.45381102,0.54145545,0.36065626,0.09637482,0.29999804,-0.1049799,0.014343318,-0.22931421,-0.043676507,796.1905,791.75824,798.20514,792.1612,667.6557,-0.16253662109375,-0.02020263671875,0.9959716796875,2.6617431640625,13.660125732421875,6.602020263671875,1,1.0,1.0,1.0,1.0,10.00
2024-10-11 20:19:20.708,0.37701407,0.99901414,1.0043042,0.0857143,0.3276406,0.734672,0.48743904,0.0028691576,0.329396,0.2557208,0.46119323,0.45381102,0.54145545,0.36065626,0.09637482,0.29999804,-0.1049799,0.014343318,-0.22931421,-0.043676507,792.5641,787.72894,795.78754,791.3553,662.4176,-0.16253662109375,-0.02020263671875,0.9959716796875,2.6617431640625,13.660125732421875,6.602020263671875,1,1.0,1.0,1.0,1.0,10.00
2024-10-11 20:19:20.708,0.37701407,0.99901414,1.0043042,0.0857143,0.3276406,0.734672,0.48743904,0.0028691576,0.329396,0.2557208,0.46119323,0.45381102,0.54145545,0.36065626,0.09637482,0.29999804,-0.1049799,0.014343318,-0.22931421,-0.043676507,796.5934,801.02563,788.5348,795.78754,845.34796,-0.16253662109375,-0.02020263671875,0.9959716796875,2.6617431640625,13.660125732421875,6.602020263671875,1,1.0,1.0,1.0,1.0,10.00
2024-10-11 20:19:20.709,0.37701407,0.99901414,1.0043042,0.0857143,0.3276406,0.734672,0.48743904,0.0028691576,0.329396,0.2557208,0.46119323,0.45381102,0.54145545,0.36065626,0.09637482,0.29999804,-0.1049799,0.014343318,-0.22931421,-0.043676507,795.78754,801.4286,792.96704,786.1172,875.16486,-0.16253662109375,-0.02020263671875,0.9959716796875,2.6617431640625,13.660125732421875,6.602020263671875,1,1.0,1.0,1.0,1.0,10.00
2024-10-11 20:19:20.710,0.37701407,0.98639596,0.9962662,0.0857143,0.3276406,0.72995174,0.5240982,0.0028691576,0.329396,0.25219777,0.4641036,0.45381102,0.54145545,0.3647309,0.08124275,0.29999804,-0.1049799,0.021698808,-0.22253649,-0.043676507,790.14655,798.60803,787.72894,775.64105,687.8022,-0.16253662109375,-0.02020263671875,0.9959716796875,2.6617431640625,13.660125732421875,6.602020263671875,1,1.0,1.0,1.0,1.0,10.00
