TimeStamp,Delta_TP9,Delta_AF7,Delta_AF8,Delta_TP10,Theta_TP9,Theta_AF7,Theta_AF8,Theta_TP10,Alpha_TP9,Alpha_AF7,Alpha_AF8,Alpha_TP10,Beta_TP9,Beta_AF7,Beta_AF8,Beta_TP10,Gamma_TP9,Gamma_AF7,Gamma_AF8,Gamma_TP10,RAW_TP9,RAW_AF7,RAW_AF8,RAW_TP10,AUX_RIGHT,Accelerometer_X,Accelerometer_Y,Accelerometer_Z,Gyro_X,Gyro_Y,Gyro_Z,HeadBandOn,HSI_TP9,HSI_AF7,HSI_AF8,HSI_TP10,Battery,Elements
2024-10-11 20:48:41.046,1.115426,1.025348,0.44599092,0.08408228,0.7290176,0.31219545,-0.1770154,0.24096557,0.88819087,0.33648565,-0.05246853,0.8781362,0.52130055,-0.06724492,0.44991824,0.49832776,0.17416565,-0.5839629,0.32854402,0.17027378,801.8315,799.81683,809.0842,803.8461,525.82416,-0.00958251953125,0.0877685546875,1.00469970703125,-1.786956787109375,-0.276641845703125,3.6187744140625,1,2.0,1.0,1.0,2.0,10.00
2024-10-11 20:48:41.048,1.115426,1.025348,0.44599092,0.08408228,0.7290176,0.31219545,-0.1770154,0.24096557,0.88819087,0.33648565,-0.05246853,0.8781362,0.52130055,-0.06724492,0.44991824,0.49832776,0.17416565,-0.5839629,0.32854402,0.17027378,805.05493,798.60803,797.8022,801.4286,614.4689,-0.00958251953125,0.0877685546875,1.00469970703125,-1.786956787109375,-0.276641845703125,3.6187744140625,1,2.0,1.0,1.0,2.0,10.00
2024-10-11 20:48:41.050,1.115426,1.025348,0.44599092,0.08408228,0.7290176,0.31219545,-0.1770154,0.24096557,0.88819087,0.33648565,-0.05246853,0.8781362,0.52130055,-0.06724492,0.44991824,0.49832776,0.17416565,-0.5839629,0.32854402,0.17027378,799.011,797.8022,782.49084,793.36993,642.674,-0.00958251953125,0.0877685546875,1.00469970703125,-1.786956787109375,-0.276641845703125,3.6187744140625,1,2.0,1.0,1.0,2.0,10.00
2024-10-11 20:48:41.052,1.115426,1.025348,0.44599092,0.08408228,0.7290176,0.31219545,-0.1770154,0.24096557,0.88819087,0.33648565,-0.05246853,0.8781362,0.52130055,-0.06724492,0.44991824,0.49832776,0.17416565,-0.5839629,0.32854402,0.17027378,802.6374,796.1905,788.5348,794.9817,515.7509,-0.00958251953125,0.0877685546875,1.00469970703125,-1.786956787109375,-0.276641845703125,3.6187744140625,1,2.0,1.0,1.0,2.0,10.00
2024-10-11 20:48:41.053,1.115426,1.025348,0.44599092,0.08408228,0.7290176,0.31219545,-0.1770154,0.24096557,0.88819087,0.33648565,-0.05246853,0.8781362,0.52130055,-0.06724492,0.44991824,0.49832776,0.17416565,-0.5839629,0.32854402,0.17027378,810.293,794.9817,795.78754,798.20514,669.67035,-0.00958251953125,0.0877685546875,1.00469970703125,-1.786956787109375,-0.276641845703125,3.6187744140625,1,2.0,1.0,1.0,2.0,10.00
2024-10-11 20:48:41.054,1.115426,1.025348,0.44599092,0.08408228,0.7290176,0.31219545,-0.1770154,0.24096557,0.88819087,0.33648565,-0.05246853,0.8781362,0.52130055,-0.06724492,0.44991824,0.49832776,0.17416565,-0.5839629,0.32854402,0.17027378,798.60803,796.5934,792.96704,795.78754,992.4176,-0.00958251953125,0.0877685546875,1.00469970703125,-1.786956787109375,-0.276641845703125,3.6187744140625,1,2.0,1.0,1.0,2.0,10.00
2024-10-11 20:48:41.055,1.115426,1.025348,0.44599092,0.08408228,0.7290176,0.31219545,-0.1770154,0.24096557,0.88819087,0.33648565,-0.05246853,0.8781362,0.52130055,-0.06724492,0.44991824,0.49832776,0.17416565,-0.5839629,0.32854402,0.17027378,794.17584,799.41394,804.2491,788.1319,792.5641,-0.00958251953125,0.0877685546875,1.00469970703125,-1.786956787109375,-0.276641845703125,3.6187744140625,1,2.0,1.0,1.0,2.0,10.00
2024-10-11 20:48:41.056,1.115426,1.025348,0.44599092,0.08408228,0.7290176,0.31219545,-0.1770154,0.24096557,0.88819087,0.33648565,-0.05246853,0.8781362,0.52130055,-0.06724492,0.44991824,0.49832776,0.17416565,-0.5839629,0.32854402,0.17027378,799.011,796.99634,821.978,790.54944,537.1062,-0.00958251953125,0.0877685546875,1.00469970703125,-1.786956787109375,-0.276641845703125,3.6187744140625,1,2.0,1.0,1.0,2.0,10.00
2024-10-11 20:48:41.057,1.115426,1.025348,0.44599092,0.08408228,0.7290176,0.31219545,-0.1770154,0.24096557,0.88819087,0.33648565,-0.05246853,0.8781362,0.52130055,-0.06724492,0.44991824,0.49832776,0.17416565,-0.5839629,0.32854402,0.17027378,799.41394,799.011,809.89014,799.41394,743.4066,-0.00958251953125,0.0877685546875,1.00469970703125,-1.786956787109375,-0.276641845703125,3.6187744140625,1,2.0,1.0,1.0,2.0,10.00
2024-10-11 20:48:41.058,1.115426,1.025348,0.44599092,0.08408228,0.7290176,0.31219545,-0.1770154,0.24096557,0.88819087,0.33648565,-0.05246853,0.8781362,0.52130055,-0.06724492,0.44991824,0.49832776,0.17416565,-0.5839629,0.32854402,0.17027378,793.36993,794.17584,796.5934,799.81683,931.5751,-0.00958251953125,0.0877685546875,1.00469970703125,-1.786956787109375,-0.276641845703125,3.6187744140625,1,2.0,1.0,1.0,2.0,10.00
2024-10-11 20:48:41.059,1.115426,1.025348,0.44599092,0.08408228,0.7290176,0.31219545,-0.1770154,0.24096557,0.88819087,0.33648565,-0.05246853,0.8781362,0.52130055,-0.06724492,0.44991824,0.49832776,0.17416565,-0.5839629,0.32854402,0.17027378,782.0879,789.7436,805.05493,794.57874,732.1245,-0.00958251953125,0.0877685546875,1.00469970703125,-1.786956787109375,-0.276641845703125,3.6187744140625,1,2.0,1.0,1.0,2.0,10.00
2024-10-11 20:48:41.059,1.115426,1.025348,0.44599092,0.08408228,0.7290176,0.31219545,-0.1770154,0.24096557,0.88819087,0.33648565,-0.05246853,0.8781362,0.52130055,-0.06724492,0.44991824,0.49832776,0.17416565,-0.5839629,0.32854402,0.17027378,781.28204,794.57874,800.2198,797.8022,606.0073,-0.00958251953125,0.0877685546875,1.00469970703125,-1.786956787109375,-0.276641845703125,3.6187744140625,1,2.0,1.0,1.0,2.0,10.00
2024-10-11 20:48:41.124,1.115426,1.025348,0.44599092,0.08408228,0.7290176,0.31219545,-0.1770154,0.24096557,0.88819087,0.33648565,-0.05246853,0.8781362,0.52130055,-0.06724492,0.44991824,0.49832776,0.17416565,-0.5839629,0.32854402,0.17027378,793.36993,796.5934,799.41394,805.8608,776.4469,-0.0032958984375,0.09857177734375,0.99505615234375,0.9869384765625,2.086029052734375,2.22808837890625,1,2.0,1.0,1.0,2.0,10.00
2024-10-11 20:48:41.125,1.115426,1.0005835,0.44599092,0.08408228,0.7290176,0.29908675,-0.1770154,0.24096557,0.88819087,0.33648565,-0.05246853,0.8781362,0.52130055,-0.071066394,0.44991824,0.49832776,0.17416565,-0.5840838,0.32854402,0.17027378,798.60803,793.36993,805.05493,810.696,1245.0549,-0.0032958984375,0.09857177734375,0.99505615234375,0.9869384765625,2.086029052734375,2.22808837890625,1,2.0,1.0,1.0,2.0,10.00
2024-10-11 20:48:41.130,1.115426,1.0005835,0.44599092,0.08408228,0.7290176,0.29908675,-0.1770154,0.24096557,0.88819087,0.33648565,-0.05246853,0.8781362,0.52130055,-0.071066394,0.44991824,0.49832776,0.17416565,-0.5840838,0.32854402,0.17027378,794.9817,794.57874,794.57874,802.23444,1104.4323,-0.0032958984375,0.09857177734375,0.99505615234375,0.9869384765625,2.086029052734375,2.22808837890625,1,2.0,1.0,1.0,2.0,10.00
2024-10-11 20:48:41.131,1.115426,1.0005835,0.44599092,0.08408228,0.7290176,0.29908675,-0.1770154,0.24096557,0.88819087,0.33648565,-0.05246853,0.8781362,0.52130055,-0.071066394,0.44991824,0.49832776,0.17416565,-0.5840838,0.32854402,0.17027378,798.60803,791.75824,803.44324,797.8022,620.9158,-0.0032958984375,0.09857177734375,0.99505615234375,0.9869384765625,2.086029052734375,2.22808837890625,1,2.0,1.0,1.0,2.0,10.00
2024-10-11 20:48:41.131,1.115426,1.0005835,0.44599092,0.08408228,0.7290176,0.29908675,-0.1770154,0.24096557,0.88819087,0.33648565,-0.05246853,0.8781362,0.52130055,-0.071066394,0.44991824,0.49832776,0.17416565,-0.5840838,0.32854402,0.17027378,794.9817,792.5641,816.337,801.8315,636.63007,-0.0032958984375,0.09857177734375,0.99505615234375,0.9869384765625,2.086029052734375,2.22808837890625,1,2.0,1.0,1.0,2.0,10.00
2024-10-11 20:48:41.132,1.115426,1.0005835,0.44599092,0.08408228,0.7290176,0.29908675,-0.1770154,0.24096557,0.88819087,0.33648565,-0.05246853,0.8781362,0.52130055,-0.071066394,0.44991824,0.49832776,0.17416565,-0.5840838,0.32854402,0.17027378,798.60803,795.38464,806.6667,802.6374,775.64105,-0.0032958984375,0.09857177734375,0.99505615234375,0.9869384765625,2.086029052734375,2.22808837890625,1,2.0,1.0,1.0,2.0,10.00
2024-10-11 20:48:41.133,1.115426,1.0005835,0.44599092,0.08408228,0.7290176,0.29908675,-0.1770154,0.24096557,0.88819087,0.33648565,-0.05246853,0.8781362,0.52130055,-0.071066394,0.44991824,0.49832776,0.17416565,-0.5840838,0.32854402,0.17027378,804.65204,792.1612,800.6227,799.81683,687.8022,-0.0032958984375,0.09857177734375,0.99505615234375,0.9869384765625,2.086029052734375,2.22808837890625,1,2.0,1.0,1.0,2.0,10.00
2024-10-11 20:48:41.134,1.115426,1.0005835,0.44599092,0.08408228,0.7290176,0.29908675,-0.1770154,0.24096557,0.88819087,0.33648565,-0.05246853,0.8781362,0.52130055,-0.071066394,0.44991824,0.49832776,0.17416565,-0.5840838,0.32854402,0.17027378,805.8608,794.17584,802.23444,794.9817,504.8718,-0.0032958984375,0.09857177734375,0.99505615234375,0.9869384765625,2.086029052734375,2.22808837890625,1,2.0,1.0,1.0,2.0,10.00
2024-10-11 20:48:41.135,1.115426,1.0005835,0.44599092,0.08408228,0.7290176,0.29908675,-0.1770154,0.24096557,0.88819087,0.33648565,-0.05246853,0.8781362,0.52130055,-0.071066394,0.44991824,0.49832776,0.17416565,-0.5840838,0.32854402,0.17027378,813.1135,794.57874,788.93774,798.20514,822.381,-0.0032958984375,0.09857177734375,0.99505615234375,0.9869384765625,2.086029052734375,2.22808837890625,1,2.0,1.0,1.0,2.0,10.00
2024-10-11 20:48:41.135,1.115426,1.0005835,0.44599092,0.08408228,0.7290176,0.29908675,-0.1770154,0.24096557,0.88819087,0.33648565,-0.05246853,0.8781362,0.52130055,-0.071066394,0.44991824,0.49832776,0.17416565,-0.5840838,0.32854402,0.17027378,801.8315,792.96704,778.46155,799.41394,1000.07324,-0.0032958984375,0.09857177734375,0.99505615234375,0.9869384765625,2.086029052734375,2.22808837890625,1,2.0,1.0,1.0,2.0,10.00
2024-10-11 20:48:41.136,1.115426,1.0005835,0.44599092,0.08408228,0.7290176,0.29908675,-0.1770154,0.24096557,0.88819087,0.33648565,-0.05246853,0.8781362,0.52130055,-0.071066394,0.44991824,0.49832776,0.17416565,-0.5840838,0.32854402,0.17027378,794.17584,793.7729,792.1612,799.011,667.25275,-0.0032958984375,0.09857177734375,0.99505615234375,0.9869384765625,2.086029052734375,2.22808837890625,1,2.0,1.0,1.0,2.0,10.00
2024-10-11 20:48:41.137,1.115426,1.0005835,0.44599092,0.08408228,0.7290176,0.29908675,-0.1770154,0.24096557,0.88819087,0.33648565,-0.05246853,0.8781362,0.52130055,-0.071066394,0.44991824,0.49832776,0.17416565,-0.5840838,0.32854402,0.17027378,801.02563,792.5641,798.60803,803.44324,608.4249,-0.0032958984375,0.09857177734375,0.99505615234375,0.9869384765625,2.086029052734375,2.22808837890625,1,2.0,1.0,1.0,2.0,10.00
2024-10-11 20:48:41.181,1.115426,1.0005835,0.44599092,0.08408228,0.7290176,0.29908675,-0.1770154,0.24096557,0.88819087,0.33648565,-0.05246853,0.8781362,0.52130055,-0.071066394,0.44991824,0.49832776,0.17416565,-0.5840838,0.32854402,0.17027378,803.44324,792.1612,793.36993,804.2491,678.93774,-0.0032958984375,0.09857177734375,0.99505615234375,0.9869384765625,2.086029052734375,2.22808837890625,1,2.0,1.0,1.0,2.0,10.00
2024-10-11 20:48:41.182,1.115426,1.0005835,0.44599092,0.08408228,0.7290176,0.29908675,-0.1770154,0.24096557,0.88819087,0.33648565,-0.05246853,0.8781362,0.52130055,-0.071066394,0.44991824,0.49832776,0.17416565,-0.5840838,0.32854402,0.17027378,807.0696,792.96704,802.6374,802.6374,680.54944,-0.0032958984375,0.09857177734375,0.99505615234375,0.9869384765625,2.086029052734375,2.22808837890625,1,2.0,1.0,1.0,2.0,10.00
2024-10-11 20:48:41.183,1.115426,1.0005835,0.44599092,0.08408228,0.7290176,0.29908675,-0.1770154,0.24096557,0.88819087,0.33648565,-0.05246853,0.8781362,0.52130055,-0.071066394,0.44991824,0.49832776,0.17416565,-0.5840838,0.32854402,0.17027378,812.71063,794.17584,804.2491,799.41394,593.91943,-0.0032958984375,0.09857177734375,0.99505615234375,0.9869384765625,2.086029052734375,2.22808837890625,1,2.0,1.0,1.0,2.0,10.00
2024-10-11 20:48:41.184,1.115426,1.0005835,0.44599092,0.08408228,0.7290176,0.29908675,-0.1770154,0.24096557,0.88819087,0.33648565,-0.05246853,0.8781362,0.52130055,-0.071066394,0.44991824,0.49832776,0.17416565,-0.5840838,0.32854402,0.17027378,811.50183,795.38464,804.65204,795.38464,630.58606,-0.0032958984375,0.09857177734375,0.99505615234375,0.9869384765625,2.086029052734375,2.22808837890625,1,2.0,1.0,1.0,2.0,10.00
2024-10-11 20:48:41.185,1.115426,1.0005835,0.44599092,0.08408228,0.7290176,0.29908675,-0.1770154,0.24096557,0.88819087,0.33648565,-0.05246853,0.8781362,0.52130055,-0.071066394,0.44991824,0.49832776,0.17416565,-0.5840838,0.32854402,0.17027378,812.3077,793.7729,803.44324,802.23444,742.6007,-0.0032958984375,0.09857177734375,0.99505615234375,0.9869384765625,2.086029052734375,2.22808837890625,1,2.0,1.0,1.0,2.0,10.00
2024-10-11 20:48:41.186,1.115426,1.0005835,0.44599092,0.08408228,0.7290176,0.29908675,-0.1770154,0.24096557,0.88819087,0.33648565,-0.05246853,0.8781362,0.52130055,-0.071066394,0.44991824,0.49832776,0.17416565,-0.5840838,0.32854402,0.17027378,814.7253,794.57874,789.34064,806.26373,689.011,-0.0032958984375,0.09857177734375,0.99505615234375,0.9869384765625,2.086029052734375,2.22808837890625,1,2.0,1.0,1.0,2.0,10.00
2024-10-11 20:48:41.187,1.115426,1.0005835,0.44599092,0.08408228,0.7290176,0.29908675,-0.1770154,0.24096557,0.88819087,0.33648565,-0.05246853,0.8781362,0.52130055,-0.071066394,0.44991824,0.49832776,0.17416565,-0.5840838,0.32854402,0.17027378,815.9341,797.8022,783.2967,803.44324,672.8938,-0.0032958984375,0.09857177734375,0.99505615234375,0.9869384765625,2.086029052734375,2.22808837890625,1,2.0,1.0,1.0,2.0,10.00
2024-10-11 20:48:41.188,1.115426,1.0005835,0.44599092,0.08408228,0.7290176,0.29908675,-0.1770154,0.24096557,0.88819087,0.33648565,-0.05246853,0.8781362,0.52130055,-0.071066394,0.44991824,0.49832776,0.17416565,-0.5840838,0.32854402,0.17027378,816.337,797.3993,801.8315,805.05493,754.2857,-0.0032958984375,0.09857177734375,0.99505615234375,0.9869384765625,2.086029052734375,2.22808837890625,1,2.0,1.0,1.0,2.0,10.00
2024-10-11 20:48:41.189,1.115426,1.0005835,0.44599092,0.08408228,0.7290176,0.29908675,-0.1770154,0.24096557,0.88819087,0.33648565,-0.05246853,0.8781362,0.52130055,-0.071066394,0.44991824,0.49832776,0.17416565,-0.5840838,0.32854402,0.17027378,810.696,799.41394,808.2784,802.6374,783.2967,-0.0032958984375,0.09857177734375,0.99505615234375,0.9869384765625,2.086029052734375,2.22808837890625,1,2.0,1.0,1.0,2.0,10.00
2024-10-11 20:48:41.190,1.115426,1.0005835,0.44599092,0.08408228,0.7290176,0.29908675,-0.1770154,0.24096557,0.88819087,0.33648565,-0.05246853,0.8781362,0.52130055,-0.071066394,0.44991824,0.49832776,0.17416565,-0.5840838,0.32854402,0.17027378,813.5165,806.26373,800.6227,800.2198,618.49817,-0.0032958984375,0.09857177734375,0.99505615234375,0.9869384765625,2.086029052734375,2.22808837890625,1,2.0,1.0,1.0,2.0,10.00
2024-10-11 20:48:41.191,1.115426,1.0005835,0.44599092,0.08408228,0.7290176,0.29908675,-0.1770154,0.24096557,0.88819087,0.33648565,-0.05246853,0.8781362,0.52130055,-0.071066394,0.44991824,0.49832776,0.17416565,-0.5840838,0.32854402,0.17027378,815.12823,804.2491,798.20514,797.3993,613.663,-0.0032958984375,0.09857177734375,0.99505615234375,0.9869384765625,2.086029052734375,2.22808837890625,1,2.0,1.0,1.0,2.0,10.00
2024-10-11 20:48:41.191,1.115426,1.0005835,0.44599092,0.08408228,0.7290176,0.29908675,-0.1770154,0.24096557,0.88819087,0.33648565,-0.05246853,0.8781362,0.52130055,-0.071066394,0.44991824,0.49832776,0.17416565,-0.5840838,0.32854402,0.17027378,806.6667,798.60803,804.65204,801.8315,743.8095,-0.0032958984375,0.09857177734375,0.99505615234375,0.9869384765625,2.086029052734375,2.22808837890625,1,2.0,1.0,1.0,2.0,10.00
2024-10-11 20:48:41.226,1.115426,1.0005835,0.44599092,0.08408228,0.7290176,0.29908675,-0.1770154,0.24096557,0.88819087,0.33648565,-0.05246853,0.8781362,0.52130055,-0.071066394,0.44991824,0.49832776,0.17416565,-0.5840838,0.32854402,0.17027378,807.8755,801.02563,810.696,806.6667,787.326,-0.00115966796875,0.11572265625,1.0120849609375,1.697235107421875,3.050537109375,0.94207763671875,1,2.0,1.0,1.0,2.0,10.00
2024-10-11 20:48:41.227,1.115426,1.0005835,0.44599092,0.08408228,0.7290176,0.29908675,-0.1770154,0.24096557,0.88819087,0.33648565,-0.05246853,0.8781362,0.52130055,-0.071066394,0.44991824,0.49832776,0.17416565,-0.5840838,0.32854402,0.17027378,813.1135,803.8461,803.44324,807.8755,691.02563,-0.00115966796875,0.11572265625,1.0120849609375,1.697235107421875,3.050537109375,0.94207763671875,1,2.0,1.0,1.0,2.0,10.00
2024-10-11 20:48:41.228,1.115426,1.0005835,0.44599092,0.08408228,0.7290176,0.29908675,-0.1770154,0.24096557,0.88819087,0.33648565,-0.05246853,0.8781362,0.52130055,-0.071066394,0.44991824,0.49832776,0.17416565,-0.5840838,0.32854402,0.17027378,803.44324,801.4286,794.9817,811.0989,620.5128,-0.00115966796875,0.11572265625,1.0120849609375,1.697235107421875,3.050537109375,0.94207763671875,1,2.0,1.0,1.0,2.0,10.00
2024-10-11 20:48:41.229,1.115426,0.9937003,0.44599092,0.08408228,0.7290176,0.31606847,-0.1770154,0.24096557,0.88819087,0.30821028,-0.05246853,0.8781362,0.52130055,-0.0770092,0.44991824,0.49832776,0.17416565,-0.5821653,0.32854402,0.17027378,792.96704,794.57874,788.93774,814.3223,850.989,-0.00115966796875,0.11572265625,1.0120849609375,1.697235107421875,3.050537109375,0.94207763671875,1,2.0,1.0,1.0,2.0,10.00
2024-10-11 20:48:41.234,1.115426,0.9937003,0.44599092,0.08408228,0.7290176,0.31606847,-0.1770154,0.24096557,0.88819087,0.30821028,-0.05246853,0.8781362,0.52130055,-0.0770092,0.44991824,0.49832776,0.17416565,-0.5821653,0.32854402,0.17027378,794.17584,792.1612,796.5934,811.9048,911.4286,-0.00115966796875,0.11572265625,1.0120849609375,1.697235107421875,3.050537109375,0.94207763671875,1,2.0,1.0,1.0,2.0,10.00
2024-10-11 20:48:41.235,1.115426,0.9937003,0.44599092,0.08408228,0.7290176,0.31606847,-0.1770154,0.24096557,0.88819087,0.30821028,-0.05246853,0.8781362,0.52130055,-0.0770092,0.44991824,0.49832776,0.17416565,-0.5821653,0.32854402,0.17027378,796.99634,791.3553,801.4286,808.68134,767.1795,-0.00115966796875,0.11572265625,1.0120849609375,1.697235107421875,3.050537109375,0.94207763671875,1,2.0,1.0,1.0,2.0,10.00
2024-10-11 20:48:41.236,1.115426,0.9937003,0.44599092,0.08408228,0.7290176,0.31606847,-0.1770154,0.24096557,0.88819087,0.30821028,-0.05246853,0.8781362,0.52130055,-0.0770092,0.44991824,0.49832776,0.17416565,-0.5821653,0.32854402,0.17027378,803.44324,794.57874,799.011,804.65204,778.46155,-0.00115966796875,0.11572265625,1.0120849609375,1.697235107421875,3.050537109375,0.94207763671875,1,2.0,1.0,1.0,2.0,10.00
2024-10-11 20:48:41.237,1.115426,0.9937003,0.44599092,0.08408228,0.7290176,0.31606847,-0.1770154,0.24096557,0.88819087,0.30821028,-0.05246853,0.8781362,0.52130055,-0.0770092,0.44991824,0.49832776,0.17416565,-0.5821653,0.32854402,0.17027378,801.8315,794.9817,797.3993,802.23444,966.63007,-0.00115966796875,0.11572265625,1.0120849609375,1.697235107421875,3.050537109375,0.94207763671875,1,2.0,1.0,1.0,2.0,10.00
2024-10-11 20:48:41.238,1.115426,0.9937003,0.44599092,0.08408228,0.7290176,0.31606847,-0.1770154,0.24096557,0.88819087,0.30821028,-0.05246853,0.8781362,0.52130055,-0.0770092,0.44991824,0.49832776,0.17416565,-0.5821653,0.32854402,0.17027378,805.4579,792.96704,788.5348,810.696,1352.2344,-0.00115966796875,0.11572265625,1.0120849609375,1.697235107421875,3.050537109375,0.94207763671875,1,2.0,1.0,1.0,2.0,10.00
2024-10-11 20:48:41.239,1.115426,0.9937003,0.44599092,0.08408228,0.7290176,0.31606847,-0.1770154,0.24096557,0.88819087,0.30821028,-0.05246853,0.8781362,0.52130055,-0.0770092,0.44991824,0.49832776,0.17416565,-0.5821653,0.32854402,0.17027378,812.71063,799.011,777.6557,805.8608,1058.0952,-0.00115966796875,0.11572265625,1.0120849609375,1.697235107421875,3.050537109375,0.94207763671875,1,2.0,1.0,1.0,2.0,10.00
2024-10-11 20:48:41.240,1.115426,0.9937003,0.44599092,0.08408228,0.7290176,0.31606847,-0.1770154,0.24096557,0.88819087,0.30821028,-0.05246853,0.8781362,0.52130055,-0.0770092,0.44991824,0.49832776,0.17416565,-0.5821653,0.32854402,0.17027378,801.4286,799.41394,786.9231,795.78754,618.9011,-0.00115966796875,0.11572265625,1.0120849609375,1.697235107421875,3.050537109375,0.94207763671875,1,2.0,1.0,1.0,2.0,10.00
2024-10-11 20:48:41.241,1.115426,0.9937003,0.44599092,0.08408228,0.7290176,0.31606847,-0.1770154,0.24096557,0.88819087,0.30821028,-0.05246853,0.8781362,0.52130055,-0.0770092,0.44991824,0.49832776,0.17416565,-0.5821653,0.32854402,0.17027378,795.38464,794.9817,801.8315,797.3993,621.7216,-0.00115966796875,0.11572265625,1.0120849609375,1.697235107421875,3.050537109375,0.94207763671875,1,2.0,1.0,1.0,2.0,10.00
2024-10-11 20:48:41.242,1.115426,0.9937003,0.44599092,0.08408228,0.7290176,0.31606847,-0.1770154,0.24096557,0.88819087,0.30821028,-0.05246853,0.8781362,0.52130055,-0.0770092,0.44991824,0.49832776,0.17416565,-0.5821653,0.32854402,0.17027378,785.7143,794.9817,805.05493,796.99634,658.7912,-0.00830078125,0.123779296875,1.0240478515625,-1.323394775390625,4.53094482421875,-1.951446533203125,1,2.0,1.0,1.0,2.0,10.00
2024-10-11 20:48:41.243,1.115426,0.9937003,0.44599092,0.08408228,0.7290176,0.31606847,-0.1770154,0.24096557,0.88819087,0.30821028,-0.05246853,0.8781362,0.52130055,-0.0770092,0.44991824,0.49832776,0.17416565,-0.5821653,0.32854402,0.17027378,784.5055,796.1905,803.44324,797.8022,626.55676,-0.00830078125,0.123779296875,1.0240478515625,-1.323394775390625,4.53094482421875,-1.951446533203125,1,2.0,1.0,1.0,2.0,10.00
2024-10-11 20:48:41.244,1.115426,0.9937003,0.44599092,0.08408228,0.7290176,0.31606847,-0.1770154,0.24096557,0.88819087,0.30821028,-0.05246853,0.8781362,0.52130055,-0.0770092,0.44991824,0.49832776,0.17416565,-0.5821653,0.32854402,0.17027378,796.1905,794.57874,807.47253,812.71063,730.10986,-0.00830078125,0.123779296875,1.0240478515625,-1.323394775390625,4.53094482421875,-1.951446533203125,1,2.0,1.0,1.0,2.0,10.00
2024-10-11 20:48:41.245,1.115426,0.9937003,0.44599092,0.08408228,0.7290176,0.31606847,-0.1770154,0.24096557,0.88819087,0.30821028,-0.05246853,0.8781362,0.52130055,-0.0770092,0.44991824,0.49832776,0.17416565,-0.5821653,0.32854402,0.17027378,785.7143,794.57874,811.9048,807.0696,755.09155,-0.00830078125,0.123779296875,1.0240478515625,-1.323394775390625,4.53094482421875,-1.951446533203125,1,2.0,1.0,1.0,2.0,10.00
2024-10-11 20:48:41.245,1.115426,0.9937003,0.44599092,0.08408228,0.7290176,0.31606847,-0.1770154,0.24096557,0.88819087,0.30821028,-0.05246853,0.8781362,0.52130055,-0.0770092,0.44991824,0.49832776,0.17416565,-0.5821653,0.32854402,0.17027378,784.10254,794.17584,810.293,800.2198,687.3993,-0.00830078125,0.123779296875,1.0240478515625,-1.323394775390625,4.53094482421875,-1.951446533203125,1,2.0,1.0,1.0,2.0,10.00
2024-10-11 20:48:41.246,1.115426,0.9937003,0.44599092,0.08408228,0.7290176,0.31606847,-0.1770154,0.24096557,0.88819087,0.30821028,-0.05246853,0.8781362,0.52130055,-0.0770092,0.44991824,0.49832776,0.17416565,-0.5821653,0.32854402,0.17027378,794.17584,793.36993,802.23444,802.23444,628.1685,-0.00830078125,0.123779296875,1.0240478515625,-1.323394775390625,4.53094482421875,-1.951446533203125,1,2.0,1.0,1.0,2.0,10.00
2024-10-11 20:48:41.247,1.115426,0.9937003,0.44599092,0.08408228,0.7290176,0.31606847,-0.1770154,0.24096557,0.88819087,0.30821028,-0.05246853,0.8781362,0.52130055,-0.0770092,0.44991824,0.49832776,0.17416565,-0.5821653,0.32854402,0.17027378,799.41394,792.1612,796.5934,802.6374,840.5128,-0.00830078125,0.123779296875,1.0240478515625,-1.323394775390625,4.53094482421875,-1.951446533203125,1,2.0,1.0,1.0,2.0,10.00
2024-10-11 20:48:41.248,1.115426,0.9937003,0.44599092,0.08408228,0.7290176,0.31606847,-0.1770154,0.24096557,0.88819087,0.30821028,-0.05246853,0.8781362,0.52130055,-0.0770092,0.44991824,0.49832776,0.17416565,-0.5821653,0.32854402,0.17027378,801.4286,791.3553,799.81683,807.8755,1050.0366,-0.00830078125,0.123779296875,1.0240478515625,-1.323394775390625,4.53094482421875,-1.951446533203125,1,2.0,1.0,1.0,2.0,10.00
2024-10-11 20:48:41.248,1.115426,0.9937003,0.44599092,0.08408228,0.7290176,0.31606847,-0.1770154,0.24096557,0.88819087,0.30821028,-0.05246853,0.8781362,0.52130055,-0.0770092,0.44991824,0.49832776,0.17416565,-0.5821653,0.32854402,0.17027378,803.44324,797.8022,793.7729,801.4286,701.50183,-0.00830078125,0.123779296875,1.0240478515625,-1.323394775390625,4.53094482421875,-1.951446533203125,1,2.0,1.0,1.0,2.0,10.00
2024-10-11 20:48:41.249,1.115426,0.9937003,0.44599092,0.08408228,0.7290176,0.31606847,-0.1770154,0.24096557,0.88819087,0.30821028,-0.05246853,0.8781362,0.52130055,-0.0770092,0.44991824,0.49832776,0.17416565,-0.5821653,0.32854402,0.17027378,809.0842,798.20514,787.326,794.57874,599.5604,-0.00830078125,0.123779296875,1.0240478515625,-1.323394775390625,4.53094482421875,-1.951446533203125,1,2.0,1.0,1.0,2.0,10.00
2024-10-11 20:48:41.250,1.115426,0.9937003,0.44599092,0.08408228,0.7290176,0.31606847,-0.1770154,0.24096557,0.88819087,0.30821028,-0.05246853,0.8781362,0.52130055,-0.0770092,0.44991824,0.49832776,0.17416565,-0.5821653,0.32854402,0.17027378,813.1135,793.36993,783.2967,797.8022,765.9707,-0.00830078125,0.123779296875,1.0240478515625,-1.323394775390625,4.53094482421875,-1.951446533203125,1,2.0,1.0,1.0,2.0,10.00
2024-10-11 20:48:41.250,1.115426,0.9937003,0.44599092,0.08408228,0.7290176,0.31606847,-0.1770154,0.24096557,0.88819087,0.30821028,-0.05246853,0.8781362,0.52130055,-0.0770092,0.44991824,0.49832776,0.17416565,-0.5821653,0.32854402,0.17027378,799.011,796.5934,783.2967,800.6227,834.0659,-0.00830078125,0.123779296875,1.0240478515625,-1.323394775390625,4.53094482421875,-1.951446533203125,1,2.0,1.0,1.0,2.0,10.00
2024-10-11 20:48:41.288,1.115426,0.9937003,0.44599092,0.08408228,0.7290176,0.31606847,-0.1770154,0.24096557,0.88819087,0.30821028,-0.05246853,0.8781362,0.52130055,-0.0770092,0.44991824,0.49832776,0.17416565,-0.5821653,0.32854402,0.17027378,782.0879,796.5934,798.60803,808.2784,711.5751,-0.01300048828125,0.109375,1.008056640625,-5.0543212890625,6.990814208984375,-4.20196533203125,1,2.0,1.0,1.0,2.0,10.00
2024-10-11 20:48:41.289,1.115426,0.9937003,0.44599092,0.08408228,0.7290176,0.31606847,-0.1770154,0.24096557,0.88819087,0.30821028,-0.05246853,0.8781362,0.52130055,-0.0770092,0.44991824,0.49832776,0.17416565,-0.5821653,0.32854402,0.17027378,791.3553,801.02563,807.47253,807.47253,622.52747,-0.01300048828125,0.109375,1.008056640625,-5.0543212890625,6.990814208984375,-4.20196533203125,1,2.0,1.0,1.0,2.0,10.00
2024-10-11 20:48:41.290,1.115426,0.9937003,0.44599092,0.08408228,0.7290176,0.31606847,-0.1770154,0.24096557,0.88819087,0.30821028,-0.05246853,0.8781362,0.52130055,-0.0770092,0.44991824,0.49832776,0.17416565,-0.5821653,0.32854402,0.17027378,800.2198,797.8022,814.3223,807.0696,784.5055,-0.01300048828125,0.109375,1.008056640625,-5.0543212890625,6.990814208984375,-4.20196533203125,1,2.0,1.0,1.0,2.0,10.00
2024-10-11 20:48:41.291,1.115426,0.9937003,0.44599092,0.08408228,0.7290176,0.31606847,-0.1770154,0.24096557,0.88819087,0.30821028,-0.05246853,0.8781362,0.52130055,-0.0770092,0.44991824,0.49832776,0.17416565,-0.5821653,0.32854402,0.17027378,803.44324,796.99634,811.9048,808.2784,873.1502,-0.01300048828125,0.109375,1.008056640625,-5.0543212890625,6.990814208984375,-4.20196533203125,1,2.0,1.0,1.0,2.0,10.00
2024-10-11 20:48:41.292,1.115426,0.9937003,0.44599092,0.08408228,0.7290176,0.31606847,-0.1770154,0.24096557,0.88819087,0.30821028,-0.05246853,0.8781362,0.52130055,-0.0770092,0.44991824,0.49832776,0.17416565,-0.5821653,0.32854402,0.17027378,794.9817,800.6227,800.2198,797.3993,723.2601,-0.01300048828125,0.109375,1.008056640625,-5.0543212890625,6.990814208984375,-4.20196533203125,1,2.0,1.0,1.0,2.0,10.00
2024-10-11 20:48:41.293,1.115426,0.9867781,0.44599092,0.08408228,0.7290176,0.32485828,-0.1770154,0.24096557,0.88819087,0.2960489,-0.05246853,0.8781362,0.52130055,-0.083361715,0.44991824,0.49832776,0.17416565,-0.5783715,0.32854402,0.17027378,790.9524,796.5934,798.20514,794.17584,778.0586,-0.01300048828125,0.109375,1.008056640625,-5.0543212890625,6.990814208984375,-4.20196533203125,1,2.0,1.0,1.0,2.0,10.00
2024-10-11 20:48:41.298,1.115426,0.9867781,0.44599092,0.08408228,0.7290176,0.32485828,-0.1770154,0.24096557,0.88819087,0.2960489,-0.05246853,0.8781362,0.52130055,-0.083361715,0.44991824,0.49832776,0.17416565,-0.5783715,0.32854402,0.17027378,801.02563,796.5934,796.99634,799.81683,1020.2198,-0.01300048828125,0.109375,1.008056640625,-5.0543212890625,6.990814208984375,-4.20196533203125,1,2.0,1.0,1.0,2.0,10.00
2024-10-11 20:48:41.299,1.115426,0.9867781,0.44599092,0.08408228,0.7290176,0.32485828,-0.1770154,0.24096557,0.88819087,0.2960489,-0.05246853,0.8781362,0.52130055,-0.083361715,0.44991824,0.49832776,0.17416565,-0.5783715,0.32854402,0.17027378,796.5934,795.38464,797.8022,805.05493,1247.8755,-0.01300048828125,0.109375,1.008056640625,-5.0543212890625,6.990814208984375,-4.20196533203125,1,2.0,1.0,1.0,2.0,10.00
2024-10-11 20:48:41.299,1.115426,0.9867781,0.44599092,0.08408228,0.7290176,0.32485828,-0.1770154,0.24096557,0.88819087,0.2960489,-0.05246853,0.8781362,0.52130055,-0.083361715,0.44991824,0.49832776,0.17416565,-0.5783715,0.32854402,0.17027378,793.36993,795.38464,801.8315,799.81683,950.9158,-0.01300048828125,0.109375,1.008056640625,-5.0543212890625,6.990814208984375,-4.20196533203125,1,2.0,1.0,1.0,2.0,10.00
2024-10-11 20:48:41.300,1.115426,0.9867781,0.44599092,0.08408228,0.7290176,0.32485828,-0.1770154,0.24096557,0.88819087,0.2960489,-0.05246853,0.8781362,0.52130055,-0.083361715,0.44991824,0.49832776,0.17416565,-0.5783715,0.32854402,0.17027378,795.38464,794.9817,803.0403,797.3993,658.7912,-0.01300048828125,0.109375,1.008056640625,-5.0543212890625,6.990814208984375,-4.20196533203125,1,2.0,1.0,1.0,2.0,10.00
2024-10-11 20:48:41.301,1.115426,0.9867781,0.44599092,0.08408228,0.7290176,0.32485828,-0.1770154,0.24096557,0.88819087,0.2960489,-0.05246853,0.8781362,0.52130055,-0.083361715,0.44991824,0.49832776,0.17416565,-0.5783715,0.32854402,0.17027378,794.9817,795.78754,792.96704,800.6227,691.4286,-0.01300048828125,0.109375,1.008056640625,-5.0543212890625,6.990814208984375,-4.20196533203125,1,2.0,1.0,1.0,2.0,10.00
2024-10-11 20:48:41.302,1.115426,0.9867781,0.44599092,0.08408228,0.7290176,0.32485828,-0.1770154,0.24096557,0.88819087,0.2960489,-0.05246853,0.8781362,0.52130055,-0.083361715,0.44991824,0.49832776,0.17416565,-0.5783715,0.32854402,0.17027378,806.6667,795.38464,793.36993,799.011,633.4066,-0.01300048828125,0.109375,1.008056640625,-5.0543212890625,6.990814208984375,-4.20196533203125,1,2.0,1.0,1.0,2.0,10.00
2024-10-11 20:48:41.303,1.115426,0.9867781,0.44599092,0.08408228,0.7290176,0.32485828,-0.1770154,0.24096557,0.88819087,0.2960489,-0.05246853,0.8781362,0.52130055,-0.083361715,0.44991824,0.49832776,0.17416565,-0.5783715,0.32854402,0.17027378,804.2491,797.8022,800.6227,796.1905,671.28204,-0.0263671875,0.089599609375,1.006591796875,-6.751556396484375,9.031982421875,-4.71038818359375,1,2.0,1.0,1.0,2.0,10.00
2024-10-11 20:48:41.304,1.115426,0.9867781,0.44599092,0.08408228,0.7290176,0.32485828,-0.1770154,0.24096557,0.88819087,0.2960489,-0.05246853,0.8781362,0.52130055,-0.083361715,0.44991824,0.49832776,0.17416565,-0.5783715,0.32854402,0.17027378,792.1612,797.8022,798.20514,797.8022,748.6447,-0.0263671875,0.089599609375,1.006591796875,-6.751556396484375,9.031982421875,-4.71038818359375,1,2.0,1.0,1.0,2.0,10.00
2024-10-11 20:48:41.305,1.115426,0.9867781,0.44599092,0.08408228,0.7290176,0.32485828,-0.1770154,0.24096557,0.88819087,0.2960489,-0.05246853,0.8781362,0.52130055,-0.083361715,0.44991824,0.49832776,0.17416565,-0.5783715,0.32854402,0.17027378,794.9817,797.8022,796.5934,798.60803,792.96704,-0.0263671875,0.089599609375,1.006591796875,-6.751556396484375,9.031982421875,-4.71038818359375,1,2.0,1.0,1.0,2.0,10.00
2024-10-11 20:48:41.305,1.115426,0.9867781,0.44599092,0.08408228,0.7290176,0.32485828,-0.1770154,0.24096557,0.88819087,0.2960489,-0.05246853,0.8781362,0.52130055,-0.083361715,0.44991824,0.49832776,0.17416565,-0.5783715,0.32854402,0.17027378,795.78754,799.41394,794.9817,799.81683,683.7729,-0.0263671875,0.089599609375,1.006591796875,-6.751556396484375,9.031982421875,-4.71038818359375,1,2.0,1.0,1.0,2.0,10.00
2024-10-11 20:48:41.306,1.115426,0.9867781,0.44599092,0.08408228,0.7290176,0.32485828,-0.1770154,0.24096557,0.88819087,0.2960489,-0.05246853,0.8781362,0.52130055,-0.083361715,0.44991824,0.49832776,0.17416565,-0.5783715,0.32854402,0.17027378,796.5934,799.41394,799.011,794.9817,591.50183,-0.0263671875,0.089599609375,1.006591796875,-6.751556396484375,9.031982421875,-4.71038818359375,1,2.0,1.0,1.0,2.0,10.00
2024-10-11 20:48:41.307,1.115426,0.9867781,0.44599092,0.08408228,0.7290176,0.32485828,-0.1770154,0.24096557,0.88819087,0.2960489,-0.05246853,0.8781362,0.52130055,-0.083361715,0.44991824,0.49832776,0.17416565,-0.5783715,0.32854402,0.17027378,797.3993,801.8315,805.05493,795.78754,824.3956,-0.0263671875,0.089599609375,1.006591796875,-6.751556396484375,9.031982421875,-4.71038818359375,1,2.0,1.0,1.0,2.0,10.00
2024-10-11 20:48:41.308,1.115426,0.9867781,0.44599092,0.08408228,0.7290176,0.32485828,-0.1770154,0.24096557,0.88819087,0.2960489,-0.05246853,0.8781362,0.52130055,-0.083361715,0.44991824,0.49832776,0.17416565,-0.5783715,0.32854402,0.17027378,800.2198,802.6374,806.26373,808.2784,943.663,-0.0263671875,0.089599609375,1.006591796875,-6.751556396484375,9.031982421875,-4.71038818359375,1,2.0,1.0,1.0,2.0,10.00
2024-10-11 20:48:41.309,1.115426,0.9867781,0.44599092,0.08408228,0.7290176,0.32485828,-0.1770154,0.24096557,0.88819087,0.2960489,-0.05246853,0.8781362,0.52130055,-0.083361715,0.44991824,0.49832776,0.17416565,-0.5783715,0.32854402,0.17027378,797.8022,799.81683,806.26373,803.44324,732.1245,-0.0263671875,0.089599609375,1.006591796875,-6.751556396484375,9.031982421875,-4.71038818359375,1,2.0,1.0,1.0,2.0,10.00
2024-10-11 20:48:41.310,1.115426,0.9867781,0.44599092,0.08408228,0.7290176,0.32485828,-0.1770154,0.24096557,0.88819087,0.2960489,-0.05246853,0.8781362,0.52130055,-0.083361715,0.44991824,0.49832776,0.17416565,-0.5783715,0.32854402,0.17027378,796.99634,798.60803,799.41394,788.93774,664.43225,-0.0263671875,0.089599609375,1.006591796875,-6.751556396484375,9.031982421875,-4.71038818359375,1,2.0,1.0,1.0,2.0,10.00
2024-10-11 20:48:41.311,1.115426,0.9867781,0.44599092,0.08408228,0.7290176,0.32485828,-0.1770154,0.24096557,0.88819087,0.2960489,-0.05246853,0.8781362,0.52130055,-0.083361715,0.44991824,0.49832776,0.17416565,-0.5783715,0.32854402,0.17027378,797.8022,796.99634,793.7729,788.93774,829.6337,-0.0263671875,0.089599609375,1.006591796875,-6.751556396484375,9.031982421875,-4.71038818359375,1,2.0,1.0,1.0,2.0,10.00
2024-10-11 20:48:41.312,1.115426,0.9867781,0.44599092,0.08408228,0.7290176,0.32485828,-0.1770154,0.24096557,0.88819087,0.2960489,-0.05246853,0.8781362,0.52130055,-0.083361715,0.44991824,0.49832776,0.17416565,-0.5783715,0.32854402,0.17027378,799.011,796.1905,804.2491,798.20514,981.13556,-0.0263671875,0.089599609375,1.006591796875,-6.751556396484375,9.031982421875,-4.71038818359375,1,2.0,1.0,1.0,2.0,10.00
2024-10-11 20:48:41.312,1.115426,0.9867781,0.44599092,0.08408228,0.7290176,0.32485828,-0.1770154,0.24096557,0.88819087,0.2960489,-0.05246853,0.8781362,0.52130055,-0.083361715,0.44991824,0.49832776,0.17416565,-0.5783715,0.32854402,0.17027378,802.23444,801.4286,813.91943,797.3993,797.8022,-0.0263671875,0.089599609375,1.006591796875,-6.751556396484375,9.031982421875,-4.71038818359375,1,2.0,1.0,1.0,2.0,10.00
2024-10-11 20:48:41.381,1.115426,0.9867781,0.44599092,0.08408228,0.7290176,0.32485828,-0.1770154,0.24096557,0.88819087,0.2960489,-0.05246853,0.8781362,0.52130055,-0.083361715,0.44991824,0.49832776,0.17416565,-0.5783715,0.32854402,0.17027378,800.2198,803.0403,807.0696,798.60803,668.86444,-0.0263671875,0.089599609375,1.006591796875,-6.751556396484375,9.031982421875,-4.71038818359375,1,2.0,1.0,1.0,2.0,10.00
2024-10-11 20:48:41.382,1.115426,0.9867781,0.44599092,0.08408228,0.7290176,0.32485828,-0.1770154,0.24096557,0.88819087,0.2960489,-0.05246853,0.8781362,0.52130055,-0.083361715,0.44991824,0.49832776,0.17416565,-0.5783715,0.32854402,0.17027378,802.23444,800.6227,799.81683,803.44324,721.2454,-0.0263671875,0.089599609375,1.006591796875,-6.751556396484375,9.031982421875,-4.71038818359375,1,2.0,1.0,1.0,2.0,10.00
2024-10-11 20:48:41.382,1.115426,0.9867781,0.44599092,0.08408228,0.7290176,0.32485828,-0.1770154,0.24096557,0.88819087,0.2960489,-0.05246853,0.8781362,0.52130055,-0.083361715,0.44991824,0.49832776,0.17416565,-0.5783715,0.32854402,0.17027378,800.2198,796.1905,812.3077,795.78754,791.3553,-0.0263671875,0.089599609375,1.006591796875,-6.751556396484375,9.031982421875,-4.71038818359375,1,2.0,1.0,1.0,2.0,10.00
2024-10-11 20:48:41.383,1.115426,0.9867781,0.44599092,0.08408228,0.7290176,0.32485828,-0.1770154,0.24096557,0.88819087,0.2960489,-0.05246853,0.8781362,0.52130055,-0.083361715,0.44991824,0.49832776,0.17416565,-0.5783715,0.32854402,0.17027378,797.3993,795.38464,815.12823,790.9524,731.31866,-0.0263671875,0.089599609375,1.006591796875,-6.751556396484375,9.031982421875,-4.71038818359375,1,2.0,1.0,1.0,2.0,10.00
2024-10-11 20:48:41.384,1.115426,0.9867781,0.44599092,0.08408228,0.7290176,0.32485828,-0.1770154,0.24096557,0.88819087,0.2960489,-0.05246853,0.8781362,0.52130055,-0.083361715,0.44991824,0.49832776,0.17416565,-0.5783715,0.32854402,0.17027378,800.6227,798.20514,801.8315,803.44324,632.6007,-0.0263671875,0.089599609375,1.006591796875,-6.751556396484375,9.031982421875,-4.71038818359375,1,2.0,1.0,1.0,2.0,10.00
2024-10-11 20:48:41.385,1.115426,0.9867781,0.44599092,0.08408228,0.7290176,0.32485828,-0.1770154,0.24096557,0.88819087,0.2960489,-0.05246853,0.8781362,0.52130055,-0.083361715,0.44991824,0.49832776,0.17416565,-0.5783715,0.32854402,0.17027378,806.6667,798.60803,808.68134,817.5458,1019.41394,-0.0263671875,0.089599609375,1.006591796875,-6.751556396484375,9.031982421875,-4.71038818359375,1,2.0,1.0,1.0,2.0,10.00
2024-10-11 20:48:41.385,1.115426,0.9867781,0.44599092,0.08408228,0.7290176,0.32485828,-0.1770154,0.24096557,0.88819087,0.2960489,-0.05246853,0.8781362,0.52130055,-0.083361715,0.44991824,0.49832776,0.17416565,-0.5783715,0.32854402,0.17027378,801.8315,796.99634,817.9487,812.3077,1328.0586,-0.0263671875,0.089599609375,1.006591796875,-6.751556396484375,9.031982421875,-4.71038818359375,1,2.0,1.0,1.0,2.0,10.00
2024-10-11 20:48:41.386,1.115426,0.97013783,0.44599092,0.08408228,0.7290176,0.31344554,-0.1770154,0.24096557,0.88819087,0.26496276,-0.05246853,0.8781362,0.52130055,-0.08990339,0.44991824,0.49832776,0.17416565,-0.5732487,0.32854402,0.17027378,797.8022,795.38464,809.89014,808.2784,837.6923,-0.0263671875,0.089599609375,1.006591796875,-6.751556396484375,9.031982421875,-4.71038818359375,1,2.0,1.0,1.0,2.0,10.00
2024-10-11 20:48:41.392,1.115426,0.97013783,0.44599092,0.08408228,0.7290176,0.31344554,-0.1770154,0.24096557,0.88819087,0.26496276,-0.05246853,0.8781362,0.52130055,-0.08990339,0.44991824,0.49832776,0.17416565,-0.5732487,0.32854402,0.17027378,802.23444,795.78754,805.05493,820.7692,593.5165,-0.0263671875,0.089599609375,1.006591796875,-6.751556396484375,9.031982421875,-4.71038818359375,1,2.0,1.0,1.0,2.0,10.00
2024-10-11 20:48:41.392,1.115426,0.97013783,0.44599092,0.08408228,0.7290176,0.31344554,-0.1770154,0.24096557,0.88819087,0.26496276,-0.05246853,0.8781362,0.52130055,-0.08990339,0.44991824,0.49832776,0.17416565,-0.5732487,0.32854402,0.17027378,801.02563,795.38464,798.20514,820.3663,733.3333,-0.0263671875,0.089599609375,1.006591796875,-6.751556396484375,9.031982421875,-4.71038818359375,1,2.0,1.0,1.0,2.0,10.00
2024-10-11 20:48:41.393,1.115426,0.97013783,0.44599092,0.08408228,0.7290176,0.31344554,-0.1770154,0.24096557,0.88819087,0.26496276,-0.05246853,0.8781362,0.52130055,-0.08990339,0.44991824,0.49832776,0.17416565,-0.5732487,0.32854402,0.17027378,793.7729,794.57874,796.1905,805.05493,734.94507,-0.0263671875,0.089599609375,1.006591796875,-6.751556396484375,9.031982421875,-4.71038818359375,1,2.0,1.0,1.0,2.0,10.00
2024-10-11 20:48:41.394,1.115426,0.97013783,0.44599092,0.08408228,0.7290176,0.31344554,-0.1770154,0.24096557,0.88819087,0.26496276,-0.05246853,0.8781362,0.52130055,-0.08990339,0.44991824,0.49832776,0.17416565,-0.5732487,0.32854402,0.17027378,796.5934,797.3993,812.71063,799.41394,631.39197,-0.0263671875,0.089599609375,1.006591796875,-6.751556396484375,9.031982421875,-4.71038818359375,1,2.0,1.0,1.0,2.0,10.00
2024-10-11 20:48:41.465,1.115426,0.97013783,0.44599092,0.08408228,0.7290176,0.31344554,-0.1770154,0.24096557,0.88819087,0.26496276,-0.05246853,0.8781362,0.52130055,-0.08990339,0.44991824,0.49832776,0.17416565,-0.5732487,0.32854402,0.17027378,804.65204,801.4286,815.5311,800.6227,667.25275,-0.04034423828125,0.085693359375,1.00830078125,-6.74407958984375,9.876861572265625,-3.895416259765625,1,2.0,1.0,1.0,2.0,10.00
2024-10-11 20:48:41.466,1.115426,0.97013783,0.44599092,0.08408228,0.7290176,0.31344554,-0.1770154,0.24096557,0.88819087,0.26496276,-0.05246853,0.8781362,0.52130055,-0.08990339,0.44991824,0.49832776,0.17416565,-0.5732487,0.32854402,0.17027378,808.68134,798.60803,799.81683,797.3993,769.59705,-0.04034423828125,0.085693359375,1.00830078125,-6.74407958984375,9.876861572265625,-3.895416259765625,1,2.0,1.0,1.0,2.0,10.00
2024-10-11 20:48:41.467,1.115426,0.97013783,0.44599092,0.08408228,0.7290176,0.31344554,-0.1770154,0.24096557,0.88819087,0.26496276,-0.05246853,0.8781362,0.52130055,-0.08990339,0.44991824,0.49832776,0.17416565,-0.5732487,0.32854402,0.17027378,806.26373,800.6227,797.8022,803.0403,789.7436,-0.04034423828125,0.085693359375,1.00830078125,-6.74407958984375,9.876861572265625,-3.895416259765625,1,2.0,1.0,1.0,2.0,10.00
2024-10-11 20:48:41.468,1.115426,0.97013783,0.44599092,0.08408228,0.7290176,0.31344554,-0.1770154,0.24096557,0.88819087,0.26496276,-0.05246853,0.8781362,0.52130055,-0.08990339,0.44991824,0.49832776,0.17416565,-0.5732487,0.32854402,0.17027378,805.8608,801.8315,808.68134,811.9048,765.56775,-0.04034423828125,0.085693359375,1.00830078125,-6.74407958984375,9.876861572265625,-3.895416259765625,1,2.0,1.0,1.0,2.0,10.00
2024-10-11 20:48:41.469,1.115426,0.97013783,0.44599092,0.08408228,0.7290176,0.31344554,-0.1770154,0.24096557,0.88819087,0.26496276,-0.05246853,0.8781362,0.52130055,-0.08990339,0.44991824,0.49832776,0.17416565,-0.5732487,0.32854402,0.17027378,805.4579,799.011,817.1429,817.5458,800.6227,-0.04034423828125,0.085693359375,1.00830078125,-6.74407958984375,9.876861572265625,-3.895416259765625,1,2.0,1.0,1.0,2.0,10.00
2024-10-11 20:48:41.470,1.115426,0.97013783,0.44599092,0.08408228,0.7290176,0.31344554,-0.1770154,0.24096557,0.88819087,0.26496276,-0.05246853,0.8781362,0.52130055,-0.08990339,0.44991824,0.49832776,0.17416565,-0.5732487,0.32854402,0.17027378,804.2491,802.6374,820.7692,820.7692,923.1135,-0.04034423828125,0.085693359375,1.00830078125,-6.74407958984375,9.876861572265625,-3.895416259765625,1,2.0,1.0,1.0,2.0,10.00
2024-10-11 20:48:41.470,1.115426,0.97013783,0.44599092,0.08408228,0.7290176,0.31344554,-0.1770154,0.24096557,0.88819087,0.26496276,-0.05246853,0.8781362,0.52130055,-0.08990339,0.44991824,0.49832776,0.17416565,-0.5732487,0.32854402,0.17027378,811.9048,800.2198,810.696,814.3223,990.40295,-0.04034423828125,0.085693359375,1.00830078125,-6.74407958984375,9.876861572265625,-3.895416259765625,1,2.0,1.0,1.0,2.0,10.00
2024-10-11 20:48:41.471,1.115426,0.97013783,0.44599092,0.08408228,0.7290176,0.31344554,-0.1770154,0.24096557,0.88819087,0.26496276,-0.05246853,0.8781362,0.52130055,-0.08990339,0.44991824,0.49832776,0.17416565,-0.5732487,0.32854402,0.17027378,815.5311,799.011,804.65204,805.8608,880.40295,-0.04034423828125,0.085693359375,1.00830078125,-6.74407958984375,9.876861572265625,-3.895416259765625,1,2.0,1.0,1.0,2.0,10.00
2024-10-11 20:48:41.472,1.115426,0.97013783,0.44599092,0.08408228,0.7290176,0.31344554,-0.1770154,0.24096557,0.88819087,0.26496276,-0.05246853,0.8781362,0.52130055,-0.08990339,0.44991824,0.49832776,0.17416565,-0.5732487,0.32854402,0.17027378,808.68134,794.9817,792.1612,797.3993,871.53845,-0.04034423828125,0.085693359375,1.00830078125,-6.74407958984375,9.876861572265625,-3.895416259765625,1,2.0,1.0,1.0,2.0,10.00
2024-10-11 20:48:41.473,1.115426,0.97013783,0.44599092,0.08408228,0.7290176,0.31344554,-0.1770154,0.24096557,0.88819087,0.26496276,-0.05246853,0.8781362,0.52130055,-0.08990339,0.44991824,0.49832776,0.17416565,-0.5732487,0.32854402,0.17027378,808.2784,794.57874,784.90845,800.2198,926.7399,-0.04034423828125,0.085693359375,1.00830078125,-6.74407958984375,9.876861572265625,-3.895416259765625,1,2.0,1.0,1.0,2.0,10.00
2024-10-11 20:48:41.474,1.115426,0.97013783,0.44599092,0.08408228,0.7290176,0.31344554,-0.1770154,0.24096557,0.88819087,0.26496276,-0.05246853,0.8781362,0.52130055,-0.08990339,0.44991824,0.49832776,0.17416565,-0.5732487,0.32854402,0.17027378,811.9048,795.38464,797.8022,799.81683,766.3736,-0.04034423828125,0.085693359375,1.00830078125,-6.74407958984375,9.876861572265625,-3.895416259765625,1,2.0,1.0,1.0,2.0,10.00
2024-10-11 20:48:41.475,1.115426,0.97013783,0.44599092,0.08408228,0.7290176,0.31344554,-0.1770154,0.24096557,0.88819087,0.26496276,-0.05246853,0.8781362,0.52130055,-0.08990339,0.44991824,0.49832776,0.17416565,-0.5732487,0.32854402,0.17027378,811.9048,790.9524,802.6374,797.8022,741.79486,-0.04034423828125,0.085693359375,1.00830078125,-6.74407958984375,9.876861572265625,-3.895416259765625,1,2.0,1.0,1.0,2.0,10.00
2024-10-11 20:48:41.476,1.115426,0.97013783,0.44599092,0.08408228,0.7290176,0.31344554,-0.1770154,0.24096557,0.88819087,0.26496276,-0.05246853,0.8781362,0.52130055,-0.08990339,0.44991824,0.49832776,0.17416565,-0.5732487,0.32854402,0.17027378,817.5458,796.1905,800.6227,805.05493,894.5055,-0.06231689453125,0.07818603515625,1.00177001953125,-7.499237060546875,10.09368896484375,-3.102874755859375,1,2.0,1.0,1.0,2.0,10.00
2024-10-11 20:48:41.477,1.115426,0.97013783,0.44599092,0.08408228,0.7290176,0.31344554,-0.1770154,0.24096557,0.88819087,0.26496276,-0.05246853,0.8781362,0.52130055,-0.08990339,0.44991824,0.49832776,0.17416565,-0.5732487,0.32854402,0.17027378,822.7839,794.57874,807.47253,806.6667,901.75824,-0.06231689453125,0.07818603515625,1.00177001953125,-7.499237060546875,10.09368896484375,-3.102874755859375,1,2.0,1.0,1.0,2.0,10.00
2024-10-11 20:48:41.478,1.115426,0.97013783,0.44599092,0.08408228,0.7290176,0.31344554,-0.1770154,0.24096557,0.88819087,0.26496276,-0.05246853,0.8781362,0.52130055,-0.08990339,0.44991824,0.49832776,0.17416565,-0.5732487,0.32854402,0.17027378,813.91943,792.96704,807.0696,803.8461,670.4762,-0.06231689453125,0.07818603515625,1.00177001953125,-7.499237060546875,10.09368896484375,-3.102874755859375,1,2.0,1.0,1.0,2.0,10.00
2024-10-11 20:48:41.479,1.115426,0.97013783,0.44599092,0.08408228,0.7290176,0.31344554,-0.1770154,0.24096557,0.88819087,0.26496276,-0.05246853,0.8781362,0.52130055,-0.08990339,0.44991824,0.49832776,0.17416565,-0.5732487,0.32854402,0.17027378,801.8315,796.1905,803.44324,804.2491,650.32965,-0.06231689453125,0.07818603515625,1.00177001953125,-7.499237060546875,10.09368896484375,-3.102874755859375,1,2.0,1.0,1.0,2.0,10.00
2024-10-11 20:48:41.480,1.115426,0.97013783,0.44599092,0.08408228,0.7290176,0.31344554,-0.1770154,0.24096557,0.88819087,0.26496276,-0.05246853,0.8781362,0.52130055,-0.08990339,0.44991824,0.49832776,0.17416565,-0.5732487,0.32854402,0.17027378,799.41394,793.7729,799.81683,808.68134,842.1245,-0.06231689453125,0.07818603515625,1.00177001953125,-7.499237060546875,10.09368896484375,-3.102874755859375,1,2.0,1.0,1.0,2.0,10.00
2024-10-11 20:48:41.480,1.115426,0.97013783,0.44599092,0.08408228,0.7290176,0.31344554,-0.1770154,0.24096557,0.88819087,0.26496276,-0.05246853,0.8781362,0.52130055,-0.08990339,0.44991824,0.49832776,0.17416565,-0.5732487,0.32854402,0.17027378,799.011,796.99634,792.5641,812.3077,906.5934,-0.06231689453125,0.07818603515625,1.00177001953125,-7.499237060546875,10.09368896484375,-3.102874755859375,1,2.0,1.0,1.0,2.0,10.00
2024-10-11 20:48:41.481,1.115426,0.97013783,0.44599092,0.08408228,0.7290176,0.31344554,-0.1770154,0.24096557,0.88819087,0.26496276,-0.05246853,0.8781362,0.52130055,-0.08990339,0.44991824,0.49832776,0.17416565,-0.5732487,0.32854402,0.17027378,805.05493,794.9817,805.8608,811.50183,865.89746,-0.06231689453125,0.07818603515625,1.00177001953125,-7.499237060546875,10.09368896484375,-3.102874755859375,1,2.0,1.0,1.0,2.0,10.00
2024-10-11 20:48:41.482,1.115426,0.97013783,0.44599092,0.08408228,0.7290176,0.31344554,-0.1770154,0.24096557,0.88819087,0.26496276,-0.05246853,0.8781362,0.52130055,-0.08990339,0.44991824,0.49832776,0.17416565,-0.5732487,0.32854402,0.17027378,801.4286,787.72894,806.6667,810.293,795.78754,-0.06231689453125,0.07818603515625,1.00177001953125,-7.499237060546875,10.09368896484375,-3.102874755859375,1,2.0,1.0,1.0,2.0,10.00
2024-10-11 20:48:41.482,1.115426,0.97013783,0.44599092,0.08408228,0.7290176,0.31344554,-0.1770154,0.24096557,0.88819087,0.26496276,-0.05246853,0.8781362,0.52130055,-0.08990339,0.44991824,0.49832776,0.17416565,-0.5732487,0.32854402,0.17027378,798.60803,787.72894,780.07324,809.4872,931.1722,-0.06231689453125,0.07818603515625,1.00177001953125,-7.499237060546875,10.09368896484375,-3.102874755859375,1,2.0,1.0,1.0,2.0,10.00
2024-10-11 20:48:41.483,1.115426,0.94225115,0.44599092,0.08408228,0.7290176,0.27931833,-0.1770154,0.24096557,0.88819087,0.18873286,-0.05246853,0.8781362,0.52130055,-0.09771941,0.44991824,0.49832776,0.17416565,-0.5710802,0.32854402,0.17027378,801.8315,788.93774,779.2674,804.2491,854.61536,-0.06231689453125,0.07818603515625,1.00177001953125,-7.499237060546875,10.09368896484375,-3.102874755859375,1,2.0,1.0,1.0,2.0,10.00
2024-10-11 20:48:41.488,1.115426,0.94225115,0.44599092,0.08408228,0.7290176,0.27931833,-0.1770154,0.24096557,0.88819087,0.18873286,-0.05246853,0.8781362,0.52130055,-0.09771941,0.44991824,0.49832776,0.17416565,-0.5710802,0.32854402,0.17027378,797.3993,788.1319,800.6227,796.5934,569.34064,-0.06231689453125,0.07818603515625,1.00177001953125,-7.499237060546875,10.09368896484375,-3.102874755859375,1,2.0,1.0,1.0,2.0,10.00
2024-10-11 20:48:41.489,1.115426,0.94225115,0.44599092,0.08408228,0.7290176,0.27931833,-0.1770154,0.24096557,0.88819087,0.18873286,-0.05246853,0.8781362,0.52130055,-0.09771941,0.44991824,0.49832776,0.17416565,-0.5710802,0.32854402,0.17027378,808.68134,788.93774,799.81683,799.41394,664.0293,-0.06231689453125,0.07818603515625,1.00177001953125,-7.499237060546875,10.09368896484375,-3.102874755859375,1,2.0,1.0,1.0,2.0,10.00
2024-10-11 20:48:41.572,1.115426,0.94225115,0.44599092,0.08408228,0.7290176,0.27931833,-0.1770154,0.24096557,0.88819087,0.18873286,-0.05246853,0.8781362,0.52130055,-0.09771941,0.44991824,0.49832776,0.17416565,-0.5710802,0.32854402,0.17027378,805.05493,785.7143,802.23444,801.4286,813.91943,-0.07513427734375,0.0689697265625,1.009521484375,-8.740386962890625,10.64697265625,-1.786956787109375,1,2.0,1.0,1.0,2.0,10.00
2024-10-11 20:48:41.573,1.115426,0.94225115,0.44599092,0.08408228,0.7290176,0.27931833,-0.1770154,0.24096557,0.88819087,0.18873286,-0.05246853,0.8781362,0.52130055,-0.09771941,0.44991824,0.49832776,0.17416565,-0.5710802,0.32854402,0.17027378,792.5641,784.10254,806.26373,797.8022,738.97437,-0.07513427734375,0.0689697265625,1.009521484375,-8.740386962890625,10.64697265625,-1.786956787109375,1,2.0,1.0,1.0,2.0,10.00
2024-10-11 20:48:41.574,1.115426,0.94225115,0.44599092,0.08408228,0.7290176,0.27931833,-0.1770154,0.24096557,0.88819087,0.18873286,-0.05246853,0.8781362,0.52130055,-0.09771941,0.44991824,0.49832776,0.17416565,-0.5710802,0.32854402,0.17027378,801.02563,788.5348,805.4579,799.011,606.0073,-0.07513427734375,0.0689697265625,1.009521484375,-8.740386962890625,10.64697265625,-1.786956787109375,1,2.0,1.0,1.0,2.0,10.00
2024-10-11 20:48:41.575,1.115426,0.94225115,0.44599092,0.08408228,0.7290176,0.27931833,-0.1770154,0.24096557,0.88819087,0.18873286,-0.05246853,0.8781362,0.52130055,-0.09771941,0.44991824,0.49832776,0.17416565,-0.5710802,0.32854402,0.17027378,801.02563,787.326,806.6667,801.8315,717.619,-0.07513427734375,0.0689697265625,1.009521484375,-8.740386962890625,10.64697265625,-1.786956787109375,1,2.0,1.0,1.0,2.0,10.00
2024-10-11 20:48:41.576,1.115426,0.94225115,0.44599092,0.08408228,0.7290176,0.27931833,-0.1770154,0.24096557,0.88819087,0.18873286,-0.05246853,0.8781362,0.52130055,-0.09771941,0.44991824,0.49832776,0.17416565,-0.5710802,0.32854402,0.17027378,801.4286,787.326,804.65204,811.50183,877.5824,-0.07513427734375,0.0689697265625,1.009521484375,-8.740386962890625,10.64697265625,-1.786956787109375,1,2.0,1.0,1.0,2.0,10.00
2024-10-11 20:48:41.577,1.115426,0.94225115,0.44599092,0.08408228,0.7290176,0.27931833,-0.1770154,0.24096557,0.88819087,0.18873286,-0.05246853,0.8781362,0.52130055,-0.09771941,0.44991824,0.49832776,0.17416565,-0.5710802,0.32854402,0.17027378,810.696,789.34064,807.47253,811.50183,871.13556,-0.07513427734375,0.0689697265625,1.009521484375,-8.740386962890625,10.64697265625,-1.786956787109375,1,2.0,1.0,1.0,2.0,10.00
2024-10-11 20:48:41.578,1.115426,0.94225115,0.44599092,0.08408228,0.7290176,0.27931833,-0.1770154,0.24096557,0.88819087,0.18873286,-0.05246853,0.8781362,0.52130055,-0.09771941,0.44991824,0.49832776,0.17416565,-0.5710802,0.32854402,0.17027378,805.4579,786.1172,793.36993,809.0842,802.23444,-0.07513427734375,0.0689697265625,1.009521484375,-8.740386962890625,10.64697265625,-1.786956787109375,1,2.0,1.0,1.0,2.0,10.00
2024-10-11 20:48:41.579,1.115426,0.94225115,0.44599092,0.08408228,0.7290176,0.27931833,-0.1770154,0.24096557,0.88819087,0.18873286,-0.05246853,0.8781362,0.52130055,-0.09771941,0.44991824,0.49832776,0.17416565,-0.5710802,0.32854402,0.17027378,790.9524,783.2967,780.4762,815.5311,819.15753,-0.07513427734375,0.0689697265625,1.009521484375,-8.740386962890625,10.64697265625,-1.786956787109375,1,2.0,1.0,1.0,2.0,10.00
2024-10-11 20:48:41.580,1.115426,0.94225115,0.44599092,0.08408228,0.7290176,0.27931833,-0.1770154,0.24096557,0.88819087,0.18873286,-0.05246853,0.8781362,0.52130055,-0.09771941,0.44991824,0.49832776,0.17416565,-0.5710802,0.32854402,0.17027378,802.6374,787.72894,802.23444,817.5458,815.12823,-0.07513427734375,0.0689697265625,1.009521484375,-8.740386962890625,10.64697265625,-1.786956787109375,1,2.0,1.0,1.0,2.0,10.00
2024-10-11 20:48:41.581,1.115426,0.94225115,0.44599092,0.08408228,0.7290176,0.27931833,-0.1770154,0.24096557,0.88819087,0.18873286,-0.05246853,0.8781362,0.52130055,-0.09771941,0.44991824,0.49832776,0.17416565,-0.5710802,0.32854402,0.17027378,807.0696,788.5348,799.81683,809.89014,635.82416,-0.07513427734375,0.0689697265625,1.009521484375,-8.740386962890625,10.64697265625,-1.786956787109375,1,2.0,1.0,1.0,2.0,10.00
2024-10-11 20:48:41.582,1.115426,0.94225115,0.44599092,0.08408228,0.7290176,0.27931833,-0.1770154,0.24096557,0.88819087,0.18873286,-0.05246853,0.8781362,0.52130055,-0.09771941,0.44991824,0.49832776,0.17416565,-0.5710802,0.32854402,0.17027378,806.26373,790.14655,794.17584,808.68134,490.3663,-0.07513427734375,0.0689697265625,1.009521484375,-8.740386962890625,10.64697265625,-1.786956787109375,1,2.0,1.0,1.0,2.0,10.00
2024-10-11 20:48:41.583,1.115426,0.94225115,0.44599092,0.08408228,0.7290176,0.27931833,-0.1770154,0.24096557,0.88819087,0.18873286,-0.05246853,0.8781362,0.52130055,-0.09771941,0.44991824,0.49832776,0.17416565,-0.5710802,0.32854402,0.17027378,818.7546,795.38464,815.12823,805.05493,677.72894,-0.07513427734375,0.0689697265625,1.009521484375,-8.740386962890625,10.64697265625,-1.786956787109375,1,2.0,1.0,1.0,2.0,10.00
2024-10-11 20:48:41.585,1.115426,0.94225115,0.44599092,0.08408228,0.7290176,0.27931833,-0.1770154,0.24096557,0.88819087,0.18873286,-0.05246853,0.8781362,0.52130055,-0.09771941,0.44991824,0.49832776,0.17416565,-0.5710802,0.32854402,0.17027378,811.9048,792.96704,819.9634,806.6667,1165.6776,-0.10260009765625,0.0531005859375,0.99749755859375,-10.818939208984375,12.32177734375,-0.01495361328125,1,2.0,1.0,1.0,2.0,10.00
2024-10-11 20:48:41.586,1.115426,0.94225115,0.44599092,0.08408228,0.7290176,0.27931833,-0.1770154,0.24096557,0.88819087,0.18873286,-0.05246853,0.8781362,0.52130055,-0.09771941,0.44991824,0.49832776,0.17416565,-0.5710802,0.32854402,0.17027378,815.12823,791.75824,820.7692,816.337,1141.9048,-0.10260009765625,0.0531005859375,0.99749755859375,-10.818939208984375,12.32177734375,-0.01495361328125,1,2.0,1.0,1.0,2.0,10.00
2024-10-11 20:48:41.586,1.115426,0.94225115,0.44599092,0.08408228,0.7290176,0.27931833,-0.1770154,0.24096557,0.88819087,0.18873286,-0.05246853,0.8781362,0.52130055,-0.09771941,0.44991824,0.49832776,0.17416565,-0.5710802,0.32854402,0.17027378,819.5604,791.75824,811.0989,812.71063,655.9707,-0.10260009765625,0.0531005859375,0.99749755859375,-10.818939208984375,12.32177734375,-0.01495361328125,1,2.0,1.0,1.0,2.0,10.00
2024-10-11 20:48:41.587,1.115426,0.94225115,0.44599092,0.08408228,0.7290176,0.27931833,-0.1770154,0.24096557,0.88819087,0.18873286,-0.05246853,0.8781362,0.52130055,-0.09771941,0.44991824,0.49832776,0.17416565,-0.5710802,0.32854402,0.17027378,807.47253,794.17584,799.41394,810.696,486.337,-0.10260009765625,0.0531005859375,0.99749755859375,-10.818939208984375,12.32177734375,-0.01495361328125,1,2.0,1.0,1.0,2.0,10.00
2024-10-11 20:48:41.588,1.115426,0.94225115,0.44599092,0.08408228,0.7290176,0.27931833,-0.1770154,0.24096557,0.88819087,0.18873286,-0.05246853,0.8781362,0.52130055,-0.09771941,0.44991824,0.49832776,0.17416565,-0.5710802,0.32854402,0.17027378,811.50183,796.99634,805.8608,816.7399,539.5238,-0.10260009765625,0.0531005859375,0.99749755859375,-10.818939208984375,12.32177734375,-0.01495361328125,1,2.0,1.0,1.0,2.0,10.00
2024-10-11 20:48:41.589,1.115426,0.94225115,0.44599092,0.08408228,0.7290176,0.27931833,-0.1770154,0.24096557,0.88819087,0.18873286,-0.05246853,0.8781362,0.52130055,-0.09771941,0.44991824,0.49832776,0.17416565,-0.5710802,0.32854402,0.17027378,811.0989,796.1905,801.4286,811.0989,630.18317,-0.10260009765625,0.0531005859375,0.99749755859375,-10.818939208984375,12.32177734375,-0.01495361328125,1,2.0,1.0,1.0,2.0,10.00
2024-10-11 20:48:41.590,1.115426,0.94225115,0.44599092,0.08408228,0.7290176,0.27931833,-0.1770154,0.24096557,0.88819087,0.18873286,-0.05246853,0.8781362,0.52130055,-0.09771941,0.44991824,0.49832776,0.17416565,-0.5710802,0.32854402,0.17027378,801.8315,796.1905,797.8022,806.6667,618.49817,-0.10260009765625,0.0531005859375,0.99749755859375,-10.818939208984375,12.32177734375,-0.01495361328125,1,2.0,1.0,1.0,2.0,10.00
2024-10-11 20:48:41.591,1.115426,0.94225115,0.44599092,0.08408228,0.7290176,0.27931833,-0.1770154,0.24096557,0.88819087,0.18873286,-0.05246853,0.8781362,0.52130055,-0.09771941,0.44991824,0.49832776,0.17416565,-0.5710802,0.32854402,0.17027378,803.8461,797.3993,803.44324,814.7253,592.71063,-0.10260009765625,0.0531005859375,0.99749755859375,-10.818939208984375,12.32177734375,-0.01495361328125,1,2.0,1.0,1.0,2.0,10.00
2024-10-11 20:48:41.592,1.115426,0.94225115,0.44599092,0.08408228,0.7290176,0.27931833,-0.1770154,0.24096557,0.88819087,0.18873286,-0.05246853,0.8781362,0.52130055,-0.09771941,0.44991824,0.49832776,0.17416565,-0.5710802,0.32854402,0.17027378,803.44324,803.44324,798.20514,819.15753,599.5604,-0.10260009765625,0.0531005859375,0.99749755859375,-10.818939208984375,12.32177734375,-0.01495361328125,1,2.0,1.0,1.0,2.0,10.00
2024-10-11 20:48:41.593,1.115426,0.94225115,0.44599092,0.08408228,0.7290176,0.27931833,-0.1770154,0.24096557,0.88819087,0.18873286,-0.05246853,0.8781362,0.52130055,-0.09771941,0.44991824,0.49832776,0.17416565,-0.5710802,0.32854402,0.17027378,801.02563,805.05493,793.7729,815.9341,561.685,-0.10260009765625,0.0531005859375,0.99749755859375,-10.818939208984375,12.32177734375,-0.01495361328125,1,2.0,1.0,1.0,2.0,10.00
2024-10-11 20:48:41.594,1.115426,0.94225115,0.44599092,0.08408228,0.7290176,0.27931833,-0.1770154,0.24096557,0.88819087,0.18873286,-0.05246853,0.8781362,0.52130055,-0.09771941,0.44991824,0.49832776,0.17416565,-0.5710802,0.32854402,0.17027378,805.4579,800.6227,794.17584,812.3077,558.46155,-0.10260009765625,0.0531005859375,0.99749755859375,-10.818939208984375,12.32177734375,-0.01495361328125,1,2.0,1.0,1.0,2.0,10.00
2024-10-11 20:48:41.595,1.115426,0.908704,0.44599092,0.08408228,0.7290176,0.23390983,-0.1770154,0.24096557,0.88819087,0.049864084,-0.05246853,0.8781362,0.52130055,-0.10531891,0.44991824,0.49832776,0.17416565,-0.574756,0.32854402,0.17027378,809.4872,803.0403,781.685,803.44324,680.14655,-0.10260009765625,0.0531005859375,0.99749755859375,-10.818939208984375,12.32177734375,-0.01495361328125,1,2.0,1.0,1.0,2.0,10.00
2024-10-11 20:48:41.637,1.115426,0.908704,0.44599092,0.08408228,0.7290176,0.23390983,-0.1770154,0.24096557,0.88819087,0.049864084,-0.05246853,0.8781362,0.52130055,-0.10531891,0.44991824,0.49832776,0.17416565,-0.574756,0.32854402,0.17027378,815.5311,802.6374,776.4469,803.44324,670.87915,-0.12701416015625,0.0211181640625,0.9935302734375,-11.8133544921875,12.553558349609375,1.57012939453125,1,2.0,1.0,1.0,2.0,10.00
2024-10-11 20:48:41.639,1.115426,0.908704,0.44599092,0.08408228,0.7290176,0.23390983,-0.1770154,0.24096557,0.88819087,0.049864084,-0.05246853,0.8781362,0.52130055,-0.10531891,0.44991824,0.49832776,0.17416565,-0.574756,0.32854402,0.17027378,813.5165,803.44324,797.3993,804.65204,525.42126,-0.12701416015625,0.0211181640625,0.9935302734375,-11.8133544921875,12.553558349609375,1.57012939453125,1,2.0,1.0,1.0,2.0,10.00
2024-10-11 20:48:41.639,1.115426,0.908704,0.44599092,0.08408228,0.7290176,0.23390983,-0.1770154,0.24096557,0.88819087,0.049864084,-0.05246853,0.8781362,0.52130055,-0.10531891,0.44991824,0.49832776,0.17416565,-0.574756,0.32854402,0.17027378,807.47253,796.99634,803.44324,800.2198,646.7033,-0.12701416015625,0.0211181640625,0.9935302734375,-11.8133544921875,12.553558349609375,1.57012939453125,1,2.0,1.0,1.0,2.0,10.00
2024-10-11 20:48:41.640,1.115426,0.908704,0.44599092,0.08408228,0.7290176,0.23390983,-0.1770154,0.24096557,0.88819087,0.049864084,-0.05246853,0.8781362,0.52130055,-0.10531891,0.44991824,0.49832776,0.17416565,-0.574756,0.32854402,0.17027378,812.71063,787.72894,799.81683,801.4286,759.12085,-0.12701416015625,0.0211181640625,0.9935302734375,-11.8133544921875,12.553558349609375,1.57012939453125,1,2.0,1.0,1.0,2.0,10.00
2024-10-11 20:48:41.641,1.115426,0.908704,0.44599092,0.08408228,0.7290176,0.23390983,-0.1770154,0.24096557,0.88819087,0.049864084,-0.05246853,0.8781362,0.52130055,-0.10531891,0.44991824,0.49832776,0.17416565,-0.574756,0.32854402,0.17027378,816.7399,792.96704,804.2491,809.89014,690.6227,-0.12701416015625,0.0211181640625,0.9935302734375,-11.8133544921875,12.553558349609375,1.57012939453125,1,2.0,1.0,1.0,2.0,10.00
2024-10-11 20:48:41.642,1.115426,0.908704,0.44599092,0.08408228,0.7290176,0.23390983,-0.1770154,0.24096557,0.88819087,0.049864084,-0.05246853,0.8781362,0.52130055,-0.10531891,0.44991824,0.49832776,0.17416565,-0.574756,0.32854402,0.17027378,814.3223,798.20514,802.23444,802.6374,745.82416,-0.12701416015625,0.0211181640625,0.9935302734375,-11.8133544921875,12.553558349609375,1.57012939453125,1,2.0,1.0,1.0,2.0,10.00
2024-10-11 20:48:41.643,1.115426,0.908704,0.44599092,0.08408228,0.7290176,0.23390983,-0.1770154,0.24096557,0.88819087,0.049864084,-0.05246853,0.8781362,0.52130055,-0.10531891,0.44991824,0.49832776,0.17416565,-0.574756,0.32854402,0.17027378,811.50183,796.5934,805.8608,793.7729,982.74725,-0.12701416015625,0.0211181640625,0.9935302734375,-11.8133544921875,12.553558349609375,1.57012939453125,1,2.0,1.0,1.0,2.0,10.00
2024-10-11 20:48:41.644,1.115426,0.908704,0.44599092,0.08408228,0.7290176,0.23390983,-0.1770154,0.24096557,0.88819087,0.049864084,-0.05246853,0.8781362,0.52130055,-0.10531891,0.44991824,0.49832776,0.17416565,-0.574756,0.32854402,0.17027378,807.47253,799.41394,805.05493,803.8461,965.82416,-0.12701416015625,0.0211181640625,0.9935302734375,-11.8133544921875,12.553558349609375,1.57012939453125,1,2.0,1.0,1.0,2.0,10.00
2024-10-11 20:48:41.645,1.115426,0.908704,0.44599092,0.08408228,0.7290176,0.23390983,-0.1770154,0.24096557,0.88819087,0.049864084,-0.05246853,0.8781362,0.52130055,-0.10531891,0.44991824,0.49832776,0.17416565,-0.574756,0.32854402,0.17027378,810.293,801.8315,795.38464,815.5311,760.7326,-0.12701416015625,0.0211181640625,0.9935302734375,-11.8133544921875,12.553558349609375,1.57012939453125,1,2.0,1.0,1.0,2.0,10.00
2024-10-11 20:48:41.646,1.115426,0.908704,0.44599092,0.08408228,0.7290176,0.23390983,-0.1770154,0.24096557,0.88819087,0.049864084,-0.05246853,0.8781362,0.52130055,-0.10531891,0.44991824,0.49832776,0.17416565,-0.574756,0.32854402,0.17027378,811.50183,798.60803,795.38464,827.2161,686.99634,-0.12701416015625,0.0211181640625,0.9935302734375,-11.8133544921875,12.553558349609375,1.57012939453125,1,2.0,1.0,1.0,2.0,10.00
2024-10-11 20:48:41.646,1.115426,0.908704,0.44599092,0.08408228,0.7290176,0.23390983,-0.1770154,0.24096557,0.88819087,0.049864084,-0.05246853,0.8781362,0.52130055,-0.10531891,0.44991824,0.49832776,0.17416565,-0.574756,0.32854402,0.17027378,809.4872,796.1905,795.78754,830.84247,750.2564,-0.12701416015625,0.0211181640625,0.9935302734375,-11.8133544921875,12.553558349609375,1.57012939453125,1,2.0,1.0,1.0,2.0,10.00
2024-10-11 20:48:41.648,1.115426,0.908704,0.44599092,0.08408228,0.7290176,0.23390983,-0.1770154,0.24096557,0.88819087,0.049864084,-0.05246853,0.8781362,0.52130055,-0.10531891,0.44991824,0.49832776,0.17416565,-0.574756,0.32854402,0.17027378,807.47253,794.17584,799.81683,819.5604,1178.9744,-0.12701416015625,0.0211181640625,0.9935302734375,-11.8133544921875,12.553558349609375,1.57012939453125,1,2.0,1.0,1.0,2.0,10.00
2024-10-11 20:48:41.686,1.115426,0.908704,0.44599092,0.08408228,0.7290176,0.23390983,-0.1770154,0.24096557,0.88819087,0.049864084,-0.05246853,0.8781362,0.52130055,-0.10531891,0.44991824,0.49832776,0.17416565,-0.574756,0.32854402,0.17027378,803.8461,794.9817,790.54944,805.8608,1125.3846,-0.12701416015625,0.0211181640625,0.9935302734375,-11.8133544921875,12.553558349609375,1.57012939453125,1,2.0,1.0,1.0,2.0,10.00
2024-10-11 20:48:41.687,1.115426,0.908704,0.44599092,0.08408228,0.7290176,0.23390983,-0.1770154,0.24096557,0.88819087,0.049864084,-0.05246853,0.8781362,0.52130055,-0.10531891,0.44991824,0.49832776,0.17416565,-0.574756,0.32854402,0.17027378,794.9817,792.96704,789.7436,802.6374,674.5055,-0.12701416015625,0.0211181640625,0.9935302734375,-11.8133544921875,12.553558349609375,1.57012939453125,1,2.0,1.0,1.0,2.0,10.00
2024-10-11 20:48:41.688,1.115426,0.908704,0.44599092,0.08408228,0.7290176,0.23390983,-0.1770154,0.24096557,0.88819087,0.049864084,-0.05246853,0.8781362,0.52130055,-0.10531891,0.44991824,0.49832776,0.17416565,-0.574756,0.32854402,0.17027378,795.38464,787.72894,805.4579,803.0403,711.978,-0.12701416015625,0.0211181640625,0.9935302734375,-11.8133544921875,12.553558349609375,1.57012939453125,1,2.0,1.0,1.0,2.0,10.00
2024-10-11 20:48:41.689,1.115426,0.908704,0.44599092,0.08408228,0.7290176,0.23390983,-0.1770154,0.24096557,0.88819087,0.049864084,-0.05246853,0.8781362,0.52130055,-0.10531891,0.44991824,0.49832776,0.17416565,-0.574756,0.32854402,0.17027378,800.6227,789.7436,813.5165,799.81683,748.24176,-0.12701416015625,0.0211181640625,0.9935302734375,-11.8133544921875,12.553558349609375,1.57012939453125,1,2.0,1.0,1.0,2.0,10.00
2024-10-11 20:48:41.690,1.115426,0.908704,0.44599092,0.08408228,0.7290176,0.23390983,-0.1770154,0.24096557,0.88819087,0.049864084,-0.05246853,0.8781362,0.52130055,-0.10531891,0.44991824,0.49832776,0.17416565,-0.574756,0.32854402,0.17027378,801.02563,794.57874,799.41394,798.60803,643.47986,-0.12701416015625,0.0211181640625,0.9935302734375,-11.8133544921875,12.553558349609375,1.57012939453125,1,2.0,1.0,1.0,2.0,10.00
2024-10-11 20:48:41.691,1.115426,0.908704,0.44599092,0.08408228,0.7290176,0.23390983,-0.1770154,0.24096557,0.88819087,0.049864084,-0.05246853,0.8781362,0.52130055,-0.10531891,0.44991824,0.49832776,0.17416565,-0.574756,0.32854402,0.17027378,798.60803,795.78754,788.93774,794.17584,624.5421,-0.12701416015625,0.0211181640625,0.9935302734375,-11.8133544921875,12.553558349609375,1.57012939453125,1,2.0,1.0,1.0,2.0,10.00
2024-10-11 20:48:41.692,1.115426,0.908704,0.44599092,0.08408228,0.7290176,0.23390983,-0.1770154,0.24096557,0.88819087,0.049864084,-0.05246853,0.8781362,0.52130055,-0.10531891,0.44991824,0.49832776,0.17416565,-0.574756,0.32854402,0.17027378,801.4286,794.17584,802.6374,800.2198,910.2198,-0.12701416015625,0.0211181640625,0.9935302734375,-11.8133544921875,12.553558349609375,1.57012939453125,1,2.0,1.0,1.0,2.0,10.00
2024-10-11 20:48:41.693,1.115426,0.908704,0.44599092,0.08408228,0.7290176,0.23390983,-0.1770154,0.24096557,0.88819087,0.049864084,-0.05246853,0.8781362,0.52130055,-0.10531891,0.44991824,0.49832776,0.17416565,-0.574756,0.32854402,0.17027378,804.2491,796.5934,806.26373,804.2491,1001.685,-0.12701416015625,0.0211181640625,0.9935302734375,-11.8133544921875,12.553558349609375,1.57012939453125,1,2.0,1.0,1.0,2.0,10.00
2024-10-11 20:48:41.694,1.115426,0.908704,0.44599092,0.08408228,0.7290176,0.23390983,-0.1770154,0.24096557,0.88819087,0.049864084,-0.05246853,0.8781362,0.52130055,-0.10531891,0.44991824,0.49832776,0.17416565,-0.574756,0.32854402,0.17027378,804.65204,802.23444,804.2491,804.65204,740.18317,-0.12701416015625,0.0211181640625,0.9935302734375,-11.8133544921875,12.553558349609375,1.57012939453125,1,2.0,1.0,1.0,2.0,10.00
2024-10-11 20:48:41.694,1.115426,0.908704,0.44599092,0.08408228,0.7290176,0.23390983,-0.1770154,0.24096557,0.88819087,0.049864084,-0.05246853,0.8781362,0.52130055,-0.10531891,0.44991824,0.49832776,0.17416565,-0.574756,0.32854402,0.17027378,804.65204,798.60803,799.011,801.4286,594.3223,-0.12701416015625,0.0211181640625,0.9935302734375,-11.8133544921875,12.553558349609375,1.57012939453125,1,2.0,1.0,1.0,2.0,10.00
2024-10-11 20:48:41.695,1.115426,0.908704,0.44599092,0.08408228,0.7290176,0.23390983,-0.1770154,0.24096557,0.88819087,0.049864084,-0.05246853,0.8781362,0.52130055,-0.10531891,0.44991824,0.49832776,0.17416565,-0.574756,0.32854402,0.17027378,808.2784,792.1612,799.81683,800.2198,795.78754,-0.12701416015625,0.0211181640625,0.9935302734375,-11.8133544921875,12.553558349609375,1.57012939453125,1,2.0,1.0,1.0,2.0,10.00
2024-10-11 20:48:41.696,1.115426,0.908704,0.44599092,0.08408228,0.7290176,0.23390983,-0.1770154,0.24096557,0.88819087,0.049864084,-0.05246853,0.8781362,0.52130055,-0.10531891,0.44991824,0.49832776,0.17416565,-0.574756,0.32854402,0.17027378,811.9048,791.75824,807.0696,801.4286,893.2967,-0.12701416015625,0.0211181640625,0.9935302734375,-11.8133544921875,12.553558349609375,1.57012939453125,1,2.0,1.0,1.0,2.0,10.00
2024-10-11 20:48:41.731,1.115426,0.908704,0.44599092,0.08408228,0.7290176,0.23390983,-0.1770154,0.24096557,0.88819087,0.049864084,-0.05246853,0.8781362,0.52130055,-0.10531891,0.44991824,0.49832776,0.17416565,-0.574756,0.32854402,0.17027378,814.3223,797.8022,806.26373,802.23444,671.685,-0.1519775390625,-0.01055908203125,0.9852294921875,-11.357269287109375,10.340423583984375,4.239349365234375,1,2.0,1.0,1.0,2.0,10.00
2024-10-11 20:48:41.732,0.7193625,0.87292606,-0.27503416,0.5885385,0.8274012,0.19605748,-0.5064825,0.4686243,0.9779446,-0.018818492,-0.08040889,0.57502884,0.6416099,-0.11102181,0.6376647,0.371649,0.22704907,-0.58117366,0.39486304,0.19937888,803.44324,799.81683,795.38464,805.8608,726.4835,-0.1519775390625,-0.01055908203125,0.9852294921875,-11.357269287109375,10.340423583984375,4.239349365234375,1,2.0,1.0,1.0,2.0,10.00
2024-10-11 20:48:41.738,0.7193625,0.87292606,-0.27503416,0.5885385,0.8274012,0.19605748,-0.5064825,0.4686243,0.9779446,-0.018818492,-0.08040889,0.57502884,0.6416099,-0.11102181,0.6376647,0.371649,0.22704907,-0.58117366,0.39486304,0.19937888,788.93774,796.99634,795.78754,808.2784,929.5604,-0.1519775390625,-0.01055908203125,0.9852294921875,-11.357269287109375,10.340423583984375,4.239349365234375,1,2.0,1.0,1.0,2.0,10.00
2024-10-11 20:48:41.739,0.7193625,0.87292606,-0.27503416,0.5885385,0.8274012,0.19605748,-0.5064825,0.4686243,0.9779446,-0.018818492,-0.08040889,0.57502884,0.6416099,-0.11102181,0.6376647,0.371649,0.22704907,-0.58117366,0.39486304,0.19937888,785.7143,795.38464,801.4286,803.8461,830.0366,-0.1519775390625,-0.01055908203125,0.9852294921875,-11.357269287109375,10.340423583984375,4.239349365234375,1,2.0,1.0,1.0,2.0,10.00
2024-10-11 20:48:41.740,0.7193625,0.87292606,-0.27503416,0.5885385,0.8274012,0.19605748,-0.5064825,0.4686243,0.9779446,-0.018818492,-0.08040889,0.57502884,0.6416099,-0.11102181,0.6376647,0.371649,0.22704907,-0.58117366,0.39486304,0.19937888,787.326,796.5934,799.81683,800.2198,594.7253,-0.1519775390625,-0.01055908203125,0.9852294921875,-11.357269287109375,10.340423583984375,4.239349365234375,1,2.0,1.0,1.0,2.0,10.00
2024-10-11 20:48:41.741,0.7193625,0.87292606,-0.27503416,0.5885385,0.8274012,0.19605748,-0.5064825,0.4686243,0.9779446,-0.018818492,-0.08040889,0.57502884,0.6416099,-0.11102181,0.6376647,0.371649,0.22704907,-0.58117366,0.39486304,0.19937888,791.3553,796.99634,804.65204,800.2198,768.3883,-0.1519775390625,-0.01055908203125,0.9852294921875,-11.357269287109375,10.340423583984375,4.239349365234375,1,2.0,1.0,1.0,2.0,10.00
2024-10-11 20:48:41.742,0.7193625,0.87292606,-0.27503416,0.5885385,0.8274012,0.19605748,-0.5064825,0.4686243,0.9779446,-0.018818492,-0.08040889,0.57502884,0.6416099,-0.11102181,0.6376647,0.371649,0.22704907,-0.58117366,0.39486304,0.19937888,797.8022,795.38464,805.4579,803.0403,1005.7143,-0.1519775390625,-0.01055908203125,0.9852294921875,-11.357269287109375,10.340423583984375,4.239349365234375,1,2.0,1.0,1.0,2.0,10.00
2024-10-11 20:48:41.742,0.7193625,0.87292606,-0.27503416,0.5885385,0.8274012,0.19605748,-0.5064825,0.4686243,0.9779446,-0.018818492,-0.08040889,0.57502884,0.6416099,-0.11102181,0.6376647,0.371649,0.22704907,-0.58117366,0.39486304,0.19937888,794.17584,796.1905,799.81683,787.72894,796.99634,-0.1519775390625,-0.01055908203125,0.9852294921875,-11.357269287109375,10.340423583984375,4.239349365234375,1,2.0,1.0,1.0,2.0,10.00
2024-10-11 20:48:41.743,0.7193625,0.87292606,-0.27503416,0.5885385,0.8274012,0.19605748,-0.5064825,0.4686243,0.9779446,-0.018818492,-0.08040889,0.57502884,0.6416099,-0.11102181,0.6376647,0.371649,0.22704907,-0.58117366,0.39486304,0.19937888,799.011,794.9817,795.38464,779.67035,638.24176,-0.1519775390625,-0.01055908203125,0.9852294921875,-11.357269287109375,10.340423583984375,4.239349365234375,1,2.0,1.0,1.0,2.0,10.00
2024-10-11 20:48:41.744,0.7193625,0.87292606,-0.27503416,0.5885385,0.8274012,0.19605748,-0.5064825,0.4686243,0.9779446,-0.018818492,-0.08040889,0.57502884,0.6416099,-0.11102181,0.6376647,0.371649,0.22704907,-0.58117366,0.39486304,0.19937888,805.05493,792.96704,801.4286,796.1905,709.15753,-0.1519775390625,-0.01055908203125,0.9852294921875,-11.357269287109375,10.340423583984375,4.239349365234375,1,2.0,1.0,1.0,2.0,10.00
2024-10-11 20:48:41.746,0.7193625,0.87292606,-0.27503416,0.5885385,0.8274012,0.19605748,-0.5064825,0.4686243,0.9779446,-0.018818492,-0.08040889,0.57502884,0.6416099,-0.11102181,0.6376647,0.371649,0.22704907,-0.58117366,0.39486304,0.19937888,796.1905,794.57874,805.05493,805.05493,804.2491,-0.1519775390625,-0.01055908203125,0.9852294921875,-11.357269287109375,10.340423583984375,4.239349365234375,1,2.0,1.0,1.0,2.0,10.00
2024-10-11 20:48:41.747,0.7193625,0.87292606,-0.27503416,0.5885385,0.8274012,0.19605748,-0.5064825,0.4686243,0.9779446,-0.018818492,-0.08040889,0.57502884,0.6416099,-0.11102181,0.6376647,0.371649,0.22704907,-0.58117366,0.39486304,0.19937888,791.3553,799.011,805.4579,812.3077,692.6374,-0.1519775390625,-0.01055908203125,0.9852294921875,-11.357269287109375,10.340423583984375,4.239349365234375,1,2.0,1.0,1.0,2.0,10.00
2024-10-11 20:48:41.782,0.7193625,0.87292606,-0.27503416,0.5885385,0.8274012,0.19605748,-0.5064825,0.4686243,0.9779446,-0.018818492,-0.08040889,0.57502884,0.6416099,-0.11102181,0.6376647,0.371649,0.22704907,-0.58117366,0.39486304,0.19937888,794.17584,798.20514,797.3993,806.6667,698.2784,-0.16448974609375,-0.034423828125,0.98675537109375,-9.68994140625,8.59832763671875,7.364654541015625,1,2.0,1.0,1.0,2.0,10.00
2024-10-11 20:48:41.783,0.7193625,0.87292606,-0.27503416,0.5885385,0.8274012,0.19605748,-0.5064825,0.4686243,0.9779446,-0.018818492,-0.08040889,0.57502884,0.6416099,-0.11102181,0.6376647,0.371649,0.22704907,-0.58117366,0.39486304,0.19937888,796.1905,794.57874,788.1319,794.57874,776.8498,-0.16448974609375,-0.034423828125,0.98675537109375,-9.68994140625,8.59832763671875,7.364654541015625,1,2.0,1.0,1.0,2.0,10.00
2024-10-11 20:48:41.784,0.7193625,0.87292606,-0.27503416,0.5885385,0.8274012,0.19605748,-0.5064825,0.4686243,0.9779446,-0.018818492,-0.08040889,0.57502884,0.6416099,-0.11102181,0.6376647,0.371649,0.22704907,-0.58117366,0.39486304,0.19937888,796.99634,794.17584,792.5641,801.4286,752.674,-0.16448974609375,-0.034423828125,0.98675537109375,-9.68994140625,8.59832763671875,7.364654541015625,1,2.0,1.0,1.0,2.0,10.00
2024-10-11 20:48:41.785,0.7193625,0.87292606,-0.27503416,0.5885385,0.8274012,0.19605748,-0.5064825,0.4686243,0.9779446,-0.018818492,-0.08040889,0.57502884,0.6416099,-0.11102181,0.6376647,0.371649,0.22704907,-0.58117366,0.39486304,0.19937888,805.4579,794.17584,800.6227,799.81683,672.8938,-0.16448974609375,-0.034423828125,0.98675537109375,-9.68994140625,8.59832763671875,7.364654541015625,1,2.0,1.0,1.0,2.0,10.00
2024-10-11 20:48:41.786,0.7193625,0.87292606,-0.27503416,0.5885385,0.8274012,0.19605748,-0.5064825,0.4686243,0.9779446,-0.018818492,-0.08040889,0.57502884,0.6416099,-0.11102181,0.6376647,0.371649,0.22704907,-0.58117366,0.39486304,0.19937888,811.9048,795.78754,805.4579,791.3553,718.4249,-0.16448974609375,-0.034423828125,0.98675537109375,-9.68994140625,8.59832763671875,7.364654541015625,1,2.0,1.0,1.0,2.0,10.00
2024-10-11 20:48:41.786,0.7193625,0.87292606,-0.27503416,0.5885385,0.8274012,0.19605748,-0.5064825,0.4686243,0.9779446,-0.018818492,-0.08040889,0.57502884,0.6416099,-0.11102181,0.6376647,0.371649,0.22704907,-0.58117366,0.39486304,0.19937888,802.23444,792.5641,800.2198,788.93774,813.91943,-0.16448974609375,-0.034423828125,0.98675537109375,-9.68994140625,8.59832763671875,7.364654541015625,1,2.0,1.0,1.0,2.0,10.00
2024-10-11 20:48:41.787,0.7193625,0.87292606,-0.27503416,0.5885385,0.8274012,0.19605748,-0.5064825,0.4686243,0.9779446,-0.018818492,-0.08040889,0.57502884,0.6416099,-0.11102181,0.6376647,0.371649,0.22704907,-0.58117366,0.39486304,0.19937888,799.011,788.5348,797.8022,788.5348,808.68134,-0.16448974609375,-0.034423828125,0.98675537109375,-9.68994140625,8.59832763671875,7.364654541015625,1,2.0,1.0,1.0,2.0,10.00
2024-10-11 20:48:41.788,0.7193625,0.87292606,-0.27503416,0.5885385,0.8274012,0.19605748,-0.5064825,0.4686243,0.9779446,-0.018818492,-0.08040889,0.57502884,0.6416099,-0.11102181,0.6376647,0.371649,0.22704907,-0.58117366,0.39486304,0.19937888,805.4579,793.7729,796.1905,780.07324,657.1795,-0.16448974609375,-0.034423828125,0.98675537109375,-9.68994140625,8.59832763671875,7.364654541015625,1,2.0,1.0,1.0,2.0,10.00
2024-10-11 20:48:41.790,0.7193625,0.87292606,-0.27503416,0.5885385,0.8274012,0.19605748,-0.5064825,0.4686243,0.9779446,-0.018818492,-0.08040889,0.57502884,0.6416099,-0.11102181,0.6376647,0.371649,0.22704907,-0.58117366,0.39486304,0.19937888,799.011,795.38464,785.31134,780.07324,523.00366,-0.16448974609375,-0.034423828125,0.98675537109375,-9.68994140625,8.59832763671875,7.364654541015625,1,2.0,1.0,1.0,2.0,10.00
2024-10-11 20:48:41.791,0.7193625,0.87292606,-0.27503416,0.5885385,0.8274012,0.19605748,-0.5064825,0.4686243,0.9779446,-0.018818492,-0.08040889,0.57502884,0.6416099,-0.11102181,0.6376647,0.371649,0.22704907,-0.58117366,0.39486304,0.19937888,797.8022,794.57874,796.1905,792.96704,761.53845,-0.16448974609375,-0.034423828125,0.98675537109375,-9.68994140625,8.59832763671875,7.364654541015625,1,2.0,1.0,1.0,2.0,10.00
2024-10-11 20:48:41.792,0.7193625,0.87292606,-0.27503416,0.5885385,0.8274012,0.19605748,-0.5064825,0.4686243,0.9779446,-0.018818492,-0.08040889,0.57502884,0.6416099,-0.11102181,0.6376647,0.371649,0.22704907,-0.58117366,0.39486304,0.19937888,802.6374,797.8022,798.60803,792.1612,956.1539,-0.16448974609375,-0.034423828125,0.98675537109375,-9.68994140625,8.59832763671875,7.364654541015625,1,2.0,1.0,1.0,2.0,10.00
2024-10-11 20:48:41.793,0.7193625,0.87292606,-0.27503416,0.5885385,0.8274012,0.19605748,-0.5064825,0.4686243,0.9779446,-0.018818492,-0.08040889,0.57502884,0.6416099,-0.11102181,0.6376647,0.371649,0.22704907,-0.58117366,0.39486304,0.19937888,797.3993,800.6227,790.54944,792.5641,771.6117,-0.16448974609375,-0.034423828125,0.98675537109375,-9.68994140625,8.59832763671875,7.364654541015625,1,2.0,1.0,1.0,2.0,10.00
2024-10-11 20:48:41.795,0.7193625,0.87292606,-0.27503416,0.5885385,0.8274012,0.19605748,-0.5064825,0.4686243,0.9779446,-0.018818492,-0.08040889,0.57502884,0.6416099,-0.11102181,0.6376647,0.371649,0.22704907,-0.58117366,0.39486304,0.19937888,795.38464,799.41394,801.8315,794.9817,586.6667,-0.17645263671875,-0.0465087890625,0.9840087890625,-6.9683837890625,6.616973876953125,10.430145263671875,1,2.0,1.0,1.0,2.0,10.00
2024-10-11 20:48:41.797,0.7193625,0.87292606,-0.27503416,0.5885385,0.8274012,0.19605748,-0.5064825,0.4686243,0.9779446,-0.018818492,-0.08040889,0.57502884,0.6416099,-0.11102181,0.6376647,0.371649,0.22704907,-0.58117366,0.39486304,0.19937888,804.65204,796.99634,795.78754,797.3993,904.17584,-0.17645263671875,-0.0465087890625,0.9840087890625,-6.9683837890625,6.616973876953125,10.430145263671875,1,2.0,1.0,1.0,2.0,10.00
2024-10-11 20:48:41.798,0.7193625,0.87292606,-0.27503416,0.5885385,0.8274012,0.19605748,-0.5064825,0.4686243,0.9779446,-0.018818492,-0.08040889,0.57502884,0.6416099,-0.11102181,0.6376647,0.371649,0.22704907,-0.58117366,0.39486304,0.19937888,811.50183,796.99634,794.57874,802.6374,1183.0037,-0.17645263671875,-0.0465087890625,0.9840087890625,-6.9683837890625,6.616973876953125,10.430145263671875,1,2.0,1.0,1.0,2.0,10.00
2024-10-11 20:48:41.799,0.68404436,0.83965427,-0.16731958,0.535436,0.77467334,0.18055218,-0.3698953,0.41439402,0.9779446,-0.0121044945,-0.056070507,0.57502884,0.6092936,-0.1168647,0.6630798,0.38577518,0.197002,-0.5860197,0.39073,0.1803241,808.2784,797.3993,808.2784,796.5934,728.49817,-0.17645263671875,-0.0465087890625,0.9840087890625,-6.9683837890625,6.616973876953125,10.430145263671875,1,1.0,1.0,1.0,1.0,10.00
2024-10-11 20:48:41.805,0.68404436,0.83965427,-0.16731958,0.535436,0.77467334,0.18055218,-0.3698953,0.41439402,0.9779446,-0.0121044945,-0.056070507,0.57502884,0.6092936,-0.1168647,0.6630798,0.38577518,0.197002,-0.5860197,0.39073,0.1803241,805.4579,794.17584,811.0989,799.41394,501.64835,-0.17645263671875,-0.0465087890625,0.9840087890625,-6.9683837890625,6.616973876953125,10.430145263671875,1,1.0,1.0,1.0,1.0,10.00
2024-10-11 20:48:41.806,0.68404436,0.83965427,-0.16731958,0.535436,0.77467334,0.18055218,-0.3698953,0.41439402,0.9779446,-0.0121044945,-0.056070507,0.57502884,0.6092936,-0.1168647,0.6630798,0.38577518,0.197002,-0.5860197,0.39073,0.1803241,797.3993,792.5641,806.6667,799.81683,691.4286,-0.17645263671875,-0.0465087890625,0.9840087890625,-6.9683837890625,6.616973876953125,10.430145263671875,1,1.0,1.0,1.0,1.0,10.00
2024-10-11 20:48:41.807,0.68404436,0.83965427,-0.16731958,0.535436,0.77467334,0.18055218,-0.3698953,0.41439402,0.9779446,-0.0121044945,-0.056070507,0.57502884,0.6092936,-0.1168647,0.6630798,0.38577518,0.197002,-0.5860197,0.39073,0.1803241,787.72894,798.20514,796.5934,797.3993,762.74725,-0.17645263671875,-0.0465087890625,0.9840087890625,-6.9683837890625,6.616973876953125,10.430145263671875,1,1.0,1.0,1.0,1.0,10.00
2024-10-11 20:48:41.808,0.68404436,0.83965427,-0.16731958,0.535436,0.77467334,0.18055218,-0.3698953,0.41439402,0.9779446,-0.0121044945,-0.056070507,0.57502884,0.6092936,-0.1168647,0.6630798,0.38577518,0.197002,-0.5860197,0.39073,0.1803241,796.5934,803.44324,793.7729,801.8315,659.19415,-0.17645263671875,-0.0465087890625,0.9840087890625,-6.9683837890625,6.616973876953125,10.430145263671875,1,1.0,1.0,1.0,1.0,10.00
2024-10-11 20:48:41.809,0.68404436,0.83965427,-0.16731958,0.535436,0.77467334,0.18055218,-0.3698953,0.41439402,0.9779446,-0.0121044945,-0.056070507,0.57502884,0.6092936,-0.1168647,0.6630798,0.38577518,0.197002,-0.5860197,0.39073,0.1803241,802.23444,803.0403,792.96704,800.6227,667.25275,-0.17645263671875,-0.0465087890625,0.9840087890625,-6.9683837890625,6.616973876953125,10.430145263671875,1,1.0,1.0,1.0,1.0,10.00
2024-10-11 20:48:41.811,0.68404436,0.83965427,-0.16731958,0.535436,0.77467334,0.18055218,-0.3698953,0.41439402,0.9779446,-0.0121044945,-0.056070507,0.57502884,0.6092936,-0.1168647,0.6630798,0.38577518,0.197002,-0.5860197,0.39073,0.1803241,796.5934,802.23444,796.99634,798.60803,808.2784,-0.17645263671875,-0.0465087890625,0.9840087890625,-6.9683837890625,6.616973876953125,10.430145263671875,1,1.0,1.0,1.0,1.0,10.00
2024-10-11 20:48:41.812,0.68404436,0.83965427,-0.16731958,0.535436,0.77467334,0.18055218,-0.3698953,0.41439402,0.9779446,-0.0121044945,-0.056070507,0.57502884,0.6092936,-0.1168647,0.6630798,0.38577518,0.197002,-0.5860197,0.39073,0.1803241,791.3553,801.8315,796.1905,800.6227,647.50916,-0.17645263671875,-0.0465087890625,0.9840087890625,-6.9683837890625,6.616973876953125,10.430145263671875,1,1.0,1.0,1.0,1.0,10.00
2024-10-11 20:48:41.813,0.68404436,0.83965427,-0.16731958,0.535436,0.77467334,0.18055218,-0.3698953,0.41439402,0.9779446,-0.0121044945,-0.056070507,0.57502884,0.6092936,-0.1168647,0.6630798,0.38577518,0.197002,-0.5860197,0.39073,0.1803241,796.99634,799.81683,799.011,796.99634,450.87912,-0.17645263671875,-0.0465087890625,0.9840087890625,-6.9683837890625,6.616973876953125,10.430145263671875,1,1.0,1.0,1.0,1.0,10.00
2024-10-11 20:48:41.849,0.68404436,0.83965427,-0.16731958,0.535436,0.77467334,0.18055218,-0.3698953,0.41439402,0.9779446,-0.0121044945,-0.056070507,0.57502884,0.6092936,-0.1168647,0.6630798,0.38577518,0.197002,-0.5860197,0.39073,0.1803241,802.6374,791.3553,802.6374,797.3993,705.12823,-0.18170166015625,-0.04583740234375,0.98870849609375,-4.0673828125,6.34033203125,11.656341552734375,1,1.0,1.0,1.0,1.0,10.00
2024-10-11 20:48:41.850,0.68404436,0.83965427,-0.16731958,0.535436,0.77467334,0.18055218,-0.3698953,0.41439402,0.9779446,-0.0121044945,-0.056070507,0.57502884,0.6092936,-0.1168647,0.6630798,0.38577518,0.197002,-0.5860197,0.39073,0.1803241,811.0989,793.36993,800.6227,796.99634,937.619,-0.18170166015625,-0.04583740234375,0.98870849609375,-4.0673828125,6.34033203125,11.656341552734375,1,1.0,1.0,1.0,1.0,10.00
2024-10-11 20:48:41.851,0.68404436,0.83965427,-0.16731958,0.535436,0.77467334,0.18055218,-0.3698953,0.41439402,0.9779446,-0.0121044945,-0.056070507,0.57502884,0.6092936,-0.1168647,0.6630798,0.38577518,0.197002,-0.5860197,0.39073,0.1803241,816.337,803.8461,792.5641,788.93774,674.90845,-0.18170166015625,-0.04583740234375,0.98870849609375,-4.0673828125,6.34033203125,11.656341552734375,1,1.0,1.0,1.0,1.0,10.00
2024-10-11 20:48:41.852,0.68404436,0.83965427,-0.16731958,0.535436,0.77467334,0.18055218,-0.3698953,0.41439402,0.9779446,-0.0121044945,-0.056070507,0.57502884,0.6092936,-0.1168647,0.6630798,0.38577518,0.197002,-0.5860197,0.39073,0.1803241,812.3077,803.44324,787.72894,784.5055,467.8022,-0.18170166015625,-0.04583740234375,0.98870849609375,-4.0673828125,6.34033203125,11.656341552734375,1,1.0,1.0,1.0,1.0,10.00
2024-10-11 20:48:41.852,0.68404436,0.83965427,-0.16731958,0.535436,0.77467334,0.18055218,-0.3698953,0.41439402,0.9779446,-0.0121044945,-0.056070507,0.57502884,0.6092936,-0.1168647,0.6630798,0.38577518,0.197002,-0.5860197,0.39073,0.1803241,791.75824,794.9817,789.7436,792.96704,767.5824,-0.18170166015625,-0.04583740234375,0.98870849609375,-4.0673828125,6.34033203125,11.656341552734375,1,1.0,1.0,1.0,1.0,10.00
2024-10-11 20:48:41.853,0.68404436,0.83965427,-0.16731958,0.535436,0.77467334,0.18055218,-0.3698953,0.41439402,0.9779446,-0.0121044945,-0.056070507,0.57502884,0.6092936,-0.1168647,0.6630798,0.38577518,0.197002,-0.5860197,0.39073,0.1803241,782.0879,792.5641,789.34064,802.6374,1094.762,-0.18170166015625,-0.04583740234375,0.98870849609375,-4.0673828125,6.34033203125,11.656341552734375,1,1.0,1.0,1.0,1.0,10.00
2024-10-11 20:48:41.854,0.68404436,0.83965427,-0.16731958,0.535436,0.77467334,0.18055218,-0.3698953,0.41439402,0.9779446,-0.0121044945,-0.056070507,0.57502884,0.6092936,-0.1168647,0.6630798,0.38577518,0.197002,-0.5860197,0.39073,0.1803241,799.011,798.20514,787.326,799.41394,798.20514,-0.18170166015625,-0.04583740234375,0.98870849609375,-4.0673828125,6.34033203125,11.656341552734375,1,1.0,1.0,1.0,1.0,10.00
2024-10-11 20:48:41.854,0.68404436,0.83965427,-0.16731958,0.535436,0.77467334,0.18055218,-0.3698953,0.41439402,0.9779446,-0.0121044945,-0.056070507,0.57502884,0.6092936,-0.1168647,0.6630798,0.38577518,0.197002,-0.5860197,0.39073,0.1803241,810.293,800.6227,785.7143,804.2491,633.8095,-0.18170166015625,-0.04583740234375,0.98870849609375,-4.0673828125,6.34033203125,11.656341552734375,1,1.0,1.0,1.0,1.0,10.00
2024-10-11 20:48:41.855,0.68404436,0.83965427,-0.16731958,0.535436,0.77467334,0.18055218,-0.3698953,0.41439402,0.9779446,-0.0121044945,-0.056070507,0.57502884,0.6092936,-0.1168647,0.6630798,0.38577518,0.197002,-0.5860197,0.39073,0.1803241,806.6667,797.3993,795.38464,804.2491,690.6227,-0.18170166015625,-0.04583740234375,0.98870849609375,-4.0673828125,6.34033203125,11.656341552734375,1,1.0,1.0,1.0,1.0,10.00
2024-10-11 20:48:41.856,0.68404436,0.83965427,-0.16731958,0.535436,0.77467334,0.18055218,-0.3698953,0.41439402,0.9779446,-0.0121044945,-0.056070507,0.57502884,0.6092936,-0.1168647,0.6630798,0.38577518,0.197002,-0.5860197,0.39073,0.1803241,807.47253,797.3993,792.96704,797.8022,653.1502,-0.18170166015625,-0.04583740234375,0.98870849609375,-4.0673828125,6.34033203125,11.656341552734375,1,1.0,1.0,1.0,1.0,10.00
2024-10-11 20:48:41.857,0.68404436,0.83965427,-0.16731958,0.535436,0.77467334,0.18055218,-0.3698953,0.41439402,0.9779446,-0.0121044945,-0.056070507,0.57502884,0.6092936,-0.1168647,0.6630798,0.38577518,0.197002,-0.5860197,0.39073,0.1803241,815.5311,802.6374,796.99634,806.6667,567.326,-0.18170166015625,-0.04583740234375,0.98870849609375,-4.0673828125,6.34033203125,11.656341552734375,1,1.0,1.0,1.0,1.0,10.00
2024-10-11 20:48:41.858,0.68404436,0.83965427,-0.16731958,0.535436,0.77467334,0.18055218,-0.3698953,0.41439402,0.9779446,-0.0121044945,-0.056070507,0.57502884,0.6092936,-0.1168647,0.6630798,0.38577518,0.197002,-0.5860197,0.39073,0.1803241,812.71063,805.8608,807.0696,810.696,642.674,-0.18170166015625,-0.04583740234375,0.98870849609375,-4.0673828125,6.34033203125,11.656341552734375,1,1.0,1.0,1.0,1.0,10.00
2024-10-11 20:48:41.888,0.68404436,0.83965427,-0.16731958,0.535436,0.77467334,0.18055218,-0.3698953,0.41439402,0.9779446,-0.0121044945,-0.056070507,0.57502884,0.6092936,-0.1168647,0.6630798,0.38577518,0.197002,-0.5860197,0.39073,0.1803241,803.8461,802.6374,799.011,812.71063,957.76556,-0.18170166015625,-0.04583740234375,0.98870849609375,-4.0673828125,6.34033203125,11.656341552734375,1,1.0,1.0,1.0,1.0,10.00
2024-10-11 20:48:41.889,0.68404436,0.83965427,-0.16731958,0.535436,0.77467334,0.18055218,-0.3698953,0.41439402,0.9779446,-0.0121044945,-0.056070507,0.57502884,0.6092936,-0.1168647,0.6630798,0.38577518,0.197002,-0.5860197,0.39073,0.1803241,804.2491,796.1905,792.1612,812.71063,983.95605,-0.18170166015625,-0.04583740234375,0.98870849609375,-4.0673828125,6.34033203125,11.656341552734375,1,1.0,1.0,1.0,1.0,10.00
2024-10-11 20:48:41.890,0.68404436,0.83965427,-0.16731958,0.535436,0.77467334,0.18055218,-0.3698953,0.41439402,0.9779446,-0.0121044945,-0.056070507,0.57502884,0.6092936,-0.1168647,0.6630798,0.38577518,0.197002,-0.5860197,0.39073,0.1803241,804.2491,800.2198,801.4286,804.65204,599.9634,-0.18170166015625,-0.04583740234375,0.98870849609375,-4.0673828125,6.34033203125,11.656341552734375,1,1.0,1.0,1.0,1.0,10.00
2024-10-11 20:48:41.891,0.68404436,0.83965427,-0.16731958,0.535436,0.77467334,0.18055218,-0.3698953,0.41439402,0.9779446,-0.0121044945,-0.056070507,0.57502884,0.6092936,-0.1168647,0.6630798,0.38577518,0.197002,-0.5860197,0.39073,0.1803241,791.3553,800.2198,793.36993,816.7399,693.0403,-0.18170166015625,-0.04583740234375,0.98870849609375,-4.0673828125,6.34033203125,11.656341552734375,1,1.0,1.0,1.0,1.0,10.00
2024-10-11 20:48:41.892,0.68404436,0.83965427,-0.16731958,0.535436,0.77467334,0.18055218,-0.3698953,0.41439402,0.9779446,-0.0121044945,-0.056070507,0.57502884,0.6092936,-0.1168647,0.6630798,0.38577518,0.197002,-0.5860197,0.39073,0.1803241,796.99634,797.8022,783.69965,814.3223,893.69965,-0.18170166015625,-0.04583740234375,0.98870849609375,-4.0673828125,6.34033203125,11.656341552734375,1,1.0,1.0,1.0,1.0,10.00
2024-10-11 20:48:41.893,0.6579339,0.79727626,-0.09419854,0.5160072,0.72481406,0.17735066,-0.25006658,0.37487572,0.9779446,-0.0028564003,0.01249116,0.57502884,0.57982737,-0.12613906,0.6775584,0.42084542,0.16963828,-0.5886977,0.38644323,0.17889957,805.05493,799.41394,792.5641,795.38464,874.35895,-0.18170166015625,-0.04583740234375,0.98870849609375,-4.0673828125,6.34033203125,11.656341552734375,1,1.0,1.0,1.0,1.0,10.00
2024-10-11 20:48:41.899,0.6579339,0.79727626,-0.09419854,0.5160072,0.72481406,0.17735066,-0.25006658,0.37487572,0.9779446,-0.0028564003,0.01249116,0.57502884,0.57982737,-0.12613906,0.6775584,0.42084542,0.16963828,-0.5886977,0.38644323,0.17889957,806.6667,802.23444,794.17584,803.0403,846.9597,-0.18170166015625,-0.04583740234375,0.98870849609375,-4.0673828125,6.34033203125,11.656341552734375,1,1.0,1.0,1.0,1.0,10.00
2024-10-11 20:48:41.900,0.6579339,0.79727626,-0.09419854,0.5160072,0.72481406,0.17735066,-0.25006658,0.37487572,0.9779446,-0.0028564003,0.01249116,0.57502884,0.57982737,-0.12613906,0.6775584,0.42084542,0.16963828,-0.5886977,0.38644323,0.17889957,808.2784,802.6374,793.7729,799.41394,802.23444,-0.18170166015625,-0.04583740234375,0.98870849609375,-4.0673828125,6.34033203125,11.656341552734375,1,1.0,1.0,1.0,1.0,10.00
2024-10-11 20:48:41.900,0.6579339,0.79727626,-0.09419854,0.5160072,0.72481406,0.17735066,-0.25006658,0.37487572,0.9779446,-0.0028564003,0.01249116,0.57502884,0.57982737,-0.12613906,0.6775584,0.42084542,0.16963828,-0.5886977,0.38644323,0.17889957,811.50183,798.60803,803.44324,790.9524,997.25275,-0.18170166015625,-0.04583740234375,0.98870849609375,-4.0673828125,6.34033203125,11.656341552734375,1,1.0,1.0,1.0,1.0,10.00
2024-10-11 20:48:41.901,0.6579339,0.79727626,-0.09419854,0.5160072,0.72481406,0.17735066,-0.25006658,0.37487572,0.9779446,-0.0028564003,0.01249116,0.57502884,0.57982737,-0.12613906,0.6775584,0.42084542,0.16963828,-0.5886977,0.38644323,0.17889957,806.26373,797.3993,804.2491,792.1612,911.4286,-0.18170166015625,-0.04583740234375,0.98870849609375,-4.0673828125,6.34033203125,11.656341552734375,1,1.0,1.0,1.0,1.0,10.00
2024-10-11 20:48:41.902,0.6579339,0.79727626,-0.09419854,0.5160072,0.72481406,0.17735066,-0.25006658,0.37487572,0.9779446,-0.0028564003,0.01249116,0.57502884,0.57982737,-0.12613906,0.6775584,0.42084542,0.16963828,-0.5886977,0.38644323,0.17889957,796.99634,798.60803,791.75824,786.9231,620.9158,-0.18170166015625,-0.04583740234375,0.98870849609375,-4.0673828125,6.34033203125,11.656341552734375,1,1.0,1.0,1.0,1.0,10.00
2024-10-11 20:48:41.902,0.6579339,0.79727626,-0.09419854,0.5160072,0.72481406,0.17735066,-0.25006658,0.37487572,0.9779446,-0.0028564003,0.01249116,0.57502884,0.57982737,-0.12613906,0.6775584,0.42084542,0.16963828,-0.5886977,0.38644323,0.17889957,801.4286,795.78754,792.5641,789.7436,801.4286,-0.18170166015625,-0.04583740234375,0.98870849609375,-4.0673828125,6.34033203125,11.656341552734375,1,1.0,1.0,1.0,1.0,10.00
2024-10-11 20:48:41.903,0.6579339,0.79727626,-0.09419854,0.5160072,0.72481406,0.17735066,-0.25006658,0.37487572,0.9779446,-0.0028564003,0.01249116,0.57502884,0.57982737,-0.12613906,0.6775584,0.42084542,0.16963828,-0.5886977,0.38644323,0.17889957,805.05493,798.20514,808.2784,800.6227,829.2308,-0.19244384765625,-0.04364013671875,0.9884033203125,-1.443023681640625,6.86370849609375,13.26385498046875,1,1.0,1.0,1.0,1.0,10.00
2024-10-11 20:48:41.904,0.6579339,0.79727626,-0.09419854,0.5160072,0.72481406,0.17735066,-0.25006658,0.37487572,0.9779446,-0.0028564003,0.01249116,0.57502884,0.57982737,-0.12613906,0.6775584,0.42084542,0.16963828,-0.5886977,0.38644323,0.17889957,807.0696,804.65204,800.6227,799.011,680.9524,-0.19244384765625,-0.04364013671875,0.9884033203125,-1.443023681640625,6.86370849609375,13.26385498046875,1,1.0,1.0,1.0,1.0,10.00
2024-10-11 20:48:41.905,0.6579339,0.79727626,-0.09419854,0.5160072,0.72481406,0.17735066,-0.25006658,0.37487572,0.9779446,-0.0028564003,0.01249116,0.57502884,0.57982737,-0.12613906,0.6775584,0.42084542,0.16963828,-0.5886977,0.38644323,0.17889957,807.8755,801.8315,791.75824,793.36993,684.57874,-0.19244384765625,-0.04364013671875,0.9884033203125,-1.443023681640625,6.86370849609375,13.26385498046875,1,1.0,1.0,1.0,1.0,10.00
2024-10-11 20:48:41.906,0.6579339,0.79727626,-0.09419854,0.5160072,0.72481406,0.17735066,-0.25006658,0.37487572,0.9779446,-0.0028564003,0.01249116,0.57502884,0.57982737,-0.12613906,0.6775584,0.42084542,0.16963828,-0.5886977,0.38644323,0.17889957,814.3223,796.1905,800.2198,803.8461,637.4359,-0.19244384765625,-0.04364013671875,0.9884033203125,-1.443023681640625,6.86370849609375,13.26385498046875,1,1.0,1.0,1.0,1.0,10.00
2024-10-11 20:48:41.907,0.6579339,0.79727626,-0.09419854,0.5160072,0.72481406,0.17735066,-0.25006658,0.37487572,0.9779446,-0.0028564003,0.01249116,0.57502884,0.57982737,-0.12613906,0.6775584,0.42084542,0.16963828,-0.5886977,0.38644323,0.17889957,815.9341,794.17584,804.2491,809.0842,541.13556,-0.19244384765625,-0.04364013671875,0.9884033203125,-1.443023681640625,6.86370849609375,13.26385498046875,1,1.0,1.0,1.0,1.0,10.00
2024-10-11 20:48:41.907,0.6579339,0.79727626,-0.09419854,0.5160072,0.72481406,0.17735066,-0.25006658,0.37487572,0.9779446,-0.0028564003,0.01249116,0.57502884,0.57982737,-0.12613906,0.6775584,0.42084542,0.16963828,-0.5886977,0.38644323,0.17889957,816.7399,794.17584,796.5934,810.293,646.30035,-0.19244384765625,-0.04364013671875,0.9884033203125,-1.443023681640625,6.86370849609375,13.26385498046875,1,1.0,1.0,1.0,1.0,10.00
2024-10-11 20:48:41.908,0.6579339,0.79727626,-0.09419854,0.5160072,0.72481406,0.17735066,-0.25006658,0.37487572,0.9779446,-0.0028564003,0.01249116,0.57502884,0.57982737,-0.12613906,0.6775584,0.42084542,0.16963828,-0.5886977,0.38644323,0.17889957,826.4103,796.99634,804.65204,809.89014,751.4652,-0.19244384765625,-0.04364013671875,0.9884033203125,-1.443023681640625,6.86370849609375,13.26385498046875,1,1.0,1.0,1.0,1.0,10.00
2024-10-11 20:48:41.909,0.6579339,0.79727626,-0.09419854,0.5160072,0.72481406,0.17735066,-0.25006658,0.37487572,0.9779446,-0.0028564003,0.01249116,0.57502884,0.57982737,-0.12613906,0.6775584,0.42084542,0.16963828,-0.5886977,0.38644323,0.17889957,817.1429,796.99634,814.3223,816.7399,859.45056,-0.19244384765625,-0.04364013671875,0.9884033203125,-1.443023681640625,6.86370849609375,13.26385498046875,1,1.0,1.0,1.0,1.0,10.00
2024-10-11 20:48:41.910,0.6579339,0.79727626,-0.09419854,0.5160072,0.72481406,0.17735066,-0.25006658,0.37487572,0.9779446,-0.0028564003,0.01249116,0.57502884,0.57982737,-0.12613906,0.6775584,0.42084542,0.16963828,-0.5886977,0.38644323,0.17889957,804.65204,797.8022,807.8755,816.7399,740.58606,-0.19244384765625,-0.04364013671875,0.9884033203125,-1.443023681640625,6.86370849609375,13.26385498046875,1,1.0,1.0,1.0,1.0,10.00
2024-10-11 20:48:41.911,0.6579339,0.79727626,-0.09419854,0.5160072,0.72481406,0.17735066,-0.25006658,0.37487572,0.9779446,-0.0028564003,0.01249116,0.57502884,0.57982737,-0.12613906,0.6775584,0.42084542,0.16963828,-0.5886977,0.38644323,0.17889957,805.4579,803.44324,805.05493,812.3077,539.5238,-0.19244384765625,-0.04364013671875,0.9884033203125,-1.443023681640625,6.86370849609375,13.26385498046875,1,1.0,1.0,1.0,1.0,10.00
2024-10-11 20:48:41.912,0.6579339,0.79727626,-0.09419854,0.5160072,0.72481406,0.17735066,-0.25006658,0.37487572,0.9779446,-0.0028564003,0.01249116,0.57502884,0.57982737,-0.12613906,0.6775584,0.42084542,0.16963828,-0.5886977,0.38644323,0.17889957,817.5458,805.4579,809.89014,807.47253,564.90845,-0.19244384765625,-0.04364013671875,0.9884033203125,-1.443023681640625,6.86370849609375,13.26385498046875,1,1.0,1.0,1.0,1.0,10.00
2024-10-11 20:48:41.912,0.6579339,0.79727626,-0.09419854,0.5160072,0.72481406,0.17735066,-0.25006658,0.37487572,0.9779446,-0.0028564003,0.01249116,0.57502884,0.57982737,-0.12613906,0.6775584,0.42084542,0.16963828,-0.5886977,0.38644323,0.17889957,829.2308,803.8461,810.293,802.6374,901.75824,-0.19244384765625,-0.04364013671875,0.9884033203125,-1.443023681640625,6.86370849609375,13.26385498046875,1,1.0,1.0,1.0,1.0,10.00
2024-10-11 20:48:41.990,0.6579339,0.79727626,-0.09419854,0.5160072,0.72481406,0.17735066,-0.25006658,0.37487572,0.9779446,-0.0028564003,0.01249116,0.57502884,0.57982737,-0.12613906,0.6775584,0.42084542,0.16963828,-0.5886977,0.38644323,0.17889957,817.1429,800.6227,807.8755,797.8022,1020.2198,-0.21441650390625,-0.03411865234375,0.99029541015625,-0.28411865234375,7.932891845703125,13.660125732421875,1,1.0,1.0,1.0,1.0,10.00
2024-10-11 20:48:41.991,0.6579339,0.79727626,-0.09419854,0.5160072,0.72481406,0.17735066,-0.25006658,0.37487572,0.9779446,-0.0028564003,0.01249116,0.57502884,0.57982737,-0.12613906,0.6775584,0.42084542,0.16963828,-0.5886977,0.38644323,0.17889957,811.0989,801.02563,802.23444,799.81683,654.7619,-0.21441650390625,-0.03411865234375,0.99029541015625,-0.28411865234375,7.932891845703125,13.660125732421875,1,1.0,1.0,1.0,1.0,10.00
2024-10-11 20:48:41.992,0.6579339,0.79727626,-0.09419854,0.5160072,0.72481406,0.17735066,-0.25006658,0.37487572,0.9779446,-0.0028564003,0.01249116,0.57502884,0.57982737,-0.12613906,0.6775584,0.42084542,0.16963828,-0.5886977,0.38644323,0.17889957,815.12823,801.4286,792.5641,810.293,652.74725,-0.21441650390625,-0.03411865234375,0.99029541015625,-0.28411865234375,7.932891845703125,13.660125732421875,1,1.0,1.0,1.0,1.0,10.00
2024-10-11 20:48:41.993,0.6579339,0.79727626,-0.09419854,0.5160072,0.72481406,0.17735066,-0.25006658,0.37487572,0.9779446,-0.0028564003,0.01249116,0.57502884,0.57982737,-0.12613906,0.6775584,0.42084542,0.16963828,-0.5886977,0.38644323,0.17889957,790.9524,787.72894,796.1905,807.47253,746.2271,-0.21441650390625,-0.03411865234375,0.99029541015625,-0.28411865234375,7.932891845703125,13.660125732421875,1,1.0,1.0,1.0,1.0,10.00
2024-10-11 20:48:41.994,0.6579339,0.79727626,-0.09419854,0.5160072,0.72481406,0.17735066,-0.25006658,0.37487572,0.9779446,-0.0028564003,0.01249116,0.57502884,0.57982737,-0.12613906,0.6775584,0.42084542,0.16963828,-0.5886977,0.38644323,0.17889957,785.7143,779.2674,804.65204,814.7253,749.85345,-0.21441650390625,-0.03411865234375,0.99029541015625,-0.28411865234375,7.932891845703125,13.660125732421875,1,1.0,1.0,1.0,1.0,10.00
2024-10-11 20:48:41.995,0.6579339,0.79727626,-0.09419854,0.5160072,0.72481406,0.17735066,-0.25006658,0.37487572,0.9779446,-0.0028564003,0.01249116,0.57502884,0.57982737,-0.12613906,0.6775584,0.42084542,0.16963828,-0.5886977,0.38644323,0.17889957,801.8315,790.54944,807.0696,828.8278,713.9927,-0.21441650390625,-0.03411865234375,0.99029541015625,-0.28411865234375,7.932891845703125,13.660125732421875,1,1.0,1.0,1.0,1.0,10.00
2024-10-11 20:48:41.995,0.6579339,0.79727626,-0.09419854,0.5160072,0.72481406,0.17735066,-0.25006658,0.37487572,0.9779446,-0.0028564003,0.01249116,0.57502884,0.57982737,-0.12613906,0.6775584,0.42084542,0.16963828,-0.5886977,0.38644323,0.17889957,807.0696,796.1905,800.2198,817.1429,868.315,-0.21441650390625,-0.03411865234375,0.99029541015625,-0.28411865234375,7.932891845703125,13.660125732421875,1,1.0,1.0,1.0,1.0,10.00
2024-10-11 20:48:41.996,0.630633,0.715785,-0.06861181,0.51823694,0.6812179,0.1648731,-0.17209174,0.34078526,0.9779446,0.0041333414,0.06533831,0.59590137,0.56101316,-0.1379838,0.683124,0.4637965,0.14655656,-0.5895304,0.3789518,0.1846669,815.9341,791.75824,795.38464,807.8755,1097.1794,-0.21441650390625,-0.03411865234375,0.99029541015625,-0.28411865234375,7.932891845703125,13.660125732421875,1,1.0,1.0,1.0,1.0,10.00
2024-10-11 20:48:42.002,0.630633,0.715785,-0.06861181,0.51823694,0.6812179,0.1648731,-0.17209174,0.34078526,0.9779446,0.0041333414,0.06533831,0.59590137,0.56101316,-0.1379838,0.683124,0.4637965,0.14655656,-0.5895304,0.3789518,0.1846669,817.9487,790.54944,800.6227,801.4286,836.08057,-0.21441650390625,-0.03411865234375,0.99029541015625,-0.28411865234375,7.932891845703125,13.660125732421875,1,1.0,1.0,1.0,1.0,10.00
2024-10-11 20:48:42.003,0.630633,0.715785,-0.06861181,0.51823694,0.6812179,0.1648731,-0.17209174,0.34078526,0.9779446,0.0041333414,0.06533831,0.59590137,0.56101316,-0.1379838,0.683124,0.4637965,0.14655656,-0.5895304,0.3789518,0.1846669,807.47253,789.7436,804.2491,801.8315,691.8315,-0.21441650390625,-0.03411865234375,0.99029541015625,-0.28411865234375,7.932891845703125,13.660125732421875,1,1.0,1.0,1.0,1.0,10.00
2024-10-11 20:48:42.004,0.630633,0.715785,-0.06861181,0.51823694,0.6812179,0.1648731,-0.17209174,0.34078526,0.9779446,0.0041333414,0.06533831,0.59590137,0.56101316,-0.1379838,0.683124,0.4637965,0.14655656,-0.5895304,0.3789518,0.1846669,799.81683,786.1172,803.8461,814.7253,905.38464,-0.21441650390625,-0.03411865234375,0.99029541015625,-0.28411865234375,7.932891845703125,13.660125732421875,1,1.0,1.0,1.0,1.0,10.00
2024-10-11 20:48:42.004,0.630633,0.715785,-0.06861181,0.51823694,0.6812179,0.1648731,-0.17209174,0.34078526,0.9779446,0.0041333414,0.06533831,0.59590137,0.56101316,-0.1379838,0.683124,0.4637965,0.14655656,-0.5895304,0.3789518,0.1846669,814.7253,788.1319,803.0403,818.3516,830.4396,-0.21441650390625,-0.03411865234375,0.99029541015625,-0.28411865234375,7.932891845703125,13.660125732421875,1,1.0,1.0,1.0,1.0,10.00
2024-10-11 20:48:42.035,0.630633,0.715785,-0.06861181,0.51823694,0.6812179,0.1648731,-0.17209174,0.34078526,0.9779446,0.0041333414,0.06533831,0.59590137,0.56101316,-0.1379838,0.683124,0.4637965,0.14655656,-0.5895304,0.3789518,0.1846669,826.4103,794.17584,797.3993,822.381,635.82416,-0.2159423828125,-0.02508544921875,0.988525390625,0.179443359375,6.7889404296875,11.581573486328125,1,1.0,1.0,1.0,1.0,10.00
2024-10-11 20:48:42.036,0.630633,0.715785,-0.06861181,0.51823694,0.6812179,0.1648731,-0.17209174,0.34078526,0.9779446,0.0041333414,0.06533831,0.59590137,0.56101316,-0.1379838,0.683124,0.4637965,0.14655656,-0.5895304,0.3789518,0.1846669,815.5311,794.17584,789.7436,814.3223,546.77655,-0.2159423828125,-0.02508544921875,0.988525390625,0.179443359375,6.7889404296875,11.581573486328125,1,1.0,1.0,1.0,1.0,10.00
2024-10-11 20:48:42.037,0.630633,0.715785,-0.06861181,0.51823694,0.6812179,0.1648731,-0.17209174,0.34078526,0.9779446,0.0041333414,0.06533831,0.59590137,0.56101316,-0.1379838,0.683124,0.4637965,0.14655656,-0.5895304,0.3789518,0.1846669,814.3223,784.5055,800.2198,812.3077,613.2601,-0.2159423828125,-0.02508544921875,0.988525390625,0.179443359375,6.7889404296875,11.581573486328125,1,1.0,1.0,1.0,1.0,10.00
2024-10-11 20:48:42.038,0.630633,0.715785,-0.06861181,0.51823694,0.6812179,0.1648731,-0.17209174,0.34078526,0.9779446,0.0041333414,0.06533831,0.59590137,0.56101316,-0.1379838,0.683124,0.4637965,0.14655656,-0.5895304,0.3789518,0.1846669,832.0513,790.14655,812.71063,820.3663,663.6264,-0.2159423828125,-0.02508544921875,0.988525390625,0.179443359375,6.7889404296875,11.581573486328125,1,1.0,1.0,1.0,1.0,10.00
2024-10-11 20:48:42.039,0.630633,0.715785,-0.06861181,0.51823694,0.6812179,0.1648731,-0.17209174,0.34078526,0.9779446,0.0041333414,0.06533831,0.59590137,0.56101316,-0.1379838,0.683124,0.4637965,0.14655656,-0.5895304,0.3789518,0.1846669,843.73627,794.9817,816.337,825.6044,585.4579,-0.2159423828125,-0.02508544921875,0.988525390625,0.179443359375,6.7889404296875,11.581573486328125,1,1.0,1.0,1.0,1.0,10.00
2024-10-11 20:48:42.039,0.630633,0.715785,-0.06861181,0.51823694,0.6812179,0.1648731,-0.17209174,0.34078526,0.9779446,0.0041333414,0.06533831,0.59590137,0.56101316,-0.1379838,0.683124,0.4637965,0.14655656,-0.5895304,0.3789518,0.1846669,825.6044,790.14655,816.7399,827.2161,664.83514,-0.2159423828125,-0.02508544921875,0.988525390625,0.179443359375,6.7889404296875,11.581573486328125,1,1.0,1.0,1.0,1.0,10.00
2024-10-11 20:48:42.040,0.630633,0.715785,-0.06861181,0.51823694,0.6812179,0.1648731,-0.17209174,0.34078526,0.9779446,0.0041333414,0.06533831,0.59590137,0.56101316,-0.1379838,0.683124,0.4637965,0.14655656,-0.5895304,0.3789518,0.1846669,819.5604,786.1172,812.3077,831.2454,848.5714,-0.2159423828125,-0.02508544921875,0.988525390625,0.179443359375,6.7889404296875,11.581573486328125,1,1.0,1.0,1.0,1.0,10.00
2024-10-11 20:48:42.041,0.630633,0.715785,-0.06861181,0.51823694,0.6812179,0.1648731,-0.17209174,0.34078526,0.9779446,0.0041333414,0.06533831,0.59590137,0.56101316,-0.1379838,0.683124,0.4637965,0.14655656,-0.5895304,0.3789518,0.1846669,836.8865,786.9231,814.7253,841.31866,763.5531,-0.2159423828125,-0.02508544921875,0.988525390625,0.179443359375,6.7889404296875,11.581573486328125,1,1.0,1.0,1.0,1.0,10.00
2024-10-11 20:48:42.042,0.630633,0.715785,-0.06861181,0.51823694,0.6812179,0.1648731,-0.17209174,0.34078526,0.9779446,0.0041333414,0.06533831,0.59590137,0.56101316,-0.1379838,0.683124,0.4637965,0.14655656,-0.5895304,0.3789518,0.1846669,841.31866,792.96704,810.293,826.8132,556.4469,-0.2159423828125,-0.02508544921875,0.988525390625,0.179443359375,6.7889404296875,11.581573486328125,1,1.0,1.0,1.0,1.0,10.00
2024-10-11 20:48:42.043,0.630633,0.715785,-0.06861181,0.51823694,0.6812179,0.1648731,-0.17209174,0.34078526,0.9779446,0.0041333414,0.06533831,0.59590137,0.56101316,-0.1379838,0.683124,0.4637965,0.14655656,-0.5895304,0.3789518,0.1846669,830.0366,792.5641,796.5934,820.7692,556.04395,-0.2159423828125,-0.02508544921875,0.988525390625,0.179443359375,6.7889404296875,11.581573486328125,1,1.0,1.0,1.0,1.0,10.00
2024-10-11 20:48:42.043,0.630633,0.715785,-0.06861181,0.51823694,0.6812179,0.1648731,-0.17209174,0.34078526,0.9779446,0.0041333414,0.06533831,0.59590137,0.56101316,-0.1379838,0.683124,0.4637965,0.14655656,-0.5895304,0.3789518,0.1846669,826.4103,787.326,790.14655,834.4689,726.08057,-0.2159423828125,-0.02508544921875,0.988525390625,0.179443359375,6.7889404296875,11.581573486328125,1,1.0,1.0,1.0,1.0,10.00
2024-10-11 20:48:42.044,0.630633,0.715785,-0.06861181,0.51823694,0.6812179,0.1648731,-0.17209174,0.34078526,0.9779446,0.0041333414,0.06533831,0.59590137,0.56101316,-0.1379838,0.683124,0.4637965,0.14655656,-0.5895304,0.3789518,0.1846669,830.84247,789.34064,806.26373,840.10986,740.18317,-0.2159423828125,-0.02508544921875,0.988525390625,0.179443359375,6.7889404296875,11.581573486328125,1,1.0,1.0,1.0,1.0,10.00
2024-10-11 20:48:42.074,0.630633,0.715785,-0.06861181,0.51823694,0.6812179,0.1648731,-0.17209174,0.34078526,0.9779446,0.0041333414,0.06533831,0.59590137,0.56101316,-0.1379838,0.683124,0.4637965,0.14655656,-0.5895304,0.3789518,0.1846669,830.4396,792.96704,817.9487,834.0659,623.3333,-0.22674560546875,-0.01910400390625,0.98455810546875,1.24114990234375,7.3870849609375,8.20953369140625,1,1.0,1.0,1.0,1.0,10.00
2024-10-11 20:48:42.076,0.630633,0.715785,-0.06861181,0.51823694,0.6812179,0.1648731,-0.17209174,0.34078526,0.9779446,0.0041333414,0.06533831,0.59590137,0.56101316,-0.1379838,0.683124,0.4637965,0.14655656,-0.5895304,0.3789518,0.1846669,837.28937,785.31134,825.6044,836.4835,697.0696,-0.22674560546875,-0.01910400390625,0.98455810546875,1.24114990234375,7.3870849609375,8.20953369140625,1,1.0,1.0,1.0,1.0,10.00
2024-10-11 20:48:42.076,0.630633,0.715785,-0.06861181,0.51823694,0.6812179,0.1648731,-0.17209174,0.34078526,0.9779446,0.0041333414,0.06533831,0.59590137,0.56101316,-0.1379838,0.683124,0.4637965,0.14655656,-0.5895304,0.3789518,0.1846669,832.4542,786.52014,815.12823,830.4396,805.8608,-0.22674560546875,-0.01910400390625,0.98455810546875,1.24114990234375,7.3870849609375,8.20953369140625,1,1.0,1.0,1.0,1.0,10.00
2024-10-11 20:48:42.077,0.630633,0.715785,-0.06861181,0.51823694,0.6812179,0.1648731,-0.17209174,0.34078526,0.9779446,0.0041333414,0.06533831,0.59590137,0.56101316,-0.1379838,0.683124,0.4637965,0.14655656,-0.5895304,0.3789518,0.1846669,827.2161,792.5641,792.96704,823.5897,811.50183,-0.22674560546875,-0.01910400390625,0.98455810546875,1.24114990234375,7.3870849609375,8.20953369140625,1,1.0,1.0,1.0,1.0,10.00
2024-10-11 20:48:42.078,0.630633,0.715785,-0.06861181,0.51823694,0.6812179,0.1648731,-0.17209174,0.34078526,0.9779446,0.0041333414,0.06533831,0.59590137,0.56101316,-0.1379838,0.683124,0.4637965,0.14655656,-0.5895304,0.3789518,0.1846669,832.8571,790.54944,807.0696,832.8571,628.1685,-0.22674560546875,-0.01910400390625,0.98455810546875,1.24114990234375,7.3870849609375,8.20953369140625,1,1.0,1.0,1.0,1.0,10.00
2024-10-11 20:48:42.079,0.630633,0.715785,-0.06861181,0.51823694,0.6812179,0.1648731,-0.17209174,0.34078526,0.9779446,0.0041333414,0.06533831,0.59590137,0.56101316,-0.1379838,0.683124,0.4637965,0.14655656,-0.5895304,0.3789518,0.1846669,824.3956,784.90845,811.0989,833.663,613.663,-0.22674560546875,-0.01910400390625,0.98455810546875,1.24114990234375,7.3870849609375,8.20953369140625,1,1.0,1.0,1.0,1.0,10.00
2024-10-11 20:48:42.080,0.630633,0.715785,-0.06861181,0.51823694,0.6812179,0.1648731,-0.17209174,0.34078526,0.9779446,0.0041333414,0.06533831,0.59590137,0.56101316,-0.1379838,0.683124,0.4637965,0.14655656,-0.5895304,0.3789518,0.1846669,828.4249,776.4469,807.47253,836.8865,1126.1904,-0.22674560546875,-0.01910400390625,0.98455810546875,1.24114990234375,7.3870849609375,8.20953369140625,1,1.0,1.0,1.0,1.0,10.00
2024-10-11 20:48:42.081,0.630633,0.715785,-0.06861181,0.51823694,0.6812179,0.1648731,-0.17209174,0.34078526,0.9779446,0.0041333414,0.06533831,0.59590137,0.56101316,-0.1379838,0.683124,0.4637965,0.14655656,-0.5895304,0.3789518,0.1846669,824.7985,777.6557,813.1135,837.6923,1173.7362,-0.22674560546875,-0.01910400390625,0.98455810546875,1.24114990234375,7.3870849609375,8.20953369140625,1,1.0,1.0,1.0,1.0,10.00
2024-10-11 20:48:42.082,0.630633,0.715785,-0.06861181,0.51823694,0.6812179,0.1648731,-0.17209174,0.34078526,0.9779446,0.0041333414,0.06533831,0.59590137,0.56101316,-0.1379838,0.683124,0.4637965,0.14655656,-0.5895304,0.3789518,0.1846669,810.293,791.75824,802.23444,828.8278,656.77655,-0.22674560546875,-0.01910400390625,0.98455810546875,1.24114990234375,7.3870849609375,8.20953369140625,1,1.0,1.0,1.0,1.0,10.00
2024-10-11 20:48:42.083,0.60765153,0.57629746,-0.06262688,0.5394159,0.6423004,0.13197695,-0.13329712,0.30956146,0.9779446,0.019057907,0.10813548,0.6374058,0.5560404,-0.14814508,0.6796844,0.50287,0.13183452,-0.5851786,0.36555246,0.18956198,822.381,797.8022,808.2784,834.4689,591.9048,-0.22674560546875,-0.01910400390625,0.98455810546875,1.24114990234375,7.3870849609375,8.20953369140625,1,1.0,1.0,1.0,1.0,10.00
2024-10-11 20:48:42.088,0.60765153,0.57629746,-0.06262688,0.5394159,0.6423004,0.13197695,-0.13329712,0.30956146,0.9779446,0.019057907,0.10813548,0.6374058,0.5560404,-0.14814508,0.6796844,0.50287,0.13183452,-0.5851786,0.36555246,0.18956198,835.6777,794.57874,819.5604,830.0366,574.9817,-0.22674560546875,-0.01910400390625,0.98455810546875,1.24114990234375,7.3870849609375,8.20953369140625,1,1.0,1.0,1.0,1.0,10.00
2024-10-11 20:48:42.089,0.60765153,0.57629746,-0.06262688,0.5394159,0.6423004,0.13197695,-0.13329712,0.30956146,0.9779446,0.019057907,0.10813548,0.6374058,0.5560404,-0.14814508,0.6796844,0.50287,0.13183452,-0.5851786,0.36555246,0.18956198,828.4249,791.75824,811.50183,805.05493,482.30768,-0.22674560546875,-0.01910400390625,0.98455810546875,1.24114990234375,7.3870849609375,8.20953369140625,1,1.0,1.0,1.0,1.0,10.00
2024-10-11 20:48:42.121,0.60765153,0.57629746,-0.06262688,0.5394159,0.6423004,0.13197695,-0.13329712,0.30956146,0.9779446,0.019057907,0.10813548,0.6374058,0.5560404,-0.14814508,0.6796844,0.50287,0.13183452,-0.5851786,0.36555246,0.18956198,825.6044,787.326,807.47253,800.2198,475.4579,-0.22674560546875,-0.01910400390625,0.98455810546875,1.24114990234375,7.3870849609375,8.20953369140625,1,1.0,1.0,1.0,1.0,10.00
2024-10-11 20:48:42.123,0.60765153,0.57629746,-0.06262688,0.5394159,0.6423004,0.13197695,-0.13329712,0.30956146,0.9779446,0.019057907,0.10813548,0.6374058,0.5560404,-0.14814508,0.6796844,0.50287,0.13183452,-0.5851786,0.36555246,0.18956198,819.5604,788.5348,796.1905,812.3077,682.5641,-0.22674560546875,-0.01910400390625,0.98455810546875,1.24114990234375,7.3870849609375,8.20953369140625,1,1.0,1.0,1.0,1.0,10.00
2024-10-11 20:48:42.123,0.60765153,0.57629746,-0.06262688,0.5394159,0.6423004,0.13197695,-0.13329712,0.30956146,0.9779446,0.019057907,0.10813548,0.6374058,0.5560404,-0.14814508,0.6796844,0.50287,0.13183452,-0.5851786,0.36555246,0.18956198,818.3516,791.75824,792.96704,813.1135,762.3443,-0.22674560546875,-0.01910400390625,0.98455810546875,1.24114990234375,7.3870849609375,8.20953369140625,1,1.0,1.0,1.0,1.0,10.00
2024-10-11 20:48:42.124,0.60765153,0.57629746,-0.06262688,0.5394159,0.6423004,0.13197695,-0.13329712,0.30956146,0.9779446,0.019057907,0.10813548,0.6374058,0.5560404,-0.14814508,0.6796844,0.50287,0.13183452,-0.5851786,0.36555246,0.18956198,813.5165,791.75824,799.41394,820.7692,656.77655,-0.22674560546875,-0.01910400390625,0.98455810546875,1.24114990234375,7.3870849609375,8.20953369140625,1,1.0,1.0,1.0,1.0,10.00
2024-10-11 20:48:42.125,0.60765153,0.57629746,-0.06262688,0.5394159,0.6423004,0.13197695,-0.13329712,0.30956146,0.9779446,0.019057907,0.10813548,0.6374058,0.5560404,-0.14814508,0.6796844,0.50287,0.13183452,-0.5851786,0.36555246,0.18956198,808.68134,789.34064,790.9524,824.7985,614.87177,-0.22674560546875,-0.01910400390625,0.98455810546875,1.24114990234375,7.3870849609375,8.20953369140625,1,1.0,1.0,1.0,1.0,10.00
2024-10-11 20:48:42.126,0.60765153,0.57629746,-0.06262688,0.5394159,0.6423004,0.13197695,-0.13329712,0.30956146,0.9779446,0.019057907,0.10813548,0.6374058,0.5560404,-0.14814508,0.6796844,0.50287,0.13183452,-0.5851786,0.36555246,0.18956198,803.44324,784.10254,794.9817,812.3077,826.8132,-0.22674560546875,-0.01910400390625,0.98455810546875,1.24114990234375,7.3870849609375,8.20953369140625,1,1.0,1.0,1.0,1.0,10.00
2024-10-11 20:48:42.127,0.60765153,0.57629746,-0.06262688,0.5394159,0.6423004,0.13197695,-0.13329712,0.30956146,0.9779446,0.019057907,0.10813548,0.6374058,0.5560404,-0.14814508,0.6796844,0.50287,0.13183452,-0.5851786,0.36555246,0.18956198,802.6374,787.72894,805.8608,802.6374,1074.2124,-0.22674560546875,-0.01910400390625,0.98455810546875,1.24114990234375,7.3870849609375,8.20953369140625,1,1.0,1.0,1.0,1.0,10.00
2024-10-11 20:48:42.128,0.60765153,0.57629746,-0.06262688,0.5394159,0.6423004,0.13197695,-0.13329712,0.30956146,0.9779446,0.019057907,0.10813548,0.6374058,0.5560404,-0.14814508,0.6796844,0.50287,0.13183452,-0.5851786,0.36555246,0.18956198,809.89014,792.5641,804.2491,803.44324,764.35895,-0.22674560546875,-0.01910400390625,0.98455810546875,1.24114990234375,7.3870849609375,8.20953369140625,1,1.0,1.0,1.0,1.0,10.00
2024-10-11 20:48:42.128,0.60765153,0.57629746,-0.06262688,0.5394159,0.6423004,0.13197695,-0.13329712,0.30956146,0.9779446,0.019057907,0.10813548,0.6374058,0.5560404,-0.14814508,0.6796844,0.50287,0.13183452,-0.5851786,0.36555246,0.18956198,812.3077,791.75824,799.41394,803.8461,531.4652,-0.22674560546875,-0.01910400390625,0.98455810546875,1.24114990234375,7.3870849609375,8.20953369140625,1,1.0,1.0,1.0,1.0,10.00
2024-10-11 20:48:42.129,0.60765153,0.57629746,-0.06262688,0.5394159,0.6423004,0.13197695,-0.13329712,0.30956146,0.9779446,0.019057907,0.10813548,0.6374058,0.5560404,-0.14814508,0.6796844,0.50287,0.13183452,-0.5851786,0.36555246,0.18956198,810.293,799.81683,805.8608,805.05493,625.34796,-0.22674560546875,-0.01910400390625,0.98455810546875,1.24114990234375,7.3870849609375,8.20953369140625,1,1.0,1.0,1.0,1.0,10.00
2024-10-11 20:48:42.130,0.60765153,0.57629746,-0.06262688,0.5394159,0.6423004,0.13197695,-0.13329712,0.30956146,0.9779446,0.019057907,0.10813548,0.6374058,0.5560404,-0.14814508,0.6796844,0.50287,0.13183452,-0.5851786,0.36555246,0.18956198,816.337,806.26373,811.9048,812.3077,664.43225,-0.22674560546875,-0.01910400390625,0.98455810546875,1.24114990234375,7.3870849609375,8.20953369140625,1,1.0,1.0,1.0,1.0,10.00
2024-10-11 20:48:42.131,0.60765153,0.57629746,-0.06262688,0.5394159,0.6423004,0.13197695,-0.13329712,0.30956146,0.9779446,0.019057907,0.10813548,0.6374058,0.5560404,-0.14814508,0.6796844,0.50287,0.13183452,-0.5851786,0.36555246,0.18956198,812.71063,802.6374,809.4872,807.47253,520.989,-0.22674560546875,-0.01910400390625,0.98455810546875,1.24114990234375,7.3870849609375,8.20953369140625,1,1.0,1.0,1.0,1.0,10.00
2024-10-11 20:48:42.164,0.60765153,0.57629746,-0.06262688,0.5394159,0.6423004,0.13197695,-0.13329712,0.30956146,0.9779446,0.019057907,0.10813548,0.6374058,0.5560404,-0.14814508,0.6796844,0.50287,0.13183452,-0.5851786,0.36555246,0.18956198,803.0403,798.20514,809.0842,817.1429,525.0183,-0.23187255859375,-0.0152587890625,0.99139404296875,1.36077880859375,7.76092529296875,4.643096923828125,1,1.0,1.0,1.0,1.0,10.00
