TimeStamp,Delta_TP9,Delta_AF7,Delta_AF8,Delta_TP10,Theta_TP9,Theta_AF7,Theta_AF8,Theta_TP10,Alpha_TP9,Alpha_AF7,Alpha_AF8,Alpha_TP10,Beta_TP9,Beta_AF7,Beta_AF8,Beta_TP10,Gamma_TP9,Gamma_AF7,Gamma_AF8,Gamma_TP10,RAW_TP9,RAW_AF7,RAW_AF8,RAW_TP10,AUX_RIGHT,Accelerometer_X,Accelerometer_Y,Accelerometer_Z,Gyro_X,Gyro_Y,Gyro_Z,HeadBandOn,HSI_TP9,HSI_AF7,HSI_AF8,HSI_TP10,Battery,Elements
2024-10-11 20:47:37.357,0.9393861,1.1067277,0.84133226,1.013881,0.7717858,0.85734576,0.40164086,0.72656095,0.65751034,0.43822715,0.133743,0.75924855,0.46626016,-0.14776042,0.45750287,0.46250176,0.26864722,-0.17757608,0.30421624,0.17669131,802.23444,787.72894,809.0842,825.2015,1094.359,0.01458740234375,0.0880126953125,1.00146484375,-1.30096435546875,-0.82244873046875,-2.64678955078125,1,1.0,1.0,1.0,1.0,10.00
2024-10-11 20:47:37.358,0.9393861,1.1067277,0.84133226,1.013881,0.7717858,0.85734576,0.40164086,0.72656095,0.65751034,0.43822715,0.133743,0.75924855,0.46626016,-0.14776042,0.45750287,0.46250176,0.26864722,-0.17757608,0.30421624,0.17669131,803.8461,790.54944,803.0403,818.3516,1096.3737,0.01458740234375,0.0880126953125,1.00146484375,-1.30096435546875,-0.82244873046875,-2.64678955078125,1,1.0,1.0,1.0,1.0,10.00
2024-10-11 20:47:37.359,0.9393861,1.1067277,0.84133226,1.013881,0.7717858,0.85734576,0.40164086,0.72656095,0.65751034,0.43822715,0.133743,0.75924855,0.46626016,-0.14776042,0.45750287,0.46250176,0.26864722,-0.17757608,0.30421624,0.17669131,801.8315,796.99634,789.7436,803.44324,683.36993,0.01458740234375,0.0880126953125,1.00146484375,-1.30096435546875,-0.82244873046875,-2.64678955078125,1,1.0,1.0,1.0,1.0,10.00
2024-10-11 20:47:37.360,0.9393861,1.1067277,0.84133226,1.013881,0.7717858,0.85734576,0.40164086,0.72656095,0.65751034,0.43822715,0.133743,0.75924855,0.46626016,-0.14776042,0.45750287,0.46250176,0.26864722,-0.17757608,0.30421624,0.17669131,796.99634,793.36993,796.5934,807.0696,768.3883,0.01458740234375,0.0880126953125,1.00146484375,-1.30096435546875,-0.82244873046875,-2.64678955078125,1,1.0,1.0,1.0,1.0,10.00
2024-10-11 20:47:37.361,0.9393861,1.1067277,0.84133226,1.013881,0.7717858,0.85734576,0.40164086,0.72656095,0.65751034,0.43822715,0.133743,0.75924855,0.46626016,-0.14776042,0.45750287,0.46250176,0.26864722,-0.17757608,0.30421624,0.17669131,800.2198,791.3553,800.2198,807.47253,761.9414,0.01458740234375,0.0880126953125,1.00146484375,-1.30096435546875,-0.82244873046875,-2.64678955078125,1,1.0,1.0,1.0,1.0,10.00
2024-10-11 20:47:37.362,0.9393861,1.1067277,0.84133226,1.013881,0.7717858,0.85734576,0.40164086,0.72656095,0.65751034,0.43822715,0.133743,0.75924855,0.46626016,-0.14776042,0.45750287,0.46250176,0.26864722,-0.17757608,0.30421624,0.17669131,798.60803,789.34064,783.2967,811.0989,850.989,0.01458740234375,0.0880126953125,1.00146484375,-1.30096435546875,-0.82244873046875,-2.64678955078125,1,1.0,1.0,1.0,1.0,10.00
2024-10-11 20:47:37.363,0.9393861,1.1067277,0.84133226,1.013881,0.7717858,0.85734576,0.40164086,0.72656095,0.65751034,0.43822715,0.133743,0.75924855,0.46626016,-0.14776042,0.45750287,0.46250176,0.26864722,-0.17757608,0.30421624,0.17669131,795.78754,789.7436,802.6374,813.1135,930.3663,0.01458740234375,0.0880126953125,1.00146484375,-1.30096435546875,-0.82244873046875,-2.64678955078125,1,1.0,1.0,1.0,1.0,10.00
2024-10-11 20:47:37.364,0.9393861,1.1067277,0.84133226,1.013881,0.7717858,0.85734576,0.40164086,0.72656095,0.65751034,0.43822715,0.133743,0.75924855,0.46626016,-0.14776042,0.45750287,0.46250176,0.26864722,-0.17757608,0.30421624,0.17669131,799.81683,788.5348,817.5458,805.4579,979.5238,0.01458740234375,0.0880126953125,1.00146484375,-1.30096435546875,-0.82244873046875,-2.64678955078125,1,1.0,1.0,1.0,1.0,10.00
2024-10-11 20:47:37.365,0.9393861,1.1067277,0.84133226,1.013881,0.7717858,0.85734576,0.40164086,0.72656095,0.65751034,0.43822715,0.133743,0.75924855,0.46626016,-0.14776042,0.45750287,0.46250176,0.26864722,-0.17757608,0.30421624,0.17669131,799.41394,783.69965,809.0842,804.2491,1140.2931,0.01458740234375,0.0880126953125,1.00146484375,-1.30096435546875,-0.82244873046875,-2.64678955078125,1,1.0,1.0,1.0,1.0,10.00
2024-10-11 20:47:37.366,0.9393861,1.1067277,0.84133226,1.013881,0.7717858,0.85734576,0.40164086,0.72656095,0.65751034,0.43822715,0.133743,0.75924855,0.46626016,-0.14776042,0.45750287,0.46250176,0.26864722,-0.17757608,0.30421624,0.17669131,807.0696,790.54944,810.696,805.05493,816.337,0.01458740234375,0.0880126953125,1.00146484375,-1.30096435546875,-0.82244873046875,-2.64678955078125,1,1.0,1.0,1.0,1.0,10.00
2024-10-11 20:47:37.367,0.9393861,1.1067277,0.84133226,1.013881,0.7717858,0.85734576,0.40164086,0.72656095,0.65751034,0.43822715,0.133743,0.75924855,0.46626016,-0.14776042,0.45750287,0.46250176,0.26864722,-0.17757608,0.30421624,0.17669131,814.3223,796.99634,816.7399,804.65204,637.03296,0.01458740234375,0.0880126953125,1.00146484375,-1.30096435546875,-0.82244873046875,-2.64678955078125,1,1.0,1.0,1.0,1.0,10.00
2024-10-11 20:47:37.368,0.9393861,1.1067277,0.84133226,1.013881,0.7717858,0.85734576,0.40164086,0.72656095,0.65751034,0.43822715,0.133743,0.75924855,0.46626016,-0.14776042,0.45750287,0.46250176,0.26864722,-0.17757608,0.30421624,0.17669131,809.4872,794.57874,818.3516,805.4579,731.7216,0.01458740234375,0.0880126953125,1.00146484375,-1.30096435546875,-0.82244873046875,-2.64678955078125,1,1.0,1.0,1.0,1.0,10.00
2024-10-11 20:47:37.454,0.9393861,1.1067277,0.84133226,1.013881,0.7717858,0.85734576,0.40164086,0.72656095,0.65751034,0.43822715,0.133743,0.75924855,0.46626016,-0.14776042,0.45750287,0.46250176,0.26864722,-0.17757608,0.30421624,0.17669131,800.6227,796.1905,815.9341,802.23444,693.8461,0.0123291015625,0.08148193359375,1.00299072265625,-0.299072265625,-0.07476806640625,-3.409423828125,1,1.0,1.0,1.0,1.0,10.00
2024-10-11 20:47:37.455,0.9393861,1.1067277,0.84133226,1.013881,0.7717858,0.85734576,0.40164086,0.72656095,0.65751034,0.43822715,0.133743,0.75924855,0.46626016,-0.14776042,0.45750287,0.46250176,0.26864722,-0.17757608,0.30421624,0.17669131,794.57874,792.1612,804.65204,799.011,528.24176,0.0123291015625,0.08148193359375,1.00299072265625,-0.299072265625,-0.07476806640625,-3.409423828125,1,1.0,1.0,1.0,1.0,10.00
2024-10-11 20:47:37.457,0.9393861,1.1067277,0.84133226,1.013881,0.7717858,0.85734576,0.40164086,0.72656095,0.65751034,0.43822715,0.133743,0.75924855,0.46626016,-0.14776042,0.45750287,0.46250176,0.26864722,-0.17757608,0.30421624,0.17669131,796.5934,789.34064,793.36993,801.4286,546.3736,0.0123291015625,0.08148193359375,1.00299072265625,-0.299072265625,-0.07476806640625,-3.409423828125,1,1.0,1.0,1.0,1.0,10.00
2024-10-11 20:47:37.458,0.9393861,1.1067277,0.84133226,1.013881,0.7717858,0.85734576,0.40164086,0.72656095,0.65751034,0.43822715,0.133743,0.75924855,0.46626016,-0.14776042,0.45750287,0.46250176,0.26864722,-0.17757608,0.30421624,0.17669131,801.4286,789.7436,802.23444,805.4579,797.8022,0.0123291015625,0.08148193359375,1.00299072265625,-0.299072265625,-0.07476806640625,-3.409423828125,1,1.0,1.0,1.0,1.0,10.00
2024-10-11 20:47:37.459,0.9393861,1.1067277,0.84133226,1.013881,0.7717858,0.85734576,0.40164086,0.72656095,0.65751034,0.43822715,0.133743,0.75924855,0.46626016,-0.14776042,0.45750287,0.46250176,0.26864722,-0.17757608,0.30421624,0.17669131,798.20514,790.9524,809.0842,802.6374,837.28937,0.0123291015625,0.08148193359375,1.00299072265625,-0.299072265625,-0.07476806640625,-3.409423828125,1,1.0,1.0,1.0,1.0,10.00
2024-10-11 20:47:37.460,0.9393861,1.1067277,0.84133226,1.013881,0.7717858,0.85734576,0.40164086,0.72656095,0.65751034,0.43822715,0.133743,0.75924855,0.46626016,-0.14776042,0.45750287,0.46250176,0.26864722,-0.17757608,0.30421624,0.17669131,800.2198,792.5641,802.6374,802.6374,789.34064,0.0123291015625,0.08148193359375,1.00299072265625,-0.299072265625,-0.07476806640625,-3.409423828125,1,1.0,1.0,1.0,1.0,10.00
2024-10-11 20:47:37.461,0.9393861,1.1067277,0.84133226,1.013881,0.7717858,0.85734576,0.40164086,0.72656095,0.65751034,0.43822715,0.133743,0.75924855,0.46626016,-0.14776042,0.45750287,0.46250176,0.26864722,-0.17757608,0.30421624,0.17669131,805.8608,798.20514,799.011,807.0696,855.82416,0.0123291015625,0.08148193359375,1.00299072265625,-0.299072265625,-0.07476806640625,-3.409423828125,1,1.0,1.0,1.0,1.0,10.00
2024-10-11 20:47:37.462,0.9393861,1.0964254,0.8100439,1.013881,0.7717858,0.8462828,0.37768546,0.72656095,0.65751034,0.43325427,0.15383774,0.75924855,0.46626016,-0.17213748,0.4775368,0.46250176,0.26864722,-0.20041946,0.29898804,0.17669131,809.89014,801.02563,790.14655,808.68134,951.31866,0.0123291015625,0.08148193359375,1.00299072265625,-0.299072265625,-0.07476806640625,-3.409423828125,1,1.0,1.0,1.0,1.0,10.00
2024-10-11 20:47:37.467,0.9393861,1.0964254,0.8100439,1.013881,0.7717858,0.8462828,0.37768546,0.72656095,0.65751034,0.43325427,0.15383774,0.75924855,0.46626016,-0.17213748,0.4775368,0.46250176,0.26864722,-0.20041946,0.29898804,0.17669131,808.2784,796.1905,790.14655,806.26373,892.0879,0.0123291015625,0.08148193359375,1.00299072265625,-0.299072265625,-0.07476806640625,-3.409423828125,1,1.0,1.0,1.0,1.0,10.00
2024-10-11 20:47:37.469,0.9393861,1.0964254,0.8100439,1.013881,0.7717858,0.8462828,0.37768546,0.72656095,0.65751034,0.43325427,0.15383774,0.75924855,0.46626016,-0.17213748,0.4775368,0.46250176,0.26864722,-0.20041946,0.29898804,0.17669131,805.05493,796.99634,808.2784,805.4579,682.1612,0.0123291015625,0.08148193359375,1.00299072265625,-0.299072265625,-0.07476806640625,-3.409423828125,1,1.0,1.0,1.0,1.0,10.00
2024-10-11 20:47:37.470,0.9393861,1.0964254,0.8100439,1.013881,0.7717858,0.8462828,0.37768546,0.72656095,0.65751034,0.43325427,0.15383774,0.75924855,0.46626016,-0.17213748,0.4775368,0.46250176,0.26864722,-0.20041946,0.29898804,0.17669131,803.8461,797.3993,807.47253,802.6374,669.2674,0.0123291015625,0.08148193359375,1.00299072265625,-0.299072265625,-0.07476806640625,-3.409423828125,1,1.0,1.0,1.0,1.0,10.00
2024-10-11 20:47:37.472,0.9393861,1.0964254,0.8100439,1.013881,0.7717858,0.8462828,0.37768546,0.72656095,0.65751034,0.43325427,0.15383774,0.75924855,0.46626016,-0.17213748,0.4775368,0.46250176,0.26864722,-0.20041946,0.29898804,0.17669131,797.8022,795.78754,804.65204,796.5934,972.27106,0.0123291015625,0.08148193359375,1.00299072265625,-0.299072265625,-0.07476806640625,-3.409423828125,1,1.0,1.0,1.0,1.0,10.00
2024-10-11 20:47:37.473,0.9393861,1.0964254,0.8100439,1.013881,0.7717858,0.8462828,0.37768546,0.72656095,0.65751034,0.43325427,0.15383774,0.75924855,0.46626016,-0.17213748,0.4775368,0.46250176,0.26864722,-0.20041946,0.29898804,0.17669131,796.1905,798.60803,807.0696,793.36993,915.4579,0.0123291015625,0.08148193359375,1.00299072265625,-0.299072265625,-0.07476806640625,-3.409423828125,1,1.0,1.0,1.0,1.0,10.00
2024-10-11 20:47:37.474,0.9393861,1.0964254,0.8100439,1.013881,0.7717858,0.8462828,0.37768546,0.72656095,0.65751034,0.43325427,0.15383774,0.75924855,0.46626016,-0.17213748,0.4775368,0.46250176,0.26864722,-0.20041946,0.29898804,0.17669131,801.02563,798.60803,803.8461,789.7436,656.3736,0.0123291015625,0.08148193359375,1.00299072265625,-0.299072265625,-0.07476806640625,-3.409423828125,1,1.0,1.0,1.0,1.0,10.00
2024-10-11 20:47:37.475,0.9393861,1.0964254,0.8100439,1.013881,0.7717858,0.8462828,0.37768546,0.72656095,0.65751034,0.43325427,0.15383774,0.75924855,0.46626016,-0.17213748,0.4775368,0.46250176,0.26864722,-0.20041946,0.29898804,0.17669131,800.6227,800.2198,798.60803,790.9524,718.4249,0.0123291015625,0.08148193359375,1.00299072265625,-0.299072265625,-0.07476806640625,-3.409423828125,1,1.0,1.0,1.0,1.0,10.00
2024-10-11 20:47:37.476,0.9393861,1.0964254,0.8100439,1.013881,0.7717858,0.8462828,0.37768546,0.72656095,0.65751034,0.43325427,0.15383774,0.75924855,0.46626016,-0.17213748,0.4775368,0.46250176,0.26864722,-0.20041946,0.29898804,0.17669131,797.3993,800.6227,799.011,797.8022,786.9231,0.0123291015625,0.08148193359375,1.00299072265625,-0.299072265625,-0.07476806640625,-3.409423828125,1,1.0,1.0,1.0,1.0,10.00
2024-10-11 20:47:37.477,0.9393861,1.0964254,0.8100439,1.013881,0.7717858,0.8462828,0.37768546,0.72656095,0.65751034,0.43325427,0.15383774,0.75924855,0.46626016,-0.17213748,0.4775368,0.46250176,0.26864722,-0.20041946,0.29898804,0.17669131,792.1612,799.41394,800.2198,796.99634,802.6374,0.0123291015625,0.08148193359375,1.00299072265625,-0.299072265625,-0.07476806640625,-3.409423828125,1,1.0,1.0,1.0,1.0,10.00
2024-10-11 20:47:37.478,0.9393861,1.0964254,0.8100439,1.013881,0.7717858,0.8462828,0.37768546,0.72656095,0.65751034,0.43325427,0.15383774,0.75924855,0.46626016,-0.17213748,0.4775368,0.46250176,0.26864722,-0.20041946,0.29898804,0.17669131,794.17584,801.02563,801.4286,800.2198,815.12823,0.0123291015625,0.08148193359375,1.00299072265625,-0.299072265625,-0.07476806640625,-3.409423828125,1,1.0,1.0,1.0,1.0,10.00
2024-10-11 20:47:37.479,0.9393861,1.0964254,0.8100439,1.013881,0.7717858,0.8462828,0.37768546,0.72656095,0.65751034,0.43325427,0.15383774,0.75924855,0.46626016,-0.17213748,0.4775368,0.46250176,0.26864722,-0.20041946,0.29898804,0.17669131,796.99634,796.5934,806.6667,804.2491,994.0293,0.0123291015625,0.08148193359375,1.00299072265625,-0.299072265625,-0.07476806640625,-3.409423828125,1,1.0,1.0,1.0,1.0,10.00
2024-10-11 20:47:37.480,0.9393861,1.0964254,0.8100439,1.013881,0.7717858,0.8462828,0.37768546,0.72656095,0.65751034,0.43325427,0.15383774,0.75924855,0.46626016,-0.17213748,0.4775368,0.46250176,0.26864722,-0.20041946,0.29898804,0.17669131,798.60803,791.75824,806.6667,805.8608,950.5128,0.0123291015625,0.08148193359375,1.00299072265625,-0.299072265625,-0.07476806640625,-3.409423828125,1,1.0,1.0,1.0,1.0,10.00
2024-10-11 20:47:37.481,0.9393861,1.0964254,0.8100439,1.013881,0.7717858,0.8462828,0.37768546,0.72656095,0.65751034,0.43325427,0.15383774,0.75924855,0.46626016,-0.17213748,0.4775368,0.46250176,0.26864722,-0.20041946,0.29898804,0.17669131,803.44324,799.81683,797.3993,799.81683,652.3443,0.0123291015625,0.08148193359375,1.00299072265625,-0.299072265625,-0.07476806640625,-3.409423828125,1,1.0,1.0,1.0,1.0,10.00
2024-10-11 20:47:37.482,0.9393861,1.0964254,0.8100439,1.013881,0.7717858,0.8462828,0.37768546,0.72656095,0.65751034,0.43325427,0.15383774,0.75924855,0.46626016,-0.17213748,0.4775368,0.46250176,0.26864722,-0.20041946,0.29898804,0.17669131,808.2784,804.2491,800.2198,800.6227,644.68866,0.0123291015625,0.08148193359375,1.00299072265625,-0.299072265625,-0.07476806640625,-3.409423828125,1,1.0,1.0,1.0,1.0,10.00
2024-10-11 20:47:37.483,0.9393861,1.0964254,0.8100439,1.013881,0.7717858,0.8462828,0.37768546,0.72656095,0.65751034,0.43325427,0.15383774,0.75924855,0.46626016,-0.17213748,0.4775368,0.46250176,0.26864722,-0.20041946,0.29898804,0.17669131,806.26373,800.2198,810.293,806.26373,712.7839,0.0123291015625,0.08148193359375,1.00299072265625,-0.299072265625,-0.07476806640625,-3.409423828125,1,1.0,1.0,1.0,1.0,10.00
2024-10-11 20:47:37.484,0.9393861,1.0964254,0.8100439,1.013881,0.7717858,0.8462828,0.37768546,0.72656095,0.65751034,0.43325427,0.15383774,0.75924855,0.46626016,-0.17213748,0.4775368,0.46250176,0.26864722,-0.20041946,0.29898804,0.17669131,801.4286,800.6227,802.6374,798.20514,747.03296,0.0123291015625,0.08148193359375,1.00299072265625,-0.299072265625,-0.07476806640625,-3.409423828125,1,1.0,1.0,1.0,1.0,10.00
2024-10-11 20:47:37.512,0.9393861,1.0964254,0.8100439,1.013881,0.7717858,0.8462828,0.37768546,0.72656095,0.65751034,0.43325427,0.15383774,0.75924855,0.46626016,-0.17213748,0.4775368,0.46250176,0.26864722,-0.20041946,0.29898804,0.17669131,809.4872,801.02563,800.6227,802.6374,732.1245,0.0257568359375,0.0924072265625,1.00115966796875,1.173858642578125,0.79254150390625,-4.50103759765625,1,1.0,1.0,1.0,1.0,10.00
2024-10-11 20:47:37.513,0.9393861,1.0964254,0.8100439,1.013881,0.7717858,0.8462828,0.37768546,0.72656095,0.65751034,0.43325427,0.15383774,0.75924855,0.46626016,-0.17213748,0.4775368,0.46250176,0.26864722,-0.20041946,0.29898804,0.17669131,815.12823,801.4286,808.68134,803.8461,690.2198,0.0257568359375,0.0924072265625,1.00115966796875,1.173858642578125,0.79254150390625,-4.50103759765625,1,1.0,1.0,1.0,1.0,10.00
2024-10-11 20:47:37.514,0.9393861,1.0964254,0.8100439,1.013881,0.7717858,0.8462828,0.37768546,0.72656095,0.65751034,0.43325427,0.15383774,0.75924855,0.46626016,-0.17213748,0.4775368,0.46250176,0.26864722,-0.20041946,0.29898804,0.17669131,800.6227,797.3993,812.3077,798.20514,844.1392,0.0257568359375,0.0924072265625,1.00115966796875,1.173858642578125,0.79254150390625,-4.50103759765625,1,1.0,1.0,1.0,1.0,10.00
2024-10-11 20:47:37.515,0.9393861,1.0964254,0.8100439,1.013881,0.7717858,0.8462828,0.37768546,0.72656095,0.65751034,0.43325427,0.15383774,0.75924855,0.46626016,-0.17213748,0.4775368,0.46250176,0.26864722,-0.20041946,0.29898804,0.17669131,797.3993,798.20514,797.8022,803.8461,833.2601,0.0257568359375,0.0924072265625,1.00115966796875,1.173858642578125,0.79254150390625,-4.50103759765625,1,1.0,1.0,1.0,1.0,10.00
2024-10-11 20:47:37.516,0.9393861,1.0964254,0.8100439,1.013881,0.7717858,0.8462828,0.37768546,0.72656095,0.65751034,0.43325427,0.15383774,0.75924855,0.46626016,-0.17213748,0.4775368,0.46250176,0.26864722,-0.20041946,0.29898804,0.17669131,799.011,801.02563,793.7729,809.0842,665.64105,0.0257568359375,0.0924072265625,1.00115966796875,1.173858642578125,0.79254150390625,-4.50103759765625,1,1.0,1.0,1.0,1.0,10.00
2024-10-11 20:47:37.517,0.9393861,1.0964254,0.8100439,1.013881,0.7717858,0.8462828,0.37768546,0.72656095,0.65751034,0.43325427,0.15383774,0.75924855,0.46626016,-0.17213748,0.4775368,0.46250176,0.26864722,-0.20041946,0.29898804,0.17669131,797.3993,797.3993,803.44324,802.6374,842.1245,0.0257568359375,0.0924072265625,1.00115966796875,1.173858642578125,0.79254150390625,-4.50103759765625,1,1.0,1.0,1.0,1.0,10.00
2024-10-11 20:47:37.518,0.9393861,1.0964254,0.8100439,1.013881,0.7717858,0.8462828,0.37768546,0.72656095,0.65751034,0.43325427,0.15383774,0.75924855,0.46626016,-0.17213748,0.4775368,0.46250176,0.26864722,-0.20041946,0.29898804,0.17669131,798.20514,793.7729,802.6374,803.8461,1132.6373,0.0257568359375,0.0924072265625,1.00115966796875,1.173858642578125,0.79254150390625,-4.50103759765625,1,1.0,1.0,1.0,1.0,10.00
2024-10-11 20:47:37.519,0.9393861,1.0964254,0.8100439,1.013881,0.7717858,0.8462828,0.37768546,0.72656095,0.65751034,0.43325427,0.15383774,0.75924855,0.46626016,-0.17213748,0.4775368,0.46250176,0.26864722,-0.20041946,0.29898804,0.17669131,794.17584,792.1612,803.8461,812.71063,1384.4689,0.0257568359375,0.0924072265625,1.00115966796875,1.173858642578125,0.79254150390625,-4.50103759765625,1,1.0,1.0,1.0,1.0,10.00
2024-10-11 20:47:37.520,0.9393861,1.0964254,0.8100439,1.013881,0.7717858,0.8462828,0.37768546,0.72656095,0.65751034,0.43325427,0.15383774,0.75924855,0.46626016,-0.17213748,0.4775368,0.46250176,0.26864722,-0.20041946,0.29898804,0.17669131,790.54944,794.9817,791.75824,809.4872,1061.3187,0.0257568359375,0.0924072265625,1.00115966796875,1.173858642578125,0.79254150390625,-4.50103759765625,1,1.0,1.0,1.0,1.0,10.00
2024-10-11 20:47:37.521,0.9393861,1.0708884,0.77357304,1.013881,0.7717858,0.8283439,0.35652435,0.72656095,0.65751034,0.43295482,0.16423368,0.75924855,0.46626016,-0.19388662,0.48748016,0.46250176,0.26864722,-0.227699,0.297867,0.17669131,797.8022,797.3993,790.14655,809.0842,711.1722,0.0257568359375,0.0924072265625,1.00115966796875,1.173858642578125,0.79254150390625,-4.50103759765625,1,1.0,1.0,1.0,1.0,10.00
2024-10-11 20:47:37.525,0.9393861,1.0708884,0.77357304,1.013881,0.7717858,0.8283439,0.35652435,0.72656095,0.65751034,0.43295482,0.16423368,0.75924855,0.46626016,-0.19388662,0.48748016,0.46250176,0.26864722,-0.227699,0.297867,0.17669131,799.011,794.9817,801.8315,810.293,667.6557,0.0257568359375,0.0924072265625,1.00115966796875,1.173858642578125,0.79254150390625,-4.50103759765625,1,1.0,1.0,1.0,1.0,10.00
2024-10-11 20:47:37.526,0.9393861,1.0708884,0.77357304,1.013881,0.7717858,0.8283439,0.35652435,0.72656095,0.65751034,0.43295482,0.16423368,0.75924855,0.46626016,-0.19388662,0.48748016,0.46250176,0.26864722,-0.227699,0.297867,0.17669131,792.1612,797.3993,796.5934,803.0403,556.8498,0.0257568359375,0.0924072265625,1.00115966796875,1.173858642578125,0.79254150390625,-4.50103759765625,1,1.0,1.0,1.0,1.0,10.00
2024-10-11 20:47:37.557,0.9393861,1.0708884,0.77357304,1.013881,0.7717858,0.8283439,0.35652435,0.72656095,0.65751034,0.43295482,0.16423368,0.75924855,0.46626016,-0.19388662,0.48748016,0.46250176,0.26864722,-0.227699,0.297867,0.17669131,799.011,802.23444,797.3993,797.8022,579.011,0.01904296875,0.0997314453125,1.0035400390625,1.734619140625,2.863616943359375,-4.658050537109375,1,1.0,1.0,1.0,1.0,10.00
2024-10-11 20:47:37.558,0.9393861,1.0708884,0.77357304,1.013881,0.7717858,0.8283439,0.35652435,0.72656095,0.65751034,0.43295482,0.16423368,0.75924855,0.46626016,-0.19388662,0.48748016,0.46250176,0.26864722,-0.227699,0.297867,0.17669131,803.8461,797.8022,801.4286,796.5934,709.9634,0.01904296875,0.0997314453125,1.0035400390625,1.734619140625,2.863616943359375,-4.658050537109375,1,1.0,1.0,1.0,1.0,10.00
2024-10-11 20:47:37.559,0.9393861,1.0708884,0.77357304,1.013881,0.7717858,0.8283439,0.35652435,0.72656095,0.65751034,0.43295482,0.16423368,0.75924855,0.46626016,-0.19388662,0.48748016,0.46250176,0.26864722,-0.227699,0.297867,0.17669131,804.2491,796.1905,799.41394,794.57874,747.4359,0.01904296875,0.0997314453125,1.0035400390625,1.734619140625,2.863616943359375,-4.658050537109375,1,1.0,1.0,1.0,1.0,10.00
2024-10-11 20:47:37.559,0.9393861,1.0708884,0.77357304,1.013881,0.7717858,0.8283439,0.35652435,0.72656095,0.65751034,0.43295482,0.16423368,0.75924855,0.46626016,-0.19388662,0.48748016,0.46250176,0.26864722,-0.227699,0.297867,0.17669131,803.44324,796.5934,797.8022,788.93774,616.4835,0.01904296875,0.0997314453125,1.0035400390625,1.734619140625,2.863616943359375,-4.658050537109375,1,1.0,1.0,1.0,1.0,10.00
2024-10-11 20:47:37.560,0.9393861,1.0708884,0.77357304,1.013881,0.7717858,0.8283439,0.35652435,0.72656095,0.65751034,0.43295482,0.16423368,0.75924855,0.46626016,-0.19388662,0.48748016,0.46250176,0.26864722,-0.227699,0.297867,0.17669131,800.6227,794.17584,799.41394,787.326,591.9048,0.01904296875,0.0997314453125,1.0035400390625,1.734619140625,2.863616943359375,-4.658050537109375,1,1.0,1.0,1.0,1.0,10.00
2024-10-11 20:47:37.560,0.9393861,1.0708884,0.77357304,1.013881,0.7717858,0.8283439,0.35652435,0.72656095,0.65751034,0.43295482,0.16423368,0.75924855,0.46626016,-0.19388662,0.48748016,0.46250176,0.26864722,-0.227699,0.297867,0.17669131,799.81683,790.9524,801.8315,796.99634,847.3626,0.01904296875,0.0997314453125,1.0035400390625,1.734619140625,2.863616943359375,-4.658050537109375,1,1.0,1.0,1.0,1.0,10.00
2024-10-11 20:47:37.561,0.9393861,1.0708884,0.77357304,1.013881,0.7717858,0.8283439,0.35652435,0.72656095,0.65751034,0.43295482,0.16423368,0.75924855,0.46626016,-0.19388662,0.48748016,0.46250176,0.26864722,-0.227699,0.297867,0.17669131,798.20514,792.96704,801.8315,799.81683,972.27106,0.01904296875,0.0997314453125,1.0035400390625,1.734619140625,2.863616943359375,-4.658050537109375,1,1.0,1.0,1.0,1.0,10.00
2024-10-11 20:47:37.561,0.9393861,1.0708884,0.77357304,1.013881,0.7717858,0.8283439,0.35652435,0.72656095,0.65751034,0.43295482,0.16423368,0.75924855,0.46626016,-0.19388662,0.48748016,0.46250176,0.26864722,-0.227699,0.297867,0.17669131,794.57874,795.38464,800.6227,796.1905,765.16486,0.01904296875,0.0997314453125,1.0035400390625,1.734619140625,2.863616943359375,-4.658050537109375,1,1.0,1.0,1.0,1.0,10.00
2024-10-11 20:47:37.562,0.9393861,1.0708884,0.77357304,1.013881,0.7717858,0.8283439,0.35652435,0.72656095,0.65751034,0.43295482,0.16423368,0.75924855,0.46626016,-0.19388662,0.48748016,0.46250176,0.26864722,-0.227699,0.297867,0.17669131,811.50183,794.57874,799.011,797.8022,629.7802,0.01904296875,0.0997314453125,1.0035400390625,1.734619140625,2.863616943359375,-4.658050537109375,1,1.0,1.0,1.0,1.0,10.00
2024-10-11 20:47:37.562,0.9393861,1.0708884,0.77357304,1.013881,0.7717858,0.8283439,0.35652435,0.72656095,0.65751034,0.43295482,0.16423368,0.75924855,0.46626016,-0.19388662,0.48748016,0.46250176,0.26864722,-0.227699,0.297867,0.17669131,826.0073,796.99634,794.57874,807.47253,892.0879,0.01904296875,0.0997314453125,1.0035400390625,1.734619140625,2.863616943359375,-4.658050537109375,1,1.0,1.0,1.0,1.0,10.00
2024-10-11 20:47:37.562,0.9393861,1.0708884,0.77357304,1.013881,0.7717858,0.8283439,0.35652435,0.72656095,0.65751034,0.43295482,0.16423368,0.75924855,0.46626016,-0.19388662,0.48748016,0.46250176,0.26864722,-0.227699,0.297867,0.17669131,811.0989,794.57874,794.57874,808.2784,1007.72894,0.01904296875,0.0997314453125,1.0035400390625,1.734619140625,2.863616943359375,-4.658050537109375,1,1.0,1.0,1.0,1.0,10.00
2024-10-11 20:47:37.563,0.9393861,1.0708884,0.77357304,1.013881,0.7717858,0.8283439,0.35652435,0.72656095,0.65751034,0.43295482,0.16423368,0.75924855,0.46626016,-0.19388662,0.48748016,0.46250176,0.26864722,-0.227699,0.297867,0.17669131,801.4286,796.99634,799.011,802.6374,653.1502,0.01904296875,0.0997314453125,1.0035400390625,1.734619140625,2.863616943359375,-4.658050537109375,1,1.0,1.0,1.0,1.0,10.00
2024-10-11 20:47:37.564,0.9393861,1.0708884,0.77357304,1.013881,0.7717858,0.8283439,0.35652435,0.72656095,0.65751034,0.43295482,0.16423368,0.75924855,0.46626016,-0.19388662,0.48748016,0.46250176,0.26864722,-0.227699,0.297867,0.17669131,805.4579,800.2198,800.2198,803.0403,509.30402,0.0030517578125,0.09521484375,0.99786376953125,1.5850830078125,3.7982177734375,-5.181427001953125,1,1.0,1.0,1.0,1.0,10.00
2024-10-11 20:47:37.564,0.9393861,1.0708884,0.77357304,1.013881,0.7717858,0.8283439,0.35652435,0.72656095,0.65751034,0.43295482,0.16423368,0.75924855,0.46626016,-0.19388662,0.48748016,0.46250176,0.26864722,-0.227699,0.297867,0.17669131,802.23444,794.57874,802.6374,809.4872,775.64105,0.0030517578125,0.09521484375,0.99786376953125,1.5850830078125,3.7982177734375,-5.181427001953125,1,1.0,1.0,1.0,1.0,10.00
2024-10-11 20:47:37.565,0.9393861,1.0708884,0.77357304,1.013881,0.7717858,0.8283439,0.35652435,0.72656095,0.65751034,0.43295482,0.16423368,0.75924855,0.46626016,-0.19388662,0.48748016,0.46250176,0.26864722,-0.227699,0.297867,0.17669131,803.44324,794.17584,806.6667,812.71063,965.82416,0.0030517578125,0.09521484375,0.99786376953125,1.5850830078125,3.7982177734375,-5.181427001953125,1,1.0,1.0,1.0,1.0,10.00
2024-10-11 20:47:37.566,0.9393861,1.0708884,0.77357304,1.013881,0.7717858,0.8283439,0.35652435,0.72656095,0.65751034,0.43295482,0.16423368,0.75924855,0.46626016,-0.19388662,0.48748016,0.46250176,0.26864722,-0.227699,0.297867,0.17669131,800.6227,797.8022,813.1135,802.6374,674.5055,0.0030517578125,0.09521484375,0.99786376953125,1.5850830078125,3.7982177734375,-5.181427001953125,1,1.0,1.0,1.0,1.0,10.00
2024-10-11 20:47:37.567,0.9393861,1.0708884,0.77357304,1.013881,0.7717858,0.8283439,0.35652435,0.72656095,0.65751034,0.43295482,0.16423368,0.75924855,0.46626016,-0.19388662,0.48748016,0.46250176,0.26864722,-0.227699,0.297867,0.17669131,805.05493,799.41394,813.91943,801.02563,541.13556,0.0030517578125,0.09521484375,0.99786376953125,1.5850830078125,3.7982177734375,-5.181427001953125,1,1.0,1.0,1.0,1.0,10.00
2024-10-11 20:47:37.568,0.9393861,1.0708884,0.77357304,1.013881,0.7717858,0.8283439,0.35652435,0.72656095,0.65751034,0.43295482,0.16423368,0.75924855,0.46626016,-0.19388662,0.48748016,0.46250176,0.26864722,-0.227699,0.297867,0.17669131,817.5458,799.011,811.50183,807.0696,759.5238,0.0030517578125,0.09521484375,0.99786376953125,1.5850830078125,3.7982177734375,-5.181427001953125,1,1.0,1.0,1.0,1.0,10.00
2024-10-11 20:47:37.569,0.9393861,1.0708884,0.77357304,1.013881,0.7717858,0.8283439,0.35652435,0.72656095,0.65751034,0.43295482,0.16423368,0.75924855,0.46626016,-0.19388662,0.48748016,0.46250176,0.26864722,-0.227699,0.297867,0.17669131,811.0989,794.9817,809.0842,807.47253,863.8828,0.0030517578125,0.09521484375,0.99786376953125,1.5850830078125,3.7982177734375,-5.181427001953125,1,1.0,1.0,1.0,1.0,10.00
2024-10-11 20:47:37.569,0.9393861,1.0708884,0.77357304,1.013881,0.7717858,0.8283439,0.35652435,0.72656095,0.65751034,0.43295482,0.16423368,0.75924855,0.46626016,-0.19388662,0.48748016,0.46250176,0.26864722,-0.227699,0.297867,0.17669131,805.4579,795.38464,805.4579,802.23444,657.5824,0.0030517578125,0.09521484375,0.99786376953125,1.5850830078125,3.7982177734375,-5.181427001953125,1,1.0,1.0,1.0,1.0,10.00
2024-10-11 20:47:37.570,0.9393861,1.0708884,0.77357304,1.013881,0.7717858,0.8283439,0.35652435,0.72656095,0.65751034,0.43295482,0.16423368,0.75924855,0.46626016,-0.19388662,0.48748016,0.46250176,0.26864722,-0.227699,0.297867,0.17669131,808.2784,796.99634,796.99634,798.60803,571.3553,0.0030517578125,0.09521484375,0.99786376953125,1.5850830078125,3.7982177734375,-5.181427001953125,1,1.0,1.0,1.0,1.0,10.00
2024-10-11 20:47:37.571,0.9393861,1.0708884,0.77357304,1.013881,0.7717858,0.8283439,0.35652435,0.72656095,0.65751034,0.43295482,0.16423368,0.75924855,0.46626016,-0.19388662,0.48748016,0.46250176,0.26864722,-0.227699,0.297867,0.17669131,804.2491,796.1905,802.23444,806.26373,722.0513,0.0030517578125,0.09521484375,0.99786376953125,1.5850830078125,3.7982177734375,-5.181427001953125,1,1.0,1.0,1.0,1.0,10.00
2024-10-11 20:47:37.572,0.9393861,1.0708884,0.77357304,1.013881,0.7717858,0.8283439,0.35652435,0.72656095,0.65751034,0.43295482,0.16423368,0.75924855,0.46626016,-0.19388662,0.48748016,0.46250176,0.26864722,-0.227699,0.297867,0.17669131,795.38464,796.1905,805.4579,815.5311,734.5421,0.0030517578125,0.09521484375,0.99786376953125,1.5850830078125,3.7982177734375,-5.181427001953125,1,1.0,1.0,1.0,1.0,10.00
2024-10-11 20:47:37.572,0.9393861,1.0466435,0.7381136,1.013881,0.7717858,0.8126668,0.33997175,0.72656095,0.65751034,0.43295482,0.16423368,0.75924855,0.46626016,-0.20863996,0.49002638,0.46250176,0.26864722,-0.2515609,0.29533193,0.17669131,799.81683,799.41394,787.72894,818.7546,597.5458,0.0030517578125,0.09521484375,0.99786376953125,1.5850830078125,3.7982177734375,-5.181427001953125,1,1.0,1.0,1.0,1.0,10.00
2024-10-11 20:47:37.596,0.9393861,1.0466435,0.7381136,1.013881,0.7717858,0.8126668,0.33997175,0.72656095,0.65751034,0.43295482,0.16423368,0.75924855,0.46626016,-0.20863996,0.49002638,0.46250176,0.26864722,-0.2515609,0.29533193,0.17669131,803.0403,799.011,794.17584,810.696,689.81683,0.01458740234375,0.1131591796875,1.0069580078125,2.6617431640625,2.519683837890625,-2.205657958984375,1,1.0,1.0,1.0,1.0,10.00
2024-10-11 20:47:37.597,0.9393861,1.0466435,0.7381136,1.013881,0.7717858,0.8126668,0.33997175,0.72656095,0.65751034,0.43295482,0.16423368,0.75924855,0.46626016,-0.20863996,0.49002638,0.46250176,0.26864722,-0.2515609,0.29533193,0.17669131,797.8022,796.99634,812.71063,799.41394,806.6667,0.01458740234375,0.1131591796875,1.0069580078125,2.6617431640625,2.519683837890625,-2.205657958984375,1,1.0,1.0,1.0,1.0,10.00
2024-10-11 20:47:37.598,0.9393861,1.0466435,0.7381136,1.013881,0.7717858,0.8126668,0.33997175,0.72656095,0.65751034,0.43295482,0.16423368,0.75924855,0.46626016,-0.20863996,0.49002638,0.46250176,0.26864722,-0.2515609,0.29533193,0.17669131,797.3993,799.011,810.696,800.6227,728.49817,0.01458740234375,0.1131591796875,1.0069580078125,2.6617431640625,2.519683837890625,-2.205657958984375,1,1.0,1.0,1.0,1.0,10.00
2024-10-11 20:47:37.599,0.9393861,1.0466435,0.7381136,1.013881,0.7717858,0.8126668,0.33997175,0.72656095,0.65751034,0.43295482,0.16423368,0.75924855,0.46626016,-0.20863996,0.49002638,0.46250176,0.26864722,-0.2515609,0.29533193,0.17669131,807.47253,799.011,811.9048,806.26373,609.6337,0.01458740234375,0.1131591796875,1.0069580078125,2.6617431640625,2.519683837890625,-2.205657958984375,1,1.0,1.0,1.0,1.0,10.00
2024-10-11 20:47:37.600,0.9393861,1.0466435,0.7381136,1.013881,0.7717858,0.8126668,0.33997175,0.72656095,0.65751034,0.43295482,0.16423368,0.75924855,0.46626016,-0.20863996,0.49002638,0.46250176,0.26864722,-0.2515609,0.29533193,0.17669131,814.3223,803.0403,809.0842,815.5311,657.5824,0.01458740234375,0.1131591796875,1.0069580078125,2.6617431640625,2.519683837890625,-2.205657958984375,1,1.0,1.0,1.0,1.0,10.00
2024-10-11 20:47:37.600,0.9393861,1.0466435,0.7381136,1.013881,0.7717858,0.8126668,0.33997175,0.72656095,0.65751034,0.43295482,0.16423368,0.75924855,0.46626016,-0.20863996,0.49002638,0.46250176,0.26864722,-0.2515609,0.29533193,0.17669131,813.1135,805.8608,799.011,812.3077,817.5458,0.01458740234375,0.1131591796875,1.0069580078125,2.6617431640625,2.519683837890625,-2.205657958984375,1,1.0,1.0,1.0,1.0,10.00
2024-10-11 20:47:37.601,0.9393861,1.0466435,0.7381136,1.013881,0.7717858,0.8126668,0.33997175,0.72656095,0.65751034,0.43295482,0.16423368,0.75924855,0.46626016,-0.20863996,0.49002638,0.46250176,0.26864722,-0.2515609,0.29533193,0.17669131,804.65204,801.8315,800.2198,803.8461,781.28204,0.01458740234375,0.1131591796875,1.0069580078125,2.6617431640625,2.519683837890625,-2.205657958984375,1,1.0,1.0,1.0,1.0,10.00
2024-10-11 20:47:37.602,0.9393861,1.0466435,0.7381136,1.013881,0.7717858,0.8126668,0.33997175,0.72656095,0.65751034,0.43295482,0.16423368,0.75924855,0.46626016,-0.20863996,0.49002638,0.46250176,0.26864722,-0.2515609,0.29533193,0.17669131,801.8315,803.0403,803.44324,803.0403,606.0073,0.01458740234375,0.1131591796875,1.0069580078125,2.6617431640625,2.519683837890625,-2.205657958984375,1,1.0,1.0,1.0,1.0,10.00
2024-10-11 20:47:37.603,0.9393861,1.0466435,0.7381136,1.013881,0.7717858,0.8126668,0.33997175,0.72656095,0.65751034,0.43295482,0.16423368,0.75924855,0.46626016,-0.20863996,0.49002638,0.46250176,0.26864722,-0.2515609,0.29533193,0.17669131,804.65204,801.02563,807.0696,809.4872,703.1135,0.01458740234375,0.1131591796875,1.0069580078125,2.6617431640625,2.519683837890625,-2.205657958984375,1,1.0,1.0,1.0,1.0,10.00
2024-10-11 20:47:37.604,0.9393861,1.0466435,0.7381136,1.013881,0.7717858,0.8126668,0.33997175,0.72656095,0.65751034,0.43295482,0.16423368,0.75924855,0.46626016,-0.20863996,0.49002638,0.46250176,0.26864722,-0.2515609,0.29533193,0.17669131,800.6227,798.60803,809.4872,814.7253,822.7839,0.01458740234375,0.1131591796875,1.0069580078125,2.6617431640625,2.519683837890625,-2.205657958984375,1,1.0,1.0,1.0,1.0,10.00
2024-10-11 20:47:37.605,0.9393861,1.0466435,0.7381136,1.013881,0.7717858,0.8126668,0.33997175,0.72656095,0.65751034,0.43295482,0.16423368,0.75924855,0.46626016,-0.20863996,0.49002638,0.46250176,0.26864722,-0.2515609,0.29533193,0.17669131,805.8608,798.60803,803.8461,810.696,658.7912,0.01458740234375,0.1131591796875,1.0069580078125,2.6617431640625,2.519683837890625,-2.205657958984375,1,1.0,1.0,1.0,1.0,10.00
2024-10-11 20:47:37.605,0.9393861,1.0466435,0.7381136,1.013881,0.7717858,0.8126668,0.33997175,0.72656095,0.65751034,0.43295482,0.16423368,0.75924855,0.46626016,-0.20863996,0.49002638,0.46250176,0.26864722,-0.2515609,0.29533193,0.17669131,812.3077,794.57874,796.99634,803.0403,593.91943,0.01458740234375,0.1131591796875,1.0069580078125,2.6617431640625,2.519683837890625,-2.205657958984375,1,1.0,1.0,1.0,1.0,10.00
2024-10-11 20:47:37.627,0.9393861,1.0466435,0.7381136,1.013881,0.7717858,0.8126668,0.33997175,0.72656095,0.65751034,0.43295482,0.16423368,0.75924855,0.46626016,-0.20863996,0.49002638,0.46250176,0.26864722,-0.2515609,0.29533193,0.17669131,811.50183,793.7729,806.26373,809.0842,816.7399,0.01458740234375,0.1131591796875,1.0069580078125,2.6617431640625,2.519683837890625,-2.205657958984375,1,1.0,1.0,1.0,1.0,10.00
2024-10-11 20:47:37.628,0.9393861,1.0466435,0.7381136,1.013881,0.7717858,0.8126668,0.33997175,0.72656095,0.65751034,0.43295482,0.16423368,0.75924855,0.46626016,-0.20863996,0.49002638,0.46250176,0.26864722,-0.2515609,0.29533193,0.17669131,809.4872,795.38464,812.3077,820.3663,992.4176,0.01458740234375,0.1131591796875,1.0069580078125,2.6617431640625,2.519683837890625,-2.205657958984375,1,1.0,1.0,1.0,1.0,10.00
2024-10-11 20:47:37.628,0.9393861,1.0466435,0.7381136,1.013881,0.7717858,0.8126668,0.33997175,0.72656095,0.65751034,0.43295482,0.16423368,0.75924855,0.46626016,-0.20863996,0.49002638,0.46250176,0.26864722,-0.2515609,0.29533193,0.17669131,811.0989,793.7729,807.0696,816.337,674.90845,0.01458740234375,0.1131591796875,1.0069580078125,2.6617431640625,2.519683837890625,-2.205657958984375,1,1.0,1.0,1.0,1.0,10.00
2024-10-11 20:47:37.629,0.9393861,1.0466435,0.7381136,1.013881,0.7717858,0.8126668,0.33997175,0.72656095,0.65751034,0.43295482,0.16423368,0.75924855,0.46626016,-0.20863996,0.49002638,0.46250176,0.26864722,-0.2515609,0.29533193,0.17669131,809.0842,791.75824,802.6374,811.50183,630.58606,0.01458740234375,0.1131591796875,1.0069580078125,2.6617431640625,2.519683837890625,-2.205657958984375,1,1.0,1.0,1.0,1.0,10.00
2024-10-11 20:47:37.630,0.9393861,1.0466435,0.7381136,1.013881,0.7717858,0.8126668,0.33997175,0.72656095,0.65751034,0.43295482,0.16423368,0.75924855,0.46626016,-0.20863996,0.49002638,0.46250176,0.26864722,-0.2515609,0.29533193,0.17669131,806.6667,796.1905,796.5934,810.696,788.5348,0.01458740234375,0.1131591796875,1.0069580078125,2.6617431640625,2.519683837890625,-2.205657958984375,1,1.0,1.0,1.0,1.0,10.00
2024-10-11 20:47:37.630,0.9393861,1.0466435,0.7381136,1.013881,0.7717858,0.8126668,0.33997175,0.72656095,0.65751034,0.43295482,0.16423368,0.75924855,0.46626016,-0.20863996,0.49002638,0.46250176,0.26864722,-0.2515609,0.29533193,0.17669131,801.4286,797.8022,801.8315,803.8461,819.15753,0.01458740234375,0.1131591796875,1.0069580078125,2.6617431640625,2.519683837890625,-2.205657958984375,1,1.0,1.0,1.0,1.0,10.00
2024-10-11 20:47:37.631,0.9393861,1.0466435,0.7381136,1.013881,0.7717858,0.8126668,0.33997175,0.72656095,0.65751034,0.43295482,0.16423368,0.75924855,0.46626016,-0.20863996,0.49002638,0.46250176,0.26864722,-0.2515609,0.29533193,0.17669131,801.8315,797.3993,808.68134,798.20514,684.17584,0.01458740234375,0.1131591796875,1.0069580078125,2.6617431640625,2.519683837890625,-2.205657958984375,1,1.0,1.0,1.0,1.0,10.00
2024-10-11 20:47:37.632,0.9393861,1.0466435,0.7381136,1.013881,0.7717858,0.8126668,0.33997175,0.72656095,0.65751034,0.43295482,0.16423368,0.75924855,0.46626016,-0.20863996,0.49002638,0.46250176,0.26864722,-0.2515609,0.29533193,0.17669131,803.8461,797.8022,796.99634,800.2198,683.7729,0.01458740234375,0.1131591796875,1.0069580078125,2.6617431640625,2.519683837890625,-2.205657958984375,1,1.0,1.0,1.0,1.0,10.00
2024-10-11 20:47:37.633,0.9393861,1.0466435,0.7381136,1.013881,0.7717858,0.8126668,0.33997175,0.72656095,0.65751034,0.43295482,0.16423368,0.75924855,0.46626016,-0.20863996,0.49002638,0.46250176,0.26864722,-0.2515609,0.29533193,0.17669131,801.4286,797.3993,794.9817,801.4286,808.2784,0.01458740234375,0.1131591796875,1.0069580078125,2.6617431640625,2.519683837890625,-2.205657958984375,1,1.0,1.0,1.0,1.0,10.00
2024-10-11 20:47:37.634,0.9393861,1.0466435,0.7381136,1.013881,0.7717858,0.8126668,0.33997175,0.72656095,0.65751034,0.43295482,0.16423368,0.75924855,0.46626016,-0.20863996,0.49002638,0.46250176,0.26864722,-0.2515609,0.29533193,0.17669131,801.4286,799.81683,800.2198,801.4286,720.4396,0.01458740234375,0.1131591796875,1.0069580078125,2.6617431640625,2.519683837890625,-2.205657958984375,1,1.0,1.0,1.0,1.0,10.00
2024-10-11 20:47:37.634,0.9393861,1.0466435,0.7381136,1.013881,0.7717858,0.8126668,0.33997175,0.72656095,0.65751034,0.43295482,0.16423368,0.75924855,0.46626016,-0.20863996,0.49002638,0.46250176,0.26864722,-0.2515609,0.29533193,0.17669131,799.81683,796.1905,807.47253,805.8608,518.97437,0.01458740234375,0.1131591796875,1.0069580078125,2.6617431640625,2.519683837890625,-2.205657958984375,1,1.0,1.0,1.0,1.0,10.00
2024-10-11 20:47:37.635,0.9393861,1.0466435,0.7381136,1.013881,0.7717858,0.8126668,0.33997175,0.72656095,0.65751034,0.43295482,0.16423368,0.75924855,0.46626016,-0.20863996,0.49002638,0.46250176,0.26864722,-0.2515609,0.29533193,0.17669131,794.57874,793.36993,814.3223,806.26373,574.57874,0.01458740234375,0.1131591796875,1.0069580078125,2.6617431640625,2.519683837890625,-2.205657958984375,1,1.0,1.0,1.0,1.0,10.00
2024-10-11 20:47:37.684,0.9393861,1.0466435,0.7381136,1.013881,0.7717858,0.8126668,0.33997175,0.72656095,0.65751034,0.43295482,0.16423368,0.75924855,0.46626016,-0.20863996,0.49002638,0.46250176,0.26864722,-0.2515609,0.29533193,0.17669131,790.14655,797.3993,809.4872,799.011,749.45056,0.0101318359375,0.11651611328125,1.00262451171875,1.54022216796875,3.170166015625,3.2598876953125,1,1.0,1.0,1.0,1.0,10.00
2024-10-11 20:47:37.685,0.9393861,1.030803,0.70666665,1.013881,0.7717858,0.80282074,0.32375672,0.72656095,0.65751034,0.43295482,0.16423368,0.75924855,0.46626016,-0.21356905,0.4902247,0.46250176,0.26864722,-0.26461715,0.28700995,0.17669131,800.2198,801.02563,810.293,802.23444,700.696,0.0101318359375,0.11651611328125,1.00262451171875,1.54022216796875,3.170166015625,3.2598876953125,1,1.0,1.0,1.0,1.0,10.00
2024-10-11 20:47:37.689,0.9393861,1.030803,0.70666665,1.013881,0.7717858,0.80282074,0.32375672,0.72656095,0.65751034,0.43295482,0.16423368,0.75924855,0.46626016,-0.21356905,0.4902247,0.46250176,0.26864722,-0.26461715,0.28700995,0.17669131,813.1135,800.2198,811.50183,803.8461,514.94507,0.0101318359375,0.11651611328125,1.00262451171875,1.54022216796875,3.170166015625,3.2598876953125,1,1.0,1.0,1.0,1.0,10.00
2024-10-11 20:47:37.689,0.9393861,1.030803,0.70666665,1.013881,0.7717858,0.80282074,0.32375672,0.72656095,0.65751034,0.43295482,0.16423368,0.75924855,0.46626016,-0.21356905,0.4902247,0.46250176,0.26864722,-0.26461715,0.28700995,0.17669131,819.5604,799.81683,805.8608,807.47253,532.27106,0.0101318359375,0.11651611328125,1.00262451171875,1.54022216796875,3.170166015625,3.2598876953125,1,1.0,1.0,1.0,1.0,10.00
2024-10-11 20:47:37.690,0.9393861,1.030803,0.70666665,1.013881,0.7717858,0.80282074,0.32375672,0.72656095,0.65751034,0.43295482,0.16423368,0.75924855,0.46626016,-0.21356905,0.4902247,0.46250176,0.26864722,-0.26461715,0.28700995,0.17669131,813.5165,798.60803,801.8315,815.12823,792.96704,0.0101318359375,0.11651611328125,1.00262451171875,1.54022216796875,3.170166015625,3.2598876953125,1,1.0,1.0,1.0,1.0,10.00
2024-10-11 20:47:37.690,0.9393861,1.030803,0.70666665,1.013881,0.7717858,0.80282074,0.32375672,0.72656095,0.65751034,0.43295482,0.16423368,0.75924855,0.46626016,-0.21356905,0.4902247,0.46250176,0.26864722,-0.26461715,0.28700995,0.17669131,806.26373,797.3993,801.4286,812.3077,772.8205,0.0101318359375,0.11651611328125,1.00262451171875,1.54022216796875,3.170166015625,3.2598876953125,1,1.0,1.0,1.0,1.0,10.00
2024-10-11 20:47:37.691,0.9393861,1.030803,0.70666665,1.013881,0.7717858,0.80282074,0.32375672,0.72656095,0.65751034,0.43295482,0.16423368,0.75924855,0.46626016,-0.21356905,0.4902247,0.46250176,0.26864722,-0.26461715,0.28700995,0.17669131,809.4872,795.78754,800.2198,809.4872,718.8278,0.0101318359375,0.11651611328125,1.00262451171875,1.54022216796875,3.170166015625,3.2598876953125,1,1.0,1.0,1.0,1.0,10.00
2024-10-11 20:47:37.691,0.9393861,1.030803,0.70666665,1.013881,0.7717858,0.80282074,0.32375672,0.72656095,0.65751034,0.43295482,0.16423368,0.75924855,0.46626016,-0.21356905,0.4902247,0.46250176,0.26864722,-0.26461715,0.28700995,0.17669131,809.4872,801.02563,800.2198,810.293,933.9927,0.0101318359375,0.11651611328125,1.00262451171875,1.54022216796875,3.170166015625,3.2598876953125,1,1.0,1.0,1.0,1.0,10.00
2024-10-11 20:47:37.692,0.9393861,1.030803,0.70666665,1.013881,0.7717858,0.80282074,0.32375672,0.72656095,0.65751034,0.43295482,0.16423368,0.75924855,0.46626016,-0.21356905,0.4902247,0.46250176,0.26864722,-0.26461715,0.28700995,0.17669131,813.91943,805.4579,803.0403,813.1135,845.34796,0.0101318359375,0.11651611328125,1.00262451171875,1.54022216796875,3.170166015625,3.2598876953125,1,1.0,1.0,1.0,1.0,10.00
2024-10-11 20:47:37.692,0.9393861,1.030803,0.70666665,1.013881,0.7717858,0.80282074,0.32375672,0.72656095,0.65751034,0.43295482,0.16423368,0.75924855,0.46626016,-0.21356905,0.4902247,0.46250176,0.26864722,-0.26461715,0.28700995,0.17669131,819.5604,802.23444,801.8315,817.1429,666.04395,0.0101318359375,0.11651611328125,1.00262451171875,1.54022216796875,3.170166015625,3.2598876953125,1,1.0,1.0,1.0,1.0,10.00
2024-10-11 20:47:37.693,0.9393861,1.030803,0.70666665,1.013881,0.7717858,0.80282074,0.32375672,0.72656095,0.65751034,0.43295482,0.16423368,0.75924855,0.46626016,-0.21356905,0.4902247,0.46250176,0.26864722,-0.26461715,0.28700995,0.17669131,825.2015,798.60803,806.6667,815.12823,652.3443,0.0101318359375,0.11651611328125,1.00262451171875,1.54022216796875,3.170166015625,3.2598876953125,1,1.0,1.0,1.0,1.0,10.00
2024-10-11 20:47:37.693,0.9393861,1.030803,0.70666665,1.013881,0.7717858,0.80282074,0.32375672,0.72656095,0.65751034,0.43295482,0.16423368,0.75924855,0.46626016,-0.21356905,0.4902247,0.46250176,0.26864722,-0.26461715,0.28700995,0.17669131,813.1135,801.02563,801.8315,803.44324,876.3736,0.0101318359375,0.11651611328125,1.00262451171875,1.54022216796875,3.170166015625,3.2598876953125,1,1.0,1.0,1.0,1.0,10.00
2024-10-11 20:47:37.751,0.9393861,1.030803,0.70666665,1.013881,0.7717858,0.80282074,0.32375672,0.72656095,0.65751034,0.43295482,0.16423368,0.75924855,0.46626016,-0.21356905,0.4902247,0.46250176,0.26864722,-0.26461715,0.28700995,0.17669131,795.38464,801.4286,802.6374,797.3993,1207.5824,0.0025634765625,0.1124267578125,1.008056640625,1.024322509765625,5.03936767578125,5.944061279296875,1,1.0,1.0,1.0,1.0,10.00
2024-10-11 20:47:37.752,0.9393861,1.030803,0.70666665,1.013881,0.7717858,0.80282074,0.32375672,0.72656095,0.65751034,0.43295482,0.16423368,0.75924855,0.46626016,-0.21356905,0.4902247,0.46250176,0.26864722,-0.26461715,0.28700995,0.17669131,800.2198,800.6227,817.5458,803.0403,885.64105,0.0025634765625,0.1124267578125,1.008056640625,1.024322509765625,5.03936767578125,5.944061279296875,1,1.0,1.0,1.0,1.0,10.00
2024-10-11 20:47:37.753,0.9393861,1.030803,0.70666665,1.013881,0.7717858,0.80282074,0.32375672,0.72656095,0.65751034,0.43295482,0.16423368,0.75924855,0.46626016,-0.21356905,0.4902247,0.46250176,0.26864722,-0.26461715,0.28700995,0.17669131,815.5311,804.65204,818.7546,813.5165,664.83514,0.0025634765625,0.1124267578125,1.008056640625,1.024322509765625,5.03936767578125,5.944061279296875,1,1.0,1.0,1.0,1.0,10.00
2024-10-11 20:47:37.754,0.9393861,1.030803,0.70666665,1.013881,0.7717858,0.80282074,0.32375672,0.72656095,0.65751034,0.43295482,0.16423368,0.75924855,0.46626016,-0.21356905,0.4902247,0.46250176,0.26864722,-0.26461715,0.28700995,0.17669131,809.0842,800.6227,814.3223,810.293,814.7253,0.0025634765625,0.1124267578125,1.008056640625,1.024322509765625,5.03936767578125,5.944061279296875,1,1.0,1.0,1.0,1.0,10.00
2024-10-11 20:47:37.754,0.9393861,1.030803,0.70666665,1.013881,0.7717858,0.80282074,0.32375672,0.72656095,0.65751034,0.43295482,0.16423368,0.75924855,0.46626016,-0.21356905,0.4902247,0.46250176,0.26864722,-0.26461715,0.28700995,0.17669131,799.81683,797.8022,811.0989,801.02563,703.91943,0.0025634765625,0.1124267578125,1.008056640625,1.024322509765625,5.03936767578125,5.944061279296875,1,1.0,1.0,1.0,1.0,10.00
2024-10-11 20:47:37.755,0.9393861,1.030803,0.70666665,1.013881,0.7717858,0.80282074,0.32375672,0.72656095,0.65751034,0.43295482,0.16423368,0.75924855,0.46626016,-0.21356905,0.4902247,0.46250176,0.26864722,-0.26461715,0.28700995,0.17669131,799.41394,797.8022,809.0842,798.20514,620.10986,0.0025634765625,0.1124267578125,1.008056640625,1.024322509765625,5.03936767578125,5.944061279296875,1,1.0,1.0,1.0,1.0,10.00
2024-10-11 20:47:37.755,0.9393861,1.030803,0.70666665,1.013881,0.7717858,0.80282074,0.32375672,0.72656095,0.65751034,0.43295482,0.16423368,0.75924855,0.46626016,-0.21356905,0.4902247,0.46250176,0.26864722,-0.26461715,0.28700995,0.17669131,801.8315,795.38464,801.4286,802.23444,794.57874,0.0025634765625,0.1124267578125,1.008056640625,1.024322509765625,5.03936767578125,5.944061279296875,1,1.0,1.0,1.0,1.0,10.00
2024-10-11 20:47:37.756,0.9393861,1.030803,0.70666665,1.013881,0.7717858,0.80282074,0.32375672,0.72656095,0.65751034,0.43295482,0.16423368,0.75924855,0.46626016,-0.21356905,0.4902247,0.46250176,0.26864722,-0.26461715,0.28700995,0.17669131,795.38464,793.7729,802.6374,797.3993,813.91943,0.0025634765625,0.1124267578125,1.008056640625,1.024322509765625,5.03936767578125,5.944061279296875,1,1.0,1.0,1.0,1.0,10.00
2024-10-11 20:47:37.756,0.9393861,1.030803,0.70666665,1.013881,0.7717858,0.80282074,0.32375672,0.72656095,0.65751034,0.43295482,0.16423368,0.75924855,0.46626016,-0.21356905,0.4902247,0.46250176,0.26864722,-0.26461715,0.28700995,0.17669131,792.1612,794.17584,815.9341,787.72894,788.93774,0.0025634765625,0.1124267578125,1.008056640625,1.024322509765625,5.03936767578125,5.944061279296875,1,1.0,1.0,1.0,1.0,10.00
2024-10-11 20:47:37.757,0.9393861,1.030803,0.70666665,1.013881,0.7717858,0.80282074,0.32375672,0.72656095,0.65751034,0.43295482,0.16423368,0.75924855,0.46626016,-0.21356905,0.4902247,0.46250176,0.26864722,-0.26461715,0.28700995,0.17669131,805.8608,792.96704,812.71063,801.02563,834.87177,0.0025634765625,0.1124267578125,1.008056640625,1.024322509765625,5.03936767578125,5.944061279296875,1,1.0,1.0,1.0,1.0,10.00
2024-10-11 20:47:37.757,0.9393861,1.030803,0.70666665,1.013881,0.7717858,0.80282074,0.32375672,0.72656095,0.65751034,0.43295482,0.16423368,0.75924855,0.46626016,-0.21356905,0.4902247,0.46250176,0.26864722,-0.26461715,0.28700995,0.17669131,795.38464,794.57874,802.6374,807.0696,829.6337,0.0025634765625,0.1124267578125,1.008056640625,1.024322509765625,5.03936767578125,5.944061279296875,1,1.0,1.0,1.0,1.0,10.00
2024-10-11 20:47:37.758,0.9393861,1.030803,0.70666665,1.013881,0.7717858,0.80282074,0.32375672,0.72656095,0.65751034,0.43295482,0.16423368,0.75924855,0.46626016,-0.21356905,0.4902247,0.46250176,0.26864722,-0.26461715,0.28700995,0.17669131,786.9231,792.96704,808.68134,808.2784,984.7619,0.0025634765625,0.1124267578125,1.008056640625,1.024322509765625,5.03936767578125,5.944061279296875,1,1.0,1.0,1.0,1.0,10.00
2024-10-11 20:47:37.785,0.9393861,1.030803,0.70666665,1.013881,0.7717858,0.80282074,0.32375672,0.72656095,0.65751034,0.43295482,0.16423368,0.75924855,0.46626016,-0.21356905,0.4902247,0.46250176,0.26864722,-0.26461715,0.28700995,0.17669131,793.36993,792.96704,811.0989,802.23444,837.6923,-0.01312255859375,0.1090087890625,1.0035400390625,0.740203857421875,7.31231689453125,6.41510009765625,1,1.0,1.0,1.0,1.0,10.00
2024-10-11 20:47:37.786,0.9393861,1.030803,0.70666665,1.013881,0.7717858,0.80282074,0.32375672,0.72656095,0.65751034,0.43295482,0.16423368,0.75924855,0.46626016,-0.21356905,0.4902247,0.46250176,0.26864722,-0.26461715,0.28700995,0.17669131,793.36993,796.5934,811.9048,796.99634,620.5128,-0.01312255859375,0.1090087890625,1.0035400390625,0.740203857421875,7.31231689453125,6.41510009765625,1,1.0,1.0,1.0,1.0,10.00
2024-10-11 20:47:37.786,0.9393861,1.030803,0.70666665,1.013881,0.7717858,0.80282074,0.32375672,0.72656095,0.65751034,0.43295482,0.16423368,0.75924855,0.46626016,-0.21356905,0.4902247,0.46250176,0.26864722,-0.26461715,0.28700995,0.17669131,789.34064,792.96704,811.0989,804.2491,752.27106,-0.01312255859375,0.1090087890625,1.0035400390625,0.740203857421875,7.31231689453125,6.41510009765625,1,1.0,1.0,1.0,1.0,10.00
2024-10-11 20:47:37.787,0.9393861,1.0244585,0.67820925,1.013881,0.7717858,0.7980975,0.3038826,0.72656095,0.65751034,0.43295482,0.16626495,0.75924855,0.46626016,-0.21095356,0.49075922,0.46250176,0.26864722,-0.26789474,0.27385062,0.17669131,787.326,784.5055,810.696,809.89014,894.90845,-0.01312255859375,0.1090087890625,1.0035400390625,0.740203857421875,7.31231689453125,6.41510009765625,1,1.0,1.0,1.0,1.0,10.00
2024-10-11 20:47:37.791,0.9393861,1.0244585,0.67820925,1.013881,0.7717858,0.7980975,0.3038826,0.72656095,0.65751034,0.43295482,0.16626495,0.75924855,0.46626016,-0.21095356,0.49075922,0.46250176,0.26864722,-0.26789474,0.27385062,0.17669131,800.6227,785.7143,809.89014,808.2784,716.4103,-0.01312255859375,0.1090087890625,1.0035400390625,0.740203857421875,7.31231689453125,6.41510009765625,1,1.0,1.0,1.0,1.0,10.00
2024-10-11 20:47:37.791,0.9393861,1.0244585,0.67820925,1.013881,0.7717858,0.7980975,0.3038826,0.72656095,0.65751034,0.43295482,0.16626495,0.75924855,0.46626016,-0.21095356,0.49075922,0.46250176,0.26864722,-0.26789474,0.27385062,0.17669131,808.2784,790.9524,803.44324,799.011,643.8828,-0.01312255859375,0.1090087890625,1.0035400390625,0.740203857421875,7.31231689453125,6.41510009765625,1,1.0,1.0,1.0,1.0,10.00
2024-10-11 20:47:37.792,0.9393861,1.0244585,0.67820925,1.013881,0.7717858,0.7980975,0.3038826,0.72656095,0.65751034,0.43295482,0.16626495,0.75924855,0.46626016,-0.21095356,0.49075922,0.46250176,0.26864722,-0.26789474,0.27385062,0.17669131,801.8315,785.7143,803.0403,796.5934,898.1319,-0.01312255859375,0.1090087890625,1.0035400390625,0.740203857421875,7.31231689453125,6.41510009765625,1,1.0,1.0,1.0,1.0,10.00
2024-10-11 20:47:37.792,0.9393861,1.0244585,0.67820925,1.013881,0.7717858,0.7980975,0.3038826,0.72656095,0.65751034,0.43295482,0.16626495,0.75924855,0.46626016,-0.21095356,0.49075922,0.46250176,0.26864722,-0.26789474,0.27385062,0.17669131,790.14655,785.31134,798.20514,800.2198,969.85345,-0.01312255859375,0.1090087890625,1.0035400390625,0.740203857421875,7.31231689453125,6.41510009765625,1,1.0,1.0,1.0,1.0,10.00
2024-10-11 20:47:37.793,0.9393861,1.0244585,0.67820925,1.013881,0.7717858,0.7980975,0.3038826,0.72656095,0.65751034,0.43295482,0.16626495,0.75924855,0.46626016,-0.21095356,0.49075922,0.46250176,0.26864722,-0.26789474,0.27385062,0.17669131,789.34064,790.14655,792.1612,795.38464,718.4249,-0.01312255859375,0.1090087890625,1.0035400390625,0.740203857421875,7.31231689453125,6.41510009765625,1,1.0,1.0,1.0,1.0,10.00
2024-10-11 20:47:37.793,0.9393861,1.0244585,0.67820925,1.013881,0.7717858,0.7980975,0.3038826,0.72656095,0.65751034,0.43295482,0.16626495,0.75924855,0.46626016,-0.21095356,0.49075922,0.46250176,0.26864722,-0.26789474,0.27385062,0.17669131,794.57874,789.34064,805.4579,805.05493,572.96704,-0.01312255859375,0.1090087890625,1.0035400390625,0.740203857421875,7.31231689453125,6.41510009765625,1,1.0,1.0,1.0,1.0,10.00
2024-10-11 20:47:37.794,0.9393861,1.0244585,0.67820925,1.013881,0.7717858,0.7980975,0.3038826,0.72656095,0.65751034,0.43295482,0.16626495,0.75924855,0.46626016,-0.21095356,0.49075922,0.46250176,0.26864722,-0.26789474,0.27385062,0.17669131,791.3553,788.93774,809.4872,811.50183,678.93774,-0.01312255859375,0.1090087890625,1.0035400390625,0.740203857421875,7.31231689453125,6.41510009765625,1,1.0,1.0,1.0,1.0,10.00
2024-10-11 20:47:37.794,0.9393861,1.0244585,0.67820925,1.013881,0.7717858,0.7980975,0.3038826,0.72656095,0.65751034,0.43295482,0.16626495,0.75924855,0.46626016,-0.21095356,0.49075922,0.46250176,0.26864722,-0.26789474,0.27385062,0.17669131,780.87915,788.5348,807.47253,797.3993,757.9121,-0.01312255859375,0.1090087890625,1.0035400390625,0.740203857421875,7.31231689453125,6.41510009765625,1,1.0,1.0,1.0,1.0,10.00
2024-10-11 20:47:37.818,0.9393861,1.0244585,0.67820925,1.013881,0.7717858,0.7980975,0.3038826,0.72656095,0.65751034,0.43295482,0.16626495,0.75924855,0.46626016,-0.21095356,0.49075922,0.46250176,0.26864722,-0.26789474,0.27385062,0.17669131,788.1319,782.8938,803.44324,802.6374,612.0513,-0.0335693359375,0.11199951171875,1.00360107421875,0.725250244140625,8.792724609375,5.360870361328125,1,1.0,1.0,1.0,1.0,10.00
2024-10-11 20:47:37.819,0.9393861,1.0244585,0.67820925,1.013881,0.7717858,0.7980975,0.3038826,0.72656095,0.65751034,0.43295482,0.16626495,0.75924855,0.46626016,-0.21095356,0.49075922,0.46250176,0.26864722,-0.26789474,0.27385062,0.17669131,810.696,786.9231,799.81683,808.68134,498.82785,-0.0335693359375,0.11199951171875,1.00360107421875,0.725250244140625,8.792724609375,5.360870361328125,1,1.0,1.0,1.0,1.0,10.00
2024-10-11 20:47:37.819,0.9393861,1.0244585,0.67820925,1.013881,0.7717858,0.7980975,0.3038826,0.72656095,0.65751034,0.43295482,0.16626495,0.75924855,0.46626016,-0.21095356,0.49075922,0.46250176,0.26864722,-0.26789474,0.27385062,0.17669131,800.6227,788.5348,810.293,803.8461,818.7546,-0.0335693359375,0.11199951171875,1.00360107421875,0.725250244140625,8.792724609375,5.360870361328125,1,1.0,1.0,1.0,1.0,10.00
2024-10-11 20:47:37.820,0.9393861,1.0244585,0.67820925,1.013881,0.7717858,0.7980975,0.3038826,0.72656095,0.65751034,0.43295482,0.16626495,0.75924855,0.46626016,-0.21095356,0.49075922,0.46250176,0.26864722,-0.26789474,0.27385062,0.17669131,784.90845,787.72894,813.5165,803.8461,996.04395,-0.0335693359375,0.11199951171875,1.00360107421875,0.725250244140625,8.792724609375,5.360870361328125,1,1.0,1.0,1.0,1.0,10.00
2024-10-11 20:47:37.820,0.9393861,1.0244585,0.67820925,1.013881,0.7717858,0.7980975,0.3038826,0.72656095,0.65751034,0.43295482,0.16626495,0.75924855,0.46626016,-0.21095356,0.49075922,0.46250176,0.26864722,-0.26789474,0.27385062,0.17669131,798.20514,794.57874,807.47253,805.4579,761.9414,-0.0335693359375,0.11199951171875,1.00360107421875,0.725250244140625,8.792724609375,5.360870361328125,1,1.0,1.0,1.0,1.0,10.00
2024-10-11 20:47:37.821,0.9393861,1.0244585,0.67820925,1.013881,0.7717858,0.7980975,0.3038826,0.72656095,0.65751034,0.43295482,0.16626495,0.75924855,0.46626016,-0.21095356,0.49075922,0.46250176,0.26864722,-0.26789474,0.27385062,0.17669131,805.4579,793.36993,809.4872,813.1135,813.1135,-0.0335693359375,0.11199951171875,1.00360107421875,0.725250244140625,8.792724609375,5.360870361328125,1,1.0,1.0,1.0,1.0,10.00
2024-10-11 20:47:37.822,0.9393861,1.0244585,0.67820925,1.013881,0.7717858,0.7980975,0.3038826,0.72656095,0.65751034,0.43295482,0.16626495,0.75924855,0.46626016,-0.21095356,0.49075922,0.46250176,0.26864722,-0.26789474,0.27385062,0.17669131,799.41394,786.52014,815.9341,815.5311,1045.2014,-0.0335693359375,0.11199951171875,1.00360107421875,0.725250244140625,8.792724609375,5.360870361328125,1,1.0,1.0,1.0,1.0,10.00
2024-10-11 20:47:37.822,0.9393861,1.0244585,0.67820925,1.013881,0.7717858,0.7980975,0.3038826,0.72656095,0.65751034,0.43295482,0.16626495,0.75924855,0.46626016,-0.21095356,0.49075922,0.46250176,0.26864722,-0.26789474,0.27385062,0.17669131,800.2198,788.5348,813.1135,811.0989,946.4835,-0.0335693359375,0.11199951171875,1.00360107421875,0.725250244140625,8.792724609375,5.360870361328125,1,1.0,1.0,1.0,1.0,10.00
2024-10-11 20:47:37.822,0.9393861,1.0244585,0.67820925,1.013881,0.7717858,0.7980975,0.3038826,0.72656095,0.65751034,0.43295482,0.16626495,0.75924855,0.46626016,-0.21095356,0.49075922,0.46250176,0.26864722,-0.26789474,0.27385062,0.17669131,791.75824,793.7729,808.2784,805.05493,718.4249,-0.0335693359375,0.11199951171875,1.00360107421875,0.725250244140625,8.792724609375,5.360870361328125,1,1.0,1.0,1.0,1.0,10.00
2024-10-11 20:47:37.823,0.9393861,1.0244585,0.67820925,1.013881,0.7717858,0.7980975,0.3038826,0.72656095,0.65751034,0.43295482,0.16626495,0.75924855,0.46626016,-0.21095356,0.49075922,0.46250176,0.26864722,-0.26789474,0.27385062,0.17669131,783.2967,791.75824,806.6667,807.8755,712.7839,-0.0335693359375,0.11199951171875,1.00360107421875,0.725250244140625,8.792724609375,5.360870361328125,1,1.0,1.0,1.0,1.0,10.00
2024-10-11 20:47:37.823,0.9393861,1.0244585,0.67820925,1.013881,0.7717858,0.7980975,0.3038826,0.72656095,0.65751034,0.43295482,0.16626495,0.75924855,0.46626016,-0.21095356,0.49075922,0.46250176,0.26864722,-0.26789474,0.27385062,0.17669131,793.7729,790.9524,798.60803,812.3077,828.8278,-0.0335693359375,0.11199951171875,1.00360107421875,0.725250244140625,8.792724609375,5.360870361328125,1,1.0,1.0,1.0,1.0,10.00
2024-10-11 20:47:37.824,0.9393861,1.0244585,0.67820925,1.013881,0.7717858,0.7980975,0.3038826,0.72656095,0.65751034,0.43295482,0.16626495,0.75924855,0.46626016,-0.21095356,0.49075922,0.46250176,0.26864722,-0.26789474,0.27385062,0.17669131,796.5934,792.96704,800.6227,802.23444,777.6557,-0.0335693359375,0.11199951171875,1.00360107421875,0.725250244140625,8.792724609375,5.360870361328125,1,1.0,1.0,1.0,1.0,10.00
2024-10-11 20:47:37.857,0.9393861,1.0244585,0.67820925,1.013881,0.7717858,0.7980975,0.3038826,0.72656095,0.65751034,0.43295482,0.16626495,0.75924855,0.46626016,-0.21095356,0.49075922,0.46250176,0.26864722,-0.26789474,0.27385062,0.17669131,789.7436,788.93774,804.65204,801.02563,672.0879,-0.0460205078125,0.1092529296875,1.00750732421875,0.276641845703125,11.671295166015625,3.27484130859375,1,1.0,1.0,1.0,1.0,10.00
2024-10-11 20:47:37.858,0.9393861,1.0244585,0.67820925,1.013881,0.7717858,0.7980975,0.3038826,0.72656095,0.65751034,0.43295482,0.16626495,0.75924855,0.46626016,-0.21095356,0.49075922,0.46250176,0.26864722,-0.26789474,0.27385062,0.17669131,798.20514,784.90845,803.44324,815.12823,792.5641,-0.0460205078125,0.1092529296875,1.00750732421875,0.276641845703125,11.671295166015625,3.27484130859375,1,1.0,1.0,1.0,1.0,10.00
2024-10-11 20:47:37.859,0.9393861,1.0244585,0.67820925,1.013881,0.7717858,0.7980975,0.3038826,0.72656095,0.65751034,0.43295482,0.16626495,0.75924855,0.46626016,-0.21095356,0.49075922,0.46250176,0.26864722,-0.26789474,0.27385062,0.17669131,811.50183,792.5641,806.26373,824.3956,921.9048,-0.0460205078125,0.1092529296875,1.00750732421875,0.276641845703125,11.671295166015625,3.27484130859375,1,1.0,1.0,1.0,1.0,10.00
2024-10-11 20:47:37.860,0.9393861,1.0244585,0.67820925,1.013881,0.7717858,0.7980975,0.3038826,0.72656095,0.65751034,0.43295482,0.16626495,0.75924855,0.46626016,-0.21095356,0.49075922,0.46250176,0.26864722,-0.26789474,0.27385062,0.17669131,808.68134,794.17584,802.23444,810.293,737.3626,-0.0460205078125,0.1092529296875,1.00750732421875,0.276641845703125,11.671295166015625,3.27484130859375,1,1.0,1.0,1.0,1.0,10.00
2024-10-11 20:47:37.860,0.9393861,1.0244585,0.67820925,1.013881,0.7717858,0.7980975,0.3038826,0.72656095,0.65751034,0.43295482,0.16626495,0.75924855,0.46626016,-0.21095356,0.49075922,0.46250176,0.26864722,-0.26789474,0.27385062,0.17669131,793.36993,790.14655,805.4579,796.1905,634.61536,-0.0460205078125,0.1092529296875,1.00750732421875,0.276641845703125,11.671295166015625,3.27484130859375,1,1.0,1.0,1.0,1.0,10.00
2024-10-11 20:47:37.861,0.9393861,1.0222964,0.652398,1.013881,0.7717858,0.79610974,0.28122696,0.72656095,0.65751034,0.43295482,0.17704114,0.75924855,0.46626016,-0.20564456,0.49104282,0.46250176,0.26864722,-0.27007666,0.25920534,0.17669131,785.31134,790.54944,795.78754,791.3553,881.6117,-0.0460205078125,0.1092529296875,1.00750732421875,0.276641845703125,11.671295166015625,3.27484130859375,1,1.0,1.0,1.0,1.0,10.00
2024-10-11 20:47:37.866,0.9393861,1.0222964,0.652398,1.013881,0.7717858,0.79610974,0.28122696,0.72656095,0.65751034,0.43295482,0.17704114,0.75924855,0.46626016,-0.20564456,0.49104282,0.46250176,0.26864722,-0.27007666,0.25920534,0.17669131,789.7436,789.34064,794.17584,797.8022,1264.7986,-0.0460205078125,0.1092529296875,1.00750732421875,0.276641845703125,11.671295166015625,3.27484130859375,1,1.0,1.0,1.0,1.0,10.00
2024-10-11 20:47:37.867,0.9393861,1.0222964,0.652398,1.013881,0.7717858,0.79610974,0.28122696,0.72656095,0.65751034,0.43295482,0.17704114,0.75924855,0.46626016,-0.20564456,0.49104282,0.46250176,0.26864722,-0.27007666,0.25920534,0.17669131,788.93774,789.34064,808.2784,802.6374,1072.1978,-0.0460205078125,0.1092529296875,1.00750732421875,0.276641845703125,11.671295166015625,3.27484130859375,1,1.0,1.0,1.0,1.0,10.00
2024-10-11 20:47:37.867,0.9393861,1.0222964,0.652398,1.013881,0.7717858,0.79610974,0.28122696,0.72656095,0.65751034,0.43295482,0.17704114,0.75924855,0.46626016,-0.20564456,0.49104282,0.46250176,0.26864722,-0.27007666,0.25920534,0.17669131,785.7143,794.17584,809.89014,792.1612,672.8938,-0.0460205078125,0.1092529296875,1.00750732421875,0.276641845703125,11.671295166015625,3.27484130859375,1,1.0,1.0,1.0,1.0,10.00
2024-10-11 20:47:37.868,0.9393861,1.0222964,0.652398,1.013881,0.7717858,0.79610974,0.28122696,0.72656095,0.65751034,0.43295482,0.17704114,0.75924855,0.46626016,-0.20564456,0.49104282,0.46250176,0.26864722,-0.27007666,0.25920534,0.17669131,791.3553,797.3993,803.8461,792.5641,678.5348,-0.0460205078125,0.1092529296875,1.00750732421875,0.276641845703125,11.671295166015625,3.27484130859375,1,1.0,1.0,1.0,1.0,10.00
2024-10-11 20:47:37.869,0.9393861,1.0222964,0.652398,1.013881,0.7717858,0.79610974,0.28122696,0.72656095,0.65751034,0.43295482,0.17704114,0.75924855,0.46626016,-0.20564456,0.49104282,0.46250176,0.26864722,-0.27007666,0.25920534,0.17669131,794.17584,793.36993,800.6227,790.54944,655.16486,-0.0460205078125,0.1092529296875,1.00750732421875,0.276641845703125,11.671295166015625,3.27484130859375,1,1.0,1.0,1.0,1.0,10.00
2024-10-11 20:47:37.869,0.9393861,1.0222964,0.652398,1.013881,0.7717858,0.79610974,0.28122696,0.72656095,0.65751034,0.43295482,0.17704114,0.75924855,0.46626016,-0.20564456,0.49104282,0.46250176,0.26864722,-0.27007666,0.25920534,0.17669131,804.2491,788.93774,808.2784,794.9817,642.27106,-0.0460205078125,0.1092529296875,1.00750732421875,0.276641845703125,11.671295166015625,3.27484130859375,1,1.0,1.0,1.0,1.0,10.00
2024-10-11 20:47:37.956,0.9393861,1.0222964,0.652398,1.013881,0.7717858,0.79610974,0.28122696,0.72656095,0.65751034,0.43295482,0.17704114,0.75924855,0.46626016,-0.20564456,0.49104282,0.46250176,0.26864722,-0.27007666,0.25920534,0.17669131,811.9048,793.36993,809.4872,805.05493,650.7326,-0.0460205078125,0.1092529296875,1.00750732421875,0.276641845703125,11.671295166015625,3.27484130859375,1,1.0,1.0,1.0,1.0,10.00
2024-10-11 20:47:37.957,0.9393861,1.0222964,0.652398,1.013881,0.7717858,0.79610974,0.28122696,0.72656095,0.65751034,0.43295482,0.17704114,0.75924855,0.46626016,-0.20564456,0.49104282,0.46250176,0.26864722,-0.27007666,0.25920534,0.17669131,802.6374,798.60803,813.91943,811.0989,706.337,-0.0460205078125,0.1092529296875,1.00750732421875,0.276641845703125,11.671295166015625,3.27484130859375,1,1.0,1.0,1.0,1.0,10.00
2024-10-11 20:47:37.958,0.9393861,1.0222964,0.652398,1.013881,0.7717858,0.79610974,0.28122696,0.72656095,0.65751034,0.43295482,0.17704114,0.75924855,0.46626016,-0.20564456,0.49104282,0.46250176,0.26864722,-0.27007666,0.25920534,0.17669131,799.81683,798.60803,816.7399,812.71063,746.2271,-0.0460205078125,0.1092529296875,1.00750732421875,0.276641845703125,11.671295166015625,3.27484130859375,1,1.0,1.0,1.0,1.0,10.00
2024-10-11 20:47:37.958,0.9393861,1.0222964,0.652398,1.013881,0.7717858,0.79610974,0.28122696,0.72656095,0.65751034,0.43295482,0.17704114,0.75924855,0.46626016,-0.20564456,0.49104282,0.46250176,0.26864722,-0.27007666,0.25920534,0.17669131,807.47253,798.60803,810.293,809.0842,701.50183,-0.0460205078125,0.1092529296875,1.00750732421875,0.276641845703125,11.671295166015625,3.27484130859375,1,1.0,1.0,1.0,1.0,10.00
2024-10-11 20:47:37.959,0.9393861,1.0222964,0.652398,1.013881,0.7717858,0.79610974,0.28122696,0.72656095,0.65751034,0.43295482,0.17704114,0.75924855,0.46626016,-0.20564456,0.49104282,0.46250176,0.26864722,-0.27007666,0.25920534,0.17669131,801.4286,794.17584,804.65204,807.0696,727.6923,-0.0460205078125,0.1092529296875,1.00750732421875,0.276641845703125,11.671295166015625,3.27484130859375,1,1.0,1.0,1.0,1.0,10.00
2024-10-11 20:47:37.959,0.9393861,1.0222964,0.652398,1.013881,0.7717858,0.79610974,0.28122696,0.72656095,0.65751034,0.43295482,0.17704114,0.75924855,0.46626016,-0.20564456,0.49104282,0.46250176,0.26864722,-0.27007666,0.25920534,0.17669131,796.99634,788.5348,797.8022,797.3993,940.84247,-0.0460205078125,0.1092529296875,1.00750732421875,0.276641845703125,11.671295166015625,3.27484130859375,1,1.0,1.0,1.0,1.0,10.00
2024-10-11 20:47:37.960,0.9393861,1.0222964,0.652398,1.013881,0.7717858,0.79610974,0.28122696,0.72656095,0.65751034,0.43295482,0.17704114,0.75924855,0.46626016,-0.20564456,0.49104282,0.46250176,0.26864722,-0.27007666,0.25920534,0.17669131,799.41394,788.5348,790.9524,796.5934,909.011,-0.0460205078125,0.1092529296875,1.00750732421875,0.276641845703125,11.671295166015625,3.27484130859375,1,1.0,1.0,1.0,1.0,10.00
2024-10-11 20:47:37.960,0.9393861,1.0222964,0.652398,1.013881,0.7717858,0.79610974,0.28122696,0.72656095,0.65751034,0.43295482,0.17704114,0.75924855,0.46626016,-0.20564456,0.49104282,0.46250176,0.26864722,-0.27007666,0.25920534,0.17669131,793.7729,792.1612,782.49084,799.81683,754.2857,-0.0460205078125,0.1092529296875,1.00750732421875,0.276641845703125,11.671295166015625,3.27484130859375,1,1.0,1.0,1.0,1.0,10.00
2024-10-11 20:47:37.961,0.9393861,1.0222964,0.652398,1.013881,0.7717858,0.79610974,0.28122696,0.72656095,0.65751034,0.43295482,0.17704114,0.75924855,0.46626016,-0.20564456,0.49104282,0.46250176,0.26864722,-0.27007666,0.25920534,0.17669131,796.99634,794.9817,786.52014,795.78754,699.4872,-0.0460205078125,0.1092529296875,1.00750732421875,0.276641845703125,11.671295166015625,3.27484130859375,1,1.0,1.0,1.0,1.0,10.00
2024-10-11 20:47:37.961,0.9393861,1.0222964,0.652398,1.013881,0.7717858,0.79610974,0.28122696,0.72656095,0.65751034,0.43295482,0.17704114,0.75924855,0.46626016,-0.20564456,0.49104282,0.46250176,0.26864722,-0.27007666,0.25920534,0.17669131,799.41394,792.5641,790.14655,804.2491,966.2271,-0.0460205078125,0.1092529296875,1.00750732421875,0.276641845703125,11.671295166015625,3.27484130859375,1,1.0,1.0,1.0,1.0,10.00
2024-10-11 20:47:37.962,0.9393861,1.0222964,0.652398,1.013881,0.7717858,0.79610974,0.28122696,0.72656095,0.65751034,0.43295482,0.17704114,0.75924855,0.46626016,-0.20564456,0.49104282,0.46250176,0.26864722,-0.27007666,0.25920534,0.17669131,806.6667,794.17584,790.9524,814.7253,1080.6593,-0.0460205078125,0.1092529296875,1.00750732421875,0.276641845703125,11.671295166015625,3.27484130859375,1,1.0,1.0,1.0,1.0,10.00
2024-10-11 20:47:37.962,0.9393861,1.0222964,0.652398,1.013881,0.7717858,0.79610974,0.28122696,0.72656095,0.65751034,0.43295482,0.17704114,0.75924855,0.46626016,-0.20564456,0.49104282,0.46250176,0.26864722,-0.27007666,0.25920534,0.17669131,803.8461,797.8022,796.99634,804.2491,666.04395,-0.0460205078125,0.1092529296875,1.00750732421875,0.276641845703125,11.671295166015625,3.27484130859375,1,1.0,1.0,1.0,1.0,10.00
2024-10-11 20:47:37.963,0.9393861,1.0222964,0.652398,1.013881,0.7717858,0.79610974,0.28122696,0.72656095,0.65751034,0.43295482,0.17704114,0.75924855,0.46626016,-0.20564456,0.49104282,0.46250176,0.26864722,-0.27007666,0.25920534,0.17669131,792.1612,797.3993,794.57874,797.3993,675.7143,-0.07147216796875,0.109619140625,1.00927734375,-0.695343017578125,14.28070068359375,1.27105712890625,1,1.0,1.0,1.0,1.0,10.00
2024-10-11 20:47:37.964,0.9393861,1.0222964,0.652398,1.013881,0.7717858,0.79610974,0.28122696,0.72656095,0.65751034,0.43295482,0.17704114,0.75924855,0.46626016,-0.20564456,0.49104282,0.46250176,0.26864722,-0.27007666,0.25920534,0.17669131,795.38464,794.57874,783.2967,799.41394,732.1245,-0.07147216796875,0.109619140625,1.00927734375,-0.695343017578125,14.28070068359375,1.27105712890625,1,1.0,1.0,1.0,1.0,10.00
2024-10-11 20:47:37.964,0.9393861,1.0222964,0.652398,1.013881,0.7717858,0.79610974,0.28122696,0.72656095,0.65751034,0.43295482,0.17704114,0.75924855,0.46626016,-0.20564456,0.49104282,0.46250176,0.26864722,-0.27007666,0.25920534,0.17669131,795.38464,794.57874,784.90845,797.8022,631.39197,-0.07147216796875,0.109619140625,1.00927734375,-0.695343017578125,14.28070068359375,1.27105712890625,1,1.0,1.0,1.0,1.0,10.00
2024-10-11 20:47:37.965,0.9393861,1.0222964,0.652398,1.013881,0.7717858,0.79610974,0.28122696,0.72656095,0.65751034,0.43295482,0.17704114,0.75924855,0.46626016,-0.20564456,0.49104282,0.46250176,0.26864722,-0.27007666,0.25920534,0.17669131,803.8461,798.20514,799.41394,799.011,550.80585,-0.07147216796875,0.109619140625,1.00927734375,-0.695343017578125,14.28070068359375,1.27105712890625,1,1.0,1.0,1.0,1.0,10.00
2024-10-11 20:47:37.965,0.9393861,1.0222964,0.652398,1.013881,0.7717858,0.79610974,0.28122696,0.72656095,0.65751034,0.43295482,0.17704114,0.75924855,0.46626016,-0.20564456,0.49104282,0.46250176,0.26864722,-0.27007666,0.25920534,0.17669131,809.89014,799.81683,810.696,806.6667,628.1685,-0.07147216796875,0.109619140625,1.00927734375,-0.695343017578125,14.28070068359375,1.27105712890625,1,1.0,1.0,1.0,1.0,10.00
2024-10-11 20:47:37.966,0.9393861,1.0222964,0.652398,1.013881,0.7717858,0.79610974,0.28122696,0.72656095,0.65751034,0.43295482,0.17704114,0.75924855,0.46626016,-0.20564456,0.49104282,0.46250176,0.26864722,-0.27007666,0.25920534,0.17669131,810.696,801.02563,815.9341,807.0696,705.5311,-0.07147216796875,0.109619140625,1.00927734375,-0.695343017578125,14.28070068359375,1.27105712890625,1,1.0,1.0,1.0,1.0,10.00
2024-10-11 20:47:37.967,0.9393861,1.0222964,0.652398,1.013881,0.7717858,0.79610974,0.28122696,0.72656095,0.65751034,0.43295482,0.17704114,0.75924855,0.46626016,-0.20564456,0.49104282,0.46250176,0.26864722,-0.27007666,0.25920534,0.17669131,815.12823,799.011,809.0842,808.2784,763.1502,-0.07147216796875,0.109619140625,1.00927734375,-0.695343017578125,14.28070068359375,1.27105712890625,1,1.0,1.0,1.0,1.0,10.00
2024-10-11 20:47:37.967,0.9393861,1.0216496,0.65208024,1.013881,0.7717858,0.7956972,0.26827472,0.72656095,0.65751034,0.43295482,0.18116322,0.75924855,0.46626016,-0.2022974,0.49328342,0.46250176,0.26864722,-0.28047624,0.23785345,0.17669131,802.23444,801.8315,802.23444,805.8608,649.5238,-0.07147216796875,0.109619140625,1.00927734375,-0.695343017578125,14.28070068359375,1.27105712890625,1,2.0,1.0,1.0,2.0,10.00
2024-10-11 20:47:37.972,0.9393861,1.0216496,0.65208024,1.013881,0.7717858,0.7956972,0.26827472,0.72656095,0.65751034,0.43295482,0.18116322,0.75924855,0.46626016,-0.2022974,0.49328342,0.46250176,0.26864722,-0.28047624,0.23785345,0.17669131,796.99634,803.44324,807.47253,800.6227,712.381,-0.07147216796875,0.109619140625,1.00927734375,-0.695343017578125,14.28070068359375,1.27105712890625,1,2.0,1.0,1.0,2.0,10.00
2024-10-11 20:47:37.972,0.9393861,1.0216496,0.65208024,1.013881,0.7717858,0.7956972,0.26827472,0.72656095,0.65751034,0.43295482,0.18116322,0.75924855,0.46626016,-0.2022974,0.49328342,0.46250176,0.26864722,-0.28047624,0.23785345,0.17669131,799.81683,799.41394,805.4579,803.0403,820.7692,-0.07147216796875,0.109619140625,1.00927734375,-0.695343017578125,14.28070068359375,1.27105712890625,1,2.0,1.0,1.0,2.0,10.00
2024-10-11 20:47:37.973,0.9393861,1.0216496,0.65208024,1.013881,0.7717858,0.7956972,0.26827472,0.72656095,0.65751034,0.43295482,0.18116322,0.75924855,0.46626016,-0.2022974,0.49328342,0.46250176,0.26864722,-0.28047624,0.23785345,0.17669131,795.78754,799.011,796.1905,798.20514,634.21246,-0.07147216796875,0.109619140625,1.00927734375,-0.695343017578125,14.28070068359375,1.27105712890625,1,2.0,1.0,1.0,2.0,10.00
2024-10-11 20:47:37.974,0.9393861,1.0216496,0.65208024,1.013881,0.7717858,0.7956972,0.26827472,0.72656095,0.65751034,0.43295482,0.18116322,0.75924855,0.46626016,-0.2022974,0.49328342,0.46250176,0.26864722,-0.28047624,0.23785345,0.17669131,799.81683,797.8022,795.38464,799.011,601.1722,-0.07147216796875,0.109619140625,1.00927734375,-0.695343017578125,14.28070068359375,1.27105712890625,1,2.0,1.0,1.0,2.0,10.00
2024-10-11 20:47:37.997,0.9393861,1.0216496,0.65208024,1.013881,0.7717858,0.7956972,0.26827472,0.72656095,0.65751034,0.43295482,0.18116322,0.75924855,0.46626016,-0.2022974,0.49328342,0.46250176,0.26864722,-0.28047624,0.23785345,0.17669131,803.8461,794.9817,794.9817,804.65204,798.20514,-0.09674072265625,0.1009521484375,1.00390625,-1.09161376953125,15.828399658203125,0.276641845703125,1,2.0,1.0,1.0,2.0,10.00
2024-10-11 20:47:37.998,0.9393861,1.0216496,0.65208024,1.013881,0.7717858,0.7956972,0.26827472,0.72656095,0.65751034,0.43295482,0.18116322,0.75924855,0.46626016,-0.2022974,0.49328342,0.46250176,0.26864722,-0.28047624,0.23785345,0.17669131,804.2491,796.99634,798.60803,809.4872,908.20514,-0.09674072265625,0.1009521484375,1.00390625,-1.09161376953125,15.828399658203125,0.276641845703125,1,2.0,1.0,1.0,2.0,10.00
2024-10-11 20:47:37.998,0.9393861,1.0216496,0.65208024,1.013881,0.7717858,0.7956972,0.26827472,0.72656095,0.65751034,0.43295482,0.18116322,0.75924855,0.46626016,-0.2022974,0.49328342,0.46250176,0.26864722,-0.28047624,0.23785345,0.17669131,808.2784,799.81683,797.8022,811.50183,755.89746,-0.09674072265625,0.1009521484375,1.00390625,-1.09161376953125,15.828399658203125,0.276641845703125,1,2.0,1.0,1.0,2.0,10.00
2024-10-11 20:47:37.999,0.9393861,1.0216496,0.65208024,1.013881,0.7717858,0.7956972,0.26827472,0.72656095,0.65751034,0.43295482,0.18116322,0.75924855,0.46626016,-0.2022974,0.49328342,0.46250176,0.26864722,-0.28047624,0.23785345,0.17669131,810.293,799.81683,788.1319,803.44324,562.8938,-0.09674072265625,0.1009521484375,1.00390625,-1.09161376953125,15.828399658203125,0.276641845703125,1,2.0,1.0,1.0,2.0,10.00
2024-10-11 20:47:37.999,0.9393861,1.0216496,0.65208024,1.013881,0.7717858,0.7956972,0.26827472,0.72656095,0.65751034,0.43295482,0.18116322,0.75924855,0.46626016,-0.2022974,0.49328342,0.46250176,0.26864722,-0.28047624,0.23785345,0.17669131,811.0989,798.20514,802.23444,804.65204,756.7033,-0.09674072265625,0.1009521484375,1.00390625,-1.09161376953125,15.828399658203125,0.276641845703125,1,2.0,1.0,1.0,2.0,10.00
2024-10-11 20:47:38.000,0.9393861,1.0216496,0.65208024,1.013881,0.7717858,0.7956972,0.26827472,0.72656095,0.65751034,0.43295482,0.18116322,0.75924855,0.46626016,-0.2022974,0.49328342,0.46250176,0.26864722,-0.28047624,0.23785345,0.17669131,810.293,796.99634,808.2784,812.3077,1034.3224,-0.09674072265625,0.1009521484375,1.00390625,-1.09161376953125,15.828399658203125,0.276641845703125,1,2.0,1.0,1.0,2.0,10.00
2024-10-11 20:47:38.000,0.9393861,1.0216496,0.65208024,1.013881,0.7717858,0.7956972,0.26827472,0.72656095,0.65751034,0.43295482,0.18116322,0.75924855,0.46626016,-0.2022974,0.49328342,0.46250176,0.26864722,-0.28047624,0.23785345,0.17669131,810.696,798.20514,807.8755,810.696,841.7216,-0.09674072265625,0.1009521484375,1.00390625,-1.09161376953125,15.828399658203125,0.276641845703125,1,2.0,1.0,1.0,2.0,10.00
2024-10-11 20:47:38.001,0.9393861,1.0216496,0.65208024,1.013881,0.7717858,0.7956972,0.26827472,0.72656095,0.65751034,0.43295482,0.18116322,0.75924855,0.46626016,-0.2022974,0.49328342,0.46250176,0.26864722,-0.28047624,0.23785345,0.17669131,811.9048,801.8315,807.0696,810.696,606.8132,-0.09674072265625,0.1009521484375,1.00390625,-1.09161376953125,15.828399658203125,0.276641845703125,1,2.0,1.0,1.0,2.0,10.00
2024-10-11 20:47:38.002,0.9393861,1.0216496,0.65208024,1.013881,0.7717858,0.7956972,0.26827472,0.72656095,0.65751034,0.43295482,0.18116322,0.75924855,0.46626016,-0.2022974,0.49328342,0.46250176,0.26864722,-0.28047624,0.23785345,0.17669131,808.2784,798.20514,798.60803,816.337,811.50183,-0.09674072265625,0.1009521484375,1.00390625,-1.09161376953125,15.828399658203125,0.276641845703125,1,2.0,1.0,1.0,2.0,10.00
2024-10-11 20:47:38.003,0.9393861,1.0216496,0.65208024,1.013881,0.7717858,0.7956972,0.26827472,0.72656095,0.65751034,0.43295482,0.18116322,0.75924855,0.46626016,-0.2022974,0.49328342,0.46250176,0.26864722,-0.28047624,0.23785345,0.17669131,796.5934,795.38464,799.011,816.7399,1021.4286,-0.09674072265625,0.1009521484375,1.00390625,-1.09161376953125,15.828399658203125,0.276641845703125,1,2.0,1.0,1.0,2.0,10.00
2024-10-11 20:47:38.003,0.9393861,1.0216496,0.65208024,1.013881,0.7717858,0.7956972,0.26827472,0.72656095,0.65751034,0.43295482,0.18116322,0.75924855,0.46626016,-0.2022974,0.49328342,0.46250176,0.26864722,-0.28047624,0.23785345,0.17669131,792.1612,800.2198,800.6227,809.89014,730.9158,-0.09674072265625,0.1009521484375,1.00390625,-1.09161376953125,15.828399658203125,0.276641845703125,1,2.0,1.0,1.0,2.0,10.00
2024-10-11 20:47:38.004,0.9393861,1.0216496,0.65208024,1.013881,0.7717858,0.7956972,0.26827472,0.72656095,0.65751034,0.43295482,0.18116322,0.75924855,0.46626016,-0.2022974,0.49328342,0.46250176,0.26864722,-0.28047624,0.23785345,0.17669131,798.60803,800.2198,804.65204,814.3223,670.07324,-0.09674072265625,0.1009521484375,1.00390625,-1.09161376953125,15.828399658203125,0.276641845703125,1,2.0,1.0,1.0,2.0,10.00
2024-10-11 20:47:38.063,0.9393861,1.0216496,0.65208024,1.013881,0.7717858,0.7956972,0.26827472,0.72656095,0.65751034,0.43295482,0.18116322,0.75924855,0.46626016,-0.2022974,0.49328342,0.46250176,0.26864722,-0.28047624,0.23785345,0.17669131,806.6667,803.0403,808.2784,820.3663,691.8315,-0.12628173828125,0.10076904296875,0.992919921875,-1.158905029296875,16.800384521484375,-1.532745361328125,1,2.0,1.0,1.0,2.0,10.00
2024-10-11 20:47:38.064,0.9393861,1.0216496,0.65208024,1.013881,0.7717858,0.7956972,0.26827472,0.72656095,0.65751034,0.43295482,0.18116322,0.75924855,0.46626016,-0.2022974,0.49328342,0.46250176,0.26864722,-0.28047624,0.23785345,0.17669131,809.4872,804.65204,809.4872,815.9341,589.89014,-0.12628173828125,0.10076904296875,0.992919921875,-1.158905029296875,16.800384521484375,-1.532745361328125,1,2.0,1.0,1.0,2.0,10.00
2024-10-11 20:47:38.065,0.9393861,1.0216496,0.65208024,1.013881,0.7717858,0.7956972,0.26827472,0.72656095,0.65751034,0.43295482,0.18116322,0.75924855,0.46626016,-0.2022974,0.49328342,0.46250176,0.26864722,-0.28047624,0.23785345,0.17669131,805.4579,802.6374,811.0989,811.50183,549.19415,-0.12628173828125,0.10076904296875,0.992919921875,-1.158905029296875,16.800384521484375,-1.532745361328125,1,2.0,1.0,1.0,2.0,10.00
2024-10-11 20:47:38.066,0.9393861,1.0216496,0.65208024,1.013881,0.7717858,0.7956972,0.26827472,0.72656095,0.65751034,0.43295482,0.18116322,0.75924855,0.46626016,-0.2022974,0.49328342,0.46250176,0.26864722,-0.28047624,0.23785345,0.17669131,800.2198,803.8461,808.2784,817.9487,743.4066,-0.12628173828125,0.10076904296875,0.992919921875,-1.158905029296875,16.800384521484375,-1.532745361328125,1,2.0,1.0,1.0,2.0,10.00
2024-10-11 20:47:38.066,0.9393861,1.0216496,0.65208024,1.013881,0.7717858,0.7956972,0.26827472,0.72656095,0.65751034,0.43295482,0.18116322,0.75924855,0.46626016,-0.2022974,0.49328342,0.46250176,0.26864722,-0.28047624,0.23785345,0.17669131,801.4286,798.20514,801.4286,815.12823,866.7033,-0.12628173828125,0.10076904296875,0.992919921875,-1.158905029296875,16.800384521484375,-1.532745361328125,1,2.0,1.0,1.0,2.0,10.00
2024-10-11 20:47:38.067,0.9393861,1.0216496,0.65208024,1.013881,0.7717858,0.7956972,0.26827472,0.72656095,0.65751034,0.43295482,0.18116322,0.75924855,0.46626016,-0.2022974,0.49328342,0.46250176,0.26864722,-0.28047624,0.23785345,0.17669131,801.4286,791.75824,794.9817,805.05493,768.3883,-0.12628173828125,0.10076904296875,0.992919921875,-1.158905029296875,16.800384521484375,-1.532745361328125,1,2.0,1.0,1.0,2.0,10.00
2024-10-11 20:47:38.068,0.9393861,1.0216496,0.65208024,1.013881,0.7717858,0.7956972,0.26827472,0.72656095,0.65751034,0.43295482,0.18116322,0.75924855,0.46626016,-0.2022974,0.49328342,0.46250176,0.26864722,-0.28047624,0.23785345,0.17669131,798.20514,792.96704,796.5934,801.8315,737.76556,-0.12628173828125,0.10076904296875,0.992919921875,-1.158905029296875,16.800384521484375,-1.532745361328125,1,2.0,1.0,1.0,2.0,10.00
2024-10-11 20:47:38.069,0.9393861,1.0216496,0.65208024,1.013881,0.7717858,0.7956972,0.26827472,0.72656095,0.65751034,0.43295482,0.18116322,0.75924855,0.46626016,-0.2022974,0.49328342,0.46250176,0.26864722,-0.28047624,0.23785345,0.17669131,793.7729,794.9817,810.696,795.78754,854.61536,-0.12628173828125,0.10076904296875,0.992919921875,-1.158905029296875,16.800384521484375,-1.532745361328125,1,2.0,1.0,1.0,2.0,10.00
2024-10-11 20:47:38.069,0.9393861,1.0216496,0.65208024,1.013881,0.7717858,0.7956972,0.26827472,0.72656095,0.65751034,0.43295482,0.18116322,0.75924855,0.46626016,-0.2022974,0.49328342,0.46250176,0.26864722,-0.28047624,0.23785345,0.17669131,795.38464,795.38464,811.0989,796.99634,859.85345,-0.12628173828125,0.10076904296875,0.992919921875,-1.158905029296875,16.800384521484375,-1.532745361328125,1,2.0,1.0,1.0,2.0,10.00
2024-10-11 20:47:38.070,0.9393861,1.0224991,0.65142655,1.013881,0.7717858,0.79596734,0.25566584,0.72656095,0.65751034,0.43295482,0.18403085,0.75924855,0.46626016,-0.20504971,0.49971288,0.46250176,0.26864722,-0.30199152,0.22154848,0.17669131,797.3993,794.57874,803.0403,797.3993,567.72894,-0.12628173828125,0.10076904296875,0.992919921875,-1.158905029296875,16.800384521484375,-1.532745361328125,1,2.0,1.0,1.0,2.0,10.00
2024-10-11 20:47:38.075,0.9393861,1.0224991,0.65142655,1.013881,0.7717858,0.79596734,0.25566584,0.72656095,0.65751034,0.43295482,0.18403085,0.75924855,0.46626016,-0.20504971,0.49971288,0.46250176,0.26864722,-0.30199152,0.22154848,0.17669131,801.02563,796.99634,796.5934,793.7729,471.42856,-0.12628173828125,0.10076904296875,0.992919921875,-1.158905029296875,16.800384521484375,-1.532745361328125,1,2.0,1.0,1.0,2.0,10.00
2024-10-11 20:47:38.076,0.9393861,1.0224991,0.65142655,1.013881,0.7717858,0.79596734,0.25566584,0.72656095,0.65751034,0.43295482,0.18403085,0.75924855,0.46626016,-0.20504971,0.49971288,0.46250176,0.26864722,-0.30199152,0.22154848,0.17669131,803.8461,799.81683,794.17584,792.96704,687.3993,-0.12628173828125,0.10076904296875,0.992919921875,-1.158905029296875,16.800384521484375,-1.532745361328125,1,2.0,1.0,1.0,2.0,10.00
2024-10-11 20:47:38.180,0.9393861,1.0224991,0.65142655,1.013881,0.7717858,0.79596734,0.25566584,0.72656095,0.65751034,0.43295482,0.18403085,0.75924855,0.46626016,-0.20504971,0.49971288,0.46250176,0.26864722,-0.30199152,0.22154848,0.17669131,798.60803,801.02563,803.8461,795.78754,757.9121,-0.15179443359375,0.09417724609375,0.9949951171875,-1.15142822265625,17.936859130859375,-3.45428466796875,1,2.0,1.0,1.0,2.0,10.00
2024-10-11 20:47:38.181,0.9393861,1.0224991,0.65142655,1.013881,0.7717858,0.79596734,0.25566584,0.72656095,0.65751034,0.43295482,0.18403085,0.75924855,0.46626016,-0.20504971,0.49971288,0.46250176,0.26864722,-0.30199152,0.22154848,0.17669131,795.38464,796.1905,807.0696,794.17584,602.7839,-0.15179443359375,0.09417724609375,0.9949951171875,-1.15142822265625,17.936859130859375,-3.45428466796875,1,2.0,1.0,1.0,2.0,10.00
2024-10-11 20:47:38.182,0.9393861,1.0224991,0.65142655,1.013881,0.7717858,0.79596734,0.25566584,0.72656095,0.65751034,0.43295482,0.18403085,0.75924855,0.46626016,-0.20504971,0.49971288,0.46250176,0.26864722,-0.30199152,0.22154848,0.17669131,806.6667,794.9817,799.011,794.57874,528.24176,-0.15179443359375,0.09417724609375,0.9949951171875,-1.15142822265625,17.936859130859375,-3.45428466796875,1,2.0,1.0,1.0,2.0,10.00
2024-10-11 20:47:38.183,0.9393861,1.0224991,0.65142655,1.013881,0.7717858,0.79596734,0.25566584,0.72656095,0.65751034,0.43295482,0.18403085,0.75924855,0.46626016,-0.20504971,0.49971288,0.46250176,0.26864722,-0.30199152,0.22154848,0.17669131,805.4579,795.78754,790.54944,804.65204,692.23444,-0.15179443359375,0.09417724609375,0.9949951171875,-1.15142822265625,17.936859130859375,-3.45428466796875,1,2.0,1.0,1.0,2.0,10.00
2024-10-11 20:47:38.183,0.9393861,1.0224991,0.65142655,1.013881,0.7717858,0.79596734,0.25566584,0.72656095,0.65751034,0.43295482,0.18403085,0.75924855,0.46626016,-0.20504971,0.49971288,0.46250176,0.26864722,-0.30199152,0.22154848,0.17669131,792.96704,793.36993,790.14655,800.2198,759.92676,-0.15179443359375,0.09417724609375,0.9949951171875,-1.15142822265625,17.936859130859375,-3.45428466796875,1,2.0,1.0,1.0,2.0,10.00
2024-10-11 20:47:38.184,0.9393861,1.0224991,0.65142655,1.013881,0.7717858,0.79596734,0.25566584,0.72656095,0.65751034,0.43295482,0.18403085,0.75924855,0.46626016,-0.20504971,0.49971288,0.46250176,0.26864722,-0.30199152,0.22154848,0.17669131,794.9817,793.7729,801.02563,795.78754,627.76556,-0.15179443359375,0.09417724609375,0.9949951171875,-1.15142822265625,17.936859130859375,-3.45428466796875,1,2.0,1.0,1.0,2.0,10.00
2024-10-11 20:47:38.185,0.9393861,1.0224991,0.65142655,1.013881,0.7717858,0.79596734,0.25566584,0.72656095,0.65751034,0.43295482,0.18403085,0.75924855,0.46626016,-0.20504971,0.49971288,0.46250176,0.26864722,-0.30199152,0.22154848,0.17669131,797.8022,796.99634,803.44324,798.60803,732.9304,-0.15179443359375,0.09417724609375,0.9949951171875,-1.15142822265625,17.936859130859375,-3.45428466796875,1,2.0,1.0,1.0,2.0,10.00
2024-10-11 20:47:38.185,0.9393861,1.0224991,0.65142655,1.013881,0.7717858,0.79596734,0.25566584,0.72656095,0.65751034,0.43295482,0.18403085,0.75924855,0.46626016,-0.20504971,0.49971288,0.46250176,0.26864722,-0.30199152,0.22154848,0.17669131,805.4579,799.011,801.8315,803.0403,882.4176,-0.15179443359375,0.09417724609375,0.9949951171875,-1.15142822265625,17.936859130859375,-3.45428466796875,1,2.0,1.0,1.0,2.0,10.00
2024-10-11 20:47:38.186,0.9393861,1.0224991,0.65142655,1.013881,0.7717858,0.79596734,0.25566584,0.72656095,0.65751034,0.43295482,0.18403085,0.75924855,0.46626016,-0.20504971,0.49971288,0.46250176,0.26864722,-0.30199152,0.22154848,0.17669131,805.8608,802.23444,806.6667,804.65204,750.65936,-0.15179443359375,0.09417724609375,0.9949951171875,-1.15142822265625,17.936859130859375,-3.45428466796875,1,2.0,1.0,1.0,2.0,10.00
2024-10-11 20:47:38.187,0.9393861,1.0224991,0.65142655,1.013881,0.7717858,0.79596734,0.25566584,0.72656095,0.65751034,0.43295482,0.18403085,0.75924855,0.46626016,-0.20504971,0.49971288,0.46250176,0.26864722,-0.30199152,0.22154848,0.17669131,800.2198,794.17584,803.0403,798.60803,609.6337,-0.15179443359375,0.09417724609375,0.9949951171875,-1.15142822265625,17.936859130859375,-3.45428466796875,1,2.0,1.0,1.0,2.0,10.00
2024-10-11 20:47:38.187,0.9393861,1.0224991,0.65142655,1.013881,0.7717858,0.79596734,0.25566584,0.72656095,0.65751034,0.43295482,0.18403085,0.75924855,0.46626016,-0.20504971,0.49971288,0.46250176,0.26864722,-0.30199152,0.22154848,0.17669131,801.8315,787.326,789.34064,798.60803,693.44324,-0.15179443359375,0.09417724609375,0.9949951171875,-1.15142822265625,17.936859130859375,-3.45428466796875,1,2.0,1.0,1.0,2.0,10.00
2024-10-11 20:47:38.188,0.9393861,1.0224991,0.65142655,1.013881,0.7717858,0.79596734,0.25566584,0.72656095,0.65751034,0.43295482,0.18403085,0.75924855,0.46626016,-0.20504971,0.49971288,0.46250176,0.26864722,-0.30199152,0.22154848,0.17669131,801.02563,800.6227,797.3993,808.68134,1065.348,-0.15179443359375,0.09417724609375,0.9949951171875,-1.15142822265625,17.936859130859375,-3.45428466796875,1,2.0,1.0,1.0,2.0,10.00
2024-10-11 20:47:38.216,0.9393861,1.0224991,0.65142655,1.013881,0.7717858,0.79596734,0.25566584,0.72656095,0.65751034,0.43295482,0.18403085,0.75924855,0.46626016,-0.20504971,0.49971288,0.46250176,0.26864722,-0.30199152,0.22154848,0.17669131,792.96704,805.4579,813.1135,804.2491,938.022,-0.15179443359375,0.09417724609375,0.9949951171875,-1.15142822265625,17.936859130859375,-3.45428466796875,1,2.0,1.0,1.0,2.0,10.00
2024-10-11 20:47:38.217,0.9393861,1.0224991,0.65142655,1.013881,0.7717858,0.79596734,0.25566584,0.72656095,0.65751034,0.43295482,0.18403085,0.75924855,0.46626016,-0.20504971,0.49971288,0.46250176,0.26864722,-0.30199152,0.22154848,0.17669131,789.7436,800.6227,806.26373,790.9524,548.3883,-0.15179443359375,0.09417724609375,0.9949951171875,-1.15142822265625,17.936859130859375,-3.45428466796875,1,2.0,1.0,1.0,2.0,10.00
2024-10-11 20:47:38.218,0.9393861,1.0224991,0.65142655,1.013881,0.7717858,0.79596734,0.25566584,0.72656095,0.65751034,0.43295482,0.18403085,0.75924855,0.46626016,-0.20504971,0.49971288,0.46250176,0.26864722,-0.30199152,0.22154848,0.17669131,796.1905,796.1905,799.011,788.1319,540.32965,-0.15179443359375,0.09417724609375,0.9949951171875,-1.15142822265625,17.936859130859375,-3.45428466796875,1,2.0,1.0,1.0,2.0,10.00
2024-10-11 20:47:38.218,0.9393861,1.0224991,0.65142655,1.013881,0.7717858,0.79596734,0.25566584,0.72656095,0.65751034,0.43295482,0.18403085,0.75924855,0.46626016,-0.20504971,0.49971288,0.46250176,0.26864722,-0.30199152,0.22154848,0.17669131,798.60803,799.41394,791.3553,791.3553,579.81683,-0.15179443359375,0.09417724609375,0.9949951171875,-1.15142822265625,17.936859130859375,-3.45428466796875,1,2.0,1.0,1.0,2.0,10.00
2024-10-11 20:47:38.219,0.9393861,1.0224991,0.65142655,1.013881,0.7717858,0.79596734,0.25566584,0.72656095,0.65751034,0.43295482,0.18403085,0.75924855,0.46626016,-0.20504971,0.49971288,0.46250176,0.26864722,-0.30199152,0.22154848,0.17669131,795.38464,804.65204,794.9817,789.34064,574.57874,-0.15179443359375,0.09417724609375,0.9949951171875,-1.15142822265625,17.936859130859375,-3.45428466796875,1,2.0,1.0,1.0,2.0,10.00
2024-10-11 20:47:38.220,0.9393861,1.0224991,0.65142655,1.013881,0.7717858,0.79596734,0.25566584,0.72656095,0.65751034,0.43295482,0.18403085,0.75924855,0.46626016,-0.20504971,0.49971288,0.46250176,0.26864722,-0.30199152,0.22154848,0.17669131,785.7143,802.6374,811.9048,796.1905,644.68866,-0.15179443359375,0.09417724609375,0.9949951171875,-1.15142822265625,17.936859130859375,-3.45428466796875,1,2.0,1.0,1.0,2.0,10.00
2024-10-11 20:47:38.220,0.9393861,1.0224991,0.65142655,1.013881,0.7717858,0.79596734,0.25566584,0.72656095,0.65751034,0.43295482,0.18403085,0.75924855,0.46626016,-0.20504971,0.49971288,0.46250176,0.26864722,-0.30199152,0.22154848,0.17669131,781.685,797.8022,808.2784,799.81683,785.31134,-0.15179443359375,0.09417724609375,0.9949951171875,-1.15142822265625,17.936859130859375,-3.45428466796875,1,2.0,1.0,1.0,2.0,10.00
2024-10-11 20:47:38.221,0.9393861,1.0224991,0.65142655,1.013881,0.7717858,0.79596734,0.25566584,0.72656095,0.65751034,0.43295482,0.18403085,0.75924855,0.46626016,-0.20504971,0.49971288,0.46250176,0.26864722,-0.30199152,0.22154848,0.17669131,787.326,796.1905,793.7729,790.9524,706.7399,-0.15179443359375,0.09417724609375,0.9949951171875,-1.15142822265625,17.936859130859375,-3.45428466796875,1,2.0,1.0,1.0,2.0,10.00
2024-10-11 20:47:38.222,0.9393861,1.0224991,0.65142655,1.013881,0.7717858,0.79596734,0.25566584,0.72656095,0.65751034,0.43295482,0.18403085,0.75924855,0.46626016,-0.20504971,0.49971288,0.46250176,0.26864722,-0.30199152,0.22154848,0.17669131,785.7143,802.23444,789.34064,792.1612,561.28204,-0.15179443359375,0.09417724609375,0.9949951171875,-1.15142822265625,17.936859130859375,-3.45428466796875,1,2.0,1.0,1.0,2.0,10.00
2024-10-11 20:47:38.223,0.9393861,1.0224991,0.65142655,1.013881,0.7717858,0.79596734,0.25566584,0.72656095,0.65751034,0.43295482,0.18403085,0.75924855,0.46626016,-0.20504971,0.49971288,0.46250176,0.26864722,-0.30199152,0.22154848,0.17669131,781.28204,803.0403,793.7729,792.96704,572.1612,-0.15179443359375,0.09417724609375,0.9949951171875,-1.15142822265625,17.936859130859375,-3.45428466796875,1,2.0,1.0,1.0,2.0,10.00
2024-10-11 20:47:38.223,0.9393861,1.0224991,0.65142655,1.013881,0.7717858,0.79596734,0.25566584,0.72656095,0.65751034,0.43295482,0.18403085,0.75924855,0.46626016,-0.20504971,0.49971288,0.46250176,0.26864722,-0.30199152,0.22154848,0.17669131,790.14655,797.8022,798.60803,791.3553,757.9121,-0.15179443359375,0.09417724609375,0.9949951171875,-1.15142822265625,17.936859130859375,-3.45428466796875,1,2.0,1.0,1.0,2.0,10.00
2024-10-11 20:47:38.224,0.9393861,1.0207433,0.6468013,1.013881,0.7717858,0.7926047,0.24372001,0.72656095,0.65751034,0.43295482,0.20101173,0.75924855,0.46626016,-0.21445982,0.5091646,0.46250176,0.26864722,-0.3333675,0.21150516,0.17669131,792.96704,797.3993,806.6667,792.5641,842.52747,-0.15179443359375,0.09417724609375,0.9949951171875,-1.15142822265625,17.936859130859375,-3.45428466796875,1,2.0,1.0,1.0,2.0,10.00
2024-10-11 20:47:38.230,0.9393861,1.0207433,0.6468013,1.013881,0.7717858,0.7926047,0.24372001,0.72656095,0.65751034,0.43295482,0.20101173,0.75924855,0.46626016,-0.21445982,0.5091646,0.46250176,0.26864722,-0.3333675,0.21150516,0.17669131,785.31134,800.6227,814.7253,794.57874,670.07324,-0.1807861328125,0.0916748046875,0.98052978515625,-0.3289794921875,16.58355712890625,-4.29168701171875,1,2.0,1.0,1.0,2.0,10.00
2024-10-11 20:47:38.231,0.9393861,1.0207433,0.6468013,1.013881,0.7717858,0.7926047,0.24372001,0.72656095,0.65751034,0.43295482,0.20101173,0.75924855,0.46626016,-0.21445982,0.5091646,0.46250176,0.26864722,-0.3333675,0.21150516,0.17669131,788.1319,802.6374,805.4579,787.72894,620.5128,-0.1807861328125,0.0916748046875,0.98052978515625,-0.3289794921875,16.58355712890625,-4.29168701171875,1,2.0,1.0,1.0,2.0,10.00
2024-10-11 20:47:38.231,0.9393861,1.0207433,0.6468013,1.013881,0.7717858,0.7926047,0.24372001,0.72656095,0.65751034,0.43295482,0.20101173,0.75924855,0.46626016,-0.21445982,0.5091646,0.46250176,0.26864722,-0.3333675,0.21150516,0.17669131,793.7729,799.41394,786.1172,785.7143,678.5348,-0.1807861328125,0.0916748046875,0.98052978515625,-0.3289794921875,16.58355712890625,-4.29168701171875,1,2.0,1.0,1.0,2.0,10.00
2024-10-11 20:47:38.232,0.9393861,1.0207433,0.6468013,1.013881,0.7717858,0.7926047,0.24372001,0.72656095,0.65751034,0.43295482,0.20101173,0.75924855,0.46626016,-0.21445982,0.5091646,0.46250176,0.26864722,-0.3333675,0.21150516,0.17669131,795.78754,799.011,775.64105,783.2967,660.40295,-0.1807861328125,0.0916748046875,0.98052978515625,-0.3289794921875,16.58355712890625,-4.29168701171875,1,2.0,1.0,1.0,2.0,10.00
2024-10-11 20:47:38.233,0.9393861,1.0207433,0.6468013,1.013881,0.7717858,0.7926047,0.24372001,0.72656095,0.65751034,0.43295482,0.20101173,0.75924855,0.46626016,-0.21445982,0.5091646,0.46250176,0.26864722,-0.3333675,0.21150516,0.17669131,795.78754,803.0403,802.23444,784.10254,585.4579,-0.1807861328125,0.0916748046875,0.98052978515625,-0.3289794921875,16.58355712890625,-4.29168701171875,1,2.0,1.0,1.0,2.0,10.00
2024-10-11 20:47:38.234,0.9393861,1.0207433,0.6468013,1.013881,0.7717858,0.7926047,0.24372001,0.72656095,0.65751034,0.43295482,0.20101173,0.75924855,0.46626016,-0.21445982,0.5091646,0.46250176,0.26864722,-0.3333675,0.21150516,0.17669131,788.5348,799.81683,818.7546,791.3553,680.54944,-0.1807861328125,0.0916748046875,0.98052978515625,-0.3289794921875,16.58355712890625,-4.29168701171875,1,2.0,1.0,1.0,2.0,10.00
2024-10-11 20:47:38.234,0.9393861,1.0207433,0.6468013,1.013881,0.7717858,0.7926047,0.24372001,0.72656095,0.65751034,0.43295482,0.20101173,0.75924855,0.46626016,-0.21445982,0.5091646,0.46250176,0.26864722,-0.3333675,0.21150516,0.17669131,785.7143,796.1905,801.4286,788.5348,798.60803,-0.1807861328125,0.0916748046875,0.98052978515625,-0.3289794921875,16.58355712890625,-4.29168701171875,1,2.0,1.0,1.0,2.0,10.00
2024-10-11 20:47:38.235,0.9393861,1.0207433,0.6468013,1.013881,0.7717858,0.7926047,0.24372001,0.72656095,0.65751034,0.43295482,0.20101173,0.75924855,0.46626016,-0.21445982,0.5091646,0.46250176,0.26864722,-0.3333675,0.21150516,0.17669131,781.685,797.3993,792.1612,784.10254,716.4103,-0.1807861328125,0.0916748046875,0.98052978515625,-0.3289794921875,16.58355712890625,-4.29168701171875,1,2.0,1.0,1.0,2.0,10.00
2024-10-11 20:47:38.236,0.9393861,1.0207433,0.6468013,1.013881,0.7717858,0.7926047,0.24372001,0.72656095,0.65751034,0.43295482,0.20101173,0.75924855,0.46626016,-0.21445982,0.5091646,0.46250176,0.26864722,-0.3333675,0.21150516,0.17669131,782.49084,798.60803,794.9817,790.9524,540.7326,-0.1807861328125,0.0916748046875,0.98052978515625,-0.3289794921875,16.58355712890625,-4.29168701171875,1,2.0,1.0,1.0,2.0,10.00
2024-10-11 20:47:38.236,0.9393861,1.0207433,0.6468013,1.013881,0.7717858,0.7926047,0.24372001,0.72656095,0.65751034,0.43295482,0.20101173,0.75924855,0.46626016,-0.21445982,0.5091646,0.46250176,0.26864722,-0.3333675,0.21150516,0.17669131,790.54944,803.0403,790.54944,793.36993,570.14655,-0.1807861328125,0.0916748046875,0.98052978515625,-0.3289794921875,16.58355712890625,-4.29168701171875,1,2.0,1.0,1.0,2.0,10.00
2024-10-11 20:47:38.237,0.9393861,1.0207433,0.6468013,1.013881,0.7717858,0.7926047,0.24372001,0.72656095,0.65751034,0.43295482,0.20101173,0.75924855,0.46626016,-0.21445982,0.5091646,0.46250176,0.26864722,-0.3333675,0.21150516,0.17669131,796.1905,805.4579,789.7436,794.17584,718.022,-0.1807861328125,0.0916748046875,0.98052978515625,-0.3289794921875,16.58355712890625,-4.29168701171875,1,2.0,1.0,1.0,2.0,10.00
2024-10-11 20:47:38.238,0.9393861,1.0207433,0.6468013,1.013881,0.7717858,0.7926047,0.24372001,0.72656095,0.65751034,0.43295482,0.20101173,0.75924855,0.46626016,-0.21445982,0.5091646,0.46250176,0.26864722,-0.3333675,0.21150516,0.17669131,794.57874,806.6667,797.8022,786.52014,667.25275,-0.1807861328125,0.0916748046875,0.98052978515625,-0.3289794921875,16.58355712890625,-4.29168701171875,1,2.0,1.0,1.0,2.0,10.00
2024-10-11 20:47:38.270,0.9393861,1.0207433,0.6468013,1.013881,0.7717858,0.7926047,0.24372001,0.72656095,0.65751034,0.43295482,0.20101173,0.75924855,0.46626016,-0.21445982,0.5091646,0.46250176,0.26864722,-0.3333675,0.21150516,0.17669131,790.54944,803.0403,796.5934,775.2381,525.42126,-0.19317626953125,0.08502197265625,0.9820556640625,-1.57012939453125,14.721832275390625,-4.47113037109375,1,2.0,1.0,1.0,2.0,10.00
2024-10-11 20:47:38.271,0.9393861,1.0207433,0.6468013,1.013881,0.7717858,0.7926047,0.24372001,0.72656095,0.65751034,0.43295482,0.20101173,0.75924855,0.46626016,-0.21445982,0.5091646,0.46250176,0.26864722,-0.3333675,0.21150516,0.17669131,788.93774,797.8022,799.41394,783.2967,609.2308,-0.19317626953125,0.08502197265625,0.9820556640625,-1.57012939453125,14.721832275390625,-4.47113037109375,1,2.0,1.0,1.0,2.0,10.00
2024-10-11 20:47:38.272,0.9393861,1.0207433,0.6468013,1.013881,0.7717858,0.7926047,0.24372001,0.72656095,0.65751034,0.43295482,0.20101173,0.75924855,0.46626016,-0.21445982,0.5091646,0.46250176,0.26864722,-0.3333675,0.21150516,0.17669131,784.90845,800.6227,802.23444,791.75824,759.5238,-0.19317626953125,0.08502197265625,0.9820556640625,-1.57012939453125,14.721832275390625,-4.47113037109375,1,2.0,1.0,1.0,2.0,10.00
2024-10-11 20:47:38.273,0.9393861,1.0207433,0.6468013,1.013881,0.7717858,0.7926047,0.24372001,0.72656095,0.65751034,0.43295482,0.20101173,0.75924855,0.46626016,-0.21445982,0.5091646,0.46250176,0.26864722,-0.3333675,0.21150516,0.17669131,783.69965,802.6374,792.1612,780.87915,575.78754,-0.19317626953125,0.08502197265625,0.9820556640625,-1.57012939453125,14.721832275390625,-4.47113037109375,1,2.0,1.0,1.0,2.0,10.00
2024-10-11 20:47:38.273,0.9393861,1.0207433,0.6468013,1.013881,0.7717858,0.7926047,0.24372001,0.72656095,0.65751034,0.43295482,0.20101173,0.75924855,0.46626016,-0.21445982,0.5091646,0.46250176,0.26864722,-0.3333675,0.21150516,0.17669131,779.2674,796.1905,794.57874,777.6557,435.16483,-0.19317626953125,0.08502197265625,0.9820556640625,-1.57012939453125,14.721832275390625,-4.47113037109375,1,2.0,1.0,1.0,2.0,10.00
2024-10-11 20:47:38.274,0.9393861,1.0207433,0.6468013,1.013881,0.7717858,0.7926047,0.24372001,0.72656095,0.65751034,0.43295482,0.20101173,0.75924855,0.46626016,-0.21445982,0.5091646,0.46250176,0.26864722,-0.3333675,0.21150516,0.17669131,782.49084,799.41394,800.6227,788.5348,709.9634,-0.19317626953125,0.08502197265625,0.9820556640625,-1.57012939453125,14.721832275390625,-4.47113037109375,1,2.0,1.0,1.0,2.0,10.00
2024-10-11 20:47:38.275,0.9393861,1.0207433,0.6468013,1.013881,0.7717858,0.7926047,0.24372001,0.72656095,0.65751034,0.43295482,0.20101173,0.75924855,0.46626016,-0.21445982,0.5091646,0.46250176,0.26864722,-0.3333675,0.21150516,0.17669131,779.2674,801.02563,794.17584,784.90845,913.0403,-0.19317626953125,0.08502197265625,0.9820556640625,-1.57012939453125,14.721832275390625,-4.47113037109375,1,2.0,1.0,1.0,2.0,10.00
2024-10-11 20:47:38.276,0.9393861,1.0207433,0.6468013,1.013881,0.7717858,0.7926047,0.24372001,0.72656095,0.65751034,0.43295482,0.20101173,0.75924855,0.46626016,-0.21445982,0.5091646,0.46250176,0.26864722,-0.3333675,0.21150516,0.17669131,780.4762,794.9817,799.81683,777.25275,783.69965,-0.19317626953125,0.08502197265625,0.9820556640625,-1.57012939453125,14.721832275390625,-4.47113037109375,1,2.0,1.0,1.0,2.0,10.00
2024-10-11 20:47:38.276,0.9393861,1.0207433,0.6468013,1.013881,0.7717858,0.7926047,0.24372001,0.72656095,0.65751034,0.43295482,0.20101173,0.75924855,0.46626016,-0.21445982,0.5091646,0.46250176,0.26864722,-0.3333675,0.21150516,0.17669131,782.49084,793.7729,799.81683,774.43225,652.74725,-0.19317626953125,0.08502197265625,0.9820556640625,-1.57012939453125,14.721832275390625,-4.47113037109375,1,2.0,1.0,1.0,2.0,10.00
2024-10-11 20:47:38.277,0.9393861,1.0207433,0.6468013,1.013881,0.7717858,0.7926047,0.24372001,0.72656095,0.65751034,0.43295482,0.20101173,0.75924855,0.46626016,-0.21445982,0.5091646,0.46250176,0.26864722,-0.3333675,0.21150516,0.17669131,770.80585,795.78754,786.52014,776.4469,796.5934,-0.19317626953125,0.08502197265625,0.9820556640625,-1.57012939453125,14.721832275390625,-4.47113037109375,1,2.0,1.0,1.0,2.0,10.00
2024-10-11 20:47:38.278,0.9393861,1.0207433,0.6468013,1.013881,0.7717858,0.7926047,0.24372001,0.72656095,0.65751034,0.43295482,0.20101173,0.75924855,0.46626016,-0.21445982,0.5091646,0.46250176,0.26864722,-0.3333675,0.21150516,0.17669131,775.2381,796.1905,790.9524,785.7143,1156.0073,-0.19317626953125,0.08502197265625,0.9820556640625,-1.57012939453125,14.721832275390625,-4.47113037109375,1,2.0,1.0,1.0,2.0,10.00
2024-10-11 20:47:38.279,0.9393861,1.0207433,0.6468013,1.013881,0.7717858,0.7926047,0.24372001,0.72656095,0.65751034,0.43295482,0.20101173,0.75924855,0.46626016,-0.21445982,0.5091646,0.46250176,0.26864722,-0.3333675,0.21150516,0.17669131,783.2967,802.6374,794.57874,794.57874,1258.7546,-0.19317626953125,0.08502197265625,0.9820556640625,-1.57012939453125,14.721832275390625,-4.47113037109375,1,2.0,1.0,1.0,2.0,10.00
2024-10-11 20:47:38.351,0.9393861,1.0207433,0.6468013,1.013881,0.7717858,0.7926047,0.24372001,0.72656095,0.65751034,0.43295482,0.20101173,0.75924855,0.46626016,-0.21445982,0.5091646,0.46250176,0.26864722,-0.3333675,0.21150516,0.17669131,792.1612,807.0696,784.5055,795.38464,886.8498,-0.20166015625,0.07342529296875,0.9810791015625,-1.60003662109375,11.73858642578125,-3.820648193359375,1,2.0,1.0,1.0,2.0,10.00
2024-10-11 20:47:38.352,0.9393861,1.0037764,0.62488526,0.097339794,0.7717858,0.7728305,0.22492783,0.018213654,0.65751034,0.43295482,0.2866675,0.38045922,0.46626016,-0.22728959,0.52133095,0.3421963,0.26864722,-0.3727736,0.20660761,0.09940764,793.36993,809.0842,786.1172,792.5641,563.69965,-0.20166015625,0.07342529296875,0.9810791015625,-1.60003662109375,11.73858642578125,-3.820648193359375,1,2.0,1.0,1.0,2.0,10.00
2024-10-11 20:47:38.359,0.9393861,1.0037764,0.62488526,0.097339794,0.7717858,0.7728305,0.22492783,0.018213654,0.65751034,0.43295482,0.2866675,0.38045922,0.46626016,-0.22728959,0.52133095,0.3421963,0.26864722,-0.3727736,0.20660761,0.09940764,785.31134,806.6667,803.0403,784.5055,606.8132,-0.20166015625,0.07342529296875,0.9810791015625,-1.60003662109375,11.73858642578125,-3.820648193359375,1,2.0,1.0,1.0,2.0,10.00
2024-10-11 20:47:38.360,0.9393861,1.0037764,0.62488526,0.097339794,0.7717858,0.7728305,0.22492783,0.018213654,0.65751034,0.43295482,0.2866675,0.38045922,0.46626016,-0.22728959,0.52133095,0.3421963,0.26864722,-0.3727736,0.20660761,0.09940764,782.49084,800.2198,815.12823,781.28204,593.91943,-0.20166015625,0.07342529296875,0.9810791015625,-1.60003662109375,11.73858642578125,-3.820648193359375,1,2.0,1.0,1.0,2.0,10.00
2024-10-11 20:47:38.361,0.9393861,1.0037764,0.62488526,0.097339794,0.7717858,0.7728305,0.22492783,0.018213654,0.65751034,0.43295482,0.2866675,0.38045922,0.46626016,-0.22728959,0.52133095,0.3421963,0.26864722,-0.3727736,0.20660761,0.09940764,786.1172,802.6374,812.3077,784.5055,571.3553,-0.20166015625,0.07342529296875,0.9810791015625,-1.60003662109375,11.73858642578125,-3.820648193359375,1,2.0,1.0,1.0,2.0,10.00
2024-10-11 20:47:38.362,0.9393861,1.0037764,0.62488526,0.097339794,0.7717858,0.7728305,0.22492783,0.018213654,0.65751034,0.43295482,0.2866675,0.38045922,0.46626016,-0.22728959,0.52133095,0.3421963,0.26864722,-0.3727736,0.20660761,0.09940764,787.72894,806.26373,815.9341,790.9524,661.6117,-0.20166015625,0.07342529296875,0.9810791015625,-1.60003662109375,11.73858642578125,-3.820648193359375,1,2.0,1.0,1.0,2.0,10.00
2024-10-11 20:47:38.363,0.9393861,1.0037764,0.62488526,0.097339794,0.7717858,0.7728305,0.22492783,0.018213654,0.65751034,0.43295482,0.2866675,0.38045922,0.46626016,-0.22728959,0.52133095,0.3421963,0.26864722,-0.3727736,0.20660761,0.09940764,784.90845,803.8461,799.011,786.9231,693.44324,-0.20166015625,0.07342529296875,0.9810791015625,-1.60003662109375,11.73858642578125,-3.820648193359375,1,2.0,1.0,1.0,2.0,10.00
2024-10-11 20:47:38.364,0.9393861,1.0037764,0.62488526,0.097339794,0.7717858,0.7728305,0.22492783,0.018213654,0.65751034,0.43295482,0.2866675,0.38045922,0.46626016,-0.22728959,0.52133095,0.3421963,0.26864722,-0.3727736,0.20660761,0.09940764,776.8498,802.6374,782.8938,781.685,649.92676,-0.20166015625,0.07342529296875,0.9810791015625,-1.60003662109375,11.73858642578125,-3.820648193359375,1,2.0,1.0,1.0,2.0,10.00
2024-10-11 20:47:38.365,0.9393861,1.0037764,0.62488526,0.097339794,0.7717858,0.7728305,0.22492783,0.018213654,0.65751034,0.43295482,0.2866675,0.38045922,0.46626016,-0.22728959,0.52133095,0.3421963,0.26864722,-0.3727736,0.20660761,0.09940764,772.8205,802.23444,810.293,785.31134,586.26373,-0.20166015625,0.07342529296875,0.9810791015625,-1.60003662109375,11.73858642578125,-3.820648193359375,1,2.0,1.0,1.0,2.0,10.00
2024-10-11 20:47:38.366,0.9393861,1.0037764,0.62488526,0.097339794,0.7717858,0.7728305,0.22492783,0.018213654,0.65751034,0.43295482,0.2866675,0.38045922,0.46626016,-0.22728959,0.52133095,0.3421963,0.26864722,-0.3727736,0.20660761,0.09940764,781.28204,803.44324,800.2198,785.7143,733.73627,-0.20166015625,0.07342529296875,0.9810791015625,-1.60003662109375,11.73858642578125,-3.820648193359375,1,2.0,1.0,1.0,2.0,10.00
2024-10-11 20:47:38.367,0.9393861,1.0037764,0.62488526,0.097339794,0.7717858,0.7728305,0.22492783,0.018213654,0.65751034,0.43295482,0.2866675,0.38045922,0.46626016,-0.22728959,0.52133095,0.3421963,0.26864722,-0.3727736,0.20660761,0.09940764,786.1172,801.4286,768.3883,785.31134,714.3956,-0.20166015625,0.07342529296875,0.9810791015625,-1.60003662109375,11.73858642578125,-3.820648193359375,1,2.0,1.0,1.0,2.0,10.00
2024-10-11 20:47:38.368,0.9393861,1.0037764,0.62488526,0.097339794,0.7717858,0.7728305,0.22492783,0.018213654,0.65751034,0.43295482,0.2866675,0.38045922,0.46626016,-0.22728959,0.52133095,0.3421963,0.26864722,-0.3727736,0.20660761,0.09940764,779.2674,797.3993,789.34064,778.0586,576.1905,-0.20166015625,0.07342529296875,0.9810791015625,-1.60003662109375,11.73858642578125,-3.820648193359375,1,2.0,1.0,1.0,2.0,10.00
2024-10-11 20:47:38.369,0.9393861,1.0037764,0.62488526,0.097339794,0.7717858,0.7728305,0.22492783,0.018213654,0.65751034,0.43295482,0.2866675,0.38045922,0.46626016,-0.22728959,0.52133095,0.3421963,0.26864722,-0.3727736,0.20660761,0.09940764,783.2967,799.011,820.7692,773.22345,648.71796,-0.215087890625,0.07354736328125,0.97894287109375,-0.19439697265625,11.065673828125,-2.332763671875,1,2.0,1.0,1.0,2.0,10.00
2024-10-11 20:47:38.370,0.9393861,1.0037764,0.62488526,0.097339794,0.7717858,0.7728305,0.22492783,0.018213654,0.65751034,0.43295482,0.2866675,0.38045922,0.46626016,-0.22728959,0.52133095,0.3421963,0.26864722,-0.3727736,0.20660761,0.09940764,789.34064,801.02563,806.6667,776.4469,816.337,-0.215087890625,0.07354736328125,0.97894287109375,-0.19439697265625,11.065673828125,-2.332763671875,1,2.0,1.0,1.0,2.0,10.00
2024-10-11 20:47:38.371,0.9393861,1.0037764,0.62488526,0.097339794,0.7717858,0.7728305,0.22492783,0.018213654,0.65751034,0.43295482,0.2866675,0.38045922,0.46626016,-0.22728959,0.52133095,0.3421963,0.26864722,-0.3727736,0.20660761,0.09940764,774.83514,799.011,801.02563,777.6557,644.68866,-0.215087890625,0.07354736328125,0.97894287109375,-0.19439697265625,11.065673828125,-2.332763671875,1,2.0,1.0,1.0,2.0,10.00
2024-10-11 20:47:38.371,0.9393861,1.0037764,0.62488526,0.097339794,0.7717858,0.7728305,0.22492783,0.018213654,0.65751034,0.43295482,0.2866675,0.38045922,0.46626016,-0.22728959,0.52133095,0.3421963,0.26864722,-0.3727736,0.20660761,0.09940764,763.1502,783.69965,813.91943,781.685,424.2857,-0.215087890625,0.07354736328125,0.97894287109375,-0.19439697265625,11.065673828125,-2.332763671875,1,2.0,1.0,1.0,2.0,10.00
2024-10-11 20:47:38.372,0.9393861,1.0037764,0.62488526,0.097339794,0.7717858,0.7728305,0.22492783,0.018213654,0.65751034,0.43295482,0.2866675,0.38045922,0.46626016,-0.22728959,0.52133095,0.3421963,0.26864722,-0.3727736,0.20660761,0.09940764,758.71796,792.5641,796.99634,774.83514,639.85345,-0.215087890625,0.07354736328125,0.97894287109375,-0.19439697265625,11.065673828125,-2.332763671875,1,2.0,1.0,1.0,2.0,10.00
2024-10-11 20:47:38.373,0.9393861,1.0037764,0.62488526,0.097339794,0.7717858,0.7728305,0.22492783,0.018213654,0.65751034,0.43295482,0.2866675,0.38045922,0.46626016,-0.22728959,0.52133095,0.3421963,0.26864722,-0.3727736,0.20660761,0.09940764,759.92676,812.3077,805.8608,769.59705,786.1172,-0.215087890625,0.07354736328125,0.97894287109375,-0.19439697265625,11.065673828125,-2.332763671875,1,2.0,1.0,1.0,2.0,10.00
2024-10-11 20:47:38.373,0.9393861,1.0037764,0.62488526,0.097339794,0.7717858,0.7728305,0.22492783,0.018213654,0.65751034,0.43295482,0.2866675,0.38045922,0.46626016,-0.22728959,0.52133095,0.3421963,0.26864722,-0.3727736,0.20660761,0.09940764,763.1502,808.68134,824.3956,769.19415,703.91943,-0.215087890625,0.07354736328125,0.97894287109375,-0.19439697265625,11.065673828125,-2.332763671875,1,2.0,1.0,1.0,2.0,10.00
2024-10-11 20:47:38.374,0.9393861,1.0037764,0.62488526,0.097339794,0.7717858,0.7728305,0.22492783,0.018213654,0.65751034,0.43295482,0.2866675,0.38045922,0.46626016,-0.22728959,0.52133095,0.3421963,0.26864722,-0.3727736,0.20660761,0.09940764,762.3443,805.4579,815.12823,759.92676,646.30035,-0.215087890625,0.07354736328125,0.97894287109375,-0.19439697265625,11.065673828125,-2.332763671875,1,2.0,1.0,1.0,2.0,10.00
2024-10-11 20:47:38.375,0.9393861,1.0037764,0.62488526,0.097339794,0.7717858,0.7728305,0.22492783,0.018213654,0.65751034,0.43295482,0.2866675,0.38045922,0.46626016,-0.22728959,0.52133095,0.3421963,0.26864722,-0.3727736,0.20660761,0.09940764,759.5238,802.6374,789.7436,762.74725,778.0586,-0.215087890625,0.07354736328125,0.97894287109375,-0.19439697265625,11.065673828125,-2.332763671875,1,2.0,1.0,1.0,2.0,10.00
2024-10-11 20:47:38.376,0.9393861,1.0037764,0.62488526,0.097339794,0.7717858,0.7728305,0.22492783,0.018213654,0.65751034,0.43295482,0.2866675,0.38045922,0.46626016,-0.22728959,0.52133095,0.3421963,0.26864722,-0.3727736,0.20660761,0.09940764,761.9414,798.60803,786.1172,767.1795,848.5714,-0.215087890625,0.07354736328125,0.97894287109375,-0.19439697265625,11.065673828125,-2.332763671875,1,2.0,1.0,1.0,2.0,10.00
2024-10-11 20:47:38.377,0.9393861,1.0037764,0.62488526,0.097339794,0.7717858,0.7728305,0.22492783,0.018213654,0.65751034,0.43295482,0.2866675,0.38045922,0.46626016,-0.22728959,0.52133095,0.3421963,0.26864722,-0.3727736,0.20660761,0.09940764,769.59705,798.60803,803.0403,765.16486,671.685,-0.215087890625,0.07354736328125,0.97894287109375,-0.19439697265625,11.065673828125,-2.332763671875,1,2.0,1.0,1.0,2.0,10.00
2024-10-11 20:47:38.378,0.9393861,1.0037764,0.62488526,0.097339794,0.7717858,0.7728305,0.22492783,0.018213654,0.65751034,0.43295482,0.2866675,0.38045922,0.46626016,-0.22728959,0.52133095,0.3421963,0.26864722,-0.3727736,0.20660761,0.09940764,772.8205,800.2198,796.5934,772.4176,578.60803,-0.215087890625,0.07354736328125,0.97894287109375,-0.19439697265625,11.065673828125,-2.332763671875,1,2.0,1.0,1.0,2.0,10.00
2024-10-11 20:47:38.413,0.9393861,1.0037764,0.62488526,0.097339794,0.7717858,0.7728305,0.22492783,0.018213654,0.65751034,0.43295482,0.2866675,0.38045922,0.46626016,-0.22728959,0.52133095,0.3421963,0.26864722,-0.3727736,0.20660761,0.09940764,780.87915,796.1905,796.99634,777.25275,660.0,-0.215087890625,0.07354736328125,0.97894287109375,-0.19439697265625,11.065673828125,-2.332763671875,1,2.0,1.0,1.0,2.0,10.00
2024-10-11 20:47:38.414,0.9393861,1.0037764,0.62488526,0.097339794,0.7717858,0.7728305,0.22492783,0.018213654,0.65751034,0.43295482,0.2866675,0.38045922,0.46626016,-0.22728959,0.52133095,0.3421963,0.26864722,-0.3727736,0.20660761,0.09940764,770.80585,794.57874,809.89014,772.01465,729.707,-0.215087890625,0.07354736328125,0.97894287109375,-0.19439697265625,11.065673828125,-2.332763671875,1,2.0,1.0,1.0,2.0,10.00
2024-10-11 20:47:38.415,0.9393861,1.0037764,0.62488526,0.097339794,0.7717858,0.7728305,0.22492783,0.018213654,0.65751034,0.43295482,0.2866675,0.38045922,0.46626016,-0.22728959,0.52133095,0.3421963,0.26864722,-0.3727736,0.20660761,0.09940764,760.32965,794.9817,810.293,766.77655,607.2161,-0.215087890625,0.07354736328125,0.97894287109375,-0.19439697265625,11.065673828125,-2.332763671875,1,2.0,1.0,1.0,2.0,10.00
2024-10-11 20:47:38.415,0.5584259,0.95023274,0.5636897,0.24656795,-0.035734925,0.71326375,0.18445072,0.05612962,0.3295211,0.4282808,0.34312892,0.43868607,0.4552517,-0.23980379,0.53476,0.3502232,0.261244,-0.41697124,0.20388457,0.12087605,767.98535,784.10254,805.05493,772.01465,550.80585,-0.215087890625,0.07354736328125,0.97894287109375,-0.19439697265625,11.065673828125,-2.332763671875,1,1.0,1.0,1.0,1.0,10.00
2024-10-11 20:47:38.422,0.5584259,0.95023274,0.5636897,0.24656795,-0.035734925,0.71326375,0.18445072,0.05612962,0.3295211,0.4282808,0.34312892,0.43868607,0.4552517,-0.23980379,0.53476,0.3502232,0.261244,-0.41697124,0.20388457,0.12087605,767.5824,786.52014,799.011,781.685,786.52014,-0.215087890625,0.07354736328125,0.97894287109375,-0.19439697265625,11.065673828125,-2.332763671875,1,1.0,1.0,1.0,1.0,10.00
2024-10-11 20:47:38.422,0.5584259,0.95023274,0.5636897,0.24656795,-0.035734925,0.71326375,0.18445072,0.05612962,0.3295211,0.4282808,0.34312892,0.43868607,0.4552517,-0.23980379,0.53476,0.3502232,0.261244,-0.41697124,0.20388457,0.12087605,770.80585,807.8755,787.326,779.2674,933.5897,-0.215087890625,0.07354736328125,0.97894287109375,-0.19439697265625,11.065673828125,-2.332763671875,1,1.0,1.0,1.0,1.0,10.00
2024-10-11 20:47:38.423,0.5584259,0.95023274,0.5636897,0.24656795,-0.035734925,0.71326375,0.18445072,0.05612962,0.3295211,0.4282808,0.34312892,0.43868607,0.4552517,-0.23980379,0.53476,0.3502232,0.261244,-0.41697124,0.20388457,0.12087605,786.1172,805.05493,784.5055,781.28204,630.18317,-0.215087890625,0.07354736328125,0.97894287109375,-0.19439697265625,11.065673828125,-2.332763671875,1,1.0,1.0,1.0,1.0,10.00
2024-10-11 20:47:38.424,0.5584259,0.95023274,0.5636897,0.24656795,-0.035734925,0.71326375,0.18445072,0.05612962,0.3295211,0.4282808,0.34312892,0.43868607,0.4552517,-0.23980379,0.53476,0.3502232,0.261244,-0.41697124,0.20388457,0.12087605,791.3553,784.90845,791.75824,787.72894,457.32602,-0.215087890625,0.07354736328125,0.97894287109375,-0.19439697265625,11.065673828125,-2.332763671875,1,1.0,1.0,1.0,1.0,10.00
2024-10-11 20:47:38.424,0.5584259,0.95023274,0.5636897,0.24656795,-0.035734925,0.71326375,0.18445072,0.05612962,0.3295211,0.4282808,0.34312892,0.43868607,0.4552517,-0.23980379,0.53476,0.3502232,0.261244,-0.41697124,0.20388457,0.12087605,786.52014,798.20514,805.8608,794.17584,766.3736,-0.215087890625,0.07354736328125,0.97894287109375,-0.19439697265625,11.065673828125,-2.332763671875,1,1.0,1.0,1.0,1.0,10.00
2024-10-11 20:47:38.425,0.5584259,0.95023274,0.5636897,0.24656795,-0.035734925,0.71326375,0.18445072,0.05612962,0.3295211,0.4282808,0.34312892,0.43868607,0.4552517,-0.23980379,0.53476,0.3502232,0.261244,-0.41697124,0.20388457,0.12087605,793.36993,818.7546,807.0696,800.2198,1096.3737,-0.215087890625,0.07354736328125,0.97894287109375,-0.19439697265625,11.065673828125,-2.332763671875,1,1.0,1.0,1.0,1.0,10.00
2024-10-11 20:47:38.426,0.5584259,0.95023274,0.5636897,0.24656795,-0.035734925,0.71326375,0.18445072,0.05612962,0.3295211,0.4282808,0.34312892,0.43868607,0.4552517,-0.23980379,0.53476,0.3502232,0.261244,-0.41697124,0.20388457,0.12087605,791.3553,815.9341,794.9817,787.326,698.68134,-0.215087890625,0.07354736328125,0.97894287109375,-0.19439697265625,11.065673828125,-2.332763671875,1,1.0,1.0,1.0,1.0,10.00
2024-10-11 20:47:38.426,0.5584259,0.95023274,0.5636897,0.24656795,-0.035734925,0.71326375,0.18445072,0.05612962,0.3295211,0.4282808,0.34312892,0.43868607,0.4552517,-0.23980379,0.53476,0.3502232,0.261244,-0.41697124,0.20388457,0.12087605,783.2967,810.293,809.4872,783.2967,548.3883,-0.215087890625,0.07354736328125,0.97894287109375,-0.19439697265625,11.065673828125,-2.332763671875,1,1.0,1.0,1.0,1.0,10.00
2024-10-11 20:47:38.428,0.5584259,0.95023274,0.5636897,0.24656795,-0.035734925,0.71326375,0.18445072,0.05612962,0.3295211,0.4282808,0.34312892,0.43868607,0.4552517,-0.23980379,0.53476,0.3502232,0.261244,-0.41697124,0.20388457,0.12087605,789.34064,813.1135,807.0696,788.93774,585.8608,-0.23333740234375,0.0758056640625,0.9737548828125,1.757049560546875,9.43572998046875,-0.201873779296875,1,1.0,1.0,1.0,1.0,10.00
2024-10-11 20:47:38.429,0.5584259,0.95023274,0.5636897,0.24656795,-0.035734925,0.71326375,0.18445072,0.05612962,0.3295211,0.4282808,0.34312892,0.43868607,0.4552517,-0.23980379,0.53476,0.3502232,0.261244,-0.41697124,0.20388457,0.12087605,796.5934,809.89014,799.011,790.54944,474.652,-0.23333740234375,0.0758056640625,0.9737548828125,1.757049560546875,9.43572998046875,-0.201873779296875,1,1.0,1.0,1.0,1.0,10.00
