TimeStamp,Delta_TP9,Delta_AF7,Delta_AF8,Delta_TP10,Theta_TP9,Theta_AF7,Theta_AF8,Theta_TP10,Alpha_TP9,Alpha_AF7,Alpha_AF8,Alpha_TP10,Beta_TP9,Beta_AF7,Beta_AF8,Beta_TP10,Gamma_TP9,Gamma_AF7,Gamma_AF8,Gamma_TP10,RAW_TP9,RAW_AF7,RAW_AF8,RAW_TP10,AUX_RIGHT,Accelerometer_X,Accelerometer_Y,Accelerometer_Z,Gyro_X,Gyro_Y,Gyro_Z,HeadBandOn,HSI_TP9,HSI_AF7,HSI_AF8,HSI_TP10,Battery,Elements
2024-10-11 20:42:25.554,0.53125733,1.0637524,0.6741782,0.41294312,0.49722007,0.7142132,0.44120342,0.3807151,0.5095887,0.18066774,0.33643687,0.61465865,0.4786894,0.0322602,0.42682162,0.8962924,0.32389832,-0.43599594,0.21578111,0.3084336,794.17584,785.7143,802.6374,806.6667,776.8498,0.22412109375,0.1258544921875,0.97686767578125,0.25421142578125,0.49346923828125,-5.263671875,1,1.0,1.0,1.0,1.0,10.00
2024-10-11 20:42:25.555,0.53125733,1.0637524,0.6741782,0.41294312,0.49722007,0.7142132,0.44120342,0.3807151,0.5095887,0.18066774,0.33643687,0.61465865,0.4786894,0.0322602,0.42682162,0.8962924,0.32389832,-0.43599594,0.21578111,0.3084336,798.60803,788.1319,800.2198,805.05493,651.13556,0.22412109375,0.1258544921875,0.97686767578125,0.25421142578125,0.49346923828125,-5.263671875,1,1.0,1.0,1.0,1.0,10.00
2024-10-11 20:42:25.556,0.53125733,1.0637524,0.6741782,0.41294312,0.49722007,0.7142132,0.44120342,0.3807151,0.5095887,0.18066774,0.33643687,0.61465865,0.4786894,0.0322602,0.42682162,0.8962924,0.32389832,-0.43599594,0.21578111,0.3084336,796.1905,787.72894,803.8461,802.6374,778.86444,0.22412109375,0.1258544921875,0.97686767578125,0.25421142578125,0.49346923828125,-5.263671875,1,1.0,1.0,1.0,1.0,10.00
2024-10-11 20:42:25.556,0.53125733,1.0637524,0.6741782,0.41294312,0.49722007,0.7142132,0.44120342,0.3807151,0.5095887,0.18066774,0.33643687,0.61465865,0.4786894,0.0322602,0.42682162,0.8962924,0.32389832,-0.43599594,0.21578111,0.3084336,798.20514,785.31134,802.23444,802.23444,855.0183,0.22412109375,0.1258544921875,0.97686767578125,0.25421142578125,0.49346923828125,-5.263671875,1,1.0,1.0,1.0,1.0,10.00
2024-10-11 20:42:25.557,0.53125733,1.0637524,0.6741782,0.41294312,0.49722007,0.7142132,0.44120342,0.3807151,0.5095887,0.18066774,0.33643687,0.61465865,0.4786894,0.0322602,0.42682162,0.8962924,0.32389832,-0.43599594,0.21578111,0.3084336,799.41394,788.5348,803.0403,801.02563,702.3077,0.22412109375,0.1258544921875,0.97686767578125,0.25421142578125,0.49346923828125,-5.263671875,1,1.0,1.0,1.0,1.0,10.00
2024-10-11 20:42:25.557,0.53125733,1.0637524,0.6741782,0.41294312,0.49722007,0.7142132,0.44120342,0.3807151,0.5095887,0.18066774,0.33643687,0.61465865,0.4786894,0.0322602,0.42682162,0.8962924,0.32389832,-0.43599594,0.21578111,0.3084336,803.8461,795.78754,800.2198,796.99634,738.97437,0.22412109375,0.1258544921875,0.97686767578125,0.25421142578125,0.49346923828125,-5.263671875,1,1.0,1.0,1.0,1.0,10.00
2024-10-11 20:42:25.558,0.53125733,1.0637524,0.6741782,0.41294312,0.49722007,0.7142132,0.44120342,0.3807151,0.5095887,0.18066774,0.33643687,0.61465865,0.4786894,0.0322602,0.42682162,0.8962924,0.32389832,-0.43599594,0.21578111,0.3084336,802.6374,799.81683,796.5934,792.96704,971.8681,0.22412109375,0.1258544921875,0.97686767578125,0.25421142578125,0.49346923828125,-5.263671875,1,1.0,1.0,1.0,1.0,10.00
2024-10-11 20:42:25.558,0.53125733,1.0637524,0.6741782,0.41294312,0.49722007,0.7142132,0.44120342,0.3807151,0.5095887,0.18066774,0.33643687,0.61465865,0.4786894,0.0322602,0.42682162,0.8962924,0.32389832,-0.43599594,0.21578111,0.3084336,799.81683,795.38464,797.3993,803.44324,1173.7362,0.22412109375,0.1258544921875,0.97686767578125,0.25421142578125,0.49346923828125,-5.263671875,1,1.0,1.0,1.0,1.0,10.00
2024-10-11 20:42:25.558,0.53125733,1.0637524,0.6741782,0.41294312,0.49722007,0.7142132,0.44120342,0.3807151,0.5095887,0.18066774,0.33643687,0.61465865,0.4786894,0.0322602,0.42682162,0.8962924,0.32389832,-0.43599594,0.21578111,0.3084336,806.26373,796.99634,797.8022,804.65204,806.6667,0.22412109375,0.1258544921875,0.97686767578125,0.25421142578125,0.49346923828125,-5.263671875,1,1.0,1.0,1.0,1.0,10.00
2024-10-11 20:42:25.559,0.53125733,1.0637524,0.6741782,0.41294312,0.49722007,0.7142132,0.44120342,0.3807151,0.5095887,0.18066774,0.33643687,0.61465865,0.4786894,0.0322602,0.42682162,0.8962924,0.32389832,-0.43599594,0.21578111,0.3084336,812.3077,805.4579,797.3993,796.1905,636.63007,0.22412109375,0.1258544921875,0.97686767578125,0.25421142578125,0.49346923828125,-5.263671875,1,1.0,1.0,1.0,1.0,10.00
2024-10-11 20:42:25.559,0.53125733,1.0637524,0.6741782,0.41294312,0.49722007,0.7142132,0.44120342,0.3807151,0.5095887,0.18066774,0.33643687,0.61465865,0.4786894,0.0322602,0.42682162,0.8962924,0.32389832,-0.43599594,0.21578111,0.3084336,809.0842,800.2198,801.8315,795.38464,869.12085,0.22412109375,0.1258544921875,0.97686767578125,0.25421142578125,0.49346923828125,-5.263671875,1,1.0,1.0,1.0,1.0,10.00
2024-10-11 20:42:25.560,0.53125733,1.0637524,0.6741782,0.41294312,0.49722007,0.7142132,0.44120342,0.3807151,0.5095887,0.18066774,0.33643687,0.61465865,0.4786894,0.0322602,0.42682162,0.8962924,0.32389832,-0.43599594,0.21578111,0.3084336,811.50183,795.38464,801.02563,796.99634,842.9304,0.22412109375,0.1258544921875,0.97686767578125,0.25421142578125,0.49346923828125,-5.263671875,1,1.0,1.0,1.0,1.0,10.00
2024-10-11 20:42:25.561,0.53125733,1.0637524,0.6741782,0.41294312,0.49722007,0.7142132,0.44120342,0.3807151,0.5095887,0.18066774,0.33643687,0.61465865,0.4786894,0.0322602,0.42682162,0.8962924,0.32389832,-0.43599594,0.21578111,0.3084336,810.293,796.99634,800.2198,801.8315,657.98535,0.24237060546875,0.135986328125,0.9757080078125,1.79443359375,3.4991455078125,-6.71417236328125,1,1.0,1.0,1.0,1.0,10.00
2024-10-11 20:42:25.561,0.53125733,1.0637524,0.6741782,0.41294312,0.49722007,0.7142132,0.44120342,0.3807151,0.5095887,0.18066774,0.33643687,0.61465865,0.4786894,0.0322602,0.42682162,0.8962924,0.32389832,-0.43599594,0.21578111,0.3084336,810.696,799.011,807.0696,806.26373,695.4579,0.24237060546875,0.135986328125,0.9757080078125,1.79443359375,3.4991455078125,-6.71417236328125,1,1.0,1.0,1.0,1.0,10.00
2024-10-11 20:42:25.562,0.53125733,1.0637524,0.6741782,0.41294312,0.49722007,0.7142132,0.44120342,0.3807151,0.5095887,0.18066774,0.33643687,0.61465865,0.4786894,0.0322602,0.42682162,0.8962924,0.32389832,-0.43599594,0.21578111,0.3084336,809.4872,801.8315,813.91943,805.05493,883.6264,0.24237060546875,0.135986328125,0.9757080078125,1.79443359375,3.4991455078125,-6.71417236328125,1,1.0,1.0,1.0,1.0,10.00
2024-10-11 20:42:25.562,0.53125733,1.0637524,0.6741782,0.41294312,0.49722007,0.7142132,0.44120342,0.3807151,0.5095887,0.18066774,0.33643687,0.61465865,0.4786894,0.0322602,0.42682162,0.8962924,0.32389832,-0.43599594,0.21578111,0.3084336,808.68134,804.65204,811.50183,798.20514,861.8681,0.24237060546875,0.135986328125,0.9757080078125,1.79443359375,3.4991455078125,-6.71417236328125,1,1.0,1.0,1.0,1.0,10.00
2024-10-11 20:42:25.562,0.53125733,1.0637524,0.6741782,0.41294312,0.49722007,0.7142132,0.44120342,0.3807151,0.5095887,0.18066774,0.33643687,0.61465865,0.4786894,0.0322602,0.42682162,0.8962924,0.32389832,-0.43599594,0.21578111,0.3084336,813.5165,802.6374,807.0696,795.38464,786.1172,0.24237060546875,0.135986328125,0.9757080078125,1.79443359375,3.4991455078125,-6.71417236328125,1,1.0,1.0,1.0,1.0,10.00
2024-10-11 20:42:25.563,0.53125733,1.0637524,0.6741782,0.41294312,0.49722007,0.7142132,0.44120342,0.3807151,0.5095887,0.18066774,0.33643687,0.61465865,0.4786894,0.0322602,0.42682162,0.8962924,0.32389832,-0.43599594,0.21578111,0.3084336,811.9048,797.3993,801.02563,796.99634,880.40295,0.24237060546875,0.135986328125,0.9757080078125,1.79443359375,3.4991455078125,-6.71417236328125,1,1.0,1.0,1.0,1.0,10.00
2024-10-11 20:42:25.563,0.53125733,1.0637524,0.6741782,0.41294312,0.49722007,0.7142132,0.44120342,0.3807151,0.5095887,0.18066774,0.33643687,0.61465865,0.4786894,0.0322602,0.42682162,0.8962924,0.32389832,-0.43599594,0.21578111,0.3084336,800.6227,794.57874,795.78754,796.99634,1083.8828,0.24237060546875,0.135986328125,0.9757080078125,1.79443359375,3.4991455078125,-6.71417236328125,1,1.0,1.0,1.0,1.0,10.00
2024-10-11 20:42:25.564,0.53125733,1.0637524,0.6741782,0.41294312,0.49722007,0.7142132,0.44120342,0.3807151,0.5095887,0.18066774,0.33643687,0.61465865,0.4786894,0.0322602,0.42682162,0.8962924,0.32389832,-0.43599594,0.21578111,0.3084336,793.7729,797.8022,800.6227,790.9524,844.94507,0.24237060546875,0.135986328125,0.9757080078125,1.79443359375,3.4991455078125,-6.71417236328125,1,1.0,1.0,1.0,1.0,10.00
2024-10-11 20:42:25.564,0.53125733,1.0637524,0.6741782,0.41294312,0.49722007,0.7142132,0.44120342,0.3807151,0.5095887,0.18066774,0.33643687,0.61465865,0.4786894,0.0322602,0.42682162,0.8962924,0.32389832,-0.43599594,0.21578111,0.3084336,787.72894,794.17584,795.78754,791.75824,667.6557,0.24237060546875,0.135986328125,0.9757080078125,1.79443359375,3.4991455078125,-6.71417236328125,1,1.0,1.0,1.0,1.0,10.00
2024-10-11 20:42:25.565,0.53125733,1.0637524,0.6741782,0.41294312,0.49722007,0.7142132,0.44120342,0.3807151,0.5095887,0.18066774,0.33643687,0.61465865,0.4786894,0.0322602,0.42682162,0.8962924,0.32389832,-0.43599594,0.21578111,0.3084336,793.36993,793.36993,789.34064,799.41394,821.5751,0.24237060546875,0.135986328125,0.9757080078125,1.79443359375,3.4991455078125,-6.71417236328125,1,1.0,1.0,1.0,1.0,10.00
2024-10-11 20:42:25.565,0.53125733,1.0637524,0.6741782,0.41294312,0.49722007,0.7142132,0.44120342,0.3807151,0.5095887,0.18066774,0.33643687,0.61465865,0.4786894,0.0322602,0.42682162,0.8962924,0.32389832,-0.43599594,0.21578111,0.3084336,794.57874,793.36993,795.38464,800.6227,863.8828,0.24237060546875,0.135986328125,0.9757080078125,1.79443359375,3.4991455078125,-6.71417236328125,1,1.0,1.0,1.0,1.0,10.00
2024-10-11 20:42:25.566,0.53125733,1.0637524,0.6741782,0.41294312,0.49722007,0.7142132,0.44120342,0.3807151,0.5095887,0.18066774,0.33643687,0.61465865,0.4786894,0.0322602,0.42682162,0.8962924,0.32389832,-0.43599594,0.21578111,0.3084336,788.1319,789.7436,802.6374,800.2198,651.53845,0.24237060546875,0.135986328125,0.9757080078125,1.79443359375,3.4991455078125,-6.71417236328125,1,2.0,1.0,1.0,2.0,10.00
2024-10-11 20:42:25.601,0.53125733,1.0637524,0.6741782,0.41294312,0.49722007,0.7142132,0.44120342,0.3807151,0.5095887,0.18066774,0.33643687,0.61465865,0.4786894,0.0322602,0.42682162,0.8962924,0.32389832,-0.43599594,0.21578111,0.3084336,791.75824,788.93774,796.5934,807.47253,716.8132,0.2320556640625,0.14111328125,0.978271484375,2.1832275390625,8.50860595703125,-6.68426513671875,1,2.0,1.0,1.0,2.0,10.00
2024-10-11 20:42:25.602,0.53125733,1.0637524,0.6741782,0.41294312,0.49722007,0.7142132,0.44120342,0.3807151,0.5095887,0.18066774,0.33643687,0.61465865,0.4786894,0.0322602,0.42682162,0.8962924,0.32389832,-0.43599594,0.21578111,0.3084336,790.14655,788.1319,792.1612,803.44324,949.304,0.2320556640625,0.14111328125,0.978271484375,2.1832275390625,8.50860595703125,-6.68426513671875,1,2.0,1.0,1.0,2.0,10.00
2024-10-11 20:42:25.602,0.53125733,1.0637524,0.6741782,0.41294312,0.49722007,0.7142132,0.44120342,0.3807151,0.5095887,0.18066774,0.33643687,0.61465865,0.4786894,0.0322602,0.42682162,0.8962924,0.32389832,-0.43599594,0.21578111,0.3084336,794.57874,792.5641,794.9817,798.60803,859.85345,0.2320556640625,0.14111328125,0.978271484375,2.1832275390625,8.50860595703125,-6.68426513671875,1,2.0,1.0,1.0,2.0,10.00
2024-10-11 20:42:25.603,0.53125733,1.0637524,0.6741782,0.41294312,0.49722007,0.7142132,0.44120342,0.3807151,0.5095887,0.18066774,0.33643687,0.61465865,0.4786894,0.0322602,0.42682162,0.8962924,0.32389832,-0.43599594,0.21578111,0.3084336,798.20514,799.011,805.05493,805.05493,718.4249,0.2320556640625,0.14111328125,0.978271484375,2.1832275390625,8.50860595703125,-6.68426513671875,1,2.0,1.0,1.0,2.0,10.00
2024-10-11 20:42:25.604,0.53125733,1.0637524,0.6741782,0.41294312,0.49722007,0.7142132,0.44120342,0.3807151,0.5095887,0.18066774,0.33643687,0.61465865,0.4786894,0.0322602,0.42682162,0.8962924,0.32389832,-0.43599594,0.21578111,0.3084336,793.7729,797.3993,813.91943,805.8608,712.7839,0.2320556640625,0.14111328125,0.978271484375,2.1832275390625,8.50860595703125,-6.68426513671875,1,2.0,1.0,1.0,2.0,10.00
2024-10-11 20:42:25.604,0.53125733,1.0637524,0.6741782,0.41294312,0.49722007,0.7142132,0.44120342,0.3807151,0.5095887,0.18066774,0.33643687,0.61465865,0.4786894,0.0322602,0.42682162,0.8962924,0.32389832,-0.43599594,0.21578111,0.3084336,806.26373,794.57874,811.9048,809.89014,904.17584,0.2320556640625,0.14111328125,0.978271484375,2.1832275390625,8.50860595703125,-6.68426513671875,1,2.0,1.0,1.0,2.0,10.00
2024-10-11 20:42:25.605,0.53125733,1.0637524,0.6741782,0.41294312,0.49722007,0.7142132,0.44120342,0.3807151,0.5095887,0.18066774,0.33643687,0.61465865,0.4786894,0.0322602,0.42682162,0.8962924,0.32389832,-0.43599594,0.21578111,0.3084336,807.0696,794.57874,810.293,815.12823,1331.2821,0.2320556640625,0.14111328125,0.978271484375,2.1832275390625,8.50860595703125,-6.68426513671875,1,2.0,1.0,1.0,2.0,10.00
2024-10-11 20:42:25.605,0.53125733,1.0637524,0.6741782,0.41294312,0.49722007,0.7142132,0.44120342,0.3807151,0.5095887,0.18066774,0.33643687,0.61465865,0.4786894,0.0322602,0.42682162,0.8962924,0.32389832,-0.43599594,0.21578111,0.3084336,794.57874,793.36993,808.68134,807.47253,1056.8865,0.2320556640625,0.14111328125,0.978271484375,2.1832275390625,8.50860595703125,-6.68426513671875,1,2.0,1.0,1.0,2.0,10.00
2024-10-11 20:42:25.606,0.53125733,1.0637524,0.6741782,0.41294312,0.49722007,0.7142132,0.44120342,0.3807151,0.5095887,0.18066774,0.33643687,0.61465865,0.4786894,0.0322602,0.42682162,0.8962924,0.32389832,-0.43599594,0.21578111,0.3084336,790.14655,796.1905,800.6227,792.96704,628.97437,0.2320556640625,0.14111328125,0.978271484375,2.1832275390625,8.50860595703125,-6.68426513671875,1,2.0,1.0,1.0,2.0,10.00
2024-10-11 20:42:25.606,0.53125733,1.0637524,0.6741782,0.41294312,0.49722007,0.7142132,0.44120342,0.3807151,0.5095887,0.18066774,0.33643687,0.61465865,0.4786894,0.0322602,0.42682162,0.8962924,0.32389832,-0.43599594,0.21578111,0.3084336,796.1905,802.23444,801.02563,796.5934,758.315,0.2320556640625,0.14111328125,0.978271484375,2.1832275390625,8.50860595703125,-6.68426513671875,1,2.0,1.0,1.0,2.0,10.00
2024-10-11 20:42:25.607,0.53125733,1.0637524,0.6741782,0.41294312,0.49722007,0.7142132,0.44120342,0.3807151,0.5095887,0.18066774,0.33643687,0.61465865,0.4786894,0.0322602,0.42682162,0.8962924,0.32389832,-0.43599594,0.21578111,0.3084336,803.0403,804.65204,803.0403,803.8461,747.8388,0.2320556640625,0.14111328125,0.978271484375,2.1832275390625,8.50860595703125,-6.68426513671875,1,2.0,1.0,1.0,2.0,10.00
2024-10-11 20:42:25.607,0.53125733,1.0637524,0.6741782,0.41294312,0.49722007,0.7142132,0.44120342,0.3807151,0.5095887,0.18066774,0.33643687,0.61465865,0.4786894,0.0322602,0.42682162,0.8962924,0.32389832,-0.43599594,0.21578111,0.3084336,800.6227,802.6374,799.41394,799.011,654.35895,0.2320556640625,0.14111328125,0.978271484375,2.1832275390625,8.50860595703125,-6.68426513671875,1,2.0,1.0,1.0,2.0,10.00
2024-10-11 20:42:25.704,0.53125733,1.0637524,0.6741782,0.41294312,0.49722007,0.7142132,0.44120342,0.3807151,0.5095887,0.18066774,0.33643687,0.61465865,0.4786894,0.0322602,0.42682162,0.8962924,0.32389832,-0.43599594,0.21578111,0.3084336,806.6667,801.4286,806.26373,801.8315,665.2381,0.2320556640625,0.14111328125,0.978271484375,2.1832275390625,8.50860595703125,-6.68426513671875,1,2.0,1.0,1.0,2.0,10.00
2024-10-11 20:42:25.705,0.53125733,1.0637524,0.6741782,0.41294312,0.49722007,0.7142132,0.44120342,0.3807151,0.5095887,0.18066774,0.33643687,0.61465865,0.4786894,0.0322602,0.42682162,0.8962924,0.32389832,-0.43599594,0.21578111,0.3084336,809.89014,801.4286,804.65204,803.8461,692.6374,0.2320556640625,0.14111328125,0.978271484375,2.1832275390625,8.50860595703125,-6.68426513671875,1,2.0,1.0,1.0,2.0,10.00
2024-10-11 20:42:25.706,0.53125733,1.0637524,0.6741782,0.41294312,0.49722007,0.7142132,0.44120342,0.3807151,0.5095887,0.18066774,0.33643687,0.61465865,0.4786894,0.0322602,0.42682162,0.8962924,0.32389832,-0.43599594,0.21578111,0.3084336,810.696,801.4286,794.17584,805.05493,689.81683,0.2320556640625,0.14111328125,0.978271484375,2.1832275390625,8.50860595703125,-6.68426513671875,1,2.0,1.0,1.0,2.0,10.00
2024-10-11 20:42:25.706,0.53125733,1.0637524,0.6741782,0.41294312,0.49722007,0.7142132,0.44120342,0.3807151,0.5095887,0.18066774,0.33643687,0.61465865,0.4786894,0.0322602,0.42682162,0.8962924,0.32389832,-0.43599594,0.21578111,0.3084336,813.91943,799.81683,791.3553,803.44324,745.0183,0.2320556640625,0.14111328125,0.978271484375,2.1832275390625,8.50860595703125,-6.68426513671875,1,2.0,1.0,1.0,2.0,10.00
2024-10-11 20:42:25.707,0.53125733,1.0637524,0.6741782,0.41294312,0.49722007,0.7142132,0.44120342,0.3807151,0.5095887,0.18066774,0.33643687,0.61465865,0.4786894,0.0322602,0.42682162,0.8962924,0.32389832,-0.43599594,0.21578111,0.3084336,814.7253,796.1905,796.5934,796.99634,785.31134,0.2320556640625,0.14111328125,0.978271484375,2.1832275390625,8.50860595703125,-6.68426513671875,1,2.0,1.0,1.0,2.0,10.00
2024-10-11 20:42:25.707,0.53125733,1.0637524,0.6741782,0.41294312,0.49722007,0.7142132,0.44120342,0.3807151,0.5095887,0.18066774,0.33643687,0.61465865,0.4786894,0.0322602,0.42682162,0.8962924,0.32389832,-0.43599594,0.21578111,0.3084336,808.68134,792.96704,791.75824,806.6667,1020.6227,0.2320556640625,0.14111328125,0.978271484375,2.1832275390625,8.50860595703125,-6.68426513671875,1,2.0,1.0,1.0,2.0,10.00
2024-10-11 20:42:25.708,0.53125733,1.0637524,0.6741782,0.41294312,0.49722007,0.7142132,0.44120342,0.3807151,0.5095887,0.18066774,0.33643687,0.61465865,0.4786894,0.0322602,0.42682162,0.8962924,0.32389832,-0.43599594,0.21578111,0.3084336,805.05493,793.7729,791.75824,808.2784,951.7216,0.2320556640625,0.14111328125,0.978271484375,2.1832275390625,8.50860595703125,-6.68426513671875,1,2.0,1.0,1.0,2.0,10.00
2024-10-11 20:42:25.708,0.53125733,1.0637524,0.6741782,0.41294312,0.49722007,0.7142132,0.44120342,0.3807151,0.5095887,0.18066774,0.33643687,0.61465865,0.4786894,0.0322602,0.42682162,0.8962924,0.32389832,-0.43599594,0.21578111,0.3084336,806.26373,797.8022,803.0403,800.2198,661.2088,0.2320556640625,0.14111328125,0.978271484375,2.1832275390625,8.50860595703125,-6.68426513671875,1,2.0,1.0,1.0,2.0,10.00
2024-10-11 20:42:25.709,0.53125733,1.0637524,0.6741782,0.41294312,0.49722007,0.7142132,0.44120342,0.3807151,0.5095887,0.18066774,0.33643687,0.61465865,0.4786894,0.0322602,0.42682162,0.8962924,0.32389832,-0.43599594,0.21578111,0.3084336,799.81683,798.20514,809.89014,803.0403,721.2454,0.2320556640625,0.14111328125,0.978271484375,2.1832275390625,8.50860595703125,-6.68426513671875,1,2.0,1.0,1.0,2.0,10.00
2024-10-11 20:42:25.709,0.53125733,1.0637524,0.6741782,0.41294312,0.49722007,0.7142132,0.44120342,0.3807151,0.5095887,0.18066774,0.33643687,0.61465865,0.4786894,0.0322602,0.42682162,0.8962924,0.32389832,-0.43599594,0.21578111,0.3084336,795.78754,788.93774,803.0403,819.5604,1113.2968,0.2320556640625,0.14111328125,0.978271484375,2.1832275390625,8.50860595703125,-6.68426513671875,1,2.0,1.0,1.0,2.0,10.00
2024-10-11 20:42:25.710,0.53125733,1.0637524,0.6741782,0.41294312,0.49722007,0.7142132,0.44120342,0.3807151,0.5095887,0.18066774,0.33643687,0.61465865,0.4786894,0.0322602,0.42682162,0.8962924,0.32389832,-0.43599594,0.21578111,0.3084336,805.8608,792.1612,797.3993,823.5897,950.9158,0.2320556640625,0.14111328125,0.978271484375,2.1832275390625,8.50860595703125,-6.68426513671875,1,2.0,1.0,1.0,2.0,10.00
2024-10-11 20:42:25.710,0.53125733,1.0637524,0.6741782,0.41294312,0.49722007,0.7142132,0.44120342,0.3807151,0.5095887,0.18066774,0.33643687,0.61465865,0.4786894,0.0322602,0.42682162,0.8962924,0.32389832,-0.43599594,0.21578111,0.3084336,807.47253,799.011,797.3993,809.89014,686.1905,0.2320556640625,0.14111328125,0.978271484375,2.1832275390625,8.50860595703125,-6.68426513671875,1,2.0,1.0,1.0,2.0,10.00
2024-10-11 20:42:25.711,0.53125733,1.0637524,0.6741782,0.41294312,0.49722007,0.7142132,0.44120342,0.3807151,0.5095887,0.18066774,0.33643687,0.61465865,0.4786894,0.0322602,0.42682162,0.8962924,0.32389832,-0.43599594,0.21578111,0.3084336,796.5934,794.57874,794.57874,802.23444,713.5897,0.2086181640625,0.146240234375,0.97540283203125,1.951446533203125,12.6507568359375,-6.08612060546875,1,2.0,1.0,1.0,2.0,10.00
2024-10-11 20:42:25.711,0.53125733,1.0853035,0.6741782,0.41294312,0.49722007,0.74304074,0.44120342,0.3807151,0.5095887,0.18066774,0.33643687,0.61465865,0.4786894,0.04899574,0.42682162,0.8962924,0.32389832,-0.42770708,0.21578111,0.3084336,800.6227,793.36993,797.3993,805.4579,700.696,0.2086181640625,0.146240234375,0.97540283203125,1.951446533203125,12.6507568359375,-6.08612060546875,1,2.0,1.0,1.0,2.0,10.00
2024-10-11 20:42:25.715,0.53125733,1.0853035,0.6741782,0.41294312,0.49722007,0.74304074,0.44120342,0.3807151,0.5095887,0.18066774,0.33643687,0.61465865,0.4786894,0.04899574,0.42682162,0.8962924,0.32389832,-0.42770708,0.21578111,0.3084336,813.5165,795.78754,797.3993,808.2784,664.0293,0.2086181640625,0.146240234375,0.97540283203125,1.951446533203125,12.6507568359375,-6.08612060546875,1,2.0,1.0,1.0,2.0,10.00
2024-10-11 20:42:25.716,0.53125733,1.0853035,0.6741782,0.41294312,0.49722007,0.74304074,0.44120342,0.3807151,0.5095887,0.18066774,0.33643687,0.61465865,0.4786894,0.04899574,0.42682162,0.8962924,0.32389832,-0.42770708,0.21578111,0.3084336,803.44324,800.2198,796.99634,807.8755,667.25275,0.2086181640625,0.146240234375,0.97540283203125,1.951446533203125,12.6507568359375,-6.08612060546875,1,2.0,1.0,1.0,2.0,10.00
2024-10-11 20:42:25.716,0.53125733,1.0853035,0.6741782,0.41294312,0.49722007,0.74304074,0.44120342,0.3807151,0.5095887,0.18066774,0.33643687,0.61465865,0.4786894,0.04899574,0.42682162,0.8962924,0.32389832,-0.42770708,0.21578111,0.3084336,803.0403,799.81683,805.4579,811.0989,780.07324,0.2086181640625,0.146240234375,0.97540283203125,1.951446533203125,12.6507568359375,-6.08612060546875,1,2.0,1.0,1.0,2.0,10.00
2024-10-11 20:42:25.717,0.53125733,1.0853035,0.6741782,0.41294312,0.49722007,0.74304074,0.44120342,0.3807151,0.5095887,0.18066774,0.33643687,0.61465865,0.4786894,0.04899574,0.42682162,0.8962924,0.32389832,-0.42770708,0.21578111,0.3084336,811.9048,795.38464,809.0842,812.71063,822.381,0.2086181640625,0.146240234375,0.97540283203125,1.951446533203125,12.6507568359375,-6.08612060546875,1,2.0,1.0,1.0,2.0,10.00
2024-10-11 20:42:25.718,0.53125733,1.0853035,0.6741782,0.41294312,0.49722007,0.74304074,0.44120342,0.3807151,0.5095887,0.18066774,0.33643687,0.61465865,0.4786894,0.04899574,0.42682162,0.8962924,0.32389832,-0.42770708,0.21578111,0.3084336,815.5311,798.60803,806.26373,819.5604,784.5055,0.2086181640625,0.146240234375,0.97540283203125,1.951446533203125,12.6507568359375,-6.08612060546875,1,2.0,1.0,1.0,2.0,10.00
2024-10-11 20:42:25.718,0.53125733,1.0853035,0.6741782,0.41294312,0.49722007,0.74304074,0.44120342,0.3807151,0.5095887,0.18066774,0.33643687,0.61465865,0.4786894,0.04899574,0.42682162,0.8962924,0.32389832,-0.42770708,0.21578111,0.3084336,816.7399,802.6374,803.8461,820.7692,789.7436,0.2086181640625,0.146240234375,0.97540283203125,1.951446533203125,12.6507568359375,-6.08612060546875,1,2.0,1.0,1.0,2.0,10.00
2024-10-11 20:42:25.719,0.53125733,1.0853035,0.6741782,0.41294312,0.49722007,0.74304074,0.44120342,0.3807151,0.5095887,0.18066774,0.33643687,0.61465865,0.4786894,0.04899574,0.42682162,0.8962924,0.32389832,-0.42770708,0.21578111,0.3084336,813.1135,803.0403,805.05493,814.3223,926.337,0.2086181640625,0.146240234375,0.97540283203125,1.951446533203125,12.6507568359375,-6.08612060546875,1,2.0,1.0,1.0,2.0,10.00
2024-10-11 20:42:25.720,0.53125733,1.0853035,0.6741782,0.41294312,0.49722007,0.74304074,0.44120342,0.3807151,0.5095887,0.18066774,0.33643687,0.61465865,0.4786894,0.04899574,0.42682162,0.8962924,0.32389832,-0.42770708,0.21578111,0.3084336,810.696,799.011,804.65204,808.68134,849.3773,0.2086181640625,0.146240234375,0.97540283203125,1.951446533203125,12.6507568359375,-6.08612060546875,1,2.0,1.0,1.0,2.0,10.00
2024-10-11 20:42:25.720,0.53125733,1.0853035,0.6741782,0.41294312,0.49722007,0.74304074,0.44120342,0.3807151,0.5095887,0.18066774,0.33643687,0.61465865,0.4786894,0.04899574,0.42682162,0.8962924,0.32389832,-0.42770708,0.21578111,0.3084336,813.91943,797.3993,800.6227,804.2491,653.5531,0.2086181640625,0.146240234375,0.97540283203125,1.951446533203125,12.6507568359375,-6.08612060546875,1,2.0,1.0,1.0,2.0,10.00
2024-10-11 20:42:25.721,0.53125733,1.0853035,0.6741782,0.41294312,0.49722007,0.74304074,0.44120342,0.3807151,0.5095887,0.18066774,0.33643687,0.61465865,0.4786894,0.04899574,0.42682162,0.8962924,0.32389832,-0.42770708,0.21578111,0.3084336,814.3223,800.6227,801.8315,800.2198,732.52747,0.2086181640625,0.146240234375,0.97540283203125,1.951446533203125,12.6507568359375,-6.08612060546875,1,2.0,1.0,1.0,2.0,10.00
2024-10-11 20:42:25.743,0.53125733,1.0853035,0.6741782,0.41294312,0.49722007,0.74304074,0.44120342,0.3807151,0.5095887,0.18066774,0.33643687,0.61465865,0.4786894,0.04899574,0.42682162,0.8962924,0.32389832,-0.42770708,0.21578111,0.3084336,812.71063,792.1612,806.6667,804.2491,1005.31134,0.19354248046875,0.151123046875,0.98052978515625,1.966400146484375,13.98162841796875,-5.061798095703125,1,2.0,1.0,1.0,2.0,10.00
2024-10-11 20:42:25.744,0.53125733,1.0853035,0.6741782,0.41294312,0.49722007,0.74304074,0.44120342,0.3807151,0.5095887,0.18066774,0.33643687,0.61465865,0.4786894,0.04899574,0.42682162,0.8962924,0.32389832,-0.42770708,0.21578111,0.3084336,801.8315,791.3553,807.0696,799.81683,890.4762,0.19354248046875,0.151123046875,0.98052978515625,1.966400146484375,13.98162841796875,-5.061798095703125,1,2.0,1.0,1.0,2.0,10.00
2024-10-11 20:42:25.744,0.53125733,1.0853035,0.6741782,0.41294312,0.49722007,0.74304074,0.44120342,0.3807151,0.5095887,0.18066774,0.33643687,0.61465865,0.4786894,0.04899574,0.42682162,0.8962924,0.32389832,-0.42770708,0.21578111,0.3084336,797.3993,796.5934,807.0696,795.78754,631.79486,0.19354248046875,0.151123046875,0.98052978515625,1.966400146484375,13.98162841796875,-5.061798095703125,1,2.0,1.0,1.0,2.0,10.00
2024-10-11 20:42:25.745,0.53125733,1.0853035,0.6741782,0.41294312,0.49722007,0.74304074,0.44120342,0.3807151,0.5095887,0.18066774,0.33643687,0.61465865,0.4786894,0.04899574,0.42682162,0.8962924,0.32389832,-0.42770708,0.21578111,0.3084336,798.20514,795.78754,801.4286,797.8022,686.5934,0.19354248046875,0.151123046875,0.98052978515625,1.966400146484375,13.98162841796875,-5.061798095703125,1,2.0,1.0,1.0,2.0,10.00
2024-10-11 20:42:25.745,0.53125733,1.0853035,0.6741782,0.41294312,0.49722007,0.74304074,0.44120342,0.3807151,0.5095887,0.18066774,0.33643687,0.61465865,0.4786894,0.04899574,0.42682162,0.8962924,0.32389832,-0.42770708,0.21578111,0.3084336,792.1612,789.34064,801.02563,801.8315,992.4176,0.19354248046875,0.151123046875,0.98052978515625,1.966400146484375,13.98162841796875,-5.061798095703125,1,2.0,1.0,1.0,2.0,10.00
2024-10-11 20:42:25.746,0.53125733,1.0853035,0.6741782,0.41294312,0.49722007,0.74304074,0.44120342,0.3807151,0.5095887,0.18066774,0.33643687,0.61465865,0.4786894,0.04899574,0.42682162,0.8962924,0.32389832,-0.42770708,0.21578111,0.3084336,786.9231,786.52014,803.0403,801.02563,963.8095,0.19354248046875,0.151123046875,0.98052978515625,1.966400146484375,13.98162841796875,-5.061798095703125,1,2.0,1.0,1.0,2.0,10.00
2024-10-11 20:42:25.747,0.53125733,1.0853035,0.6741782,0.41294312,0.49722007,0.74304074,0.44120342,0.3807151,0.5095887,0.18066774,0.33643687,0.61465865,0.4786894,0.04899574,0.42682162,0.8962924,0.32389832,-0.42770708,0.21578111,0.3084336,776.04395,786.9231,798.20514,795.38464,885.2381,0.19354248046875,0.151123046875,0.98052978515625,1.966400146484375,13.98162841796875,-5.061798095703125,1,2.0,1.0,1.0,2.0,10.00
2024-10-11 20:42:25.747,0.53125733,1.0853035,0.6741782,0.41294312,0.49722007,0.74304074,0.44120342,0.3807151,0.5095887,0.18066774,0.33643687,0.61465865,0.4786894,0.04899574,0.42682162,0.8962924,0.32389832,-0.42770708,0.21578111,0.3084336,778.46155,785.7143,798.60803,798.20514,858.6447,0.19354248046875,0.151123046875,0.98052978515625,1.966400146484375,13.98162841796875,-5.061798095703125,1,2.0,1.0,1.0,2.0,10.00
2024-10-11 20:42:25.748,0.53125733,1.0853035,0.6741782,0.41294312,0.49722007,0.74304074,0.44120342,0.3807151,0.5095887,0.18066774,0.33643687,0.61465865,0.4786894,0.04899574,0.42682162,0.8962924,0.32389832,-0.42770708,0.21578111,0.3084336,792.1612,788.93774,802.23444,801.8315,899.34064,0.19354248046875,0.151123046875,0.98052978515625,1.966400146484375,13.98162841796875,-5.061798095703125,1,2.0,1.0,1.0,2.0,10.00
2024-10-11 20:42:25.748,0.53125733,1.0853035,0.6741782,0.41294312,0.49722007,0.74304074,0.44120342,0.3807151,0.5095887,0.18066774,0.33643687,0.61465865,0.4786894,0.04899574,0.42682162,0.8962924,0.32389832,-0.42770708,0.21578111,0.3084336,793.36993,791.3553,801.8315,802.6374,985.16486,0.19354248046875,0.151123046875,0.98052978515625,1.966400146484375,13.98162841796875,-5.061798095703125,1,2.0,1.0,1.0,2.0,10.00
2024-10-11 20:42:25.749,0.53125733,1.0853035,0.6741782,0.41294312,0.49722007,0.74304074,0.44120342,0.3807151,0.5095887,0.18066774,0.33643687,0.61465865,0.4786894,0.04899574,0.42682162,0.8962924,0.32389832,-0.42770708,0.21578111,0.3084336,792.1612,790.14655,798.60803,798.20514,666.8498,0.19354248046875,0.151123046875,0.98052978515625,1.966400146484375,13.98162841796875,-5.061798095703125,1,2.0,1.0,1.0,2.0,10.00
2024-10-11 20:42:25.749,0.53125733,1.0853035,0.6741782,0.41294312,0.49722007,0.74304074,0.44120342,0.3807151,0.5095887,0.18066774,0.33643687,0.61465865,0.4786894,0.04899574,0.42682162,0.8962924,0.32389832,-0.42770708,0.21578111,0.3084336,791.75824,788.5348,797.8022,797.8022,709.9634,0.19354248046875,0.151123046875,0.98052978515625,1.966400146484375,13.98162841796875,-5.061798095703125,1,2.0,1.0,1.0,2.0,10.00
2024-10-11 20:42:25.776,0.53125733,1.0853035,0.6741782,0.41294312,0.49722007,0.74304074,0.44120342,0.3807151,0.5095887,0.18066774,0.33643687,0.61465865,0.4786894,0.04899574,0.42682162,0.8962924,0.32389832,-0.42770708,0.21578111,0.3084336,794.17584,789.7436,799.011,808.2784,1110.4762,0.16131591796875,0.1514892578125,0.98004150390625,0.76263427734375,15.125579833984375,-4.08233642578125,1,2.0,1.0,1.0,2.0,10.00
2024-10-11 20:42:25.777,0.53125733,1.0853035,0.6741782,0.41294312,0.49722007,0.74304074,0.44120342,0.3807151,0.5095887,0.18066774,0.33643687,0.61465865,0.4786894,0.04899574,0.42682162,0.8962924,0.32389832,-0.42770708,0.21578111,0.3084336,790.9524,790.54944,798.20514,801.8315,888.86444,0.16131591796875,0.1514892578125,0.98004150390625,0.76263427734375,15.125579833984375,-4.08233642578125,1,2.0,1.0,1.0,2.0,10.00
2024-10-11 20:42:25.777,0.53125733,1.0853035,0.6741782,0.41294312,0.49722007,0.74304074,0.44120342,0.3807151,0.5095887,0.18066774,0.33643687,0.61465865,0.4786894,0.04899574,0.42682162,0.8962924,0.32389832,-0.42770708,0.21578111,0.3084336,784.90845,792.5641,790.54944,788.1319,568.93774,0.16131591796875,0.1514892578125,0.98004150390625,0.76263427734375,15.125579833984375,-4.08233642578125,1,2.0,1.0,1.0,2.0,10.00
2024-10-11 20:42:25.778,0.53125733,1.1564162,0.6741782,0.41294312,0.49722007,0.7576567,0.44120342,0.3807151,0.5095887,0.23882875,0.33643687,0.61465865,0.4786894,0.04134282,0.42682162,0.8962924,0.32389832,-0.39673552,0.21578111,0.3084336,799.81683,789.34064,794.57874,806.6667,692.6374,0.16131591796875,0.1514892578125,0.98004150390625,0.76263427734375,15.125579833984375,-4.08233642578125,1,2.0,1.0,1.0,2.0,10.00
2024-10-11 20:42:25.783,0.53125733,1.1564162,0.6741782,0.41294312,0.49722007,0.7576567,0.44120342,0.3807151,0.5095887,0.23882875,0.33643687,0.61465865,0.4786894,0.04134282,0.42682162,0.8962924,0.32389832,-0.39673552,0.21578111,0.3084336,820.3663,789.7436,801.8315,836.8865,1123.37,0.16131591796875,0.1514892578125,0.98004150390625,0.76263427734375,15.125579833984375,-4.08233642578125,1,2.0,1.0,1.0,2.0,10.00
2024-10-11 20:42:25.784,0.53125733,1.1564162,0.6741782,0.41294312,0.49722007,0.7576567,0.44120342,0.3807151,0.5095887,0.23882875,0.33643687,0.61465865,0.4786894,0.04134282,0.42682162,0.8962924,0.32389832,-0.39673552,0.21578111,0.3084336,808.2784,799.41394,807.47253,812.71063,1013.7729,0.16131591796875,0.1514892578125,0.98004150390625,0.76263427734375,15.125579833984375,-4.08233642578125,1,2.0,1.0,1.0,2.0,10.00
2024-10-11 20:42:25.785,0.53125733,1.1564162,0.6741782,0.41294312,0.49722007,0.7576567,0.44120342,0.3807151,0.5095887,0.23882875,0.33643687,0.61465865,0.4786894,0.04134282,0.42682162,0.8962924,0.32389832,-0.39673552,0.21578111,0.3084336,796.99634,805.8608,805.05493,779.2674,721.2454,0.16131591796875,0.1514892578125,0.98004150390625,0.76263427734375,15.125579833984375,-4.08233642578125,1,2.0,1.0,1.0,2.0,10.00
2024-10-11 20:42:25.785,0.53125733,1.1564162,0.6741782,0.41294312,0.49722007,0.7576567,0.44120342,0.3807151,0.5095887,0.23882875,0.33643687,0.61465865,0.4786894,0.04134282,0.42682162,0.8962924,0.32389832,-0.39673552,0.21578111,0.3084336,805.4579,803.8461,803.8461,796.1905,829.2308,0.16131591796875,0.1514892578125,0.98004150390625,0.76263427734375,15.125579833984375,-4.08233642578125,1,2.0,1.0,1.0,2.0,10.00
2024-10-11 20:42:25.786,0.53125733,1.1564162,0.6741782,0.41294312,0.49722007,0.7576567,0.44120342,0.3807151,0.5095887,0.23882875,0.33643687,0.61465865,0.4786894,0.04134282,0.42682162,0.8962924,0.32389832,-0.39673552,0.21578111,0.3084336,796.99634,805.8608,800.2198,795.38464,979.92676,0.16131591796875,0.1514892578125,0.98004150390625,0.76263427734375,15.125579833984375,-4.08233642578125,1,2.0,1.0,1.0,2.0,10.00
2024-10-11 20:42:25.787,0.53125733,1.1564162,0.6741782,0.41294312,0.49722007,0.7576567,0.44120342,0.3807151,0.5095887,0.23882875,0.33643687,0.61465865,0.4786894,0.04134282,0.42682162,0.8962924,0.32389832,-0.39673552,0.21578111,0.3084336,790.9524,801.4286,801.02563,782.8938,772.4176,0.16131591796875,0.1514892578125,0.98004150390625,0.76263427734375,15.125579833984375,-4.08233642578125,1,2.0,1.0,1.0,2.0,10.00
2024-10-11 20:42:25.788,0.53125733,1.1564162,0.6741782,0.41294312,0.49722007,0.7576567,0.44120342,0.3807151,0.5095887,0.23882875,0.33643687,0.61465865,0.4786894,0.04134282,0.42682162,0.8962924,0.32389832,-0.39673552,0.21578111,0.3084336,790.9524,798.60803,808.2784,789.7436,674.5055,0.16131591796875,0.1514892578125,0.98004150390625,0.76263427734375,15.125579833984375,-4.08233642578125,1,2.0,1.0,1.0,2.0,10.00
2024-10-11 20:42:25.789,0.53125733,1.1564162,0.6741782,0.41294312,0.49722007,0.7576567,0.44120342,0.3807151,0.5095887,0.23882875,0.33643687,0.61465865,0.4786894,0.04134282,0.42682162,0.8962924,0.32389832,-0.39673552,0.21578111,0.3084336,786.9231,806.6667,801.8315,786.52014,837.28937,0.16131591796875,0.1514892578125,0.98004150390625,0.76263427734375,15.125579833984375,-4.08233642578125,1,2.0,1.0,1.0,2.0,10.00
2024-10-11 20:42:25.863,0.53125733,1.1564162,0.6741782,0.41294312,0.49722007,0.7576567,0.44120342,0.3807151,0.5095887,0.23882875,0.33643687,0.61465865,0.4786894,0.04134282,0.42682162,0.8962924,0.32389832,-0.39673552,0.21578111,0.3084336,778.0586,802.6374,795.38464,773.22345,850.989,0.12823486328125,0.1456298828125,0.98443603515625,0.22430419921875,15.7611083984375,-3.476715087890625,1,2.0,1.0,1.0,2.0,10.00
2024-10-11 20:42:25.864,0.53125733,1.1564162,0.6741782,0.41294312,0.49722007,0.7576567,0.44120342,0.3807151,0.5095887,0.23882875,0.33643687,0.61465865,0.4786894,0.04134282,0.42682162,0.8962924,0.32389832,-0.39673552,0.21578111,0.3084336,778.86444,801.4286,795.38464,777.25275,673.2967,0.12823486328125,0.1456298828125,0.98443603515625,0.22430419921875,15.7611083984375,-3.476715087890625,1,2.0,1.0,1.0,2.0,10.00
2024-10-11 20:42:25.865,0.53125733,1.1564162,0.6741782,0.41294312,0.49722007,0.7576567,0.44120342,0.3807151,0.5095887,0.23882875,0.33643687,0.61465865,0.4786894,0.04134282,0.42682162,0.8962924,0.32389832,-0.39673552,0.21578111,0.3084336,780.4762,807.8755,790.14655,786.1172,619.304,0.12823486328125,0.1456298828125,0.98443603515625,0.22430419921875,15.7611083984375,-3.476715087890625,1,2.0,1.0,1.0,2.0,10.00
2024-10-11 20:42:25.866,0.53125733,1.1564162,0.6741782,0.41294312,0.49722007,0.7576567,0.44120342,0.3807151,0.5095887,0.23882875,0.33643687,0.61465865,0.4786894,0.04134282,0.42682162,0.8962924,0.32389832,-0.39673552,0.21578111,0.3084336,772.01465,804.2491,793.36993,784.90845,748.6447,0.12823486328125,0.1456298828125,0.98443603515625,0.22430419921875,15.7611083984375,-3.476715087890625,1,2.0,1.0,1.0,2.0,10.00
2024-10-11 20:42:25.866,0.53125733,1.1564162,0.6741782,0.41294312,0.49722007,0.7576567,0.44120342,0.3807151,0.5095887,0.23882875,0.33643687,0.61465865,0.4786894,0.04134282,0.42682162,0.8962924,0.32389832,-0.39673552,0.21578111,0.3084336,759.5238,805.4579,792.5641,778.86444,623.3333,0.12823486328125,0.1456298828125,0.98443603515625,0.22430419921875,15.7611083984375,-3.476715087890625,1,2.0,1.0,1.0,2.0,10.00
2024-10-11 20:42:25.867,0.53125733,1.1564162,0.6741782,0.41294312,0.49722007,0.7576567,0.44120342,0.3807151,0.5095887,0.23882875,0.33643687,0.61465865,0.4786894,0.04134282,0.42682162,0.8962924,0.32389832,-0.39673552,0.21578111,0.3084336,759.5238,804.65204,786.1172,774.83514,492.78387,0.12823486328125,0.1456298828125,0.98443603515625,0.22430419921875,15.7611083984375,-3.476715087890625,1,2.0,1.0,1.0,2.0,10.00
2024-10-11 20:42:25.868,0.53125733,1.1564162,0.6741782,0.41294312,0.49722007,0.7576567,0.44120342,0.3807151,0.5095887,0.23882875,0.33643687,0.61465865,0.4786894,0.04134282,0.42682162,0.8962924,0.32389832,-0.39673552,0.21578111,0.3084336,757.1062,799.41394,783.69965,768.7912,713.5897,0.12823486328125,0.1456298828125,0.98443603515625,0.22430419921875,15.7611083984375,-3.476715087890625,1,2.0,1.0,1.0,2.0,10.00
2024-10-11 20:42:25.869,0.53125733,1.1564162,0.6741782,0.41294312,0.49722007,0.7576567,0.44120342,0.3807151,0.5095887,0.23882875,0.33643687,0.61465865,0.4786894,0.04134282,0.42682162,0.8962924,0.32389832,-0.39673552,0.21578111,0.3084336,755.09155,797.8022,783.2967,768.3883,1016.1905,0.12823486328125,0.1456298828125,0.98443603515625,0.22430419921875,15.7611083984375,-3.476715087890625,1,2.0,1.0,1.0,2.0,10.00
2024-10-11 20:42:25.870,0.53125733,1.1564162,0.6741782,0.41294312,0.49722007,0.7576567,0.44120342,0.3807151,0.5095887,0.23882875,0.33643687,0.61465865,0.4786894,0.04134282,0.42682162,0.8962924,0.32389832,-0.39673552,0.21578111,0.3084336,756.7033,801.02563,782.8938,763.1502,789.34064,0.12823486328125,0.1456298828125,0.98443603515625,0.22430419921875,15.7611083984375,-3.476715087890625,1,2.0,1.0,1.0,2.0,10.00
2024-10-11 20:42:25.871,0.53125733,1.1564162,0.6741782,0.41294312,0.49722007,0.7576567,0.44120342,0.3807151,0.5095887,0.23882875,0.33643687,0.61465865,0.4786894,0.04134282,0.42682162,0.8962924,0.32389832,-0.39673552,0.21578111,0.3084336,754.2857,796.99634,778.46155,757.9121,535.89746,0.12823486328125,0.1456298828125,0.98443603515625,0.22430419921875,15.7611083984375,-3.476715087890625,1,2.0,1.0,1.0,2.0,10.00
2024-10-11 20:42:25.871,0.53125733,1.1564162,0.6741782,0.41294312,0.49722007,0.7576567,0.44120342,0.3807151,0.5095887,0.23882875,0.33643687,0.61465865,0.4786894,0.04134282,0.42682162,0.8962924,0.32389832,-0.39673552,0.21578111,0.3084336,764.35895,793.36993,779.67035,758.71796,610.4396,0.12823486328125,0.1456298828125,0.98443603515625,0.22430419921875,15.7611083984375,-3.476715087890625,1,2.0,1.0,1.0,2.0,10.00
2024-10-11 20:42:25.872,0.53125733,1.1564162,0.6741782,0.41294312,0.49722007,0.7576567,0.44120342,0.3807151,0.5095887,0.23882875,0.33643687,0.61465865,0.4786894,0.04134282,0.42682162,0.8962924,0.32389832,-0.39673552,0.21578111,0.3084336,776.8498,802.23444,785.7143,764.35895,563.2967,0.12823486328125,0.1456298828125,0.98443603515625,0.22430419921875,15.7611083984375,-3.476715087890625,1,2.0,1.0,1.0,2.0,10.00
2024-10-11 20:42:25.903,0.53125733,1.1564162,0.6741782,0.41294312,0.49722007,0.7576567,0.44120342,0.3807151,0.5095887,0.23882875,0.33643687,0.61465865,0.4786894,0.04134282,0.42682162,0.8962924,0.32389832,-0.39673552,0.21578111,0.3084336,765.16486,802.6374,787.72894,763.1502,465.3846,0.12823486328125,0.1456298828125,0.98443603515625,0.22430419921875,15.7611083984375,-3.476715087890625,1,2.0,1.0,1.0,2.0,10.00
2024-10-11 20:42:25.904,0.53125733,1.1564162,0.6741782,0.41294312,0.49722007,0.7576567,0.44120342,0.3807151,0.5095887,0.23882875,0.33643687,0.61465865,0.4786894,0.04134282,0.42682162,0.8962924,0.32389832,-0.39673552,0.21578111,0.3084336,755.89746,801.4286,792.1612,759.5238,634.61536,0.12823486328125,0.1456298828125,0.98443603515625,0.22430419921875,15.7611083984375,-3.476715087890625,1,2.0,1.0,1.0,2.0,10.00
2024-10-11 20:42:25.905,0.53125733,1.1564162,0.6741782,0.41294312,0.49722007,0.7576567,0.44120342,0.3807151,0.5095887,0.23882875,0.33643687,0.61465865,0.4786894,0.04134282,0.42682162,0.8962924,0.32389832,-0.39673552,0.21578111,0.3084336,758.315,802.23444,785.7143,762.74725,922.3077,0.12823486328125,0.1456298828125,0.98443603515625,0.22430419921875,15.7611083984375,-3.476715087890625,1,2.0,1.0,1.0,2.0,10.00
2024-10-11 20:42:25.906,0.53125733,1.1564162,0.6741782,0.41294312,0.49722007,0.7576567,0.44120342,0.3807151,0.5095887,0.23882875,0.33643687,0.61465865,0.4786894,0.04134282,0.42682162,0.8962924,0.32389832,-0.39673552,0.21578111,0.3084336,765.16486,802.6374,777.25275,763.1502,866.7033,0.12823486328125,0.1456298828125,0.98443603515625,0.22430419921875,15.7611083984375,-3.476715087890625,1,2.0,1.0,1.0,2.0,10.00
2024-10-11 20:42:25.907,0.53125733,1.1564162,0.6741782,0.41294312,0.49722007,0.7576567,0.44120342,0.3807151,0.5095887,0.23882875,0.33643687,0.61465865,0.4786894,0.04134282,0.42682162,0.8962924,0.32389832,-0.39673552,0.21578111,0.3084336,765.9707,800.2198,780.87915,757.1062,701.9048,0.12823486328125,0.1456298828125,0.98443603515625,0.22430419921875,15.7611083984375,-3.476715087890625,1,2.0,1.0,1.0,2.0,10.00
2024-10-11 20:42:25.908,0.53125733,1.2092171,0.63302076,0.41294312,0.49722007,0.7688824,0.43024173,0.3807151,0.5095887,0.259472,0.33643687,0.61465865,0.4786894,0.022020996,0.41636655,0.8962924,0.32389832,-0.38410282,0.24477264,0.3084336,770.80585,796.1905,782.8938,759.12085,849.7802,0.12823486328125,0.1456298828125,0.98443603515625,0.22430419921875,15.7611083984375,-3.476715087890625,1,2.0,1.0,1.0,2.0,10.00
2024-10-11 20:42:25.913,0.53125733,1.2092171,0.63302076,0.41294312,0.49722007,0.7688824,0.43024173,0.3807151,0.5095887,0.259472,0.33643687,0.61465865,0.4786894,0.022020996,0.41636655,0.8962924,0.32389832,-0.38410282,0.24477264,0.3084336,783.2967,794.17584,783.69965,766.3736,1062.9304,0.12823486328125,0.1456298828125,0.98443603515625,0.22430419921875,15.7611083984375,-3.476715087890625,1,2.0,1.0,1.0,2.0,10.00
2024-10-11 20:42:25.914,0.53125733,1.2092171,0.63302076,0.41294312,0.49722007,0.7688824,0.43024173,0.3807151,0.5095887,0.259472,0.33643687,0.61465865,0.4786894,0.022020996,0.41636655,0.8962924,0.32389832,-0.38410282,0.24477264,0.3084336,784.10254,794.17584,784.5055,764.7619,906.1905,0.12823486328125,0.1456298828125,0.98443603515625,0.22430419921875,15.7611083984375,-3.476715087890625,1,2.0,1.0,1.0,2.0,10.00
2024-10-11 20:42:25.915,0.53125733,1.2092171,0.63302076,0.41294312,0.49722007,0.7688824,0.43024173,0.3807151,0.5095887,0.259472,0.33643687,0.61465865,0.4786894,0.022020996,0.41636655,0.8962924,0.32389832,-0.38410282,0.24477264,0.3084336,786.9231,793.36993,783.2967,755.09155,603.5897,0.12823486328125,0.1456298828125,0.98443603515625,0.22430419921875,15.7611083984375,-3.476715087890625,1,2.0,1.0,1.0,2.0,10.00
2024-10-11 20:42:25.915,0.53125733,1.2092171,0.63302076,0.41294312,0.49722007,0.7688824,0.43024173,0.3807151,0.5095887,0.259472,0.33643687,0.61465865,0.4786894,0.022020996,0.41636655,0.8962924,0.32389832,-0.38410282,0.24477264,0.3084336,790.9524,794.57874,782.8938,757.50916,692.23444,0.12823486328125,0.1456298828125,0.98443603515625,0.22430419921875,15.7611083984375,-3.476715087890625,1,2.0,1.0,1.0,2.0,10.00
2024-10-11 20:42:25.916,0.53125733,1.2092171,0.63302076,0.41294312,0.49722007,0.7688824,0.43024173,0.3807151,0.5095887,0.259472,0.33643687,0.61465865,0.4786894,0.022020996,0.41636655,0.8962924,0.32389832,-0.38410282,0.24477264,0.3084336,785.31134,797.3993,786.9231,767.1795,859.0476,0.12823486328125,0.1456298828125,0.98443603515625,0.22430419921875,15.7611083984375,-3.476715087890625,1,2.0,1.0,1.0,2.0,10.00
2024-10-11 20:42:25.917,0.53125733,1.2092171,0.63302076,0.41294312,0.49722007,0.7688824,0.43024173,0.3807151,0.5095887,0.259472,0.33643687,0.61465865,0.4786894,0.022020996,0.41636655,0.8962924,0.32389832,-0.38410282,0.24477264,0.3084336,774.43225,792.5641,790.54944,767.5824,762.3443,0.12823486328125,0.1456298828125,0.98443603515625,0.22430419921875,15.7611083984375,-3.476715087890625,1,2.0,1.0,1.0,2.0,10.00
2024-10-11 20:42:25.948,0.53125733,1.2092171,0.63302076,0.41294312,0.49722007,0.7688824,0.43024173,0.3807151,0.5095887,0.259472,0.33643687,0.61465865,0.4786894,0.022020996,0.41636655,0.8962924,0.32389832,-0.38410282,0.24477264,0.3084336,770.0,792.96704,785.31134,763.5531,601.978,0.11029052734375,0.146240234375,0.9920654296875,-0.231781005859375,15.14801025390625,-2.938385009765625,1,2.0,1.0,1.0,2.0,10.00
2024-10-11 20:42:25.949,0.53125733,1.2092171,0.63302076,0.41294312,0.49722007,0.7688824,0.43024173,0.3807151,0.5095887,0.259472,0.33643687,0.61465865,0.4786894,0.022020996,0.41636655,0.8962924,0.32389832,-0.38410282,0.24477264,0.3084336,774.83514,792.5641,778.46155,767.98535,610.84247,0.11029052734375,0.146240234375,0.9920654296875,-0.231781005859375,15.14801025390625,-2.938385009765625,1,2.0,1.0,1.0,2.0,10.00
2024-10-11 20:42:26.046,0.53125733,1.2092171,0.63302076,0.41294312,0.49722007,0.7688824,0.43024173,0.3807151,0.5095887,0.259472,0.33643687,0.61465865,0.4786894,0.022020996,0.41636655,0.8962924,0.32389832,-0.38410282,0.24477264,0.3084336,784.10254,789.7436,782.49084,780.87915,938.4249,0.11029052734375,0.146240234375,0.9920654296875,-0.231781005859375,15.14801025390625,-2.938385009765625,1,2.0,1.0,1.0,2.0,10.00
2024-10-11 20:42:26.047,0.53125733,1.2092171,0.63302076,0.41294312,0.49722007,0.7688824,0.43024173,0.3807151,0.5095887,0.259472,0.33643687,0.61465865,0.4786894,0.022020996,0.41636655,0.8962924,0.32389832,-0.38410282,0.24477264,0.3084336,783.69965,798.20514,793.36993,780.07324,860.65936,0.11029052734375,0.146240234375,0.9920654296875,-0.231781005859375,15.14801025390625,-2.938385009765625,1,2.0,1.0,1.0,2.0,10.00
2024-10-11 20:42:26.048,0.53125733,1.2092171,0.63302076,0.41294312,0.49722007,0.7688824,0.43024173,0.3807151,0.5095887,0.259472,0.33643687,0.61465865,0.4786894,0.022020996,0.41636655,0.8962924,0.32389832,-0.38410282,0.24477264,0.3084336,790.54944,796.5934,800.6227,778.46155,603.1868,0.11029052734375,0.146240234375,0.9920654296875,-0.231781005859375,15.14801025390625,-2.938385009765625,1,2.0,1.0,1.0,2.0,10.00
2024-10-11 20:42:26.049,0.53125733,1.2092171,0.63302076,0.41294312,0.49722007,0.7688824,0.43024173,0.3807151,0.5095887,0.259472,0.33643687,0.61465865,0.4786894,0.022020996,0.41636655,0.8962924,0.32389832,-0.38410282,0.24477264,0.3084336,809.0842,795.38464,799.41394,788.5348,813.1135,0.11029052734375,0.146240234375,0.9920654296875,-0.231781005859375,15.14801025390625,-2.938385009765625,1,2.0,1.0,1.0,2.0,10.00
2024-10-11 20:42:26.050,0.53125733,1.2092171,0.63302076,0.41294312,0.49722007,0.7688824,0.43024173,0.3807151,0.5095887,0.259472,0.33643687,0.61465865,0.4786894,0.022020996,0.41636655,0.8962924,0.32389832,-0.38410282,0.24477264,0.3084336,801.02563,794.17584,796.1905,797.8022,1117.326,0.11029052734375,0.146240234375,0.9920654296875,-0.231781005859375,15.14801025390625,-2.938385009765625,1,2.0,1.0,1.0,2.0,10.00
2024-10-11 20:42:26.050,0.53125733,1.2092171,0.63302076,0.41294312,0.49722007,0.7688824,0.43024173,0.3807151,0.5095887,0.259472,0.33643687,0.61465865,0.4786894,0.022020996,0.41636655,0.8962924,0.32389832,-0.38410282,0.24477264,0.3084336,792.96704,793.36993,799.81683,794.57874,988.3883,0.11029052734375,0.146240234375,0.9920654296875,-0.231781005859375,15.14801025390625,-2.938385009765625,1,2.0,1.0,1.0,2.0,10.00
2024-10-11 20:42:26.051,0.53125733,1.2092171,0.63302076,0.41294312,0.49722007,0.7688824,0.43024173,0.3807151,0.5095887,0.259472,0.33643687,0.61465865,0.4786894,0.022020996,0.41636655,0.8962924,0.32389832,-0.38410282,0.24477264,0.3084336,800.2198,800.6227,798.20514,792.96704,655.16486,0.11029052734375,0.146240234375,0.9920654296875,-0.231781005859375,15.14801025390625,-2.938385009765625,1,2.0,1.0,1.0,2.0,10.00
2024-10-11 20:42:26.052,0.53125733,1.2092171,0.63302076,0.41294312,0.49722007,0.7688824,0.43024173,0.3807151,0.5095887,0.259472,0.33643687,0.61465865,0.4786894,0.022020996,0.41636655,0.8962924,0.32389832,-0.38410282,0.24477264,0.3084336,801.8315,803.44324,795.38464,795.38464,640.2564,0.11029052734375,0.146240234375,0.9920654296875,-0.231781005859375,15.14801025390625,-2.938385009765625,1,2.0,1.0,1.0,2.0,10.00
2024-10-11 20:42:26.052,0.53125733,1.2092171,0.63302076,0.41294312,0.49722007,0.7688824,0.43024173,0.3807151,0.5095887,0.259472,0.33643687,0.61465865,0.4786894,0.022020996,0.41636655,0.8962924,0.32389832,-0.38410282,0.24477264,0.3084336,791.75824,801.02563,792.5641,793.7729,956.1539,0.11029052734375,0.146240234375,0.9920654296875,-0.231781005859375,15.14801025390625,-2.938385009765625,1,2.0,1.0,1.0,2.0,10.00
2024-10-11 20:42:26.053,0.53125733,1.2092171,0.63302076,0.41294312,0.49722007,0.7688824,0.43024173,0.3807151,0.5095887,0.259472,0.33643687,0.61465865,0.4786894,0.022020996,0.41636655,0.8962924,0.32389832,-0.38410282,0.24477264,0.3084336,792.1612,800.6227,789.7436,790.54944,846.55676,0.11029052734375,0.146240234375,0.9920654296875,-0.231781005859375,15.14801025390625,-2.938385009765625,1,2.0,1.0,1.0,2.0,10.00
2024-10-11 20:42:26.054,0.53125733,1.2092171,0.63302076,0.41294312,0.49722007,0.7688824,0.43024173,0.3807151,0.5095887,0.259472,0.33643687,0.61465865,0.4786894,0.022020996,0.41636655,0.8962924,0.32389832,-0.38410282,0.24477264,0.3084336,795.78754,801.02563,794.57874,791.3553,650.7326,0.084716796875,0.14996337890625,0.99871826171875,0.456085205078125,16.9873046875,-2.19818115234375,1,2.0,1.0,1.0,2.0,10.00
2024-10-11 20:42:26.055,0.53125733,1.2092171,0.63302076,0.41294312,0.49722007,0.7688824,0.43024173,0.3807151,0.5095887,0.259472,0.33643687,0.61465865,0.4786894,0.022020996,0.41636655,0.8962924,0.32389832,-0.38410282,0.24477264,0.3084336,799.81683,798.20514,799.011,793.36993,716.0073,0.084716796875,0.14996337890625,0.99871826171875,0.456085205078125,16.9873046875,-2.19818115234375,1,2.0,1.0,1.0,2.0,10.00
2024-10-11 20:42:26.056,0.53125733,1.2092171,0.63302076,0.41294312,0.49722007,0.7688824,0.43024173,0.3807151,0.5095887,0.259472,0.33643687,0.61465865,0.4786894,0.022020996,0.41636655,0.8962924,0.32389832,-0.38410282,0.24477264,0.3084336,792.5641,796.5934,792.1612,800.2198,740.58606,0.084716796875,0.14996337890625,0.99871826171875,0.456085205078125,16.9873046875,-2.19818115234375,1,2.0,1.0,1.0,2.0,10.00
2024-10-11 20:42:26.056,0.53125733,1.2092171,0.63302076,0.41294312,0.49722007,0.7688824,0.43024173,0.3807151,0.5095887,0.259472,0.33643687,0.61465865,0.4786894,0.022020996,0.41636655,0.8962924,0.32389832,-0.38410282,0.24477264,0.3084336,780.07324,798.20514,792.96704,801.4286,759.5238,0.084716796875,0.14996337890625,0.99871826171875,0.456085205078125,16.9873046875,-2.19818115234375,1,2.0,1.0,1.0,2.0,10.00
2024-10-11 20:42:26.064,0.53125733,1.2092171,0.63302076,0.41294312,0.49722007,0.7688824,0.43024173,0.3807151,0.5095887,0.259472,0.33643687,0.61465865,0.4786894,0.022020996,0.41636655,0.8962924,0.32389832,-0.38410282,0.24477264,0.3084336,783.2967,792.5641,796.99634,794.9817,748.6447,0.084716796875,0.14996337890625,0.99871826171875,0.456085205078125,16.9873046875,-2.19818115234375,1,2.0,1.0,1.0,2.0,10.00
2024-10-11 20:42:26.065,0.53125733,1.2092171,0.63302076,0.41294312,0.49722007,0.7688824,0.43024173,0.3807151,0.5095887,0.259472,0.33643687,0.61465865,0.4786894,0.022020996,0.41636655,0.8962924,0.32389832,-0.38410282,0.24477264,0.3084336,785.31134,789.34064,795.38464,791.3553,739.3773,0.084716796875,0.14996337890625,0.99871826171875,0.456085205078125,16.9873046875,-2.19818115234375,1,2.0,1.0,1.0,2.0,10.00
2024-10-11 20:42:26.066,0.53125733,1.2092171,0.63302076,0.41294312,0.49722007,0.7688824,0.43024173,0.3807151,0.5095887,0.259472,0.33643687,0.61465865,0.4786894,0.022020996,0.41636655,0.8962924,0.32389832,-0.38410282,0.24477264,0.3084336,784.10254,794.9817,796.5934,791.3553,832.0513,0.084716796875,0.14996337890625,0.99871826171875,0.456085205078125,16.9873046875,-2.19818115234375,1,2.0,1.0,1.0,2.0,10.00
2024-10-11 20:42:26.067,0.53125733,1.2375253,0.58042604,0.41294312,0.49722007,0.772385,0.39610872,0.3807151,0.5095887,0.33360562,0.3312203,0.61465865,0.4786894,-0.007188976,0.40822646,0.8962924,0.32389832,-0.3894839,0.28192997,0.3084336,790.54944,799.41394,797.3993,788.93774,746.63007,0.084716796875,0.14996337890625,0.99871826171875,0.456085205078125,16.9873046875,-2.19818115234375,1,2.0,1.0,1.0,2.0,10.00
2024-10-11 20:42:26.072,0.53125733,1.2375253,0.58042604,0.41294312,0.49722007,0.772385,0.39610872,0.3807151,0.5095887,0.33360562,0.3312203,0.61465865,0.4786894,-0.007188976,0.40822646,0.8962924,0.32389832,-0.3894839,0.28192997,0.3084336,790.54944,793.7729,792.5641,785.7143,721.6484,0.084716796875,0.14996337890625,0.99871826171875,0.456085205078125,16.9873046875,-2.19818115234375,1,2.0,1.0,1.0,2.0,10.00
2024-10-11 20:42:26.073,0.53125733,1.2375253,0.58042604,0.41294312,0.49722007,0.772385,0.39610872,0.3807151,0.5095887,0.33360562,0.3312203,0.61465865,0.4786894,-0.007188976,0.40822646,0.8962924,0.32389832,-0.3894839,0.28192997,0.3084336,794.57874,794.57874,787.72894,786.52014,889.2674,0.084716796875,0.14996337890625,0.99871826171875,0.456085205078125,16.9873046875,-2.19818115234375,1,2.0,1.0,1.0,2.0,10.00
2024-10-11 20:42:26.074,0.53125733,1.2375253,0.58042604,0.41294312,0.49722007,0.772385,0.39610872,0.3807151,0.5095887,0.33360562,0.3312203,0.61465865,0.4786894,-0.007188976,0.40822646,0.8962924,0.32389832,-0.3894839,0.28192997,0.3084336,786.52014,801.02563,788.93774,779.67035,815.12823,0.084716796875,0.14996337890625,0.99871826171875,0.456085205078125,16.9873046875,-2.19818115234375,1,2.0,1.0,1.0,2.0,10.00
2024-10-11 20:42:26.075,0.53125733,1.2375253,0.58042604,0.41294312,0.49722007,0.772385,0.39610872,0.3807151,0.5095887,0.33360562,0.3312203,0.61465865,0.4786894,-0.007188976,0.40822646,0.8962924,0.32389832,-0.3894839,0.28192997,0.3084336,793.36993,805.8608,790.9524,784.90845,679.7436,0.084716796875,0.14996337890625,0.99871826171875,0.456085205078125,16.9873046875,-2.19818115234375,1,2.0,1.0,1.0,2.0,10.00
2024-10-11 20:42:26.111,0.53125733,1.2375253,0.58042604,0.41294312,0.49722007,0.772385,0.39610872,0.3807151,0.5095887,0.33360562,0.3312203,0.61465865,0.4786894,-0.007188976,0.40822646,0.8962924,0.32389832,-0.3894839,0.28192997,0.3084336,810.696,806.6667,792.1612,796.99634,727.6923,0.06011962890625,0.15106201171875,0.98858642578125,-0.142059326171875,18.834075927734375,-2.6318359375,1,2.0,1.0,1.0,2.0,10.00
2024-10-11 20:42:26.112,0.53125733,1.2375253,0.58042604,0.41294312,0.49722007,0.772385,0.39610872,0.3807151,0.5095887,0.33360562,0.3312203,0.61465865,0.4786894,-0.007188976,0.40822646,0.8962924,0.32389832,-0.3894839,0.28192997,0.3084336,804.2491,798.60803,793.36993,801.8315,1006.1172,0.06011962890625,0.15106201171875,0.98858642578125,-0.142059326171875,18.834075927734375,-2.6318359375,1,2.0,1.0,1.0,2.0,10.00
2024-10-11 20:42:26.112,0.53125733,1.2375253,0.58042604,0.41294312,0.49722007,0.772385,0.39610872,0.3807151,0.5095887,0.33360562,0.3312203,0.61465865,0.4786894,-0.007188976,0.40822646,0.8962924,0.32389832,-0.3894839,0.28192997,0.3084336,794.9817,799.81683,789.7436,803.0403,893.2967,0.06011962890625,0.15106201171875,0.98858642578125,-0.142059326171875,18.834075927734375,-2.6318359375,1,2.0,1.0,1.0,2.0,10.00
2024-10-11 20:42:26.113,0.53125733,1.2375253,0.58042604,0.41294312,0.49722007,0.772385,0.39610872,0.3807151,0.5095887,0.33360562,0.3312203,0.61465865,0.4786894,-0.007188976,0.40822646,0.8962924,0.32389832,-0.3894839,0.28192997,0.3084336,800.2198,801.4286,786.9231,800.6227,565.31134,0.06011962890625,0.15106201171875,0.98858642578125,-0.142059326171875,18.834075927734375,-2.6318359375,1,2.0,1.0,1.0,2.0,10.00
2024-10-11 20:42:26.114,0.53125733,1.2375253,0.58042604,0.41294312,0.49722007,0.772385,0.39610872,0.3807151,0.5095887,0.33360562,0.3312203,0.61465865,0.4786894,-0.007188976,0.40822646,0.8962924,0.32389832,-0.3894839,0.28192997,0.3084336,807.8755,794.57874,796.1905,800.2198,643.0769,0.06011962890625,0.15106201171875,0.98858642578125,-0.142059326171875,18.834075927734375,-2.6318359375,1,2.0,1.0,1.0,2.0,10.00
2024-10-11 20:42:26.115,0.53125733,1.2375253,0.58042604,0.41294312,0.49722007,0.772385,0.39610872,0.3807151,0.5095887,0.33360562,0.3312203,0.61465865,0.4786894,-0.007188976,0.40822646,0.8962924,0.32389832,-0.3894839,0.28192997,0.3084336,815.5311,794.17584,801.02563,804.65204,850.58606,0.06011962890625,0.15106201171875,0.98858642578125,-0.142059326171875,18.834075927734375,-2.6318359375,1,2.0,1.0,1.0,2.0,10.00
2024-10-11 20:42:26.115,0.53125733,1.2375253,0.58042604,0.41294312,0.49722007,0.772385,0.39610872,0.3807151,0.5095887,0.33360562,0.3312203,0.61465865,0.4786894,-0.007188976,0.40822646,0.8962924,0.32389832,-0.3894839,0.28192997,0.3084336,810.293,791.75824,796.99634,805.4579,839.304,0.06011962890625,0.15106201171875,0.98858642578125,-0.142059326171875,18.834075927734375,-2.6318359375,1,2.0,1.0,1.0,2.0,10.00
2024-10-11 20:42:26.116,0.53125733,1.2375253,0.58042604,0.41294312,0.49722007,0.772385,0.39610872,0.3807151,0.5095887,0.33360562,0.3312203,0.61465865,0.4786894,-0.007188976,0.40822646,0.8962924,0.32389832,-0.3894839,0.28192997,0.3084336,796.5934,792.5641,792.1612,806.26373,672.8938,0.06011962890625,0.15106201171875,0.98858642578125,-0.142059326171875,18.834075927734375,-2.6318359375,1,2.0,1.0,1.0,2.0,10.00
2024-10-11 20:42:26.117,0.53125733,1.2375253,0.58042604,0.41294312,0.49722007,0.772385,0.39610872,0.3807151,0.5095887,0.33360562,0.3312203,0.61465865,0.4786894,-0.007188976,0.40822646,0.8962924,0.32389832,-0.3894839,0.28192997,0.3084336,803.44324,796.99634,789.7436,815.9341,732.52747,0.06011962890625,0.15106201171875,0.98858642578125,-0.142059326171875,18.834075927734375,-2.6318359375,1,2.0,1.0,1.0,2.0,10.00
2024-10-11 20:42:26.118,0.53125733,1.2375253,0.58042604,0.41294312,0.49722007,0.772385,0.39610872,0.3807151,0.5095887,0.33360562,0.3312203,0.61465865,0.4786894,-0.007188976,0.40822646,0.8962924,0.32389832,-0.3894839,0.28192997,0.3084336,803.0403,793.36993,795.38464,813.5165,1028.6813,0.06011962890625,0.15106201171875,0.98858642578125,-0.142059326171875,18.834075927734375,-2.6318359375,1,2.0,1.0,1.0,2.0,10.00
2024-10-11 20:42:26.118,0.53125733,1.2375253,0.58042604,0.41294312,0.49722007,0.772385,0.39610872,0.3807151,0.5095887,0.33360562,0.3312203,0.61465865,0.4786894,-0.007188976,0.40822646,0.8962924,0.32389832,-0.3894839,0.28192997,0.3084336,797.3993,794.9817,800.6227,808.68134,836.08057,0.06011962890625,0.15106201171875,0.98858642578125,-0.142059326171875,18.834075927734375,-2.6318359375,1,2.0,1.0,1.0,2.0,10.00
2024-10-11 20:42:26.119,0.53125733,1.2375253,0.58042604,0.41294312,0.49722007,0.772385,0.39610872,0.3807151,0.5095887,0.33360562,0.3312203,0.61465865,0.4786894,-0.007188976,0.40822646,0.8962924,0.32389832,-0.3894839,0.28192997,0.3084336,801.8315,801.4286,792.96704,809.4872,714.3956,0.06011962890625,0.15106201171875,0.98858642578125,-0.142059326171875,18.834075927734375,-2.6318359375,1,2.0,1.0,1.0,2.0,10.00
2024-10-11 20:42:26.120,0.53125733,1.2375253,0.58042604,0.41294312,0.49722007,0.772385,0.39610872,0.3807151,0.5095887,0.33360562,0.3312203,0.61465865,0.4786894,-0.007188976,0.40822646,0.8962924,0.32389832,-0.3894839,0.28192997,0.3084336,807.0696,800.2198,788.93774,813.5165,823.5897,0.0244140625,0.1507568359375,1.00079345703125,0.216827392578125,20.83038330078125,-3.409423828125,1,2.0,1.0,1.0,2.0,10.00
2024-10-11 20:42:26.121,0.53125733,1.2375253,0.58042604,0.41294312,0.49722007,0.772385,0.39610872,0.3807151,0.5095887,0.33360562,0.3312203,0.61465865,0.4786894,-0.007188976,0.40822646,0.8962924,0.32389832,-0.3894839,0.28192997,0.3084336,809.4872,797.3993,792.96704,816.337,827.619,0.0244140625,0.1507568359375,1.00079345703125,0.216827392578125,20.83038330078125,-3.409423828125,1,2.0,1.0,1.0,2.0,10.00
2024-10-11 20:42:26.122,0.53125733,1.2375253,0.58042604,0.41294312,0.49722007,0.772385,0.39610872,0.3807151,0.5095887,0.33360562,0.3312203,0.61465865,0.4786894,-0.007188976,0.40822646,0.8962924,0.32389832,-0.3894839,0.28192997,0.3084336,810.293,801.4286,792.96704,811.9048,691.02563,0.0244140625,0.1507568359375,1.00079345703125,0.216827392578125,20.83038330078125,-3.409423828125,1,2.0,1.0,1.0,2.0,10.00
2024-10-11 20:42:26.123,0.53125733,1.2375253,0.58042604,0.41294312,0.49722007,0.772385,0.39610872,0.3807151,0.5095887,0.33360562,0.3312203,0.61465865,0.4786894,-0.007188976,0.40822646,0.8962924,0.32389832,-0.3894839,0.28192997,0.3084336,815.9341,798.60803,798.60803,817.5458,571.3553,0.0244140625,0.1507568359375,1.00079345703125,0.216827392578125,20.83038330078125,-3.409423828125,1,2.0,1.0,1.0,2.0,10.00
2024-10-11 20:42:26.124,0.53125733,1.2375253,0.58042604,0.41294312,0.49722007,0.772385,0.39610872,0.3807151,0.5095887,0.33360562,0.3312203,0.61465865,0.4786894,-0.007188976,0.40822646,0.8962924,0.32389832,-0.3894839,0.28192997,0.3084336,818.7546,793.7729,801.02563,819.9634,707.9487,0.0244140625,0.1507568359375,1.00079345703125,0.216827392578125,20.83038330078125,-3.409423828125,1,2.0,1.0,1.0,2.0,10.00
2024-10-11 20:42:26.124,0.53125733,1.2375253,0.58042604,0.41294312,0.49722007,0.772385,0.39610872,0.3807151,0.5095887,0.33360562,0.3312203,0.61465865,0.4786894,-0.007188976,0.40822646,0.8962924,0.32389832,-0.3894839,0.28192997,0.3084336,809.0842,795.78754,797.3993,809.0842,876.3736,0.0244140625,0.1507568359375,1.00079345703125,0.216827392578125,20.83038330078125,-3.409423828125,1,2.0,1.0,1.0,2.0,10.00
2024-10-11 20:42:26.125,0.53125733,1.2375253,0.58042604,0.41294312,0.49722007,0.772385,0.39610872,0.3807151,0.5095887,0.33360562,0.3312203,0.61465865,0.4786894,-0.007188976,0.40822646,0.8962924,0.32389832,-0.3894839,0.28192997,0.3084336,799.011,795.38464,801.8315,803.44324,817.1429,0.0244140625,0.1507568359375,1.00079345703125,0.216827392578125,20.83038330078125,-3.409423828125,1,2.0,1.0,1.0,2.0,10.00
2024-10-11 20:42:26.126,0.53125733,1.2375253,0.58042604,0.41294312,0.49722007,0.772385,0.39610872,0.3807151,0.5095887,0.33360562,0.3312203,0.61465865,0.4786894,-0.007188976,0.40822646,0.8962924,0.32389832,-0.3894839,0.28192997,0.3084336,796.1905,794.9817,802.23444,805.05493,766.77655,0.0244140625,0.1507568359375,1.00079345703125,0.216827392578125,20.83038330078125,-3.409423828125,1,2.0,1.0,1.0,2.0,10.00
2024-10-11 20:42:26.127,0.53125733,1.2375253,0.58042604,0.41294312,0.49722007,0.772385,0.39610872,0.3807151,0.5095887,0.33360562,0.3312203,0.61465865,0.4786894,-0.007188976,0.40822646,0.8962924,0.32389832,-0.3894839,0.28192997,0.3084336,805.05493,799.011,788.1319,807.8755,860.2564,0.0244140625,0.1507568359375,1.00079345703125,0.216827392578125,20.83038330078125,-3.409423828125,1,2.0,1.0,1.0,2.0,10.00
2024-10-11 20:42:26.128,0.53125733,1.2491648,0.5586521,0.41294312,0.49722007,0.77187806,0.36023164,0.3807151,0.5095887,0.3862856,0.3089091,0.61465865,0.4786894,-0.040458173,0.40749234,0.8962924,0.32389832,-0.40234864,0.33021918,0.3084336,810.293,801.8315,784.90845,813.91943,828.8278,0.0244140625,0.1507568359375,1.00079345703125,0.216827392578125,20.83038330078125,-3.409423828125,1,2.0,1.0,1.0,2.0,10.00
2024-10-11 20:42:26.134,0.53125733,1.2491648,0.5586521,0.41294312,0.49722007,0.77187806,0.36023164,0.3807151,0.5095887,0.3862856,0.3089091,0.61465865,0.4786894,-0.040458173,0.40749234,0.8962924,0.32389832,-0.40234864,0.33021918,0.3084336,809.4872,796.99634,798.60803,813.5165,721.6484,0.0244140625,0.1507568359375,1.00079345703125,0.216827392578125,20.83038330078125,-3.409423828125,1,2.0,1.0,1.0,2.0,10.00
2024-10-11 20:42:26.134,0.53125733,1.2491648,0.5586521,0.41294312,0.49722007,0.77187806,0.36023164,0.3807151,0.5095887,0.3862856,0.3089091,0.61465865,0.4786894,-0.040458173,0.40749234,0.8962924,0.32389832,-0.40234864,0.33021918,0.3084336,801.4286,792.1612,808.68134,805.05493,766.3736,0.0244140625,0.1507568359375,1.00079345703125,0.216827392578125,20.83038330078125,-3.409423828125,1,2.0,1.0,1.0,2.0,10.00
2024-10-11 20:42:26.135,0.53125733,1.2491648,0.5586521,0.41294312,0.49722007,0.77187806,0.36023164,0.3807151,0.5095887,0.3862856,0.3089091,0.61465865,0.4786894,-0.040458173,0.40749234,0.8962924,0.32389832,-0.40234864,0.33021918,0.3084336,797.3993,794.9817,808.2784,804.65204,845.34796,-0.00494384765625,0.15252685546875,0.991455078125,-0.246734619140625,21.450958251953125,-4.882354736328125,1,2.0,1.0,1.0,2.0,10.00
2024-10-11 20:42:26.136,0.53125733,1.2491648,0.5586521,0.41294312,0.49722007,0.77187806,0.36023164,0.3807151,0.5095887,0.3862856,0.3089091,0.61465865,0.4786894,-0.040458173,0.40749234,0.8962924,0.32389832,-0.40234864,0.33021918,0.3084336,802.23444,802.6374,808.68134,815.12823,781.685,-0.00494384765625,0.15252685546875,0.991455078125,-0.246734619140625,21.450958251953125,-4.882354736328125,1,2.0,1.0,1.0,2.0,10.00
2024-10-11 20:42:26.137,0.53125733,1.2491648,0.5586521,0.41294312,0.49722007,0.77187806,0.36023164,0.3807151,0.5095887,0.3862856,0.3089091,0.61465865,0.4786894,-0.040458173,0.40749234,0.8962924,0.32389832,-0.40234864,0.33021918,0.3084336,811.50183,805.05493,810.293,816.7399,692.23444,-0.00494384765625,0.15252685546875,0.991455078125,-0.246734619140625,21.450958251953125,-4.882354736328125,1,2.0,1.0,1.0,2.0,10.00
2024-10-11 20:42:26.138,0.53125733,1.2491648,0.5586521,0.41294312,0.49722007,0.77187806,0.36023164,0.3807151,0.5095887,0.3862856,0.3089091,0.61465865,0.4786894,-0.040458173,0.40749234,0.8962924,0.32389832,-0.40234864,0.33021918,0.3084336,812.3077,799.011,808.2784,809.4872,660.0,-0.00494384765625,0.15252685546875,0.991455078125,-0.246734619140625,21.450958251953125,-4.882354736328125,1,2.0,1.0,1.0,2.0,10.00
2024-10-11 20:42:26.139,0.53125733,1.2491648,0.5586521,0.41294312,0.49722007,0.77187806,0.36023164,0.3807151,0.5095887,0.3862856,0.3089091,0.61465865,0.4786894,-0.040458173,0.40749234,0.8962924,0.32389832,-0.40234864,0.33021918,0.3084336,811.9048,797.3993,794.17584,816.337,816.337,-0.00494384765625,0.15252685546875,0.991455078125,-0.246734619140625,21.450958251953125,-4.882354736328125,1,2.0,1.0,1.0,2.0,10.00
2024-10-11 20:42:26.140,0.53125733,1.2491648,0.5586521,0.41294312,0.49722007,0.77187806,0.36023164,0.3807151,0.5095887,0.3862856,0.3089091,0.61465865,0.4786894,-0.040458173,0.40749234,0.8962924,0.32389832,-0.40234864,0.33021918,0.3084336,815.9341,799.81683,784.10254,819.5604,887.25275,-0.00494384765625,0.15252685546875,0.991455078125,-0.246734619140625,21.450958251953125,-4.882354736328125,1,2.0,1.0,1.0,2.0,10.00
2024-10-11 20:42:26.141,0.53125733,1.2491648,0.5586521,0.41294312,0.49722007,0.77187806,0.36023164,0.3807151,0.5095887,0.3862856,0.3089091,0.61465865,0.4786894,-0.040458173,0.40749234,0.8962924,0.32389832,-0.40234864,0.33021918,0.3084336,809.0842,800.2198,800.2198,811.9048,834.0659,-0.00494384765625,0.15252685546875,0.991455078125,-0.246734619140625,21.450958251953125,-4.882354736328125,1,2.0,1.0,1.0,2.0,10.00
2024-10-11 20:42:26.142,0.53125733,1.2491648,0.5586521,0.41294312,0.49722007,0.77187806,0.36023164,0.3807151,0.5095887,0.3862856,0.3089091,0.61465865,0.4786894,-0.040458173,0.40749234,0.8962924,0.32389832,-0.40234864,0.33021918,0.3084336,806.26373,802.6374,810.293,809.4872,748.24176,-0.00494384765625,0.15252685546875,0.991455078125,-0.246734619140625,21.450958251953125,-4.882354736328125,1,2.0,1.0,1.0,2.0,10.00
2024-10-11 20:42:26.144,0.53125733,1.2491648,0.5586521,0.41294312,0.49722007,0.77187806,0.36023164,0.3807151,0.5095887,0.3862856,0.3089091,0.61465865,0.4786894,-0.040458173,0.40749234,0.8962924,0.32389832,-0.40234864,0.33021918,0.3084336,807.8755,805.8608,807.0696,814.3223,757.1062,-0.00494384765625,0.15252685546875,0.991455078125,-0.246734619140625,21.450958251953125,-4.882354736328125,1,2.0,1.0,1.0,2.0,10.00
2024-10-11 20:42:26.145,0.53125733,1.2491648,0.5586521,0.41294312,0.49722007,0.77187806,0.36023164,0.3807151,0.5095887,0.3862856,0.3089091,0.61465865,0.4786894,-0.040458173,0.40749234,0.8962924,0.32389832,-0.40234864,0.33021918,0.3084336,805.4579,808.2784,800.2198,818.3516,751.06226,-0.00494384765625,0.15252685546875,0.991455078125,-0.246734619140625,21.450958251953125,-4.882354736328125,1,2.0,1.0,1.0,2.0,10.00
2024-10-11 20:42:26.146,0.53125733,1.2491648,0.5586521,0.41294312,0.49722007,0.77187806,0.36023164,0.3807151,0.5095887,0.3862856,0.3089091,0.61465865,0.4786894,-0.040458173,0.40749234,0.8962924,0.32389832,-0.40234864,0.33021918,0.3084336,816.337,804.2491,798.20514,815.12823,602.381,-0.00494384765625,0.15252685546875,0.991455078125,-0.246734619140625,21.450958251953125,-4.882354736328125,1,2.0,1.0,1.0,2.0,10.00
2024-10-11 20:42:26.147,0.53125733,1.2491648,0.5586521,0.41294312,0.49722007,0.77187806,0.36023164,0.3807151,0.5095887,0.3862856,0.3089091,0.61465865,0.4786894,-0.040458173,0.40749234,0.8962924,0.32389832,-0.40234864,0.33021918,0.3084336,816.7399,802.23444,800.6227,816.337,633.8095,-0.00494384765625,0.15252685546875,0.991455078125,-0.246734619140625,21.450958251953125,-4.882354736328125,1,2.0,1.0,1.0,2.0,10.00
2024-10-11 20:42:26.183,0.53125733,1.2491648,0.5586521,0.41294312,0.49722007,0.77187806,0.36023164,0.3807151,0.5095887,0.3862856,0.3089091,0.61465865,0.4786894,-0.040458173,0.40749234,0.8962924,0.32389832,-0.40234864,0.33021918,0.3084336,803.8461,805.8608,797.3993,815.12823,782.49084,-0.00494384765625,0.15252685546875,0.991455078125,-0.246734619140625,21.450958251953125,-4.882354736328125,1,2.0,1.0,1.0,2.0,10.00
2024-10-11 20:42:26.184,0.53125733,1.2491648,0.5586521,0.41294312,0.49722007,0.77187806,0.36023164,0.3807151,0.5095887,0.3862856,0.3089091,0.61465865,0.4786894,-0.040458173,0.40749234,0.8962924,0.32389832,-0.40234864,0.33021918,0.3084336,804.65204,804.65204,797.3993,811.0989,614.4689,-0.00494384765625,0.15252685546875,0.991455078125,-0.246734619140625,21.450958251953125,-4.882354736328125,1,2.0,1.0,1.0,2.0,10.00
2024-10-11 20:42:26.185,0.53125733,1.2491648,0.5586521,0.41294312,0.49722007,0.77187806,0.36023164,0.3807151,0.5095887,0.3862856,0.3089091,0.61465865,0.4786894,-0.040458173,0.40749234,0.8962924,0.32389832,-0.40234864,0.33021918,0.3084336,809.4872,799.011,801.4286,810.293,516.9597,-0.00494384765625,0.15252685546875,0.991455078125,-0.246734619140625,21.450958251953125,-4.882354736328125,1,2.0,1.0,1.0,2.0,10.00
2024-10-11 20:42:26.186,0.53125733,1.2491648,0.5586521,0.41294312,0.49722007,0.77187806,0.36023164,0.3807151,0.5095887,0.3862856,0.3089091,0.61465865,0.4786894,-0.040458173,0.40749234,0.8962924,0.32389832,-0.40234864,0.33021918,0.3084336,807.8755,795.78754,794.57874,809.4872,629.7802,-0.00494384765625,0.15252685546875,0.991455078125,-0.246734619140625,21.450958251953125,-4.882354736328125,1,2.0,1.0,1.0,2.0,10.00
2024-10-11 20:42:26.187,0.53125733,1.2491648,0.5586521,0.41294312,0.49722007,0.77187806,0.36023164,0.3807151,0.5095887,0.3862856,0.3089091,0.61465865,0.4786894,-0.040458173,0.40749234,0.8962924,0.32389832,-0.40234864,0.33021918,0.3084336,809.0842,795.38464,785.31134,818.3516,1128.608,-0.00494384765625,0.15252685546875,0.991455078125,-0.246734619140625,21.450958251953125,-4.882354736328125,1,2.0,1.0,1.0,2.0,10.00
2024-10-11 20:42:26.189,0.53125733,1.2491648,0.5586521,0.41294312,0.49722007,0.77187806,0.36023164,0.3807151,0.5095887,0.3862856,0.3089091,0.61465865,0.4786894,-0.040458173,0.40749234,0.8962924,0.32389832,-0.40234864,0.33021918,0.3084336,800.2198,794.17584,799.011,820.7692,1343.773,-0.00494384765625,0.15252685546875,0.991455078125,-0.246734619140625,21.450958251953125,-4.882354736328125,1,2.0,1.0,1.0,2.0,10.00
2024-10-11 20:42:26.190,0.53125733,1.2491648,0.5586521,0.41294312,0.49722007,0.77187806,0.36023164,0.3807151,0.5095887,0.3862856,0.3089091,0.61465865,0.4786894,-0.040458173,0.40749234,0.8962924,0.32389832,-0.40234864,0.33021918,0.3084336,788.1319,796.5934,809.0842,809.0842,923.91943,-0.00494384765625,0.15252685546875,0.991455078125,-0.246734619140625,21.450958251953125,-4.882354736328125,1,2.0,1.0,1.0,2.0,10.00
2024-10-11 20:42:26.191,0.53125733,1.2491648,0.5586521,0.41294312,0.49722007,0.77187806,0.36023164,0.3807151,0.5095887,0.3862856,0.3089091,0.61465865,0.4786894,-0.040458173,0.40749234,0.8962924,0.32389832,-0.40234864,0.33021918,0.3084336,796.5934,796.1905,806.26373,809.0842,730.5128,-0.00494384765625,0.15252685546875,0.991455078125,-0.246734619140625,21.450958251953125,-4.882354736328125,1,2.0,1.0,1.0,2.0,10.00
2024-10-11 20:42:26.192,0.53125733,1.2491648,0.5586521,0.41294312,0.49722007,0.77187806,0.36023164,0.3807151,0.5095887,0.3862856,0.3089091,0.61465865,0.4786894,-0.040458173,0.40749234,0.8962924,0.32389832,-0.40234864,0.33021918,0.3084336,801.8315,796.1905,801.8315,808.2784,696.6667,-0.00494384765625,0.15252685546875,0.991455078125,-0.246734619140625,21.450958251953125,-4.882354736328125,1,2.0,1.0,1.0,2.0,10.00
2024-10-11 20:42:26.194,0.53125733,1.2491648,0.5586521,0.41294312,0.49722007,0.77187806,0.36023164,0.3807151,0.5095887,0.3862856,0.3089091,0.61465865,0.4786894,-0.040458173,0.40749234,0.8962924,0.32389832,-0.40234864,0.33021918,0.3084336,795.78754,797.3993,793.7729,792.5641,477.47253,-0.00494384765625,0.15252685546875,0.991455078125,-0.246734619140625,21.450958251953125,-4.882354736328125,1,2.0,1.0,1.0,2.0,10.00
2024-10-11 20:42:26.195,0.53125733,1.2491648,0.5586521,0.41294312,0.49722007,0.77187806,0.36023164,0.3807151,0.5095887,0.3862856,0.3089091,0.61465865,0.4786894,-0.040458173,0.40749234,0.8962924,0.32389832,-0.40234864,0.33021918,0.3084336,805.05493,797.3993,788.93774,796.5934,468.60806,-0.00494384765625,0.15252685546875,0.991455078125,-0.246734619140625,21.450958251953125,-4.882354736328125,1,2.0,1.0,1.0,2.0,10.00
2024-10-11 20:42:26.195,0.53125733,1.2468009,0.587976,0.41294312,0.49722007,0.7662659,0.35579377,0.3807151,0.5095887,0.38330346,0.27825952,0.61465865,0.4786894,-0.07027008,0.40996605,0.8962924,0.32389832,-0.41523945,0.38569114,0.3084336,809.89014,795.38464,792.1612,801.02563,526.2271,-0.00494384765625,0.15252685546875,0.991455078125,-0.246734619140625,21.450958251953125,-4.882354736328125,1,2.0,1.0,1.0,2.0,10.00
2024-10-11 20:42:26.235,0.53125733,1.2468009,0.587976,0.41294312,0.49722007,0.7662659,0.35579377,0.3807151,0.5095887,0.38330346,0.27825952,0.61465865,0.4786894,-0.07027008,0.40996605,0.8962924,0.32389832,-0.41523945,0.38569114,0.3084336,806.26373,792.5641,801.02563,794.57874,512.52747,-0.03985595703125,0.1463623046875,0.99493408203125,0.934600830078125,23.267822265625,-5.93658447265625,1,2.0,1.0,1.0,2.0,10.00
2024-10-11 20:42:26.236,0.53125733,1.2468009,0.587976,0.41294312,0.49722007,0.7662659,0.35579377,0.3807151,0.5095887,0.38330346,0.27825952,0.61465865,0.4786894,-0.07027008,0.40996605,0.8962924,0.32389832,-0.41523945,0.38569114,0.3084336,806.6667,795.78754,803.8461,796.99634,533.8828,-0.03985595703125,0.1463623046875,0.99493408203125,0.934600830078125,23.267822265625,-5.93658447265625,1,2.0,1.0,1.0,2.0,10.00
2024-10-11 20:42:26.237,0.53125733,1.2468009,0.587976,0.41294312,0.49722007,0.7662659,0.35579377,0.3807151,0.5095887,0.38330346,0.27825952,0.61465865,0.4786894,-0.07027008,0.40996605,0.8962924,0.32389832,-0.41523945,0.38569114,0.3084336,802.6374,795.78754,787.326,801.02563,612.8571,-0.03985595703125,0.1463623046875,0.99493408203125,0.934600830078125,23.267822265625,-5.93658447265625,1,2.0,1.0,1.0,2.0,10.00
2024-10-11 20:42:26.238,0.53125733,1.2468009,0.587976,0.41294312,0.49722007,0.7662659,0.35579377,0.3807151,0.5095887,0.38330346,0.27825952,0.61465865,0.4786894,-0.07027008,0.40996605,0.8962924,0.32389832,-0.41523945,0.38569114,0.3084336,798.20514,792.1612,787.326,786.9231,648.315,-0.03985595703125,0.1463623046875,0.99493408203125,0.934600830078125,23.267822265625,-5.93658447265625,1,2.0,1.0,1.0,2.0,10.00
2024-10-11 20:42:26.239,0.53125733,1.2468009,0.587976,0.41294312,0.49722007,0.7662659,0.35579377,0.3807151,0.5095887,0.38330346,0.27825952,0.61465865,0.4786894,-0.07027008,0.40996605,0.8962924,0.32389832,-0.41523945,0.38569114,0.3084336,799.41394,798.60803,794.9817,785.7143,578.20514,-0.03985595703125,0.1463623046875,0.99493408203125,0.934600830078125,23.267822265625,-5.93658447265625,1,2.0,1.0,1.0,2.0,10.00
2024-10-11 20:42:26.240,0.53125733,1.2468009,0.587976,0.41294312,0.49722007,0.7662659,0.35579377,0.3807151,0.5095887,0.38330346,0.27825952,0.61465865,0.4786894,-0.07027008,0.40996605,0.8962924,0.32389832,-0.41523945,0.38569114,0.3084336,796.1905,803.44324,783.2967,797.3993,559.2674,-0.03985595703125,0.1463623046875,0.99493408203125,0.934600830078125,23.267822265625,-5.93658447265625,1,2.0,1.0,1.0,2.0,10.00
2024-10-11 20:42:26.241,0.53125733,1.2468009,0.587976,0.41294312,0.49722007,0.7662659,0.35579377,0.3807151,0.5095887,0.38330346,0.27825952,0.61465865,0.4786894,-0.07027008,0.40996605,0.8962924,0.32389832,-0.41523945,0.38569114,0.3084336,788.5348,792.96704,793.7729,794.57874,660.0,-0.03985595703125,0.1463623046875,0.99493408203125,0.934600830078125,23.267822265625,-5.93658447265625,1,2.0,1.0,1.0,2.0,10.00
2024-10-11 20:42:26.242,0.53125733,1.2468009,0.587976,0.41294312,0.49722007,0.7662659,0.35579377,0.3807151,0.5095887,0.38330346,0.27825952,0.61465865,0.4786894,-0.07027008,0.40996605,0.8962924,0.32389832,-0.41523945,0.38569114,0.3084336,793.36993,784.90845,805.8608,799.41394,1053.2601,-0.03985595703125,0.1463623046875,0.99493408203125,0.934600830078125,23.267822265625,-5.93658447265625,1,2.0,1.0,1.0,2.0,10.00
2024-10-11 20:42:26.243,0.53125733,1.2468009,0.587976,0.41294312,0.49722007,0.7662659,0.35579377,0.3807151,0.5095887,0.38330346,0.27825952,0.61465865,0.4786894,-0.07027008,0.40996605,0.8962924,0.32389832,-0.41523945,0.38569114,0.3084336,796.5934,790.54944,803.8461,798.60803,974.2857,-0.03985595703125,0.1463623046875,0.99493408203125,0.934600830078125,23.267822265625,-5.93658447265625,1,2.0,1.0,1.0,2.0,10.00
2024-10-11 20:42:26.243,0.53125733,1.2468009,0.587976,0.41294312,0.49722007,0.7662659,0.35579377,0.3807151,0.5095887,0.38330346,0.27825952,0.61465865,0.4786894,-0.07027008,0.40996605,0.8962924,0.32389832,-0.41523945,0.38569114,0.3084336,791.75824,798.20514,794.9817,792.5641,562.0879,-0.03985595703125,0.1463623046875,0.99493408203125,0.934600830078125,23.267822265625,-5.93658447265625,1,2.0,1.0,1.0,2.0,10.00
2024-10-11 20:42:26.244,0.53125733,1.2468009,0.587976,0.41294312,0.49722007,0.7662659,0.35579377,0.3807151,0.5095887,0.38330346,0.27825952,0.61465865,0.4786894,-0.07027008,0.40996605,0.8962924,0.32389832,-0.41523945,0.38569114,0.3084336,786.52014,795.78754,793.36993,795.38464,554.83514,-0.03985595703125,0.1463623046875,0.99493408203125,0.934600830078125,23.267822265625,-5.93658447265625,1,2.0,1.0,1.0,2.0,10.00
2024-10-11 20:42:26.245,0.53125733,1.2468009,0.587976,0.41294312,0.49722007,0.7662659,0.35579377,0.3807151,0.5095887,0.38330346,0.27825952,0.61465865,0.4786894,-0.07027008,0.40996605,0.8962924,0.32389832,-0.41523945,0.38569114,0.3084336,788.1319,792.1612,793.7729,795.38464,602.7839,-0.03985595703125,0.1463623046875,0.99493408203125,0.934600830078125,23.267822265625,-5.93658447265625,1,2.0,1.0,1.0,2.0,10.00
2024-10-11 20:42:26.278,0.53125733,1.2468009,0.587976,0.41294312,0.49722007,0.7662659,0.35579377,0.3807151,0.5095887,0.38330346,0.27825952,0.61465865,0.4786894,-0.07027008,0.40996605,0.8962924,0.32389832,-0.41523945,0.38569114,0.3084336,788.93774,792.5641,787.72894,802.23444,565.7143,-0.07159423828125,0.14544677734375,0.98822021484375,1.21124267578125,24.53887939453125,-7.678680419921875,1,2.0,1.0,1.0,2.0,10.00
2024-10-11 20:42:26.279,0.53125733,1.2468009,0.587976,0.41294312,0.49722007,0.7662659,0.35579377,0.3807151,0.5095887,0.38330346,0.27825952,0.61465865,0.4786894,-0.07027008,0.40996605,0.8962924,0.32389832,-0.41523945,0.38569114,0.3084336,787.326,791.75824,797.8022,805.8608,589.4872,-0.07159423828125,0.14544677734375,0.98822021484375,1.21124267578125,24.53887939453125,-7.678680419921875,1,2.0,1.0,1.0,2.0,10.00
2024-10-11 20:42:26.280,0.53125733,1.2468009,0.587976,0.41294312,0.49722007,0.7662659,0.35579377,0.3807151,0.5095887,0.38330346,0.27825952,0.61465865,0.4786894,-0.07027008,0.40996605,0.8962924,0.32389832,-0.41523945,0.38569114,0.3084336,786.1172,793.36993,793.7729,797.3993,731.31866,-0.07159423828125,0.14544677734375,0.98822021484375,1.21124267578125,24.53887939453125,-7.678680419921875,1,2.0,1.0,1.0,2.0,10.00
2024-10-11 20:42:26.280,0.53125733,1.2468009,0.587976,0.41294312,0.49722007,0.7662659,0.35579377,0.3807151,0.5095887,0.38330346,0.27825952,0.61465865,0.4786894,-0.07027008,0.40996605,0.8962924,0.32389832,-0.41523945,0.38569114,0.3084336,783.69965,790.9524,786.9231,790.9524,776.04395,-0.07159423828125,0.14544677734375,0.98822021484375,1.21124267578125,24.53887939453125,-7.678680419921875,1,2.0,1.0,1.0,2.0,10.00
2024-10-11 20:42:26.281,0.53125733,1.2468009,0.587976,0.41294312,0.49722007,0.7662659,0.35579377,0.3807151,0.5095887,0.38330346,0.27825952,0.61465865,0.4786894,-0.07027008,0.40996605,0.8962924,0.32389832,-0.41523945,0.38569114,0.3084336,782.0879,792.5641,803.0403,783.69965,674.10254,-0.07159423828125,0.14544677734375,0.98822021484375,1.21124267578125,24.53887939453125,-7.678680419921875,1,2.0,1.0,1.0,2.0,10.00
2024-10-11 20:42:26.282,0.53125733,1.2468009,0.587976,0.41294312,0.49722007,0.7662659,0.35579377,0.3807151,0.5095887,0.38330346,0.27825952,0.61465865,0.4786894,-0.07027008,0.40996605,0.8962924,0.32389832,-0.41523945,0.38569114,0.3084336,779.2674,796.99634,797.3993,779.2674,772.4176,-0.07159423828125,0.14544677734375,0.98822021484375,1.21124267578125,24.53887939453125,-7.678680419921875,1,2.0,1.0,1.0,2.0,10.00
2024-10-11 20:42:26.282,0.53125733,1.2468009,0.587976,0.41294312,0.49722007,0.7662659,0.35579377,0.3807151,0.5095887,0.38330346,0.27825952,0.61465865,0.4786894,-0.07027008,0.40996605,0.8962924,0.32389832,-0.41523945,0.38569114,0.3084336,774.0293,794.9817,791.75824,787.326,984.35895,-0.07159423828125,0.14544677734375,0.98822021484375,1.21124267578125,24.53887939453125,-7.678680419921875,1,2.0,1.0,1.0,2.0,10.00
2024-10-11 20:42:26.283,0.53125733,1.2468009,0.587976,0.41294312,0.49722007,0.7662659,0.35579377,0.3807151,0.5095887,0.38330346,0.27825952,0.61465865,0.4786894,-0.07027008,0.40996605,0.8962924,0.32389832,-0.41523945,0.38569114,0.3084336,768.7912,795.38464,801.4286,788.1319,904.17584,-0.07159423828125,0.14544677734375,0.98822021484375,1.21124267578125,24.53887939453125,-7.678680419921875,1,2.0,1.0,1.0,2.0,10.00
2024-10-11 20:42:26.284,0.53125733,1.2468009,0.587976,0.41294312,0.49722007,0.7662659,0.35579377,0.3807151,0.5095887,0.38330346,0.27825952,0.61465865,0.4786894,-0.07027008,0.40996605,0.8962924,0.32389832,-0.41523945,0.38569114,0.3084336,767.1795,800.6227,792.96704,780.87915,656.3736,-0.07159423828125,0.14544677734375,0.98822021484375,1.21124267578125,24.53887939453125,-7.678680419921875,1,2.0,1.0,1.0,2.0,10.00
2024-10-11 20:42:26.284,0.53125733,1.2468009,0.587976,0.41294312,0.49722007,0.7662659,0.35579377,0.3807151,0.5095887,0.38330346,0.27825952,0.61465865,0.4786894,-0.07027008,0.40996605,0.8962924,0.32389832,-0.41523945,0.38569114,0.3084336,769.59705,803.0403,789.7436,782.8938,624.1392,-0.07159423828125,0.14544677734375,0.98822021484375,1.21124267578125,24.53887939453125,-7.678680419921875,1,2.0,1.0,1.0,2.0,10.00
2024-10-11 20:42:26.285,0.53125733,1.2468009,0.587976,0.41294312,0.49722007,0.7662659,0.35579377,0.3807151,0.5095887,0.38330346,0.27825952,0.61465865,0.4786894,-0.07027008,0.40996605,0.8962924,0.32389832,-0.41523945,0.38569114,0.3084336,770.0,797.3993,794.57874,786.1172,1008.93774,-0.07159423828125,0.14544677734375,0.98822021484375,1.21124267578125,24.53887939453125,-7.678680419921875,1,2.0,1.0,1.0,2.0,10.00
2024-10-11 20:42:26.285,0.53125733,1.2468009,0.587976,0.41294312,0.49722007,0.7662659,0.35579377,0.3807151,0.5095887,0.38330346,0.27825952,0.61465865,0.4786894,-0.07027008,0.40996605,0.8962924,0.32389832,-0.41523945,0.38569114,0.3084336,777.6557,796.1905,792.96704,787.72894,1091.1355,-0.07159423828125,0.14544677734375,0.98822021484375,1.21124267578125,24.53887939453125,-7.678680419921875,1,2.0,1.0,1.0,2.0,10.00
2024-10-11 20:42:26.286,0.53125733,1.2468009,0.587976,0.41294312,0.49722007,0.7662659,0.35579377,0.3807151,0.5095887,0.38330346,0.27825952,0.61465865,0.4786894,-0.07027008,0.40996605,0.8962924,0.32389832,-0.41523945,0.38569114,0.3084336,782.0879,802.6374,800.2198,787.326,744.61536,-0.1064453125,0.14227294921875,0.98822021484375,1.024322509765625,23.679046630859375,-9.278717041015625,1,2.0,1.0,1.0,2.0,10.00
2024-10-11 20:42:26.287,0.53125733,1.225941,0.65058726,0.41294312,0.49722007,0.7394564,0.38509476,0.3807151,0.5095887,0.3811716,0.26423386,0.61465865,0.4786894,-0.08679957,0.41104794,0.8962924,0.32389832,-0.4268886,0.43465635,0.3084336,770.80585,803.8461,776.8498,781.685,664.43225,-0.1064453125,0.14227294921875,0.98822021484375,1.024322509765625,23.679046630859375,-9.278717041015625,1,2.0,1.0,1.0,2.0,10.00
2024-10-11 20:42:26.293,0.53125733,1.225941,0.65058726,0.41294312,0.49722007,0.7394564,0.38509476,0.3807151,0.5095887,0.3811716,0.26423386,0.61465865,0.4786894,-0.08679957,0.41104794,0.8962924,0.32389832,-0.4268886,0.43465635,0.3084336,773.6264,801.4286,770.40295,774.0293,748.6447,-0.1064453125,0.14227294921875,0.98822021484375,1.024322509765625,23.679046630859375,-9.278717041015625,1,2.0,1.0,1.0,2.0,10.00
2024-10-11 20:42:26.294,0.53125733,1.225941,0.65058726,0.41294312,0.49722007,0.7394564,0.38509476,0.3807151,0.5095887,0.3811716,0.26423386,0.61465865,0.4786894,-0.08679957,0.41104794,0.8962924,0.32389832,-0.4268886,0.43465635,0.3084336,775.64105,801.02563,803.8461,772.4176,705.5311,-0.1064453125,0.14227294921875,0.98822021484375,1.024322509765625,23.679046630859375,-9.278717041015625,1,2.0,1.0,1.0,2.0,10.00
2024-10-11 20:42:26.295,0.53125733,1.225941,0.65058726,0.41294312,0.49722007,0.7394564,0.38509476,0.3807151,0.5095887,0.3811716,0.26423386,0.61465865,0.4786894,-0.08679957,0.41104794,0.8962924,0.32389832,-0.4268886,0.43465635,0.3084336,772.4176,804.65204,809.4872,778.86444,653.5531,-0.1064453125,0.14227294921875,0.98822021484375,1.024322509765625,23.679046630859375,-9.278717041015625,1,2.0,1.0,1.0,2.0,10.00
2024-10-11 20:42:26.296,0.53125733,1.225941,0.65058726,0.41294312,0.49722007,0.7394564,0.38509476,0.3807151,0.5095887,0.3811716,0.26423386,0.61465865,0.4786894,-0.08679957,0.41104794,0.8962924,0.32389832,-0.4268886,0.43465635,0.3084336,778.46155,803.0403,792.5641,776.04395,785.7143,-0.1064453125,0.14227294921875,0.98822021484375,1.024322509765625,23.679046630859375,-9.278717041015625,1,2.0,1.0,1.0,2.0,10.00
2024-10-11 20:42:26.296,0.53125733,1.225941,0.65058726,0.41294312,0.49722007,0.7394564,0.38509476,0.3807151,0.5095887,0.3811716,0.26423386,0.61465865,0.4786894,-0.08679957,0.41104794,0.8962924,0.32389832,-0.4268886,0.43465635,0.3084336,782.8938,801.4286,781.28204,776.04395,1033.5165,-0.1064453125,0.14227294921875,0.98822021484375,1.024322509765625,23.679046630859375,-9.278717041015625,1,2.0,1.0,1.0,2.0,10.00
2024-10-11 20:42:26.297,0.53125733,1.225941,0.65058726,0.41294312,0.49722007,0.7394564,0.38509476,0.3807151,0.5095887,0.3811716,0.26423386,0.61465865,0.4786894,-0.08679957,0.41104794,0.8962924,0.32389832,-0.4268886,0.43465635,0.3084336,778.86444,804.65204,786.9231,778.86444,755.89746,-0.1064453125,0.14227294921875,0.98822021484375,1.024322509765625,23.679046630859375,-9.278717041015625,1,2.0,1.0,1.0,2.0,10.00
2024-10-11 20:42:26.298,0.53125733,1.225941,0.65058726,0.41294312,0.49722007,0.7394564,0.38509476,0.3807151,0.5095887,0.3811716,0.26423386,0.61465865,0.4786894,-0.08679957,0.41104794,0.8962924,0.32389832,-0.4268886,0.43465635,0.3084336,780.87915,803.0403,797.8022,774.43225,499.23077,-0.1064453125,0.14227294921875,0.98822021484375,1.024322509765625,23.679046630859375,-9.278717041015625,1,2.0,1.0,1.0,2.0,10.00
2024-10-11 20:42:26.298,0.53125733,1.225941,0.65058726,0.41294312,0.49722007,0.7394564,0.38509476,0.3807151,0.5095887,0.3811716,0.26423386,0.61465865,0.4786894,-0.08679957,0.41104794,0.8962924,0.32389832,-0.4268886,0.43465635,0.3084336,779.67035,800.6227,804.65204,771.6117,652.74725,-0.1064453125,0.14227294921875,0.98822021484375,1.024322509765625,23.679046630859375,-9.278717041015625,1,2.0,1.0,1.0,2.0,10.00
2024-10-11 20:42:26.299,0.53125733,1.225941,0.65058726,0.41294312,0.49722007,0.7394564,0.38509476,0.3807151,0.5095887,0.3811716,0.26423386,0.61465865,0.4786894,-0.08679957,0.41104794,0.8962924,0.32389832,-0.4268886,0.43465635,0.3084336,776.8498,800.2198,804.65204,774.43225,805.05493,-0.1064453125,0.14227294921875,0.98822021484375,1.024322509765625,23.679046630859375,-9.278717041015625,1,2.0,1.0,1.0,2.0,10.00
2024-10-11 20:42:26.300,0.53125733,1.225941,0.65058726,0.41294312,0.49722007,0.7394564,0.38509476,0.3807151,0.5095887,0.3811716,0.26423386,0.61465865,0.4786894,-0.08679957,0.41104794,0.8962924,0.32389832,-0.4268886,0.43465635,0.3084336,778.86444,800.6227,802.6374,777.25275,658.3883,-0.1064453125,0.14227294921875,0.98822021484375,1.024322509765625,23.679046630859375,-9.278717041015625,1,2.0,1.0,1.0,2.0,10.00
2024-10-11 20:42:26.332,0.53125733,1.225941,0.65058726,0.41294312,0.49722007,0.7394564,0.38509476,0.3807151,0.5095887,0.3811716,0.26423386,0.61465865,0.4786894,-0.08679957,0.41104794,0.8962924,0.32389832,-0.4268886,0.43465635,0.3084336,776.4469,801.02563,805.8608,779.2674,572.96704,-0.14703369140625,0.140380859375,0.987548828125,0.49346923828125,22.83416748046875,-10.086212158203125,1,2.0,1.0,1.0,2.0,10.00
2024-10-11 20:42:26.333,0.53125733,1.225941,0.65058726,0.41294312,0.49722007,0.7394564,0.38509476,0.3807151,0.5095887,0.3811716,0.26423386,0.61465865,0.4786894,-0.08679957,0.41104794,0.8962924,0.32389832,-0.4268886,0.43465635,0.3084336,780.07324,800.6227,800.2198,778.0586,765.56775,-0.14703369140625,0.140380859375,0.987548828125,0.49346923828125,22.83416748046875,-10.086212158203125,1,2.0,1.0,1.0,2.0,10.00
2024-10-11 20:42:26.334,0.53125733,1.225941,0.65058726,0.41294312,0.49722007,0.7394564,0.38509476,0.3807151,0.5095887,0.3811716,0.26423386,0.61465865,0.4786894,-0.08679957,0.41104794,0.8962924,0.32389832,-0.4268886,0.43465635,0.3084336,781.685,803.0403,798.20514,772.4176,796.1905,-0.14703369140625,0.140380859375,0.987548828125,0.49346923828125,22.83416748046875,-10.086212158203125,1,2.0,1.0,1.0,2.0,10.00
2024-10-11 20:42:26.334,0.53125733,1.225941,0.65058726,0.41294312,0.49722007,0.7394564,0.38509476,0.3807151,0.5095887,0.3811716,0.26423386,0.61465865,0.4786894,-0.08679957,0.41104794,0.8962924,0.32389832,-0.4268886,0.43465635,0.3084336,780.07324,808.68134,778.46155,772.4176,599.5604,-0.14703369140625,0.140380859375,0.987548828125,0.49346923828125,22.83416748046875,-10.086212158203125,1,2.0,1.0,1.0,2.0,10.00
2024-10-11 20:42:26.335,0.53125733,1.225941,0.65058726,0.41294312,0.49722007,0.7394564,0.38509476,0.3807151,0.5095887,0.3811716,0.26423386,0.61465865,0.4786894,-0.08679957,0.41104794,0.8962924,0.32389832,-0.4268886,0.43465635,0.3084336,780.4762,807.8755,772.8205,774.83514,548.7912,-0.14703369140625,0.140380859375,0.987548828125,0.49346923828125,22.83416748046875,-10.086212158203125,1,2.0,1.0,1.0,2.0,10.00
2024-10-11 20:42:26.336,0.53125733,1.225941,0.65058726,0.41294312,0.49722007,0.7394564,0.38509476,0.3807151,0.5095887,0.3811716,0.26423386,0.61465865,0.4786894,-0.08679957,0.41104794,0.8962924,0.32389832,-0.4268886,0.43465635,0.3084336,779.2674,806.26373,804.65204,781.685,849.3773,-0.14703369140625,0.140380859375,0.987548828125,0.49346923828125,22.83416748046875,-10.086212158203125,1,2.0,1.0,1.0,2.0,10.00
2024-10-11 20:42:26.336,0.53125733,1.225941,0.65058726,0.41294312,0.49722007,0.7394564,0.38509476,0.3807151,0.5095887,0.3811716,0.26423386,0.61465865,0.4786894,-0.08679957,0.41104794,0.8962924,0.32389832,-0.4268886,0.43465635,0.3084336,778.46155,805.4579,809.89014,784.90845,1003.69965,-0.14703369140625,0.140380859375,0.987548828125,0.49346923828125,22.83416748046875,-10.086212158203125,1,2.0,1.0,1.0,2.0,10.00
2024-10-11 20:42:26.337,0.53125733,1.225941,0.65058726,0.41294312,0.49722007,0.7394564,0.38509476,0.3807151,0.5095887,0.3811716,0.26423386,0.61465865,0.4786894,-0.08679957,0.41104794,0.8962924,0.32389832,-0.4268886,0.43465635,0.3084336,775.2381,802.23444,799.011,784.10254,709.9634,-0.14703369140625,0.140380859375,0.987548828125,0.49346923828125,22.83416748046875,-10.086212158203125,1,2.0,1.0,1.0,2.0,10.00
2024-10-11 20:42:26.338,0.53125733,1.225941,0.65058726,0.41294312,0.49722007,0.7394564,0.38509476,0.3807151,0.5095887,0.3811716,0.26423386,0.61465865,0.4786894,-0.08679957,0.41104794,0.8962924,0.32389832,-0.4268886,0.43465635,0.3084336,778.46155,801.8315,798.20514,783.2967,524.61536,-0.14703369140625,0.140380859375,0.987548828125,0.49346923828125,22.83416748046875,-10.086212158203125,1,2.0,1.0,1.0,2.0,10.00
2024-10-11 20:42:26.339,0.53125733,1.225941,0.65058726,0.41294312,0.49722007,0.7394564,0.38509476,0.3807151,0.5095887,0.3811716,0.26423386,0.61465865,0.4786894,-0.08679957,0.41104794,0.8962924,0.32389832,-0.4268886,0.43465635,0.3084336,787.326,801.02563,803.0403,788.5348,819.9634,-0.14703369140625,0.140380859375,0.987548828125,0.49346923828125,22.83416748046875,-10.086212158203125,1,2.0,1.0,1.0,2.0,10.00
2024-10-11 20:42:26.339,0.53125733,1.225941,0.65058726,0.41294312,0.49722007,0.7394564,0.38509476,0.3807151,0.5095887,0.3811716,0.26423386,0.61465865,0.4786894,-0.08679957,0.41104794,0.8962924,0.32389832,-0.4268886,0.43465635,0.3084336,784.90845,805.05493,803.0403,794.9817,1157.619,-0.14703369140625,0.140380859375,0.987548828125,0.49346923828125,22.83416748046875,-10.086212158203125,1,2.0,1.0,1.0,2.0,10.00
2024-10-11 20:42:26.340,0.53125733,1.225941,0.65058726,0.41294312,0.49722007,0.7394564,0.38509476,0.3807151,0.5095887,0.3811716,0.26423386,0.61465865,0.4786894,-0.08679957,0.41104794,0.8962924,0.32389832,-0.4268886,0.43465635,0.3084336,785.7143,809.4872,790.54944,784.10254,894.5055,-0.14703369140625,0.140380859375,0.987548828125,0.49346923828125,22.83416748046875,-10.086212158203125,1,2.0,1.0,1.0,2.0,10.00
2024-10-11 20:42:26.452,0.53125733,1.225941,0.65058726,0.41294312,0.49722007,0.7394564,0.38509476,0.3807151,0.5095887,0.3811716,0.26423386,0.61465865,0.4786894,-0.08679957,0.41104794,0.8962924,0.32389832,-0.4268886,0.43465635,0.3084336,784.90845,803.0403,783.2967,783.69965,709.9634,-0.14703369140625,0.140380859375,0.987548828125,0.49346923828125,22.83416748046875,-10.086212158203125,1,2.0,1.0,1.0,2.0,10.00
2024-10-11 20:42:26.453,0.53125733,1.225941,0.65058726,0.41294312,0.49722007,0.7394564,0.38509476,0.3807151,0.5095887,0.3811716,0.26423386,0.61465865,0.4786894,-0.08679957,0.41104794,0.8962924,0.32389832,-0.4268886,0.43465635,0.3084336,780.4762,797.8022,796.5934,786.52014,751.06226,-0.14703369140625,0.140380859375,0.987548828125,0.49346923828125,22.83416748046875,-10.086212158203125,1,2.0,1.0,1.0,2.0,10.00
2024-10-11 20:42:26.454,0.53125733,1.225941,0.65058726,0.41294312,0.49722007,0.7394564,0.38509476,0.3807151,0.5095887,0.3811716,0.26423386,0.61465865,0.4786894,-0.08679957,0.41104794,0.8962924,0.32389832,-0.4268886,0.43465635,0.3084336,784.90845,796.1905,809.4872,786.1172,691.8315,-0.14703369140625,0.140380859375,0.987548828125,0.49346923828125,22.83416748046875,-10.086212158203125,1,2.0,1.0,1.0,2.0,10.00
2024-10-11 20:42:26.455,0.53125733,1.1778342,0.7300194,0.41294312,0.49722007,0.6686209,0.40571013,0.3807151,0.5095887,0.37337196,0.29505,0.61465865,0.4786894,-0.08871288,0.37307438,0.8962924,0.32389832,-0.43817005,0.39239785,0.3084336,784.5055,796.1905,808.68134,787.326,649.12085,-0.14703369140625,0.140380859375,0.987548828125,0.49346923828125,22.83416748046875,-10.086212158203125,1,2.0,1.0,1.0,2.0,10.00
2024-10-11 20:42:26.460,0.53125733,1.1778342,0.7300194,0.41294312,0.49722007,0.6686209,0.40571013,0.3807151,0.5095887,0.37337196,0.29505,0.61465865,0.4786894,-0.08871288,0.37307438,0.8962924,0.32389832,-0.43817005,0.39239785,0.3084336,780.4762,797.8022,797.8022,784.90845,589.0842,-0.14703369140625,0.140380859375,0.987548828125,0.49346923828125,22.83416748046875,-10.086212158203125,1,2.0,1.0,1.0,2.0,10.00
2024-10-11 20:42:26.461,0.53125733,1.1778342,0.7300194,0.41294312,0.49722007,0.6686209,0.40571013,0.3807151,0.5095887,0.37337196,0.29505,0.61465865,0.4786894,-0.08871288,0.37307438,0.8962924,0.32389832,-0.43817005,0.39239785,0.3084336,783.69965,794.9817,798.60803,789.7436,880.0,-0.14703369140625,0.140380859375,0.987548828125,0.49346923828125,22.83416748046875,-10.086212158203125,1,2.0,1.0,1.0,2.0,10.00
2024-10-11 20:42:26.462,0.53125733,1.1778342,0.7300194,0.41294312,0.49722007,0.6686209,0.40571013,0.3807151,0.5095887,0.37337196,0.29505,0.61465865,0.4786894,-0.08871288,0.37307438,0.8962924,0.32389832,-0.43817005,0.39239785,0.3084336,786.52014,793.7729,800.6227,789.34064,882.01465,-0.14703369140625,0.140380859375,0.987548828125,0.49346923828125,22.83416748046875,-10.086212158203125,1,2.0,1.0,1.0,2.0,10.00
2024-10-11 20:42:26.463,0.53125733,1.1778342,0.7300194,0.41294312,0.49722007,0.6686209,0.40571013,0.3807151,0.5095887,0.37337196,0.29505,0.61465865,0.4786894,-0.08871288,0.37307438,0.8962924,0.32389832,-0.43817005,0.39239785,0.3084336,784.10254,799.81683,809.0842,780.4762,527.4359,-0.14703369140625,0.140380859375,0.987548828125,0.49346923828125,22.83416748046875,-10.086212158203125,1,2.0,1.0,1.0,2.0,10.00
2024-10-11 20:42:26.464,0.53125733,1.1778342,0.7300194,0.41294312,0.49722007,0.6686209,0.40571013,0.3807151,0.5095887,0.37337196,0.29505,0.61465865,0.4786894,-0.08871288,0.37307438,0.8962924,0.32389832,-0.43817005,0.39239785,0.3084336,792.5641,803.44324,817.5458,780.07324,555.2381,-0.14703369140625,0.140380859375,0.987548828125,0.49346923828125,22.83416748046875,-10.086212158203125,1,2.0,1.0,1.0,2.0,10.00
2024-10-11 20:42:26.464,0.53125733,1.1778342,0.7300194,0.41294312,0.49722007,0.6686209,0.40571013,0.3807151,0.5095887,0.37337196,0.29505,0.61465865,0.4786894,-0.08871288,0.37307438,0.8962924,0.32389832,-0.43817005,0.39239785,0.3084336,794.9817,799.41394,803.44324,782.49084,894.5055,-0.14703369140625,0.140380859375,0.987548828125,0.49346923828125,22.83416748046875,-10.086212158203125,1,2.0,1.0,1.0,2.0,10.00
2024-10-11 20:42:26.465,0.53125733,1.1778342,0.7300194,0.41294312,0.49722007,0.6686209,0.40571013,0.3807151,0.5095887,0.37337196,0.29505,0.61465865,0.4786894,-0.08871288,0.37307438,0.8962924,0.32389832,-0.43817005,0.39239785,0.3084336,788.5348,802.23444,791.75824,781.685,769.19415,-0.14703369140625,0.140380859375,0.987548828125,0.49346923828125,22.83416748046875,-10.086212158203125,1,2.0,1.0,1.0,2.0,10.00
2024-10-11 20:42:26.466,0.53125733,1.1778342,0.7300194,0.41294312,0.49722007,0.6686209,0.40571013,0.3807151,0.5095887,0.37337196,0.29505,0.61465865,0.4786894,-0.08871288,0.37307438,0.8962924,0.32389832,-0.43817005,0.39239785,0.3084336,793.36993,806.26373,799.81683,785.31134,580.6227,-0.14703369140625,0.140380859375,0.987548828125,0.49346923828125,22.83416748046875,-10.086212158203125,1,2.0,1.0,1.0,2.0,10.00
2024-10-11 20:42:26.467,0.53125733,1.1778342,0.7300194,0.41294312,0.49722007,0.6686209,0.40571013,0.3807151,0.5095887,0.37337196,0.29505,0.61465865,0.4786894,-0.08871288,0.37307438,0.8962924,0.32389832,-0.43817005,0.39239785,0.3084336,794.17584,803.0403,799.81683,784.5055,659.59705,-0.15997314453125,0.13775634765625,0.98016357421875,-0.43365478515625,20.875244140625,-9.218902587890625,1,2.0,1.0,1.0,2.0,10.00
2024-10-11 20:42:26.467,0.53125733,1.1778342,0.7300194,0.41294312,0.49722007,0.6686209,0.40571013,0.3807151,0.5095887,0.37337196,0.29505,0.61465865,0.4786894,-0.08871288,0.37307438,0.8962924,0.32389832,-0.43817005,0.39239785,0.3084336,782.49084,799.011,794.57874,784.10254,735.7509,-0.15997314453125,0.13775634765625,0.98016357421875,-0.43365478515625,20.875244140625,-9.218902587890625,1,2.0,1.0,1.0,2.0,10.00
2024-10-11 20:42:26.468,0.53125733,1.1778342,0.7300194,0.41294312,0.49722007,0.6686209,0.40571013,0.3807151,0.5095887,0.37337196,0.29505,0.61465865,0.4786894,-0.08871288,0.37307438,0.8962924,0.32389832,-0.43817005,0.39239785,0.3084336,778.0586,802.6374,801.4286,785.31134,615.6777,-0.15997314453125,0.13775634765625,0.98016357421875,-0.43365478515625,20.875244140625,-9.218902587890625,1,2.0,1.0,1.0,2.0,10.00
2024-10-11 20:42:26.469,0.53125733,1.1778342,0.7300194,0.41294312,0.49722007,0.6686209,0.40571013,0.3807151,0.5095887,0.37337196,0.29505,0.61465865,0.4786894,-0.08871288,0.37307438,0.8962924,0.32389832,-0.43817005,0.39239785,0.3084336,788.5348,805.05493,802.23444,782.49084,539.92676,-0.15997314453125,0.13775634765625,0.98016357421875,-0.43365478515625,20.875244140625,-9.218902587890625,1,2.0,1.0,1.0,2.0,10.00
2024-10-11 20:42:26.469,0.53125733,1.1778342,0.7300194,0.41294312,0.49722007,0.6686209,0.40571013,0.3807151,0.5095887,0.37337196,0.29505,0.61465865,0.4786894,-0.08871288,0.37307438,0.8962924,0.32389832,-0.43817005,0.39239785,0.3084336,784.90845,801.4286,796.5934,778.0586,616.8865,-0.15997314453125,0.13775634765625,0.98016357421875,-0.43365478515625,20.875244140625,-9.218902587890625,1,2.0,1.0,1.0,2.0,10.00
2024-10-11 20:42:26.470,0.53125733,1.1778342,0.7300194,0.41294312,0.49722007,0.6686209,0.40571013,0.3807151,0.5095887,0.37337196,0.29505,0.61465865,0.4786894,-0.08871288,0.37307438,0.8962924,0.32389832,-0.43817005,0.39239785,0.3084336,773.6264,802.6374,789.34064,780.07324,730.9158,-0.15997314453125,0.13775634765625,0.98016357421875,-0.43365478515625,20.875244140625,-9.218902587890625,1,2.0,1.0,1.0,2.0,10.00
2024-10-11 20:42:26.471,0.53125733,1.1778342,0.7300194,0.41294312,0.49722007,0.6686209,0.40571013,0.3807151,0.5095887,0.37337196,0.29505,0.61465865,0.4786894,-0.08871288,0.37307438,0.8962924,0.32389832,-0.43817005,0.39239785,0.3084336,777.6557,801.4286,790.14655,781.685,776.4469,-0.15997314453125,0.13775634765625,0.98016357421875,-0.43365478515625,20.875244140625,-9.218902587890625,1,2.0,1.0,1.0,2.0,10.00
2024-10-11 20:42:26.471,0.53125733,1.1778342,0.7300194,0.41294312,0.49722007,0.6686209,0.40571013,0.3807151,0.5095887,0.37337196,0.29505,0.61465865,0.4786894,-0.08871288,0.37307438,0.8962924,0.32389832,-0.43817005,0.39239785,0.3084336,786.1172,801.8315,798.20514,786.52014,836.4835,-0.15997314453125,0.13775634765625,0.98016357421875,-0.43365478515625,20.875244140625,-9.218902587890625,1,2.0,1.0,1.0,2.0,10.00
2024-10-11 20:42:26.472,0.53125733,1.1778342,0.7300194,0.41294312,0.49722007,0.6686209,0.40571013,0.3807151,0.5095887,0.37337196,0.29505,0.61465865,0.4786894,-0.08871288,0.37307438,0.8962924,0.32389832,-0.43817005,0.39239785,0.3084336,785.31134,806.26373,796.5934,791.75824,844.94507,-0.15997314453125,0.13775634765625,0.98016357421875,-0.43365478515625,20.875244140625,-9.218902587890625,1,2.0,1.0,1.0,2.0,10.00
2024-10-11 20:42:26.473,0.53125733,1.1778342,0.7300194,0.41294312,0.49722007,0.6686209,0.40571013,0.3807151,0.5095887,0.37337196,0.29505,0.61465865,0.4786894,-0.08871288,0.37307438,0.8962924,0.32389832,-0.43817005,0.39239785,0.3084336,786.52014,803.44324,789.34064,785.7143,629.3773,-0.15997314453125,0.13775634765625,0.98016357421875,-0.43365478515625,20.875244140625,-9.218902587890625,1,2.0,1.0,1.0,2.0,10.00
2024-10-11 20:42:26.474,0.53125733,1.1778342,0.7300194,0.41294312,0.49722007,0.6686209,0.40571013,0.3807151,0.5095887,0.37337196,0.29505,0.61465865,0.4786894,-0.08871288,0.37307438,0.8962924,0.32389832,-0.43817005,0.39239785,0.3084336,785.7143,801.02563,788.1319,779.67035,566.1172,-0.15997314453125,0.13775634765625,0.98016357421875,-0.43365478515625,20.875244140625,-9.218902587890625,1,2.0,1.0,1.0,2.0,10.00
2024-10-11 20:42:26.474,0.53125733,1.1778342,0.7300194,0.41294312,0.49722007,0.6686209,0.40571013,0.3807151,0.5095887,0.37337196,0.29505,0.61465865,0.4786894,-0.08871288,0.37307438,0.8962924,0.32389832,-0.43817005,0.39239785,0.3084336,789.34064,804.2491,803.0403,780.87915,678.5348,-0.15997314453125,0.13775634765625,0.98016357421875,-0.43365478515625,20.875244140625,-9.218902587890625,1,2.0,1.0,1.0,2.0,10.00
2024-10-11 20:42:26.508,0.53125733,1.1778342,0.7300194,0.41294312,0.49722007,0.6686209,0.40571013,0.3807151,0.5095887,0.37337196,0.29505,0.61465865,0.4786894,-0.08871288,0.37307438,0.8962924,0.32389832,-0.43817005,0.39239785,0.3084336,787.326,804.65204,808.2784,787.72894,900.14655,-0.18572998046875,0.1328125,0.98223876953125,-1.099090576171875,16.82281494140625,-7.955322265625,1,2.0,1.0,1.0,2.0,10.00
2024-10-11 20:42:26.509,0.53125733,1.1778342,0.7300194,0.41294312,0.49722007,0.6686209,0.40571013,0.3807151,0.5095887,0.37337196,0.29505,0.61465865,0.4786894,-0.08871288,0.37307438,0.8962924,0.32389832,-0.43817005,0.39239785,0.3084336,779.67035,798.60803,806.6667,781.685,803.44324,-0.18572998046875,0.1328125,0.98223876953125,-1.099090576171875,16.82281494140625,-7.955322265625,1,2.0,1.0,1.0,2.0,10.00
2024-10-11 20:42:26.510,0.53125733,1.1778342,0.7300194,0.41294312,0.49722007,0.6686209,0.40571013,0.3807151,0.5095887,0.37337196,0.29505,0.61465865,0.4786894,-0.08871288,0.37307438,0.8962924,0.32389832,-0.43817005,0.39239785,0.3084336,784.5055,801.02563,799.011,779.67035,599.9634,-0.18572998046875,0.1328125,0.98223876953125,-1.099090576171875,16.82281494140625,-7.955322265625,1,2.0,1.0,1.0,2.0,10.00
2024-10-11 20:42:26.511,0.53125733,1.1778342,0.7300194,0.41294312,0.49722007,0.6686209,0.40571013,0.3807151,0.5095887,0.37337196,0.29505,0.61465865,0.4786894,-0.08871288,0.37307438,0.8962924,0.32389832,-0.43817005,0.39239785,0.3084336,781.28204,804.2491,783.69965,784.90845,686.99634,-0.18572998046875,0.1328125,0.98223876953125,-1.099090576171875,16.82281494140625,-7.955322265625,1,2.0,1.0,1.0,2.0,10.00
2024-10-11 20:42:26.512,0.53125733,1.1778342,0.7300194,0.41294312,0.49722007,0.6686209,0.40571013,0.3807151,0.5095887,0.37337196,0.29505,0.61465865,0.4786894,-0.08871288,0.37307438,0.8962924,0.32389832,-0.43817005,0.39239785,0.3084336,776.4469,799.81683,790.9524,778.86444,811.0989,-0.18572998046875,0.1328125,0.98223876953125,-1.099090576171875,16.82281494140625,-7.955322265625,1,2.0,1.0,1.0,2.0,10.00
2024-10-11 20:42:26.513,0.53125733,1.0971947,0.7344386,0.41294312,0.49722007,0.54284644,0.37799808,0.3807151,0.5095887,0.3661073,0.29505,0.61465865,0.4786894,-0.0850523,0.33697942,0.8962924,0.32389832,-0.44681576,0.33239222,0.3084336,781.28204,798.20514,802.23444,775.2381,809.89014,-0.18572998046875,0.1328125,0.98223876953125,-1.099090576171875,16.82281494140625,-7.955322265625,1,2.0,1.0,1.0,2.0,10.00
2024-10-11 20:42:26.518,0.53125733,1.0971947,0.7344386,0.41294312,0.49722007,0.54284644,0.37799808,0.3807151,0.5095887,0.3661073,0.29505,0.61465865,0.4786894,-0.0850523,0.33697942,0.8962924,0.32389832,-0.44681576,0.33239222,0.3084336,790.14655,802.6374,798.20514,775.2381,730.5128,-0.18572998046875,0.1328125,0.98223876953125,-1.099090576171875,16.82281494140625,-7.955322265625,1,2.0,1.0,1.0,2.0,10.00
2024-10-11 20:42:26.519,0.53125733,1.0971947,0.7344386,0.41294312,0.49722007,0.54284644,0.37799808,0.3807151,0.5095887,0.3661073,0.29505,0.61465865,0.4786894,-0.0850523,0.33697942,0.8962924,0.32389832,-0.44681576,0.33239222,0.3084336,785.7143,805.05493,796.99634,770.0,617.28937,-0.18572998046875,0.1328125,0.98223876953125,-1.099090576171875,16.82281494140625,-7.955322265625,1,2.0,1.0,1.0,2.0,10.00
2024-10-11 20:42:26.520,0.53125733,1.0971947,0.7344386,0.41294312,0.49722007,0.54284644,0.37799808,0.3807151,0.5095887,0.3661073,0.29505,0.61465865,0.4786894,-0.0850523,0.33697942,0.8962924,0.32389832,-0.44681576,0.33239222,0.3084336,774.43225,803.0403,791.75824,776.4469,1027.0696,-0.18572998046875,0.1328125,0.98223876953125,-1.099090576171875,16.82281494140625,-7.955322265625,1,2.0,1.0,1.0,2.0,10.00
2024-10-11 20:42:26.520,0.53125733,1.0971947,0.7344386,0.41294312,0.49722007,0.54284644,0.37799808,0.3807151,0.5095887,0.3661073,0.29505,0.61465865,0.4786894,-0.0850523,0.33697942,0.8962924,0.32389832,-0.44681576,0.33239222,0.3084336,777.25275,802.6374,782.8938,781.685,1285.751,-0.18572998046875,0.1328125,0.98223876953125,-1.099090576171875,16.82281494140625,-7.955322265625,1,2.0,1.0,1.0,2.0,10.00
2024-10-11 20:42:26.521,0.53125733,1.0971947,0.7344386,0.41294312,0.49722007,0.54284644,0.37799808,0.3807151,0.5095887,0.3661073,0.29505,0.61465865,0.4786894,-0.0850523,0.33697942,0.8962924,0.32389832,-0.44681576,0.33239222,0.3084336,775.2381,805.4579,791.3553,769.19415,714.3956,-0.18572998046875,0.1328125,0.98223876953125,-1.099090576171875,16.82281494140625,-7.955322265625,1,2.0,1.0,1.0,2.0,10.00
2024-10-11 20:42:26.522,0.53125733,1.0971947,0.7344386,0.41294312,0.49722007,0.54284644,0.37799808,0.3807151,0.5095887,0.3661073,0.29505,0.61465865,0.4786894,-0.0850523,0.33697942,0.8962924,0.32389832,-0.44681576,0.33239222,0.3084336,770.40295,807.0696,804.65204,765.16486,424.68866,-0.18572998046875,0.1328125,0.98223876953125,-1.099090576171875,16.82281494140625,-7.955322265625,1,2.0,1.0,1.0,2.0,10.00
2024-10-11 20:42:26.523,0.53125733,1.0971947,0.7344386,0.41294312,0.49722007,0.54284644,0.37799808,0.3807151,0.5095887,0.3661073,0.29505,0.61465865,0.4786894,-0.0850523,0.33697942,0.8962924,0.32389832,-0.44681576,0.33239222,0.3084336,781.685,807.8755,805.05493,774.43225,449.2674,-0.20458984375,0.12762451171875,0.98333740234375,-0.231781005859375,14.176025390625,-6.3702392578125,1,2.0,1.0,1.0,2.0,10.00
2024-10-11 20:42:26.524,0.53125733,1.0971947,0.7344386,0.41294312,0.49722007,0.54284644,0.37799808,0.3807151,0.5095887,0.3661073,0.29505,0.61465865,0.4786894,-0.0850523,0.33697942,0.8962924,0.32389832,-0.44681576,0.33239222,0.3084336,788.1319,810.293,805.4579,776.8498,334.83517,-0.20458984375,0.12762451171875,0.98333740234375,-0.231781005859375,14.176025390625,-6.3702392578125,1,2.0,1.0,1.0,2.0,10.00
2024-10-11 20:42:26.524,0.53125733,1.0971947,0.7344386,0.41294312,0.49722007,0.54284644,0.37799808,0.3807151,0.5095887,0.3661073,0.29505,0.61465865,0.4786894,-0.0850523,0.33697942,0.8962924,0.32389832,-0.44681576,0.33239222,0.3084336,782.0879,805.05493,792.1612,774.83514,325.16483,-0.20458984375,0.12762451171875,0.98333740234375,-0.231781005859375,14.176025390625,-6.3702392578125,1,2.0,1.0,1.0,2.0,10.00
2024-10-11 20:42:26.525,0.53125733,1.0971947,0.7344386,0.41294312,0.49722007,0.54284644,0.37799808,0.3807151,0.5095887,0.3661073,0.29505,0.61465865,0.4786894,-0.0850523,0.33697942,0.8962924,0.32389832,-0.44681576,0.33239222,0.3084336,791.75824,799.011,788.93774,774.0293,414.21246,-0.20458984375,0.12762451171875,0.98333740234375,-0.231781005859375,14.176025390625,-6.3702392578125,1,2.0,1.0,1.0,2.0,10.00
2024-10-11 20:42:26.526,0.53125733,1.0971947,0.7344386,0.41294312,0.49722007,0.54284644,0.37799808,0.3807151,0.5095887,0.3661073,0.29505,0.61465865,0.4786894,-0.0850523,0.33697942,0.8962924,0.32389832,-0.44681576,0.33239222,0.3084336,799.011,802.23444,796.99634,776.4469,535.89746,-0.20458984375,0.12762451171875,0.98333740234375,-0.231781005859375,14.176025390625,-6.3702392578125,1,2.0,1.0,1.0,2.0,10.00
2024-10-11 20:42:26.527,0.53125733,1.0971947,0.7344386,0.41294312,0.49722007,0.54284644,0.37799808,0.3807151,0.5095887,0.3661073,0.29505,0.61465865,0.4786894,-0.0850523,0.33697942,0.8962924,0.32389832,-0.44681576,0.33239222,0.3084336,782.49084,807.47253,796.1905,775.64105,646.7033,-0.20458984375,0.12762451171875,0.98333740234375,-0.231781005859375,14.176025390625,-6.3702392578125,1,2.0,1.0,1.0,2.0,10.00
2024-10-11 20:42:26.528,0.53125733,1.0971947,0.7344386,0.41294312,0.49722007,0.54284644,0.37799808,0.3807151,0.5095887,0.3661073,0.29505,0.61465865,0.4786894,-0.0850523,0.33697942,0.8962924,0.32389832,-0.44681576,0.33239222,0.3084336,781.685,809.89014,796.99634,767.1795,607.619,-0.20458984375,0.12762451171875,0.98333740234375,-0.231781005859375,14.176025390625,-6.3702392578125,1,2.0,1.0,1.0,2.0,10.00
2024-10-11 20:42:26.529,0.53125733,1.0971947,0.7344386,0.41294312,0.49722007,0.54284644,0.37799808,0.3807151,0.5095887,0.3661073,0.29505,0.61465865,0.4786894,-0.0850523,0.33697942,0.8962924,0.32389832,-0.44681576,0.33239222,0.3084336,782.0879,806.6667,788.5348,765.56775,705.12823,-0.20458984375,0.12762451171875,0.98333740234375,-0.231781005859375,14.176025390625,-6.3702392578125,1,2.0,1.0,1.0,2.0,10.00
2024-10-11 20:42:26.530,0.53125733,1.0971947,0.7344386,0.41294312,0.49722007,0.54284644,0.37799808,0.3807151,0.5095887,0.3661073,0.29505,0.61465865,0.4786894,-0.0850523,0.33697942,0.8962924,0.32389832,-0.44681576,0.33239222,0.3084336,774.43225,803.44324,777.25275,772.8205,819.15753,-0.20458984375,0.12762451171875,0.98333740234375,-0.231781005859375,14.176025390625,-6.3702392578125,1,2.0,1.0,1.0,2.0,10.00
2024-10-11 20:42:26.531,0.53125733,1.0971947,0.7344386,0.41294312,0.49722007,0.54284644,0.37799808,0.3807151,0.5095887,0.3661073,0.29505,0.61465865,0.4786894,-0.0850523,0.33697942,0.8962924,0.32389832,-0.44681576,0.33239222,0.3084336,772.4176,805.4579,784.10254,769.59705,536.7033,-0.20458984375,0.12762451171875,0.98333740234375,-0.231781005859375,14.176025390625,-6.3702392578125,1,2.0,1.0,1.0,2.0,10.00
2024-10-11 20:42:26.531,0.53125733,1.0971947,0.7344386,0.41294312,0.49722007,0.54284644,0.37799808,0.3807151,0.5095887,0.3661073,0.29505,0.61465865,0.4786894,-0.0850523,0.33697942,0.8962924,0.32389832,-0.44681576,0.33239222,0.3084336,765.56775,802.6374,796.1905,768.3883,465.78754,-0.20458984375,0.12762451171875,0.98333740234375,-0.231781005859375,14.176025390625,-6.3702392578125,1,2.0,1.0,1.0,2.0,10.00
2024-10-11 20:42:26.532,0.53125733,1.0971947,0.7344386,0.41294312,0.49722007,0.54284644,0.37799808,0.3807151,0.5095887,0.3661073,0.29505,0.61465865,0.4786894,-0.0850523,0.33697942,0.8962924,0.32389832,-0.44681576,0.33239222,0.3084336,772.01465,802.6374,796.5934,776.4469,604.3956,-0.20458984375,0.12762451171875,0.98333740234375,-0.231781005859375,14.176025390625,-6.3702392578125,1,2.0,1.0,1.0,2.0,10.00
2024-10-11 20:42:26.635,0.53125733,1.0971947,0.7344386,0.41294312,0.49722007,0.54284644,0.37799808,0.3807151,0.5095887,0.3661073,0.29505,0.61465865,0.4786894,-0.0850523,0.33697942,0.8962924,0.32389832,-0.44681576,0.33239222,0.3084336,780.87915,800.2198,794.57874,775.64105,610.84247,-0.22198486328125,0.12689208984375,0.97723388671875,0.418701171875,11.207733154296875,-5.480499267578125,1,2.0,1.0,1.0,2.0,10.00
2024-10-11 20:42:26.636,0.53125733,1.0971947,0.7344386,0.41294312,0.49722007,0.54284644,0.37799808,0.3807151,0.5095887,0.3661073,0.29505,0.61465865,0.4786894,-0.0850523,0.33697942,0.8962924,0.32389832,-0.44681576,0.33239222,0.3084336,773.22345,794.9817,780.87915,770.40295,571.3553,-0.22198486328125,0.12689208984375,0.97723388671875,0.418701171875,11.207733154296875,-5.480499267578125,1,2.0,1.0,1.0,2.0,10.00
2024-10-11 20:42:26.637,0.53125733,1.0971947,0.7344386,0.41294312,0.49722007,0.54284644,0.37799808,0.3807151,0.5095887,0.3661073,0.29505,0.61465865,0.4786894,-0.0850523,0.33697942,0.8962924,0.32389832,-0.44681576,0.33239222,0.3084336,779.2674,799.81683,791.75824,782.49084,629.3773,-0.22198486328125,0.12689208984375,0.97723388671875,0.418701171875,11.207733154296875,-5.480499267578125,1,2.0,1.0,1.0,2.0,10.00
2024-10-11 20:42:26.638,0.53125733,1.0971947,0.7344386,0.41294312,0.49722007,0.54284644,0.37799808,0.3807151,0.5095887,0.3661073,0.29505,0.61465865,0.4786894,-0.0850523,0.33697942,0.8962924,0.32389832,-0.44681576,0.33239222,0.3084336,782.49084,801.02563,812.3077,793.7729,709.9634,-0.22198486328125,0.12689208984375,0.97723388671875,0.418701171875,11.207733154296875,-5.480499267578125,1,2.0,1.0,1.0,2.0,10.00
2024-10-11 20:42:26.639,0.53125733,1.0971947,0.7344386,0.41294312,0.49722007,0.54284644,0.37799808,0.3807151,0.5095887,0.3661073,0.29505,0.61465865,0.4786894,-0.0850523,0.33697942,0.8962924,0.32389832,-0.44681576,0.33239222,0.3084336,777.25275,792.1612,800.6227,787.326,722.4542,-0.22198486328125,0.12689208984375,0.97723388671875,0.418701171875,11.207733154296875,-5.480499267578125,1,2.0,1.0,1.0,2.0,10.00
2024-10-11 20:42:26.639,0.53125733,1.0971947,0.7344386,0.41294312,0.49722007,0.54284644,0.37799808,0.3807151,0.5095887,0.3661073,0.29505,0.61465865,0.4786894,-0.0850523,0.33697942,0.8962924,0.32389832,-0.44681576,0.33239222,0.3084336,783.2967,788.5348,794.57874,784.90845,753.0769,-0.22198486328125,0.12689208984375,0.97723388671875,0.418701171875,11.207733154296875,-5.480499267578125,1,2.0,1.0,1.0,2.0,10.00
2024-10-11 20:42:26.640,0.53125733,1.0971947,0.7344386,0.41294312,0.49722007,0.54284644,0.37799808,0.3807151,0.5095887,0.3661073,0.29505,0.61465865,0.4786894,-0.0850523,0.33697942,0.8962924,0.32389832,-0.44681576,0.33239222,0.3084336,779.67035,792.96704,796.1905,778.46155,716.0073,-0.22198486328125,0.12689208984375,0.97723388671875,0.418701171875,11.207733154296875,-5.480499267578125,1,2.0,1.0,1.0,2.0,10.00
2024-10-11 20:42:26.641,0.53125733,0.99570704,0.6617904,0.41294312,0.49722007,0.38119295,0.3020034,0.3807151,0.5095887,0.32098168,0.23901184,0.61465865,0.4786894,-0.08643518,0.29991847,0.8962924,0.32389832,-0.44572824,0.29521263,0.3084336,782.0879,794.57874,783.2967,788.1319,955.34796,-0.22198486328125,0.12689208984375,0.97723388671875,0.418701171875,11.207733154296875,-5.480499267578125,1,2.0,1.0,1.0,2.0,10.00
2024-10-11 20:42:26.646,0.53125733,0.99570704,0.6617904,0.41294312,0.49722007,0.38119295,0.3020034,0.3807151,0.5095887,0.32098168,0.23901184,0.61465865,0.4786894,-0.08643518,0.29991847,0.8962924,0.32389832,-0.44572824,0.29521263,0.3084336,780.87915,791.3553,792.5641,794.57874,894.90845,-0.22198486328125,0.12689208984375,0.97723388671875,0.418701171875,11.207733154296875,-5.480499267578125,1,2.0,1.0,1.0,2.0,10.00
2024-10-11 20:42:26.647,0.53125733,0.99570704,0.6617904,0.41294312,0.49722007,0.38119295,0.3020034,0.3807151,0.5095887,0.32098168,0.23901184,0.61465865,0.4786894,-0.08643518,0.29991847,0.8962924,0.32389832,-0.44572824,0.29521263,0.3084336,776.8498,793.36993,808.68134,778.46155,617.6923,-0.22198486328125,0.12689208984375,0.97723388671875,0.418701171875,11.207733154296875,-5.480499267578125,1,2.0,1.0,1.0,2.0,10.00
2024-10-11 20:42:26.648,0.53125733,0.99570704,0.6617904,0.41294312,0.49722007,0.38119295,0.3020034,0.3807151,0.5095887,0.32098168,0.23901184,0.61465865,0.4786894,-0.08643518,0.29991847,0.8962924,0.32389832,-0.44572824,0.29521263,0.3084336,784.10254,797.3993,799.011,777.6557,618.0952,-0.22198486328125,0.12689208984375,0.97723388671875,0.418701171875,11.207733154296875,-5.480499267578125,1,2.0,1.0,1.0,2.0,10.00
2024-10-11 20:42:26.649,0.53125733,0.99570704,0.6617904,0.41294312,0.49722007,0.38119295,0.3020034,0.3807151,0.5095887,0.32098168,0.23901184,0.61465865,0.4786894,-0.08643518,0.29991847,0.8962924,0.32389832,-0.44572824,0.29521263,0.3084336,784.5055,796.1905,796.5934,778.46155,581.4286,-0.22198486328125,0.12689208984375,0.97723388671875,0.418701171875,11.207733154296875,-5.480499267578125,1,2.0,1.0,1.0,2.0,10.00
2024-10-11 20:42:26.679,0.53125733,0.99570704,0.6617904,0.41294312,0.49722007,0.38119295,0.3020034,0.3807151,0.5095887,0.32098168,0.23901184,0.61465865,0.4786894,-0.08643518,0.29991847,0.8962924,0.32389832,-0.44572824,0.29521263,0.3084336,783.69965,794.57874,795.78754,778.86444,530.65936,-0.22198486328125,0.12689208984375,0.97723388671875,0.418701171875,11.207733154296875,-5.480499267578125,1,2.0,1.0,1.0,2.0,10.00
2024-10-11 20:42:26.680,0.53125733,0.99570704,0.6617904,0.41294312,0.49722007,0.38119295,0.3020034,0.3807151,0.5095887,0.32098168,0.23901184,0.61465865,0.4786894,-0.08643518,0.29991847,0.8962924,0.32389832,-0.44572824,0.29521263,0.3084336,789.7436,801.4286,786.52014,792.1612,488.35165,-0.22198486328125,0.12689208984375,0.97723388671875,0.418701171875,11.207733154296875,-5.480499267578125,1,2.0,1.0,1.0,2.0,10.00
2024-10-11 20:42:26.681,0.53125733,0.99570704,0.6617904,0.41294312,0.49722007,0.38119295,0.3020034,0.3807151,0.5095887,0.32098168,0.23901184,0.61465865,0.4786894,-0.08643518,0.29991847,0.8962924,0.32389832,-0.44572824,0.29521263,0.3084336,795.78754,798.20514,787.72894,801.4286,645.09155,-0.22198486328125,0.12689208984375,0.97723388671875,0.418701171875,11.207733154296875,-5.480499267578125,1,2.0,1.0,1.0,2.0,10.00
2024-10-11 20:42:26.682,0.53125733,0.99570704,0.6617904,0.41294312,0.49722007,0.38119295,0.3020034,0.3807151,0.5095887,0.32098168,0.23901184,0.61465865,0.4786894,-0.08643518,0.29991847,0.8962924,0.32389832,-0.44572824,0.29521263,0.3084336,788.1319,793.36993,796.1905,798.20514,649.92676,-0.22198486328125,0.12689208984375,0.97723388671875,0.418701171875,11.207733154296875,-5.480499267578125,1,2.0,1.0,1.0,2.0,10.00
