TimeStamp,Delta_TP9,Delta_AF7,Delta_AF8,Delta_TP10,Theta_TP9,Theta_AF7,Theta_AF8,Theta_TP10,Alpha_TP9,Alpha_AF7,Alpha_AF8,Alpha_TP10,Beta_TP9,Beta_AF7,Beta_AF8,Beta_TP10,Gamma_TP9,Gamma_AF7,Gamma_AF8,Gamma_TP10,RAW_TP9,RAW_AF7,RAW_AF8,RAW_TP10,AUX_RIGHT,Accelerometer_X,Accelerometer_Y,Accelerometer_Z,Gyro_X,Gyro_Y,Gyro_Z,HeadBandOn,HSI_TP9,HSI_AF7,HSI_AF8,HSI_TP10,Battery,Elements
2024-10-11 20:48:16.105,0.42621738,1.1687527,0.43058625,0.408944,0.56494933,0.8586284,-0.5592872,0.18716514,0.3969704,0.310293,-0.49448085,0.48900655,0.32332554,-0.041132413,0.5437795,0.58470196,0.08520223,-0.3912546,0.44038662,0.08049397,805.05493,792.5641,809.0842,804.65204,509.30402,0.1983642578125,0.11309814453125,0.979736328125,1.12152099609375,-2.041168212890625,0.059814453125,1,2.0,1.0,1.0,2.0,10.00
2024-10-11 20:48:16.106,0.42621738,1.1687527,0.43058625,0.408944,0.56494933,0.8586284,-0.5592872,0.18716514,0.3969704,0.310293,-0.49448085,0.48900655,0.32332554,-0.041132413,0.5437795,0.58470196,0.08520223,-0.3912546,0.44038662,0.08049397,804.2491,790.9524,807.8755,808.68134,720.4396,0.1983642578125,0.11309814453125,0.979736328125,1.12152099609375,-2.041168212890625,0.059814453125,1,2.0,1.0,1.0,2.0,10.00
2024-10-11 20:48:16.108,0.42621738,1.1687527,0.43058625,0.408944,0.56494933,0.8586284,-0.5592872,0.18716514,0.3969704,0.310293,-0.49448085,0.48900655,0.32332554,-0.041132413,0.5437795,0.58470196,0.08520223,-0.3912546,0.44038662,0.08049397,799.81683,795.78754,801.8315,806.6667,839.707,0.1983642578125,0.11309814453125,0.979736328125,1.12152099609375,-2.041168212890625,0.059814453125,1,2.0,1.0,1.0,2.0,10.00
2024-10-11 20:48:16.109,0.42621738,1.1687527,0.43058625,0.408944,0.56494933,0.8586284,-0.5592872,0.18716514,0.3969704,0.310293,-0.49448085,0.48900655,0.32332554,-0.041132413,0.5437795,0.58470196,0.08520223,-0.3912546,0.44038662,0.08049397,797.3993,795.38464,779.67035,796.99634,651.13556,0.1983642578125,0.11309814453125,0.979736328125,1.12152099609375,-2.041168212890625,0.059814453125,1,2.0,1.0,1.0,2.0,10.00
2024-10-11 20:48:16.109,0.42621738,1.1687527,0.43058625,0.408944,0.56494933,0.8586284,-0.5592872,0.18716514,0.3969704,0.310293,-0.49448085,0.48900655,0.32332554,-0.041132413,0.5437795,0.58470196,0.08520223,-0.3912546,0.44038662,0.08049397,796.5934,793.7729,791.75824,801.8315,646.7033,0.1983642578125,0.11309814453125,0.979736328125,1.12152099609375,-2.041168212890625,0.059814453125,1,2.0,1.0,1.0,2.0,10.00
2024-10-11 20:48:16.110,0.42621738,1.1687527,0.43058625,0.408944,0.56494933,0.8586284,-0.5592872,0.18716514,0.3969704,0.310293,-0.49448085,0.48900655,0.32332554,-0.041132413,0.5437795,0.58470196,0.08520223,-0.3912546,0.44038662,0.08049397,800.2198,790.14655,813.91943,811.9048,869.5238,0.1983642578125,0.11309814453125,0.979736328125,1.12152099609375,-2.041168212890625,0.059814453125,1,2.0,1.0,1.0,2.0,10.00
2024-10-11 20:48:16.111,0.42621738,1.1687527,0.43058625,0.408944,0.56494933,0.8586284,-0.5592872,0.18716514,0.3969704,0.310293,-0.49448085,0.48900655,0.32332554,-0.041132413,0.5437795,0.58470196,0.08520223,-0.3912546,0.44038662,0.08049397,809.89014,790.9524,809.89014,815.12823,918.68134,0.1983642578125,0.11309814453125,0.979736328125,1.12152099609375,-2.041168212890625,0.059814453125,1,2.0,1.0,1.0,2.0,10.00
2024-10-11 20:48:16.111,0.42621738,1.1687527,0.43058625,0.408944,0.56494933,0.8586284,-0.5592872,0.18716514,0.3969704,0.310293,-0.49448085,0.48900655,0.32332554,-0.041132413,0.5437795,0.58470196,0.08520223,-0.3912546,0.44038662,0.08049397,811.0989,799.41394,818.7546,817.9487,748.6447,0.1983642578125,0.11309814453125,0.979736328125,1.12152099609375,-2.041168212890625,0.059814453125,1,2.0,1.0,1.0,2.0,10.00
2024-10-11 20:48:16.112,0.42621738,1.1687527,0.43058625,0.408944,0.56494933,0.8586284,-0.5592872,0.18716514,0.3969704,0.310293,-0.49448085,0.48900655,0.32332554,-0.041132413,0.5437795,0.58470196,0.08520223,-0.3912546,0.44038662,0.08049397,807.8755,797.8022,811.9048,818.7546,691.4286,0.1983642578125,0.11309814453125,0.979736328125,1.12152099609375,-2.041168212890625,0.059814453125,1,2.0,1.0,1.0,2.0,10.00
2024-10-11 20:48:16.113,0.42621738,1.1687527,0.43058625,0.408944,0.56494933,0.8586284,-0.5592872,0.18716514,0.3969704,0.310293,-0.49448085,0.48900655,0.32332554,-0.041132413,0.5437795,0.58470196,0.08520223,-0.3912546,0.44038662,0.08049397,810.696,793.36993,801.8315,815.12823,746.2271,0.1983642578125,0.11309814453125,0.979736328125,1.12152099609375,-2.041168212890625,0.059814453125,1,2.0,1.0,1.0,2.0,10.00
2024-10-11 20:48:16.113,0.42621738,1.1687527,0.43058625,0.408944,0.56494933,0.8586284,-0.5592872,0.18716514,0.3969704,0.310293,-0.49448085,0.48900655,0.32332554,-0.041132413,0.5437795,0.58470196,0.08520223,-0.3912546,0.44038662,0.08049397,811.9048,795.78754,794.9817,813.5165,699.0842,0.1983642578125,0.11309814453125,0.979736328125,1.12152099609375,-2.041168212890625,0.059814453125,1,2.0,1.0,1.0,2.0,10.00
2024-10-11 20:48:16.114,0.42621738,1.1687527,0.43058625,0.408944,0.56494933,0.8586284,-0.5592872,0.18716514,0.3969704,0.310293,-0.49448085,0.48900655,0.32332554,-0.041132413,0.5437795,0.58470196,0.08520223,-0.3912546,0.44038662,0.08049397,807.0696,798.20514,792.5641,809.0842,654.35895,0.1983642578125,0.11309814453125,0.979736328125,1.12152099609375,-2.041168212890625,0.059814453125,1,2.0,1.0,1.0,2.0,10.00
2024-10-11 20:48:16.189,0.42621738,1.1687527,0.43058625,0.408944,0.56494933,0.8586284,-0.5592872,0.18716514,0.3969704,0.310293,-0.49448085,0.48900655,0.32332554,-0.041132413,0.5437795,0.58470196,0.08520223,-0.3912546,0.44038662,0.08049397,801.02563,799.011,805.8608,802.6374,747.4359,0.202392578125,0.1109619140625,0.979248046875,0.73272705078125,-1.457977294921875,1.00189208984375,1,2.0,1.0,1.0,2.0,10.00
2024-10-11 20:48:16.190,0.42621738,1.1687527,0.43058625,0.408944,0.56494933,0.8586284,-0.5592872,0.18716514,0.3969704,0.310293,-0.49448085,0.48900655,0.32332554,-0.041132413,0.5437795,0.58470196,0.08520223,-0.3912546,0.44038662,0.08049397,797.3993,796.99634,804.2491,799.41394,933.5897,0.202392578125,0.1109619140625,0.979248046875,0.73272705078125,-1.457977294921875,1.00189208984375,1,2.0,1.0,1.0,2.0,10.00
2024-10-11 20:48:16.191,0.42621738,1.1687527,0.43058625,0.408944,0.56494933,0.8586284,-0.5592872,0.18716514,0.3969704,0.310293,-0.49448085,0.48900655,0.32332554,-0.041132413,0.5437795,0.58470196,0.08520223,-0.3912546,0.44038662,0.08049397,802.6374,799.81683,797.3993,794.9817,870.7326,0.202392578125,0.1109619140625,0.979248046875,0.73272705078125,-1.457977294921875,1.00189208984375,1,2.0,1.0,1.0,2.0,10.00
2024-10-11 20:48:16.192,0.42621738,1.1687527,0.43058625,0.408944,0.56494933,0.8586284,-0.5592872,0.18716514,0.3969704,0.310293,-0.49448085,0.48900655,0.32332554,-0.041132413,0.5437795,0.58470196,0.08520223,-0.3912546,0.44038662,0.08049397,819.5604,800.6227,803.0403,806.26373,721.2454,0.202392578125,0.1109619140625,0.979248046875,0.73272705078125,-1.457977294921875,1.00189208984375,1,2.0,1.0,1.0,2.0,10.00
2024-10-11 20:48:16.193,0.42621738,1.1687527,0.43058625,0.408944,0.56494933,0.8586284,-0.5592872,0.18716514,0.3969704,0.310293,-0.49448085,0.48900655,0.32332554,-0.041132413,0.5437795,0.58470196,0.08520223,-0.3912546,0.44038662,0.08049397,826.4103,795.38464,807.8755,823.5897,844.5421,0.202392578125,0.1109619140625,0.979248046875,0.73272705078125,-1.457977294921875,1.00189208984375,1,2.0,1.0,1.0,2.0,10.00
2024-10-11 20:48:16.193,0.42621738,1.1687527,0.43058625,0.408944,0.56494933,0.8586284,-0.5592872,0.18716514,0.3969704,0.310293,-0.49448085,0.48900655,0.32332554,-0.041132413,0.5437795,0.58470196,0.08520223,-0.3912546,0.44038662,0.08049397,812.71063,792.5641,803.44324,815.9341,1079.0476,0.202392578125,0.1109619140625,0.979248046875,0.73272705078125,-1.457977294921875,1.00189208984375,1,2.0,1.0,1.0,2.0,10.00
2024-10-11 20:48:16.194,0.42621738,1.1687527,0.43058625,0.408944,0.56494933,0.8586284,-0.5592872,0.18716514,0.3969704,0.310293,-0.49448085,0.48900655,0.32332554,-0.041132413,0.5437795,0.58470196,0.08520223,-0.3912546,0.44038662,0.08049397,796.99634,791.3553,807.0696,795.78754,931.1722,0.202392578125,0.1109619140625,0.979248046875,0.73272705078125,-1.457977294921875,1.00189208984375,1,2.0,1.0,1.0,2.0,10.00
2024-10-11 20:48:16.195,0.42621738,1.1687527,0.43058625,0.408944,0.56494933,0.8586284,-0.5592872,0.18716514,0.3969704,0.310293,-0.49448085,0.48900655,0.32332554,-0.041132413,0.5437795,0.58470196,0.08520223,-0.3912546,0.44038662,0.08049397,794.57874,788.1319,808.2784,793.36993,715.6044,0.202392578125,0.1109619140625,0.979248046875,0.73272705078125,-1.457977294921875,1.00189208984375,1,2.0,1.0,1.0,2.0,10.00
2024-10-11 20:48:16.195,0.42621738,1.1687527,0.43058625,0.408944,0.56494933,0.8586284,-0.5592872,0.18716514,0.3969704,0.310293,-0.49448085,0.48900655,0.32332554,-0.041132413,0.5437795,0.58470196,0.08520223,-0.3912546,0.44038662,0.08049397,791.75824,786.9231,811.9048,799.81683,871.13556,0.202392578125,0.1109619140625,0.979248046875,0.73272705078125,-1.457977294921875,1.00189208984375,1,2.0,1.0,1.0,2.0,10.00
2024-10-11 20:48:16.196,0.42621738,1.1687527,0.43058625,0.408944,0.56494933,0.8586284,-0.5592872,0.18716514,0.3969704,0.310293,-0.49448085,0.48900655,0.32332554,-0.041132413,0.5437795,0.58470196,0.08520223,-0.3912546,0.44038662,0.08049397,783.2967,789.7436,831.6484,802.23444,927.9487,0.202392578125,0.1109619140625,0.979248046875,0.73272705078125,-1.457977294921875,1.00189208984375,1,2.0,1.0,1.0,2.0,10.00
2024-10-11 20:48:16.197,0.42621738,1.1687527,0.43058625,0.408944,0.56494933,0.8586284,-0.5592872,0.18716514,0.3969704,0.310293,-0.49448085,0.48900655,0.32332554,-0.041132413,0.5437795,0.58470196,0.08520223,-0.3912546,0.44038662,0.08049397,774.43225,790.54944,835.2747,798.20514,711.5751,0.202392578125,0.1109619140625,0.979248046875,0.73272705078125,-1.457977294921875,1.00189208984375,1,2.0,1.0,1.0,2.0,10.00
2024-10-11 20:48:16.198,0.42621738,1.1687527,0.43058625,0.408944,0.56494933,0.8586284,-0.5592872,0.18716514,0.3969704,0.310293,-0.49448085,0.48900655,0.32332554,-0.041132413,0.5437795,0.58470196,0.08520223,-0.3912546,0.44038662,0.08049397,765.9707,784.10254,825.6044,789.34064,699.89014,0.202392578125,0.1109619140625,0.979248046875,0.73272705078125,-1.457977294921875,1.00189208984375,1,2.0,1.0,1.0,2.0,10.00
2024-10-11 20:48:16.234,0.42621738,1.1687527,0.43058625,0.408944,0.56494933,0.8586284,-0.5592872,0.18716514,0.3969704,0.310293,-0.49448085,0.48900655,0.32332554,-0.041132413,0.5437795,0.58470196,0.08520223,-0.3912546,0.44038662,0.08049397,769.59705,775.64105,822.381,791.75824,866.30035,0.20867919921875,0.1124267578125,0.98468017578125,0.844879150390625,-1.42059326171875,1.757049560546875,1,2.0,1.0,1.0,2.0,10.00
2024-10-11 20:48:16.237,0.42621738,1.1675062,0.43058625,0.408944,0.56494933,0.8656837,-0.5592872,0.18716514,0.3969704,0.310293,-0.49448085,0.48900655,0.32332554,-0.022593495,0.5437795,0.58470196,0.08520223,-0.39340648,0.44038662,0.08049397,763.95605,770.80585,834.4689,791.75824,901.75824,0.20867919921875,0.1124267578125,0.98468017578125,0.844879150390625,-1.42059326171875,1.757049560546875,1,2.0,1.0,1.0,2.0,10.00
2024-10-11 20:48:16.244,0.42621738,1.1675062,0.43058625,0.408944,0.56494933,0.8656837,-0.5592872,0.18716514,0.3969704,0.310293,-0.49448085,0.48900655,0.32332554,-0.022593495,0.5437795,0.58470196,0.08520223,-0.39340648,0.44038662,0.08049397,765.9707,772.8205,846.1539,794.17584,668.86444,0.20867919921875,0.1124267578125,0.98468017578125,0.844879150390625,-1.42059326171875,1.757049560546875,1,2.0,1.0,1.0,2.0,10.00
2024-10-11 20:48:16.245,0.42621738,1.1675062,0.43058625,0.408944,0.56494933,0.8656837,-0.5592872,0.18716514,0.3969704,0.310293,-0.49448085,0.48900655,0.32332554,-0.022593495,0.5437795,0.58470196,0.08520223,-0.39340648,0.44038662,0.08049397,779.67035,775.64105,844.5421,803.0403,635.42126,0.20867919921875,0.1124267578125,0.98468017578125,0.844879150390625,-1.42059326171875,1.757049560546875,1,2.0,1.0,1.0,2.0,10.00
2024-10-11 20:48:16.246,0.42621738,1.1675062,0.43058625,0.408944,0.56494933,0.8656837,-0.5592872,0.18716514,0.3969704,0.310293,-0.49448085,0.48900655,0.32332554,-0.022593495,0.5437795,0.58470196,0.08520223,-0.39340648,0.44038662,0.08049397,777.6557,774.0293,852.1978,803.0403,811.0989,0.20867919921875,0.1124267578125,0.98468017578125,0.844879150390625,-1.42059326171875,1.757049560546875,1,2.0,1.0,1.0,2.0,10.00
2024-10-11 20:48:16.246,0.42621738,1.1675062,0.43058625,0.408944,0.56494933,0.8656837,-0.5592872,0.18716514,0.3969704,0.310293,-0.49448085,0.48900655,0.32332554,-0.022593495,0.5437795,0.58470196,0.08520223,-0.39340648,0.44038662,0.08049397,764.35895,768.3883,847.76556,797.8022,854.21246,0.20867919921875,0.1124267578125,0.98468017578125,0.844879150390625,-1.42059326171875,1.757049560546875,1,2.0,1.0,1.0,2.0,10.00
2024-10-11 20:48:16.247,0.42621738,1.1675062,0.43058625,0.408944,0.56494933,0.8656837,-0.5592872,0.18716514,0.3969704,0.310293,-0.49448085,0.48900655,0.32332554,-0.022593495,0.5437795,0.58470196,0.08520223,-0.39340648,0.44038662,0.08049397,758.71796,764.7619,832.8571,793.7729,755.4945,0.20867919921875,0.1124267578125,0.98468017578125,0.844879150390625,-1.42059326171875,1.757049560546875,1,2.0,1.0,1.0,2.0,10.00
2024-10-11 20:48:16.248,0.42621738,1.1675062,0.43058625,0.408944,0.56494933,0.8656837,-0.5592872,0.18716514,0.3969704,0.310293,-0.49448085,0.48900655,0.32332554,-0.022593495,0.5437795,0.58470196,0.08520223,-0.39340648,0.44038662,0.08049397,765.9707,767.1795,846.1539,799.011,790.54944,0.20867919921875,0.1124267578125,0.98468017578125,0.844879150390625,-1.42059326171875,1.757049560546875,1,2.0,1.0,1.0,2.0,10.00
2024-10-11 20:48:16.249,0.42621738,1.1675062,0.43058625,0.408944,0.56494933,0.8656837,-0.5592872,0.18716514,0.3969704,0.310293,-0.49448085,0.48900655,0.32332554,-0.022593495,0.5437795,0.58470196,0.08520223,-0.39340648,0.44038662,0.08049397,763.95605,770.0,863.0769,812.3077,912.23444,0.20867919921875,0.1124267578125,0.98468017578125,0.844879150390625,-1.42059326171875,1.757049560546875,1,2.0,1.0,1.0,2.0,10.00
2024-10-11 20:48:16.250,0.42621738,1.1675062,0.43058625,0.408944,0.56494933,0.8656837,-0.5592872,0.18716514,0.3969704,0.310293,-0.49448085,0.48900655,0.32332554,-0.022593495,0.5437795,0.58470196,0.08520223,-0.39340648,0.44038662,0.08049397,751.4652,769.59705,860.2564,809.4872,806.6667,0.20867919921875,0.1124267578125,0.98468017578125,0.844879150390625,-1.42059326171875,1.757049560546875,1,2.0,1.0,1.0,2.0,10.00
2024-10-11 20:48:16.251,0.42621738,1.1675062,0.43058625,0.408944,0.56494933,0.8656837,-0.5592872,0.18716514,0.3969704,0.310293,-0.49448085,0.48900655,0.32332554,-0.022593495,0.5437795,0.58470196,0.08520223,-0.39340648,0.44038662,0.08049397,752.27106,767.5824,857.4359,802.6374,733.3333,0.20867919921875,0.1124267578125,0.98468017578125,0.844879150390625,-1.42059326171875,1.757049560546875,1,2.0,1.0,1.0,2.0,10.00
2024-10-11 20:48:16.251,0.42621738,1.1675062,0.43058625,0.408944,0.56494933,0.8656837,-0.5592872,0.18716514,0.3969704,0.310293,-0.49448085,0.48900655,0.32332554,-0.022593495,0.5437795,0.58470196,0.08520223,-0.39340648,0.44038662,0.08049397,758.315,770.0,848.5714,807.8755,894.10254,0.20867919921875,0.1124267578125,0.98468017578125,0.844879150390625,-1.42059326171875,1.757049560546875,1,2.0,1.0,1.0,2.0,10.00
2024-10-11 20:48:16.273,0.42621738,1.1675062,0.43058625,0.408944,0.56494933,0.8656837,-0.5592872,0.18716514,0.3969704,0.310293,-0.49448085,0.48900655,0.32332554,-0.022593495,0.5437795,0.58470196,0.08520223,-0.39340648,0.44038662,0.08049397,764.35895,774.0293,842.1245,814.3223,1135.0549,0.20867919921875,0.1124267578125,0.98468017578125,0.844879150390625,-1.42059326171875,1.757049560546875,1,2.0,1.0,1.0,2.0,10.00
2024-10-11 20:48:16.274,0.42621738,1.1675062,0.43058625,0.408944,0.56494933,0.8656837,-0.5592872,0.18716514,0.3969704,0.310293,-0.49448085,0.48900655,0.32332554,-0.022593495,0.5437795,0.58470196,0.08520223,-0.39340648,0.44038662,0.08049397,769.19415,770.0,864.2857,815.5311,1383.2601,0.20867919921875,0.1124267578125,0.98468017578125,0.844879150390625,-1.42059326171875,1.757049560546875,1,2.0,1.0,1.0,2.0,10.00
2024-10-11 20:48:16.275,0.42621738,1.1675062,0.43058625,0.408944,0.56494933,0.8656837,-0.5592872,0.18716514,0.3969704,0.310293,-0.49448085,0.48900655,0.32332554,-0.022593495,0.5437795,0.58470196,0.08520223,-0.39340648,0.44038662,0.08049397,766.3736,764.35895,869.12085,811.0989,1157.619,0.20867919921875,0.1124267578125,0.98468017578125,0.844879150390625,-1.42059326171875,1.757049560546875,1,2.0,1.0,1.0,2.0,10.00
2024-10-11 20:48:16.276,0.42621738,1.1675062,0.43058625,0.408944,0.56494933,0.8656837,-0.5592872,0.18716514,0.3969704,0.310293,-0.49448085,0.48900655,0.32332554,-0.022593495,0.5437795,0.58470196,0.08520223,-0.39340648,0.44038662,0.08049397,762.3443,765.56775,861.06226,808.2784,901.3553,0.20867919921875,0.1124267578125,0.98468017578125,0.844879150390625,-1.42059326171875,1.757049560546875,1,2.0,1.0,1.0,2.0,10.00
2024-10-11 20:48:16.276,0.42621738,1.1675062,0.43058625,0.408944,0.56494933,0.8656837,-0.5592872,0.18716514,0.3969704,0.310293,-0.49448085,0.48900655,0.32332554,-0.022593495,0.5437795,0.58470196,0.08520223,-0.39340648,0.44038662,0.08049397,765.9707,768.7912,867.9121,807.0696,933.9927,0.20867919921875,0.1124267578125,0.98468017578125,0.844879150390625,-1.42059326171875,1.757049560546875,1,2.0,1.0,1.0,2.0,10.00
2024-10-11 20:48:16.277,0.42621738,1.1675062,0.43058625,0.408944,0.56494933,0.8656837,-0.5592872,0.18716514,0.3969704,0.310293,-0.49448085,0.48900655,0.32332554,-0.022593495,0.5437795,0.58470196,0.08520223,-0.39340648,0.44038662,0.08049397,768.7912,764.7619,855.42126,801.4286,810.293,0.20867919921875,0.1124267578125,0.98468017578125,0.844879150390625,-1.42059326171875,1.757049560546875,1,2.0,1.0,1.0,2.0,10.00
2024-10-11 20:48:16.278,0.42621738,1.1675062,0.43058625,0.408944,0.56494933,0.8656837,-0.5592872,0.18716514,0.3969704,0.310293,-0.49448085,0.48900655,0.32332554,-0.022593495,0.5437795,0.58470196,0.08520223,-0.39340648,0.44038662,0.08049397,778.0586,763.5531,849.7802,801.4286,749.45056,0.20867919921875,0.1124267578125,0.98468017578125,0.844879150390625,-1.42059326171875,1.757049560546875,1,2.0,1.0,1.0,2.0,10.00
2024-10-11 20:48:16.279,0.42621738,1.1675062,0.43058625,0.408944,0.56494933,0.8656837,-0.5592872,0.18716514,0.3969704,0.310293,-0.49448085,0.48900655,0.32332554,-0.022593495,0.5437795,0.58470196,0.08520223,-0.39340648,0.44038662,0.08049397,786.1172,770.40295,862.27106,799.41394,848.1685,0.20867919921875,0.1124267578125,0.98468017578125,0.844879150390625,-1.42059326171875,1.757049560546875,1,2.0,1.0,1.0,2.0,10.00
2024-10-11 20:48:16.279,0.42621738,1.1675062,0.43058625,0.408944,0.56494933,0.8656837,-0.5592872,0.18716514,0.3969704,0.310293,-0.49448085,0.48900655,0.32332554,-0.022593495,0.5437795,0.58470196,0.08520223,-0.39340648,0.44038662,0.08049397,775.64105,775.64105,855.0183,801.4286,826.4103,0.20867919921875,0.1124267578125,0.98468017578125,0.844879150390625,-1.42059326171875,1.757049560546875,1,2.0,1.0,1.0,2.0,10.00
2024-10-11 20:48:16.280,0.42621738,1.1675062,0.43058625,0.408944,0.56494933,0.8656837,-0.5592872,0.18716514,0.3969704,0.310293,-0.49448085,0.48900655,0.32332554,-0.022593495,0.5437795,0.58470196,0.08520223,-0.39340648,0.44038662,0.08049397,768.7912,775.2381,840.9158,807.47253,690.2198,0.20867919921875,0.1124267578125,0.98468017578125,0.844879150390625,-1.42059326171875,1.757049560546875,1,2.0,1.0,1.0,2.0,10.00
2024-10-11 20:48:16.281,0.42621738,1.1675062,0.43058625,0.408944,0.56494933,0.8656837,-0.5592872,0.18716514,0.3969704,0.310293,-0.49448085,0.48900655,0.32332554,-0.022593495,0.5437795,0.58470196,0.08520223,-0.39340648,0.44038662,0.08049397,782.0879,774.43225,841.31866,800.6227,659.19415,0.20867919921875,0.1124267578125,0.98468017578125,0.844879150390625,-1.42059326171875,1.757049560546875,1,2.0,1.0,1.0,2.0,10.00
2024-10-11 20:48:16.282,0.42621738,1.1675062,0.43058625,0.408944,0.56494933,0.8656837,-0.5592872,0.18716514,0.3969704,0.310293,-0.49448085,0.48900655,0.32332554,-0.022593495,0.5437795,0.58470196,0.08520223,-0.39340648,0.44038662,0.08049397,783.69965,776.8498,828.4249,803.44324,830.4396,0.20867919921875,0.1124267578125,0.98468017578125,0.844879150390625,-1.42059326171875,1.757049560546875,1,2.0,1.0,1.0,2.0,10.00
2024-10-11 20:48:16.370,0.42621738,1.1675062,0.43058625,0.408944,0.56494933,0.8656837,-0.5592872,0.18716514,0.3969704,0.310293,-0.49448085,0.48900655,0.32332554,-0.022593495,0.5437795,0.58470196,0.08520223,-0.39340648,0.44038662,0.08049397,779.67035,778.0586,827.619,810.293,909.41394,0.21826171875,0.142822265625,0.9764404296875,1.398162841796875,1.30096435546875,2.190704345703125,1,2.0,1.0,1.0,2.0,10.00
2024-10-11 20:48:16.372,0.42621738,1.1675062,0.43058625,0.408944,0.56494933,0.8656837,-0.5592872,0.18716514,0.3969704,0.310293,-0.49448085,0.48900655,0.32332554,-0.022593495,0.5437795,0.58470196,0.08520223,-0.39340648,0.44038662,0.08049397,789.7436,781.685,843.3333,806.6667,690.2198,0.21826171875,0.142822265625,0.9764404296875,1.398162841796875,1.30096435546875,2.190704345703125,1,2.0,1.0,1.0,2.0,10.00
2024-10-11 20:48:16.373,0.42621738,1.1675062,0.43058625,0.408944,0.56494933,0.8656837,-0.5592872,0.18716514,0.3969704,0.310293,-0.49448085,0.48900655,0.32332554,-0.022593495,0.5437795,0.58470196,0.08520223,-0.39340648,0.44038662,0.08049397,790.54944,781.685,833.2601,801.02563,593.5165,0.21826171875,0.142822265625,0.9764404296875,1.398162841796875,1.30096435546875,2.190704345703125,1,2.0,1.0,1.0,2.0,10.00
2024-10-11 20:48:16.374,0.5398471,1.1699003,0.4696205,0.69450486,0.5291325,0.86956364,0.08370706,0.47454065,0.6698536,0.310293,-0.19185565,0.91608405,0.5488563,-0.008223318,0.85217637,0.5071551,0.0420588,-0.39998507,0.2559732,-0.099723734,788.5348,777.25275,826.0073,805.4579,755.4945,0.21826171875,0.142822265625,0.9764404296875,1.398162841796875,1.30096435546875,2.190704345703125,1,2.0,1.0,1.0,2.0,10.00
2024-10-11 20:48:16.380,0.5398471,1.1699003,0.4696205,0.69450486,0.5291325,0.86956364,0.08370706,0.47454065,0.6698536,0.310293,-0.19185565,0.91608405,0.5488563,-0.008223318,0.85217637,0.5071551,0.0420588,-0.39998507,0.2559732,-0.099723734,795.38464,780.07324,828.4249,807.0696,843.73627,0.21826171875,0.142822265625,0.9764404296875,1.398162841796875,1.30096435546875,2.190704345703125,1,2.0,1.0,1.0,2.0,10.00
2024-10-11 20:48:16.381,0.5398471,1.1699003,0.4696205,0.69450486,0.5291325,0.86956364,0.08370706,0.47454065,0.6698536,0.310293,-0.19185565,0.91608405,0.5488563,-0.008223318,0.85217637,0.5071551,0.0420588,-0.39998507,0.2559732,-0.099723734,793.36993,783.69965,821.5751,799.41394,766.3736,0.21826171875,0.142822265625,0.9764404296875,1.398162841796875,1.30096435546875,2.190704345703125,1,2.0,1.0,1.0,2.0,10.00
2024-10-11 20:48:16.382,0.5398471,1.1699003,0.4696205,0.69450486,0.5291325,0.86956364,0.08370706,0.47454065,0.6698536,0.310293,-0.19185565,0.91608405,0.5488563,-0.008223318,0.85217637,0.5071551,0.0420588,-0.39998507,0.2559732,-0.099723734,798.20514,785.31134,821.978,796.99634,814.7253,0.21826171875,0.142822265625,0.9764404296875,1.398162841796875,1.30096435546875,2.190704345703125,1,2.0,1.0,1.0,2.0,10.00
2024-10-11 20:48:16.383,0.5398471,1.1699003,0.4696205,0.69450486,0.5291325,0.86956364,0.08370706,0.47454065,0.6698536,0.310293,-0.19185565,0.91608405,0.5488563,-0.008223318,0.85217637,0.5071551,0.0420588,-0.39998507,0.2559732,-0.099723734,811.0989,782.49084,818.3516,797.3993,879.19415,0.21826171875,0.142822265625,0.9764404296875,1.398162841796875,1.30096435546875,2.190704345703125,1,2.0,1.0,1.0,2.0,10.00
2024-10-11 20:48:16.383,0.5398471,1.1699003,0.4696205,0.69450486,0.5291325,0.86956364,0.08370706,0.47454065,0.6698536,0.310293,-0.19185565,0.91608405,0.5488563,-0.008223318,0.85217637,0.5071551,0.0420588,-0.39998507,0.2559732,-0.099723734,810.293,789.34064,823.1868,803.8461,760.7326,0.21826171875,0.142822265625,0.9764404296875,1.398162841796875,1.30096435546875,2.190704345703125,1,2.0,1.0,1.0,2.0,10.00
2024-10-11 20:48:16.384,0.5398471,1.1699003,0.4696205,0.69450486,0.5291325,0.86956364,0.08370706,0.47454065,0.6698536,0.310293,-0.19185565,0.91608405,0.5488563,-0.008223318,0.85217637,0.5071551,0.0420588,-0.39998507,0.2559732,-0.099723734,800.2198,793.7729,828.022,803.8461,670.87915,0.21826171875,0.142822265625,0.9764404296875,1.398162841796875,1.30096435546875,2.190704345703125,1,2.0,1.0,1.0,2.0,10.00
2024-10-11 20:48:16.385,0.5398471,1.1699003,0.4696205,0.69450486,0.5291325,0.86956364,0.08370706,0.47454065,0.6698536,0.310293,-0.19185565,0.91608405,0.5488563,-0.008223318,0.85217637,0.5071551,0.0420588,-0.39998507,0.2559732,-0.099723734,790.14655,788.1319,816.337,796.99634,690.6227,0.21826171875,0.142822265625,0.9764404296875,1.398162841796875,1.30096435546875,2.190704345703125,1,2.0,1.0,1.0,2.0,10.00
2024-10-11 20:48:16.386,0.5398471,1.1699003,0.4696205,0.69450486,0.5291325,0.86956364,0.08370706,0.47454065,0.6698536,0.310293,-0.19185565,0.91608405,0.5488563,-0.008223318,0.85217637,0.5071551,0.0420588,-0.39998507,0.2559732,-0.099723734,778.46155,783.69965,815.12823,797.8022,740.58606,0.21826171875,0.142822265625,0.9764404296875,1.398162841796875,1.30096435546875,2.190704345703125,1,2.0,1.0,1.0,2.0,10.00
2024-10-11 20:48:16.419,0.5398471,1.1699003,0.4696205,0.69450486,0.5291325,0.86956364,0.08370706,0.47454065,0.6698536,0.310293,-0.19185565,0.91608405,0.5488563,-0.008223318,0.85217637,0.5071551,0.0420588,-0.39998507,0.2559732,-0.099723734,779.67035,785.31134,824.7985,803.0403,698.68134,0.21282958984375,0.17169189453125,0.98016357421875,-0.538330078125,5.78704833984375,3.9776611328125,1,2.0,1.0,1.0,2.0,10.00
2024-10-11 20:48:16.420,0.5398471,1.1699003,0.4696205,0.69450486,0.5291325,0.86956364,0.08370706,0.47454065,0.6698536,0.310293,-0.19185565,0.91608405,0.5488563,-0.008223318,0.85217637,0.5071551,0.0420588,-0.39998507,0.2559732,-0.099723734,789.7436,790.54944,823.9927,807.47253,615.6777,0.21282958984375,0.17169189453125,0.98016357421875,-0.538330078125,5.78704833984375,3.9776611328125,1,2.0,1.0,1.0,2.0,10.00
2024-10-11 20:48:16.421,0.5398471,1.1699003,0.4696205,0.69450486,0.5291325,0.86956364,0.08370706,0.47454065,0.6698536,0.310293,-0.19185565,0.91608405,0.5488563,-0.008223318,0.85217637,0.5071551,0.0420588,-0.39998507,0.2559732,-0.099723734,782.8938,790.9524,815.9341,807.47253,709.9634,0.21282958984375,0.17169189453125,0.98016357421875,-0.538330078125,5.78704833984375,3.9776611328125,1,2.0,1.0,1.0,2.0,10.00
2024-10-11 20:48:16.422,0.5398471,1.1699003,0.4696205,0.69450486,0.5291325,0.86956364,0.08370706,0.47454065,0.6698536,0.310293,-0.19185565,0.91608405,0.5488563,-0.008223318,0.85217637,0.5071551,0.0420588,-0.39998507,0.2559732,-0.099723734,782.8938,788.1319,808.2784,807.47253,826.0073,0.21282958984375,0.17169189453125,0.98016357421875,-0.538330078125,5.78704833984375,3.9776611328125,1,2.0,1.0,1.0,2.0,10.00
2024-10-11 20:48:16.423,0.5398471,1.1699003,0.4696205,0.69450486,0.5291325,0.86956364,0.08370706,0.47454065,0.6698536,0.310293,-0.19185565,0.91608405,0.5488563,-0.008223318,0.85217637,0.5071551,0.0420588,-0.39998507,0.2559732,-0.099723734,784.10254,792.1612,817.5458,803.44324,710.7692,0.21282958984375,0.17169189453125,0.98016357421875,-0.538330078125,5.78704833984375,3.9776611328125,1,2.0,1.0,1.0,2.0,10.00
2024-10-11 20:48:16.423,0.5398471,1.1699003,0.4696205,0.69450486,0.5291325,0.86956364,0.08370706,0.47454065,0.6698536,0.310293,-0.19185565,0.91608405,0.5488563,-0.008223318,0.85217637,0.5071551,0.0420588,-0.39998507,0.2559732,-0.099723734,784.90845,792.96704,827.619,799.81683,699.89014,0.21282958984375,0.17169189453125,0.98016357421875,-0.538330078125,5.78704833984375,3.9776611328125,1,2.0,1.0,1.0,2.0,10.00
2024-10-11 20:48:16.424,0.5398471,1.1699003,0.4696205,0.69450486,0.5291325,0.86956364,0.08370706,0.47454065,0.6698536,0.310293,-0.19185565,0.91608405,0.5488563,-0.008223318,0.85217637,0.5071551,0.0420588,-0.39998507,0.2559732,-0.099723734,788.5348,789.34064,811.9048,805.8608,930.3663,0.21282958984375,0.17169189453125,0.98016357421875,-0.538330078125,5.78704833984375,3.9776611328125,1,2.0,1.0,1.0,2.0,10.00
2024-10-11 20:48:16.425,0.5398471,1.1699003,0.4696205,0.69450486,0.5291325,0.86956364,0.08370706,0.47454065,0.6698536,0.310293,-0.19185565,0.91608405,0.5488563,-0.008223318,0.85217637,0.5071551,0.0420588,-0.39998507,0.2559732,-0.099723734,788.93774,788.93774,797.3993,805.4579,921.0989,0.21282958984375,0.17169189453125,0.98016357421875,-0.538330078125,5.78704833984375,3.9776611328125,1,2.0,1.0,1.0,2.0,10.00
2024-10-11 20:48:16.426,0.5398471,1.1699003,0.4696205,0.69450486,0.5291325,0.86956364,0.08370706,0.47454065,0.6698536,0.310293,-0.19185565,0.91608405,0.5488563,-0.008223318,0.85217637,0.5071551,0.0420588,-0.39998507,0.2559732,-0.099723734,805.8608,785.31134,802.23444,805.05493,689.41394,0.21282958984375,0.17169189453125,0.98016357421875,-0.538330078125,5.78704833984375,3.9776611328125,1,2.0,1.0,1.0,2.0,10.00
2024-10-11 20:48:16.427,0.5398471,1.1699003,0.4696205,0.69450486,0.5291325,0.86956364,0.08370706,0.47454065,0.6698536,0.310293,-0.19185565,0.91608405,0.5488563,-0.008223318,0.85217637,0.5071551,0.0420588,-0.39998507,0.2559732,-0.099723734,810.696,784.90845,810.696,807.47253,709.9634,0.21282958984375,0.17169189453125,0.98016357421875,-0.538330078125,5.78704833984375,3.9776611328125,1,2.0,1.0,1.0,2.0,10.00
2024-10-11 20:48:16.428,0.5398471,1.1699003,0.4696205,0.69450486,0.5291325,0.86956364,0.08370706,0.47454065,0.6698536,0.310293,-0.19185565,0.91608405,0.5488563,-0.008223318,0.85217637,0.5071551,0.0420588,-0.39998507,0.2559732,-0.099723734,792.5641,784.5055,817.9487,803.0403,847.3626,0.21282958984375,0.17169189453125,0.98016357421875,-0.538330078125,5.78704833984375,3.9776611328125,1,2.0,1.0,1.0,2.0,10.00
2024-10-11 20:48:16.428,0.5398471,1.1699003,0.4696205,0.69450486,0.5291325,0.86956364,0.08370706,0.47454065,0.6698536,0.310293,-0.19185565,0.91608405,0.5488563,-0.008223318,0.85217637,0.5071551,0.0420588,-0.39998507,0.2559732,-0.099723734,783.2967,788.93774,818.3516,807.8755,818.3516,0.21282958984375,0.17169189453125,0.98016357421875,-0.538330078125,5.78704833984375,3.9776611328125,1,2.0,1.0,1.0,2.0,10.00
2024-10-11 20:48:16.530,0.5398471,1.1699003,0.4696205,0.69450486,0.5291325,0.86956364,0.08370706,0.47454065,0.6698536,0.310293,-0.19185565,0.91608405,0.5488563,-0.008223318,0.85217637,0.5071551,0.0420588,-0.39998507,0.2559732,-0.099723734,794.57874,791.75824,813.1135,808.2784,707.5458,0.19158935546875,0.17919921875,0.98931884765625,-2.6617431640625,7.304840087890625,5.630035400390625,1,2.0,1.0,1.0,2.0,10.00
2024-10-11 20:48:16.531,0.5398471,1.1699003,0.4696205,0.69450486,0.5291325,0.86956364,0.08370706,0.47454065,0.6698536,0.310293,-0.19185565,0.91608405,0.5488563,-0.008223318,0.85217637,0.5071551,0.0420588,-0.39998507,0.2559732,-0.099723734,798.60803,787.326,799.81683,801.02563,738.5714,0.19158935546875,0.17919921875,0.98931884765625,-2.6617431640625,7.304840087890625,5.630035400390625,1,2.0,1.0,1.0,2.0,10.00
2024-10-11 20:48:16.531,0.5398471,1.1699003,0.4696205,0.69450486,0.5291325,0.86956364,0.08370706,0.47454065,0.6698536,0.310293,-0.19185565,0.91608405,0.5488563,-0.008223318,0.85217637,0.5071551,0.0420588,-0.39998507,0.2559732,-0.099723734,796.99634,785.7143,809.4872,810.293,931.978,0.19158935546875,0.17919921875,0.98931884765625,-2.6617431640625,7.304840087890625,5.630035400390625,1,2.0,1.0,1.0,2.0,10.00
2024-10-11 20:48:16.532,0.5398471,1.1699003,0.4696205,0.69450486,0.5291325,0.86956364,0.08370706,0.47454065,0.6698536,0.310293,-0.19185565,0.91608405,0.5488563,-0.008223318,0.85217637,0.5071551,0.0420588,-0.39998507,0.2559732,-0.099723734,794.17584,787.72894,819.15753,811.50183,943.663,0.19158935546875,0.17919921875,0.98931884765625,-2.6617431640625,7.304840087890625,5.630035400390625,1,2.0,1.0,1.0,2.0,10.00
2024-10-11 20:48:16.533,0.5398471,1.1699003,0.4696205,0.69450486,0.5291325,0.86956364,0.08370706,0.47454065,0.6698536,0.310293,-0.19185565,0.91608405,0.5488563,-0.008223318,0.85217637,0.5071551,0.0420588,-0.39998507,0.2559732,-0.099723734,799.011,788.93774,807.8755,798.60803,649.5238,0.19158935546875,0.17919921875,0.98931884765625,-2.6617431640625,7.304840087890625,5.630035400390625,1,2.0,1.0,1.0,2.0,10.00
2024-10-11 20:48:16.533,0.6279007,1.1715,0.4696205,0.6805605,0.5396098,0.86652625,0.08370706,0.49707544,0.7174454,0.310293,-0.19185565,0.91608405,0.5584434,-0.0036667455,0.85217637,0.48516974,0.049060706,-0.4076483,0.2559732,-0.10697559,809.89014,789.34064,810.696,800.6227,691.02563,0.19158935546875,0.17919921875,0.98931884765625,-2.6617431640625,7.304840087890625,5.630035400390625,1,1.0,1.0,1.0,1.0,10.00
2024-10-11 20:48:16.539,0.6279007,1.1715,0.4696205,0.6805605,0.5396098,0.86652625,0.08370706,0.49707544,0.7174454,0.310293,-0.19185565,0.91608405,0.5584434,-0.0036667455,0.85217637,0.48516974,0.049060706,-0.4076483,0.2559732,-0.10697559,813.1135,790.14655,810.696,807.47253,893.69965,0.19158935546875,0.17919921875,0.98931884765625,-2.6617431640625,7.304840087890625,5.630035400390625,1,1.0,1.0,1.0,1.0,10.00
2024-10-11 20:48:16.540,0.6279007,1.1715,0.4696205,0.6805605,0.5396098,0.86652625,0.08370706,0.49707544,0.7174454,0.310293,-0.19185565,0.91608405,0.5584434,-0.0036667455,0.85217637,0.48516974,0.049060706,-0.4076483,0.2559732,-0.10697559,810.696,790.14655,809.0842,809.89014,759.92676,0.19158935546875,0.17919921875,0.98931884765625,-2.6617431640625,7.304840087890625,5.630035400390625,1,1.0,1.0,1.0,1.0,10.00
2024-10-11 20:48:16.541,0.6279007,1.1715,0.4696205,0.6805605,0.5396098,0.86652625,0.08370706,0.49707544,0.7174454,0.310293,-0.19185565,0.91608405,0.5584434,-0.0036667455,0.85217637,0.48516974,0.049060706,-0.4076483,0.2559732,-0.10697559,799.41394,788.93774,817.5458,807.0696,561.28204,0.19158935546875,0.17919921875,0.98931884765625,-2.6617431640625,7.304840087890625,5.630035400390625,1,1.0,1.0,1.0,1.0,10.00
2024-10-11 20:48:16.542,0.6279007,1.1715,0.4696205,0.6805605,0.5396098,0.86652625,0.08370706,0.49707544,0.7174454,0.310293,-0.19185565,0.91608405,0.5584434,-0.0036667455,0.85217637,0.48516974,0.049060706,-0.4076483,0.2559732,-0.10697559,804.65204,790.14655,818.3516,805.8608,570.9524,0.19158935546875,0.17919921875,0.98931884765625,-2.6617431640625,7.304840087890625,5.630035400390625,1,1.0,1.0,1.0,1.0,10.00
2024-10-11 20:48:16.543,0.6279007,1.1715,0.4696205,0.6805605,0.5396098,0.86652625,0.08370706,0.49707544,0.7174454,0.310293,-0.19185565,0.91608405,0.5584434,-0.0036667455,0.85217637,0.48516974,0.049060706,-0.4076483,0.2559732,-0.10697559,800.6227,789.34064,818.3516,811.0989,706.7399,0.19158935546875,0.17919921875,0.98931884765625,-2.6617431640625,7.304840087890625,5.630035400390625,1,1.0,1.0,1.0,1.0,10.00
2024-10-11 20:48:16.544,0.6279007,1.1715,0.4696205,0.6805605,0.5396098,0.86652625,0.08370706,0.49707544,0.7174454,0.310293,-0.19185565,0.91608405,0.5584434,-0.0036667455,0.85217637,0.48516974,0.049060706,-0.4076483,0.2559732,-0.10697559,794.57874,787.72894,809.4872,809.4872,722.0513,0.19158935546875,0.17919921875,0.98931884765625,-2.6617431640625,7.304840087890625,5.630035400390625,1,1.0,1.0,1.0,1.0,10.00
2024-10-11 20:48:16.646,0.6279007,1.1715,0.4696205,0.6805605,0.5396098,0.86652625,0.08370706,0.49707544,0.7174454,0.310293,-0.19185565,0.91608405,0.5584434,-0.0036667455,0.85217637,0.48516974,0.049060706,-0.4076483,0.2559732,-0.10697559,801.8315,788.93774,807.47253,808.68134,687.8022,0.1639404296875,0.1597900390625,0.9979248046875,-7.588958740234375,7.64129638671875,2.519683837890625,1,1.0,1.0,1.0,1.0,10.00
2024-10-11 20:48:16.647,0.6279007,1.1715,0.4696205,0.6805605,0.5396098,0.86652625,0.08370706,0.49707544,0.7174454,0.310293,-0.19185565,0.91608405,0.5584434,-0.0036667455,0.85217637,0.48516974,0.049060706,-0.4076483,0.2559732,-0.10697559,803.0403,790.9524,811.9048,807.8755,680.14655,0.1639404296875,0.1597900390625,0.9979248046875,-7.588958740234375,7.64129638671875,2.519683837890625,1,1.0,1.0,1.0,1.0,10.00
2024-10-11 20:48:16.648,0.6279007,1.1715,0.4696205,0.6805605,0.5396098,0.86652625,0.08370706,0.49707544,0.7174454,0.310293,-0.19185565,0.91608405,0.5584434,-0.0036667455,0.85217637,0.48516974,0.049060706,-0.4076483,0.2559732,-0.10697559,807.0696,792.1612,809.0842,811.0989,774.83514,0.1639404296875,0.1597900390625,0.9979248046875,-7.588958740234375,7.64129638671875,2.519683837890625,1,1.0,1.0,1.0,1.0,10.00
2024-10-11 20:48:16.649,0.6279007,1.1715,0.4696205,0.6805605,0.5396098,0.86652625,0.08370706,0.49707544,0.7174454,0.310293,-0.19185565,0.91608405,0.5584434,-0.0036667455,0.85217637,0.48516974,0.049060706,-0.4076483,0.2559732,-0.10697559,802.6374,796.99634,808.2784,809.89014,662.4176,0.1639404296875,0.1597900390625,0.9979248046875,-7.588958740234375,7.64129638671875,2.519683837890625,1,1.0,1.0,1.0,1.0,10.00
2024-10-11 20:48:16.649,0.6279007,1.1715,0.4696205,0.6805605,0.5396098,0.86652625,0.08370706,0.49707544,0.7174454,0.310293,-0.19185565,0.91608405,0.5584434,-0.0036667455,0.85217637,0.48516974,0.049060706,-0.4076483,0.2559732,-0.10697559,801.02563,794.9817,803.8461,803.0403,517.76556,0.1639404296875,0.1597900390625,0.9979248046875,-7.588958740234375,7.64129638671875,2.519683837890625,1,1.0,1.0,1.0,1.0,10.00
2024-10-11 20:48:16.650,0.6279007,1.1715,0.4696205,0.6805605,0.5396098,0.86652625,0.08370706,0.49707544,0.7174454,0.310293,-0.19185565,0.91608405,0.5584434,-0.0036667455,0.85217637,0.48516974,0.049060706,-0.4076483,0.2559732,-0.10697559,803.0403,786.1172,804.65204,804.65204,836.4835,0.1639404296875,0.1597900390625,0.9979248046875,-7.588958740234375,7.64129638671875,2.519683837890625,1,1.0,1.0,1.0,1.0,10.00
2024-10-11 20:48:16.651,0.6279007,1.1715,0.4696205,0.6805605,0.5396098,0.86652625,0.08370706,0.49707544,0.7174454,0.310293,-0.19185565,0.91608405,0.5584434,-0.0036667455,0.85217637,0.48516974,0.049060706,-0.4076483,0.2559732,-0.10697559,800.6227,787.72894,805.4579,807.8755,1014.57874,0.1639404296875,0.1597900390625,0.9979248046875,-7.588958740234375,7.64129638671875,2.519683837890625,1,1.0,1.0,1.0,1.0,10.00
2024-10-11 20:48:16.652,0.6279007,1.1715,0.4696205,0.6805605,0.5396098,0.86652625,0.08370706,0.49707544,0.7174454,0.310293,-0.19185565,0.91608405,0.5584434,-0.0036667455,0.85217637,0.48516974,0.049060706,-0.4076483,0.2559732,-0.10697559,803.44324,794.9817,812.71063,809.0842,829.6337,0.1639404296875,0.1597900390625,0.9979248046875,-7.588958740234375,7.64129638671875,2.519683837890625,1,1.0,1.0,1.0,1.0,10.00
2024-10-11 20:48:16.652,0.6279007,1.1715,0.4696205,0.6805605,0.5396098,0.86652625,0.08370706,0.49707544,0.7174454,0.310293,-0.19185565,0.91608405,0.5584434,-0.0036667455,0.85217637,0.48516974,0.049060706,-0.4076483,0.2559732,-0.10697559,809.4872,794.57874,808.2784,804.65204,726.4835,0.1639404296875,0.1597900390625,0.9979248046875,-7.588958740234375,7.64129638671875,2.519683837890625,1,1.0,1.0,1.0,1.0,10.00
2024-10-11 20:48:16.653,0.6279007,1.1715,0.4696205,0.6805605,0.5396098,0.86652625,0.08370706,0.49707544,0.7174454,0.310293,-0.19185565,0.91608405,0.5584434,-0.0036667455,0.85217637,0.48516974,0.049060706,-0.4076483,0.2559732,-0.10697559,807.47253,797.8022,801.4286,803.8461,840.10986,0.1639404296875,0.1597900390625,0.9979248046875,-7.588958740234375,7.64129638671875,2.519683837890625,1,1.0,1.0,1.0,1.0,10.00
2024-10-11 20:48:16.654,0.6279007,1.1715,0.4696205,0.6805605,0.5396098,0.86652625,0.08370706,0.49707544,0.7174454,0.310293,-0.19185565,0.91608405,0.5584434,-0.0036667455,0.85217637,0.48516974,0.049060706,-0.4076483,0.2559732,-0.10697559,803.44324,797.3993,807.47253,809.0842,893.69965,0.1639404296875,0.1597900390625,0.9979248046875,-7.588958740234375,7.64129638671875,2.519683837890625,1,1.0,1.0,1.0,1.0,10.00
2024-10-11 20:48:16.655,0.6279007,1.1715,0.4696205,0.6805605,0.5396098,0.86652625,0.08370706,0.49707544,0.7174454,0.310293,-0.19185565,0.91608405,0.5584434,-0.0036667455,0.85217637,0.48516974,0.049060706,-0.4076483,0.2559732,-0.10697559,808.2784,793.7729,799.41394,813.91943,673.2967,0.1639404296875,0.1597900390625,0.9979248046875,-7.588958740234375,7.64129638671875,2.519683837890625,1,1.0,1.0,1.0,1.0,10.00
2024-10-11 20:48:16.656,0.6279007,1.1715,0.4696205,0.6805605,0.5396098,0.86652625,0.08370706,0.49707544,0.7174454,0.310293,-0.19185565,0.91608405,0.5584434,-0.0036667455,0.85217637,0.48516974,0.049060706,-0.4076483,0.2559732,-0.10697559,818.3516,797.3993,794.9817,815.9341,609.2308,0.1639404296875,0.1597900390625,0.9979248046875,-7.588958740234375,7.64129638671875,2.519683837890625,1,1.0,1.0,1.0,1.0,10.00
2024-10-11 20:48:16.656,0.6279007,1.1715,0.4696205,0.6805605,0.5396098,0.86652625,0.08370706,0.49707544,0.7174454,0.310293,-0.19185565,0.91608405,0.5584434,-0.0036667455,0.85217637,0.48516974,0.049060706,-0.4076483,0.2559732,-0.10697559,818.3516,798.60803,804.65204,811.50183,713.5897,0.1639404296875,0.1597900390625,0.9979248046875,-7.588958740234375,7.64129638671875,2.519683837890625,1,1.0,1.0,1.0,1.0,10.00
2024-10-11 20:48:16.658,0.6279007,1.1715,0.4696205,0.6805605,0.5396098,0.86652625,0.08370706,0.49707544,0.7174454,0.310293,-0.19185565,0.91608405,0.5584434,-0.0036667455,0.85217637,0.48516974,0.049060706,-0.4076483,0.2559732,-0.10697559,815.5311,800.2198,803.44324,809.4872,825.2015,0.1639404296875,0.1597900390625,0.9979248046875,-7.588958740234375,7.64129638671875,2.519683837890625,1,1.0,1.0,1.0,1.0,10.00
2024-10-11 20:48:16.658,0.6279007,1.1715,0.4696205,0.6805605,0.5396098,0.86652625,0.08370706,0.49707544,0.7174454,0.310293,-0.19185565,0.91608405,0.5584434,-0.0036667455,0.85217637,0.48516974,0.049060706,-0.4076483,0.2559732,-0.10697559,818.3516,796.99634,806.26373,799.011,777.6557,0.1639404296875,0.1597900390625,0.9979248046875,-7.588958740234375,7.64129638671875,2.519683837890625,1,1.0,1.0,1.0,1.0,10.00
2024-10-11 20:48:16.659,0.6279007,1.1715,0.4696205,0.6805605,0.5396098,0.86652625,0.08370706,0.49707544,0.7174454,0.310293,-0.19185565,0.91608405,0.5584434,-0.0036667455,0.85217637,0.48516974,0.049060706,-0.4076483,0.2559732,-0.10697559,821.5751,798.60803,805.8608,803.44324,677.326,0.1639404296875,0.1597900390625,0.9979248046875,-7.588958740234375,7.64129638671875,2.519683837890625,1,1.0,1.0,1.0,1.0,10.00
2024-10-11 20:48:16.660,0.6279007,1.1715,0.4696205,0.6805605,0.5396098,0.86652625,0.08370706,0.49707544,0.7174454,0.310293,-0.19185565,0.91608405,0.5584434,-0.0036667455,0.85217637,0.48516974,0.049060706,-0.4076483,0.2559732,-0.10697559,829.6337,805.05493,798.60803,815.9341,885.64105,0.1639404296875,0.1597900390625,0.9979248046875,-7.588958740234375,7.64129638671875,2.519683837890625,1,1.0,1.0,1.0,1.0,10.00
2024-10-11 20:48:16.661,0.6279007,1.1715,0.4696205,0.6805605,0.5396098,0.86652625,0.08370706,0.49707544,0.7174454,0.310293,-0.19185565,0.91608405,0.5584434,-0.0036667455,0.85217637,0.48516974,0.049060706,-0.4076483,0.2559732,-0.10697559,814.3223,803.44324,807.8755,797.8022,978.315,0.1639404296875,0.1597900390625,0.9979248046875,-7.588958740234375,7.64129638671875,2.519683837890625,1,1.0,1.0,1.0,1.0,10.00
2024-10-11 20:48:16.662,0.7606139,1.1622808,0.4696205,0.66545963,0.64156556,0.84470606,0.08370706,0.5100459,0.78948396,0.310293,-0.19185565,0.91608405,0.56810683,-0.014896538,0.85217637,0.46479306,0.055672124,-0.4175227,0.2559732,-0.10243976,802.23444,799.81683,811.50183,784.5055,794.17584,0.1639404296875,0.1597900390625,0.9979248046875,-7.588958740234375,7.64129638671875,2.519683837890625,1,1.0,1.0,1.0,1.0,10.00
2024-10-11 20:48:16.668,0.7606139,1.1622808,0.4696205,0.66545963,0.64156556,0.84470606,0.08370706,0.5100459,0.78948396,0.310293,-0.19185565,0.91608405,0.56810683,-0.014896538,0.85217637,0.46479306,0.055672124,-0.4175227,0.2559732,-0.10243976,802.6374,800.2198,811.9048,787.72894,706.337,0.1639404296875,0.1597900390625,0.9979248046875,-7.588958740234375,7.64129638671875,2.519683837890625,1,1.0,1.0,1.0,1.0,10.00
2024-10-11 20:48:16.668,0.7606139,1.1622808,0.4696205,0.66545963,0.64156556,0.84470606,0.08370706,0.5100459,0.78948396,0.310293,-0.19185565,0.91608405,0.56810683,-0.014896538,0.85217637,0.46479306,0.055672124,-0.4175227,0.2559732,-0.10243976,788.5348,804.65204,813.5165,790.54944,848.5714,0.1639404296875,0.1597900390625,0.9979248046875,-7.588958740234375,7.64129638671875,2.519683837890625,1,1.0,1.0,1.0,1.0,10.00
2024-10-11 20:48:16.669,0.7606139,1.1622808,0.4696205,0.66545963,0.64156556,0.84470606,0.08370706,0.5100459,0.78948396,0.310293,-0.19185565,0.91608405,0.56810683,-0.014896538,0.85217637,0.46479306,0.055672124,-0.4175227,0.2559732,-0.10243976,784.10254,804.2491,814.7253,789.7436,758.71796,0.1639404296875,0.1597900390625,0.9979248046875,-7.588958740234375,7.64129638671875,2.519683837890625,1,1.0,1.0,1.0,1.0,10.00
2024-10-11 20:48:16.670,0.7606139,1.1622808,0.4696205,0.66545963,0.64156556,0.84470606,0.08370706,0.5100459,0.78948396,0.310293,-0.19185565,0.91608405,0.56810683,-0.014896538,0.85217637,0.46479306,0.055672124,-0.4175227,0.2559732,-0.10243976,779.2674,799.011,799.011,785.7143,563.2967,0.1639404296875,0.1597900390625,0.9979248046875,-7.588958740234375,7.64129638671875,2.519683837890625,1,1.0,1.0,1.0,1.0,10.00
2024-10-11 20:48:16.749,0.7606139,1.1622808,0.4696205,0.66545963,0.64156556,0.84470606,0.08370706,0.5100459,0.78948396,0.310293,-0.19185565,0.91608405,0.56810683,-0.014896538,0.85217637,0.46479306,0.055672124,-0.4175227,0.2559732,-0.10243976,779.67035,797.3993,784.90845,785.7143,660.40295,0.16009521484375,0.1334228515625,0.9986572265625,-14.5648193359375,5.7122802734375,-2.908477783203125,1,1.0,1.0,1.0,1.0,10.00
2024-10-11 20:48:16.750,0.7606139,1.1622808,0.4696205,0.66545963,0.64156556,0.84470606,0.08370706,0.5100459,0.78948396,0.310293,-0.19185565,0.91608405,0.56810683,-0.014896538,0.85217637,0.46479306,0.055672124,-0.4175227,0.2559732,-0.10243976,782.8938,796.1905,790.9524,786.1172,899.34064,0.16009521484375,0.1334228515625,0.9986572265625,-14.5648193359375,5.7122802734375,-2.908477783203125,1,1.0,1.0,1.0,1.0,10.00
2024-10-11 20:48:16.751,0.7606139,1.1622808,0.4696205,0.66545963,0.64156556,0.84470606,0.08370706,0.5100459,0.78948396,0.310293,-0.19185565,0.91608405,0.56810683,-0.014896538,0.85217637,0.46479306,0.055672124,-0.4175227,0.2559732,-0.10243976,776.04395,796.99634,803.0403,787.72894,804.65204,0.16009521484375,0.1334228515625,0.9986572265625,-14.5648193359375,5.7122802734375,-2.908477783203125,1,1.0,1.0,1.0,1.0,10.00
2024-10-11 20:48:16.752,0.7606139,1.1622808,0.4696205,0.66545963,0.64156556,0.84470606,0.08370706,0.5100459,0.78948396,0.310293,-0.19185565,0.91608405,0.56810683,-0.014896538,0.85217637,0.46479306,0.055672124,-0.4175227,0.2559732,-0.10243976,780.87915,796.99634,817.1429,794.17584,560.87915,0.16009521484375,0.1334228515625,0.9986572265625,-14.5648193359375,5.7122802734375,-2.908477783203125,1,1.0,1.0,1.0,1.0,10.00
2024-10-11 20:48:16.753,0.7606139,1.1622808,0.4696205,0.66545963,0.64156556,0.84470606,0.08370706,0.5100459,0.78948396,0.310293,-0.19185565,0.91608405,0.56810683,-0.014896538,0.85217637,0.46479306,0.055672124,-0.4175227,0.2559732,-0.10243976,787.326,799.81683,815.9341,796.99634,716.4103,0.16009521484375,0.1334228515625,0.9986572265625,-14.5648193359375,5.7122802734375,-2.908477783203125,1,1.0,1.0,1.0,1.0,10.00
2024-10-11 20:48:16.753,0.7606139,1.1622808,0.4696205,0.66545963,0.64156556,0.84470606,0.08370706,0.5100459,0.78948396,0.310293,-0.19185565,0.91608405,0.56810683,-0.014896538,0.85217637,0.46479306,0.055672124,-0.4175227,0.2559732,-0.10243976,786.52014,803.44324,810.696,797.8022,947.6923,0.16009521484375,0.1334228515625,0.9986572265625,-14.5648193359375,5.7122802734375,-2.908477783203125,1,1.0,1.0,1.0,1.0,10.00
2024-10-11 20:48:16.754,0.7606139,1.1622808,0.4696205,0.66545963,0.64156556,0.84470606,0.08370706,0.5100459,0.78948396,0.310293,-0.19185565,0.91608405,0.56810683,-0.014896538,0.85217637,0.46479306,0.055672124,-0.4175227,0.2559732,-0.10243976,786.9231,800.2198,805.05493,789.34064,776.04395,0.16009521484375,0.1334228515625,0.9986572265625,-14.5648193359375,5.7122802734375,-2.908477783203125,1,1.0,1.0,1.0,1.0,10.00
2024-10-11 20:48:16.755,0.7606139,1.1622808,0.4696205,0.66545963,0.64156556,0.84470606,0.08370706,0.5100459,0.78948396,0.310293,-0.19185565,0.91608405,0.56810683,-0.014896538,0.85217637,0.46479306,0.055672124,-0.4175227,0.2559732,-0.10243976,783.69965,796.5934,805.8608,787.72894,710.3663,0.16009521484375,0.1334228515625,0.9986572265625,-14.5648193359375,5.7122802734375,-2.908477783203125,1,1.0,1.0,1.0,1.0,10.00
2024-10-11 20:48:16.756,0.7606139,1.1622808,0.4696205,0.66545963,0.64156556,0.84470606,0.08370706,0.5100459,0.78948396,0.310293,-0.19185565,0.91608405,0.56810683,-0.014896538,0.85217637,0.46479306,0.055672124,-0.4175227,0.2559732,-0.10243976,781.685,795.78754,811.0989,791.75824,821.978,0.16009521484375,0.1334228515625,0.9986572265625,-14.5648193359375,5.7122802734375,-2.908477783203125,1,1.0,1.0,1.0,1.0,10.00
2024-10-11 20:48:16.757,0.7606139,1.1622808,0.4696205,0.66545963,0.64156556,0.84470606,0.08370706,0.5100459,0.78948396,0.310293,-0.19185565,0.91608405,0.56810683,-0.014896538,0.85217637,0.46479306,0.055672124,-0.4175227,0.2559732,-0.10243976,788.5348,794.17584,805.8608,786.9231,838.0952,0.16009521484375,0.1334228515625,0.9986572265625,-14.5648193359375,5.7122802734375,-2.908477783203125,1,1.0,1.0,1.0,1.0,10.00
2024-10-11 20:48:16.758,0.7606139,1.1622808,0.4696205,0.66545963,0.64156556,0.84470606,0.08370706,0.5100459,0.78948396,0.310293,-0.19185565,0.91608405,0.56810683,-0.014896538,0.85217637,0.46479306,0.055672124,-0.4175227,0.2559732,-0.10243976,801.02563,799.41394,800.2198,785.7143,716.4103,0.16009521484375,0.1334228515625,0.9986572265625,-14.5648193359375,5.7122802734375,-2.908477783203125,1,1.0,1.0,1.0,1.0,10.00
2024-10-11 20:48:16.759,0.7606139,1.1622808,0.4696205,0.66545963,0.64156556,0.84470606,0.08370706,0.5100459,0.78948396,0.310293,-0.19185565,0.91608405,0.56810683,-0.014896538,0.85217637,0.46479306,0.055672124,-0.4175227,0.2559732,-0.10243976,801.4286,802.6374,804.65204,792.1612,575.78754,0.16009521484375,0.1334228515625,0.9986572265625,-14.5648193359375,5.7122802734375,-2.908477783203125,1,1.0,1.0,1.0,1.0,10.00
2024-10-11 20:48:16.792,0.7606139,1.1622808,0.4696205,0.66545963,0.64156556,0.84470606,0.08370706,0.5100459,0.78948396,0.310293,-0.19185565,0.91608405,0.56810683,-0.014896538,0.85217637,0.46479306,0.055672124,-0.4175227,0.2559732,-0.10243976,805.05493,802.6374,809.0842,802.23444,728.9011,0.16778564453125,0.08477783203125,0.992919921875,-19.043426513671875,4.852447509765625,-4.6954345703125,1,1.0,1.0,1.0,1.0,10.00
2024-10-11 20:48:16.793,0.7606139,1.1622808,0.4696205,0.66545963,0.64156556,0.84470606,0.08370706,0.5100459,0.78948396,0.310293,-0.19185565,0.91608405,0.56810683,-0.014896538,0.85217637,0.46479306,0.055672124,-0.4175227,0.2559732,-0.10243976,804.2491,803.44324,807.47253,804.65204,787.326,0.16778564453125,0.08477783203125,0.992919921875,-19.043426513671875,4.852447509765625,-4.6954345703125,1,1.0,1.0,1.0,1.0,10.00
2024-10-11 20:48:16.794,0.7606139,1.1622808,0.4696205,0.66545963,0.64156556,0.84470606,0.08370706,0.5100459,0.78948396,0.310293,-0.19185565,0.91608405,0.56810683,-0.014896538,0.85217637,0.46479306,0.055672124,-0.4175227,0.2559732,-0.10243976,797.3993,805.4579,815.12823,799.81683,630.989,0.16778564453125,0.08477783203125,0.992919921875,-19.043426513671875,4.852447509765625,-4.6954345703125,1,1.0,1.0,1.0,1.0,10.00
2024-10-11 20:48:16.794,0.7606139,1.1622808,0.4696205,0.66545963,0.64156556,0.84470606,0.08370706,0.5100459,0.78948396,0.310293,-0.19185565,0.91608405,0.56810683,-0.014896538,0.85217637,0.46479306,0.055672124,-0.4175227,0.2559732,-0.10243976,800.2198,804.65204,821.5751,800.2198,629.3773,0.16778564453125,0.08477783203125,0.992919921875,-19.043426513671875,4.852447509765625,-4.6954345703125,1,1.0,1.0,1.0,1.0,10.00
2024-10-11 20:48:16.795,0.7606139,1.1622808,0.4696205,0.66545963,0.64156556,0.84470606,0.08370706,0.5100459,0.78948396,0.310293,-0.19185565,0.91608405,0.56810683,-0.014896538,0.85217637,0.46479306,0.055672124,-0.4175227,0.2559732,-0.10243976,801.4286,801.8315,812.3077,808.2784,792.96704,0.16778564453125,0.08477783203125,0.992919921875,-19.043426513671875,4.852447509765625,-4.6954345703125,1,1.0,1.0,1.0,1.0,10.00
2024-10-11 20:48:16.796,0.7606139,1.1622808,0.4696205,0.66545963,0.64156556,0.84470606,0.08370706,0.5100459,0.78948396,0.310293,-0.19185565,0.91608405,0.56810683,-0.014896538,0.85217637,0.46479306,0.055672124,-0.4175227,0.2559732,-0.10243976,802.6374,798.60803,807.47253,810.293,918.2784,0.16778564453125,0.08477783203125,0.992919921875,-19.043426513671875,4.852447509765625,-4.6954345703125,1,1.0,1.0,1.0,1.0,10.00
2024-10-11 20:48:16.797,0.7606139,1.1622808,0.4696205,0.66545963,0.64156556,0.84470606,0.08370706,0.5100459,0.78948396,0.310293,-0.19185565,0.91608405,0.56810683,-0.014896538,0.85217637,0.46479306,0.055672124,-0.4175227,0.2559732,-0.10243976,800.6227,796.99634,796.99634,809.4872,902.5641,0.16778564453125,0.08477783203125,0.992919921875,-19.043426513671875,4.852447509765625,-4.6954345703125,1,1.0,1.0,1.0,1.0,10.00
2024-10-11 20:48:16.798,0.7606139,1.1622808,0.4696205,0.66545963,0.64156556,0.84470606,0.08370706,0.5100459,0.78948396,0.310293,-0.19185565,0.91608405,0.56810683,-0.014896538,0.85217637,0.46479306,0.055672124,-0.4175227,0.2559732,-0.10243976,799.41394,796.99634,796.99634,796.1905,786.9231,0.16778564453125,0.08477783203125,0.992919921875,-19.043426513671875,4.852447509765625,-4.6954345703125,1,1.0,1.0,1.0,1.0,10.00
2024-10-11 20:48:16.799,0.7606139,1.1622808,0.4696205,0.66545963,0.64156556,0.84470606,0.08370706,0.5100459,0.78948396,0.310293,-0.19185565,0.91608405,0.56810683,-0.014896538,0.85217637,0.46479306,0.055672124,-0.4175227,0.2559732,-0.10243976,799.81683,797.3993,809.89014,790.9524,836.4835,0.16778564453125,0.08477783203125,0.992919921875,-19.043426513671875,4.852447509765625,-4.6954345703125,1,1.0,1.0,1.0,1.0,10.00
2024-10-11 20:48:16.799,0.9119372,1.12518,0.4696205,0.6433355,0.76872367,0.78740394,0.08370706,0.50830084,0.8589193,0.30778244,-0.19185565,0.91608405,0.5812294,-0.043855127,0.85217637,0.44590342,0.06791627,-0.42981058,0.2559732,-0.09550263,792.96704,794.9817,801.4286,799.011,902.96704,0.16778564453125,0.08477783203125,0.992919921875,-19.043426513671875,4.852447509765625,-4.6954345703125,1,1.0,1.0,1.0,1.0,10.00
2024-10-11 20:48:16.806,0.9119372,1.12518,0.4696205,0.6433355,0.76872367,0.78740394,0.08370706,0.50830084,0.8589193,0.30778244,-0.19185565,0.91608405,0.5812294,-0.043855127,0.85217637,0.44590342,0.06791627,-0.42981058,0.2559732,-0.09550263,796.99634,794.57874,792.1612,798.60803,673.69965,0.16778564453125,0.08477783203125,0.992919921875,-19.043426513671875,4.852447509765625,-4.6954345703125,1,1.0,1.0,1.0,1.0,10.00
2024-10-11 20:48:16.806,0.9119372,1.12518,0.4696205,0.6433355,0.76872367,0.78740394,0.08370706,0.50830084,0.8589193,0.30778244,-0.19185565,0.91608405,0.5812294,-0.043855127,0.85217637,0.44590342,0.06791627,-0.42981058,0.2559732,-0.09550263,807.47253,800.2198,794.17584,801.4286,671.685,0.16778564453125,0.08477783203125,0.992919921875,-19.043426513671875,4.852447509765625,-4.6954345703125,1,1.0,1.0,1.0,1.0,10.00
2024-10-11 20:48:16.841,0.9119372,1.12518,0.4696205,0.6433355,0.76872367,0.78740394,0.08370706,0.50830084,0.8589193,0.30778244,-0.19185565,0.91608405,0.5812294,-0.043855127,0.85217637,0.44590342,0.06791627,-0.42981058,0.2559732,-0.09550263,807.0696,804.2491,805.4579,805.4579,863.47986,0.15496826171875,0.0494384765625,0.986328125,-20.09765625,5.375823974609375,-2.923431396484375,1,1.0,1.0,1.0,1.0,10.00
2024-10-11 20:48:16.842,0.9119372,1.12518,0.4696205,0.6433355,0.76872367,0.78740394,0.08370706,0.50830084,0.8589193,0.30778244,-0.19185565,0.91608405,0.5812294,-0.043855127,0.85217637,0.44590342,0.06791627,-0.42981058,0.2559732,-0.09550263,809.0842,801.02563,813.91943,796.5934,747.4359,0.15496826171875,0.0494384765625,0.986328125,-20.09765625,5.375823974609375,-2.923431396484375,1,1.0,1.0,1.0,1.0,10.00
2024-10-11 20:48:16.843,0.9119372,1.12518,0.4696205,0.6433355,0.76872367,0.78740394,0.08370706,0.50830084,0.8589193,0.30778244,-0.19185565,0.91608405,0.5812294,-0.043855127,0.85217637,0.44590342,0.06791627,-0.42981058,0.2559732,-0.09550263,801.8315,797.3993,811.0989,789.34064,577.8022,0.15496826171875,0.0494384765625,0.986328125,-20.09765625,5.375823974609375,-2.923431396484375,1,1.0,1.0,1.0,1.0,10.00
2024-10-11 20:48:16.844,0.9119372,1.12518,0.4696205,0.6433355,0.76872367,0.78740394,0.08370706,0.50830084,0.8589193,0.30778244,-0.19185565,0.91608405,0.5812294,-0.043855127,0.85217637,0.44590342,0.06791627,-0.42981058,0.2559732,-0.09550263,795.38464,796.1905,809.89014,795.38464,679.7436,0.15496826171875,0.0494384765625,0.986328125,-20.09765625,5.375823974609375,-2.923431396484375,1,1.0,1.0,1.0,1.0,10.00
2024-10-11 20:48:16.845,0.9119372,1.12518,0.4696205,0.6433355,0.76872367,0.78740394,0.08370706,0.50830084,0.8589193,0.30778244,-0.19185565,0.91608405,0.5812294,-0.043855127,0.85217637,0.44590342,0.06791627,-0.42981058,0.2559732,-0.09550263,802.23444,799.011,810.696,804.2491,766.3736,0.15496826171875,0.0494384765625,0.986328125,-20.09765625,5.375823974609375,-2.923431396484375,1,1.0,1.0,1.0,1.0,10.00
2024-10-11 20:48:16.846,0.9119372,1.12518,0.4696205,0.6433355,0.76872367,0.78740394,0.08370706,0.50830084,0.8589193,0.30778244,-0.19185565,0.91608405,0.5812294,-0.043855127,0.85217637,0.44590342,0.06791627,-0.42981058,0.2559732,-0.09550263,803.44324,802.23444,804.2491,807.0696,691.02563,0.15496826171875,0.0494384765625,0.986328125,-20.09765625,5.375823974609375,-2.923431396484375,1,1.0,1.0,1.0,1.0,10.00
2024-10-11 20:48:16.847,0.9119372,1.12518,0.4696205,0.6433355,0.76872367,0.78740394,0.08370706,0.50830084,0.8589193,0.30778244,-0.19185565,0.91608405,0.5812294,-0.043855127,0.85217637,0.44590342,0.06791627,-0.42981058,0.2559732,-0.09550263,805.4579,800.6227,792.5641,808.68134,683.7729,0.15496826171875,0.0494384765625,0.986328125,-20.09765625,5.375823974609375,-2.923431396484375,1,1.0,1.0,1.0,1.0,10.00
2024-10-11 20:48:16.848,0.9119372,1.12518,0.4696205,0.6433355,0.76872367,0.78740394,0.08370706,0.50830084,0.8589193,0.30778244,-0.19185565,0.91608405,0.5812294,-0.043855127,0.85217637,0.44590342,0.06791627,-0.42981058,0.2559732,-0.09550263,800.2198,798.60803,786.1172,807.0696,797.3993,0.15496826171875,0.0494384765625,0.986328125,-20.09765625,5.375823974609375,-2.923431396484375,1,1.0,1.0,1.0,1.0,10.00
2024-10-11 20:48:16.849,0.9119372,1.12518,0.4696205,0.6433355,0.76872367,0.78740394,0.08370706,0.50830084,0.8589193,0.30778244,-0.19185565,0.91608405,0.5812294,-0.043855127,0.85217637,0.44590342,0.06791627,-0.42981058,0.2559732,-0.09550263,794.17584,799.41394,800.6227,795.38464,732.52747,0.15496826171875,0.0494384765625,0.986328125,-20.09765625,5.375823974609375,-2.923431396484375,1,1.0,1.0,1.0,1.0,10.00
2024-10-11 20:48:16.849,0.9119372,1.12518,0.4696205,0.6433355,0.76872367,0.78740394,0.08370706,0.50830084,0.8589193,0.30778244,-0.19185565,0.91608405,0.5812294,-0.043855127,0.85217637,0.44590342,0.06791627,-0.42981058,0.2559732,-0.09550263,799.011,805.4579,805.8608,791.3553,541.9414,0.15496826171875,0.0494384765625,0.986328125,-20.09765625,5.375823974609375,-2.923431396484375,1,1.0,1.0,1.0,1.0,10.00
2024-10-11 20:48:16.850,0.9119372,1.12518,0.4696205,0.6433355,0.76872367,0.78740394,0.08370706,0.50830084,0.8589193,0.30778244,-0.19185565,0.91608405,0.5812294,-0.043855127,0.85217637,0.44590342,0.06791627,-0.42981058,0.2559732,-0.09550263,800.6227,803.0403,800.6227,795.78754,521.79486,0.15496826171875,0.0494384765625,0.986328125,-20.09765625,5.375823974609375,-2.923431396484375,1,1.0,1.0,1.0,1.0,10.00
2024-10-11 20:48:16.851,0.9119372,1.12518,0.4696205,0.6433355,0.76872367,0.78740394,0.08370706,0.50830084,0.8589193,0.30778244,-0.19185565,0.91608405,0.5812294,-0.043855127,0.85217637,0.44590342,0.06791627,-0.42981058,0.2559732,-0.09550263,806.26373,795.38464,810.696,804.65204,864.2857,0.15496826171875,0.0494384765625,0.986328125,-20.09765625,5.375823974609375,-2.923431396484375,1,1.0,1.0,1.0,1.0,10.00
2024-10-11 20:48:16.883,0.9119372,1.12518,0.4696205,0.6433355,0.76872367,0.78740394,0.08370706,0.50830084,0.8589193,0.30778244,-0.19185565,0.91608405,0.5812294,-0.043855127,0.85217637,0.44590342,0.06791627,-0.42981058,0.2559732,-0.09550263,813.91943,796.99634,809.89014,810.293,922.71063,0.15020751953125,0.0032958984375,0.99041748046875,-20.23223876953125,5.30853271484375,-0.897216796875,1,1.0,1.0,1.0,1.0,10.00
2024-10-11 20:48:16.884,0.9119372,1.12518,0.4696205,0.6433355,0.76872367,0.78740394,0.08370706,0.50830084,0.8589193,0.30778244,-0.19185565,0.91608405,0.5812294,-0.043855127,0.85217637,0.44590342,0.06791627,-0.42981058,0.2559732,-0.09550263,812.71063,799.81683,801.8315,805.4579,583.0403,0.15020751953125,0.0032958984375,0.99041748046875,-20.23223876953125,5.30853271484375,-0.897216796875,1,1.0,1.0,1.0,1.0,10.00
2024-10-11 20:48:16.885,0.9119372,1.12518,0.4696205,0.6433355,0.76872367,0.78740394,0.08370706,0.50830084,0.8589193,0.30778244,-0.19185565,0.91608405,0.5812294,-0.043855127,0.85217637,0.44590342,0.06791627,-0.42981058,0.2559732,-0.09550263,821.978,796.5934,799.81683,808.2784,570.9524,0.15020751953125,0.0032958984375,0.99041748046875,-20.23223876953125,5.30853271484375,-0.897216796875,1,1.0,1.0,1.0,1.0,10.00
2024-10-11 20:48:16.885,0.9119372,1.12518,0.4696205,0.6433355,0.76872367,0.78740394,0.08370706,0.50830084,0.8589193,0.30778244,-0.19185565,0.91608405,0.5812294,-0.043855127,0.85217637,0.44590342,0.06791627,-0.42981058,0.2559732,-0.09550263,825.6044,795.38464,809.0842,809.0842,743.00366,0.15020751953125,0.0032958984375,0.99041748046875,-20.23223876953125,5.30853271484375,-0.897216796875,1,1.0,1.0,1.0,1.0,10.00
2024-10-11 20:48:16.886,0.9119372,1.12518,0.4696205,0.6433355,0.76872367,0.78740394,0.08370706,0.50830084,0.8589193,0.30778244,-0.19185565,0.91608405,0.5812294,-0.043855127,0.85217637,0.44590342,0.06791627,-0.42981058,0.2559732,-0.09550263,807.47253,797.8022,806.26373,793.7729,728.49817,0.15020751953125,0.0032958984375,0.99041748046875,-20.23223876953125,5.30853271484375,-0.897216796875,1,1.0,1.0,1.0,1.0,10.00
2024-10-11 20:48:16.887,0.9119372,1.12518,0.4696205,0.6433355,0.76872367,0.78740394,0.08370706,0.50830084,0.8589193,0.30778244,-0.19185565,0.91608405,0.5812294,-0.043855127,0.85217637,0.44590342,0.06791627,-0.42981058,0.2559732,-0.09550263,806.26373,798.20514,786.1172,786.9231,659.19415,0.15020751953125,0.0032958984375,0.99041748046875,-20.23223876953125,5.30853271484375,-0.897216796875,1,1.0,1.0,1.0,1.0,10.00
2024-10-11 20:48:16.888,0.9119372,1.12518,0.4696205,0.6433355,0.76872367,0.78740394,0.08370706,0.50830084,0.8589193,0.30778244,-0.19185565,0.91608405,0.5812294,-0.043855127,0.85217637,0.44590342,0.06791627,-0.42981058,0.2559732,-0.09550263,812.71063,796.99634,783.69965,794.9817,786.9231,0.15020751953125,0.0032958984375,0.99041748046875,-20.23223876953125,5.30853271484375,-0.897216796875,1,1.0,1.0,1.0,1.0,10.00
2024-10-11 20:48:16.889,0.9119372,1.12518,0.4696205,0.6433355,0.76872367,0.78740394,0.08370706,0.50830084,0.8589193,0.30778244,-0.19185565,0.91608405,0.5812294,-0.043855127,0.85217637,0.44590342,0.06791627,-0.42981058,0.2559732,-0.09550263,806.6667,799.011,804.65204,804.2491,830.0366,0.15020751953125,0.0032958984375,0.99041748046875,-20.23223876953125,5.30853271484375,-0.897216796875,1,1.0,1.0,1.0,1.0,10.00
2024-10-11 20:48:16.890,0.9119372,1.12518,0.4696205,0.6433355,0.76872367,0.78740394,0.08370706,0.50830084,0.8589193,0.30778244,-0.19185565,0.91608405,0.5812294,-0.043855127,0.85217637,0.44590342,0.06791627,-0.42981058,0.2559732,-0.09550263,806.6667,799.81683,820.3663,805.8608,693.44324,0.15020751953125,0.0032958984375,0.99041748046875,-20.23223876953125,5.30853271484375,-0.897216796875,1,1.0,1.0,1.0,1.0,10.00
2024-10-11 20:48:16.891,0.9119372,1.12518,0.4696205,0.6433355,0.76872367,0.78740394,0.08370706,0.50830084,0.8589193,0.30778244,-0.19185565,0.91608405,0.5812294,-0.043855127,0.85217637,0.44590342,0.06791627,-0.42981058,0.2559732,-0.09550263,815.9341,802.23444,813.91943,806.26373,498.82785,0.15020751953125,0.0032958984375,0.99041748046875,-20.23223876953125,5.30853271484375,-0.897216796875,1,1.0,1.0,1.0,1.0,10.00
2024-10-11 20:48:16.891,0.9119372,1.12518,0.4696205,0.6433355,0.76872367,0.78740394,0.08370706,0.50830084,0.8589193,0.30778244,-0.19185565,0.91608405,0.5812294,-0.043855127,0.85217637,0.44590342,0.06791627,-0.42981058,0.2559732,-0.09550263,812.71063,802.6374,798.60803,811.9048,558.0586,0.15020751953125,0.0032958984375,0.99041748046875,-20.23223876953125,5.30853271484375,-0.897216796875,1,1.0,1.0,1.0,1.0,10.00
2024-10-11 20:48:16.892,0.9119372,1.0514321,0.4696205,0.6171533,0.76872367,0.6827668,0.08370706,0.4954999,0.8589193,0.20542158,-0.19185565,0.91608405,0.5812294,-0.084356606,0.85217637,0.42796305,0.06791627,-0.440948,0.2559732,-0.09675223,811.0989,796.1905,790.54944,816.7399,749.0476,0.15020751953125,0.0032958984375,0.99041748046875,-20.23223876953125,5.30853271484375,-0.897216796875,1,1.0,1.0,1.0,1.0,10.00
2024-10-11 20:48:16.968,0.9119372,1.0514321,0.4696205,0.6171533,0.76872367,0.6827668,0.08370706,0.4954999,0.8589193,0.20542158,-0.19185565,0.91608405,0.5812294,-0.084356606,0.85217637,0.42796305,0.06791627,-0.440948,0.2559732,-0.09675223,819.15753,795.38464,787.326,814.7253,679.34064,0.1461181640625,-0.02276611328125,0.980712890625,-16.91253662109375,5.0543212890625,2.91595458984375,1,1.0,1.0,1.0,1.0,10.00
2024-10-11 20:48:16.969,0.9119372,1.0514321,0.4696205,0.6171533,0.76872367,0.6827668,0.08370706,0.4954999,0.8589193,0.20542158,-0.19185565,0.91608405,0.5812294,-0.084356606,0.85217637,0.42796305,0.06791627,-0.440948,0.2559732,-0.09675223,815.5311,798.20514,789.34064,807.8755,585.05493,0.1461181640625,-0.02276611328125,0.980712890625,-16.91253662109375,5.0543212890625,2.91595458984375,1,1.0,1.0,1.0,1.0,10.00
2024-10-11 20:48:16.970,0.9119372,1.0514321,0.4696205,0.6171533,0.76872367,0.6827668,0.08370706,0.4954999,0.8589193,0.20542158,-0.19185565,0.91608405,0.5812294,-0.084356606,0.85217637,0.42796305,0.06791627,-0.440948,0.2559732,-0.09675223,808.2784,800.2198,794.57874,802.6374,772.01465,0.1461181640625,-0.02276611328125,0.980712890625,-16.91253662109375,5.0543212890625,2.91595458984375,1,1.0,1.0,1.0,1.0,10.00
2024-10-11 20:48:16.971,0.9119372,1.0514321,0.4696205,0.6171533,0.76872367,0.6827668,0.08370706,0.4954999,0.8589193,0.20542158,-0.19185565,0.91608405,0.5812294,-0.084356606,0.85217637,0.42796305,0.06791627,-0.440948,0.2559732,-0.09675223,801.4286,798.60803,807.0696,801.4286,818.7546,0.1461181640625,-0.02276611328125,0.980712890625,-16.91253662109375,5.0543212890625,2.91595458984375,1,1.0,1.0,1.0,1.0,10.00
2024-10-11 20:48:16.972,0.9119372,1.0514321,0.4696205,0.6171533,0.76872367,0.6827668,0.08370706,0.4954999,0.8589193,0.20542158,-0.19185565,0.91608405,0.5812294,-0.084356606,0.85217637,0.42796305,0.06791627,-0.440948,0.2559732,-0.09675223,799.81683,793.36993,794.57874,792.1612,628.5714,0.1461181640625,-0.02276611328125,0.980712890625,-16.91253662109375,5.0543212890625,2.91595458984375,1,1.0,1.0,1.0,1.0,10.00
2024-10-11 20:48:16.973,0.9119372,1.0514321,0.4696205,0.6171533,0.76872367,0.6827668,0.08370706,0.4954999,0.8589193,0.20542158,-0.19185565,0.91608405,0.5812294,-0.084356606,0.85217637,0.42796305,0.06791627,-0.440948,0.2559732,-0.09675223,801.02563,796.1905,779.2674,786.9231,681.3553,0.1461181640625,-0.02276611328125,0.980712890625,-16.91253662109375,5.0543212890625,2.91595458984375,1,1.0,1.0,1.0,1.0,10.00
2024-10-11 20:48:16.973,0.9119372,1.0514321,0.4696205,0.6171533,0.76872367,0.6827668,0.08370706,0.4954999,0.8589193,0.20542158,-0.19185565,0.91608405,0.5812294,-0.084356606,0.85217637,0.42796305,0.06791627,-0.440948,0.2559732,-0.09675223,800.2198,798.20514,798.60803,792.5641,949.304,0.1461181640625,-0.02276611328125,0.980712890625,-16.91253662109375,5.0543212890625,2.91595458984375,1,1.0,1.0,1.0,1.0,10.00
2024-10-11 20:48:16.974,0.9119372,1.0514321,0.4696205,0.6171533,0.76872367,0.6827668,0.08370706,0.4954999,0.8589193,0.20542158,-0.19185565,0.91608405,0.5812294,-0.084356606,0.85217637,0.42796305,0.06791627,-0.440948,0.2559732,-0.09675223,798.60803,793.7729,809.4872,799.41394,1011.75824,0.1461181640625,-0.02276611328125,0.980712890625,-16.91253662109375,5.0543212890625,2.91595458984375,1,1.0,1.0,1.0,1.0,10.00
2024-10-11 20:48:16.975,0.9119372,1.0514321,0.4696205,0.6171533,0.76872367,0.6827668,0.08370706,0.4954999,0.8589193,0.20542158,-0.19185565,0.91608405,0.5812294,-0.084356606,0.85217637,0.42796305,0.06791627,-0.440948,0.2559732,-0.09675223,800.6227,795.78754,803.0403,801.8315,705.12823,0.1461181640625,-0.02276611328125,0.980712890625,-16.91253662109375,5.0543212890625,2.91595458984375,1,1.0,1.0,1.0,1.0,10.00
2024-10-11 20:48:16.976,0.9119372,1.0514321,0.4696205,0.6171533,0.76872367,0.6827668,0.08370706,0.4954999,0.8589193,0.20542158,-0.19185565,0.91608405,0.5812294,-0.084356606,0.85217637,0.42796305,0.06791627,-0.440948,0.2559732,-0.09675223,799.81683,794.9817,796.5934,801.4286,600.3663,0.1461181640625,-0.02276611328125,0.980712890625,-16.91253662109375,5.0543212890625,2.91595458984375,1,1.0,1.0,1.0,1.0,10.00
2024-10-11 20:48:16.977,0.9119372,1.0514321,0.4696205,0.6171533,0.76872367,0.6827668,0.08370706,0.4954999,0.8589193,0.20542158,-0.19185565,0.91608405,0.5812294,-0.084356606,0.85217637,0.42796305,0.06791627,-0.440948,0.2559732,-0.09675223,799.011,791.3553,802.6374,803.0403,872.74725,0.1461181640625,-0.02276611328125,0.980712890625,-16.91253662109375,5.0543212890625,2.91595458984375,1,1.0,1.0,1.0,1.0,10.00
2024-10-11 20:48:16.978,0.9119372,1.0514321,0.4696205,0.6171533,0.76872367,0.6827668,0.08370706,0.4954999,0.8589193,0.20542158,-0.19185565,0.91608405,0.5812294,-0.084356606,0.85217637,0.42796305,0.06791627,-0.440948,0.2559732,-0.09675223,797.8022,794.17584,791.3553,810.696,938.4249,0.1461181640625,-0.02276611328125,0.980712890625,-16.91253662109375,5.0543212890625,2.91595458984375,1,1.0,1.0,1.0,1.0,10.00
2024-10-11 20:48:17.053,0.9119372,1.0514321,0.4696205,0.6171533,0.76872367,0.6827668,0.08370706,0.4954999,0.8589193,0.20542158,-0.19185565,0.91608405,0.5812294,-0.084356606,0.85217637,0.42796305,0.06791627,-0.440948,0.2559732,-0.09675223,799.81683,793.7729,790.14655,806.26373,717.2161,0.1461181640625,-0.02276611328125,0.980712890625,-16.91253662109375,5.0543212890625,2.91595458984375,1,1.0,1.0,1.0,1.0,10.00
2024-10-11 20:48:17.055,0.9119372,1.0514321,0.4696205,0.6171533,0.76872367,0.6827668,0.08370706,0.4954999,0.8589193,0.20542158,-0.19185565,0.91608405,0.5812294,-0.084356606,0.85217637,0.42796305,0.06791627,-0.440948,0.2559732,-0.09675223,803.0403,788.1319,807.47253,800.2198,675.31134,0.1461181640625,-0.02276611328125,0.980712890625,-16.91253662109375,5.0543212890625,2.91595458984375,1,1.0,1.0,1.0,1.0,10.00
2024-10-11 20:48:17.056,0.9119372,1.0514321,0.4696205,0.6171533,0.76872367,0.6827668,0.08370706,0.4954999,0.8589193,0.20542158,-0.19185565,0.91608405,0.5812294,-0.084356606,0.85217637,0.42796305,0.06791627,-0.440948,0.2559732,-0.09675223,804.2491,789.34064,801.4286,799.41394,799.81683,0.1461181640625,-0.02276611328125,0.980712890625,-16.91253662109375,5.0543212890625,2.91595458984375,1,1.0,1.0,1.0,1.0,10.00
2024-10-11 20:48:17.057,0.9119372,1.0514321,0.4696205,0.6171533,0.76872367,0.6827668,0.08370706,0.4954999,0.8589193,0.20542158,-0.19185565,0.91608405,0.5812294,-0.084356606,0.85217637,0.42796305,0.06791627,-0.440948,0.2559732,-0.09675223,810.696,793.7729,781.28204,799.41394,811.9048,0.1461181640625,-0.02276611328125,0.980712890625,-16.91253662109375,5.0543212890625,2.91595458984375,1,1.0,1.0,1.0,1.0,10.00
2024-10-11 20:48:17.058,0.9119372,1.0514321,0.4696205,0.6171533,0.76872367,0.6827668,0.08370706,0.4954999,0.8589193,0.20542158,-0.19185565,0.91608405,0.5812294,-0.084356606,0.85217637,0.42796305,0.06791627,-0.440948,0.2559732,-0.09675223,804.65204,794.57874,782.0879,804.65204,671.28204,0.1461181640625,-0.02276611328125,0.980712890625,-16.91253662109375,5.0543212890625,2.91595458984375,1,1.0,1.0,1.0,1.0,10.00
2024-10-11 20:48:17.059,0.9119372,1.0514321,0.4696205,0.6171533,0.76872367,0.6827668,0.08370706,0.4954999,0.8589193,0.20542158,-0.19185565,0.91608405,0.5812294,-0.084356606,0.85217637,0.42796305,0.06791627,-0.440948,0.2559732,-0.09675223,799.81683,793.7729,803.0403,803.0403,722.0513,0.1461181640625,-0.02276611328125,0.980712890625,-16.91253662109375,5.0543212890625,2.91595458984375,1,1.0,1.0,1.0,1.0,10.00
2024-10-11 20:48:17.060,0.9119372,1.0514321,0.4696205,0.6171533,0.76872367,0.6827668,0.08370706,0.4954999,0.8589193,0.20542158,-0.19185565,0.91608405,0.5812294,-0.084356606,0.85217637,0.42796305,0.06791627,-0.440948,0.2559732,-0.09675223,805.05493,795.38464,808.68134,795.38464,856.2271,0.1461181640625,-0.02276611328125,0.980712890625,-16.91253662109375,5.0543212890625,2.91595458984375,1,1.0,1.0,1.0,1.0,10.00
2024-10-11 20:48:17.061,0.9119372,1.0514321,0.4696205,0.6171533,0.76872367,0.6827668,0.08370706,0.4954999,0.8589193,0.20542158,-0.19185565,0.91608405,0.5812294,-0.084356606,0.85217637,0.42796305,0.06791627,-0.440948,0.2559732,-0.09675223,803.0403,799.011,796.5934,794.9817,819.5604,0.1461181640625,-0.02276611328125,0.980712890625,-16.91253662109375,5.0543212890625,2.91595458984375,1,1.0,1.0,1.0,1.0,10.00
2024-10-11 20:48:17.062,0.9119372,1.0514321,0.4696205,0.6171533,0.76872367,0.6827668,0.08370706,0.4954999,0.8589193,0.20542158,-0.19185565,0.91608405,0.5812294,-0.084356606,0.85217637,0.42796305,0.06791627,-0.440948,0.2559732,-0.09675223,796.5934,799.41394,789.34064,798.20514,649.5238,0.1461181640625,-0.02276611328125,0.980712890625,-16.91253662109375,5.0543212890625,2.91595458984375,1,1.0,1.0,1.0,1.0,10.00
2024-10-11 20:48:17.063,0.9119372,1.0514321,0.4696205,0.6171533,0.76872367,0.6827668,0.08370706,0.4954999,0.8589193,0.20542158,-0.19185565,0.91608405,0.5812294,-0.084356606,0.85217637,0.42796305,0.06791627,-0.440948,0.2559732,-0.09675223,801.4286,799.81683,795.38464,803.0403,703.91943,0.1461181640625,-0.02276611328125,0.980712890625,-16.91253662109375,5.0543212890625,2.91595458984375,1,1.0,1.0,1.0,1.0,10.00
2024-10-11 20:48:17.064,0.9119372,1.0514321,0.4696205,0.6171533,0.76872367,0.6827668,0.08370706,0.4954999,0.8589193,0.20542158,-0.19185565,0.91608405,0.5812294,-0.084356606,0.85217637,0.42796305,0.06791627,-0.440948,0.2559732,-0.09675223,803.8461,799.011,805.4579,805.05493,772.01465,0.1461181640625,-0.02276611328125,0.980712890625,-16.91253662109375,5.0543212890625,2.91595458984375,1,1.0,1.0,1.0,1.0,10.00
2024-10-11 20:48:17.065,0.9119372,1.0514321,0.4696205,0.6171533,0.76872367,0.6827668,0.08370706,0.4954999,0.8589193,0.20542158,-0.19185565,0.91608405,0.5812294,-0.084356606,0.85217637,0.42796305,0.06791627,-0.440948,0.2559732,-0.09675223,802.23444,803.44324,800.2198,809.89014,642.27106,0.1461181640625,-0.02276611328125,0.980712890625,-16.91253662109375,5.0543212890625,2.91595458984375,1,1.0,1.0,1.0,1.0,10.00
2024-10-11 20:48:17.100,0.9119372,1.0514321,0.4696205,0.6171533,0.76872367,0.6827668,0.08370706,0.4954999,0.8589193,0.20542158,-0.19185565,0.91608405,0.5812294,-0.084356606,0.85217637,0.42796305,0.06791627,-0.440948,0.2559732,-0.09675223,805.4579,807.47253,792.5641,817.9487,551.2088,0.134033203125,-0.03436279296875,0.9962158203125,-14.0863037109375,6.093597412109375,4.8748779296875,1,1.0,1.0,1.0,1.0,10.00
2024-10-11 20:48:17.101,0.9119372,0.94944656,0.4696205,0.59438336,0.76872367,0.53885686,0.08370706,0.4815175,0.8589193,0.05312756,-0.19185565,0.91608405,0.5812294,-0.12339908,0.85217637,0.41168937,0.06791627,-0.44660524,0.2559732,-0.10415149,807.47253,802.23444,789.34064,815.5311,708.3516,0.134033203125,-0.03436279296875,0.9962158203125,-14.0863037109375,6.093597412109375,4.8748779296875,1,1.0,1.0,1.0,1.0,10.00
2024-10-11 20:48:17.107,0.9119372,0.94944656,0.4696205,0.59438336,0.76872367,0.53885686,0.08370706,0.4815175,0.8589193,0.05312756,-0.19185565,0.91608405,0.5812294,-0.12339908,0.85217637,0.41168937,0.06791627,-0.44660524,0.2559732,-0.10415149,809.4872,799.011,793.36993,809.0842,848.5714,0.134033203125,-0.03436279296875,0.9962158203125,-14.0863037109375,6.093597412109375,4.8748779296875,1,1.0,1.0,1.0,1.0,10.00
2024-10-11 20:48:17.108,0.9119372,0.94944656,0.4696205,0.59438336,0.76872367,0.53885686,0.08370706,0.4815175,0.8589193,0.05312756,-0.19185565,0.91608405,0.5812294,-0.12339908,0.85217637,0.41168937,0.06791627,-0.44660524,0.2559732,-0.10415149,811.9048,803.0403,801.8315,809.89014,689.011,0.134033203125,-0.03436279296875,0.9962158203125,-14.0863037109375,6.093597412109375,4.8748779296875,1,1.0,1.0,1.0,1.0,10.00
2024-10-11 20:48:17.109,0.9119372,0.94944656,0.4696205,0.59438336,0.76872367,0.53885686,0.08370706,0.4815175,0.8589193,0.05312756,-0.19185565,0.91608405,0.5812294,-0.12339908,0.85217637,0.41168937,0.06791627,-0.44660524,0.2559732,-0.10415149,809.4872,801.02563,805.4579,809.89014,578.60803,0.134033203125,-0.03436279296875,0.9962158203125,-14.0863037109375,6.093597412109375,4.8748779296875,1,1.0,1.0,1.0,1.0,10.00
2024-10-11 20:48:17.110,0.9119372,0.94944656,0.4696205,0.59438336,0.76872367,0.53885686,0.08370706,0.4815175,0.8589193,0.05312756,-0.19185565,0.91608405,0.5812294,-0.12339908,0.85217637,0.41168937,0.06791627,-0.44660524,0.2559732,-0.10415149,803.0403,797.3993,803.8461,802.6374,780.07324,0.134033203125,-0.03436279296875,0.9962158203125,-14.0863037109375,6.093597412109375,4.8748779296875,1,1.0,1.0,1.0,1.0,10.00
2024-10-11 20:48:17.111,0.9119372,0.94944656,0.4696205,0.59438336,0.76872367,0.53885686,0.08370706,0.4815175,0.8589193,0.05312756,-0.19185565,0.91608405,0.5812294,-0.12339908,0.85217637,0.41168937,0.06791627,-0.44660524,0.2559732,-0.10415149,804.2491,794.57874,800.2198,803.8461,977.9121,0.134033203125,-0.03436279296875,0.9962158203125,-14.0863037109375,6.093597412109375,4.8748779296875,1,1.0,1.0,1.0,1.0,10.00
2024-10-11 20:48:17.112,0.9119372,0.94944656,0.4696205,0.59438336,0.76872367,0.53885686,0.08370706,0.4815175,0.8589193,0.05312756,-0.19185565,0.91608405,0.5812294,-0.12339908,0.85217637,0.41168937,0.06791627,-0.44660524,0.2559732,-0.10415149,802.6374,792.96704,796.99634,805.8608,773.22345,0.134033203125,-0.03436279296875,0.9962158203125,-14.0863037109375,6.093597412109375,4.8748779296875,1,1.0,1.0,1.0,1.0,10.00
2024-10-11 20:48:17.113,0.9119372,0.94944656,0.4696205,0.59438336,0.76872367,0.53885686,0.08370706,0.4815175,0.8589193,0.05312756,-0.19185565,0.91608405,0.5812294,-0.12339908,0.85217637,0.41168937,0.06791627,-0.44660524,0.2559732,-0.10415149,800.6227,791.75824,786.9231,798.20514,622.1245,0.134033203125,-0.03436279296875,0.9962158203125,-14.0863037109375,6.093597412109375,4.8748779296875,1,1.0,1.0,1.0,1.0,10.00
2024-10-11 20:48:17.114,0.9119372,0.94944656,0.4696205,0.59438336,0.76872367,0.53885686,0.08370706,0.4815175,0.8589193,0.05312756,-0.19185565,0.91608405,0.5812294,-0.12339908,0.85217637,0.41168937,0.06791627,-0.44660524,0.2559732,-0.10415149,802.23444,788.93774,796.1905,799.41394,786.9231,0.134033203125,-0.03436279296875,0.9962158203125,-14.0863037109375,6.093597412109375,4.8748779296875,1,1.0,1.0,1.0,1.0,10.00
2024-10-11 20:48:17.115,0.9119372,0.94944656,0.4696205,0.59438336,0.76872367,0.53885686,0.08370706,0.4815175,0.8589193,0.05312756,-0.19185565,0.91608405,0.5812294,-0.12339908,0.85217637,0.41168937,0.06791627,-0.44660524,0.2559732,-0.10415149,802.23444,790.9524,803.44324,805.4579,869.92676,0.134033203125,-0.03436279296875,0.9962158203125,-14.0863037109375,6.093597412109375,4.8748779296875,1,1.0,1.0,1.0,1.0,10.00
2024-10-11 20:48:17.116,0.9119372,0.94944656,0.4696205,0.59438336,0.76872367,0.53885686,0.08370706,0.4815175,0.8589193,0.05312756,-0.19185565,0.91608405,0.5812294,-0.12339908,0.85217637,0.41168937,0.06791627,-0.44660524,0.2559732,-0.10415149,803.44324,799.011,798.60803,802.6374,666.8498,0.134033203125,-0.03436279296875,0.9962158203125,-14.0863037109375,6.093597412109375,4.8748779296875,1,1.0,1.0,1.0,1.0,10.00
2024-10-11 20:48:17.148,0.9119372,0.94944656,0.4696205,0.59438336,0.76872367,0.53885686,0.08370706,0.4815175,0.8589193,0.05312756,-0.19185565,0.91608405,0.5812294,-0.12339908,0.85217637,0.41168937,0.06791627,-0.44660524,0.2559732,-0.10415149,813.1135,804.65204,795.78754,807.0696,644.2857,0.1126708984375,-0.04583740234375,0.99462890625,-12.060089111328125,7.716064453125,4.777679443359375,1,1.0,1.0,1.0,1.0,10.00
2024-10-11 20:48:17.149,0.9119372,0.94944656,0.4696205,0.59438336,0.76872367,0.53885686,0.08370706,0.4815175,0.8589193,0.05312756,-0.19185565,0.91608405,0.5812294,-0.12339908,0.85217637,0.41168937,0.06791627,-0.44660524,0.2559732,-0.10415149,814.3223,801.8315,794.9817,813.5165,832.0513,0.1126708984375,-0.04583740234375,0.99462890625,-12.060089111328125,7.716064453125,4.777679443359375,1,1.0,1.0,1.0,1.0,10.00
2024-10-11 20:48:17.150,0.9119372,0.94944656,0.4696205,0.59438336,0.76872367,0.53885686,0.08370706,0.4815175,0.8589193,0.05312756,-0.19185565,0.91608405,0.5812294,-0.12339908,0.85217637,0.41168937,0.06791627,-0.44660524,0.2559732,-0.10415149,803.8461,797.3993,802.23444,804.65204,848.5714,0.1126708984375,-0.04583740234375,0.99462890625,-12.060089111328125,7.716064453125,4.777679443359375,1,1.0,1.0,1.0,1.0,10.00
2024-10-11 20:48:17.151,0.9119372,0.94944656,0.4696205,0.59438336,0.76872367,0.53885686,0.08370706,0.4815175,0.8589193,0.05312756,-0.19185565,0.91608405,0.5812294,-0.12339908,0.85217637,0.41168937,0.06791627,-0.44660524,0.2559732,-0.10415149,799.011,798.60803,799.011,800.6227,610.0366,0.1126708984375,-0.04583740234375,0.99462890625,-12.060089111328125,7.716064453125,4.777679443359375,1,1.0,1.0,1.0,1.0,10.00
2024-10-11 20:48:17.151,0.9119372,0.94944656,0.4696205,0.59438336,0.76872367,0.53885686,0.08370706,0.4815175,0.8589193,0.05312756,-0.19185565,0.91608405,0.5812294,-0.12339908,0.85217637,0.41168937,0.06791627,-0.44660524,0.2559732,-0.10415149,790.9524,802.23444,799.41394,806.6667,647.9121,0.1126708984375,-0.04583740234375,0.99462890625,-12.060089111328125,7.716064453125,4.777679443359375,1,1.0,1.0,1.0,1.0,10.00
2024-10-11 20:48:17.152,0.9119372,0.94944656,0.4696205,0.59438336,0.76872367,0.53885686,0.08370706,0.4815175,0.8589193,0.05312756,-0.19185565,0.91608405,0.5812294,-0.12339908,0.85217637,0.41168937,0.06791627,-0.44660524,0.2559732,-0.10415149,796.1905,796.5934,805.05493,805.8608,860.2564,0.1126708984375,-0.04583740234375,0.99462890625,-12.060089111328125,7.716064453125,4.777679443359375,1,1.0,1.0,1.0,1.0,10.00
2024-10-11 20:48:17.153,0.9119372,0.94944656,0.4696205,0.59438336,0.76872367,0.53885686,0.08370706,0.4815175,0.8589193,0.05312756,-0.19185565,0.91608405,0.5812294,-0.12339908,0.85217637,0.41168937,0.06791627,-0.44660524,0.2559732,-0.10415149,800.6227,790.54944,804.2491,801.4286,899.7436,0.1126708984375,-0.04583740234375,0.99462890625,-12.060089111328125,7.716064453125,4.777679443359375,1,1.0,1.0,1.0,1.0,10.00
2024-10-11 20:48:17.154,0.9119372,0.94944656,0.4696205,0.59438336,0.76872367,0.53885686,0.08370706,0.4815175,0.8589193,0.05312756,-0.19185565,0.91608405,0.5812294,-0.12339908,0.85217637,0.41168937,0.06791627,-0.44660524,0.2559732,-0.10415149,793.36993,795.78754,807.0696,799.011,779.2674,0.1126708984375,-0.04583740234375,0.99462890625,-12.060089111328125,7.716064453125,4.777679443359375,1,1.0,1.0,1.0,1.0,10.00
2024-10-11 20:48:17.154,0.9119372,0.94944656,0.4696205,0.59438336,0.76872367,0.53885686,0.08370706,0.4815175,0.8589193,0.05312756,-0.19185565,0.91608405,0.5812294,-0.12339908,0.85217637,0.41168937,0.06791627,-0.44660524,0.2559732,-0.10415149,803.0403,799.011,799.011,800.6227,621.7216,0.1126708984375,-0.04583740234375,0.99462890625,-12.060089111328125,7.716064453125,4.777679443359375,1,1.0,1.0,1.0,1.0,10.00
2024-10-11 20:48:17.155,0.9119372,0.94944656,0.4696205,0.59438336,0.76872367,0.53885686,0.08370706,0.4815175,0.8589193,0.05312756,-0.19185565,0.91608405,0.5812294,-0.12339908,0.85217637,0.41168937,0.06791627,-0.44660524,0.2559732,-0.10415149,811.0989,797.8022,795.78754,803.44324,656.77655,0.1126708984375,-0.04583740234375,0.99462890625,-12.060089111328125,7.716064453125,4.777679443359375,1,1.0,1.0,1.0,1.0,10.00
2024-10-11 20:48:17.156,0.9119372,0.94944656,0.4696205,0.59438336,0.76872367,0.53885686,0.08370706,0.4815175,0.8589193,0.05312756,-0.19185565,0.91608405,0.5812294,-0.12339908,0.85217637,0.41168937,0.06791627,-0.44660524,0.2559732,-0.10415149,795.78754,794.17584,801.8315,802.23444,740.58606,0.1126708984375,-0.04583740234375,0.99462890625,-12.060089111328125,7.716064453125,4.777679443359375,1,1.0,1.0,1.0,1.0,10.00
2024-10-11 20:48:17.157,0.9119372,0.94944656,0.4696205,0.59438336,0.76872367,0.53885686,0.08370706,0.4815175,0.8589193,0.05312756,-0.19185565,0.91608405,0.5812294,-0.12339908,0.85217637,0.41168937,0.06791627,-0.44660524,0.2559732,-0.10415149,792.96704,792.96704,790.14655,796.5934,608.4249,0.1126708984375,-0.04583740234375,0.99462890625,-12.060089111328125,7.716064453125,4.777679443359375,1,1.0,1.0,1.0,1.0,10.00
2024-10-11 20:48:17.215,0.9119372,0.94944656,0.4696205,0.59438336,0.76872367,0.53885686,0.08370706,0.4815175,0.8589193,0.05312756,-0.19185565,0.91608405,0.5812294,-0.12339908,0.85217637,0.41168937,0.06791627,-0.44660524,0.2559732,-0.10415149,801.02563,796.99634,789.7436,796.99634,559.67035,0.09368896484375,-0.06024169921875,0.998291015625,-11.05072021484375,8.20953369140625,3.48419189453125,1,1.0,1.0,1.0,1.0,10.00
2024-10-11 20:48:17.217,0.9119372,0.94944656,0.4696205,0.59438336,0.76872367,0.53885686,0.08370706,0.4815175,0.8589193,0.05312756,-0.19185565,0.91608405,0.5812294,-0.12339908,0.85217637,0.41168937,0.06791627,-0.44660524,0.2559732,-0.10415149,795.38464,794.9817,807.8755,794.9817,686.5934,0.09368896484375,-0.06024169921875,0.998291015625,-11.05072021484375,8.20953369140625,3.48419189453125,1,1.0,1.0,1.0,1.0,10.00
2024-10-11 20:48:17.218,0.9119372,0.94944656,0.4696205,0.59438336,0.76872367,0.53885686,0.08370706,0.4815175,0.8589193,0.05312756,-0.19185565,0.91608405,0.5812294,-0.12339908,0.85217637,0.41168937,0.06791627,-0.44660524,0.2559732,-0.10415149,794.9817,792.1612,812.3077,788.5348,670.07324,0.09368896484375,-0.06024169921875,0.998291015625,-11.05072021484375,8.20953369140625,3.48419189453125,1,1.0,1.0,1.0,1.0,10.00
2024-10-11 20:48:17.218,0.9119372,0.8526714,0.4696205,0.5820296,0.76872367,0.39333472,0.08370706,0.47399485,0.8589193,-0.074558385,-0.19185565,0.91608405,0.5812294,-0.14988494,0.85217637,0.40178877,0.06791627,-0.44731125,0.2559732,-0.10040831,806.6667,791.75824,807.47253,788.1319,576.1905,0.09368896484375,-0.06024169921875,0.998291015625,-11.05072021484375,8.20953369140625,3.48419189453125,1,1.0,1.0,1.0,1.0,10.00
2024-10-11 20:48:17.224,0.9119372,0.8526714,0.4696205,0.5820296,0.76872367,0.39333472,0.08370706,0.47399485,0.8589193,-0.074558385,-0.19185565,0.91608405,0.5812294,-0.14988494,0.85217637,0.40178877,0.06791627,-0.44731125,0.2559732,-0.10040831,799.81683,791.75824,793.7729,784.10254,709.9634,0.09368896484375,-0.06024169921875,0.998291015625,-11.05072021484375,8.20953369140625,3.48419189453125,1,1.0,1.0,1.0,1.0,10.00
2024-10-11 20:48:17.225,0.9119372,0.8526714,0.4696205,0.5820296,0.76872367,0.39333472,0.08370706,0.47399485,0.8589193,-0.074558385,-0.19185565,0.91608405,0.5812294,-0.14988494,0.85217637,0.40178877,0.06791627,-0.44731125,0.2559732,-0.10040831,790.14655,789.7436,793.36993,790.54944,933.5897,0.09368896484375,-0.06024169921875,0.998291015625,-11.05072021484375,8.20953369140625,3.48419189453125,1,1.0,1.0,1.0,1.0,10.00
2024-10-11 20:48:17.226,0.9119372,0.8526714,0.4696205,0.5820296,0.76872367,0.39333472,0.08370706,0.47399485,0.8589193,-0.074558385,-0.19185565,0.91608405,0.5812294,-0.14988494,0.85217637,0.40178877,0.06791627,-0.44731125,0.2559732,-0.10040831,803.44324,795.78754,798.20514,799.81683,769.19415,0.09368896484375,-0.06024169921875,0.998291015625,-11.05072021484375,8.20953369140625,3.48419189453125,1,1.0,1.0,1.0,1.0,10.00
2024-10-11 20:48:17.227,0.9119372,0.8526714,0.4696205,0.5820296,0.76872367,0.39333472,0.08370706,0.47399485,0.8589193,-0.074558385,-0.19185565,0.91608405,0.5812294,-0.14988494,0.85217637,0.40178877,0.06791627,-0.44731125,0.2559732,-0.10040831,810.293,802.6374,799.81683,792.96704,643.8828,0.09368896484375,-0.06024169921875,0.998291015625,-11.05072021484375,8.20953369140625,3.48419189453125,1,1.0,1.0,1.0,1.0,10.00
2024-10-11 20:48:17.228,0.9119372,0.8526714,0.4696205,0.5820296,0.76872367,0.39333472,0.08370706,0.47399485,0.8589193,-0.074558385,-0.19185565,0.91608405,0.5812294,-0.14988494,0.85217637,0.40178877,0.06791627,-0.44731125,0.2559732,-0.10040831,814.7253,796.99634,805.05493,806.6667,815.12823,0.09368896484375,-0.06024169921875,0.998291015625,-11.05072021484375,8.20953369140625,3.48419189453125,1,1.0,1.0,1.0,1.0,10.00
2024-10-11 20:48:17.229,0.9119372,0.8526714,0.4696205,0.5820296,0.76872367,0.39333472,0.08370706,0.47399485,0.8589193,-0.074558385,-0.19185565,0.91608405,0.5812294,-0.14988494,0.85217637,0.40178877,0.06791627,-0.44731125,0.2559732,-0.10040831,814.7253,796.1905,796.5934,819.5604,861.4652,0.09368896484375,-0.06024169921875,0.998291015625,-11.05072021484375,8.20953369140625,3.48419189453125,1,1.0,1.0,1.0,1.0,10.00
2024-10-11 20:48:17.230,0.9119372,0.8526714,0.4696205,0.5820296,0.76872367,0.39333472,0.08370706,0.47399485,0.8589193,-0.074558385,-0.19185565,0.91608405,0.5812294,-0.14988494,0.85217637,0.40178877,0.06791627,-0.44731125,0.2559732,-0.10040831,805.4579,798.20514,783.2967,817.1429,615.6777,0.09368896484375,-0.06024169921875,0.998291015625,-11.05072021484375,8.20953369140625,3.48419189453125,1,1.0,1.0,1.0,1.0,10.00
2024-10-11 20:48:17.231,0.9119372,0.8526714,0.4696205,0.5820296,0.76872367,0.39333472,0.08370706,0.47399485,0.8589193,-0.074558385,-0.19185565,0.91608405,0.5812294,-0.14988494,0.85217637,0.40178877,0.06791627,-0.44731125,0.2559732,-0.10040831,808.2784,796.1905,787.326,819.5604,550.0,0.09368896484375,-0.06024169921875,0.998291015625,-11.05072021484375,8.20953369140625,3.48419189453125,1,1.0,1.0,1.0,1.0,10.00
2024-10-11 20:48:17.257,0.9119372,0.8526714,0.4696205,0.5820296,0.76872367,0.39333472,0.08370706,0.47399485,0.8589193,-0.074558385,-0.19185565,0.91608405,0.5812294,-0.14988494,0.85217637,0.40178877,0.06791627,-0.44731125,0.2559732,-0.10040831,809.4872,794.9817,790.14655,814.3223,826.0073,0.09130859375,-0.068359375,0.99835205078125,-10.011444091796875,6.123504638671875,3.297271728515625,1,1.0,1.0,1.0,1.0,10.00
2024-10-11 20:48:17.258,0.9119372,0.8526714,0.4696205,0.5820296,0.76872367,0.39333472,0.08370706,0.47399485,0.8589193,-0.074558385,-0.19185565,0.91608405,0.5812294,-0.14988494,0.85217637,0.40178877,0.06791627,-0.44731125,0.2559732,-0.10040831,815.12823,791.3553,796.99634,817.1429,913.44324,0.09130859375,-0.068359375,0.99835205078125,-10.011444091796875,6.123504638671875,3.297271728515625,1,1.0,1.0,1.0,1.0,10.00
2024-10-11 20:48:17.259,0.9119372,0.8526714,0.4696205,0.5820296,0.76872367,0.39333472,0.08370706,0.47399485,0.8589193,-0.074558385,-0.19185565,0.91608405,0.5812294,-0.14988494,0.85217637,0.40178877,0.06791627,-0.44731125,0.2559732,-0.10040831,820.7692,791.75824,805.8608,818.7546,669.2674,0.09130859375,-0.068359375,0.99835205078125,-10.011444091796875,6.123504638671875,3.297271728515625,1,1.0,1.0,1.0,1.0,10.00
2024-10-11 20:48:17.260,0.9119372,0.8526714,0.4696205,0.5820296,0.76872367,0.39333472,0.08370706,0.47399485,0.8589193,-0.074558385,-0.19185565,0.91608405,0.5812294,-0.14988494,0.85217637,0.40178877,0.06791627,-0.44731125,0.2559732,-0.10040831,823.9927,795.78754,792.96704,820.7692,662.01465,0.09130859375,-0.068359375,0.99835205078125,-10.011444091796875,6.123504638671875,3.297271728515625,1,1.0,1.0,1.0,1.0,10.00
2024-10-11 20:48:17.261,0.9119372,0.8526714,0.4696205,0.5820296,0.76872367,0.39333472,0.08370706,0.47399485,0.8589193,-0.074558385,-0.19185565,0.91608405,0.5812294,-0.14988494,0.85217637,0.40178877,0.06791627,-0.44731125,0.2559732,-0.10040831,817.5458,798.60803,798.60803,825.6044,846.55676,0.09130859375,-0.068359375,0.99835205078125,-10.011444091796875,6.123504638671875,3.297271728515625,1,1.0,1.0,1.0,1.0,10.00
2024-10-11 20:48:17.262,0.9119372,0.8526714,0.4696205,0.5820296,0.76872367,0.39333472,0.08370706,0.47399485,0.8589193,-0.074558385,-0.19185565,0.91608405,0.5812294,-0.14988494,0.85217637,0.40178877,0.06791627,-0.44731125,0.2559732,-0.10040831,808.2784,800.6227,813.91943,823.1868,855.0183,0.09130859375,-0.068359375,0.99835205078125,-10.011444091796875,6.123504638671875,3.297271728515625,1,1.0,1.0,1.0,1.0,10.00
2024-10-11 20:48:17.263,0.9119372,0.8526714,0.4696205,0.5820296,0.76872367,0.39333472,0.08370706,0.47399485,0.8589193,-0.074558385,-0.19185565,0.91608405,0.5812294,-0.14988494,0.85217637,0.40178877,0.06791627,-0.44731125,0.2559732,-0.10040831,814.7253,798.20514,810.696,815.9341,691.4286,0.09130859375,-0.068359375,0.99835205078125,-10.011444091796875,6.123504638671875,3.297271728515625,1,1.0,1.0,1.0,1.0,10.00
2024-10-11 20:48:17.264,0.9119372,0.8526714,0.4696205,0.5820296,0.76872367,0.39333472,0.08370706,0.47399485,0.8589193,-0.074558385,-0.19185565,0.91608405,0.5812294,-0.14988494,0.85217637,0.40178877,0.06791627,-0.44731125,0.2559732,-0.10040831,817.1429,798.20514,808.2784,804.2491,718.8278,0.09130859375,-0.068359375,0.99835205078125,-10.011444091796875,6.123504638671875,3.297271728515625,1,1.0,1.0,1.0,1.0,10.00
2024-10-11 20:48:17.265,0.9119372,0.8526714,0.4696205,0.5820296,0.76872367,0.39333472,0.08370706,0.47399485,0.8589193,-0.074558385,-0.19185565,0.91608405,0.5812294,-0.14988494,0.85217637,0.40178877,0.06791627,-0.44731125,0.2559732,-0.10040831,811.9048,800.6227,802.23444,799.81683,838.9011,0.09130859375,-0.068359375,0.99835205078125,-10.011444091796875,6.123504638671875,3.297271728515625,1,1.0,1.0,1.0,1.0,10.00
2024-10-11 20:48:17.266,0.9119372,0.8526714,0.4696205,0.5820296,0.76872367,0.39333472,0.08370706,0.47399485,0.8589193,-0.074558385,-0.19185565,0.91608405,0.5812294,-0.14988494,0.85217637,0.40178877,0.06791627,-0.44731125,0.2559732,-0.10040831,810.696,801.8315,789.34064,802.23444,738.1685,0.09130859375,-0.068359375,0.99835205078125,-10.011444091796875,6.123504638671875,3.297271728515625,1,1.0,1.0,1.0,1.0,10.00
2024-10-11 20:48:17.267,0.9119372,0.8526714,0.4696205,0.5820296,0.76872367,0.39333472,0.08370706,0.47399485,0.8589193,-0.074558385,-0.19185565,0.91608405,0.5812294,-0.14988494,0.85217637,0.40178877,0.06791627,-0.44731125,0.2559732,-0.10040831,813.1135,804.2491,788.1319,803.8461,493.1868,0.09130859375,-0.068359375,0.99835205078125,-10.011444091796875,6.123504638671875,3.297271728515625,1,1.0,1.0,1.0,1.0,10.00
2024-10-11 20:48:17.268,0.9119372,0.8526714,0.4696205,0.5820296,0.76872367,0.39333472,0.08370706,0.47399485,0.8589193,-0.074558385,-0.19185565,0.91608405,0.5812294,-0.14988494,0.85217637,0.40178877,0.06791627,-0.44731125,0.2559732,-0.10040831,815.9341,797.8022,795.78754,807.47253,568.5348,0.09130859375,-0.068359375,0.99835205078125,-10.011444091796875,6.123504638671875,3.297271728515625,1,1.0,1.0,1.0,1.0,10.00
2024-10-11 20:48:17.300,0.9119372,0.8526714,0.4696205,0.5820296,0.76872367,0.39333472,0.08370706,0.47399485,0.8589193,-0.074558385,-0.19185565,0.91608405,0.5812294,-0.14988494,0.85217637,0.40178877,0.06791627,-0.44731125,0.2559732,-0.10040831,805.05493,794.9817,794.9817,811.9048,786.52014,0.09130859375,-0.068359375,0.99835205078125,-10.011444091796875,6.123504638671875,3.297271728515625,1,1.0,1.0,1.0,1.0,10.00
2024-10-11 20:48:17.301,0.9119372,0.8526714,0.4696205,0.5820296,0.76872367,0.39333472,0.08370706,0.47399485,0.8589193,-0.074558385,-0.19185565,0.91608405,0.5812294,-0.14988494,0.85217637,0.40178877,0.06791627,-0.44731125,0.2559732,-0.10040831,802.23444,801.4286,795.38464,810.696,700.696,0.09130859375,-0.068359375,0.99835205078125,-10.011444091796875,6.123504638671875,3.297271728515625,1,1.0,1.0,1.0,1.0,10.00
2024-10-11 20:48:17.301,0.9119372,0.8526714,0.4696205,0.5820296,0.76872367,0.39333472,0.08370706,0.47399485,0.8589193,-0.074558385,-0.19185565,0.91608405,0.5812294,-0.14988494,0.85217637,0.40178877,0.06791627,-0.44731125,0.2559732,-0.10040831,808.2784,803.8461,793.36993,805.8608,556.4469,0.09130859375,-0.068359375,0.99835205078125,-10.011444091796875,6.123504638671875,3.297271728515625,1,1.0,1.0,1.0,1.0,10.00
2024-10-11 20:48:17.302,0.9119372,0.8526714,0.4696205,0.5820296,0.76872367,0.39333472,0.08370706,0.47399485,0.8589193,-0.074558385,-0.19185565,0.91608405,0.5812294,-0.14988494,0.85217637,0.40178877,0.06791627,-0.44731125,0.2559732,-0.10040831,809.89014,802.6374,796.99634,804.65204,782.8938,0.09130859375,-0.068359375,0.99835205078125,-10.011444091796875,6.123504638671875,3.297271728515625,1,1.0,1.0,1.0,1.0,10.00
2024-10-11 20:48:17.303,0.9119372,0.8526714,0.4696205,0.5820296,0.76872367,0.39333472,0.08370706,0.47399485,0.8589193,-0.074558385,-0.19185565,0.91608405,0.5812294,-0.14988494,0.85217637,0.40178877,0.06791627,-0.44731125,0.2559732,-0.10040831,810.293,795.78754,798.20514,797.3993,1000.07324,0.09130859375,-0.068359375,0.99835205078125,-10.011444091796875,6.123504638671875,3.297271728515625,1,1.0,1.0,1.0,1.0,10.00
2024-10-11 20:48:17.304,0.9119372,0.8604965,0.4696205,0.5746428,0.76872367,0.38107836,0.08370706,0.47056893,0.8589193,-0.069890216,-0.19185565,0.91608405,0.5812294,-0.15223087,0.85217637,0.40462783,0.06791627,-0.45306197,0.2559732,-0.07528873,807.0696,792.96704,794.9817,790.14655,846.1539,0.09130859375,-0.068359375,0.99835205078125,-10.011444091796875,6.123504638671875,3.297271728515625,1,1.0,1.0,1.0,1.0,10.00
2024-10-11 20:48:17.310,0.9119372,0.8604965,0.4696205,0.5746428,0.76872367,0.38107836,0.08370706,0.47056893,0.8589193,-0.069890216,-0.19185565,0.91608405,0.5812294,-0.15223087,0.85217637,0.40462783,0.06791627,-0.45306197,0.2559732,-0.07528873,813.91943,797.8022,793.7729,798.60803,809.0842,0.09130859375,-0.068359375,0.99835205078125,-10.011444091796875,6.123504638671875,3.297271728515625,1,1.0,1.0,1.0,1.0,10.00
2024-10-11 20:48:17.310,0.9119372,0.8604965,0.4696205,0.5746428,0.76872367,0.38107836,0.08370706,0.47056893,0.8589193,-0.069890216,-0.19185565,0.91608405,0.5812294,-0.15223087,0.85217637,0.40462783,0.06791627,-0.45306197,0.2559732,-0.07528873,820.7692,803.0403,805.8608,814.7253,828.4249,0.09130859375,-0.068359375,0.99835205078125,-10.011444091796875,6.123504638671875,3.297271728515625,1,1.0,1.0,1.0,1.0,10.00
2024-10-11 20:48:17.311,0.9119372,0.8604965,0.4696205,0.5746428,0.76872367,0.38107836,0.08370706,0.47056893,0.8589193,-0.069890216,-0.19185565,0.91608405,0.5812294,-0.15223087,0.85217637,0.40462783,0.06791627,-0.45306197,0.2559732,-0.07528873,819.15753,805.4579,802.23444,818.3516,834.0659,0.09130859375,-0.068359375,0.99835205078125,-10.011444091796875,6.123504638671875,3.297271728515625,1,1.0,1.0,1.0,1.0,10.00
2024-10-11 20:48:17.312,0.9119372,0.8604965,0.4696205,0.5746428,0.76872367,0.38107836,0.08370706,0.47056893,0.8589193,-0.069890216,-0.19185565,0.91608405,0.5812294,-0.15223087,0.85217637,0.40462783,0.06791627,-0.45306197,0.2559732,-0.07528873,815.5311,803.0403,794.17584,813.91943,734.94507,0.09130859375,-0.068359375,0.99835205078125,-10.011444091796875,6.123504638671875,3.297271728515625,1,1.0,1.0,1.0,1.0,10.00
2024-10-11 20:48:17.313,0.9119372,0.8604965,0.4696205,0.5746428,0.76872367,0.38107836,0.08370706,0.47056893,0.8589193,-0.069890216,-0.19185565,0.91608405,0.5812294,-0.15223087,0.85217637,0.40462783,0.06791627,-0.45306197,0.2559732,-0.07528873,807.47253,801.8315,807.47253,811.50183,622.1245,0.09130859375,-0.068359375,0.99835205078125,-10.011444091796875,6.123504638671875,3.297271728515625,1,1.0,1.0,1.0,1.0,10.00
2024-10-11 20:48:17.314,0.9119372,0.8604965,0.4696205,0.5746428,0.76872367,0.38107836,0.08370706,0.47056893,0.8589193,-0.069890216,-0.19185565,0.91608405,0.5812294,-0.15223087,0.85217637,0.40462783,0.06791627,-0.45306197,0.2559732,-0.07528873,811.50183,802.23444,799.81683,812.71063,803.44324,0.09130859375,-0.068359375,0.99835205078125,-10.011444091796875,6.123504638671875,3.297271728515625,1,1.0,1.0,1.0,1.0,10.00
2024-10-11 20:48:17.434,0.9119372,0.8604965,0.4696205,0.5746428,0.76872367,0.38107836,0.08370706,0.47056893,0.8589193,-0.069890216,-0.19185565,0.91608405,0.5812294,-0.15223087,0.85217637,0.40462783,0.06791627,-0.45306197,0.2559732,-0.07528873,817.9487,803.44324,787.72894,812.71063,1072.1978,0.0784912109375,-0.08172607421875,1.00164794921875,-9.503021240234375,3.955230712890625,3.81317138671875,1,1.0,1.0,1.0,1.0,10.00
2024-10-11 20:48:17.435,0.9119372,0.8604965,0.4696205,0.5746428,0.76872367,0.38107836,0.08370706,0.47056893,0.8589193,-0.069890216,-0.19185565,0.91608405,0.5812294,-0.15223087,0.85217637,0.40462783,0.06791627,-0.45306197,0.2559732,-0.07528873,806.26373,800.6227,800.6227,807.47253,775.2381,0.0784912109375,-0.08172607421875,1.00164794921875,-9.503021240234375,3.955230712890625,3.81317138671875,1,1.0,1.0,1.0,1.0,10.00
2024-10-11 20:48:17.436,0.9119372,0.8604965,0.4696205,0.5746428,0.76872367,0.38107836,0.08370706,0.47056893,0.8589193,-0.069890216,-0.19185565,0.91608405,0.5812294,-0.15223087,0.85217637,0.40462783,0.06791627,-0.45306197,0.2559732,-0.07528873,805.05493,798.20514,803.8461,814.7253,539.12085,0.0784912109375,-0.08172607421875,1.00164794921875,-9.503021240234375,3.955230712890625,3.81317138671875,1,1.0,1.0,1.0,1.0,10.00
2024-10-11 20:48:17.437,0.9119372,0.8604965,0.4696205,0.5746428,0.76872367,0.38107836,0.08370706,0.47056893,0.8589193,-0.069890216,-0.19185565,0.91608405,0.5812294,-0.15223087,0.85217637,0.40462783,0.06791627,-0.45306197,0.2559732,-0.07528873,811.9048,797.8022,796.1905,815.12823,708.7546,0.0784912109375,-0.08172607421875,1.00164794921875,-9.503021240234375,3.955230712890625,3.81317138671875,1,1.0,1.0,1.0,1.0,10.00
2024-10-11 20:48:17.438,0.9119372,0.8604965,0.4696205,0.5746428,0.76872367,0.38107836,0.08370706,0.47056893,0.8589193,-0.069890216,-0.19185565,0.91608405,0.5812294,-0.15223087,0.85217637,0.40462783,0.06791627,-0.45306197,0.2559732,-0.07528873,808.68134,795.38464,805.8608,810.293,782.8938,0.0784912109375,-0.08172607421875,1.00164794921875,-9.503021240234375,3.955230712890625,3.81317138671875,1,1.0,1.0,1.0,1.0,10.00
2024-10-11 20:48:17.439,0.9119372,0.8604965,0.4696205,0.5746428,0.76872367,0.38107836,0.08370706,0.47056893,0.8589193,-0.069890216,-0.19185565,0.91608405,0.5812294,-0.15223087,0.85217637,0.40462783,0.06791627,-0.45306197,0.2559732,-0.07528873,803.0403,794.9817,805.4579,809.89014,724.87177,0.0784912109375,-0.08172607421875,1.00164794921875,-9.503021240234375,3.955230712890625,3.81317138671875,1,1.0,1.0,1.0,1.0,10.00
2024-10-11 20:48:17.439,0.9119372,0.8604965,0.4696205,0.5746428,0.76872367,0.38107836,0.08370706,0.47056893,0.8589193,-0.069890216,-0.19185565,0.91608405,0.5812294,-0.15223087,0.85217637,0.40462783,0.06791627,-0.45306197,0.2559732,-0.07528873,805.4579,795.78754,801.02563,815.5311,714.7985,0.0784912109375,-0.08172607421875,1.00164794921875,-9.503021240234375,3.955230712890625,3.81317138671875,1,1.0,1.0,1.0,1.0,10.00
2024-10-11 20:48:17.440,0.9119372,0.8604965,0.4696205,0.5746428,0.76872367,0.38107836,0.08370706,0.47056893,0.8589193,-0.069890216,-0.19185565,0.91608405,0.5812294,-0.15223087,0.85217637,0.40462783,0.06791627,-0.45306197,0.2559732,-0.07528873,798.60803,798.60803,798.60803,813.5165,769.19415,0.0784912109375,-0.08172607421875,1.00164794921875,-9.503021240234375,3.955230712890625,3.81317138671875,1,1.0,1.0,1.0,1.0,10.00
2024-10-11 20:48:17.441,0.9119372,0.8604965,0.4696205,0.5746428,0.76872367,0.38107836,0.08370706,0.47056893,0.8589193,-0.069890216,-0.19185565,0.91608405,0.5812294,-0.15223087,0.85217637,0.40462783,0.06791627,-0.45306197,0.2559732,-0.07528873,793.36993,802.23444,781.28204,811.50183,771.6117,0.0784912109375,-0.08172607421875,1.00164794921875,-9.503021240234375,3.955230712890625,3.81317138671875,1,1.0,1.0,1.0,1.0,10.00
2024-10-11 20:48:17.441,0.9119372,0.8604965,0.4696205,0.5746428,0.76872367,0.38107836,0.08370706,0.47056893,0.8589193,-0.069890216,-0.19185565,0.91608405,0.5812294,-0.15223087,0.85217637,0.40462783,0.06791627,-0.45306197,0.2559732,-0.07528873,803.0403,802.23444,788.1319,804.2491,560.07324,0.0784912109375,-0.08172607421875,1.00164794921875,-9.503021240234375,3.955230712890625,3.81317138671875,1,1.0,1.0,1.0,1.0,10.00
2024-10-11 20:48:17.442,0.9119372,0.8604965,0.4696205,0.5746428,0.76872367,0.38107836,0.08370706,0.47056893,0.8589193,-0.069890216,-0.19185565,0.91608405,0.5812294,-0.15223087,0.85217637,0.40462783,0.06791627,-0.45306197,0.2559732,-0.07528873,795.38464,796.1905,804.2491,791.3553,574.57874,0.0784912109375,-0.08172607421875,1.00164794921875,-9.503021240234375,3.955230712890625,3.81317138671875,1,1.0,1.0,1.0,1.0,10.00
2024-10-11 20:48:17.443,0.9119372,0.8604965,0.4696205,0.5746428,0.76872367,0.38107836,0.08370706,0.47056893,0.8589193,-0.069890216,-0.19185565,0.91608405,0.5812294,-0.15223087,0.85217637,0.40462783,0.06791627,-0.45306197,0.2559732,-0.07528873,791.3553,795.38464,804.2491,789.7436,831.2454,0.0784912109375,-0.08172607421875,1.00164794921875,-9.503021240234375,3.955230712890625,3.81317138671875,1,1.0,1.0,1.0,1.0,10.00
2024-10-11 20:48:17.501,0.9119372,0.8604965,0.4696205,0.5746428,0.76872367,0.38107836,0.08370706,0.47056893,0.8589193,-0.069890216,-0.19185565,0.91608405,0.5812294,-0.15223087,0.85217637,0.40462783,0.06791627,-0.45306197,0.2559732,-0.07528873,799.41394,792.1612,797.3993,784.90845,747.03296,0.078125,-0.099609375,1.0009765625,-9.76470947265625,3.1103515625,3.162689208984375,1,1.0,1.0,1.0,1.0,10.00
2024-10-11 20:48:17.502,0.9119372,0.8604965,0.4696205,0.5746428,0.76872367,0.38107836,0.08370706,0.47056893,0.8589193,-0.069890216,-0.19185565,0.91608405,0.5812294,-0.15223087,0.85217637,0.40462783,0.06791627,-0.45306197,0.2559732,-0.07528873,795.78754,789.7436,793.7729,783.2967,673.69965,0.078125,-0.099609375,1.0009765625,-9.76470947265625,3.1103515625,3.162689208984375,1,1.0,1.0,1.0,1.0,10.00
2024-10-11 20:48:17.503,0.9119372,0.8604965,0.4696205,0.5746428,0.76872367,0.38107836,0.08370706,0.47056893,0.8589193,-0.069890216,-0.19185565,0.91608405,0.5812294,-0.15223087,0.85217637,0.40462783,0.06791627,-0.45306197,0.2559732,-0.07528873,796.5934,796.1905,802.23444,794.57874,793.7729,0.078125,-0.099609375,1.0009765625,-9.76470947265625,3.1103515625,3.162689208984375,1,1.0,1.0,1.0,1.0,10.00
2024-10-11 20:48:17.504,0.9119372,0.8604965,0.4696205,0.5746428,0.76872367,0.38107836,0.08370706,0.47056893,0.8589193,-0.069890216,-0.19185565,0.91608405,0.5812294,-0.15223087,0.85217637,0.40462783,0.06791627,-0.45306197,0.2559732,-0.07528873,809.4872,794.9817,808.2784,803.0403,828.022,0.078125,-0.099609375,1.0009765625,-9.76470947265625,3.1103515625,3.162689208984375,1,1.0,1.0,1.0,1.0,10.00
2024-10-11 20:48:17.504,0.9119372,0.8604965,0.4696205,0.5746428,0.76872367,0.38107836,0.08370706,0.47056893,0.8589193,-0.069890216,-0.19185565,0.91608405,0.5812294,-0.15223087,0.85217637,0.40462783,0.06791627,-0.45306197,0.2559732,-0.07528873,809.89014,794.57874,803.44324,806.26373,717.2161,0.078125,-0.099609375,1.0009765625,-9.76470947265625,3.1103515625,3.162689208984375,1,1.0,1.0,1.0,1.0,10.00
2024-10-11 20:48:17.506,0.9119372,0.8604965,0.4696205,0.5746428,0.76872367,0.38107836,0.08370706,0.47056893,0.8589193,-0.069890216,-0.19185565,0.91608405,0.5812294,-0.15223087,0.85217637,0.40462783,0.06791627,-0.45306197,0.2559732,-0.07528873,798.20514,798.20514,797.8022,811.0989,646.7033,0.078125,-0.099609375,1.0009765625,-9.76470947265625,3.1103515625,3.162689208984375,1,1.0,1.0,1.0,1.0,10.00
2024-10-11 20:48:17.507,0.9119372,0.8604965,0.4696205,0.5746428,0.76872367,0.38107836,0.08370706,0.47056893,0.8589193,-0.069890216,-0.19185565,0.91608405,0.5812294,-0.15223087,0.85217637,0.40462783,0.06791627,-0.45306197,0.2559732,-0.07528873,801.4286,794.57874,794.17584,812.71063,838.49817,0.078125,-0.099609375,1.0009765625,-9.76470947265625,3.1103515625,3.162689208984375,1,1.0,1.0,1.0,1.0,10.00
2024-10-11 20:48:17.508,0.9119372,0.8491811,0.4696205,0.56668645,0.76872367,0.3588734,0.08370706,0.46413535,0.8589193,-0.052475974,-0.19185565,0.91608405,0.5812294,-0.1458957,0.85217637,0.4203343,0.06791627,-0.46492982,0.2559732,-0.04028213,798.60803,794.9817,802.6374,809.89014,814.7253,0.078125,-0.099609375,1.0009765625,-9.76470947265625,3.1103515625,3.162689208984375,1,1.0,1.0,1.0,1.0,10.00
2024-10-11 20:48:17.515,0.9119372,0.8491811,0.4696205,0.56668645,0.76872367,0.3588734,0.08370706,0.46413535,0.8589193,-0.052475974,-0.19185565,0.91608405,0.5812294,-0.1458957,0.85217637,0.4203343,0.06791627,-0.46492982,0.2559732,-0.04028213,799.41394,800.2198,806.26373,811.50183,556.04395,0.078125,-0.099609375,1.0009765625,-9.76470947265625,3.1103515625,3.162689208984375,1,1.0,1.0,1.0,1.0,10.00
2024-10-11 20:48:17.516,0.9119372,0.8491811,0.4696205,0.56668645,0.76872367,0.3588734,0.08370706,0.46413535,0.8589193,-0.052475974,-0.19185565,0.91608405,0.5812294,-0.1458957,0.85217637,0.4203343,0.06791627,-0.46492982,0.2559732,-0.04028213,809.4872,795.78754,800.6227,816.7399,641.8681,0.078125,-0.099609375,1.0009765625,-9.76470947265625,3.1103515625,3.162689208984375,1,1.0,1.0,1.0,1.0,10.00
2024-10-11 20:48:17.517,0.9119372,0.8491811,0.4696205,0.56668645,0.76872367,0.3588734,0.08370706,0.46413535,0.8589193,-0.052475974,-0.19185565,0.91608405,0.5812294,-0.1458957,0.85217637,0.4203343,0.06791627,-0.46492982,0.2559732,-0.04028213,813.91943,792.96704,800.2198,820.3663,896.1172,0.078125,-0.099609375,1.0009765625,-9.76470947265625,3.1103515625,3.162689208984375,1,1.0,1.0,1.0,1.0,10.00
2024-10-11 20:48:17.518,0.9119372,0.8491811,0.4696205,0.56668645,0.76872367,0.3588734,0.08370706,0.46413535,0.8589193,-0.052475974,-0.19185565,0.91608405,0.5812294,-0.1458957,0.85217637,0.4203343,0.06791627,-0.46492982,0.2559732,-0.04028213,811.9048,794.9817,799.41394,817.9487,863.47986,0.078125,-0.099609375,1.0009765625,-9.76470947265625,3.1103515625,3.162689208984375,1,1.0,1.0,1.0,1.0,10.00
2024-10-11 20:48:17.549,0.9119372,0.8491811,0.4696205,0.56668645,0.76872367,0.3588734,0.08370706,0.46413535,0.8589193,-0.052475974,-0.19185565,0.91608405,0.5812294,-0.1458957,0.85217637,0.4203343,0.06791627,-0.46492982,0.2559732,-0.04028213,809.0842,793.7729,790.54944,809.0842,542.3443,0.0804443359375,-0.116455078125,1.00042724609375,-10.086212158203125,3.401947021484375,2.474822998046875,1,1.0,1.0,1.0,1.0,10.00
2024-10-11 20:48:17.550,0.9119372,0.8491811,0.4696205,0.56668645,0.76872367,0.3588734,0.08370706,0.46413535,0.8589193,-0.052475974,-0.19185565,0.91608405,0.5812294,-0.1458957,0.85217637,0.4203343,0.06791627,-0.46492982,0.2559732,-0.04028213,812.3077,792.96704,796.5934,803.8461,559.67035,0.0804443359375,-0.116455078125,1.00042724609375,-10.086212158203125,3.401947021484375,2.474822998046875,1,1.0,1.0,1.0,1.0,10.00
2024-10-11 20:48:17.551,0.9119372,0.8491811,0.4696205,0.56668645,0.76872367,0.3588734,0.08370706,0.46413535,0.8589193,-0.052475974,-0.19185565,0.91608405,0.5812294,-0.1458957,0.85217637,0.4203343,0.06791627,-0.46492982,0.2559732,-0.04028213,809.0842,796.5934,802.23444,807.0696,828.022,0.0804443359375,-0.116455078125,1.00042724609375,-10.086212158203125,3.401947021484375,2.474822998046875,1,1.0,1.0,1.0,1.0,10.00
2024-10-11 20:48:17.552,0.9119372,0.8491811,0.4696205,0.56668645,0.76872367,0.3588734,0.08370706,0.46413535,0.8589193,-0.052475974,-0.19185565,0.91608405,0.5812294,-0.1458957,0.85217637,0.4203343,0.06791627,-0.46492982,0.2559732,-0.04028213,802.6374,795.38464,797.8022,803.44324,786.52014,0.0804443359375,-0.116455078125,1.00042724609375,-10.086212158203125,3.401947021484375,2.474822998046875,1,1.0,1.0,1.0,1.0,10.00
2024-10-11 20:48:17.553,0.9119372,0.8491811,0.4696205,0.56668645,0.76872367,0.3588734,0.08370706,0.46413535,0.8589193,-0.052475974,-0.19185565,0.91608405,0.5812294,-0.1458957,0.85217637,0.4203343,0.06791627,-0.46492982,0.2559732,-0.04028213,804.2491,797.3993,798.60803,796.1905,595.5311,0.0804443359375,-0.116455078125,1.00042724609375,-10.086212158203125,3.401947021484375,2.474822998046875,1,1.0,1.0,1.0,1.0,10.00
2024-10-11 20:48:17.554,0.9119372,0.8491811,0.4696205,0.56668645,0.76872367,0.3588734,0.08370706,0.46413535,0.8589193,-0.052475974,-0.19185565,0.91608405,0.5812294,-0.1458957,0.85217637,0.4203343,0.06791627,-0.46492982,0.2559732,-0.04028213,809.89014,801.02563,790.54944,799.41394,730.10986,0.0804443359375,-0.116455078125,1.00042724609375,-10.086212158203125,3.401947021484375,2.474822998046875,1,1.0,1.0,1.0,1.0,10.00
2024-10-11 20:48:17.555,0.9119372,0.8491811,0.4696205,0.56668645,0.76872367,0.3588734,0.08370706,0.46413535,0.8589193,-0.052475974,-0.19185565,0.91608405,0.5812294,-0.1458957,0.85217637,0.4203343,0.06791627,-0.46492982,0.2559732,-0.04028213,820.3663,801.8315,783.2967,801.8315,949.707,0.0804443359375,-0.116455078125,1.00042724609375,-10.086212158203125,3.401947021484375,2.474822998046875,1,1.0,1.0,1.0,1.0,10.00
2024-10-11 20:48:17.556,0.9119372,0.8491811,0.4696205,0.56668645,0.76872367,0.3588734,0.08370706,0.46413535,0.8589193,-0.052475974,-0.19185565,0.91608405,0.5812294,-0.1458957,0.85217637,0.4203343,0.06791627,-0.46492982,0.2559732,-0.04028213,819.15753,801.8315,801.8315,804.2491,824.3956,0.0804443359375,-0.116455078125,1.00042724609375,-10.086212158203125,3.401947021484375,2.474822998046875,1,1.0,1.0,1.0,1.0,10.00
2024-10-11 20:48:17.556,0.9119372,0.8491811,0.4696205,0.56668645,0.76872367,0.3588734,0.08370706,0.46413535,0.8589193,-0.052475974,-0.19185565,0.91608405,0.5812294,-0.1458957,0.85217637,0.4203343,0.06791627,-0.46492982,0.2559732,-0.04028213,810.293,799.41394,813.91943,805.05493,671.685,0.0804443359375,-0.116455078125,1.00042724609375,-10.086212158203125,3.401947021484375,2.474822998046875,1,1.0,1.0,1.0,1.0,10.00
2024-10-11 20:48:17.557,0.9119372,0.8491811,0.4696205,0.56668645,0.76872367,0.3588734,0.08370706,0.46413535,0.8589193,-0.052475974,-0.19185565,0.91608405,0.5812294,-0.1458957,0.85217637,0.4203343,0.06791627,-0.46492982,0.2559732,-0.04028213,815.12823,800.2198,810.293,811.0989,694.2491,0.0804443359375,-0.116455078125,1.00042724609375,-10.086212158203125,3.401947021484375,2.474822998046875,1,1.0,1.0,1.0,1.0,10.00
2024-10-11 20:48:17.558,0.9119372,0.8491811,0.4696205,0.56668645,0.76872367,0.3588734,0.08370706,0.46413535,0.8589193,-0.052475974,-0.19185565,0.91608405,0.5812294,-0.1458957,0.85217637,0.4203343,0.06791627,-0.46492982,0.2559732,-0.04028213,819.5604,803.44324,812.71063,814.7253,800.2198,0.0804443359375,-0.116455078125,1.00042724609375,-10.086212158203125,3.401947021484375,2.474822998046875,1,1.0,1.0,1.0,1.0,10.00
2024-10-11 20:48:17.559,0.9119372,0.8491811,0.4696205,0.56668645,0.76872367,0.3588734,0.08370706,0.46413535,0.8589193,-0.052475974,-0.19185565,0.91608405,0.5812294,-0.1458957,0.85217637,0.4203343,0.06791627,-0.46492982,0.2559732,-0.04028213,819.9634,804.2491,812.71063,811.9048,736.1539,0.0804443359375,-0.116455078125,1.00042724609375,-10.086212158203125,3.401947021484375,2.474822998046875,1,1.0,1.0,1.0,1.0,10.00
2024-10-11 20:48:17.590,0.9119372,0.8491811,0.4696205,0.56668645,0.76872367,0.3588734,0.08370706,0.46413535,0.8589193,-0.052475974,-0.19185565,0.91608405,0.5812294,-0.1458957,0.85217637,0.4203343,0.06791627,-0.46492982,0.2559732,-0.04028213,815.5311,805.05493,808.68134,808.68134,666.8498,0.06396484375,-0.13983154296875,0.99658203125,-8.590850830078125,3.865509033203125,2.28790283203125,1,1.0,1.0,1.0,1.0,10.00
2024-10-11 20:48:17.591,0.9119372,0.8491811,0.4696205,0.56668645,0.76872367,0.3588734,0.08370706,0.46413535,0.8589193,-0.052475974,-0.19185565,0.91608405,0.5812294,-0.1458957,0.85217637,0.4203343,0.06791627,-0.46492982,0.2559732,-0.04028213,809.4872,803.44324,806.26373,809.0842,667.6557,0.06396484375,-0.13983154296875,0.99658203125,-8.590850830078125,3.865509033203125,2.28790283203125,1,1.0,1.0,1.0,1.0,10.00
2024-10-11 20:48:17.592,0.9119372,0.8491811,0.4696205,0.56668645,0.76872367,0.3588734,0.08370706,0.46413535,0.8589193,-0.052475974,-0.19185565,0.91608405,0.5812294,-0.1458957,0.85217637,0.4203343,0.06791627,-0.46492982,0.2559732,-0.04028213,809.0842,796.5934,800.2198,809.4872,712.381,0.06396484375,-0.13983154296875,0.99658203125,-8.590850830078125,3.865509033203125,2.28790283203125,1,1.0,1.0,1.0,1.0,10.00
2024-10-11 20:48:17.593,0.9119372,0.8491811,0.4696205,0.56668645,0.76872367,0.3588734,0.08370706,0.46413535,0.8589193,-0.052475974,-0.19185565,0.91608405,0.5812294,-0.1458957,0.85217637,0.4203343,0.06791627,-0.46492982,0.2559732,-0.04028213,804.65204,798.60803,803.0403,796.99634,692.6374,0.06396484375,-0.13983154296875,0.99658203125,-8.590850830078125,3.865509033203125,2.28790283203125,1,1.0,1.0,1.0,1.0,10.00
2024-10-11 20:48:17.594,0.9119372,0.8491811,0.4696205,0.56668645,0.76872367,0.3588734,0.08370706,0.46413535,0.8589193,-0.052475974,-0.19185565,0.91608405,0.5812294,-0.1458957,0.85217637,0.4203343,0.06791627,-0.46492982,0.2559732,-0.04028213,803.0403,797.8022,796.5934,795.38464,583.0403,0.06396484375,-0.13983154296875,0.99658203125,-8.590850830078125,3.865509033203125,2.28790283203125,1,1.0,1.0,1.0,1.0,10.00
2024-10-11 20:48:17.595,0.9119372,0.8491811,0.4696205,0.56668645,0.76872367,0.3588734,0.08370706,0.46413535,0.8589193,-0.052475974,-0.19185565,0.91608405,0.5812294,-0.1458957,0.85217637,0.4203343,0.06791627,-0.46492982,0.2559732,-0.04028213,807.8755,792.96704,776.04395,805.4579,838.0952,0.06396484375,-0.13983154296875,0.99658203125,-8.590850830078125,3.865509033203125,2.28790283203125,1,1.0,1.0,1.0,1.0,10.00
2024-10-11 20:48:17.596,0.9119372,0.8491811,0.4696205,0.56668645,0.76872367,0.3588734,0.08370706,0.46413535,0.8589193,-0.052475974,-0.19185565,0.91608405,0.5812294,-0.1458957,0.85217637,0.4203343,0.06791627,-0.46492982,0.2559732,-0.04028213,811.9048,796.5934,794.9817,810.293,1057.6923,0.06396484375,-0.13983154296875,0.99658203125,-8.590850830078125,3.865509033203125,2.28790283203125,1,1.0,1.0,1.0,1.0,10.00
2024-10-11 20:48:17.597,0.9119372,0.8491811,0.4696205,0.56668645,0.76872367,0.3588734,0.08370706,0.46413535,0.8589193,-0.052475974,-0.19185565,0.91608405,0.5812294,-0.1458957,0.85217637,0.4203343,0.06791627,-0.46492982,0.2559732,-0.04028213,804.2491,798.60803,816.337,813.5165,730.5128,0.06396484375,-0.13983154296875,0.99658203125,-8.590850830078125,3.865509033203125,2.28790283203125,1,1.0,1.0,1.0,1.0,10.00
2024-10-11 20:48:17.598,0.9119372,0.8491811,0.4696205,0.56668645,0.76872367,0.3588734,0.08370706,0.46413535,0.8589193,-0.052475974,-0.19185565,0.91608405,0.5812294,-0.1458957,0.85217637,0.4203343,0.06791627,-0.46492982,0.2559732,-0.04028213,803.8461,796.99634,816.337,804.65204,609.2308,0.06396484375,-0.13983154296875,0.99658203125,-8.590850830078125,3.865509033203125,2.28790283203125,1,1.0,1.0,1.0,1.0,10.00
2024-10-11 20:48:17.599,0.8841411,0.845742,0.4696205,0.55262035,0.74825007,0.35372427,0.08370706,0.45528767,0.92622095,-0.04481727,-0.19185565,0.91608405,0.5689156,-0.14007181,0.85217637,0.44202766,0.060891148,-0.47131434,0.2559732,-0.009719262,805.4579,794.17584,815.12823,795.38464,856.2271,0.06396484375,-0.13983154296875,0.99658203125,-8.590850830078125,3.865509033203125,2.28790283203125,1,1.0,1.0,1.0,1.0,10.00
2024-10-11 20:48:17.605,0.8841411,0.845742,0.4696205,0.55262035,0.74825007,0.35372427,0.08370706,0.45528767,0.92622095,-0.04481727,-0.19185565,0.91608405,0.5689156,-0.14007181,0.85217637,0.44202766,0.060891148,-0.47131434,0.2559732,-0.009719262,803.44324,794.17584,806.26373,797.8022,825.6044,0.06396484375,-0.13983154296875,0.99658203125,-8.590850830078125,3.865509033203125,2.28790283203125,1,1.0,1.0,1.0,1.0,10.00
2024-10-11 20:48:17.606,0.8841411,0.845742,0.4696205,0.55262035,0.74825007,0.35372427,0.08370706,0.45528767,0.92622095,-0.04481727,-0.19185565,0.91608405,0.5689156,-0.14007181,0.85217637,0.44202766,0.060891148,-0.47131434,0.2559732,-0.009719262,803.0403,798.20514,805.4579,792.5641,668.0586,0.06396484375,-0.13983154296875,0.99658203125,-8.590850830078125,3.865509033203125,2.28790283203125,1,1.0,1.0,1.0,1.0,10.00
2024-10-11 20:48:17.637,0.8841411,0.845742,0.4696205,0.55262035,0.74825007,0.35372427,0.08370706,0.45528767,0.92622095,-0.04481727,-0.19185565,0.91608405,0.5689156,-0.14007181,0.85217637,0.44202766,0.060891148,-0.47131434,0.2559732,-0.009719262,796.5934,803.0403,809.89014,792.5641,788.93774,0.06396484375,-0.13983154296875,0.99658203125,-8.590850830078125,3.865509033203125,2.28790283203125,1,1.0,1.0,1.0,1.0,10.00
2024-10-11 20:48:17.639,0.8841411,0.845742,0.4696205,0.55262035,0.74825007,0.35372427,0.08370706,0.45528767,0.92622095,-0.04481727,-0.19185565,0.91608405,0.5689156,-0.14007181,0.85217637,0.44202766,0.060891148,-0.47131434,0.2559732,-0.009719262,801.02563,800.2198,802.23444,801.4286,921.9048,0.06396484375,-0.13983154296875,0.99658203125,-8.590850830078125,3.865509033203125,2.28790283203125,1,1.0,1.0,1.0,1.0,10.00
