TimeStamp,Delta_TP9,Delta_AF7,Delta_AF8,Delta_TP10,Theta_TP9,Theta_AF7,Theta_AF8,Theta_TP10,Alpha_TP9,Alpha_AF7,Alpha_AF8,Alpha_TP10,Beta_TP9,Beta_AF7,Beta_AF8,Beta_TP10,Gamma_TP9,Gamma_AF7,Gamma_AF8,Gamma_TP10,RAW_TP9,RAW_AF7,RAW_AF8,RAW_TP10,AUX_RIGHT,Accelerometer_X,Accelerometer_Y,Accelerometer_Z,Gyro_X,Gyro_Y,Gyro_Z,HeadBandOn,HSI_TP9,HSI_AF7,HSI_AF8,HSI_TP10,Battery,Elements
2024-10-11 20:42:08.081,0.9237074,0.8410834,0.8634882,1.1381667,0.23313402,0.5836704,0.25776714,0.32585058,0.5529557,0.6269896,0.30679756,0.5492688,0.6706098,0.1493638,0.32015517,0.45343393,-0.03296391,-0.30222526,-0.16961801,0.024007333,797.3993,799.41394,805.05493,801.4286,693.0403,0.1785888671875,0.215576171875,0.9635009765625,0.127105712890625,-1.68975830078125,0.201873779296875,1,1.0,1.0,1.0,1.0,10.00
2024-10-11 20:42:08.081,0.9237074,0.8410834,0.8634882,1.1381667,0.23313402,0.5836704,0.25776714,0.32585058,0.5529557,0.6269896,0.30679756,0.5492688,0.6706098,0.1493638,0.32015517,0.45343393,-0.03296391,-0.30222526,-0.16961801,0.024007333,801.8315,799.81683,796.99634,802.23444,838.49817,0.1785888671875,0.215576171875,0.9635009765625,0.127105712890625,-1.68975830078125,0.201873779296875,1,1.0,1.0,1.0,1.0,10.00
2024-10-11 20:42:08.082,0.9237074,0.8410834,0.8634882,1.1381667,0.23313402,0.5836704,0.25776714,0.32585058,0.5529557,0.6269896,0.30679756,0.5492688,0.6706098,0.1493638,0.32015517,0.45343393,-0.03296391,-0.30222526,-0.16961801,0.024007333,804.2491,802.23444,791.3553,807.0696,879.19415,0.1785888671875,0.215576171875,0.9635009765625,0.127105712890625,-1.68975830078125,0.201873779296875,1,1.0,1.0,1.0,1.0,10.00
2024-10-11 20:42:08.083,0.9237074,0.8410834,0.8634882,1.1381667,0.23313402,0.5836704,0.25776714,0.32585058,0.5529557,0.6269896,0.30679756,0.5492688,0.6706098,0.1493638,0.32015517,0.45343393,-0.03296391,-0.30222526,-0.16961801,0.024007333,796.5934,798.20514,796.1905,797.8022,652.3443,0.1785888671875,0.215576171875,0.9635009765625,0.127105712890625,-1.68975830078125,0.201873779296875,1,1.0,1.0,1.0,1.0,10.00
2024-10-11 20:42:08.083,0.9237074,0.8410834,0.8634882,1.1381667,0.23313402,0.5836704,0.25776714,0.32585058,0.5529557,0.6269896,0.30679756,0.5492688,0.6706098,0.1493638,0.32015517,0.45343393,-0.03296391,-0.30222526,-0.16961801,0.024007333,805.8608,794.17584,803.8461,793.7729,624.94507,0.1785888671875,0.215576171875,0.9635009765625,0.127105712890625,-1.68975830078125,0.201873779296875,1,1.0,1.0,1.0,1.0,10.00
2024-10-11 20:42:08.084,0.9237074,0.8410834,0.8634882,1.1381667,0.23313402,0.5836704,0.25776714,0.32585058,0.5529557,0.6269896,0.30679756,0.5492688,0.6706098,0.1493638,0.32015517,0.45343393,-0.03296391,-0.30222526,-0.16961801,0.024007333,805.4579,795.38464,796.1905,797.3993,917.47253,0.1785888671875,0.215576171875,0.9635009765625,0.127105712890625,-1.68975830078125,0.201873779296875,1,1.0,1.0,1.0,1.0,10.00
2024-10-11 20:42:08.084,0.9237074,0.8410834,0.8634882,1.1381667,0.23313402,0.5836704,0.25776714,0.32585058,0.5529557,0.6269896,0.30679756,0.5492688,0.6706098,0.1493638,0.32015517,0.45343393,-0.03296391,-0.30222526,-0.16961801,0.024007333,788.93774,792.1612,793.7729,796.1905,967.4359,0.1785888671875,0.215576171875,0.9635009765625,0.127105712890625,-1.68975830078125,0.201873779296875,1,1.0,1.0,1.0,1.0,10.00
2024-10-11 20:42:08.085,0.9237074,0.8410834,0.8634882,1.1381667,0.23313402,0.5836704,0.25776714,0.32585058,0.5529557,0.6269896,0.30679756,0.5492688,0.6706098,0.1493638,0.32015517,0.45343393,-0.03296391,-0.30222526,-0.16961801,0.024007333,788.93774,789.7436,803.44324,796.1905,808.68134,0.1785888671875,0.215576171875,0.9635009765625,0.127105712890625,-1.68975830078125,0.201873779296875,1,1.0,1.0,1.0,1.0,10.00
2024-10-11 20:42:08.085,0.9237074,0.8410834,0.8634882,1.1381667,0.23313402,0.5836704,0.25776714,0.32585058,0.5529557,0.6269896,0.30679756,0.5492688,0.6706098,0.1493638,0.32015517,0.45343393,-0.03296391,-0.30222526,-0.16961801,0.024007333,797.3993,794.9817,803.8461,799.011,733.3333,0.1785888671875,0.215576171875,0.9635009765625,0.127105712890625,-1.68975830078125,0.201873779296875,1,1.0,1.0,1.0,1.0,10.00
2024-10-11 20:42:08.085,0.9237074,0.8410834,0.8634882,1.1381667,0.23313402,0.5836704,0.25776714,0.32585058,0.5529557,0.6269896,0.30679756,0.5492688,0.6706098,0.1493638,0.32015517,0.45343393,-0.03296391,-0.30222526,-0.16961801,0.024007333,797.8022,795.78754,800.2198,798.60803,757.50916,0.1785888671875,0.215576171875,0.9635009765625,0.127105712890625,-1.68975830078125,0.201873779296875,1,1.0,1.0,1.0,1.0,10.00
2024-10-11 20:42:08.086,0.9237074,0.8410834,0.8634882,1.1381667,0.23313402,0.5836704,0.25776714,0.32585058,0.5529557,0.6269896,0.30679756,0.5492688,0.6706098,0.1493638,0.32015517,0.45343393,-0.03296391,-0.30222526,-0.16961801,0.024007333,794.17584,790.54944,793.7729,803.0403,845.7509,0.1785888671875,0.215576171875,0.9635009765625,0.127105712890625,-1.68975830078125,0.201873779296875,1,1.0,1.0,1.0,1.0,10.00
2024-10-11 20:42:08.087,0.9237074,0.8410834,0.8634882,1.1381667,0.23313402,0.5836704,0.25776714,0.32585058,0.5529557,0.6269896,0.30679756,0.5492688,0.6706098,0.1493638,0.32015517,0.45343393,-0.03296391,-0.30222526,-0.16961801,0.024007333,788.1319,788.1319,796.5934,798.20514,715.2015,0.1785888671875,0.215576171875,0.9635009765625,0.127105712890625,-1.68975830078125,0.201873779296875,1,1.0,1.0,1.0,1.0,10.00
2024-10-11 20:42:08.115,0.9237074,0.8410834,0.8634882,1.1381667,0.23313402,0.5836704,0.25776714,0.32585058,0.5529557,0.6269896,0.30679756,0.5492688,0.6706098,0.1493638,0.32015517,0.45343393,-0.03296391,-0.30222526,-0.16961801,0.024007333,789.34064,794.17584,792.1612,791.75824,699.89014,0.18243408203125,0.2152099609375,0.95703125,1.24114990234375,-1.92901611328125,1.48040771484375,1,1.0,1.0,1.0,1.0,10.00
2024-10-11 20:42:08.116,0.85827667,0.7341176,0.76027787,1.0758017,0.3352944,0.4591157,0.14630207,0.32720616,0.57475156,0.6269896,0.31513256,0.6025323,0.66011864,0.14081003,0.34266686,0.5157614,-0.02205681,-0.29652166,-0.12947205,0.036237735,795.78754,801.4286,791.75824,793.36993,752.27106,0.18243408203125,0.2152099609375,0.95703125,1.24114990234375,-1.92901611328125,1.48040771484375,1,1.0,1.0,1.0,1.0,10.00
2024-10-11 20:42:08.120,0.85827667,0.7341176,0.76027787,1.0758017,0.3352944,0.4591157,0.14630207,0.32720616,0.57475156,0.6269896,0.31513256,0.6025323,0.66011864,0.14081003,0.34266686,0.5157614,-0.02205681,-0.29652166,-0.12947205,0.036237735,799.81683,800.2198,807.47253,799.81683,729.707,0.18243408203125,0.2152099609375,0.95703125,1.24114990234375,-1.92901611328125,1.48040771484375,1,1.0,1.0,1.0,1.0,10.00
2024-10-11 20:42:08.121,0.85827667,0.7341176,0.76027787,1.0758017,0.3352944,0.4591157,0.14630207,0.32720616,0.57475156,0.6269896,0.31513256,0.6025323,0.66011864,0.14081003,0.34266686,0.5157614,-0.02205681,-0.29652166,-0.12947205,0.036237735,796.1905,799.81683,809.89014,801.4286,654.35895,0.18243408203125,0.2152099609375,0.95703125,1.24114990234375,-1.92901611328125,1.48040771484375,1,1.0,1.0,1.0,1.0,10.00
2024-10-11 20:42:08.122,0.85827667,0.7341176,0.76027787,1.0758017,0.3352944,0.4591157,0.14630207,0.32720616,0.57475156,0.6269896,0.31513256,0.6025323,0.66011864,0.14081003,0.34266686,0.5157614,-0.02205681,-0.29652166,-0.12947205,0.036237735,793.36993,799.41394,811.50183,799.41394,699.89014,0.18243408203125,0.2152099609375,0.95703125,1.24114990234375,-1.92901611328125,1.48040771484375,1,1.0,1.0,1.0,1.0,10.00
2024-10-11 20:42:08.123,0.85827667,0.7341176,0.76027787,1.0758017,0.3352944,0.4591157,0.14630207,0.32720616,0.57475156,0.6269896,0.31513256,0.6025323,0.66011864,0.14081003,0.34266686,0.5157614,-0.02205681,-0.29652166,-0.12947205,0.036237735,794.17584,792.96704,812.3077,803.0403,968.6447,0.18243408203125,0.2152099609375,0.95703125,1.24114990234375,-1.92901611328125,1.48040771484375,1,1.0,1.0,1.0,1.0,10.00
2024-10-11 20:42:08.124,0.85827667,0.7341176,0.76027787,1.0758017,0.3352944,0.4591157,0.14630207,0.32720616,0.57475156,0.6269896,0.31513256,0.6025323,0.66011864,0.14081003,0.34266686,0.5157614,-0.02205681,-0.29652166,-0.12947205,0.036237735,794.17584,794.57874,812.3077,801.02563,981.9414,0.18243408203125,0.2152099609375,0.95703125,1.24114990234375,-1.92901611328125,1.48040771484375,1,1.0,1.0,1.0,1.0,10.00
2024-10-11 20:42:08.125,0.85827667,0.7341176,0.76027787,1.0758017,0.3352944,0.4591157,0.14630207,0.32720616,0.57475156,0.6269896,0.31513256,0.6025323,0.66011864,0.14081003,0.34266686,0.5157614,-0.02205681,-0.29652166,-0.12947205,0.036237735,788.1319,795.38464,807.8755,795.38464,748.6447,0.18243408203125,0.2152099609375,0.95703125,1.24114990234375,-1.92901611328125,1.48040771484375,1,1.0,1.0,1.0,1.0,10.00
2024-10-11 20:42:08.125,0.85827667,0.7341176,0.76027787,1.0758017,0.3352944,0.4591157,0.14630207,0.32720616,0.57475156,0.6269896,0.31513256,0.6025323,0.66011864,0.14081003,0.34266686,0.5157614,-0.02205681,-0.29652166,-0.12947205,0.036237735,790.14655,792.1612,807.0696,796.99634,784.10254,0.18243408203125,0.2152099609375,0.95703125,1.24114990234375,-1.92901611328125,1.48040771484375,1,1.0,1.0,1.0,1.0,10.00
2024-10-11 20:42:08.126,0.85827667,0.7341176,0.76027787,1.0758017,0.3352944,0.4591157,0.14630207,0.32720616,0.57475156,0.6269896,0.31513256,0.6025323,0.66011864,0.14081003,0.34266686,0.5157614,-0.02205681,-0.29652166,-0.12947205,0.036237735,805.05493,799.011,805.8608,805.05493,911.02563,0.18243408203125,0.2152099609375,0.95703125,1.24114990234375,-1.92901611328125,1.48040771484375,1,1.0,1.0,1.0,1.0,10.00
2024-10-11 20:42:08.127,0.85827667,0.7341176,0.76027787,1.0758017,0.3352944,0.4591157,0.14630207,0.32720616,0.57475156,0.6269896,0.31513256,0.6025323,0.66011864,0.14081003,0.34266686,0.5157614,-0.02205681,-0.29652166,-0.12947205,0.036237735,800.2198,801.02563,798.60803,803.0403,686.5934,0.18243408203125,0.2152099609375,0.95703125,1.24114990234375,-1.92901611328125,1.48040771484375,1,1.0,1.0,1.0,1.0,10.00
2024-10-11 20:42:08.127,0.85827667,0.7341176,0.76027787,1.0758017,0.3352944,0.4591157,0.14630207,0.32720616,0.57475156,0.6269896,0.31513256,0.6025323,0.66011864,0.14081003,0.34266686,0.5157614,-0.02205681,-0.29652166,-0.12947205,0.036237735,793.7729,801.02563,802.23444,800.2198,614.4689,0.18243408203125,0.2152099609375,0.95703125,1.24114990234375,-1.92901611328125,1.48040771484375,1,1.0,1.0,1.0,1.0,10.00
2024-10-11 20:42:08.128,0.85827667,0.7341176,0.76027787,1.0758017,0.3352944,0.4591157,0.14630207,0.32720616,0.57475156,0.6269896,0.31513256,0.6025323,0.66011864,0.14081003,0.34266686,0.5157614,-0.02205681,-0.29652166,-0.12947205,0.036237735,805.4579,799.81683,801.4286,808.2784,815.9341,0.18463134765625,0.2186279296875,0.96343994140625,1.562652587890625,-3.327178955078125,3.865509033203125,1,1.0,1.0,1.0,1.0,10.00
2024-10-11 20:42:08.128,0.85827667,0.7341176,0.76027787,1.0758017,0.3352944,0.4591157,0.14630207,0.32720616,0.57475156,0.6269896,0.31513256,0.6025323,0.66011864,0.14081003,0.34266686,0.5157614,-0.02205681,-0.29652166,-0.12947205,0.036237735,799.41394,794.9817,799.41394,802.23444,896.52014,0.18463134765625,0.2186279296875,0.96343994140625,1.562652587890625,-3.327178955078125,3.865509033203125,1,1.0,1.0,1.0,1.0,10.00
2024-10-11 20:42:08.129,0.85827667,0.7341176,0.76027787,1.0758017,0.3352944,0.4591157,0.14630207,0.32720616,0.57475156,0.6269896,0.31513256,0.6025323,0.66011864,0.14081003,0.34266686,0.5157614,-0.02205681,-0.29652166,-0.12947205,0.036237735,775.2381,796.5934,798.20514,781.28204,695.05493,0.18463134765625,0.2186279296875,0.96343994140625,1.562652587890625,-3.327178955078125,3.865509033203125,1,1.0,1.0,1.0,1.0,10.00
2024-10-11 20:42:08.129,0.85827667,0.7341176,0.76027787,1.0758017,0.3352944,0.4591157,0.14630207,0.32720616,0.57475156,0.6269896,0.31513256,0.6025323,0.66011864,0.14081003,0.34266686,0.5157614,-0.02205681,-0.29652166,-0.12947205,0.036237735,781.28204,795.38464,803.0403,795.78754,635.82416,0.18463134765625,0.2186279296875,0.96343994140625,1.562652587890625,-3.327178955078125,3.865509033203125,1,1.0,1.0,1.0,1.0,10.00
2024-10-11 20:42:08.130,0.85827667,0.7341176,0.76027787,1.0758017,0.3352944,0.4591157,0.14630207,0.32720616,0.57475156,0.6269896,0.31513256,0.6025323,0.66011864,0.14081003,0.34266686,0.5157614,-0.02205681,-0.29652166,-0.12947205,0.036237735,817.9487,790.14655,809.89014,823.5897,865.4945,0.18463134765625,0.2186279296875,0.96343994140625,1.562652587890625,-3.327178955078125,3.865509033203125,1,1.0,1.0,1.0,1.0,10.00
2024-10-11 20:42:08.130,0.85827667,0.7341176,0.76027787,1.0758017,0.3352944,0.4591157,0.14630207,0.32720616,0.57475156,0.6269896,0.31513256,0.6025323,0.66011864,0.14081003,0.34266686,0.5157614,-0.02205681,-0.29652166,-0.12947205,0.036237735,816.7399,787.326,808.68134,815.5311,964.61536,0.18463134765625,0.2186279296875,0.96343994140625,1.562652587890625,-3.327178955078125,3.865509033203125,1,1.0,1.0,1.0,1.0,10.00
2024-10-11 20:42:08.131,0.85827667,0.7341176,0.76027787,1.0758017,0.3352944,0.4591157,0.14630207,0.32720616,0.57475156,0.6269896,0.31513256,0.6025323,0.66011864,0.14081003,0.34266686,0.5157614,-0.02205681,-0.29652166,-0.12947205,0.036237735,799.011,788.1319,812.71063,799.41394,765.16486,0.18463134765625,0.2186279296875,0.96343994140625,1.562652587890625,-3.327178955078125,3.865509033203125,1,1.0,1.0,1.0,1.0,10.00
2024-10-11 20:42:08.131,0.85827667,0.7341176,0.76027787,1.0758017,0.3352944,0.4591157,0.14630207,0.32720616,0.57475156,0.6269896,0.31513256,0.6025323,0.66011864,0.14081003,0.34266686,0.5157614,-0.02205681,-0.29652166,-0.12947205,0.036237735,802.6374,790.14655,815.5311,803.0403,668.46155,0.18463134765625,0.2186279296875,0.96343994140625,1.562652587890625,-3.327178955078125,3.865509033203125,1,1.0,1.0,1.0,1.0,10.00
2024-10-11 20:42:08.132,0.85827667,0.7341176,0.76027787,1.0758017,0.3352944,0.4591157,0.14630207,0.32720616,0.57475156,0.6269896,0.31513256,0.6025323,0.66011864,0.14081003,0.34266686,0.5157614,-0.02205681,-0.29652166,-0.12947205,0.036237735,811.0989,790.9524,811.50183,809.89014,834.0659,0.18463134765625,0.2186279296875,0.96343994140625,1.562652587890625,-3.327178955078125,3.865509033203125,1,1.0,1.0,1.0,1.0,10.00
2024-10-11 20:42:08.132,0.85827667,0.7341176,0.76027787,1.0758017,0.3352944,0.4591157,0.14630207,0.32720616,0.57475156,0.6269896,0.31513256,0.6025323,0.66011864,0.14081003,0.34266686,0.5157614,-0.02205681,-0.29652166,-0.12947205,0.036237735,826.8132,790.14655,811.9048,822.7839,889.2674,0.18463134765625,0.2186279296875,0.96343994140625,1.562652587890625,-3.327178955078125,3.865509033203125,1,1.0,1.0,1.0,1.0,10.00
2024-10-11 20:42:08.133,0.85827667,0.7341176,0.76027787,1.0758017,0.3352944,0.4591157,0.14630207,0.32720616,0.57475156,0.6269896,0.31513256,0.6025323,0.66011864,0.14081003,0.34266686,0.5157614,-0.02205681,-0.29652166,-0.12947205,0.036237735,834.0659,790.9524,808.68134,827.619,643.8828,0.18463134765625,0.2186279296875,0.96343994140625,1.562652587890625,-3.327178955078125,3.865509033203125,1,1.0,1.0,1.0,1.0,10.00
2024-10-11 20:42:08.133,0.85827667,0.7341176,0.76027787,1.0758017,0.3352944,0.4591157,0.14630207,0.32720616,0.57475156,0.6269896,0.31513256,0.6025323,0.66011864,0.14081003,0.34266686,0.5157614,-0.02205681,-0.29652166,-0.12947205,0.036237735,819.5604,796.5934,807.0696,818.7546,759.92676,0.18463134765625,0.2186279296875,0.96343994140625,1.562652587890625,-3.327178955078125,3.865509033203125,1,1.0,1.0,1.0,1.0,10.00
2024-10-11 20:42:08.176,0.85827667,0.7341176,0.76027787,1.0758017,0.3352944,0.4591157,0.14630207,0.32720616,0.57475156,0.6269896,0.31513256,0.6025323,0.66011864,0.14081003,0.34266686,0.5157614,-0.02205681,-0.29652166,-0.12947205,0.036237735,811.50183,796.5934,811.9048,820.7692,981.53845,0.18896484375,0.22265625,0.96502685546875,1.248626708984375,-3.48419189453125,5.973968505859375,1,1.0,1.0,1.0,1.0,10.00
2024-10-11 20:42:08.177,0.85827667,0.7341176,0.76027787,1.0758017,0.3352944,0.4591157,0.14630207,0.32720616,0.57475156,0.6269896,0.31513256,0.6025323,0.66011864,0.14081003,0.34266686,0.5157614,-0.02205681,-0.29652166,-0.12947205,0.036237735,808.68134,789.7436,811.0989,822.381,827.2161,0.18896484375,0.22265625,0.96502685546875,1.248626708984375,-3.48419189453125,5.973968505859375,1,1.0,1.0,1.0,1.0,10.00
2024-10-11 20:42:08.178,0.85827667,0.7341176,0.76027787,1.0758017,0.3352944,0.4591157,0.14630207,0.32720616,0.57475156,0.6269896,0.31513256,0.6025323,0.66011864,0.14081003,0.34266686,0.5157614,-0.02205681,-0.29652166,-0.12947205,0.036237735,824.7985,788.93774,817.1429,828.4249,693.0403,0.18896484375,0.22265625,0.96502685546875,1.248626708984375,-3.48419189453125,5.973968505859375,1,1.0,1.0,1.0,1.0,10.00
2024-10-11 20:42:08.179,0.80028087,0.25965473,0.42912737,1.0361258,0.43003547,-0.11379239,-0.18823354,0.3400104,0.6423535,0.24500251,0.14476384,0.6247046,0.64072466,0.12761703,0.35719922,0.56211036,-0.004992023,-0.29741022,-0.09406502,0.049894694,836.08057,788.5348,821.5751,842.1245,754.2857,0.18896484375,0.22265625,0.96502685546875,1.248626708984375,-3.48419189453125,5.973968505859375,1,1.0,1.0,1.0,1.0,10.00
2024-10-11 20:42:08.184,0.80028087,0.25965473,0.42912737,1.0361258,0.43003547,-0.11379239,-0.18823354,0.3400104,0.6423535,0.24500251,0.14476384,0.6247046,0.64072466,0.12761703,0.35719922,0.56211036,-0.004992023,-0.29741022,-0.09406502,0.049894694,813.5165,792.5641,809.89014,834.4689,886.8498,0.18896484375,0.22265625,0.96502685546875,1.248626708984375,-3.48419189453125,5.973968505859375,1,1.0,1.0,1.0,1.0,10.00
2024-10-11 20:42:08.185,0.80028087,0.25965473,0.42912737,1.0361258,0.43003547,-0.11379239,-0.18823354,0.3400104,0.6423535,0.24500251,0.14476384,0.6247046,0.64072466,0.12761703,0.35719922,0.56211036,-0.004992023,-0.29741022,-0.09406502,0.049894694,805.4579,791.75824,802.23444,817.1429,909.41394,0.18896484375,0.22265625,0.96502685546875,1.248626708984375,-3.48419189453125,5.973968505859375,1,1.0,1.0,1.0,1.0,10.00
2024-10-11 20:42:08.185,0.80028087,0.25965473,0.42912737,1.0361258,0.43003547,-0.11379239,-0.18823354,0.3400104,0.6423535,0.24500251,0.14476384,0.6247046,0.64072466,0.12761703,0.35719922,0.56211036,-0.004992023,-0.29741022,-0.09406502,0.049894694,816.337,789.34064,809.4872,811.9048,774.43225,0.18896484375,0.22265625,0.96502685546875,1.248626708984375,-3.48419189453125,5.973968505859375,1,1.0,1.0,1.0,1.0,10.00
2024-10-11 20:42:08.186,0.80028087,0.25965473,0.42912737,1.0361258,0.43003547,-0.11379239,-0.18823354,0.3400104,0.6423535,0.24500251,0.14476384,0.6247046,0.64072466,0.12761703,0.35719922,0.56211036,-0.004992023,-0.29741022,-0.09406502,0.049894694,820.7692,782.0879,821.5751,812.71063,792.1612,0.18896484375,0.22265625,0.96502685546875,1.248626708984375,-3.48419189453125,5.973968505859375,1,1.0,1.0,1.0,1.0,10.00
2024-10-11 20:42:08.186,0.80028087,0.25965473,0.42912737,1.0361258,0.43003547,-0.11379239,-0.18823354,0.3400104,0.6423535,0.24500251,0.14476384,0.6247046,0.64072466,0.12761703,0.35719922,0.56211036,-0.004992023,-0.29741022,-0.09406502,0.049894694,817.1429,782.49084,819.9634,815.12823,856.63007,0.18896484375,0.22265625,0.96502685546875,1.248626708984375,-3.48419189453125,5.973968505859375,1,1.0,1.0,1.0,1.0,10.00
2024-10-11 20:42:08.187,0.80028087,0.25965473,0.42912737,1.0361258,0.43003547,-0.11379239,-0.18823354,0.3400104,0.6423535,0.24500251,0.14476384,0.6247046,0.64072466,0.12761703,0.35719922,0.56211036,-0.004992023,-0.29741022,-0.09406502,0.049894694,813.5165,787.72894,817.1429,812.3077,770.0,0.18896484375,0.22265625,0.96502685546875,1.248626708984375,-3.48419189453125,5.973968505859375,1,1.0,1.0,1.0,1.0,10.00
2024-10-11 20:42:08.188,0.80028087,0.25965473,0.42912737,1.0361258,0.43003547,-0.11379239,-0.18823354,0.3400104,0.6423535,0.24500251,0.14476384,0.6247046,0.64072466,0.12761703,0.35719922,0.56211036,-0.004992023,-0.29741022,-0.09406502,0.049894694,814.7253,785.7143,815.5311,807.0696,728.9011,0.18896484375,0.22265625,0.96502685546875,1.248626708984375,-3.48419189453125,5.973968505859375,1,1.0,1.0,1.0,1.0,10.00
2024-10-11 20:42:08.188,0.80028087,0.25965473,0.42912737,1.0361258,0.43003547,-0.11379239,-0.18823354,0.3400104,0.6423535,0.24500251,0.14476384,0.6247046,0.64072466,0.12761703,0.35719922,0.56211036,-0.004992023,-0.29741022,-0.09406502,0.049894694,812.3077,790.14655,811.50183,806.6667,850.18317,0.18896484375,0.22265625,0.96502685546875,1.248626708984375,-3.48419189453125,5.973968505859375,1,1.0,1.0,1.0,1.0,10.00
2024-10-11 20:42:08.222,0.80028087,0.25965473,0.42912737,1.0361258,0.43003547,-0.11379239,-0.18823354,0.3400104,0.6423535,0.24500251,0.14476384,0.6247046,0.64072466,0.12761703,0.35719922,0.56211036,-0.004992023,-0.29741022,-0.09406502,0.049894694,807.0696,793.7729,808.2784,807.47253,929.9634,0.18896484375,0.22265625,0.96502685546875,1.248626708984375,-3.48419189453125,5.973968505859375,1,1.0,1.0,1.0,1.0,10.00
2024-10-11 20:42:08.223,0.80028087,0.25965473,0.42912737,1.0361258,0.43003547,-0.11379239,-0.18823354,0.3400104,0.6423535,0.24500251,0.14476384,0.6247046,0.64072466,0.12761703,0.35719922,0.56211036,-0.004992023,-0.29741022,-0.09406502,0.049894694,800.6227,793.7729,805.4579,802.23444,787.326,0.18896484375,0.22265625,0.96502685546875,1.248626708984375,-3.48419189453125,5.973968505859375,1,1.0,1.0,1.0,1.0,10.00
2024-10-11 20:42:08.224,0.80028087,0.25965473,0.42912737,1.0361258,0.43003547,-0.11379239,-0.18823354,0.3400104,0.6423535,0.24500251,0.14476384,0.6247046,0.64072466,0.12761703,0.35719922,0.56211036,-0.004992023,-0.29741022,-0.09406502,0.049894694,802.6374,796.1905,803.8461,804.65204,843.73627,0.18896484375,0.22265625,0.96502685546875,1.248626708984375,-3.48419189453125,5.973968505859375,1,1.0,1.0,1.0,1.0,10.00
2024-10-11 20:42:08.225,0.80028087,0.25965473,0.42912737,1.0361258,0.43003547,-0.11379239,-0.18823354,0.3400104,0.6423535,0.24500251,0.14476384,0.6247046,0.64072466,0.12761703,0.35719922,0.56211036,-0.004992023,-0.29741022,-0.09406502,0.049894694,801.4286,792.1612,799.81683,811.50183,979.92676,0.18896484375,0.22265625,0.96502685546875,1.248626708984375,-3.48419189453125,5.973968505859375,1,1.0,1.0,1.0,1.0,10.00
2024-10-11 20:42:08.225,0.80028087,0.25965473,0.42912737,1.0361258,0.43003547,-0.11379239,-0.18823354,0.3400104,0.6423535,0.24500251,0.14476384,0.6247046,0.64072466,0.12761703,0.35719922,0.56211036,-0.004992023,-0.29741022,-0.09406502,0.049894694,798.60803,785.7143,801.4286,811.9048,1204.762,0.18896484375,0.22265625,0.96502685546875,1.248626708984375,-3.48419189453125,5.973968505859375,1,1.0,1.0,1.0,1.0,10.00
2024-10-11 20:42:08.226,0.80028087,0.25965473,0.42912737,1.0361258,0.43003547,-0.11379239,-0.18823354,0.3400104,0.6423535,0.24500251,0.14476384,0.6247046,0.64072466,0.12761703,0.35719922,0.56211036,-0.004992023,-0.29741022,-0.09406502,0.049894694,794.57874,784.90845,803.44324,811.50183,1429.1941,0.18896484375,0.22265625,0.96502685546875,1.248626708984375,-3.48419189453125,5.973968505859375,1,1.0,1.0,1.0,1.0,10.00
2024-10-11 20:42:08.227,0.80028087,0.25965473,0.42912737,1.0361258,0.43003547,-0.11379239,-0.18823354,0.3400104,0.6423535,0.24500251,0.14476384,0.6247046,0.64072466,0.12761703,0.35719922,0.56211036,-0.004992023,-0.29741022,-0.09406502,0.049894694,790.14655,788.93774,796.99634,808.2784,1287.3627,0.18896484375,0.22265625,0.96502685546875,1.248626708984375,-3.48419189453125,5.973968505859375,1,1.0,1.0,1.0,1.0,10.00
2024-10-11 20:42:08.227,0.80028087,0.25965473,0.42912737,1.0361258,0.43003547,-0.11379239,-0.18823354,0.3400104,0.6423535,0.24500251,0.14476384,0.6247046,0.64072466,0.12761703,0.35719922,0.56211036,-0.004992023,-0.29741022,-0.09406502,0.049894694,792.1612,790.9524,796.99634,794.57874,864.2857,0.18896484375,0.22265625,0.96502685546875,1.248626708984375,-3.48419189453125,5.973968505859375,1,1.0,1.0,1.0,1.0,10.00
2024-10-11 20:42:08.228,0.80028087,0.25965473,0.42912737,1.0361258,0.43003547,-0.11379239,-0.18823354,0.3400104,0.6423535,0.24500251,0.14476384,0.6247046,0.64072466,0.12761703,0.35719922,0.56211036,-0.004992023,-0.29741022,-0.09406502,0.049894694,794.9817,787.72894,805.05493,786.52014,610.84247,0.18896484375,0.22265625,0.96502685546875,1.248626708984375,-3.48419189453125,5.973968505859375,1,1.0,1.0,1.0,1.0,10.00
2024-10-11 20:42:08.229,0.80028087,0.25965473,0.42912737,1.0361258,0.43003547,-0.11379239,-0.18823354,0.3400104,0.6423535,0.24500251,0.14476384,0.6247046,0.64072466,0.12761703,0.35719922,0.56211036,-0.004992023,-0.29741022,-0.09406502,0.049894694,790.9524,788.5348,801.02563,788.93774,551.6117,0.18896484375,0.22265625,0.96502685546875,1.248626708984375,-3.48419189453125,5.973968505859375,1,1.0,1.0,1.0,1.0,10.00
2024-10-11 20:42:08.229,0.80028087,0.25965473,0.42912737,1.0361258,0.43003547,-0.11379239,-0.18823354,0.3400104,0.6423535,0.24500251,0.14476384,0.6247046,0.64072466,0.12761703,0.35719922,0.56211036,-0.004992023,-0.29741022,-0.09406502,0.049894694,784.5055,793.36993,802.6374,796.99634,535.4945,0.18896484375,0.22265625,0.96502685546875,1.248626708984375,-3.48419189453125,5.973968505859375,1,1.0,1.0,1.0,1.0,10.00
2024-10-11 20:42:08.230,0.80028087,0.25965473,0.42912737,1.0361258,0.43003547,-0.11379239,-0.18823354,0.3400104,0.6423535,0.24500251,0.14476384,0.6247046,0.64072466,0.12761703,0.35719922,0.56211036,-0.004992023,-0.29741022,-0.09406502,0.049894694,785.7143,792.1612,804.2491,800.2198,678.5348,0.18896484375,0.22265625,0.96502685546875,1.248626708984375,-3.48419189453125,5.973968505859375,1,1.0,1.0,1.0,1.0,10.00
2024-10-11 20:42:08.289,0.80028087,0.25965473,0.42912737,1.0361258,0.43003547,-0.11379239,-0.18823354,0.3400104,0.6423535,0.24500251,0.14476384,0.6247046,0.64072466,0.12761703,0.35719922,0.56211036,-0.004992023,-0.29741022,-0.09406502,0.049894694,790.54944,794.17584,797.3993,791.75824,716.0073,0.18670654296875,0.227294921875,0.962158203125,0.13458251953125,-2.893524169921875,5.86181640625,1,1.0,1.0,1.0,1.0,10.00
2024-10-11 20:42:08.290,0.80028087,0.25965473,0.42912737,1.0361258,0.43003547,-0.11379239,-0.18823354,0.3400104,0.6423535,0.24500251,0.14476384,0.6247046,0.64072466,0.12761703,0.35719922,0.56211036,-0.004992023,-0.29741022,-0.09406502,0.049894694,791.75824,800.6227,800.6227,788.1319,575.78754,0.18670654296875,0.227294921875,0.962158203125,0.13458251953125,-2.893524169921875,5.86181640625,1,1.0,1.0,1.0,1.0,10.00
2024-10-11 20:42:08.291,0.80028087,0.25965473,0.42912737,1.0361258,0.43003547,-0.11379239,-0.18823354,0.3400104,0.6423535,0.24500251,0.14476384,0.6247046,0.64072466,0.12761703,0.35719922,0.56211036,-0.004992023,-0.29741022,-0.09406502,0.049894694,799.011,803.44324,801.4286,789.34064,666.4469,0.18670654296875,0.227294921875,0.962158203125,0.13458251953125,-2.893524169921875,5.86181640625,1,1.0,1.0,1.0,1.0,10.00
2024-10-11 20:42:08.292,0.80028087,0.25965473,0.42912737,1.0361258,0.43003547,-0.11379239,-0.18823354,0.3400104,0.6423535,0.24500251,0.14476384,0.6247046,0.64072466,0.12761703,0.35719922,0.56211036,-0.004992023,-0.29741022,-0.09406502,0.049894694,794.17584,794.17584,799.011,788.5348,772.8205,0.18670654296875,0.227294921875,0.962158203125,0.13458251953125,-2.893524169921875,5.86181640625,1,1.0,1.0,1.0,1.0,10.00
2024-10-11 20:42:08.292,0.80028087,0.25965473,0.42912737,1.0361258,0.43003547,-0.11379239,-0.18823354,0.3400104,0.6423535,0.24500251,0.14476384,0.6247046,0.64072466,0.12761703,0.35719922,0.56211036,-0.004992023,-0.29741022,-0.09406502,0.049894694,796.5934,792.96704,796.99634,786.9231,715.2015,0.18670654296875,0.227294921875,0.962158203125,0.13458251953125,-2.893524169921875,5.86181640625,1,1.0,1.0,1.0,1.0,10.00
2024-10-11 20:42:08.293,0.74858034,0.22164717,0.4086105,1.0100372,0.48418048,-0.08887447,-0.20695966,0.35197997,0.6793099,0.2590345,0.14476384,0.6247046,0.6162752,0.10971407,0.36604258,0.586344,0.015132474,-0.3065345,-0.060947582,0.065228656,808.2784,796.1905,790.54944,793.7729,678.93774,0.18670654296875,0.227294921875,0.962158203125,0.13458251953125,-2.893524169921875,5.86181640625,1,1.0,1.0,1.0,1.0,10.00
2024-10-11 20:42:08.297,0.74858034,0.22164717,0.4086105,1.0100372,0.48418048,-0.08887447,-0.20695966,0.35197997,0.6793099,0.2590345,0.14476384,0.6247046,0.6162752,0.10971407,0.36604258,0.586344,0.015132474,-0.3065345,-0.060947582,0.065228656,803.8461,795.38464,798.20514,805.05493,794.9817,0.18670654296875,0.227294921875,0.962158203125,0.13458251953125,-2.893524169921875,5.86181640625,1,1.0,1.0,1.0,1.0,10.00
2024-10-11 20:42:08.298,0.74858034,0.22164717,0.4086105,1.0100372,0.48418048,-0.08887447,-0.20695966,0.35197997,0.6793099,0.2590345,0.14476384,0.6247046,0.6162752,0.10971407,0.36604258,0.586344,0.015132474,-0.3065345,-0.060947582,0.065228656,799.011,794.57874,813.1135,801.02563,946.8865,0.18670654296875,0.227294921875,0.962158203125,0.13458251953125,-2.893524169921875,5.86181640625,1,1.0,1.0,1.0,1.0,10.00
2024-10-11 20:42:08.298,0.74858034,0.22164717,0.4086105,1.0100372,0.48418048,-0.08887447,-0.20695966,0.35197997,0.6793099,0.2590345,0.14476384,0.6247046,0.6162752,0.10971407,0.36604258,0.586344,0.015132474,-0.3065345,-0.060947582,0.065228656,793.7729,792.5641,815.12823,791.3553,847.3626,0.18670654296875,0.227294921875,0.962158203125,0.13458251953125,-2.893524169921875,5.86181640625,1,1.0,1.0,1.0,1.0,10.00
2024-10-11 20:42:08.299,0.74858034,0.22164717,0.4086105,1.0100372,0.48418048,-0.08887447,-0.20695966,0.35197997,0.6793099,0.2590345,0.14476384,0.6247046,0.6162752,0.10971407,0.36604258,0.586344,0.015132474,-0.3065345,-0.060947582,0.065228656,796.5934,791.75824,811.50183,793.7729,675.7143,0.18670654296875,0.227294921875,0.962158203125,0.13458251953125,-2.893524169921875,5.86181640625,1,1.0,1.0,1.0,1.0,10.00
2024-10-11 20:42:08.299,0.74858034,0.22164717,0.4086105,1.0100372,0.48418048,-0.08887447,-0.20695966,0.35197997,0.6793099,0.2590345,0.14476384,0.6247046,0.6162752,0.10971407,0.36604258,0.586344,0.015132474,-0.3065345,-0.060947582,0.065228656,798.20514,796.1905,812.3077,804.2491,786.1172,0.18670654296875,0.227294921875,0.962158203125,0.13458251953125,-2.893524169921875,5.86181640625,1,1.0,1.0,1.0,1.0,10.00
2024-10-11 20:42:08.300,0.74858034,0.22164717,0.4086105,1.0100372,0.48418048,-0.08887447,-0.20695966,0.35197997,0.6793099,0.2590345,0.14476384,0.6247046,0.6162752,0.10971407,0.36604258,0.586344,0.015132474,-0.3065345,-0.060947582,0.065228656,803.44324,799.81683,805.05493,807.8755,897.326,0.18670654296875,0.227294921875,0.962158203125,0.13458251953125,-2.893524169921875,5.86181640625,1,1.0,1.0,1.0,1.0,10.00
2024-10-11 20:42:08.401,0.74858034,0.22164717,0.4086105,1.0100372,0.48418048,-0.08887447,-0.20695966,0.35197997,0.6793099,0.2590345,0.14476384,0.6247046,0.6162752,0.10971407,0.36604258,0.586344,0.015132474,-0.3065345,-0.060947582,0.065228656,805.4579,802.23444,804.2491,803.44324,684.9817,0.19610595703125,0.2274169921875,0.9581298828125,-0.64300537109375,-1.21124267578125,3.611297607421875,1,1.0,1.0,1.0,1.0,10.00
2024-10-11 20:42:08.402,0.74858034,0.22164717,0.4086105,1.0100372,0.48418048,-0.08887447,-0.20695966,0.35197997,0.6793099,0.2590345,0.14476384,0.6247046,0.6162752,0.10971407,0.36604258,0.586344,0.015132474,-0.3065345,-0.060947582,0.065228656,816.337,800.6227,807.0696,807.47253,537.50916,0.19610595703125,0.2274169921875,0.9581298828125,-0.64300537109375,-1.21124267578125,3.611297607421875,1,1.0,1.0,1.0,1.0,10.00
2024-10-11 20:42:08.403,0.74858034,0.22164717,0.4086105,1.0100372,0.48418048,-0.08887447,-0.20695966,0.35197997,0.6793099,0.2590345,0.14476384,0.6247046,0.6162752,0.10971407,0.36604258,0.586344,0.015132474,-0.3065345,-0.060947582,0.065228656,819.15753,794.57874,797.3993,817.5458,765.9707,0.19610595703125,0.2274169921875,0.9581298828125,-0.64300537109375,-1.21124267578125,3.611297607421875,1,1.0,1.0,1.0,1.0,10.00
2024-10-11 20:42:08.403,0.74858034,0.22164717,0.4086105,1.0100372,0.48418048,-0.08887447,-0.20695966,0.35197997,0.6793099,0.2590345,0.14476384,0.6247046,0.6162752,0.10971407,0.36604258,0.586344,0.015132474,-0.3065345,-0.060947582,0.065228656,807.0696,794.17584,796.5934,820.3663,880.80585,0.19610595703125,0.2274169921875,0.9581298828125,-0.64300537109375,-1.21124267578125,3.611297607421875,1,1.0,1.0,1.0,1.0,10.00
2024-10-11 20:42:08.404,0.74858034,0.22164717,0.4086105,1.0100372,0.48418048,-0.08887447,-0.20695966,0.35197997,0.6793099,0.2590345,0.14476384,0.6247046,0.6162752,0.10971407,0.36604258,0.586344,0.015132474,-0.3065345,-0.060947582,0.065228656,810.696,795.78754,802.23444,817.9487,699.4872,0.19610595703125,0.2274169921875,0.9581298828125,-0.64300537109375,-1.21124267578125,3.611297607421875,1,1.0,1.0,1.0,1.0,10.00
2024-10-11 20:42:08.405,0.74858034,0.22164717,0.4086105,1.0100372,0.48418048,-0.08887447,-0.20695966,0.35197997,0.6793099,0.2590345,0.14476384,0.6247046,0.6162752,0.10971407,0.36604258,0.586344,0.015132474,-0.3065345,-0.060947582,0.065228656,805.05493,790.9524,799.011,816.7399,758.315,0.19610595703125,0.2274169921875,0.9581298828125,-0.64300537109375,-1.21124267578125,3.611297607421875,1,1.0,1.0,1.0,1.0,10.00
2024-10-11 20:42:08.405,0.74858034,0.22164717,0.4086105,1.0100372,0.48418048,-0.08887447,-0.20695966,0.35197997,0.6793099,0.2590345,0.14476384,0.6247046,0.6162752,0.10971407,0.36604258,0.586344,0.015132474,-0.3065345,-0.060947582,0.065228656,798.60803,790.9524,806.6667,817.1429,977.1062,0.19610595703125,0.2274169921875,0.9581298828125,-0.64300537109375,-1.21124267578125,3.611297607421875,1,1.0,1.0,1.0,1.0,10.00
2024-10-11 20:42:08.406,0.74858034,0.22164717,0.4086105,1.0100372,0.48418048,-0.08887447,-0.20695966,0.35197997,0.6793099,0.2590345,0.14476384,0.6247046,0.6162752,0.10971407,0.36604258,0.586344,0.015132474,-0.3065345,-0.060947582,0.065228656,807.0696,793.36993,811.50183,817.5458,992.4176,0.19610595703125,0.2274169921875,0.9581298828125,-0.64300537109375,-1.21124267578125,3.611297607421875,1,1.0,1.0,1.0,1.0,10.00
2024-10-11 20:42:08.407,0.74858034,0.22164717,0.4086105,1.0100372,0.48418048,-0.08887447,-0.20695966,0.35197997,0.6793099,0.2590345,0.14476384,0.6247046,0.6162752,0.10971407,0.36604258,0.586344,0.015132474,-0.3065345,-0.060947582,0.065228656,809.4872,794.17584,809.0842,813.1135,753.47986,0.19610595703125,0.2274169921875,0.9581298828125,-0.64300537109375,-1.21124267578125,3.611297607421875,1,1.0,1.0,1.0,1.0,10.00
2024-10-11 20:42:08.408,0.74858034,0.22164717,0.4086105,1.0100372,0.48418048,-0.08887447,-0.20695966,0.35197997,0.6793099,0.2590345,0.14476384,0.6247046,0.6162752,0.10971407,0.36604258,0.586344,0.015132474,-0.3065345,-0.060947582,0.065228656,801.4286,794.9817,804.2491,805.05493,684.9817,0.19610595703125,0.2274169921875,0.9581298828125,-0.64300537109375,-1.21124267578125,3.611297607421875,1,1.0,1.0,1.0,1.0,10.00
2024-10-11 20:42:08.409,0.74858034,0.22164717,0.4086105,1.0100372,0.48418048,-0.08887447,-0.20695966,0.35197997,0.6793099,0.2590345,0.14476384,0.6247046,0.6162752,0.10971407,0.36604258,0.586344,0.015132474,-0.3065345,-0.060947582,0.065228656,798.20514,796.99634,801.8315,802.6374,740.58606,0.19610595703125,0.2274169921875,0.9581298828125,-0.64300537109375,-1.21124267578125,3.611297607421875,1,1.0,1.0,1.0,1.0,10.00
2024-10-11 20:42:08.410,0.74858034,0.22164717,0.4086105,1.0100372,0.48418048,-0.08887447,-0.20695966,0.35197997,0.6793099,0.2590345,0.14476384,0.6247046,0.6162752,0.10971407,0.36604258,0.586344,0.015132474,-0.3065345,-0.060947582,0.065228656,799.011,800.6227,809.4872,806.26373,701.9048,0.19610595703125,0.2274169921875,0.9581298828125,-0.64300537109375,-1.21124267578125,3.611297607421875,1,1.0,1.0,1.0,1.0,10.00
2024-10-11 20:42:08.441,0.74858034,0.22164717,0.4086105,1.0100372,0.48418048,-0.08887447,-0.20695966,0.35197997,0.6793099,0.2590345,0.14476384,0.6247046,0.6162752,0.10971407,0.36604258,0.586344,0.015132474,-0.3065345,-0.060947582,0.065228656,794.57874,801.02563,807.47253,803.44324,633.4066,0.2105712890625,0.23663330078125,0.96746826171875,-0.874786376953125,0.25421142578125,0.64300537109375,1,1.0,1.0,1.0,1.0,10.00
2024-10-11 20:42:08.442,0.74858034,0.22164717,0.4086105,1.0100372,0.48418048,-0.08887447,-0.20695966,0.35197997,0.6793099,0.2590345,0.14476384,0.6247046,0.6162752,0.10971407,0.36604258,0.586344,0.015132474,-0.3065345,-0.060947582,0.065228656,792.5641,795.78754,798.20514,799.81683,679.34064,0.2105712890625,0.23663330078125,0.96746826171875,-0.874786376953125,0.25421142578125,0.64300537109375,1,1.0,1.0,1.0,1.0,10.00
2024-10-11 20:42:08.443,0.74858034,0.22164717,0.4086105,1.0100372,0.48418048,-0.08887447,-0.20695966,0.35197997,0.6793099,0.2590345,0.14476384,0.6247046,0.6162752,0.10971407,0.36604258,0.586344,0.015132474,-0.3065345,-0.060947582,0.065228656,801.02563,790.14655,797.3993,798.60803,873.95605,0.2105712890625,0.23663330078125,0.96746826171875,-0.874786376953125,0.25421142578125,0.64300537109375,1,1.0,1.0,1.0,1.0,10.00
2024-10-11 20:42:08.444,0.74858034,0.22164717,0.4086105,1.0100372,0.48418048,-0.08887447,-0.20695966,0.35197997,0.6793099,0.2590345,0.14476384,0.6247046,0.6162752,0.10971407,0.36604258,0.586344,0.015132474,-0.3065345,-0.060947582,0.065228656,801.8315,800.6227,802.23444,794.17584,892.0879,0.2105712890625,0.23663330078125,0.96746826171875,-0.874786376953125,0.25421142578125,0.64300537109375,1,1.0,1.0,1.0,1.0,10.00
2024-10-11 20:42:08.445,0.74858034,0.22164717,0.4086105,1.0100372,0.48418048,-0.08887447,-0.20695966,0.35197997,0.6793099,0.2590345,0.14476384,0.6247046,0.6162752,0.10971407,0.36604258,0.586344,0.015132474,-0.3065345,-0.060947582,0.065228656,794.17584,803.0403,808.2784,789.34064,790.14655,0.2105712890625,0.23663330078125,0.96746826171875,-0.874786376953125,0.25421142578125,0.64300537109375,1,1.0,1.0,1.0,1.0,10.00
2024-10-11 20:42:08.446,0.74858034,0.22164717,0.4086105,1.0100372,0.48418048,-0.08887447,-0.20695966,0.35197997,0.6793099,0.2590345,0.14476384,0.6247046,0.6162752,0.10971407,0.36604258,0.586344,0.015132474,-0.3065345,-0.060947582,0.065228656,787.72894,791.3553,808.2784,786.1172,909.41394,0.2105712890625,0.23663330078125,0.96746826171875,-0.874786376953125,0.25421142578125,0.64300537109375,1,1.0,1.0,1.0,1.0,10.00
2024-10-11 20:42:08.447,0.74858034,0.22164717,0.4086105,1.0100372,0.48418048,-0.08887447,-0.20695966,0.35197997,0.6793099,0.2590345,0.14476384,0.6247046,0.6162752,0.10971407,0.36604258,0.586344,0.015132474,-0.3065345,-0.060947582,0.065228656,788.1319,791.3553,799.011,784.10254,987.1795,0.2105712890625,0.23663330078125,0.96746826171875,-0.874786376953125,0.25421142578125,0.64300537109375,1,1.0,1.0,1.0,1.0,10.00
2024-10-11 20:42:08.448,0.70843023,0.19022116,0.40012705,0.990769,0.5124422,-0.08157823,-0.21508321,0.37742135,0.69699234,0.27284503,0.16940369,0.6247046,0.5903773,0.10257882,0.37591738,0.5895032,0.034918427,-0.31723613,-0.033466008,0.08422038,789.34064,796.5934,796.1905,787.326,765.56775,0.2105712890625,0.23663330078125,0.96746826171875,-0.874786376953125,0.25421142578125,0.64300537109375,1,1.0,1.0,1.0,1.0,10.00
2024-10-11 20:42:08.454,0.70843023,0.19022116,0.40012705,0.990769,0.5124422,-0.08157823,-0.21508321,0.37742135,0.69699234,0.27284503,0.16940369,0.6247046,0.5903773,0.10257882,0.37591738,0.5895032,0.034918427,-0.31723613,-0.033466008,0.08422038,794.57874,798.60803,801.02563,792.5641,674.5055,0.2105712890625,0.23663330078125,0.96746826171875,-0.874786376953125,0.25421142578125,0.64300537109375,1,1.0,1.0,1.0,1.0,10.00
2024-10-11 20:42:08.455,0.70843023,0.19022116,0.40012705,0.990769,0.5124422,-0.08157823,-0.21508321,0.37742135,0.69699234,0.27284503,0.16940369,0.6247046,0.5903773,0.10257882,0.37591738,0.5895032,0.034918427,-0.31723613,-0.033466008,0.08422038,812.3077,799.011,803.0403,801.4286,842.1245,0.2105712890625,0.23663330078125,0.96746826171875,-0.874786376953125,0.25421142578125,0.64300537109375,1,1.0,1.0,1.0,1.0,10.00
2024-10-11 20:42:08.455,0.70843023,0.19022116,0.40012705,0.990769,0.5124422,-0.08157823,-0.21508321,0.37742135,0.69699234,0.27284503,0.16940369,0.6247046,0.5903773,0.10257882,0.37591738,0.5895032,0.034918427,-0.31723613,-0.033466008,0.08422038,803.8461,791.75824,800.6227,790.54944,902.5641,0.2105712890625,0.23663330078125,0.96746826171875,-0.874786376953125,0.25421142578125,0.64300537109375,1,1.0,1.0,1.0,1.0,10.00
2024-10-11 20:42:08.456,0.70843023,0.19022116,0.40012705,0.990769,0.5124422,-0.08157823,-0.21508321,0.37742135,0.69699234,0.27284503,0.16940369,0.6247046,0.5903773,0.10257882,0.37591738,0.5895032,0.034918427,-0.31723613,-0.033466008,0.08422038,777.6557,794.17584,801.8315,768.7912,784.90845,0.2105712890625,0.23663330078125,0.96746826171875,-0.874786376953125,0.25421142578125,0.64300537109375,1,1.0,1.0,1.0,1.0,10.00
2024-10-11 20:42:08.458,0.70843023,0.19022116,0.40012705,0.990769,0.5124422,-0.08157823,-0.21508321,0.37742135,0.69699234,0.27284503,0.16940369,0.6247046,0.5903773,0.10257882,0.37591738,0.5895032,0.034918427,-0.31723613,-0.033466008,0.08422038,772.01465,799.011,808.2784,763.1502,714.7985,0.2080078125,0.2406005859375,0.964599609375,-2.684173583984375,4.284210205078125,-1.936492919921875,1,1.0,1.0,1.0,1.0,10.00
2024-10-11 20:42:08.458,0.70843023,0.19022116,0.40012705,0.990769,0.5124422,-0.08157823,-0.21508321,0.37742135,0.69699234,0.27284503,0.16940369,0.6247046,0.5903773,0.10257882,0.37591738,0.5895032,0.034918427,-0.31723613,-0.033466008,0.08422038,777.25275,794.9817,806.26373,764.35895,866.30035,0.2080078125,0.2406005859375,0.964599609375,-2.684173583984375,4.284210205078125,-1.936492919921875,1,1.0,1.0,1.0,1.0,10.00
2024-10-11 20:42:08.459,0.70843023,0.19022116,0.40012705,0.990769,0.5124422,-0.08157823,-0.21508321,0.37742135,0.69699234,0.27284503,0.16940369,0.6247046,0.5903773,0.10257882,0.37591738,0.5895032,0.034918427,-0.31723613,-0.033466008,0.08422038,763.5531,792.5641,804.2491,761.53845,896.52014,0.2080078125,0.2406005859375,0.964599609375,-2.684173583984375,4.284210205078125,-1.936492919921875,1,1.0,1.0,1.0,1.0,10.00
2024-10-11 20:42:08.460,0.70843023,0.19022116,0.40012705,0.990769,0.5124422,-0.08157823,-0.21508321,0.37742135,0.69699234,0.27284503,0.16940369,0.6247046,0.5903773,0.10257882,0.37591738,0.5895032,0.034918427,-0.31723613,-0.033466008,0.08422038,743.8095,790.54944,805.05493,751.8681,636.2271,0.2080078125,0.2406005859375,0.964599609375,-2.684173583984375,4.284210205078125,-1.936492919921875,1,1.0,1.0,1.0,1.0,10.00
2024-10-11 20:42:08.461,0.70843023,0.19022116,0.40012705,0.990769,0.5124422,-0.08157823,-0.21508321,0.37742135,0.69699234,0.27284503,0.16940369,0.6247046,0.5903773,0.10257882,0.37591738,0.5895032,0.034918427,-0.31723613,-0.033466008,0.08422038,744.21246,793.36993,809.0842,764.35895,594.3223,0.2080078125,0.2406005859375,0.964599609375,-2.684173583984375,4.284210205078125,-1.936492919921875,1,1.0,1.0,1.0,1.0,10.00
2024-10-11 20:42:08.462,0.70843023,0.19022116,0.40012705,0.990769,0.5124422,-0.08157823,-0.21508321,0.37742135,0.69699234,0.27284503,0.16940369,0.6247046,0.5903773,0.10257882,0.37591738,0.5895032,0.034918427,-0.31723613,-0.033466008,0.08422038,751.8681,794.17584,806.26373,771.6117,892.0879,0.2080078125,0.2406005859375,0.964599609375,-2.684173583984375,4.284210205078125,-1.936492919921875,1,1.0,1.0,1.0,1.0,10.00
2024-10-11 20:42:08.463,0.70843023,0.19022116,0.40012705,0.990769,0.5124422,-0.08157823,-0.21508321,0.37742135,0.69699234,0.27284503,0.16940369,0.6247046,0.5903773,0.10257882,0.37591738,0.5895032,0.034918427,-0.31723613,-0.033466008,0.08422038,746.2271,795.38464,788.5348,756.7033,997.25275,0.2080078125,0.2406005859375,0.964599609375,-2.684173583984375,4.284210205078125,-1.936492919921875,1,1.0,1.0,1.0,1.0,10.00
2024-10-11 20:42:08.464,0.70843023,0.19022116,0.40012705,0.990769,0.5124422,-0.08157823,-0.21508321,0.37742135,0.69699234,0.27284503,0.16940369,0.6247046,0.5903773,0.10257882,0.37591738,0.5895032,0.034918427,-0.31723613,-0.033466008,0.08422038,736.1539,792.96704,785.7143,752.27106,682.1612,0.2080078125,0.2406005859375,0.964599609375,-2.684173583984375,4.284210205078125,-1.936492919921875,1,1.0,1.0,1.0,1.0,10.00
2024-10-11 20:42:08.465,0.70843023,0.19022116,0.40012705,0.990769,0.5124422,-0.08157823,-0.21508321,0.37742135,0.69699234,0.27284503,0.16940369,0.6247046,0.5903773,0.10257882,0.37591738,0.5895032,0.034918427,-0.31723613,-0.033466008,0.08422038,733.3333,794.17584,787.326,749.45056,587.0696,0.2080078125,0.2406005859375,0.964599609375,-2.684173583984375,4.284210205078125,-1.936492919921875,1,1.0,1.0,1.0,1.0,10.00
2024-10-11 20:42:08.465,0.70843023,0.19022116,0.40012705,0.990769,0.5124422,-0.08157823,-0.21508321,0.37742135,0.69699234,0.27284503,0.16940369,0.6247046,0.5903773,0.10257882,0.37591738,0.5895032,0.034918427,-0.31723613,-0.033466008,0.08422038,745.82416,795.78754,784.90845,752.674,835.2747,0.2080078125,0.2406005859375,0.964599609375,-2.684173583984375,4.284210205078125,-1.936492919921875,1,1.0,1.0,1.0,1.0,10.00
2024-10-11 20:42:08.466,0.70843023,0.19022116,0.40012705,0.990769,0.5124422,-0.08157823,-0.21508321,0.37742135,0.69699234,0.27284503,0.16940369,0.6247046,0.5903773,0.10257882,0.37591738,0.5895032,0.034918427,-0.31723613,-0.033466008,0.08422038,757.9121,794.9817,794.17584,759.12085,867.50916,0.2080078125,0.2406005859375,0.964599609375,-2.684173583984375,4.284210205078125,-1.936492919921875,1,1.0,1.0,1.0,1.0,10.00
2024-10-11 20:42:08.467,0.70843023,0.19022116,0.40012705,0.990769,0.5124422,-0.08157823,-0.21508321,0.37742135,0.69699234,0.27284503,0.16940369,0.6247046,0.5903773,0.10257882,0.37591738,0.5895032,0.034918427,-0.31723613,-0.033466008,0.08422038,765.16486,799.41394,805.05493,765.9707,639.45056,0.2080078125,0.2406005859375,0.964599609375,-2.684173583984375,4.284210205078125,-1.936492919921875,1,1.0,1.0,1.0,1.0,10.00
2024-10-11 20:42:08.468,0.70843023,0.19022116,0.40012705,0.990769,0.5124422,-0.08157823,-0.21508321,0.37742135,0.69699234,0.27284503,0.16940369,0.6247046,0.5903773,0.10257882,0.37591738,0.5895032,0.034918427,-0.31723613,-0.033466008,0.08422038,776.4469,798.60803,798.60803,770.40295,582.23444,0.1939697265625,0.234619140625,0.9732666015625,-4.53094482421875,6.766510009765625,-2.79632568359375,1,1.0,1.0,1.0,1.0,10.00
2024-10-11 20:42:08.468,0.70843023,0.19022116,0.40012705,0.990769,0.5124422,-0.08157823,-0.21508321,0.37742135,0.69699234,0.27284503,0.16940369,0.6247046,0.5903773,0.10257882,0.37591738,0.5895032,0.034918427,-0.31723613,-0.033466008,0.08422038,775.64105,794.57874,795.38464,771.2088,888.0586,0.1939697265625,0.234619140625,0.9732666015625,-4.53094482421875,6.766510009765625,-2.79632568359375,1,1.0,1.0,1.0,1.0,10.00
2024-10-11 20:42:08.469,0.70843023,0.19022116,0.40012705,0.990769,0.5124422,-0.08157823,-0.21508321,0.37742135,0.69699234,0.27284503,0.16940369,0.6247046,0.5903773,0.10257882,0.37591738,0.5895032,0.034918427,-0.31723613,-0.033466008,0.08422038,779.2674,796.1905,800.6227,775.2381,894.90845,0.1939697265625,0.234619140625,0.9732666015625,-4.53094482421875,6.766510009765625,-2.79632568359375,1,1.0,1.0,1.0,1.0,10.00
2024-10-11 20:42:08.470,0.70843023,0.19022116,0.40012705,0.990769,0.5124422,-0.08157823,-0.21508321,0.37742135,0.69699234,0.27284503,0.16940369,0.6247046,0.5903773,0.10257882,0.37591738,0.5895032,0.034918427,-0.31723613,-0.033466008,0.08422038,785.7143,794.17584,794.57874,772.8205,556.04395,0.1939697265625,0.234619140625,0.9732666015625,-4.53094482421875,6.766510009765625,-2.79632568359375,1,1.0,1.0,1.0,1.0,10.00
2024-10-11 20:42:08.471,0.70843023,0.19022116,0.40012705,0.990769,0.5124422,-0.08157823,-0.21508321,0.37742135,0.69699234,0.27284503,0.16940369,0.6247046,0.5903773,0.10257882,0.37591738,0.5895032,0.034918427,-0.31723613,-0.033466008,0.08422038,783.2967,792.1612,793.36993,773.6264,653.95605,0.1939697265625,0.234619140625,0.9732666015625,-4.53094482421875,6.766510009765625,-2.79632568359375,1,1.0,1.0,1.0,1.0,10.00
2024-10-11 20:42:08.471,0.70843023,0.19022116,0.40012705,0.990769,0.5124422,-0.08157823,-0.21508321,0.37742135,0.69699234,0.27284503,0.16940369,0.6247046,0.5903773,0.10257882,0.37591738,0.5895032,0.034918427,-0.31723613,-0.033466008,0.08422038,777.25275,795.78754,796.5934,777.6557,989.19415,0.1939697265625,0.234619140625,0.9732666015625,-4.53094482421875,6.766510009765625,-2.79632568359375,1,1.0,1.0,1.0,1.0,10.00
2024-10-11 20:42:08.472,0.70843023,0.19022116,0.40012705,0.990769,0.5124422,-0.08157823,-0.21508321,0.37742135,0.69699234,0.27284503,0.16940369,0.6247046,0.5903773,0.10257882,0.37591738,0.5895032,0.034918427,-0.31723613,-0.033466008,0.08422038,772.8205,796.1905,794.57874,782.0879,1004.5055,0.1939697265625,0.234619140625,0.9732666015625,-4.53094482421875,6.766510009765625,-2.79632568359375,1,1.0,1.0,1.0,1.0,10.00
2024-10-11 20:42:08.473,0.70843023,0.19022116,0.40012705,0.990769,0.5124422,-0.08157823,-0.21508321,0.37742135,0.69699234,0.27284503,0.16940369,0.6247046,0.5903773,0.10257882,0.37591738,0.5895032,0.034918427,-0.31723613,-0.033466008,0.08422038,777.25275,795.38464,791.75824,782.49084,764.35895,0.1939697265625,0.234619140625,0.9732666015625,-4.53094482421875,6.766510009765625,-2.79632568359375,1,1.0,1.0,1.0,1.0,10.00
2024-10-11 20:42:08.474,0.70843023,0.19022116,0.40012705,0.990769,0.5124422,-0.08157823,-0.21508321,0.37742135,0.69699234,0.27284503,0.16940369,0.6247046,0.5903773,0.10257882,0.37591738,0.5895032,0.034918427,-0.31723613,-0.033466008,0.08422038,786.52014,793.36993,796.5934,787.326,755.09155,0.1939697265625,0.234619140625,0.9732666015625,-4.53094482421875,6.766510009765625,-2.79632568359375,1,1.0,1.0,1.0,1.0,10.00
2024-10-11 20:42:08.474,0.70843023,0.17083268,0.40335095,0.9758981,0.5124422,-0.08552224,-0.20173343,0.4397404,0.69699234,0.27343944,0.19028065,0.63196224,0.5903773,0.104715824,0.38645828,0.5787056,0.034918427,-0.32474306,-0.015208927,0.10884589,796.99634,792.5641,805.4579,792.1612,973.47986,0.1939697265625,0.234619140625,0.9732666015625,-4.53094482421875,6.766510009765625,-2.79632568359375,1,1.0,1.0,1.0,1.0,10.00
2024-10-11 20:42:08.481,0.70843023,0.17083268,0.40335095,0.9758981,0.5124422,-0.08552224,-0.20173343,0.4397404,0.69699234,0.27343944,0.19028065,0.63196224,0.5903773,0.104715824,0.38645828,0.5787056,0.034918427,-0.32474306,-0.015208927,0.10884589,792.5641,786.1172,801.4286,787.72894,823.9927,0.1939697265625,0.234619140625,0.9732666015625,-4.53094482421875,6.766510009765625,-2.79632568359375,1,1.0,1.0,1.0,1.0,10.00
2024-10-11 20:42:08.482,0.70843023,0.17083268,0.40335095,0.9758981,0.5124422,-0.08552224,-0.20173343,0.4397404,0.69699234,0.27343944,0.19028065,0.63196224,0.5903773,0.104715824,0.38645828,0.5787056,0.034918427,-0.32474306,-0.015208927,0.10884589,783.2967,784.90845,801.8315,789.34064,609.2308,0.1939697265625,0.234619140625,0.9732666015625,-4.53094482421875,6.766510009765625,-2.79632568359375,1,1.0,1.0,1.0,1.0,10.00
2024-10-11 20:42:08.483,0.70843023,0.17083268,0.40335095,0.9758981,0.5124422,-0.08552224,-0.20173343,0.4397404,0.69699234,0.27343944,0.19028065,0.63196224,0.5903773,0.104715824,0.38645828,0.5787056,0.034918427,-0.32474306,-0.015208927,0.10884589,788.93774,793.7729,796.99634,786.1172,824.3956,0.1939697265625,0.234619140625,0.9732666015625,-4.53094482421875,6.766510009765625,-2.79632568359375,1,1.0,1.0,1.0,1.0,10.00
2024-10-11 20:42:08.484,0.70843023,0.17083268,0.40335095,0.9758981,0.5124422,-0.08552224,-0.20173343,0.4397404,0.69699234,0.27343944,0.19028065,0.63196224,0.5903773,0.104715824,0.38645828,0.5787056,0.034918427,-0.32474306,-0.015208927,0.10884589,790.9524,794.17584,787.326,784.5055,990.0,0.1939697265625,0.234619140625,0.9732666015625,-4.53094482421875,6.766510009765625,-2.79632568359375,1,1.0,1.0,1.0,1.0,10.00
2024-10-11 20:42:08.484,0.70843023,0.17083268,0.40335095,0.9758981,0.5124422,-0.08552224,-0.20173343,0.4397404,0.69699234,0.27343944,0.19028065,0.63196224,0.5903773,0.104715824,0.38645828,0.5787056,0.034918427,-0.32474306,-0.015208927,0.10884589,792.1612,796.1905,784.5055,781.685,801.8315,0.1939697265625,0.234619140625,0.9732666015625,-4.53094482421875,6.766510009765625,-2.79632568359375,1,1.0,1.0,1.0,1.0,10.00
2024-10-11 20:42:08.485,0.70843023,0.17083268,0.40335095,0.9758981,0.5124422,-0.08552224,-0.20173343,0.4397404,0.69699234,0.27343944,0.19028065,0.63196224,0.5903773,0.104715824,0.38645828,0.5787056,0.034918427,-0.32474306,-0.015208927,0.10884589,788.1319,793.36993,788.5348,780.07324,710.3663,0.1939697265625,0.234619140625,0.9732666015625,-4.53094482421875,6.766510009765625,-2.79632568359375,1,1.0,1.0,1.0,1.0,10.00
2024-10-11 20:42:08.486,0.70843023,0.17083268,0.40335095,0.9758981,0.5124422,-0.08552224,-0.20173343,0.4397404,0.69699234,0.27343944,0.19028065,0.63196224,0.5903773,0.104715824,0.38645828,0.5787056,0.034918427,-0.32474306,-0.015208927,0.10884589,785.31134,785.31134,792.96704,782.8938,950.9158,0.1939697265625,0.234619140625,0.9732666015625,-4.53094482421875,6.766510009765625,-2.79632568359375,1,1.0,1.0,1.0,1.0,10.00
2024-10-11 20:42:08.486,0.70843023,0.17083268,0.40335095,0.9758981,0.5124422,-0.08552224,-0.20173343,0.4397404,0.69699234,0.27343944,0.19028065,0.63196224,0.5903773,0.104715824,0.38645828,0.5787056,0.034918427,-0.32474306,-0.015208927,0.10884589,782.0879,786.9231,791.3553,778.0586,1149.5604,0.1939697265625,0.234619140625,0.9732666015625,-4.53094482421875,6.766510009765625,-2.79632568359375,1,1.0,1.0,1.0,1.0,10.00
2024-10-11 20:42:08.487,0.70843023,0.17083268,0.40335095,0.9758981,0.5124422,-0.08552224,-0.20173343,0.4397404,0.69699234,0.27343944,0.19028065,0.63196224,0.5903773,0.104715824,0.38645828,0.5787056,0.034918427,-0.32474306,-0.015208927,0.10884589,784.5055,793.36993,787.326,780.87915,866.7033,0.1939697265625,0.234619140625,0.9732666015625,-4.53094482421875,6.766510009765625,-2.79632568359375,1,1.0,1.0,1.0,1.0,10.00
2024-10-11 20:42:08.488,0.70843023,0.17083268,0.40335095,0.9758981,0.5124422,-0.08552224,-0.20173343,0.4397404,0.69699234,0.27343944,0.19028065,0.63196224,0.5903773,0.104715824,0.38645828,0.5787056,0.034918427,-0.32474306,-0.015208927,0.10884589,787.326,791.75824,791.3553,790.9524,776.4469,0.1939697265625,0.234619140625,0.9732666015625,-4.53094482421875,6.766510009765625,-2.79632568359375,1,1.0,1.0,1.0,1.0,10.00
2024-10-11 20:42:08.489,0.70843023,0.17083268,0.40335095,0.9758981,0.5124422,-0.08552224,-0.20173343,0.4397404,0.69699234,0.27343944,0.19028065,0.63196224,0.5903773,0.104715824,0.38645828,0.5787056,0.034918427,-0.32474306,-0.015208927,0.10884589,790.14655,785.31134,801.02563,790.14655,890.87915,0.1939697265625,0.234619140625,0.9732666015625,-4.53094482421875,6.766510009765625,-2.79632568359375,1,1.0,1.0,1.0,1.0,10.00
2024-10-11 20:42:08.489,0.70843023,0.17083268,0.40335095,0.9758981,0.5124422,-0.08552224,-0.20173343,0.4397404,0.69699234,0.27343944,0.19028065,0.63196224,0.5903773,0.104715824,0.38645828,0.5787056,0.034918427,-0.32474306,-0.015208927,0.10884589,795.38464,785.31134,801.8315,792.5641,851.79486,0.1939697265625,0.234619140625,0.9732666015625,-4.53094482421875,6.766510009765625,-2.79632568359375,1,1.0,1.0,1.0,1.0,10.00
2024-10-11 20:42:08.490,0.70843023,0.17083268,0.40335095,0.9758981,0.5124422,-0.08552224,-0.20173343,0.4397404,0.69699234,0.27343944,0.19028065,0.63196224,0.5903773,0.104715824,0.38645828,0.5787056,0.034918427,-0.32474306,-0.015208927,0.10884589,792.5641,796.1905,805.8608,798.20514,699.89014,0.1939697265625,0.234619140625,0.9732666015625,-4.53094482421875,6.766510009765625,-2.79632568359375,1,1.0,1.0,1.0,1.0,10.00
2024-10-11 20:42:08.491,0.70843023,0.17083268,0.40335095,0.9758981,0.5124422,-0.08552224,-0.20173343,0.4397404,0.69699234,0.27343944,0.19028065,0.63196224,0.5903773,0.104715824,0.38645828,0.5787056,0.034918427,-0.32474306,-0.015208927,0.10884589,797.3993,799.011,806.6667,802.6374,693.8461,0.1939697265625,0.234619140625,0.9732666015625,-4.53094482421875,6.766510009765625,-2.79632568359375,1,1.0,1.0,1.0,1.0,10.00
2024-10-11 20:42:08.521,0.70843023,0.17083268,0.40335095,0.9758981,0.5124422,-0.08552224,-0.20173343,0.4397404,0.69699234,0.27343944,0.19028065,0.63196224,0.5903773,0.104715824,0.38645828,0.5787056,0.034918427,-0.32474306,-0.015208927,0.10884589,799.41394,799.41394,799.011,806.26373,829.2308,0.1881103515625,0.22119140625,0.97222900390625,-6.878662109375,7.55157470703125,-1.727142333984375,1,1.0,1.0,1.0,1.0,10.00
2024-10-11 20:42:08.522,0.70843023,0.17083268,0.40335095,0.9758981,0.5124422,-0.08552224,-0.20173343,0.4397404,0.69699234,0.27343944,0.19028065,0.63196224,0.5903773,0.104715824,0.38645828,0.5787056,0.034918427,-0.32474306,-0.015208927,0.10884589,798.60803,795.78754,800.6227,808.2784,846.9597,0.1881103515625,0.22119140625,0.97222900390625,-6.878662109375,7.55157470703125,-1.727142333984375,1,1.0,1.0,1.0,1.0,10.00
2024-10-11 20:42:08.523,0.70843023,0.17083268,0.40335095,0.9758981,0.5124422,-0.08552224,-0.20173343,0.4397404,0.69699234,0.27343944,0.19028065,0.63196224,0.5903773,0.104715824,0.38645828,0.5787056,0.034918427,-0.32474306,-0.015208927,0.10884589,806.26373,789.7436,803.44324,813.1135,739.7802,0.1881103515625,0.22119140625,0.97222900390625,-6.878662109375,7.55157470703125,-1.727142333984375,1,1.0,1.0,1.0,1.0,10.00
2024-10-11 20:42:08.524,0.70843023,0.17083268,0.40335095,0.9758981,0.5124422,-0.08552224,-0.20173343,0.4397404,0.69699234,0.27343944,0.19028065,0.63196224,0.5903773,0.104715824,0.38645828,0.5787056,0.034918427,-0.32474306,-0.015208927,0.10884589,803.0403,790.9524,802.23444,813.1135,809.89014,0.1881103515625,0.22119140625,0.97222900390625,-6.878662109375,7.55157470703125,-1.727142333984375,1,1.0,1.0,1.0,1.0,10.00
2024-10-11 20:42:08.525,0.70843023,0.17083268,0.40335095,0.9758981,0.5124422,-0.08552224,-0.20173343,0.4397404,0.69699234,0.27343944,0.19028065,0.63196224,0.5903773,0.104715824,0.38645828,0.5787056,0.034918427,-0.32474306,-0.015208927,0.10884589,803.44324,794.9817,804.65204,807.8755,948.49817,0.1881103515625,0.22119140625,0.97222900390625,-6.878662109375,7.55157470703125,-1.727142333984375,1,1.0,1.0,1.0,1.0,10.00
2024-10-11 20:42:08.526,0.70843023,0.17083268,0.40335095,0.9758981,0.5124422,-0.08552224,-0.20173343,0.4397404,0.69699234,0.27343944,0.19028065,0.63196224,0.5903773,0.104715824,0.38645828,0.5787056,0.034918427,-0.32474306,-0.015208927,0.10884589,802.23444,793.36993,806.26373,808.68134,960.18317,0.1881103515625,0.22119140625,0.97222900390625,-6.878662109375,7.55157470703125,-1.727142333984375,1,1.0,1.0,1.0,1.0,10.00
2024-10-11 20:42:08.527,0.70843023,0.17083268,0.40335095,0.9758981,0.5124422,-0.08552224,-0.20173343,0.4397404,0.69699234,0.27343944,0.19028065,0.63196224,0.5903773,0.104715824,0.38645828,0.5787056,0.034918427,-0.32474306,-0.015208927,0.10884589,798.20514,796.5934,800.2198,803.0403,885.2381,0.1881103515625,0.22119140625,0.97222900390625,-6.878662109375,7.55157470703125,-1.727142333984375,1,1.0,1.0,1.0,1.0,10.00
2024-10-11 20:42:08.528,0.70843023,0.17083268,0.40335095,0.9758981,0.5124422,-0.08552224,-0.20173343,0.4397404,0.69699234,0.27343944,0.19028065,0.63196224,0.5903773,0.104715824,0.38645828,0.5787056,0.034918427,-0.32474306,-0.015208927,0.10884589,796.99634,801.02563,799.41394,798.60803,932.7839,0.1881103515625,0.22119140625,0.97222900390625,-6.878662109375,7.55157470703125,-1.727142333984375,1,1.0,1.0,1.0,1.0,10.00
2024-10-11 20:42:08.529,0.70843023,0.17083268,0.40335095,0.9758981,0.5124422,-0.08552224,-0.20173343,0.4397404,0.69699234,0.27343944,0.19028065,0.63196224,0.5903773,0.104715824,0.38645828,0.5787056,0.034918427,-0.32474306,-0.015208927,0.10884589,795.38464,798.20514,804.2491,804.2491,980.32965,0.1881103515625,0.22119140625,0.97222900390625,-6.878662109375,7.55157470703125,-1.727142333984375,1,1.0,1.0,1.0,1.0,10.00
2024-10-11 20:42:08.530,0.70843023,0.17083268,0.40335095,0.9758981,0.5124422,-0.08552224,-0.20173343,0.4397404,0.69699234,0.27343944,0.19028065,0.63196224,0.5903773,0.104715824,0.38645828,0.5787056,0.034918427,-0.32474306,-0.015208927,0.10884589,790.14655,794.17584,799.41394,799.81683,781.28204,0.1881103515625,0.22119140625,0.97222900390625,-6.878662109375,7.55157470703125,-1.727142333984375,1,1.0,1.0,1.0,1.0,10.00
2024-10-11 20:42:08.531,0.70843023,0.17083268,0.40335095,0.9758981,0.5124422,-0.08552224,-0.20173343,0.4397404,0.69699234,0.27343944,0.19028065,0.63196224,0.5903773,0.104715824,0.38645828,0.5787056,0.034918427,-0.32474306,-0.015208927,0.10884589,793.36993,793.7729,805.4579,808.68134,697.0696,0.1881103515625,0.22119140625,0.97222900390625,-6.878662109375,7.55157470703125,-1.727142333984375,1,1.0,1.0,1.0,1.0,10.00
2024-10-11 20:42:08.532,0.70843023,0.1616683,0.41409543,0.9758981,0.5124422,-0.09393973,-0.16769366,0.4397404,0.69699234,0.27343944,0.19132961,0.63196224,0.5903773,0.10922501,0.39570847,0.5787056,0.034918427,-0.32936162,-0.0069634775,0.10884589,810.293,792.96704,802.23444,817.5458,819.9634,0.1881103515625,0.22119140625,0.97222900390625,-6.878662109375,7.55157470703125,-1.727142333984375,1,1.0,1.0,1.0,1.0,10.00
2024-10-11 20:42:08.538,0.70843023,0.1616683,0.41409543,0.9758981,0.5124422,-0.09393973,-0.16769366,0.4397404,0.69699234,0.27343944,0.19132961,0.63196224,0.5903773,0.10922501,0.39570847,0.5787056,0.034918427,-0.32936162,-0.0069634775,0.10884589,807.0696,791.3553,799.81683,813.1135,1127.3993,0.18017578125,0.1981201171875,0.9759521484375,-8.4039306640625,7.0281982421875,3.30474853515625,1,1.0,1.0,1.0,1.0,10.00
2024-10-11 20:42:08.539,0.70843023,0.1616683,0.41409543,0.9758981,0.5124422,-0.09393973,-0.16769366,0.4397404,0.69699234,0.27343944,0.19132961,0.63196224,0.5903773,0.10922501,0.39570847,0.5787056,0.034918427,-0.32936162,-0.0069634775,0.10884589,796.99634,792.5641,802.23444,819.5604,1213.6263,0.18017578125,0.1981201171875,0.9759521484375,-8.4039306640625,7.0281982421875,3.30474853515625,1,1.0,1.0,1.0,1.0,10.00
2024-10-11 20:42:08.540,0.70843023,0.1616683,0.41409543,0.9758981,0.5124422,-0.09393973,-0.16769366,0.4397404,0.69699234,0.27343944,0.19132961,0.63196224,0.5903773,0.10922501,0.39570847,0.5787056,0.034918427,-0.32936162,-0.0069634775,0.10884589,791.3553,794.17584,800.2198,815.5311,1088.3151,0.18017578125,0.1981201171875,0.9759521484375,-8.4039306640625,7.0281982421875,3.30474853515625,1,1.0,1.0,1.0,1.0,10.00
2024-10-11 20:42:08.540,0.70843023,0.1616683,0.41409543,0.9758981,0.5124422,-0.09393973,-0.16769366,0.4397404,0.69699234,0.27343944,0.19132961,0.63196224,0.5903773,0.10922501,0.39570847,0.5787056,0.034918427,-0.32936162,-0.0069634775,0.10884589,792.5641,796.5934,800.6227,814.3223,1000.07324,0.18017578125,0.1981201171875,0.9759521484375,-8.4039306640625,7.0281982421875,3.30474853515625,1,1.0,1.0,1.0,1.0,10.00
2024-10-11 20:42:08.541,0.70843023,0.1616683,0.41409543,0.9758981,0.5124422,-0.09393973,-0.16769366,0.4397404,0.69699234,0.27343944,0.19132961,0.63196224,0.5903773,0.10922501,0.39570847,0.5787056,0.034918427,-0.32936162,-0.0069634775,0.10884589,801.02563,790.9524,799.81683,814.3223,950.5128,0.18017578125,0.1981201171875,0.9759521484375,-8.4039306640625,7.0281982421875,3.30474853515625,1,1.0,1.0,1.0,1.0,10.00
2024-10-11 20:42:08.542,0.70843023,0.1616683,0.41409543,0.9758981,0.5124422,-0.09393973,-0.16769366,0.4397404,0.69699234,0.27343944,0.19132961,0.63196224,0.5903773,0.10922501,0.39570847,0.5787056,0.034918427,-0.32936162,-0.0069634775,0.10884589,794.17584,792.1612,810.293,805.8608,813.1135,0.18017578125,0.1981201171875,0.9759521484375,-8.4039306640625,7.0281982421875,3.30474853515625,1,1.0,1.0,1.0,1.0,10.00
2024-10-11 20:42:08.543,0.70843023,0.1616683,0.41409543,0.9758981,0.5124422,-0.09393973,-0.16769366,0.4397404,0.69699234,0.27343944,0.19132961,0.63196224,0.5903773,0.10922501,0.39570847,0.5787056,0.034918427,-0.32936162,-0.0069634775,0.10884589,791.3553,794.17584,814.3223,805.8608,774.0293,0.18017578125,0.1981201171875,0.9759521484375,-8.4039306640625,7.0281982421875,3.30474853515625,1,1.0,1.0,1.0,1.0,10.00
2024-10-11 20:42:08.545,0.70843023,0.1616683,0.41409543,0.9758981,0.5124422,-0.09393973,-0.16769366,0.4397404,0.69699234,0.27343944,0.19132961,0.63196224,0.5903773,0.10922501,0.39570847,0.5787056,0.034918427,-0.32936162,-0.0069634775,0.10884589,793.36993,791.3553,809.4872,801.4286,822.7839,0.18017578125,0.1981201171875,0.9759521484375,-8.4039306640625,7.0281982421875,3.30474853515625,1,1.0,1.0,1.0,1.0,10.00
2024-10-11 20:42:08.546,0.70843023,0.1616683,0.41409543,0.9758981,0.5124422,-0.09393973,-0.16769366,0.4397404,0.69699234,0.27343944,0.19132961,0.63196224,0.5903773,0.10922501,0.39570847,0.5787056,0.034918427,-0.32936162,-0.0069634775,0.10884589,789.34064,794.57874,804.2491,804.65204,762.3443,0.18017578125,0.1981201171875,0.9759521484375,-8.4039306640625,7.0281982421875,3.30474853515625,1,1.0,1.0,1.0,1.0,10.00
2024-10-11 20:42:08.547,0.70843023,0.1616683,0.41409543,0.9758981,0.5124422,-0.09393973,-0.16769366,0.4397404,0.69699234,0.27343944,0.19132961,0.63196224,0.5903773,0.10922501,0.39570847,0.5787056,0.034918427,-0.32936162,-0.0069634775,0.10884589,793.36993,800.2198,805.4579,803.8461,637.8388,0.18017578125,0.1981201171875,0.9759521484375,-8.4039306640625,7.0281982421875,3.30474853515625,1,1.0,1.0,1.0,1.0,10.00
2024-10-11 20:42:08.548,0.70843023,0.1616683,0.41409543,0.9758981,0.5124422,-0.09393973,-0.16769366,0.4397404,0.69699234,0.27343944,0.19132961,0.63196224,0.5903773,0.10922501,0.39570847,0.5787056,0.034918427,-0.32936162,-0.0069634775,0.10884589,799.011,798.60803,803.0403,793.7729,556.8498,0.18017578125,0.1981201171875,0.9759521484375,-8.4039306640625,7.0281982421875,3.30474853515625,1,1.0,1.0,1.0,1.0,10.00
2024-10-11 20:42:08.549,0.70843023,0.1616683,0.41409543,0.9758981,0.5124422,-0.09393973,-0.16769366,0.4397404,0.69699234,0.27343944,0.19132961,0.63196224,0.5903773,0.10922501,0.39570847,0.5787056,0.034918427,-0.32936162,-0.0069634775,0.10884589,805.4579,794.17584,801.4286,804.65204,843.3333,0.18017578125,0.1981201171875,0.9759521484375,-8.4039306640625,7.0281982421875,3.30474853515625,1,1.0,1.0,1.0,1.0,10.00
2024-10-11 20:42:08.582,0.70843023,0.1616683,0.41409543,0.9758981,0.5124422,-0.09393973,-0.16769366,0.4397404,0.69699234,0.27343944,0.19132961,0.63196224,0.5903773,0.10922501,0.39570847,0.5787056,0.034918427,-0.32936162,-0.0069634775,0.10884589,800.6227,791.75824,804.2491,811.50183,1072.6007,0.173828125,0.18316650390625,0.96795654296875,-8.321685791015625,7.544097900390625,8.194580078125,1,1.0,1.0,1.0,1.0,10.00
2024-10-11 20:42:08.583,0.70843023,0.1616683,0.41409543,0.9758981,0.5124422,-0.09393973,-0.16769366,0.4397404,0.69699234,0.27343944,0.19132961,0.63196224,0.5903773,0.10922501,0.39570847,0.5787056,0.034918427,-0.32936162,-0.0069634775,0.10884589,796.5934,790.9524,802.23444,800.2198,762.3443,0.173828125,0.18316650390625,0.96795654296875,-8.321685791015625,7.544097900390625,8.194580078125,1,1.0,1.0,1.0,1.0,10.00
2024-10-11 20:42:08.584,0.70843023,0.1616683,0.41409543,0.9758981,0.5124422,-0.09393973,-0.16769366,0.4397404,0.69699234,0.27343944,0.19132961,0.63196224,0.5903773,0.10922501,0.39570847,0.5787056,0.034918427,-0.32936162,-0.0069634775,0.10884589,790.14655,789.34064,796.5934,796.5934,650.7326,0.173828125,0.18316650390625,0.96795654296875,-8.321685791015625,7.544097900390625,8.194580078125,1,1.0,1.0,1.0,1.0,10.00
2024-10-11 20:42:08.585,0.70843023,0.1616683,0.41409543,0.9758981,0.5124422,-0.09393973,-0.16769366,0.4397404,0.69699234,0.27343944,0.19132961,0.63196224,0.5903773,0.10922501,0.39570847,0.5787056,0.034918427,-0.32936162,-0.0069634775,0.10884589,791.3553,790.54944,796.1905,800.6227,695.05493,0.173828125,0.18316650390625,0.96795654296875,-8.321685791015625,7.544097900390625,8.194580078125,1,1.0,1.0,1.0,1.0,10.00
2024-10-11 20:42:08.586,0.70843023,0.1616683,0.41409543,0.9758981,0.5124422,-0.09393973,-0.16769366,0.4397404,0.69699234,0.27343944,0.19132961,0.63196224,0.5903773,0.10922501,0.39570847,0.5787056,0.034918427,-0.32936162,-0.0069634775,0.10884589,796.5934,797.8022,804.65204,803.44324,719.2308,0.173828125,0.18316650390625,0.96795654296875,-8.321685791015625,7.544097900390625,8.194580078125,1,1.0,1.0,1.0,1.0,10.00
2024-10-11 20:42:08.587,0.70843023,0.1616683,0.41409543,0.9758981,0.5124422,-0.09393973,-0.16769366,0.4397404,0.69699234,0.27343944,0.19132961,0.63196224,0.5903773,0.10922501,0.39570847,0.5787056,0.034918427,-0.32936162,-0.0069634775,0.10884589,798.60803,799.011,807.47253,800.6227,741.39197,0.173828125,0.18316650390625,0.96795654296875,-8.321685791015625,7.544097900390625,8.194580078125,1,1.0,1.0,1.0,1.0,10.00
2024-10-11 20:42:08.588,0.70843023,0.1616683,0.41409543,0.9758981,0.5124422,-0.09393973,-0.16769366,0.4397404,0.69699234,0.27343944,0.19132961,0.63196224,0.5903773,0.10922501,0.39570847,0.5787056,0.034918427,-0.32936162,-0.0069634775,0.10884589,808.2784,794.57874,807.8755,800.6227,809.0842,0.173828125,0.18316650390625,0.96795654296875,-8.321685791015625,7.544097900390625,8.194580078125,1,1.0,1.0,1.0,1.0,10.00
2024-10-11 20:42:08.588,0.70843023,0.1616683,0.41409543,0.9758981,0.5124422,-0.09393973,-0.16769366,0.4397404,0.69699234,0.27343944,0.19132961,0.63196224,0.5903773,0.10922501,0.39570847,0.5787056,0.034918427,-0.32936162,-0.0069634775,0.10884589,800.6227,796.5934,800.6227,808.68134,917.47253,0.173828125,0.18316650390625,0.96795654296875,-8.321685791015625,7.544097900390625,8.194580078125,1,1.0,1.0,1.0,1.0,10.00
2024-10-11 20:42:08.589,0.70843023,0.1616683,0.41409543,0.9758981,0.5124422,-0.09393973,-0.16769366,0.4397404,0.69699234,0.27343944,0.19132961,0.63196224,0.5903773,0.10922501,0.39570847,0.5787056,0.034918427,-0.32936162,-0.0069634775,0.10884589,798.20514,807.47253,801.8315,808.68134,734.94507,0.173828125,0.18316650390625,0.96795654296875,-8.321685791015625,7.544097900390625,8.194580078125,1,1.0,1.0,1.0,1.0,10.00
2024-10-11 20:42:08.590,0.70843023,0.1616683,0.41409543,0.9758981,0.5124422,-0.09393973,-0.16769366,0.4397404,0.69699234,0.27343944,0.19132961,0.63196224,0.5903773,0.10922501,0.39570847,0.5787056,0.034918427,-0.32936162,-0.0069634775,0.10884589,805.8608,808.68134,809.4872,800.2198,480.69598,0.173828125,0.18316650390625,0.96795654296875,-8.321685791015625,7.544097900390625,8.194580078125,1,1.0,1.0,1.0,1.0,10.00
2024-10-11 20:42:08.591,0.70843023,0.1616683,0.41409543,0.9758981,0.5124422,-0.09393973,-0.16769366,0.4397404,0.69699234,0.27343944,0.19132961,0.63196224,0.5903773,0.10922501,0.39570847,0.5787056,0.034918427,-0.32936162,-0.0069634775,0.10884589,797.3993,797.3993,803.0403,796.5934,585.05493,0.173828125,0.18316650390625,0.96795654296875,-8.321685791015625,7.544097900390625,8.194580078125,1,1.0,1.0,1.0,1.0,10.00
2024-10-11 20:42:08.592,0.70843023,0.1616683,0.41409543,0.9758981,0.5124422,-0.09393973,-0.16769366,0.4397404,0.69699234,0.27343944,0.19132961,0.63196224,0.5903773,0.10922501,0.39570847,0.5787056,0.034918427,-0.32936162,-0.0069634775,0.10884589,797.3993,794.17584,796.5934,792.1612,660.80585,0.173828125,0.18316650390625,0.96795654296875,-8.321685791015625,7.544097900390625,8.194580078125,1,1.0,1.0,1.0,1.0,10.00
2024-10-11 20:42:08.625,0.70843023,0.1616683,0.41409543,0.9758981,0.5124422,-0.09393973,-0.16769366,0.4397404,0.69699234,0.27343944,0.19132961,0.63196224,0.5903773,0.10922501,0.39570847,0.5787056,0.034918427,-0.32936162,-0.0069634775,0.10884589,794.17584,795.38464,797.8022,790.9524,588.2784,0.15948486328125,0.1683349609375,0.9776611328125,-6.17584228515625,8.680572509765625,11.304931640625,1,1.0,1.0,1.0,1.0,10.00
2024-10-11 20:42:08.626,0.70843023,0.15563543,0.423271,0.9758981,0.5124422,-0.10472782,-0.1254765,0.4397404,0.69699234,0.27343944,0.19289303,0.63196224,0.5903773,0.109716535,0.4031946,0.5787056,0.034918427,-0.33362627,-0.007171041,0.10884589,792.5641,794.17584,798.60803,792.1612,719.6337,0.15948486328125,0.1683349609375,0.9776611328125,-6.17584228515625,8.680572509765625,11.304931640625,1,1.0,1.0,1.0,1.0,10.00
2024-10-11 20:42:08.633,0.70843023,0.15563543,0.423271,0.9758981,0.5124422,-0.10472782,-0.1254765,0.4397404,0.69699234,0.27343944,0.19289303,0.63196224,0.5903773,0.109716535,0.4031946,0.5787056,0.034918427,-0.33362627,-0.007171041,0.10884589,802.23444,790.14655,795.38464,792.5641,795.38464,0.15948486328125,0.1683349609375,0.9776611328125,-6.17584228515625,8.680572509765625,11.304931640625,1,1.0,1.0,1.0,1.0,10.00
2024-10-11 20:42:08.634,0.70843023,0.15563543,0.423271,0.9758981,0.5124422,-0.10472782,-0.1254765,0.4397404,0.69699234,0.27343944,0.19289303,0.63196224,0.5903773,0.109716535,0.4031946,0.5787056,0.034918427,-0.33362627,-0.007171041,0.10884589,805.05493,793.7729,794.57874,793.36993,718.8278,0.15948486328125,0.1683349609375,0.9776611328125,-6.17584228515625,8.680572509765625,11.304931640625,1,1.0,1.0,1.0,1.0,10.00
2024-10-11 20:42:08.635,0.70843023,0.15563543,0.423271,0.9758981,0.5124422,-0.10472782,-0.1254765,0.4397404,0.69699234,0.27343944,0.19289303,0.63196224,0.5903773,0.109716535,0.4031946,0.5787056,0.034918427,-0.33362627,-0.007171041,0.10884589,803.44324,798.20514,795.78754,792.5641,644.2857,0.15948486328125,0.1683349609375,0.9776611328125,-6.17584228515625,8.680572509765625,11.304931640625,1,1.0,1.0,1.0,1.0,10.00
2024-10-11 20:42:08.636,0.70843023,0.15563543,0.423271,0.9758981,0.5124422,-0.10472782,-0.1254765,0.4397404,0.69699234,0.27343944,0.19289303,0.63196224,0.5903773,0.109716535,0.4031946,0.5787056,0.034918427,-0.33362627,-0.007171041,0.10884589,806.26373,792.5641,792.5641,800.6227,692.6374,0.15948486328125,0.1683349609375,0.9776611328125,-6.17584228515625,8.680572509765625,11.304931640625,1,1.0,1.0,1.0,1.0,10.00
2024-10-11 20:42:08.636,0.70843023,0.15563543,0.423271,0.9758981,0.5124422,-0.10472782,-0.1254765,0.4397404,0.69699234,0.27343944,0.19289303,0.63196224,0.5903773,0.109716535,0.4031946,0.5787056,0.034918427,-0.33362627,-0.007171041,0.10884589,795.78754,794.17584,793.36993,803.8461,983.5531,0.15948486328125,0.1683349609375,0.9776611328125,-6.17584228515625,8.680572509765625,11.304931640625,1,1.0,1.0,1.0,1.0,10.00
2024-10-11 20:42:08.637,0.70843023,0.15563543,0.423271,0.9758981,0.5124422,-0.10472782,-0.1254765,0.4397404,0.69699234,0.27343944,0.19289303,0.63196224,0.5903773,0.109716535,0.4031946,0.5787056,0.034918427,-0.33362627,-0.007171041,0.10884589,788.5348,798.60803,794.9817,799.81683,1135.0549,0.15948486328125,0.1683349609375,0.9776611328125,-6.17584228515625,8.680572509765625,11.304931640625,1,1.0,1.0,1.0,1.0,10.00
2024-10-11 20:42:08.638,0.70843023,0.15563543,0.423271,0.9758981,0.5124422,-0.10472782,-0.1254765,0.4397404,0.69699234,0.27343944,0.19289303,0.63196224,0.5903773,0.109716535,0.4031946,0.5787056,0.034918427,-0.33362627,-0.007171041,0.10884589,809.4872,797.3993,805.05493,811.50183,769.59705,0.15948486328125,0.1683349609375,0.9776611328125,-6.17584228515625,8.680572509765625,11.304931640625,1,1.0,1.0,1.0,1.0,10.00
2024-10-11 20:42:08.639,0.70843023,0.15563543,0.423271,0.9758981,0.5124422,-0.10472782,-0.1254765,0.4397404,0.69699234,0.27343944,0.19289303,0.63196224,0.5903773,0.109716535,0.4031946,0.5787056,0.034918427,-0.33362627,-0.007171041,0.10884589,827.2161,790.9524,811.50183,819.9634,595.5311,0.15948486328125,0.1683349609375,0.9776611328125,-6.17584228515625,8.680572509765625,11.304931640625,1,1.0,1.0,1.0,1.0,10.00
2024-10-11 20:42:08.639,0.70843023,0.15563543,0.423271,0.9758981,0.5124422,-0.10472782,-0.1254765,0.4397404,0.69699234,0.27343944,0.19289303,0.63196224,0.5903773,0.109716535,0.4031946,0.5787056,0.034918427,-0.33362627,-0.007171041,0.10884589,819.15753,784.90845,804.2491,815.5311,723.663,0.15948486328125,0.1683349609375,0.9776611328125,-6.17584228515625,8.680572509765625,11.304931640625,1,1.0,1.0,1.0,1.0,10.00
2024-10-11 20:42:08.640,0.70843023,0.15563543,0.423271,0.9758981,0.5124422,-0.10472782,-0.1254765,0.4397404,0.69699234,0.27343944,0.19289303,0.63196224,0.5903773,0.109716535,0.4031946,0.5787056,0.034918427,-0.33362627,-0.007171041,0.10884589,804.2491,790.14655,798.60803,805.05493,749.85345,0.15948486328125,0.1683349609375,0.9776611328125,-6.17584228515625,8.680572509765625,11.304931640625,1,1.0,1.0,1.0,1.0,10.00
2024-10-11 20:42:08.669,0.70843023,0.15563543,0.423271,0.9758981,0.5124422,-0.10472782,-0.1254765,0.4397404,0.69699234,0.27343944,0.19289303,0.63196224,0.5903773,0.109716535,0.4031946,0.5787056,0.034918427,-0.33362627,-0.007171041,0.10884589,801.02563,794.57874,805.05493,801.8315,638.6447,0.15948486328125,0.1683349609375,0.9776611328125,-6.17584228515625,8.680572509765625,11.304931640625,1,1.0,1.0,1.0,1.0,10.00
2024-10-11 20:42:08.670,0.70843023,0.15563543,0.423271,0.9758981,0.5124422,-0.10472782,-0.1254765,0.4397404,0.69699234,0.27343944,0.19289303,0.63196224,0.5903773,0.109716535,0.4031946,0.5787056,0.034918427,-0.33362627,-0.007171041,0.10884589,801.8315,789.7436,811.0989,801.02563,624.5421,0.15948486328125,0.1683349609375,0.9776611328125,-6.17584228515625,8.680572509765625,11.304931640625,1,1.0,1.0,1.0,1.0,10.00
2024-10-11 20:42:08.671,0.70843023,0.15563543,0.423271,0.9758981,0.5124422,-0.10472782,-0.1254765,0.4397404,0.69699234,0.27343944,0.19289303,0.63196224,0.5903773,0.109716535,0.4031946,0.5787056,0.034918427,-0.33362627,-0.007171041,0.10884589,817.5458,786.9231,807.47253,809.4872,676.52014,0.15948486328125,0.1683349609375,0.9776611328125,-6.17584228515625,8.680572509765625,11.304931640625,1,1.0,1.0,1.0,1.0,10.00
2024-10-11 20:42:08.671,0.70843023,0.15563543,0.423271,0.9758981,0.5124422,-0.10472782,-0.1254765,0.4397404,0.69699234,0.27343944,0.19289303,0.63196224,0.5903773,0.109716535,0.4031946,0.5787056,0.034918427,-0.33362627,-0.007171041,0.10884589,822.7839,785.31134,805.4579,824.3956,639.45056,0.15948486328125,0.1683349609375,0.9776611328125,-6.17584228515625,8.680572509765625,11.304931640625,1,1.0,1.0,1.0,1.0,10.00
2024-10-11 20:42:08.672,0.70843023,0.15563543,0.423271,0.9758981,0.5124422,-0.10472782,-0.1254765,0.4397404,0.69699234,0.27343944,0.19289303,0.63196224,0.5903773,0.109716535,0.4031946,0.5787056,0.034918427,-0.33362627,-0.007171041,0.10884589,803.0403,788.5348,810.696,825.6044,587.0696,0.15948486328125,0.1683349609375,0.9776611328125,-6.17584228515625,8.680572509765625,11.304931640625,1,1.0,1.0,1.0,1.0,10.00
2024-10-11 20:42:08.673,0.70843023,0.15563543,0.423271,0.9758981,0.5124422,-0.10472782,-0.1254765,0.4397404,0.69699234,0.27343944,0.19289303,0.63196224,0.5903773,0.109716535,0.4031946,0.5787056,0.034918427,-0.33362627,-0.007171041,0.10884589,806.26373,786.52014,806.26373,824.3956,615.6777,0.15948486328125,0.1683349609375,0.9776611328125,-6.17584228515625,8.680572509765625,11.304931640625,1,1.0,1.0,1.0,1.0,10.00
2024-10-11 20:42:08.673,0.70843023,0.15563543,0.423271,0.9758981,0.5124422,-0.10472782,-0.1254765,0.4397404,0.69699234,0.27343944,0.19289303,0.63196224,0.5903773,0.109716535,0.4031946,0.5787056,0.034918427,-0.33362627,-0.007171041,0.10884589,807.0696,783.69965,800.2198,824.3956,1136.6666,0.15948486328125,0.1683349609375,0.9776611328125,-6.17584228515625,8.680572509765625,11.304931640625,1,1.0,1.0,1.0,1.0,10.00
2024-10-11 20:42:08.674,0.70843023,0.15563543,0.423271,0.9758981,0.5124422,-0.10472782,-0.1254765,0.4397404,0.69699234,0.27343944,0.19289303,0.63196224,0.5903773,0.109716535,0.4031946,0.5787056,0.034918427,-0.33362627,-0.007171041,0.10884589,793.7729,790.14655,797.8022,816.337,1109.6703,0.15948486328125,0.1683349609375,0.9776611328125,-6.17584228515625,8.680572509765625,11.304931640625,1,1.0,1.0,1.0,1.0,10.00
2024-10-11 20:42:08.675,0.70843023,0.15563543,0.423271,0.9758981,0.5124422,-0.10472782,-0.1254765,0.4397404,0.69699234,0.27343944,0.19289303,0.63196224,0.5903773,0.109716535,0.4031946,0.5787056,0.034918427,-0.33362627,-0.007171041,0.10884589,805.05493,791.3553,801.4286,812.71063,527.8388,0.15948486328125,0.1683349609375,0.9776611328125,-6.17584228515625,8.680572509765625,11.304931640625,1,1.0,1.0,1.0,1.0,10.00
2024-10-11 20:42:08.676,0.70843023,0.15563543,0.423271,0.9758981,0.5124422,-0.10472782,-0.1254765,0.4397404,0.69699234,0.27343944,0.19289303,0.63196224,0.5903773,0.109716535,0.4031946,0.5787056,0.034918427,-0.33362627,-0.007171041,0.10884589,807.47253,785.31134,810.293,820.3663,612.0513,0.15948486328125,0.1683349609375,0.9776611328125,-6.17584228515625,8.680572509765625,11.304931640625,1,1.0,1.0,1.0,1.0,10.00
2024-10-11 20:42:08.677,0.70843023,0.15563543,0.423271,0.9758981,0.5124422,-0.10472782,-0.1254765,0.4397404,0.69699234,0.27343944,0.19289303,0.63196224,0.5903773,0.109716535,0.4031946,0.5787056,0.034918427,-0.33362627,-0.007171041,0.10884589,798.20514,787.326,809.4872,819.15753,647.1062,0.15948486328125,0.1683349609375,0.9776611328125,-6.17584228515625,8.680572509765625,11.304931640625,1,1.0,1.0,1.0,1.0,10.00
2024-10-11 20:42:08.678,0.70843023,0.15563543,0.423271,0.9758981,0.5124422,-0.10472782,-0.1254765,0.4397404,0.69699234,0.27343944,0.19289303,0.63196224,0.5903773,0.109716535,0.4031946,0.5787056,0.034918427,-0.33362627,-0.007171041,0.10884589,800.2198,794.9817,803.44324,813.1135,539.92676,0.15948486328125,0.1683349609375,0.9776611328125,-6.17584228515625,8.680572509765625,11.304931640625,1,1.0,1.0,1.0,1.0,10.00
2024-10-11 20:42:08.707,0.70843023,0.15563543,0.423271,0.9758981,0.5124422,-0.10472782,-0.1254765,0.4397404,0.69699234,0.27343944,0.19289303,0.63196224,0.5903773,0.109716535,0.4031946,0.5787056,0.034918427,-0.33362627,-0.007171041,0.10884589,801.8315,792.96704,802.23444,809.4872,542.74725,0.1439208984375,0.15692138671875,0.98388671875,-4.344024658203125,11.8133544921875,11.596527099609375,1,1.0,1.0,1.0,1.0,10.00
2024-10-11 20:42:08.708,0.70843023,0.15563543,0.423271,0.9758981,0.5124422,-0.10472782,-0.1254765,0.4397404,0.69699234,0.27343944,0.19289303,0.63196224,0.5903773,0.109716535,0.4031946,0.5787056,0.034918427,-0.33362627,-0.007171041,0.10884589,812.71063,792.96704,807.8755,807.8755,630.58606,0.1439208984375,0.15692138671875,0.98388671875,-4.344024658203125,11.8133544921875,11.596527099609375,1,1.0,1.0,1.0,1.0,10.00
2024-10-11 20:42:08.709,0.70843023,0.15563543,0.423271,0.9758981,0.5124422,-0.10472782,-0.1254765,0.4397404,0.69699234,0.27343944,0.19289303,0.63196224,0.5903773,0.109716535,0.4031946,0.5787056,0.034918427,-0.33362627,-0.007171041,0.10884589,811.9048,794.17584,806.26373,803.8461,746.2271,0.1439208984375,0.15692138671875,0.98388671875,-4.344024658203125,11.8133544921875,11.596527099609375,1,1.0,1.0,1.0,1.0,10.00
2024-10-11 20:42:08.710,0.70843023,0.1462919,0.40564293,0.9758981,0.5124422,-0.11834631,-0.07265294,0.4397404,0.69699234,0.27343944,0.1944908,0.63196224,0.5903773,0.10390746,0.41653368,0.5787056,0.034918427,-0.3372264,0.00353663,0.10884589,807.8755,792.1612,799.41394,806.26373,715.6044,0.1439208984375,0.15692138671875,0.98388671875,-4.344024658203125,11.8133544921875,11.596527099609375,1,1.0,1.0,1.0,1.0,10.00
2024-10-11 20:42:08.716,0.70843023,0.1462919,0.40564293,0.9758981,0.5124422,-0.11834631,-0.07265294,0.4397404,0.69699234,0.27343944,0.1944908,0.63196224,0.5903773,0.10390746,0.41653368,0.5787056,0.034918427,-0.3372264,0.00353663,0.10884589,812.71063,800.2198,807.0696,807.47253,649.92676,0.1439208984375,0.15692138671875,0.98388671875,-4.344024658203125,11.8133544921875,11.596527099609375,1,1.0,1.0,1.0,1.0,10.00
2024-10-11 20:42:08.717,0.70843023,0.1462919,0.40564293,0.9758981,0.5124422,-0.11834631,-0.07265294,0.4397404,0.69699234,0.27343944,0.1944908,0.63196224,0.5903773,0.10390746,0.41653368,0.5787056,0.034918427,-0.3372264,0.00353663,0.10884589,801.4286,793.7729,802.6374,800.6227,739.3773,0.1439208984375,0.15692138671875,0.98388671875,-4.344024658203125,11.8133544921875,11.596527099609375,1,1.0,1.0,1.0,1.0,10.00
2024-10-11 20:42:08.718,0.70843023,0.1462919,0.40564293,0.9758981,0.5124422,-0.11834631,-0.07265294,0.4397404,0.69699234,0.27343944,0.1944908,0.63196224,0.5903773,0.10390746,0.41653368,0.5787056,0.034918427,-0.3372264,0.00353663,0.10884589,790.54944,783.69965,803.8461,801.4286,850.58606,0.1439208984375,0.15692138671875,0.98388671875,-4.344024658203125,11.8133544921875,11.596527099609375,1,1.0,1.0,1.0,1.0,10.00
2024-10-11 20:42:08.718,0.70843023,0.1462919,0.40564293,0.9758981,0.5124422,-0.11834631,-0.07265294,0.4397404,0.69699234,0.27343944,0.1944908,0.63196224,0.5903773,0.10390746,0.41653368,0.5787056,0.034918427,-0.3372264,0.00353663,0.10884589,788.93774,790.14655,807.47253,807.47253,767.98535,0.1439208984375,0.15692138671875,0.98388671875,-4.344024658203125,11.8133544921875,11.596527099609375,1,1.0,1.0,1.0,1.0,10.00
2024-10-11 20:42:08.719,0.70843023,0.1462919,0.40564293,0.9758981,0.5124422,-0.11834631,-0.07265294,0.4397404,0.69699234,0.27343944,0.1944908,0.63196224,0.5903773,0.10390746,0.41653368,0.5787056,0.034918427,-0.3372264,0.00353663,0.10884589,795.78754,794.57874,798.60803,800.6227,562.0879,0.1439208984375,0.15692138671875,0.98388671875,-4.344024658203125,11.8133544921875,11.596527099609375,1,1.0,1.0,1.0,1.0,10.00
2024-10-11 20:42:08.720,0.70843023,0.1462919,0.40564293,0.9758981,0.5124422,-0.11834631,-0.07265294,0.4397404,0.69699234,0.27343944,0.1944908,0.63196224,0.5903773,0.10390746,0.41653368,0.5787056,0.034918427,-0.3372264,0.00353663,0.10884589,803.0403,791.3553,797.8022,801.8315,729.304,0.1439208984375,0.15692138671875,0.98388671875,-4.344024658203125,11.8133544921875,11.596527099609375,1,1.0,1.0,1.0,1.0,10.00
2024-10-11 20:42:08.720,0.70843023,0.1462919,0.40564293,0.9758981,0.5124422,-0.11834631,-0.07265294,0.4397404,0.69699234,0.27343944,0.1944908,0.63196224,0.5903773,0.10390746,0.41653368,0.5787056,0.034918427,-0.3372264,0.00353663,0.10884589,803.0403,788.1319,796.5934,810.696,967.03296,0.1439208984375,0.15692138671875,0.98388671875,-4.344024658203125,11.8133544921875,11.596527099609375,1,1.0,1.0,1.0,1.0,10.00
2024-10-11 20:42:08.721,0.70843023,0.1462919,0.40564293,0.9758981,0.5124422,-0.11834631,-0.07265294,0.4397404,0.69699234,0.27343944,0.1944908,0.63196224,0.5903773,0.10390746,0.41653368,0.5787056,0.034918427,-0.3372264,0.00353663,0.10884589,804.2491,788.5348,794.9817,803.0403,702.3077,0.1439208984375,0.15692138671875,0.98388671875,-4.344024658203125,11.8133544921875,11.596527099609375,1,1.0,1.0,1.0,1.0,10.00
2024-10-11 20:42:08.751,0.70843023,0.1462919,0.40564293,0.9758981,0.5124422,-0.11834631,-0.07265294,0.4397404,0.69699234,0.27343944,0.1944908,0.63196224,0.5903773,0.10390746,0.41653368,0.5787056,0.034918427,-0.3372264,0.00353663,0.10884589,802.6374,790.9524,803.44324,800.2198,624.5421,0.126953125,0.1607666015625,0.9813232421875,-3.18511962890625,13.95172119140625,9.891815185546875,1,1.0,1.0,1.0,1.0,10.00
2024-10-11 20:42:08.752,0.70843023,0.1462919,0.40564293,0.9758981,0.5124422,-0.11834631,-0.07265294,0.4397404,0.69699234,0.27343944,0.1944908,0.63196224,0.5903773,0.10390746,0.41653368,0.5787056,0.034918427,-0.3372264,0.00353663,0.10884589,801.4286,796.1905,805.05493,803.0403,669.2674,0.126953125,0.1607666015625,0.9813232421875,-3.18511962890625,13.95172119140625,9.891815185546875,1,1.0,1.0,1.0,1.0,10.00
2024-10-11 20:42:08.753,0.70843023,0.1462919,0.40564293,0.9758981,0.5124422,-0.11834631,-0.07265294,0.4397404,0.69699234,0.27343944,0.1944908,0.63196224,0.5903773,0.10390746,0.41653368,0.5787056,0.034918427,-0.3372264,0.00353663,0.10884589,813.1135,790.9524,799.011,803.44324,634.61536,0.126953125,0.1607666015625,0.9813232421875,-3.18511962890625,13.95172119140625,9.891815185546875,1,1.0,1.0,1.0,1.0,10.00
2024-10-11 20:42:08.754,0.70843023,0.1462919,0.40564293,0.9758981,0.5124422,-0.11834631,-0.07265294,0.4397404,0.69699234,0.27343944,0.1944908,0.63196224,0.5903773,0.10390746,0.41653368,0.5787056,0.034918427,-0.3372264,0.00353663,0.10884589,808.68134,784.90845,800.6227,806.26373,616.08057,0.126953125,0.1607666015625,0.9813232421875,-3.18511962890625,13.95172119140625,9.891815185546875,1,1.0,1.0,1.0,1.0,10.00
2024-10-11 20:42:08.754,0.70843023,0.1462919,0.40564293,0.9758981,0.5124422,-0.11834631,-0.07265294,0.4397404,0.69699234,0.27343944,0.1944908,0.63196224,0.5903773,0.10390746,0.41653368,0.5787056,0.034918427,-0.3372264,0.00353663,0.10884589,801.02563,790.14655,808.2784,806.26373,757.9121,0.126953125,0.1607666015625,0.9813232421875,-3.18511962890625,13.95172119140625,9.891815185546875,1,1.0,1.0,1.0,1.0,10.00
2024-10-11 20:42:08.755,0.70843023,0.1462919,0.40564293,0.9758981,0.5124422,-0.11834631,-0.07265294,0.4397404,0.69699234,0.27343944,0.1944908,0.63196224,0.5903773,0.10390746,0.41653368,0.5787056,0.034918427,-0.3372264,0.00353663,0.10884589,797.3993,789.34064,802.23444,798.20514,850.58606,0.126953125,0.1607666015625,0.9813232421875,-3.18511962890625,13.95172119140625,9.891815185546875,1,1.0,1.0,1.0,1.0,10.00
2024-10-11 20:42:08.756,0.70843023,0.1462919,0.40564293,0.9758981,0.5124422,-0.11834631,-0.07265294,0.4397404,0.69699234,0.27343944,0.1944908,0.63196224,0.5903773,0.10390746,0.41653368,0.5787056,0.034918427,-0.3372264,0.00353663,0.10884589,800.6227,791.75824,796.99634,792.5641,872.3443,0.126953125,0.1607666015625,0.9813232421875,-3.18511962890625,13.95172119140625,9.891815185546875,1,1.0,1.0,1.0,1.0,10.00
2024-10-11 20:42:08.756,0.70843023,0.1462919,0.40564293,0.9758981,0.5124422,-0.11834631,-0.07265294,0.4397404,0.69699234,0.27343944,0.1944908,0.63196224,0.5903773,0.10390746,0.41653368,0.5787056,0.034918427,-0.3372264,0.00353663,0.10884589,796.5934,791.75824,795.78754,796.1905,795.78754,0.126953125,0.1607666015625,0.9813232421875,-3.18511962890625,13.95172119140625,9.891815185546875,1,1.0,1.0,1.0,1.0,10.00
2024-10-11 20:42:08.757,0.70843023,0.1462919,0.40564293,0.9758981,0.5124422,-0.11834631,-0.07265294,0.4397404,0.69699234,0.27343944,0.1944908,0.63196224,0.5903773,0.10390746,0.41653368,0.5787056,0.034918427,-0.3372264,0.00353663,0.10884589,794.9817,787.326,799.81683,806.6667,753.0769,0.126953125,0.1607666015625,0.9813232421875,-3.18511962890625,13.95172119140625,9.891815185546875,1,1.0,1.0,1.0,1.0,10.00
2024-10-11 20:42:08.758,0.70843023,0.1462919,0.40564293,0.9758981,0.5124422,-0.11834631,-0.07265294,0.4397404,0.69699234,0.27343944,0.1944908,0.63196224,0.5903773,0.10390746,0.41653368,0.5787056,0.034918427,-0.3372264,0.00353663,0.10884589,803.44324,788.93774,793.7729,809.4872,816.337,0.126953125,0.1607666015625,0.9813232421875,-3.18511962890625,13.95172119140625,9.891815185546875,1,1.0,1.0,1.0,1.0,10.00
2024-10-11 20:42:08.759,0.70843023,0.1462919,0.40564293,0.9758981,0.5124422,-0.11834631,-0.07265294,0.4397404,0.69699234,0.27343944,0.1944908,0.63196224,0.5903773,0.10390746,0.41653368,0.5787056,0.034918427,-0.3372264,0.00353663,0.10884589,797.3993,795.78754,786.52014,811.0989,666.8498,0.126953125,0.1607666015625,0.9813232421875,-3.18511962890625,13.95172119140625,9.891815185546875,1,1.0,1.0,1.0,1.0,10.00
2024-10-11 20:42:08.760,0.70843023,0.1462919,0.40564293,0.9758981,0.5124422,-0.11834631,-0.07265294,0.4397404,0.69699234,0.27343944,0.1944908,0.63196224,0.5903773,0.10390746,0.41653368,0.5787056,0.034918427,-0.3372264,0.00353663,0.10884589,792.1612,796.5934,796.5934,814.3223,637.03296,0.126953125,0.1607666015625,0.9813232421875,-3.18511962890625,13.95172119140625,9.891815185546875,1,1.0,1.0,1.0,1.0,10.00
2024-10-11 20:42:08.821,0.70843023,0.1462919,0.40564293,0.9758981,0.5124422,-0.11834631,-0.07265294,0.4397404,0.69699234,0.27343944,0.1944908,0.63196224,0.5903773,0.10390746,0.41653368,0.5787056,0.034918427,-0.3372264,0.00353663,0.10884589,801.8315,795.78754,795.78754,804.2491,724.87177,0.105712890625,0.1566162109375,0.9893798828125,-2.03369140625,16.934967041015625,7.61138916015625,1,1.0,1.0,1.0,1.0,10.00
2024-10-11 20:42:08.822,0.70843023,0.1462919,0.40564293,0.9758981,0.5124422,-0.11834631,-0.07265294,0.4397404,0.69699234,0.27343944,0.1944908,0.63196224,0.5903773,0.10390746,0.41653368,0.5787056,0.034918427,-0.3372264,0.00353663,0.10884589,801.4286,795.78754,795.78754,807.47253,959.3773,0.105712890625,0.1566162109375,0.9893798828125,-2.03369140625,16.934967041015625,7.61138916015625,1,1.0,1.0,1.0,1.0,10.00
2024-10-11 20:42:08.822,0.70843023,0.1462919,0.40564293,0.9758981,0.5124422,-0.11834631,-0.07265294,0.4397404,0.69699234,0.27343944,0.1944908,0.63196224,0.5903773,0.10390746,0.41653368,0.5787056,0.034918427,-0.3372264,0.00353663,0.10884589,793.7729,792.5641,803.8461,805.05493,747.03296,0.105712890625,0.1566162109375,0.9893798828125,-2.03369140625,16.934967041015625,7.61138916015625,1,1.0,1.0,1.0,1.0,10.00
2024-10-11 20:42:08.823,0.70843023,0.1462919,0.40564293,0.9758981,0.5124422,-0.11834631,-0.07265294,0.4397404,0.69699234,0.27343944,0.1944908,0.63196224,0.5903773,0.10390746,0.41653368,0.5787056,0.034918427,-0.3372264,0.00353663,0.10884589,801.4286,795.78754,805.4579,802.23444,485.53113,0.105712890625,0.1566162109375,0.9893798828125,-2.03369140625,16.934967041015625,7.61138916015625,1,1.0,1.0,1.0,1.0,10.00
2024-10-11 20:42:08.824,0.70843023,0.1462919,0.40564293,0.9758981,0.5124422,-0.11834631,-0.07265294,0.4397404,0.69699234,0.27343944,0.1944908,0.63196224,0.5903773,0.10390746,0.41653368,0.5787056,0.034918427,-0.3372264,0.00353663,0.10884589,811.0989,794.9817,799.81683,808.68134,666.04395,0.105712890625,0.1566162109375,0.9893798828125,-2.03369140625,16.934967041015625,7.61138916015625,1,1.0,1.0,1.0,1.0,10.00
2024-10-11 20:42:08.824,0.70843023,0.1083947,0.40404484,0.9758981,0.5124422,-0.12981893,-0.03069698,0.4397404,0.69699234,0.27343944,0.19182675,0.63196224,0.5903773,0.08441761,0.43123305,0.5787056,0.034918427,-0.32918996,0.012522666,0.10884589,807.8755,796.5934,796.5934,805.4579,817.9487,0.105712890625,0.1566162109375,0.9893798828125,-2.03369140625,16.934967041015625,7.61138916015625,1,1.0,1.0,1.0,1.0,10.00
2024-10-11 20:42:08.831,0.70843023,0.1083947,0.40404484,0.9758981,0.5124422,-0.12981893,-0.03069698,0.4397404,0.69699234,0.27343944,0.19182675,0.63196224,0.5903773,0.08441761,0.43123305,0.5787056,0.034918427,-0.32918996,0.012522666,0.10884589,805.05493,797.8022,797.3993,809.89014,730.10986,0.105712890625,0.1566162109375,0.9893798828125,-2.03369140625,16.934967041015625,7.61138916015625,1,1.0,1.0,1.0,1.0,10.00
2024-10-11 20:42:08.832,0.70843023,0.1083947,0.40404484,0.9758981,0.5124422,-0.12981893,-0.03069698,0.4397404,0.69699234,0.27343944,0.19182675,0.63196224,0.5903773,0.08441761,0.43123305,0.5787056,0.034918427,-0.32918996,0.012522666,0.10884589,811.0989,797.8022,798.60803,807.0696,579.011,0.105712890625,0.1566162109375,0.9893798828125,-2.03369140625,16.934967041015625,7.61138916015625,1,1.0,1.0,1.0,1.0,10.00
2024-10-11 20:42:08.833,0.70843023,0.1083947,0.40404484,0.9758981,0.5124422,-0.12981893,-0.03069698,0.4397404,0.69699234,0.27343944,0.19182675,0.63196224,0.5903773,0.08441761,0.43123305,0.5787056,0.034918427,-0.32918996,0.012522666,0.10884589,810.293,793.36993,796.5934,807.47253,823.9927,0.105712890625,0.1566162109375,0.9893798828125,-2.03369140625,16.934967041015625,7.61138916015625,1,1.0,1.0,1.0,1.0,10.00
2024-10-11 20:42:08.834,0.70843023,0.1083947,0.40404484,0.9758981,0.5124422,-0.12981893,-0.03069698,0.4397404,0.69699234,0.27343944,0.19182675,0.63196224,0.5903773,0.08441761,0.43123305,0.5787056,0.034918427,-0.32918996,0.012522666,0.10884589,801.02563,792.1612,792.5641,811.50183,950.9158,0.105712890625,0.1566162109375,0.9893798828125,-2.03369140625,16.934967041015625,7.61138916015625,1,1.0,1.0,1.0,1.0,10.00
2024-10-11 20:42:08.834,0.70843023,0.1083947,0.40404484,0.9758981,0.5124422,-0.12981893,-0.03069698,0.4397404,0.69699234,0.27343944,0.19182675,0.63196224,0.5903773,0.08441761,0.43123305,0.5787056,0.034918427,-0.32918996,0.012522666,0.10884589,796.1905,795.38464,786.1172,802.23444,584.2491,0.105712890625,0.1566162109375,0.9893798828125,-2.03369140625,16.934967041015625,7.61138916015625,1,1.0,1.0,1.0,1.0,10.00
2024-10-11 20:42:08.835,0.70843023,0.1083947,0.40404484,0.9758981,0.5124422,-0.12981893,-0.03069698,0.4397404,0.69699234,0.27343944,0.19182675,0.63196224,0.5903773,0.08441761,0.43123305,0.5787056,0.034918427,-0.32918996,0.012522666,0.10884589,805.05493,793.7729,790.9524,800.6227,601.5751,0.105712890625,0.1566162109375,0.9893798828125,-2.03369140625,16.934967041015625,7.61138916015625,1,1.0,1.0,1.0,1.0,10.00
2024-10-11 20:42:08.864,0.70843023,0.1083947,0.40404484,0.9758981,0.5124422,-0.12981893,-0.03069698,0.4397404,0.69699234,0.27343944,0.19182675,0.63196224,0.5903773,0.08441761,0.43123305,0.5787056,0.034918427,-0.32918996,0.012522666,0.10884589,812.3077,793.7729,798.20514,801.02563,732.52747,0.071533203125,0.1568603515625,1.001220703125,-2.684173583984375,19.521942138671875,4.523468017578125,1,1.0,1.0,1.0,1.0,10.00
2024-10-11 20:42:08.865,0.70843023,0.1083947,0.40404484,0.9758981,0.5124422,-0.12981893,-0.03069698,0.4397404,0.69699234,0.27343944,0.19182675,0.63196224,0.5903773,0.08441761,0.43123305,0.5787056,0.034918427,-0.32918996,0.012522666,0.10884589,814.3223,795.38464,807.8755,801.8315,693.0403,0.071533203125,0.1568603515625,1.001220703125,-2.684173583984375,19.521942138671875,4.523468017578125,1,1.0,1.0,1.0,1.0,10.00
2024-10-11 20:42:08.866,0.70843023,0.1083947,0.40404484,0.9758981,0.5124422,-0.12981893,-0.03069698,0.4397404,0.69699234,0.27343944,0.19182675,0.63196224,0.5903773,0.08441761,0.43123305,0.5787056,0.034918427,-0.32918996,0.012522666,0.10884589,810.696,800.2198,808.2784,801.02563,655.9707,0.071533203125,0.1568603515625,1.001220703125,-2.684173583984375,19.521942138671875,4.523468017578125,1,1.0,1.0,1.0,1.0,10.00
2024-10-11 20:42:08.867,0.70843023,0.1083947,0.40404484,0.9758981,0.5124422,-0.12981893,-0.03069698,0.4397404,0.69699234,0.27343944,0.19182675,0.63196224,0.5903773,0.08441761,0.43123305,0.5787056,0.034918427,-0.32918996,0.012522666,0.10884589,805.4579,796.99634,795.78754,797.8022,708.3516,0.071533203125,0.1568603515625,1.001220703125,-2.684173583984375,19.521942138671875,4.523468017578125,1,1.0,1.0,1.0,1.0,10.00
2024-10-11 20:42:08.868,0.70843023,0.1083947,0.40404484,0.9758981,0.5124422,-0.12981893,-0.03069698,0.4397404,0.69699234,0.27343944,0.19182675,0.63196224,0.5903773,0.08441761,0.43123305,0.5787056,0.034918427,-0.32918996,0.012522666,0.10884589,799.81683,793.36993,792.1612,795.38464,881.2088,0.071533203125,0.1568603515625,1.001220703125,-2.684173583984375,19.521942138671875,4.523468017578125,1,1.0,1.0,1.0,1.0,10.00
2024-10-11 20:42:08.869,0.70843023,0.1083947,0.40404484,0.9758981,0.5124422,-0.12981893,-0.03069698,0.4397404,0.69699234,0.27343944,0.19182675,0.63196224,0.5903773,0.08441761,0.43123305,0.5787056,0.034918427,-0.32918996,0.012522666,0.10884589,810.696,795.38464,791.75824,803.0403,892.0879,0.071533203125,0.1568603515625,1.001220703125,-2.684173583984375,19.521942138671875,4.523468017578125,1,1.0,1.0,1.0,1.0,10.00
2024-10-11 20:42:08.869,0.70843023,0.1083947,0.40404484,0.9758981,0.5124422,-0.12981893,-0.03069698,0.4397404,0.69699234,0.27343944,0.19182675,0.63196224,0.5903773,0.08441761,0.43123305,0.5787056,0.034918427,-0.32918996,0.012522666,0.10884589,816.337,796.1905,801.4286,808.68134,781.28204,0.071533203125,0.1568603515625,1.001220703125,-2.684173583984375,19.521942138671875,4.523468017578125,1,1.0,1.0,1.0,1.0,10.00
2024-10-11 20:42:08.870,0.70843023,0.1083947,0.40404484,0.9758981,0.5124422,-0.12981893,-0.03069698,0.4397404,0.69699234,0.27343944,0.19182675,0.63196224,0.5903773,0.08441761,0.43123305,0.5787056,0.034918427,-0.32918996,0.012522666,0.10884589,812.71063,792.1612,801.4286,813.91943,816.7399,0.071533203125,0.1568603515625,1.001220703125,-2.684173583984375,19.521942138671875,4.523468017578125,1,1.0,1.0,1.0,1.0,10.00
2024-10-11 20:42:08.871,0.70843023,0.1083947,0.40404484,0.9758981,0.5124422,-0.12981893,-0.03069698,0.4397404,0.69699234,0.27343944,0.19182675,0.63196224,0.5903773,0.08441761,0.43123305,0.5787056,0.034918427,-0.32918996,0.012522666,0.10884589,817.5458,790.54944,790.14655,819.5604,838.0952,0.071533203125,0.1568603515625,1.001220703125,-2.684173583984375,19.521942138671875,4.523468017578125,1,1.0,1.0,1.0,1.0,10.00
2024-10-11 20:42:08.871,0.70843023,0.1083947,0.40404484,0.9758981,0.5124422,-0.12981893,-0.03069698,0.4397404,0.69699234,0.27343944,0.19182675,0.63196224,0.5903773,0.08441761,0.43123305,0.5787056,0.034918427,-0.32918996,0.012522666,0.10884589,811.0989,795.38464,792.5641,817.5458,698.68134,0.071533203125,0.1568603515625,1.001220703125,-2.684173583984375,19.521942138671875,4.523468017578125,1,1.0,1.0,1.0,1.0,10.00
2024-10-11 20:42:08.872,0.70843023,0.1083947,0.40404484,0.9758981,0.5124422,-0.12981893,-0.03069698,0.4397404,0.69699234,0.27343944,0.19182675,0.63196224,0.5903773,0.08441761,0.43123305,0.5787056,0.034918427,-0.32918996,0.012522666,0.10884589,800.6227,790.14655,804.2491,812.71063,536.7033,0.071533203125,0.1568603515625,1.001220703125,-2.684173583984375,19.521942138671875,4.523468017578125,1,1.0,1.0,1.0,1.0,10.00
2024-10-11 20:42:08.872,0.70843023,0.1083947,0.40404484,0.9758981,0.5124422,-0.12981893,-0.03069698,0.4397404,0.69699234,0.27343944,0.19182675,0.63196224,0.5903773,0.08441761,0.43123305,0.5787056,0.034918427,-0.32918996,0.012522666,0.10884589,801.02563,784.10254,804.2491,809.0842,642.674,0.071533203125,0.1568603515625,1.001220703125,-2.684173583984375,19.521942138671875,4.523468017578125,1,1.0,1.0,1.0,1.0,10.00
2024-10-11 20:42:08.904,0.70843023,0.1083947,0.40404484,0.9758981,0.5124422,-0.12981893,-0.03069698,0.4397404,0.69699234,0.27343944,0.19182675,0.63196224,0.5903773,0.08441761,0.43123305,0.5787056,0.034918427,-0.32918996,0.012522666,0.10884589,801.4286,789.7436,798.60803,812.3077,883.6264,0.071533203125,0.1568603515625,1.001220703125,-2.684173583984375,19.521942138671875,4.523468017578125,1,1.0,1.0,1.0,1.0,10.00
2024-10-11 20:42:08.905,0.70843023,0.1083947,0.40404484,0.9758981,0.5124422,-0.12981893,-0.03069698,0.4397404,0.69699234,0.27343944,0.19182675,0.63196224,0.5903773,0.08441761,0.43123305,0.5787056,0.034918427,-0.32918996,0.012522666,0.10884589,804.65204,798.20514,804.2491,810.696,724.4689,0.071533203125,0.1568603515625,1.001220703125,-2.684173583984375,19.521942138671875,4.523468017578125,1,1.0,1.0,1.0,1.0,10.00
2024-10-11 20:42:08.906,0.70843023,0.1083947,0.40404484,0.9758981,0.5124422,-0.12981893,-0.03069698,0.4397404,0.69699234,0.27343944,0.19182675,0.63196224,0.5903773,0.08441761,0.43123305,0.5787056,0.034918427,-0.32918996,0.012522666,0.10884589,802.23444,796.1905,803.0403,809.4872,686.1905,0.071533203125,0.1568603515625,1.001220703125,-2.684173583984375,19.521942138671875,4.523468017578125,1,1.0,1.0,1.0,1.0,10.00
2024-10-11 20:42:08.906,0.70843023,0.1083947,0.40404484,0.9758981,0.5124422,-0.12981893,-0.03069698,0.4397404,0.69699234,0.27343944,0.19182675,0.63196224,0.5903773,0.08441761,0.43123305,0.5787056,0.034918427,-0.32918996,0.012522666,0.10884589,794.17584,792.5641,794.57874,801.02563,870.7326,0.071533203125,0.1568603515625,1.001220703125,-2.684173583984375,19.521942138671875,4.523468017578125,1,1.0,1.0,1.0,1.0,10.00
2024-10-11 20:42:08.907,0.70843023,0.1083947,0.40404484,0.9758981,0.5124422,-0.12981893,-0.03069698,0.4397404,0.69699234,0.27343944,0.19182675,0.63196224,0.5903773,0.08441761,0.43123305,0.5787056,0.034918427,-0.32918996,0.012522666,0.10884589,786.52014,792.5641,790.9524,795.38464,870.7326,0.071533203125,0.1568603515625,1.001220703125,-2.684173583984375,19.521942138671875,4.523468017578125,1,1.0,1.0,1.0,1.0,10.00
2024-10-11 20:42:08.908,0.70843023,0.1083947,0.40404484,0.9758981,0.5124422,-0.12981893,-0.03069698,0.4397404,0.69699234,0.27343944,0.19182675,0.63196224,0.5903773,0.08441761,0.43123305,0.5787056,0.034918427,-0.32918996,0.012522666,0.10884589,784.90845,787.326,786.1172,795.38464,791.3553,0.071533203125,0.1568603515625,1.001220703125,-2.684173583984375,19.521942138671875,4.523468017578125,1,1.0,1.0,1.0,1.0,10.00
2024-10-11 20:42:08.908,0.70843023,0.1083947,0.40404484,0.9758981,0.5124422,-0.12981893,-0.03069698,0.4397404,0.69699234,0.27343944,0.19182675,0.63196224,0.5903773,0.08441761,0.43123305,0.5787056,0.034918427,-0.32918996,0.012522666,0.10884589,791.3553,790.14655,780.87915,795.38464,854.61536,0.071533203125,0.1568603515625,1.001220703125,-2.684173583984375,19.521942138671875,4.523468017578125,1,1.0,1.0,1.0,1.0,10.00
2024-10-11 20:42:08.909,0.70843023,0.07755613,0.3910615,0.9758981,0.5124422,-0.14168435,-0.0021193195,0.4397404,0.69699234,0.27343944,0.1921069,0.63196224,0.5903773,0.056857847,0.44557774,0.5787056,0.034918427,-0.32119772,0.019489814,0.10884589,789.34064,789.7436,780.07324,795.78754,828.022,0.071533203125,0.1568603515625,1.001220703125,-2.684173583984375,19.521942138671875,4.523468017578125,1,1.0,1.0,1.0,1.0,10.00
2024-10-11 20:42:08.915,0.70843023,0.07755613,0.3910615,0.9758981,0.5124422,-0.14168435,-0.0021193195,0.4397404,0.69699234,0.27343944,0.1921069,0.63196224,0.5903773,0.056857847,0.44557774,0.5787056,0.034918427,-0.32119772,0.019489814,0.10884589,784.90845,785.31134,784.10254,785.31134,570.14655,0.071533203125,0.1568603515625,1.001220703125,-2.684173583984375,19.521942138671875,4.523468017578125,1,1.0,1.0,1.0,1.0,10.00
2024-10-11 20:42:08.916,0.70843023,0.07755613,0.3910615,0.9758981,0.5124422,-0.14168435,-0.0021193195,0.4397404,0.69699234,0.27343944,0.1921069,0.63196224,0.5903773,0.056857847,0.44557774,0.5787056,0.034918427,-0.32119772,0.019489814,0.10884589,794.57874,786.9231,789.7436,780.87915,472.23444,0.071533203125,0.1568603515625,1.001220703125,-2.684173583984375,19.521942138671875,4.523468017578125,1,1.0,1.0,1.0,1.0,10.00
2024-10-11 20:42:08.917,0.70843023,0.07755613,0.3910615,0.9758981,0.5124422,-0.14168435,-0.0021193195,0.4397404,0.69699234,0.27343944,0.1921069,0.63196224,0.5903773,0.056857847,0.44557774,0.5787056,0.034918427,-0.32119772,0.019489814,0.10884589,807.47253,791.75824,793.7729,787.72894,537.1062,0.071533203125,0.1568603515625,1.001220703125,-2.684173583984375,19.521942138671875,4.523468017578125,1,1.0,1.0,1.0,1.0,10.00
2024-10-11 20:42:08.918,0.70843023,0.07755613,0.3910615,0.9758981,0.5124422,-0.14168435,-0.0021193195,0.4397404,0.69699234,0.27343944,0.1921069,0.63196224,0.5903773,0.056857847,0.44557774,0.5787056,0.034918427,-0.32119772,0.019489814,0.10884589,813.1135,794.57874,798.20514,796.1905,837.28937,0.071533203125,0.1568603515625,1.001220703125,-2.684173583984375,19.521942138671875,4.523468017578125,1,1.0,1.0,1.0,1.0,10.00
2024-10-11 20:42:08.948,0.70843023,0.07755613,0.3910615,0.9758981,0.5124422,-0.14168435,-0.0021193195,0.4397404,0.69699234,0.27343944,0.1921069,0.63196224,0.5903773,0.056857847,0.44557774,0.5787056,0.034918427,-0.32119772,0.019489814,0.10884589,805.4579,798.20514,799.81683,792.1612,928.3516,0.04522705078125,0.14556884765625,0.9979248046875,-3.75335693359375,20.718231201171875,0.49346923828125,1,1.0,1.0,1.0,1.0,10.00
2024-10-11 20:42:08.949,0.70843023,0.07755613,0.3910615,0.9758981,0.5124422,-0.14168435,-0.0021193195,0.4397404,0.69699234,0.27343944,0.1921069,0.63196224,0.5903773,0.056857847,0.44557774,0.5787056,0.034918427,-0.32119772,0.019489814,0.10884589,806.6667,801.02563,799.41394,786.1172,537.1062,0.04522705078125,0.14556884765625,0.9979248046875,-3.75335693359375,20.718231201171875,0.49346923828125,1,1.0,1.0,1.0,1.0,10.00
2024-10-11 20:42:08.950,0.70843023,0.07755613,0.3910615,0.9758981,0.5124422,-0.14168435,-0.0021193195,0.4397404,0.69699234,0.27343944,0.1921069,0.63196224,0.5903773,0.056857847,0.44557774,0.5787056,0.034918427,-0.32119772,0.019489814,0.10884589,816.337,794.57874,791.3553,794.9817,504.06595,0.04522705078125,0.14556884765625,0.9979248046875,-3.75335693359375,20.718231201171875,0.49346923828125,1,1.0,1.0,1.0,1.0,10.00
2024-10-11 20:42:08.951,0.70843023,0.07755613,0.3910615,0.9758981,0.5124422,-0.14168435,-0.0021193195,0.4397404,0.69699234,0.27343944,0.1921069,0.63196224,0.5903773,0.056857847,0.44557774,0.5787056,0.034918427,-0.32119772,0.019489814,0.10884589,804.2491,791.75824,792.1612,800.6227,737.3626,0.04522705078125,0.14556884765625,0.9979248046875,-3.75335693359375,20.718231201171875,0.49346923828125,1,1.0,1.0,1.0,1.0,10.00
2024-10-11 20:42:08.951,0.70843023,0.07755613,0.3910615,0.9758981,0.5124422,-0.14168435,-0.0021193195,0.4397404,0.69699234,0.27343944,0.1921069,0.63196224,0.5903773,0.056857847,0.44557774,0.5787056,0.034918427,-0.32119772,0.019489814,0.10884589,795.78754,792.5641,785.7143,803.8461,703.1135,0.04522705078125,0.14556884765625,0.9979248046875,-3.75335693359375,20.718231201171875,0.49346923828125,1,1.0,1.0,1.0,1.0,10.00
2024-10-11 20:42:08.952,0.70843023,0.07755613,0.3910615,0.9758981,0.5124422,-0.14168435,-0.0021193195,0.4397404,0.69699234,0.27343944,0.1921069,0.63196224,0.5903773,0.056857847,0.44557774,0.5787056,0.034918427,-0.32119772,0.019489814,0.10884589,797.8022,792.96704,787.326,811.0989,617.28937,0.04522705078125,0.14556884765625,0.9979248046875,-3.75335693359375,20.718231201171875,0.49346923828125,1,1.0,1.0,1.0,1.0,10.00
2024-10-11 20:42:08.953,0.70843023,0.07755613,0.3910615,0.9758981,0.5124422,-0.14168435,-0.0021193195,0.4397404,0.69699234,0.27343944,0.1921069,0.63196224,0.5903773,0.056857847,0.44557774,0.5787056,0.034918427,-0.32119772,0.019489814,0.10884589,801.02563,794.9817,803.0403,811.0989,748.24176,0.04522705078125,0.14556884765625,0.9979248046875,-3.75335693359375,20.718231201171875,0.49346923828125,1,1.0,1.0,1.0,1.0,10.00
2024-10-11 20:42:08.954,0.70843023,0.07755613,0.3910615,0.9758981,0.5124422,-0.14168435,-0.0021193195,0.4397404,0.69699234,0.27343944,0.1921069,0.63196224,0.5903773,0.056857847,0.44557774,0.5787056,0.034918427,-0.32119772,0.019489814,0.10884589,803.44324,789.7436,798.60803,804.2491,843.3333,0.04522705078125,0.14556884765625,0.9979248046875,-3.75335693359375,20.718231201171875,0.49346923828125,1,1.0,1.0,1.0,1.0,10.00
2024-10-11 20:42:08.954,0.70843023,0.07755613,0.3910615,0.9758981,0.5124422,-0.14168435,-0.0021193195,0.4397404,0.69699234,0.27343944,0.1921069,0.63196224,0.5903773,0.056857847,0.44557774,0.5787056,0.034918427,-0.32119772,0.019489814,0.10884589,799.41394,789.34064,796.5934,805.05493,667.25275,0.04522705078125,0.14556884765625,0.9979248046875,-3.75335693359375,20.718231201171875,0.49346923828125,1,1.0,1.0,1.0,1.0,10.00
2024-10-11 20:42:08.955,0.70843023,0.07755613,0.3910615,0.9758981,0.5124422,-0.14168435,-0.0021193195,0.4397404,0.69699234,0.27343944,0.1921069,0.63196224,0.5903773,0.056857847,0.44557774,0.5787056,0.034918427,-0.32119772,0.019489814,0.10884589,792.5641,792.1612,803.44324,802.6374,538.71796,0.04522705078125,0.14556884765625,0.9979248046875,-3.75335693359375,20.718231201171875,0.49346923828125,1,1.0,1.0,1.0,1.0,10.00
2024-10-11 20:42:08.955,0.70843023,0.07755613,0.3910615,0.9758981,0.5124422,-0.14168435,-0.0021193195,0.4397404,0.69699234,0.27343944,0.1921069,0.63196224,0.5903773,0.056857847,0.44557774,0.5787056,0.034918427,-0.32119772,0.019489814,0.10884589,787.72894,788.5348,805.4579,798.20514,670.4762,0.04522705078125,0.14556884765625,0.9979248046875,-3.75335693359375,20.718231201171875,0.49346923828125,1,1.0,1.0,1.0,1.0,10.00
2024-10-11 20:42:08.956,0.70843023,0.07755613,0.3910615,0.9758981,0.5124422,-0.14168435,-0.0021193195,0.4397404,0.69699234,0.27343944,0.1921069,0.63196224,0.5903773,0.056857847,0.44557774,0.5787056,0.034918427,-0.32119772,0.019489814,0.10884589,791.75824,786.52014,802.23444,803.0403,894.90845,0.04522705078125,0.14556884765625,0.9979248046875,-3.75335693359375,20.718231201171875,0.49346923828125,1,1.0,1.0,1.0,1.0,10.00
2024-10-11 20:42:08.988,0.70843023,0.07755613,0.3910615,0.9758981,0.5124422,-0.14168435,-0.0021193195,0.4397404,0.69699234,0.27343944,0.1921069,0.63196224,0.5903773,0.056857847,0.44557774,0.5787056,0.034918427,-0.32119772,0.019489814,0.10884589,786.9231,792.96704,789.34064,803.0403,690.6227,0.01904296875,0.1341552734375,0.989013671875,-4.366455078125,22.2509765625,-3.237457275390625,1,1.0,1.0,1.0,1.0,10.00
2024-10-11 20:42:08.989,0.70843023,0.07755613,0.3910615,0.9758981,0.5124422,-0.14168435,-0.0021193195,0.4397404,0.69699234,0.27343944,0.1921069,0.63196224,0.5903773,0.056857847,0.44557774,0.5787056,0.034918427,-0.32119772,0.019489814,0.10884589,785.31134,796.1905,784.10254,794.9817,455.31134,0.01904296875,0.1341552734375,0.989013671875,-4.366455078125,22.2509765625,-3.237457275390625,1,1.0,1.0,1.0,1.0,10.00
2024-10-11 20:42:08.990,0.70843023,0.07755613,0.3910615,0.9758981,0.5124422,-0.14168435,-0.0021193195,0.4397404,0.69699234,0.27343944,0.1921069,0.63196224,0.5903773,0.056857847,0.44557774,0.5787056,0.034918427,-0.32119772,0.019489814,0.10884589,794.9817,796.99634,797.3993,788.93774,517.76556,0.01904296875,0.1341552734375,0.989013671875,-4.366455078125,22.2509765625,-3.237457275390625,1,1.0,1.0,1.0,1.0,10.00
2024-10-11 20:42:08.991,0.70843023,0.07755613,0.3910615,0.9758981,0.5124422,-0.14168435,-0.0021193195,0.4397404,0.69699234,0.27343944,0.1921069,0.63196224,0.5903773,0.056857847,0.44557774,0.5787056,0.034918427,-0.32119772,0.019489814,0.10884589,801.8315,796.1905,801.02563,784.5055,629.7802,0.01904296875,0.1341552734375,0.989013671875,-4.366455078125,22.2509765625,-3.237457275390625,1,1.0,1.0,1.0,1.0,10.00
2024-10-11 20:42:08.991,0.70843023,0.07755613,0.3910615,0.9758981,0.5124422,-0.14168435,-0.0021193195,0.4397404,0.69699234,0.27343944,0.1921069,0.63196224,0.5903773,0.056857847,0.44557774,0.5787056,0.034918427,-0.32119772,0.019489814,0.10884589,803.8461,793.7729,805.05493,784.10254,672.8938,0.01904296875,0.1341552734375,0.989013671875,-4.366455078125,22.2509765625,-3.237457275390625,1,1.0,1.0,1.0,1.0,10.00
2024-10-11 20:42:08.992,0.70843023,0.07755613,0.3910615,0.9758981,0.5124422,-0.14168435,-0.0021193195,0.4397404,0.69699234,0.27343944,0.1921069,0.63196224,0.5903773,0.056857847,0.44557774,0.5787056,0.034918427,-0.32119772,0.019489814,0.10884589,806.26373,795.38464,800.2198,787.72894,718.4249,0.01904296875,0.1341552734375,0.989013671875,-4.366455078125,22.2509765625,-3.237457275390625,1,1.0,1.0,1.0,1.0,10.00
2024-10-11 20:42:08.993,0.70843023,0.07755613,0.3910615,0.9758981,0.5124422,-0.14168435,-0.0021193195,0.4397404,0.69699234,0.27343944,0.1921069,0.63196224,0.5903773,0.056857847,0.44557774,0.5787056,0.034918427,-0.32119772,0.019489814,0.10884589,817.9487,795.38464,788.1319,797.3993,991.6117,0.01904296875,0.1341552734375,0.989013671875,-4.366455078125,22.2509765625,-3.237457275390625,1,1.0,1.0,1.0,1.0,10.00
2024-10-11 20:42:08.993,0.70843023,0.07755613,0.3910615,0.9758981,0.5124422,-0.14168435,-0.0021193195,0.4397404,0.69699234,0.27343944,0.1921069,0.63196224,0.5903773,0.056857847,0.44557774,0.5787056,0.034918427,-0.32119772,0.019489814,0.10884589,813.1135,801.4286,798.60803,814.3223,1058.9011,0.01904296875,0.1341552734375,0.989013671875,-4.366455078125,22.2509765625,-3.237457275390625,1,1.0,1.0,1.0,1.0,10.00
2024-10-11 20:42:08.994,0.70843023,0.07755613,0.3910615,0.9758981,0.5124422,-0.14168435,-0.0021193195,0.4397404,0.69699234,0.27343944,0.1921069,0.63196224,0.5903773,0.056857847,0.44557774,0.5787056,0.034918427,-0.32119772,0.019489814,0.10884589,808.2784,804.65204,805.4579,811.50183,753.8828,0.01904296875,0.1341552734375,0.989013671875,-4.366455078125,22.2509765625,-3.237457275390625,1,1.0,1.0,1.0,1.0,10.00
2024-10-11 20:42:08.995,0.70843023,0.026903572,0.3619981,0.9758981,0.5124422,-0.15101321,0.014120351,0.4397404,0.69699234,0.2654417,0.1938908,0.63196224,0.5903773,0.027712505,0.4556828,0.5787056,0.034918427,-0.31929687,0.02425123,0.10884589,816.337,802.23444,801.02563,799.81683,660.80585,0.01904296875,0.1341552734375,0.989013671875,-4.366455078125,22.2509765625,-3.237457275390625,1,1.0,1.0,1.0,1.0,10.00
2024-10-11 20:42:09.002,0.70843023,0.026903572,0.3619981,0.9758981,0.5124422,-0.15101321,0.014120351,0.4397404,0.69699234,0.2654417,0.1938908,0.63196224,0.5903773,0.027712505,0.4556828,0.5787056,0.034918427,-0.31929687,0.02425123,0.10884589,811.50183,801.4286,800.2198,798.20514,690.2198,0.01904296875,0.1341552734375,0.989013671875,-4.366455078125,22.2509765625,-3.237457275390625,1,1.0,1.0,1.0,1.0,10.00
2024-10-11 20:42:09.002,0.70843023,0.026903572,0.3619981,0.9758981,0.5124422,-0.15101321,0.014120351,0.4397404,0.69699234,0.2654417,0.1938908,0.63196224,0.5903773,0.027712505,0.4556828,0.5787056,0.034918427,-0.31929687,0.02425123,0.10884589,806.26373,801.02563,789.7436,803.44324,681.75824,0.01904296875,0.1341552734375,0.989013671875,-4.366455078125,22.2509765625,-3.237457275390625,1,1.0,1.0,1.0,1.0,10.00
2024-10-11 20:42:09.104,0.70843023,0.026903572,0.3619981,0.9758981,0.5124422,-0.15101321,0.014120351,0.4397404,0.69699234,0.2654417,0.1938908,0.63196224,0.5903773,0.027712505,0.4556828,0.5787056,0.034918427,-0.31929687,0.02425123,0.10884589,810.293,803.0403,791.75824,808.68134,637.03296,-0.01287841796875,0.1290283203125,0.9923095703125,-3.880462646484375,22.310791015625,-4.717864990234375,1,1.0,1.0,1.0,1.0,10.00
2024-10-11 20:42:09.105,0.70843023,0.026903572,0.3619981,0.9758981,0.5124422,-0.15101321,0.014120351,0.4397404,0.69699234,0.2654417,0.1938908,0.63196224,0.5903773,0.027712505,0.4556828,0.5787056,0.034918427,-0.31929687,0.02425123,0.10884589,814.7253,805.8608,801.8315,814.7253,610.4396,-0.01287841796875,0.1290283203125,0.9923095703125,-3.880462646484375,22.310791015625,-4.717864990234375,1,1.0,1.0,1.0,1.0,10.00
2024-10-11 20:42:09.105,0.70843023,0.026903572,0.3619981,0.9758981,0.5124422,-0.15101321,0.014120351,0.4397404,0.69699234,0.2654417,0.1938908,0.63196224,0.5903773,0.027712505,0.4556828,0.5787056,0.034918427,-0.31929687,0.02425123,0.10884589,813.5165,806.6667,802.23444,817.5458,614.4689,-0.01287841796875,0.1290283203125,0.9923095703125,-3.880462646484375,22.310791015625,-4.717864990234375,1,1.0,1.0,1.0,1.0,10.00
2024-10-11 20:42:09.106,0.70843023,0.026903572,0.3619981,0.9758981,0.5124422,-0.15101321,0.014120351,0.4397404,0.69699234,0.2654417,0.1938908,0.63196224,0.5903773,0.027712505,0.4556828,0.5787056,0.034918427,-0.31929687,0.02425123,0.10884589,809.4872,802.6374,790.54944,807.47253,624.1392,-0.01287841796875,0.1290283203125,0.9923095703125,-3.880462646484375,22.310791015625,-4.717864990234375,1,1.0,1.0,1.0,1.0,10.00
2024-10-11 20:42:09.107,0.70843023,0.026903572,0.3619981,0.9758981,0.5124422,-0.15101321,0.014120351,0.4397404,0.69699234,0.2654417,0.1938908,0.63196224,0.5903773,0.027712505,0.4556828,0.5787056,0.034918427,-0.31929687,0.02425123,0.10884589,810.696,799.81683,796.5934,803.8461,606.8132,-0.01287841796875,0.1290283203125,0.9923095703125,-3.880462646484375,22.310791015625,-4.717864990234375,1,1.0,1.0,1.0,1.0,10.00
2024-10-11 20:42:09.108,0.70843023,0.026903572,0.3619981,0.9758981,0.5124422,-0.15101321,0.014120351,0.4397404,0.69699234,0.2654417,0.1938908,0.63196224,0.5903773,0.027712505,0.4556828,0.5787056,0.034918427,-0.31929687,0.02425123,0.10884589,808.68134,796.99634,814.3223,810.293,725.6777,-0.01287841796875,0.1290283203125,0.9923095703125,-3.880462646484375,22.310791015625,-4.717864990234375,1,1.0,1.0,1.0,1.0,10.00
2024-10-11 20:42:09.108,0.70843023,0.026903572,0.3619981,0.9758981,0.5124422,-0.15101321,0.014120351,0.4397404,0.69699234,0.2654417,0.1938908,0.63196224,0.5903773,0.027712505,0.4556828,0.5787056,0.034918427,-0.31929687,0.02425123,0.10884589,809.0842,793.7729,812.71063,807.47253,891.28204,-0.01287841796875,0.1290283203125,0.9923095703125,-3.880462646484375,22.310791015625,-4.717864990234375,1,1.0,1.0,1.0,1.0,10.00
2024-10-11 20:42:09.109,0.70843023,0.026903572,0.3619981,0.9758981,0.5124422,-0.15101321,0.014120351,0.4397404,0.69699234,0.2654417,0.1938908,0.63196224,0.5903773,0.027712505,0.4556828,0.5787056,0.034918427,-0.31929687,0.02425123,0.10884589,807.47253,799.41394,803.8461,804.65204,772.4176,-0.01287841796875,0.1290283203125,0.9923095703125,-3.880462646484375,22.310791015625,-4.717864990234375,1,1.0,1.0,1.0,1.0,10.00
2024-10-11 20:42:09.110,0.70843023,0.026903572,0.3619981,0.9758981,0.5124422,-0.15101321,0.014120351,0.4397404,0.69699234,0.2654417,0.1938908,0.63196224,0.5903773,0.027712505,0.4556828,0.5787056,0.034918427,-0.31929687,0.02425123,0.10884589,794.17584,799.41394,796.99634,805.4579,576.99634,-0.01287841796875,0.1290283203125,0.9923095703125,-3.880462646484375,22.310791015625,-4.717864990234375,1,1.0,1.0,1.0,1.0,10.00
2024-10-11 20:42:09.110,0.70843023,0.026903572,0.3619981,0.9758981,0.5124422,-0.15101321,0.014120351,0.4397404,0.69699234,0.2654417,0.1938908,0.63196224,0.5903773,0.027712505,0.4556828,0.5787056,0.034918427,-0.31929687,0.02425123,0.10884589,791.75824,794.9817,794.9817,804.2491,625.34796,-0.01287841796875,0.1290283203125,0.9923095703125,-3.880462646484375,22.310791015625,-4.717864990234375,1,1.0,1.0,1.0,1.0,10.00
2024-10-11 20:42:09.111,0.70843023,0.026903572,0.3619981,0.9758981,0.5124422,-0.15101321,0.014120351,0.4397404,0.69699234,0.2654417,0.1938908,0.63196224,0.5903773,0.027712505,0.4556828,0.5787056,0.034918427,-0.31929687,0.02425123,0.10884589,797.3993,791.3553,795.78754,801.02563,828.8278,-0.01287841796875,0.1290283203125,0.9923095703125,-3.880462646484375,22.310791015625,-4.717864990234375,1,1.0,1.0,1.0,1.0,10.00
2024-10-11 20:42:09.112,0.70843023,0.026903572,0.3619981,0.9758981,0.5124422,-0.15101321,0.014120351,0.4397404,0.69699234,0.2654417,0.1938908,0.63196224,0.5903773,0.027712505,0.4556828,0.5787056,0.034918427,-0.31929687,0.02425123,0.10884589,799.81683,792.96704,796.99634,797.8022,788.5348,-0.01287841796875,0.1290283203125,0.9923095703125,-3.880462646484375,22.310791015625,-4.717864990234375,1,1.0,1.0,1.0,1.0,10.00
