TimeStamp,Delta_TP9,Delta_AF7,Delta_AF8,Delta_TP10,Theta_TP9,Theta_AF7,Theta_AF8,Theta_TP10,Alpha_TP9,Alpha_AF7,Alpha_AF8,Alpha_TP10,Beta_TP9,Beta_AF7,Beta_AF8,Beta_TP10,Gamma_TP9,Gamma_AF7,Gamma_AF8,Gamma_TP10,RAW_TP9,RAW_AF7,RAW_AF8,RAW_TP10,AUX_RIGHT,Accelerometer_X,Accelerometer_Y,Accelerometer_Z,Gyro_X,Gyro_Y,Gyro_Z,HeadBandOn,HSI_TP9,HSI_AF7,HSI_AF8,HSI_TP10,Battery,Elements
2024-10-11 20:47:23.367,1.4814558,0.55679053,0.7085879,0.989569,1.1855713,0.2368094,0.18720207,0.6324033,0.76936245,0.20671093,0.45704672,0.75687915,0.6809756,0.0025685388,0.5332755,0.70173365,-0.10964426,-0.44638252,0.3406452,0.3075309,794.9817,798.60803,800.6227,806.26373,804.2491,0.2108154296875,0.146484375,0.97344970703125,0.7177734375,-0.73272705078125,-1.57012939453125,1,1.0,1.0,1.0,1.0,10.00
2024-10-11 20:47:23.369,1.4814558,0.55679053,0.7085879,0.989569,1.1855713,0.2368094,0.18720207,0.6324033,0.76936245,0.20671093,0.45704672,0.75687915,0.6809756,0.0025685388,0.5332755,0.70173365,-0.10964426,-0.44638252,0.3406452,0.3075309,803.8461,798.20514,808.68134,809.0842,637.4359,0.2108154296875,0.146484375,0.97344970703125,0.7177734375,-0.73272705078125,-1.57012939453125,1,1.0,1.0,1.0,1.0,10.00
2024-10-11 20:47:23.372,1.4814558,0.55679053,0.7085879,0.989569,1.1855713,0.2368094,0.18720207,0.6324033,0.76936245,0.20671093,0.45704672,0.75687915,0.6809756,0.0025685388,0.5332755,0.70173365,-0.10964426,-0.44638252,0.3406452,0.3075309,797.3993,791.75824,819.15753,812.3077,809.0842,0.2108154296875,0.146484375,0.97344970703125,0.7177734375,-0.73272705078125,-1.57012939453125,1,1.0,1.0,1.0,1.0,10.00
2024-10-11 20:47:23.374,1.4814558,0.55679053,0.7085879,0.989569,1.1855713,0.2368094,0.18720207,0.6324033,0.76936245,0.20671093,0.45704672,0.75687915,0.6809756,0.0025685388,0.5332755,0.70173365,-0.10964426,-0.44638252,0.3406452,0.3075309,792.1612,788.1319,817.1429,808.68134,937.619,0.2108154296875,0.146484375,0.97344970703125,0.7177734375,-0.73272705078125,-1.57012939453125,1,1.0,1.0,1.0,1.0,10.00
2024-10-11 20:47:23.375,1.4814558,0.55679053,0.7085879,0.989569,1.1855713,0.2368094,0.18720207,0.6324033,0.76936245,0.20671093,0.45704672,0.75687915,0.6809756,0.0025685388,0.5332755,0.70173365,-0.10964426,-0.44638252,0.3406452,0.3075309,795.78754,792.5641,812.3077,802.6374,767.5824,0.2108154296875,0.146484375,0.97344970703125,0.7177734375,-0.73272705078125,-1.57012939453125,1,1.0,1.0,1.0,1.0,10.00
2024-10-11 20:47:23.377,1.4814558,0.55679053,0.7085879,0.989569,1.1855713,0.2368094,0.18720207,0.6324033,0.76936245,0.20671093,0.45704672,0.75687915,0.6809756,0.0025685388,0.5332755,0.70173365,-0.10964426,-0.44638252,0.3406452,0.3075309,798.20514,799.41394,814.3223,800.6227,741.79486,0.2108154296875,0.146484375,0.97344970703125,0.7177734375,-0.73272705078125,-1.57012939453125,1,1.0,1.0,1.0,1.0,10.00
2024-10-11 20:47:23.379,1.4814558,0.55679053,0.7085879,0.989569,1.1855713,0.2368094,0.18720207,0.6324033,0.76936245,0.20671093,0.45704672,0.75687915,0.6809756,0.0025685388,0.5332755,0.70173365,-0.10964426,-0.44638252,0.3406452,0.3075309,799.81683,799.011,811.50183,801.8315,1060.5128,0.2108154296875,0.146484375,0.97344970703125,0.7177734375,-0.73272705078125,-1.57012939453125,1,1.0,1.0,1.0,1.0,10.00
2024-10-11 20:47:23.380,1.4814558,0.55679053,0.7085879,0.989569,1.1855713,0.2368094,0.18720207,0.6324033,0.76936245,0.20671093,0.45704672,0.75687915,0.6809756,0.0025685388,0.5332755,0.70173365,-0.10964426,-0.44638252,0.3406452,0.3075309,796.1905,795.38464,808.68134,800.6227,1049.2307,0.2108154296875,0.146484375,0.97344970703125,0.7177734375,-0.73272705078125,-1.57012939453125,1,1.0,1.0,1.0,1.0,10.00
2024-10-11 20:47:23.381,1.4814558,0.55679053,0.7085879,0.989569,1.1855713,0.2368094,0.18720207,0.6324033,0.76936245,0.20671093,0.45704672,0.75687915,0.6809756,0.0025685388,0.5332755,0.70173365,-0.10964426,-0.44638252,0.3406452,0.3075309,794.9817,795.38464,804.2491,795.78754,722.4542,0.2108154296875,0.146484375,0.97344970703125,0.7177734375,-0.73272705078125,-1.57012939453125,1,1.0,1.0,1.0,1.0,10.00
2024-10-11 20:47:23.382,1.4814558,0.55679053,0.7085879,0.989569,1.1855713,0.2368094,0.18720207,0.6324033,0.76936245,0.20671093,0.45704672,0.75687915,0.6809756,0.0025685388,0.5332755,0.70173365,-0.10964426,-0.44638252,0.3406452,0.3075309,794.17584,793.36993,796.99634,790.14655,637.4359,0.2108154296875,0.146484375,0.97344970703125,0.7177734375,-0.73272705078125,-1.57012939453125,1,1.0,1.0,1.0,1.0,10.00
2024-10-11 20:47:23.384,1.4814558,0.55679053,0.7085879,0.989569,1.1855713,0.2368094,0.18720207,0.6324033,0.76936245,0.20671093,0.45704672,0.75687915,0.6809756,0.0025685388,0.5332755,0.70173365,-0.10964426,-0.44638252,0.3406452,0.3075309,799.81683,792.1612,802.6374,794.9817,892.49084,0.2108154296875,0.146484375,0.97344970703125,0.7177734375,-0.73272705078125,-1.57012939453125,1,1.0,1.0,1.0,1.0,10.00
2024-10-11 20:47:23.385,1.4814558,0.55679053,0.7085879,0.989569,1.1855713,0.2368094,0.18720207,0.6324033,0.76936245,0.20671093,0.45704672,0.75687915,0.6809756,0.0025685388,0.5332755,0.70173365,-0.10964426,-0.44638252,0.3406452,0.3075309,807.47253,795.38464,807.47253,798.60803,990.40295,0.2108154296875,0.146484375,0.97344970703125,0.7177734375,-0.73272705078125,-1.57012939453125,1,1.0,1.0,1.0,1.0,10.00
2024-10-11 20:47:23.387,1.4814558,0.55679053,0.7085879,0.989569,1.1855713,0.2368094,0.18720207,0.6324033,0.76936245,0.20671093,0.45704672,0.75687915,0.6809756,0.0025685388,0.5332755,0.70173365,-0.10964426,-0.44638252,0.3406452,0.3075309,804.65204,794.17584,807.0696,791.3553,772.8205,0.21502685546875,0.14837646484375,0.9656982421875,0.43365478515625,-0.01495361328125,-1.323394775390625,1,1.0,1.0,1.0,1.0,10.00
2024-10-11 20:47:23.388,1.4814558,0.55679053,0.7085879,0.989569,1.1855713,0.2368094,0.18720207,0.6324033,0.76936245,0.20671093,0.45704672,0.75687915,0.6809756,0.0025685388,0.5332755,0.70173365,-0.10964426,-0.44638252,0.3406452,0.3075309,801.02563,791.3553,805.05493,797.3993,611.6484,0.21502685546875,0.14837646484375,0.9656982421875,0.43365478515625,-0.01495361328125,-1.323394775390625,1,1.0,1.0,1.0,1.0,10.00
2024-10-11 20:47:23.389,1.4814558,0.55679053,0.7085879,0.989569,1.1855713,0.2368094,0.18720207,0.6324033,0.76936245,0.20671093,0.45704672,0.75687915,0.6809756,0.0025685388,0.5332755,0.70173365,-0.10964426,-0.44638252,0.3406452,0.3075309,794.57874,794.57874,797.8022,799.81683,707.5458,0.21502685546875,0.14837646484375,0.9656982421875,0.43365478515625,-0.01495361328125,-1.323394775390625,1,1.0,1.0,1.0,1.0,10.00
2024-10-11 20:47:23.391,1.4814558,0.5928808,0.69878346,0.989569,1.1855713,0.23383696,0.14940512,0.6324033,0.76936245,0.20671093,0.45704672,0.75687915,0.6809756,-0.004545042,0.52288043,0.70173365,-0.10964426,-0.4492229,0.3331488,0.3075309,792.5641,799.81683,794.17584,801.8315,813.91943,0.21502685546875,0.14837646484375,0.9656982421875,0.43365478515625,-0.01495361328125,-1.323394775390625,1,1.0,1.0,1.0,1.0,10.00
2024-10-11 20:47:23.397,1.4814558,0.5928808,0.69878346,0.989569,1.1855713,0.23383696,0.14940512,0.6324033,0.76936245,0.20671093,0.45704672,0.75687915,0.6809756,-0.004545042,0.52288043,0.70173365,-0.10964426,-0.4492229,0.3331488,0.3075309,795.78754,799.81683,799.41394,808.2784,630.18317,0.21502685546875,0.14837646484375,0.9656982421875,0.43365478515625,-0.01495361328125,-1.323394775390625,1,1.0,1.0,1.0,1.0,10.00
2024-10-11 20:47:23.398,1.4814558,0.5928808,0.69878346,0.989569,1.1855713,0.23383696,0.14940512,0.6324033,0.76936245,0.20671093,0.45704672,0.75687915,0.6809756,-0.004545042,0.52288043,0.70173365,-0.10964426,-0.4492229,0.3331488,0.3075309,791.3553,794.17584,805.4579,801.02563,589.89014,0.21502685546875,0.14837646484375,0.9656982421875,0.43365478515625,-0.01495361328125,-1.323394775390625,1,1.0,1.0,1.0,1.0,10.00
2024-10-11 20:47:23.399,1.4814558,0.5928808,0.69878346,0.989569,1.1855713,0.23383696,0.14940512,0.6324033,0.76936245,0.20671093,0.45704672,0.75687915,0.6809756,-0.004545042,0.52288043,0.70173365,-0.10964426,-0.4492229,0.3331488,0.3075309,786.52014,791.3553,807.8755,792.5641,757.1062,0.21502685546875,0.14837646484375,0.9656982421875,0.43365478515625,-0.01495361328125,-1.323394775390625,1,1.0,1.0,1.0,1.0,10.00
2024-10-11 20:47:23.401,1.4814558,0.5928808,0.69878346,0.989569,1.1855713,0.23383696,0.14940512,0.6324033,0.76936245,0.20671093,0.45704672,0.75687915,0.6809756,-0.004545042,0.52288043,0.70173365,-0.10964426,-0.4492229,0.3331488,0.3075309,786.1172,793.36993,805.8608,789.7436,810.696,0.21502685546875,0.14837646484375,0.9656982421875,0.43365478515625,-0.01495361328125,-1.323394775390625,1,1.0,1.0,1.0,1.0,10.00
2024-10-11 20:47:23.403,1.4814558,0.5928808,0.69878346,0.989569,1.1855713,0.23383696,0.14940512,0.6324033,0.76936245,0.20671093,0.45704672,0.75687915,0.6809756,-0.004545042,0.52288043,0.70173365,-0.10964426,-0.4492229,0.3331488,0.3075309,789.7436,795.38464,806.26373,795.78754,614.4689,0.21502685546875,0.14837646484375,0.9656982421875,0.43365478515625,-0.01495361328125,-1.323394775390625,1,1.0,1.0,1.0,1.0,10.00
2024-10-11 20:47:23.404,1.4814558,0.5928808,0.69878346,0.989569,1.1855713,0.23383696,0.14940512,0.6324033,0.76936245,0.20671093,0.45704672,0.75687915,0.6809756,-0.004545042,0.52288043,0.70173365,-0.10964426,-0.4492229,0.3331488,0.3075309,794.9817,794.57874,804.65204,802.6374,567.326,0.21502685546875,0.14837646484375,0.9656982421875,0.43365478515625,-0.01495361328125,-1.323394775390625,1,1.0,1.0,1.0,1.0,10.00
2024-10-11 20:47:23.405,1.4814558,0.5928808,0.69878346,0.989569,1.1855713,0.23383696,0.14940512,0.6324033,0.76936245,0.20671093,0.45704672,0.75687915,0.6809756,-0.004545042,0.52288043,0.70173365,-0.10964426,-0.4492229,0.3331488,0.3075309,803.0403,794.9817,796.99634,803.44324,763.1502,0.21502685546875,0.14837646484375,0.9656982421875,0.43365478515625,-0.01495361328125,-1.323394775390625,1,1.0,1.0,1.0,1.0,10.00
2024-10-11 20:47:23.406,1.4814558,0.5928808,0.69878346,0.989569,1.1855713,0.23383696,0.14940512,0.6324033,0.76936245,0.20671093,0.45704672,0.75687915,0.6809756,-0.004545042,0.52288043,0.70173365,-0.10964426,-0.4492229,0.3331488,0.3075309,797.8022,795.38464,795.78754,802.23444,741.39197,0.21502685546875,0.14837646484375,0.9656982421875,0.43365478515625,-0.01495361328125,-1.323394775390625,1,1.0,1.0,1.0,1.0,10.00
2024-10-11 20:47:23.408,1.4814558,0.5928808,0.69878346,0.989569,1.1855713,0.23383696,0.14940512,0.6324033,0.76936245,0.20671093,0.45704672,0.75687915,0.6809756,-0.004545042,0.52288043,0.70173365,-0.10964426,-0.4492229,0.3331488,0.3075309,790.14655,796.1905,804.2491,799.41394,625.7509,0.21502685546875,0.14837646484375,0.9656982421875,0.43365478515625,-0.01495361328125,-1.323394775390625,1,1.0,1.0,1.0,1.0,10.00
2024-10-11 20:47:23.409,1.4814558,0.5928808,0.69878346,0.989569,1.1855713,0.23383696,0.14940512,0.6324033,0.76936245,0.20671093,0.45704672,0.75687915,0.6809756,-0.004545042,0.52288043,0.70173365,-0.10964426,-0.4492229,0.3331488,0.3075309,793.7729,793.36993,806.26373,803.44324,678.93774,0.21502685546875,0.14837646484375,0.9656982421875,0.43365478515625,-0.01495361328125,-1.323394775390625,1,1.0,1.0,1.0,1.0,10.00
2024-10-11 20:47:23.410,1.4814558,0.5928808,0.69878346,0.989569,1.1855713,0.23383696,0.14940512,0.6324033,0.76936245,0.20671093,0.45704672,0.75687915,0.6809756,-0.004545042,0.52288043,0.70173365,-0.10964426,-0.4492229,0.3331488,0.3075309,784.5055,787.72894,798.60803,803.8461,787.326,0.21502685546875,0.14837646484375,0.9656982421875,0.43365478515625,-0.01495361328125,-1.323394775390625,1,1.0,1.0,1.0,1.0,10.00
2024-10-11 20:47:23.411,1.4814558,0.5928808,0.69878346,0.989569,1.1855713,0.23383696,0.14940512,0.6324033,0.76936245,0.20671093,0.45704672,0.75687915,0.6809756,-0.004545042,0.52288043,0.70173365,-0.10964426,-0.4492229,0.3331488,0.3075309,777.25275,789.34064,793.7729,796.99634,764.7619,0.21502685546875,0.14837646484375,0.9656982421875,0.43365478515625,-0.01495361328125,-1.323394775390625,1,1.0,1.0,1.0,1.0,10.00
2024-10-11 20:47:23.412,1.4814558,0.5928808,0.69878346,0.989569,1.1855713,0.23383696,0.14940512,0.6324033,0.76936245,0.20671093,0.45704672,0.75687915,0.6809756,-0.004545042,0.52288043,0.70173365,-0.10964426,-0.4492229,0.3331488,0.3075309,780.07324,791.3553,798.20514,799.41394,803.8461,0.21502685546875,0.14837646484375,0.9656982421875,0.43365478515625,-0.01495361328125,-1.323394775390625,1,1.0,1.0,1.0,1.0,10.00
2024-10-11 20:47:23.413,1.4814558,0.5928808,0.69878346,0.989569,1.1855713,0.23383696,0.14940512,0.6324033,0.76936245,0.20671093,0.45704672,0.75687915,0.6809756,-0.004545042,0.52288043,0.70173365,-0.10964426,-0.4492229,0.3331488,0.3075309,785.7143,790.9524,795.78754,802.6374,1032.3077,0.21502685546875,0.14837646484375,0.9656982421875,0.43365478515625,-0.01495361328125,-1.323394775390625,1,1.0,1.0,1.0,1.0,10.00
2024-10-11 20:47:23.414,1.4814558,0.5928808,0.69878346,0.989569,1.1855713,0.23383696,0.14940512,0.6324033,0.76936245,0.20671093,0.45704672,0.75687915,0.6809756,-0.004545042,0.52288043,0.70173365,-0.10964426,-0.4492229,0.3331488,0.3075309,785.31134,787.72894,794.9817,799.011,1116.5201,0.21502685546875,0.14837646484375,0.9656982421875,0.43365478515625,-0.01495361328125,-1.323394775390625,1,1.0,1.0,1.0,1.0,10.00
2024-10-11 20:47:23.415,1.4814558,0.5928808,0.69878346,0.989569,1.1855713,0.23383696,0.14940512,0.6324033,0.76936245,0.20671093,0.45704672,0.75687915,0.6809756,-0.004545042,0.52288043,0.70173365,-0.10964426,-0.4492229,0.3331488,0.3075309,783.2967,786.52014,807.47253,796.99634,819.5604,0.21502685546875,0.14837646484375,0.9656982421875,0.43365478515625,-0.01495361328125,-1.323394775390625,1,1.0,1.0,1.0,1.0,10.00
2024-10-11 20:47:23.416,1.4814558,0.5928808,0.69878346,0.989569,1.1855713,0.23383696,0.14940512,0.6324033,0.76936245,0.20671093,0.45704672,0.75687915,0.6809756,-0.004545042,0.52288043,0.70173365,-0.10964426,-0.4492229,0.3331488,0.3075309,788.93774,787.326,812.71063,795.38464,666.04395,0.21502685546875,0.14837646484375,0.9656982421875,0.43365478515625,-0.01495361328125,-1.323394775390625,1,1.0,1.0,1.0,1.0,10.00
2024-10-11 20:47:23.418,1.4814558,0.5928808,0.69878346,0.989569,1.1855713,0.23383696,0.14940512,0.6324033,0.76936245,0.20671093,0.45704672,0.75687915,0.6809756,-0.004545042,0.52288043,0.70173365,-0.10964426,-0.4492229,0.3331488,0.3075309,798.60803,790.14655,806.26373,802.6374,848.5714,0.21502685546875,0.14837646484375,0.9656982421875,0.43365478515625,-0.01495361328125,-1.323394775390625,1,1.0,1.0,1.0,1.0,10.00
2024-10-11 20:47:23.419,1.4814558,0.5928808,0.69878346,0.989569,1.1855713,0.23383696,0.14940512,0.6324033,0.76936245,0.20671093,0.45704672,0.75687915,0.6809756,-0.004545042,0.52288043,0.70173365,-0.10964426,-0.4492229,0.3331488,0.3075309,803.8461,795.38464,796.1905,806.6667,870.32965,0.21502685546875,0.14837646484375,0.9656982421875,0.43365478515625,-0.01495361328125,-1.323394775390625,1,1.0,1.0,1.0,1.0,10.00
2024-10-11 20:47:23.420,1.4814558,0.5928808,0.69878346,0.989569,1.1855713,0.23383696,0.14940512,0.6324033,0.76936245,0.20671093,0.45704672,0.75687915,0.6809756,-0.004545042,0.52288043,0.70173365,-0.10964426,-0.4492229,0.3331488,0.3075309,804.2491,794.17584,803.44324,797.3993,627.76556,0.21502685546875,0.14837646484375,0.9656982421875,0.43365478515625,-0.01495361328125,-1.323394775390625,1,1.0,1.0,1.0,1.0,10.00
2024-10-11 20:47:23.422,1.4814558,0.5928808,0.69878346,0.989569,1.1855713,0.23383696,0.14940512,0.6324033,0.76936245,0.20671093,0.45704672,0.75687915,0.6809756,-0.004545042,0.52288043,0.70173365,-0.10964426,-0.4492229,0.3331488,0.3075309,802.6374,795.38464,810.696,803.44324,570.14655,0.2200927734375,0.1492919921875,0.97406005859375,-0.43365478515625,-0.52337646484375,-0.770111083984375,1,1.0,1.0,1.0,1.0,10.00
2024-10-11 20:47:23.423,1.4814558,0.5928808,0.69878346,0.989569,1.1855713,0.23383696,0.14940512,0.6324033,0.76936245,0.20671093,0.45704672,0.75687915,0.6809756,-0.004545042,0.52288043,0.70173365,-0.10964426,-0.4492229,0.3331488,0.3075309,800.2198,797.8022,813.5165,809.0842,730.5128,0.2200927734375,0.1492919921875,0.97406005859375,-0.43365478515625,-0.52337646484375,-0.770111083984375,1,1.0,1.0,1.0,1.0,10.00
2024-10-11 20:47:23.424,1.4814558,0.5928808,0.69878346,0.989569,1.1855713,0.23383696,0.14940512,0.6324033,0.76936245,0.20671093,0.45704672,0.75687915,0.6809756,-0.004545042,0.52288043,0.70173365,-0.10964426,-0.4492229,0.3331488,0.3075309,801.8315,796.99634,809.0842,805.4579,788.93774,0.2200927734375,0.1492919921875,0.97406005859375,-0.43365478515625,-0.52337646484375,-0.770111083984375,1,1.0,1.0,1.0,1.0,10.00
2024-10-11 20:47:23.425,1.4814558,0.5928808,0.69878346,0.989569,1.1855713,0.23383696,0.14940512,0.6324033,0.76936245,0.20671093,0.45704672,0.75687915,0.6809756,-0.004545042,0.52288043,0.70173365,-0.10964426,-0.4492229,0.3331488,0.3075309,796.5934,796.5934,790.54944,806.6667,666.4469,0.2200927734375,0.1492919921875,0.97406005859375,-0.43365478515625,-0.52337646484375,-0.770111083984375,1,1.0,1.0,1.0,1.0,10.00
2024-10-11 20:47:23.425,1.4814558,0.5928808,0.69878346,0.989569,1.1855713,0.23383696,0.14940512,0.6324033,0.76936245,0.20671093,0.45704672,0.75687915,0.6809756,-0.004545042,0.52288043,0.70173365,-0.10964426,-0.4492229,0.3331488,0.3075309,790.9524,796.5934,796.1905,804.65204,668.0586,0.2200927734375,0.1492919921875,0.97406005859375,-0.43365478515625,-0.52337646484375,-0.770111083984375,1,1.0,1.0,1.0,1.0,10.00
2024-10-11 20:47:23.426,1.4814558,0.62602955,0.6927277,0.989569,1.1855713,0.23904888,0.119528204,0.6324033,0.76936245,0.20671093,0.45704672,0.75687915,0.6809756,-0.013237606,0.51208943,0.70173365,-0.10964426,-0.45050043,0.3294755,0.3075309,794.57874,795.78754,807.8755,803.8461,933.5897,0.2200927734375,0.1492919921875,0.97406005859375,-0.43365478515625,-0.52337646484375,-0.770111083984375,1,1.0,1.0,1.0,1.0,10.00
2024-10-11 20:47:23.431,1.4814558,0.62602955,0.6927277,0.989569,1.1855713,0.23904888,0.119528204,0.6324033,0.76936245,0.20671093,0.45704672,0.75687915,0.6809756,-0.013237606,0.51208943,0.70173365,-0.10964426,-0.45050043,0.3294755,0.3075309,801.4286,795.78754,806.6667,806.26373,969.0476,0.2200927734375,0.1492919921875,0.97406005859375,-0.43365478515625,-0.52337646484375,-0.770111083984375,1,1.0,1.0,1.0,1.0,10.00
2024-10-11 20:47:23.432,1.4814558,0.62602955,0.6927277,0.989569,1.1855713,0.23904888,0.119528204,0.6324033,0.76936245,0.20671093,0.45704672,0.75687915,0.6809756,-0.013237606,0.51208943,0.70173365,-0.10964426,-0.45050043,0.3294755,0.3075309,801.8315,800.2198,801.8315,805.8608,793.7729,0.2200927734375,0.1492919921875,0.97406005859375,-0.43365478515625,-0.52337646484375,-0.770111083984375,1,1.0,1.0,1.0,1.0,10.00
2024-10-11 20:47:23.433,1.4814558,0.62602955,0.6927277,0.989569,1.1855713,0.23904888,0.119528204,0.6324033,0.76936245,0.20671093,0.45704672,0.75687915,0.6809756,-0.013237606,0.51208943,0.70173365,-0.10964426,-0.45050043,0.3294755,0.3075309,806.26373,802.6374,792.1612,807.0696,769.59705,0.2200927734375,0.1492919921875,0.97406005859375,-0.43365478515625,-0.52337646484375,-0.770111083984375,1,1.0,1.0,1.0,1.0,10.00
2024-10-11 20:47:23.434,1.4814558,0.62602955,0.6927277,0.989569,1.1855713,0.23904888,0.119528204,0.6324033,0.76936245,0.20671093,0.45704672,0.75687915,0.6809756,-0.013237606,0.51208943,0.70173365,-0.10964426,-0.45050043,0.3294755,0.3075309,813.5165,799.41394,794.9817,809.0842,827.619,0.2200927734375,0.1492919921875,0.97406005859375,-0.43365478515625,-0.52337646484375,-0.770111083984375,1,1.0,1.0,1.0,1.0,10.00
2024-10-11 20:47:23.434,1.4814558,0.62602955,0.6927277,0.989569,1.1855713,0.23904888,0.119528204,0.6324033,0.76936245,0.20671093,0.45704672,0.75687915,0.6809756,-0.013237606,0.51208943,0.70173365,-0.10964426,-0.45050043,0.3294755,0.3075309,807.0696,798.60803,802.23444,805.05493,850.18317,0.2200927734375,0.1492919921875,0.97406005859375,-0.43365478515625,-0.52337646484375,-0.770111083984375,1,1.0,1.0,1.0,1.0,10.00
2024-10-11 20:47:23.435,1.4814558,0.62602955,0.6927277,0.989569,1.1855713,0.23904888,0.119528204,0.6324033,0.76936245,0.20671093,0.45704672,0.75687915,0.6809756,-0.013237606,0.51208943,0.70173365,-0.10964426,-0.45050043,0.3294755,0.3075309,806.6667,799.81683,805.05493,796.99634,665.2381,0.2200927734375,0.1492919921875,0.97406005859375,-0.43365478515625,-0.52337646484375,-0.770111083984375,1,1.0,1.0,1.0,1.0,10.00
2024-10-11 20:47:23.437,1.4814558,0.62602955,0.6927277,0.989569,1.1855713,0.23904888,0.119528204,0.6324033,0.76936245,0.20671093,0.45704672,0.75687915,0.6809756,-0.013237606,0.51208943,0.70173365,-0.10964426,-0.45050043,0.3294755,0.3075309,807.8755,799.011,805.05493,802.23444,640.65936,0.23095703125,0.149658203125,0.964111328125,-1.2860107421875,0.964508056640625,-1.57012939453125,1,1.0,1.0,1.0,1.0,10.00
2024-10-11 20:47:23.438,1.4814558,0.62602955,0.6927277,0.989569,1.1855713,0.23904888,0.119528204,0.6324033,0.76936245,0.20671093,0.45704672,0.75687915,0.6809756,-0.013237606,0.51208943,0.70173365,-0.10964426,-0.45050043,0.3294755,0.3075309,798.20514,796.5934,804.65204,806.6667,792.96704,0.23095703125,0.149658203125,0.964111328125,-1.2860107421875,0.964508056640625,-1.57012939453125,1,1.0,1.0,1.0,1.0,10.00
2024-10-11 20:47:23.439,1.4814558,0.62602955,0.6927277,0.989569,1.1855713,0.23904888,0.119528204,0.6324033,0.76936245,0.20671093,0.45704672,0.75687915,0.6809756,-0.013237606,0.51208943,0.70173365,-0.10964426,-0.45050043,0.3294755,0.3075309,795.38464,795.38464,795.38464,794.9817,804.65204,0.23095703125,0.149658203125,0.964111328125,-1.2860107421875,0.964508056640625,-1.57012939453125,1,1.0,1.0,1.0,1.0,10.00
2024-10-11 20:47:23.440,1.4814558,0.62602955,0.6927277,0.989569,1.1855713,0.23904888,0.119528204,0.6324033,0.76936245,0.20671093,0.45704672,0.75687915,0.6809756,-0.013237606,0.51208943,0.70173365,-0.10964426,-0.45050043,0.3294755,0.3075309,799.011,797.3993,784.90845,792.5641,656.77655,0.23095703125,0.149658203125,0.964111328125,-1.2860107421875,0.964508056640625,-1.57012939453125,1,1.0,1.0,1.0,1.0,10.00
2024-10-11 20:47:23.440,1.4814558,0.62602955,0.6927277,0.989569,1.1855713,0.23904888,0.119528204,0.6324033,0.76936245,0.20671093,0.45704672,0.75687915,0.6809756,-0.013237606,0.51208943,0.70173365,-0.10964426,-0.45050043,0.3294755,0.3075309,794.57874,795.78754,800.6227,803.8461,679.34064,0.23095703125,0.149658203125,0.964111328125,-1.2860107421875,0.964508056640625,-1.57012939453125,1,1.0,1.0,1.0,1.0,10.00
2024-10-11 20:47:23.441,1.4814558,0.62602955,0.6927277,0.989569,1.1855713,0.23904888,0.119528204,0.6324033,0.76936245,0.20671093,0.45704672,0.75687915,0.6809756,-0.013237606,0.51208943,0.70173365,-0.10964426,-0.45050043,0.3294755,0.3075309,795.38464,793.36993,812.71063,808.68134,884.83514,0.23095703125,0.149658203125,0.964111328125,-1.2860107421875,0.964508056640625,-1.57012939453125,1,1.0,1.0,1.0,1.0,10.00
2024-10-11 20:47:23.442,1.4814558,0.62602955,0.6927277,0.989569,1.1855713,0.23904888,0.119528204,0.6324033,0.76936245,0.20671093,0.45704672,0.75687915,0.6809756,-0.013237606,0.51208943,0.70173365,-0.10964426,-0.45050043,0.3294755,0.3075309,799.81683,796.5934,814.7253,803.0403,875.16486,0.23095703125,0.149658203125,0.964111328125,-1.2860107421875,0.964508056640625,-1.57012939453125,1,1.0,1.0,1.0,1.0,10.00
2024-10-11 20:47:23.443,1.4814558,0.62602955,0.6927277,0.989569,1.1855713,0.23904888,0.119528204,0.6324033,0.76936245,0.20671093,0.45704672,0.75687915,0.6809756,-0.013237606,0.51208943,0.70173365,-0.10964426,-0.45050043,0.3294755,0.3075309,802.6374,797.3993,813.91943,800.2198,786.9231,0.23095703125,0.149658203125,0.964111328125,-1.2860107421875,0.964508056640625,-1.57012939453125,1,1.0,1.0,1.0,1.0,10.00
2024-10-11 20:47:23.444,1.4814558,0.62602955,0.6927277,0.989569,1.1855713,0.23904888,0.119528204,0.6324033,0.76936245,0.20671093,0.45704672,0.75687915,0.6809756,-0.013237606,0.51208943,0.70173365,-0.10964426,-0.45050043,0.3294755,0.3075309,793.7729,796.1905,810.293,799.41394,917.47253,0.23095703125,0.149658203125,0.964111328125,-1.2860107421875,0.964508056640625,-1.57012939453125,1,1.0,1.0,1.0,1.0,10.00
2024-10-11 20:47:23.445,1.4814558,0.62602955,0.6927277,0.989569,1.1855713,0.23904888,0.119528204,0.6324033,0.76936245,0.20671093,0.45704672,0.75687915,0.6809756,-0.013237606,0.51208943,0.70173365,-0.10964426,-0.45050043,0.3294755,0.3075309,796.5934,795.38464,799.81683,800.6227,1016.99634,0.23095703125,0.149658203125,0.964111328125,-1.2860107421875,0.964508056640625,-1.57012939453125,1,1.0,1.0,1.0,1.0,10.00
2024-10-11 20:47:23.446,1.4814558,0.62602955,0.6927277,0.989569,1.1855713,0.23904888,0.119528204,0.6324033,0.76936245,0.20671093,0.45704672,0.75687915,0.6809756,-0.013237606,0.51208943,0.70173365,-0.10964426,-0.45050043,0.3294755,0.3075309,803.0403,796.99634,801.02563,807.0696,857.4359,0.23095703125,0.149658203125,0.964111328125,-1.2860107421875,0.964508056640625,-1.57012939453125,1,1.0,1.0,1.0,1.0,10.00
2024-10-11 20:47:23.448,1.4814558,0.62602955,0.6927277,0.989569,1.1855713,0.23904888,0.119528204,0.6324033,0.76936245,0.20671093,0.45704672,0.75687915,0.6809756,-0.013237606,0.51208943,0.70173365,-0.10964426,-0.45050043,0.3294755,0.3075309,799.81683,798.60803,807.8755,805.4579,752.27106,0.23095703125,0.149658203125,0.964111328125,-1.2860107421875,0.964508056640625,-1.57012939453125,1,1.0,1.0,1.0,1.0,10.00
2024-10-11 20:47:23.517,1.4814558,0.62602955,0.6927277,0.989569,1.1855713,0.23904888,0.119528204,0.6324033,0.76936245,0.20671093,0.45704672,0.75687915,0.6809756,-0.013237606,0.51208943,0.70173365,-0.10964426,-0.45050043,0.3294755,0.3075309,808.2784,798.20514,793.7729,800.6227,866.7033,0.2294921875,0.1490478515625,0.976806640625,-1.79443359375,6.138458251953125,-3.401947021484375,1,1.0,1.0,1.0,1.0,10.00
2024-10-11 20:47:23.518,1.4814558,0.62602955,0.6927277,0.989569,1.1855713,0.23904888,0.119528204,0.6324033,0.76936245,0.20671093,0.45704672,0.75687915,0.6809756,-0.013237606,0.51208943,0.70173365,-0.10964426,-0.45050043,0.3294755,0.3075309,817.5458,798.60803,802.23444,801.4286,894.90845,0.2294921875,0.1490478515625,0.976806640625,-1.79443359375,6.138458251953125,-3.401947021484375,1,1.0,1.0,1.0,1.0,10.00
2024-10-11 20:47:23.519,1.4814558,0.62602955,0.6927277,0.989569,1.1855713,0.23904888,0.119528204,0.6324033,0.76936245,0.20671093,0.45704672,0.75687915,0.6809756,-0.013237606,0.51208943,0.70173365,-0.10964426,-0.45050043,0.3294755,0.3075309,814.7253,802.23444,819.5604,801.4286,687.3993,0.2294921875,0.1490478515625,0.976806640625,-1.79443359375,6.138458251953125,-3.401947021484375,1,1.0,1.0,1.0,1.0,10.00
2024-10-11 20:47:23.520,1.4814558,0.62602955,0.6927277,0.989569,1.1855713,0.23904888,0.119528204,0.6324033,0.76936245,0.20671093,0.45704672,0.75687915,0.6809756,-0.013237606,0.51208943,0.70173365,-0.10964426,-0.45050043,0.3294755,0.3075309,812.71063,800.2198,817.9487,804.2491,691.8315,0.2294921875,0.1490478515625,0.976806640625,-1.79443359375,6.138458251953125,-3.401947021484375,1,1.0,1.0,1.0,1.0,10.00
2024-10-11 20:47:23.522,1.4814558,0.62602955,0.6927277,0.989569,1.1855713,0.23904888,0.119528204,0.6324033,0.76936245,0.20671093,0.45704672,0.75687915,0.6809756,-0.013237606,0.51208943,0.70173365,-0.10964426,-0.45050043,0.3294755,0.3075309,817.1429,798.20514,813.5165,813.1135,802.6374,0.2294921875,0.1490478515625,0.976806640625,-1.79443359375,6.138458251953125,-3.401947021484375,1,1.0,1.0,1.0,1.0,10.00
2024-10-11 20:47:23.523,1.4814558,0.62602955,0.6927277,0.989569,1.1855713,0.23904888,0.119528204,0.6324033,0.76936245,0.20671093,0.45704672,0.75687915,0.6809756,-0.013237606,0.51208943,0.70173365,-0.10964426,-0.45050043,0.3294755,0.3075309,810.696,803.0403,806.6667,814.7253,871.53845,0.2294921875,0.1490478515625,0.976806640625,-1.79443359375,6.138458251953125,-3.401947021484375,1,1.0,1.0,1.0,1.0,10.00
2024-10-11 20:47:23.524,1.4814558,0.62602955,0.6927277,0.989569,1.1855713,0.23904888,0.119528204,0.6324033,0.76936245,0.20671093,0.45704672,0.75687915,0.6809756,-0.013237606,0.51208943,0.70173365,-0.10964426,-0.45050043,0.3294755,0.3075309,805.4579,802.6374,808.2784,815.5311,830.4396,0.2294921875,0.1490478515625,0.976806640625,-1.79443359375,6.138458251953125,-3.401947021484375,1,1.0,1.0,1.0,1.0,10.00
2024-10-11 20:47:23.525,1.4814558,0.6415285,0.5702871,0.989569,1.1855713,0.23986234,-0.09065022,0.6324033,0.76936245,0.20671093,0.41587856,0.75687915,0.6809756,-0.02336014,0.4818187,0.70173365,-0.10964426,-0.45251027,0.32329297,0.3075309,798.20514,799.41394,793.36993,818.7546,726.4835,0.2294921875,0.1490478515625,0.976806640625,-1.79443359375,6.138458251953125,-3.401947021484375,1,2.0,1.0,1.0,2.0,10.00
2024-10-11 20:47:23.529,1.4814558,0.6415285,0.5702871,0.989569,1.1855713,0.23986234,-0.09065022,0.6324033,0.76936245,0.20671093,0.41587856,0.75687915,0.6809756,-0.02336014,0.4818187,0.70173365,-0.10964426,-0.45251027,0.32329297,0.3075309,795.38464,801.8315,778.46155,813.91943,900.9524,0.2294921875,0.1490478515625,0.976806640625,-1.79443359375,6.138458251953125,-3.401947021484375,1,2.0,1.0,1.0,2.0,10.00
2024-10-11 20:47:23.531,1.4814558,0.6415285,0.5702871,0.989569,1.1855713,0.23986234,-0.09065022,0.6324033,0.76936245,0.20671093,0.41587856,0.75687915,0.6809756,-0.02336014,0.4818187,0.70173365,-0.10964426,-0.45251027,0.32329297,0.3075309,801.8315,803.0403,797.8022,813.5165,1137.8755,0.2294921875,0.1490478515625,0.976806640625,-1.79443359375,6.138458251953125,-3.401947021484375,1,2.0,1.0,1.0,2.0,10.00
2024-10-11 20:47:23.532,1.4814558,0.6415285,0.5702871,0.989569,1.1855713,0.23986234,-0.09065022,0.6324033,0.76936245,0.20671093,0.41587856,0.75687915,0.6809756,-0.02336014,0.4818187,0.70173365,-0.10964426,-0.45251027,0.32329297,0.3075309,795.78754,800.6227,817.5458,810.293,1340.5494,0.2294921875,0.1490478515625,0.976806640625,-1.79443359375,6.138458251953125,-3.401947021484375,1,2.0,1.0,1.0,2.0,10.00
2024-10-11 20:47:23.533,1.4814558,0.6415285,0.5702871,0.989569,1.1855713,0.23986234,-0.09065022,0.6324033,0.76936245,0.20671093,0.41587856,0.75687915,0.6809756,-0.02336014,0.4818187,0.70173365,-0.10964426,-0.45251027,0.32329297,0.3075309,802.6374,799.011,813.91943,807.8755,1161.2454,0.2294921875,0.1490478515625,0.976806640625,-1.79443359375,6.138458251953125,-3.401947021484375,1,2.0,1.0,1.0,2.0,10.00
2024-10-11 20:47:23.534,1.4814558,0.6415285,0.5702871,0.989569,1.1855713,0.23986234,-0.09065022,0.6324033,0.76936245,0.20671093,0.41587856,0.75687915,0.6809756,-0.02336014,0.4818187,0.70173365,-0.10964426,-0.45251027,0.32329297,0.3075309,799.011,799.41394,808.2784,809.4872,973.0769,0.21624755859375,0.14324951171875,0.981201171875,-1.996307373046875,11.88812255859375,-4.807586669921875,1,2.0,1.0,1.0,2.0,10.00
2024-10-11 20:47:23.535,1.4814558,0.6415285,0.5702871,0.989569,1.1855713,0.23986234,-0.09065022,0.6324033,0.76936245,0.20671093,0.41587856,0.75687915,0.6809756,-0.02336014,0.4818187,0.70173365,-0.10964426,-0.45251027,0.32329297,0.3075309,787.72894,797.8022,804.2491,811.9048,1017.8022,0.21624755859375,0.14324951171875,0.981201171875,-1.996307373046875,11.88812255859375,-4.807586669921875,1,2.0,1.0,1.0,2.0,10.00
2024-10-11 20:47:23.536,1.4814558,0.6415285,0.5702871,0.989569,1.1855713,0.23986234,-0.09065022,0.6324033,0.76936245,0.20671093,0.41587856,0.75687915,0.6809756,-0.02336014,0.4818187,0.70173365,-0.10964426,-0.45251027,0.32329297,0.3075309,792.96704,799.011,801.4286,806.26373,597.1429,0.21624755859375,0.14324951171875,0.981201171875,-1.996307373046875,11.88812255859375,-4.807586669921875,1,2.0,1.0,1.0,2.0,10.00
2024-10-11 20:47:23.537,1.4814558,0.6415285,0.5702871,0.989569,1.1855713,0.23986234,-0.09065022,0.6324033,0.76936245,0.20671093,0.41587856,0.75687915,0.6809756,-0.02336014,0.4818187,0.70173365,-0.10964426,-0.45251027,0.32329297,0.3075309,786.9231,802.23444,790.14655,790.14655,557.6557,0.21624755859375,0.14324951171875,0.981201171875,-1.996307373046875,11.88812255859375,-4.807586669921875,1,2.0,1.0,1.0,2.0,10.00
2024-10-11 20:47:23.538,1.4814558,0.6415285,0.5702871,0.989569,1.1855713,0.23986234,-0.09065022,0.6324033,0.76936245,0.20671093,0.41587856,0.75687915,0.6809756,-0.02336014,0.4818187,0.70173365,-0.10964426,-0.45251027,0.32329297,0.3075309,801.8315,792.96704,791.3553,804.2491,969.85345,0.21624755859375,0.14324951171875,0.981201171875,-1.996307373046875,11.88812255859375,-4.807586669921875,1,2.0,1.0,1.0,2.0,10.00
2024-10-11 20:47:23.539,1.4814558,0.6415285,0.5702871,0.989569,1.1855713,0.23986234,-0.09065022,0.6324033,0.76936245,0.20671093,0.41587856,0.75687915,0.6809756,-0.02336014,0.4818187,0.70173365,-0.10964426,-0.45251027,0.32329297,0.3075309,827.619,789.34064,816.337,832.8571,1339.7435,0.21624755859375,0.14324951171875,0.981201171875,-1.996307373046875,11.88812255859375,-4.807586669921875,1,2.0,1.0,1.0,2.0,10.00
2024-10-11 20:47:23.539,1.4814558,0.6415285,0.5702871,0.989569,1.1855713,0.23986234,-0.09065022,0.6324033,0.76936245,0.20671093,0.41587856,0.75687915,0.6809756,-0.02336014,0.4818187,0.70173365,-0.10964426,-0.45251027,0.32329297,0.3075309,799.41394,805.8608,817.1429,798.20514,1008.1319,0.21624755859375,0.14324951171875,0.981201171875,-1.996307373046875,11.88812255859375,-4.807586669921875,1,2.0,1.0,1.0,2.0,10.00
2024-10-11 20:47:23.540,1.4814558,0.6415285,0.5702871,0.989569,1.1855713,0.23986234,-0.09065022,0.6324033,0.76936245,0.20671093,0.41587856,0.75687915,0.6809756,-0.02336014,0.4818187,0.70173365,-0.10964426,-0.45251027,0.32329297,0.3075309,770.80585,807.8755,811.50183,756.30035,755.4945,0.21624755859375,0.14324951171875,0.981201171875,-1.996307373046875,11.88812255859375,-4.807586669921875,1,2.0,1.0,1.0,2.0,10.00
2024-10-11 20:47:23.541,1.4814558,0.6415285,0.5702871,0.989569,1.1855713,0.23986234,-0.09065022,0.6324033,0.76936245,0.20671093,0.41587856,0.75687915,0.6809756,-0.02336014,0.4818187,0.70173365,-0.10964426,-0.45251027,0.32329297,0.3075309,761.53845,803.8461,803.8461,753.47986,728.49817,0.21624755859375,0.14324951171875,0.981201171875,-1.996307373046875,11.88812255859375,-4.807586669921875,1,2.0,1.0,1.0,2.0,10.00
2024-10-11 20:47:23.542,1.4814558,0.6415285,0.5702871,0.989569,1.1855713,0.23986234,-0.09065022,0.6324033,0.76936245,0.20671093,0.41587856,0.75687915,0.6809756,-0.02336014,0.4818187,0.70173365,-0.10964426,-0.45251027,0.32329297,0.3075309,752.674,815.12823,760.7326,743.8095,511.72162,0.21624755859375,0.14324951171875,0.981201171875,-1.996307373046875,11.88812255859375,-4.807586669921875,1,2.0,1.0,1.0,2.0,10.00
2024-10-11 20:47:23.543,1.4814558,0.6415285,0.5702871,0.989569,1.1855713,0.23986234,-0.09065022,0.6324033,0.76936245,0.20671093,0.41587856,0.75687915,0.6809756,-0.02336014,0.4818187,0.70173365,-0.10964426,-0.45251027,0.32329297,0.3075309,740.18317,815.9341,763.95605,725.6777,456.52014,0.21624755859375,0.14324951171875,0.981201171875,-1.996307373046875,11.88812255859375,-4.807586669921875,1,2.0,1.0,1.0,2.0,10.00
2024-10-11 20:47:23.544,1.4814558,0.6415285,0.5702871,0.989569,1.1855713,0.23986234,-0.09065022,0.6324033,0.76936245,0.20671093,0.41587856,0.75687915,0.6809756,-0.02336014,0.4818187,0.70173365,-0.10964426,-0.45251027,0.32329297,0.3075309,715.2015,809.89014,805.4579,705.5311,588.2784,0.21624755859375,0.14324951171875,0.981201171875,-1.996307373046875,11.88812255859375,-4.807586669921875,1,2.0,1.0,1.0,2.0,10.00
2024-10-11 20:47:23.545,1.4814558,0.6415285,0.5702871,0.989569,1.1855713,0.23986234,-0.09065022,0.6324033,0.76936245,0.20671093,0.41587856,0.75687915,0.6809756,-0.02336014,0.4818187,0.70173365,-0.10964426,-0.45251027,0.32329297,0.3075309,702.3077,814.7253,807.47253,700.696,675.31134,0.21624755859375,0.14324951171875,0.981201171875,-1.996307373046875,11.88812255859375,-4.807586669921875,1,2.0,1.0,1.0,2.0,10.00
2024-10-11 20:47:23.547,1.4814558,0.6415285,0.5702871,0.989569,1.1855713,0.23986234,-0.09065022,0.6324033,0.76936245,0.20671093,0.41587856,0.75687915,0.6809756,-0.02336014,0.4818187,0.70173365,-0.10964426,-0.45251027,0.32329297,0.3075309,697.47253,813.5165,803.0403,698.2784,651.53845,0.21624755859375,0.14324951171875,0.981201171875,-1.996307373046875,11.88812255859375,-4.807586669921875,1,2.0,1.0,1.0,2.0,10.00
2024-10-11 20:47:23.548,1.4814558,0.6415285,0.5702871,0.989569,1.1855713,0.23986234,-0.09065022,0.6324033,0.76936245,0.20671093,0.41587856,0.75687915,0.6809756,-0.02336014,0.4818187,0.70173365,-0.10964426,-0.45251027,0.32329297,0.3075309,685.78754,812.3077,796.5934,684.9817,601.978,0.21624755859375,0.14324951171875,0.981201171875,-1.996307373046875,11.88812255859375,-4.807586669921875,1,2.0,1.0,1.0,2.0,10.00
2024-10-11 20:47:23.549,1.4814558,0.6415285,0.5702871,0.989569,1.1855713,0.23986234,-0.09065022,0.6324033,0.76936245,0.20671093,0.41587856,0.75687915,0.6809756,-0.02336014,0.4818187,0.70173365,-0.10964426,-0.45251027,0.32329297,0.3075309,678.93774,819.5604,788.93774,679.34064,691.4286,0.21624755859375,0.14324951171875,0.981201171875,-1.996307373046875,11.88812255859375,-4.807586669921875,1,2.0,1.0,1.0,2.0,10.00
2024-10-11 20:47:23.550,1.4814558,0.6415285,0.5702871,0.989569,1.1855713,0.23986234,-0.09065022,0.6324033,0.76936245,0.20671093,0.41587856,0.75687915,0.6809756,-0.02336014,0.4818187,0.70173365,-0.10964426,-0.45251027,0.32329297,0.3075309,679.7436,818.3516,780.07324,680.9524,774.43225,0.21624755859375,0.14324951171875,0.981201171875,-1.996307373046875,11.88812255859375,-4.807586669921875,1,2.0,1.0,1.0,2.0,10.00
2024-10-11 20:47:23.551,1.4814558,0.6415285,0.5702871,0.989569,1.1855713,0.23986234,-0.09065022,0.6324033,0.76936245,0.20671093,0.41587856,0.75687915,0.6809756,-0.02336014,0.4818187,0.70173365,-0.10964426,-0.45251027,0.32329297,0.3075309,677.326,818.7546,773.6264,676.9231,765.16486,0.21624755859375,0.14324951171875,0.981201171875,-1.996307373046875,11.88812255859375,-4.807586669921875,1,2.0,1.0,1.0,2.0,10.00
2024-10-11 20:47:23.552,1.4814558,0.6415285,0.5702871,0.989569,1.1855713,0.23986234,-0.09065022,0.6324033,0.76936245,0.20671093,0.41587856,0.75687915,0.6809756,-0.02336014,0.4818187,0.70173365,-0.10964426,-0.45251027,0.32329297,0.3075309,669.2674,817.9487,763.1502,675.31134,718.4249,0.21624755859375,0.14324951171875,0.981201171875,-1.996307373046875,11.88812255859375,-4.807586669921875,1,2.0,1.0,1.0,2.0,10.00
2024-10-11 20:47:23.553,1.4814558,0.6415285,0.5702871,0.989569,1.1855713,0.23986234,-0.09065022,0.6324033,0.76936245,0.20671093,0.41587856,0.75687915,0.6809756,-0.02336014,0.4818187,0.70173365,-0.10964426,-0.45251027,0.32329297,0.3075309,664.83514,816.7399,752.674,671.685,662.8205,0.21624755859375,0.14324951171875,0.981201171875,-1.996307373046875,11.88812255859375,-4.807586669921875,1,2.0,1.0,1.0,2.0,10.00
2024-10-11 20:47:23.553,1.4814558,0.6415285,0.5702871,0.989569,1.1855713,0.23986234,-0.09065022,0.6324033,0.76936245,0.20671093,0.41587856,0.75687915,0.6809756,-0.02336014,0.4818187,0.70173365,-0.10964426,-0.45251027,0.32329297,0.3075309,664.83514,821.978,768.7912,659.19415,665.2381,0.21624755859375,0.14324951171875,0.981201171875,-1.996307373046875,11.88812255859375,-4.807586669921875,1,2.0,1.0,1.0,2.0,10.00
2024-10-11 20:47:23.554,1.4814558,0.63864267,0.55967253,0.989569,1.1855713,0.23037252,-0.09506009,0.6324033,0.76936245,0.20671093,0.42312688,0.75687915,0.6809756,-0.035963237,0.4768869,0.70173365,-0.10964426,-0.45454758,0.33165953,0.3075309,663.6264,826.0073,776.8498,648.315,637.4359,0.21624755859375,0.14324951171875,0.981201171875,-1.996307373046875,11.88812255859375,-4.807586669921875,1,2.0,1.0,1.0,2.0,10.00
2024-10-11 20:47:23.559,1.4814558,0.63864267,0.55967253,0.989569,1.1855713,0.23037252,-0.09506009,0.6324033,0.76936245,0.20671093,0.42312688,0.75687915,0.6809756,-0.035963237,0.4768869,0.70173365,-0.10964426,-0.45454758,0.33165953,0.3075309,668.86444,825.2015,772.4176,644.2857,636.2271,0.21624755859375,0.14324951171875,0.981201171875,-1.996307373046875,11.88812255859375,-4.807586669921875,1,2.0,1.0,1.0,2.0,10.00
2024-10-11 20:47:23.560,1.4814558,0.63864267,0.55967253,0.989569,1.1855713,0.23037252,-0.09506009,0.6324033,0.76936245,0.20671093,0.42312688,0.75687915,0.6809756,-0.035963237,0.4768869,0.70173365,-0.10964426,-0.45454758,0.33165953,0.3075309,670.4762,820.7692,774.43225,648.315,775.64105,0.21624755859375,0.14324951171875,0.981201171875,-1.996307373046875,11.88812255859375,-4.807586669921875,1,2.0,1.0,1.0,2.0,10.00
2024-10-11 20:47:23.561,1.4814558,0.63864267,0.55967253,0.989569,1.1855713,0.23037252,-0.09506009,0.6324033,0.76936245,0.20671093,0.42312688,0.75687915,0.6809756,-0.035963237,0.4768869,0.70173365,-0.10964426,-0.45454758,0.33165953,0.3075309,666.4469,824.3956,757.1062,652.74725,738.1685,0.19708251953125,0.13385009765625,0.97998046875,-2.82623291015625,14.5648193359375,-4.059906005859375,1,2.0,1.0,1.0,2.0,10.00
2024-10-11 20:47:23.562,1.4814558,0.63864267,0.55967253,0.989569,1.1855713,0.23037252,-0.09506009,0.6324033,0.76936245,0.20671093,0.42312688,0.75687915,0.6809756,-0.035963237,0.4768869,0.70173365,-0.10964426,-0.45454758,0.33165953,0.3075309,660.40295,821.978,764.35895,653.1502,599.5604,0.19708251953125,0.13385009765625,0.97998046875,-2.82623291015625,14.5648193359375,-4.059906005859375,1,2.0,1.0,1.0,2.0,10.00
2024-10-11 20:47:23.562,1.4814558,0.63864267,0.55967253,0.989569,1.1855713,0.23037252,-0.09506009,0.6324033,0.76936245,0.20671093,0.42312688,0.75687915,0.6809756,-0.035963237,0.4768869,0.70173365,-0.10964426,-0.45454758,0.33165953,0.3075309,662.8205,817.5458,773.6264,657.1795,531.4652,0.19708251953125,0.13385009765625,0.97998046875,-2.82623291015625,14.5648193359375,-4.059906005859375,1,2.0,1.0,1.0,2.0,10.00
2024-10-11 20:47:23.563,1.4814558,0.63864267,0.55967253,0.989569,1.1855713,0.23037252,-0.09506009,0.6324033,0.76936245,0.20671093,0.42312688,0.75687915,0.6809756,-0.035963237,0.4768869,0.70173365,-0.10964426,-0.45454758,0.33165953,0.3075309,663.6264,816.337,764.35895,663.6264,853.00366,0.19708251953125,0.13385009765625,0.97998046875,-2.82623291015625,14.5648193359375,-4.059906005859375,1,2.0,1.0,1.0,2.0,10.00
2024-10-11 20:47:23.564,1.4814558,0.63864267,0.55967253,0.989569,1.1855713,0.23037252,-0.09506009,0.6324033,0.76936245,0.20671093,0.42312688,0.75687915,0.6809756,-0.035963237,0.4768869,0.70173365,-0.10964426,-0.45454758,0.33165953,0.3075309,668.86444,817.1429,765.16486,663.22345,1014.17584,0.19708251953125,0.13385009765625,0.97998046875,-2.82623291015625,14.5648193359375,-4.059906005859375,1,2.0,1.0,1.0,2.0,10.00
2024-10-11 20:47:23.565,1.4814558,0.63864267,0.55967253,0.989569,1.1855713,0.23037252,-0.09506009,0.6324033,0.76936245,0.20671093,0.42312688,0.75687915,0.6809756,-0.035963237,0.4768869,0.70173365,-0.10964426,-0.45454758,0.33165953,0.3075309,684.17584,819.9634,769.19415,664.0293,644.68866,0.19708251953125,0.13385009765625,0.97998046875,-2.82623291015625,14.5648193359375,-4.059906005859375,1,2.0,1.0,1.0,2.0,10.00
2024-10-11 20:47:23.566,1.4814558,0.63864267,0.55967253,0.989569,1.1855713,0.23037252,-0.09506009,0.6324033,0.76936245,0.20671093,0.42312688,0.75687915,0.6809756,-0.035963237,0.4768869,0.70173365,-0.10964426,-0.45454758,0.33165953,0.3075309,680.14655,821.978,773.22345,663.6264,827.2161,0.19708251953125,0.13385009765625,0.97998046875,-2.82623291015625,14.5648193359375,-4.059906005859375,1,2.0,1.0,1.0,2.0,10.00
2024-10-11 20:47:23.567,1.4814558,0.63864267,0.55967253,0.989569,1.1855713,0.23037252,-0.09506009,0.6324033,0.76936245,0.20671093,0.42312688,0.75687915,0.6809756,-0.035963237,0.4768869,0.70173365,-0.10964426,-0.45454758,0.33165953,0.3075309,673.69965,820.7692,780.4762,664.83514,991.6117,0.19708251953125,0.13385009765625,0.97998046875,-2.82623291015625,14.5648193359375,-4.059906005859375,1,2.0,1.0,1.0,2.0,10.00
2024-10-11 20:47:23.568,1.4814558,0.63864267,0.55967253,0.989569,1.1855713,0.23037252,-0.09506009,0.6324033,0.76936245,0.20671093,0.42312688,0.75687915,0.6809756,-0.035963237,0.4768869,0.70173365,-0.10964426,-0.45454758,0.33165953,0.3075309,689.41394,824.7985,773.6264,673.69965,684.17584,0.19708251953125,0.13385009765625,0.97998046875,-2.82623291015625,14.5648193359375,-4.059906005859375,1,2.0,1.0,1.0,2.0,10.00
2024-10-11 20:47:23.569,1.4814558,0.63864267,0.55967253,0.989569,1.1855713,0.23037252,-0.09506009,0.6324033,0.76936245,0.20671093,0.42312688,0.75687915,0.6809756,-0.035963237,0.4768869,0.70173365,-0.10964426,-0.45454758,0.33165953,0.3075309,691.8315,825.6044,758.315,678.1319,585.4579,0.19708251953125,0.13385009765625,0.97998046875,-2.82623291015625,14.5648193359375,-4.059906005859375,1,2.0,1.0,1.0,2.0,10.00
2024-10-11 20:47:23.570,1.4814558,0.63864267,0.55967253,0.989569,1.1855713,0.23037252,-0.09506009,0.6324033,0.76936245,0.20671093,0.42312688,0.75687915,0.6809756,-0.035963237,0.4768869,0.70173365,-0.10964426,-0.45454758,0.33165953,0.3075309,686.1905,811.9048,770.0,682.5641,792.1612,0.19708251953125,0.13385009765625,0.97998046875,-2.82623291015625,14.5648193359375,-4.059906005859375,1,2.0,1.0,1.0,2.0,10.00
2024-10-11 20:47:23.571,1.4814558,0.63864267,0.55967253,0.989569,1.1855713,0.23037252,-0.09506009,0.6324033,0.76936245,0.20671093,0.42312688,0.75687915,0.6809756,-0.035963237,0.4768869,0.70173365,-0.10964426,-0.45454758,0.33165953,0.3075309,686.1905,810.293,770.80585,680.54944,1001.28204,0.19708251953125,0.13385009765625,0.97998046875,-2.82623291015625,14.5648193359375,-4.059906005859375,1,2.0,1.0,1.0,2.0,10.00
2024-10-11 20:47:23.597,1.4814558,0.63864267,0.55967253,0.989569,1.1855713,0.23037252,-0.09506009,0.6324033,0.76936245,0.20671093,0.42312688,0.75687915,0.6809756,-0.035963237,0.4768869,0.70173365,-0.10964426,-0.45454758,0.33165953,0.3075309,680.54944,818.3516,762.3443,673.69965,761.13556,0.18341064453125,0.13037109375,0.97467041015625,-2.093505859375,13.719940185546875,-1.614990234375,1,2.0,1.0,1.0,2.0,10.00
2024-10-11 20:47:23.598,1.4814558,0.63864267,0.55967253,0.989569,1.1855713,0.23037252,-0.09506009,0.6324033,0.76936245,0.20671093,0.42312688,0.75687915,0.6809756,-0.035963237,0.4768869,0.70173365,-0.10964426,-0.45454758,0.33165953,0.3075309,684.17584,813.1135,768.3883,686.5934,569.34064,0.18341064453125,0.13037109375,0.97467041015625,-2.093505859375,13.719940185546875,-1.614990234375,1,2.0,1.0,1.0,2.0,10.00
2024-10-11 20:47:23.599,1.4814558,0.63864267,0.55967253,0.989569,1.1855713,0.23037252,-0.09506009,0.6324033,0.76936245,0.20671093,0.42312688,0.75687915,0.6809756,-0.035963237,0.4768869,0.70173365,-0.10964426,-0.45454758,0.33165953,0.3075309,689.81683,810.293,763.95605,689.81683,647.1062,0.18341064453125,0.13037109375,0.97467041015625,-2.093505859375,13.719940185546875,-1.614990234375,1,2.0,1.0,1.0,2.0,10.00
2024-10-11 20:47:23.600,1.4814558,0.63864267,0.55967253,0.989569,1.1855713,0.23037252,-0.09506009,0.6324033,0.76936245,0.20671093,0.42312688,0.75687915,0.6809756,-0.035963237,0.4768869,0.70173365,-0.10964426,-0.45454758,0.33165953,0.3075309,698.2784,820.7692,751.06226,692.6374,646.7033,0.18341064453125,0.13037109375,0.97467041015625,-2.093505859375,13.719940185546875,-1.614990234375,1,2.0,1.0,1.0,2.0,10.00
2024-10-11 20:47:23.600,1.4814558,0.63864267,0.55967253,0.989569,1.1855713,0.23037252,-0.09506009,0.6324033,0.76936245,0.20671093,0.42312688,0.75687915,0.6809756,-0.035963237,0.4768869,0.70173365,-0.10964426,-0.45454758,0.33165953,0.3075309,703.5165,823.1868,758.315,695.8608,593.1135,0.18341064453125,0.13037109375,0.97467041015625,-2.093505859375,13.719940185546875,-1.614990234375,1,2.0,1.0,1.0,2.0,10.00
2024-10-11 20:47:23.601,1.4814558,0.63864267,0.55967253,0.989569,1.1855713,0.23037252,-0.09506009,0.6324033,0.76936245,0.20671093,0.42312688,0.75687915,0.6809756,-0.035963237,0.4768869,0.70173365,-0.10964426,-0.45454758,0.33165953,0.3075309,707.9487,816.7399,767.5824,695.05493,703.91943,0.18341064453125,0.13037109375,0.97467041015625,-2.093505859375,13.719940185546875,-1.614990234375,1,2.0,1.0,1.0,2.0,10.00
2024-10-11 20:47:23.601,1.4814558,0.63864267,0.55967253,0.989569,1.1855713,0.23037252,-0.09506009,0.6324033,0.76936245,0.20671093,0.42312688,0.75687915,0.6809756,-0.035963237,0.4768869,0.70173365,-0.10964426,-0.45454758,0.33165953,0.3075309,721.2454,814.3223,755.89746,711.1722,1039.1575,0.18341064453125,0.13037109375,0.97467041015625,-2.093505859375,13.719940185546875,-1.614990234375,1,2.0,1.0,1.0,2.0,10.00
2024-10-11 20:47:23.602,1.4814558,0.63864267,0.55967253,0.989569,1.1855713,0.23037252,-0.09506009,0.6324033,0.76936245,0.20671093,0.42312688,0.75687915,0.6809756,-0.035963237,0.4768869,0.70173365,-0.10964426,-0.45454758,0.33165953,0.3075309,727.6923,821.1722,758.315,718.4249,983.95605,0.18341064453125,0.13037109375,0.97467041015625,-2.093505859375,13.719940185546875,-1.614990234375,1,2.0,1.0,1.0,2.0,10.00
2024-10-11 20:47:23.603,1.4814558,0.63864267,0.55967253,0.989569,1.1855713,0.23037252,-0.09506009,0.6324033,0.76936245,0.20671093,0.42312688,0.75687915,0.6809756,-0.035963237,0.4768869,0.70173365,-0.10964426,-0.45454758,0.33165953,0.3075309,733.73627,824.7985,767.98535,713.1868,573.36993,0.18341064453125,0.13037109375,0.97467041015625,-2.093505859375,13.719940185546875,-1.614990234375,1,2.0,1.0,1.0,2.0,10.00
2024-10-11 20:47:23.603,1.4814558,0.63864267,0.55967253,0.989569,1.1855713,0.23037252,-0.09506009,0.6324033,0.76936245,0.20671093,0.42312688,0.75687915,0.6809756,-0.035963237,0.4768869,0.70173365,-0.10964426,-0.45454758,0.33165953,0.3075309,730.9158,815.5311,776.8498,716.0073,684.9817,0.18341064453125,0.13037109375,0.97467041015625,-2.093505859375,13.719940185546875,-1.614990234375,1,2.0,1.0,1.0,2.0,10.00
2024-10-11 20:47:23.604,1.4814558,0.63864267,0.55967253,0.989569,1.1855713,0.23037252,-0.09506009,0.6324033,0.76936245,0.20671093,0.42312688,0.75687915,0.6809756,-0.035963237,0.4768869,0.70173365,-0.10964426,-0.45454758,0.33165953,0.3075309,731.31866,812.3077,792.1612,734.5421,848.97437,0.18341064453125,0.13037109375,0.97467041015625,-2.093505859375,13.719940185546875,-1.614990234375,1,2.0,1.0,1.0,2.0,10.00
2024-10-11 20:47:23.604,1.4814558,0.58926564,0.5590214,0.989569,1.1855713,0.1478082,-0.09529365,0.6324033,0.76936245,0.12549302,0.4246854,0.75687915,0.6809756,-0.05507319,0.47436428,0.70173365,-0.10964426,-0.46054584,0.35140982,0.3075309,743.00366,812.71063,794.9817,747.03296,718.022,0.18341064453125,0.13037109375,0.97467041015625,-2.093505859375,13.719940185546875,-1.614990234375,1,2.0,1.0,1.0,2.0,10.00
2024-10-11 20:47:23.609,1.4814558,0.58926564,0.5590214,0.989569,1.1855713,0.1478082,-0.09529365,0.6324033,0.76936245,0.12549302,0.4246854,0.75687915,0.6809756,-0.05507319,0.47436428,0.70173365,-0.10964426,-0.46054584,0.35140982,0.3075309,749.45056,815.5311,784.10254,750.2564,576.5934,0.157470703125,0.129638671875,0.98944091796875,-2.31781005859375,14.13116455078125,1.07666015625,1,2.0,1.0,1.0,2.0,10.00
2024-10-11 20:47:23.609,1.4814558,0.58926564,0.5590214,0.989569,1.1855713,0.1478082,-0.09529365,0.6324033,0.76936245,0.12549302,0.4246854,0.75687915,0.6809756,-0.05507319,0.47436428,0.70173365,-0.10964426,-0.46054584,0.35140982,0.3075309,757.50916,817.1429,780.87915,755.09155,589.0842,0.157470703125,0.129638671875,0.98944091796875,-2.31781005859375,14.13116455078125,1.07666015625,1,2.0,1.0,1.0,2.0,10.00
2024-10-11 20:47:23.610,1.4814558,0.58926564,0.5590214,0.989569,1.1855713,0.1478082,-0.09529365,0.6324033,0.76936245,0.12549302,0.4246854,0.75687915,0.6809756,-0.05507319,0.47436428,0.70173365,-0.10964426,-0.46054584,0.35140982,0.3075309,766.3736,816.337,788.5348,766.3736,688.60803,0.157470703125,0.129638671875,0.98944091796875,-2.31781005859375,14.13116455078125,1.07666015625,1,2.0,1.0,1.0,2.0,10.00
2024-10-11 20:47:23.611,1.4814558,0.58926564,0.5590214,0.989569,1.1855713,0.1478082,-0.09529365,0.6324033,0.76936245,0.12549302,0.4246854,0.75687915,0.6809756,-0.05507319,0.47436428,0.70173365,-0.10964426,-0.46054584,0.35140982,0.3075309,779.67035,820.3663,790.14655,773.6264,693.8461,0.157470703125,0.129638671875,0.98944091796875,-2.31781005859375,14.13116455078125,1.07666015625,1,2.0,1.0,1.0,2.0,10.00
2024-10-11 20:47:23.612,1.4814558,0.58926564,0.5590214,0.989569,1.1855713,0.1478082,-0.09529365,0.6324033,0.76936245,0.12549302,0.4246854,0.75687915,0.6809756,-0.05507319,0.47436428,0.70173365,-0.10964426,-0.46054584,0.35140982,0.3075309,783.69965,815.9341,790.54944,767.98535,546.77655,0.157470703125,0.129638671875,0.98944091796875,-2.31781005859375,14.13116455078125,1.07666015625,1,2.0,1.0,1.0,2.0,10.00
2024-10-11 20:47:23.613,1.4814558,0.58926564,0.5590214,0.989569,1.1855713,0.1478082,-0.09529365,0.6324033,0.76936245,0.12549302,0.4246854,0.75687915,0.6809756,-0.05507319,0.47436428,0.70173365,-0.10964426,-0.46054584,0.35140982,0.3075309,778.0586,810.293,778.0586,772.8205,738.5714,0.157470703125,0.129638671875,0.98944091796875,-2.31781005859375,14.13116455078125,1.07666015625,1,2.0,1.0,1.0,2.0,10.00
2024-10-11 20:47:23.614,1.4814558,0.58926564,0.5590214,0.989569,1.1855713,0.1478082,-0.09529365,0.6324033,0.76936245,0.12549302,0.4246854,0.75687915,0.6809756,-0.05507319,0.47436428,0.70173365,-0.10964426,-0.46054584,0.35140982,0.3075309,776.04395,810.696,766.3736,779.67035,956.1539,0.157470703125,0.129638671875,0.98944091796875,-2.31781005859375,14.13116455078125,1.07666015625,1,2.0,1.0,1.0,2.0,10.00
2024-10-11 20:47:23.615,1.4814558,0.58926564,0.5590214,0.989569,1.1855713,0.1478082,-0.09529365,0.6324033,0.76936245,0.12549302,0.4246854,0.75687915,0.6809756,-0.05507319,0.47436428,0.70173365,-0.10964426,-0.46054584,0.35140982,0.3075309,781.685,812.3077,779.2674,784.10254,751.8681,0.157470703125,0.129638671875,0.98944091796875,-2.31781005859375,14.13116455078125,1.07666015625,1,2.0,1.0,1.0,2.0,10.00
2024-10-11 20:47:23.616,1.4814558,0.58926564,0.5590214,0.989569,1.1855713,0.1478082,-0.09529365,0.6324033,0.76936245,0.12549302,0.4246854,0.75687915,0.6809756,-0.05507319,0.47436428,0.70173365,-0.10964426,-0.46054584,0.35140982,0.3075309,789.7436,811.0989,794.17584,781.685,645.89746,0.157470703125,0.129638671875,0.98944091796875,-2.31781005859375,14.13116455078125,1.07666015625,1,2.0,1.0,1.0,2.0,10.00
2024-10-11 20:47:23.617,1.4814558,0.58926564,0.5590214,0.989569,1.1855713,0.1478082,-0.09529365,0.6324033,0.76936245,0.12549302,0.4246854,0.75687915,0.6809756,-0.05507319,0.47436428,0.70173365,-0.10964426,-0.46054584,0.35140982,0.3075309,792.1612,810.293,804.65204,772.4176,755.4945,0.157470703125,0.129638671875,0.98944091796875,-2.31781005859375,14.13116455078125,1.07666015625,1,2.0,1.0,1.0,2.0,10.00
2024-10-11 20:47:23.618,1.4814558,0.58926564,0.5590214,0.989569,1.1855713,0.1478082,-0.09529365,0.6324033,0.76936245,0.12549302,0.4246854,0.75687915,0.6809756,-0.05507319,0.47436428,0.70173365,-0.10964426,-0.46054584,0.35140982,0.3075309,786.1172,809.4872,803.44324,770.0,789.34064,0.157470703125,0.129638671875,0.98944091796875,-2.31781005859375,14.13116455078125,1.07666015625,1,2.0,1.0,1.0,2.0,10.00
2024-10-11 20:47:23.620,1.4814558,0.58926564,0.5590214,0.989569,1.1855713,0.1478082,-0.09529365,0.6324033,0.76936245,0.12549302,0.4246854,0.75687915,0.6809756,-0.05507319,0.47436428,0.70173365,-0.10964426,-0.46054584,0.35140982,0.3075309,791.3553,808.2784,797.3993,780.87915,666.04395,0.157470703125,0.129638671875,0.98944091796875,-2.31781005859375,14.13116455078125,1.07666015625,1,2.0,1.0,1.0,2.0,10.00
2024-10-11 20:47:23.621,1.4814558,0.58926564,0.5590214,0.989569,1.1855713,0.1478082,-0.09529365,0.6324033,0.76936245,0.12549302,0.4246854,0.75687915,0.6809756,-0.05507319,0.47436428,0.70173365,-0.10964426,-0.46054584,0.35140982,0.3075309,799.41394,810.696,790.14655,789.7436,747.4359,0.12384033203125,0.12139892578125,0.99200439453125,-3.521575927734375,13.331146240234375,2.19818115234375,1,2.0,1.0,1.0,2.0,10.00
2024-10-11 20:47:23.622,1.4814558,0.58926564,0.5590214,0.989569,1.1855713,0.1478082,-0.09529365,0.6324033,0.76936245,0.12549302,0.4246854,0.75687915,0.6809756,-0.05507319,0.47436428,0.70173365,-0.10964426,-0.46054584,0.35140982,0.3075309,799.41394,806.6667,793.36993,795.78754,907.3993,0.12384033203125,0.12139892578125,0.99200439453125,-3.521575927734375,13.331146240234375,2.19818115234375,1,2.0,1.0,1.0,2.0,10.00
2024-10-11 20:47:23.624,1.4814558,0.58926564,0.5590214,0.989569,1.1855713,0.1478082,-0.09529365,0.6324033,0.76936245,0.12549302,0.4246854,0.75687915,0.6809756,-0.05507319,0.47436428,0.70173365,-0.10964426,-0.46054584,0.35140982,0.3075309,796.5934,805.8608,798.20514,807.8755,859.0476,0.12384033203125,0.12139892578125,0.99200439453125,-3.521575927734375,13.331146240234375,2.19818115234375,1,2.0,1.0,1.0,2.0,10.00
2024-10-11 20:47:23.625,1.4814558,0.58926564,0.5590214,0.989569,1.1855713,0.1478082,-0.09529365,0.6324033,0.76936245,0.12549302,0.4246854,0.75687915,0.6809756,-0.05507319,0.47436428,0.70173365,-0.10964426,-0.46054584,0.35140982,0.3075309,793.36993,813.5165,792.96704,807.47253,711.978,0.12384033203125,0.12139892578125,0.99200439453125,-3.521575927734375,13.331146240234375,2.19818115234375,1,2.0,1.0,1.0,2.0,10.00
2024-10-11 20:47:23.625,1.4814558,0.58926564,0.5590214,0.989569,1.1855713,0.1478082,-0.09529365,0.6324033,0.76936245,0.12549302,0.4246854,0.75687915,0.6809756,-0.05507319,0.47436428,0.70173365,-0.10964426,-0.46054584,0.35140982,0.3075309,796.5934,817.1429,803.0403,804.65204,687.3993,0.12384033203125,0.12139892578125,0.99200439453125,-3.521575927734375,13.331146240234375,2.19818115234375,1,2.0,1.0,1.0,2.0,10.00
2024-10-11 20:47:23.626,1.4814558,0.58926564,0.5590214,0.989569,1.1855713,0.1478082,-0.09529365,0.6324033,0.76936245,0.12549302,0.4246854,0.75687915,0.6809756,-0.05507319,0.47436428,0.70173365,-0.10964426,-0.46054584,0.35140982,0.3075309,799.81683,811.50183,804.65204,801.4286,1006.9231,0.12384033203125,0.12139892578125,0.99200439453125,-3.521575927734375,13.331146240234375,2.19818115234375,1,2.0,1.0,1.0,2.0,10.00
2024-10-11 20:47:23.627,1.4814558,0.58926564,0.5590214,0.989569,1.1855713,0.1478082,-0.09529365,0.6324033,0.76936245,0.12549302,0.4246854,0.75687915,0.6809756,-0.05507319,0.47436428,0.70173365,-0.10964426,-0.46054584,0.35140982,0.3075309,802.23444,808.68134,786.1172,800.6227,1480.3663,0.12384033203125,0.12139892578125,0.99200439453125,-3.521575927734375,13.331146240234375,2.19818115234375,1,2.0,1.0,1.0,2.0,10.00
2024-10-11 20:47:23.628,1.4814558,0.58926564,0.5590214,0.989569,1.1855713,0.1478082,-0.09529365,0.6324033,0.76936245,0.12549302,0.4246854,0.75687915,0.6809756,-0.05507319,0.47436428,0.70173365,-0.10964426,-0.46054584,0.35140982,0.3075309,802.6374,810.696,785.31134,802.6374,1138.6813,0.12384033203125,0.12139892578125,0.99200439453125,-3.521575927734375,13.331146240234375,2.19818115234375,1,2.0,1.0,1.0,2.0,10.00
2024-10-11 20:47:23.629,1.4814558,0.58926564,0.5590214,0.989569,1.1855713,0.1478082,-0.09529365,0.6324033,0.76936245,0.12549302,0.4246854,0.75687915,0.6809756,-0.05507319,0.47436428,0.70173365,-0.10964426,-0.46054584,0.35140982,0.3075309,809.0842,809.0842,791.75824,803.8461,699.89014,0.12384033203125,0.12139892578125,0.99200439453125,-3.521575927734375,13.331146240234375,2.19818115234375,1,2.0,1.0,1.0,2.0,10.00
2024-10-11 20:47:23.630,1.4814558,0.58926564,0.5590214,0.989569,1.1855713,0.1478082,-0.09529365,0.6324033,0.76936245,0.12549302,0.4246854,0.75687915,0.6809756,-0.05507319,0.47436428,0.70173365,-0.10964426,-0.46054584,0.35140982,0.3075309,813.1135,807.47253,790.54944,803.44324,757.1062,0.12384033203125,0.12139892578125,0.99200439453125,-3.521575927734375,13.331146240234375,2.19818115234375,1,2.0,1.0,1.0,2.0,10.00
2024-10-11 20:47:23.631,1.4814558,0.58926564,0.5590214,0.989569,1.1855713,0.1478082,-0.09529365,0.6324033,0.76936245,0.12549302,0.4246854,0.75687915,0.6809756,-0.05507319,0.47436428,0.70173365,-0.10964426,-0.46054584,0.35140982,0.3075309,811.0989,805.4579,799.41394,804.2491,783.2967,0.12384033203125,0.12139892578125,0.99200439453125,-3.521575927734375,13.331146240234375,2.19818115234375,1,2.0,1.0,1.0,2.0,10.00
2024-10-11 20:47:23.632,1.4814558,0.58926564,0.5590214,0.989569,1.1855713,0.1478082,-0.09529365,0.6324033,0.76936245,0.12549302,0.4246854,0.75687915,0.6809756,-0.05507319,0.47436428,0.70173365,-0.10964426,-0.46054584,0.35140982,0.3075309,815.12823,799.011,799.81683,809.4872,694.2491,0.12384033203125,0.12139892578125,0.99200439453125,-3.521575927734375,13.331146240234375,2.19818115234375,1,2.0,1.0,1.0,2.0,10.00
2024-10-11 20:47:23.670,1.4814558,0.58926564,0.5590214,0.989569,1.1855713,0.1478082,-0.09529365,0.6324033,0.76936245,0.12549302,0.4246854,0.75687915,0.6809756,-0.05507319,0.47436428,0.70173365,-0.10964426,-0.46054584,0.35140982,0.3075309,806.26373,800.2198,793.36993,809.89014,665.2381,0.12384033203125,0.12139892578125,0.99200439453125,-3.521575927734375,13.331146240234375,2.19818115234375,1,2.0,1.0,1.0,2.0,10.00
2024-10-11 20:47:23,,,,,,,,,,,,,,,,,,,,,,,,,,,,,,,,,,,,,,/muse/elements/blink
2024-10-11 20:47:23.670,1.4814558,0.56025237,0.5929319,0.989569,1.1855713,0.061750695,-0.07058817,0.6324033,0.76936245,0.07932502,0.4246854,0.75687915,0.6809756,-0.080802,0.47341627,0.70173365,-0.10964426,-0.46398088,0.3917591,0.3075309,802.23444,801.8315,804.2491,811.9048,694.2491,0.12384033203125,0.12139892578125,0.99200439453125,-3.521575927734375,13.331146240234375,2.19818115234375,1,2.0,1.0,1.0,2.0,10.00
2024-10-11 20:47:23.674,1.4814558,0.56025237,0.5929319,0.989569,1.1855713,0.061750695,-0.07058817,0.6324033,0.76936245,0.07932502,0.4246854,0.75687915,0.6809756,-0.080802,0.47341627,0.70173365,-0.10964426,-0.46398088,0.3917591,0.3075309,815.12823,797.3993,811.50183,809.0842,587.0696,0.12384033203125,0.12139892578125,0.99200439453125,-3.521575927734375,13.331146240234375,2.19818115234375,1,2.0,1.0,1.0,2.0,10.00
2024-10-11 20:47:23.675,1.4814558,0.56025237,0.5929319,0.989569,1.1855713,0.061750695,-0.07058817,0.6324033,0.76936245,0.07932502,0.4246854,0.75687915,0.6809756,-0.080802,0.47341627,0.70173365,-0.10964426,-0.46398088,0.3917591,0.3075309,819.5604,801.02563,812.3077,814.7253,659.59705,0.12384033203125,0.12139892578125,0.99200439453125,-3.521575927734375,13.331146240234375,2.19818115234375,1,2.0,1.0,1.0,2.0,10.00
2024-10-11 20:47:23.675,1.4814558,0.56025237,0.5929319,0.989569,1.1855713,0.061750695,-0.07058817,0.6324033,0.76936245,0.07932502,0.4246854,0.75687915,0.6809756,-0.080802,0.47341627,0.70173365,-0.10964426,-0.46398088,0.3917591,0.3075309,809.89014,804.2491,794.17584,819.15753,879.19415,0.12384033203125,0.12139892578125,0.99200439453125,-3.521575927734375,13.331146240234375,2.19818115234375,1,2.0,1.0,1.0,2.0,10.00
2024-10-11 20:47:23.676,1.4814558,0.56025237,0.5929319,0.989569,1.1855713,0.061750695,-0.07058817,0.6324033,0.76936245,0.07932502,0.4246854,0.75687915,0.6809756,-0.080802,0.47341627,0.70173365,-0.10964426,-0.46398088,0.3917591,0.3075309,801.02563,802.23444,787.72894,822.381,1054.8718,0.12384033203125,0.12139892578125,0.99200439453125,-3.521575927734375,13.331146240234375,2.19818115234375,1,2.0,1.0,1.0,2.0,10.00
2024-10-11 20:47:23.676,1.4814558,0.56025237,0.5929319,0.989569,1.1855713,0.061750695,-0.07058817,0.6324033,0.76936245,0.07932502,0.4246854,0.75687915,0.6809756,-0.080802,0.47341627,0.70173365,-0.10964426,-0.46398088,0.3917591,0.3075309,804.65204,797.8022,803.0403,816.7399,917.47253,0.12384033203125,0.12139892578125,0.99200439453125,-3.521575927734375,13.331146240234375,2.19818115234375,1,2.0,1.0,1.0,2.0,10.00
2024-10-11 20:47:23.677,1.4814558,0.56025237,0.5929319,0.989569,1.1855713,0.061750695,-0.07058817,0.6324033,0.76936245,0.07932502,0.4246854,0.75687915,0.6809756,-0.080802,0.47341627,0.70173365,-0.10964426,-0.46398088,0.3917591,0.3075309,805.05493,794.57874,804.2491,802.6374,668.86444,0.12384033203125,0.12139892578125,0.99200439453125,-3.521575927734375,13.331146240234375,2.19818115234375,1,2.0,1.0,1.0,2.0,10.00
2024-10-11 20:47:23.677,1.4814558,0.56025237,0.5929319,0.989569,1.1855713,0.061750695,-0.07058817,0.6324033,0.76936245,0.07932502,0.4246854,0.75687915,0.6809756,-0.080802,0.47341627,0.70173365,-0.10964426,-0.46398088,0.3917591,0.3075309,802.6374,794.57874,802.6374,802.23444,779.2674,0.12384033203125,0.12139892578125,0.99200439453125,-3.521575927734375,13.331146240234375,2.19818115234375,1,2.0,1.0,1.0,2.0,10.00
2024-10-11 20:47:23.678,1.4814558,0.56025237,0.5929319,0.989569,1.1855713,0.061750695,-0.07058817,0.6324033,0.76936245,0.07932502,0.4246854,0.75687915,0.6809756,-0.080802,0.47341627,0.70173365,-0.10964426,-0.46398088,0.3917591,0.3075309,797.3993,794.17584,801.4286,799.41394,1001.685,0.12384033203125,0.12139892578125,0.99200439453125,-3.521575927734375,13.331146240234375,2.19818115234375,1,2.0,1.0,1.0,2.0,10.00
2024-10-11 20:47:23.678,1.4814558,0.56025237,0.5929319,0.989569,1.1855713,0.061750695,-0.07058817,0.6324033,0.76936245,0.07932502,0.4246854,0.75687915,0.6809756,-0.080802,0.47341627,0.70173365,-0.10964426,-0.46398088,0.3917591,0.3075309,796.1905,799.41394,803.8461,796.1905,717.2161,0.12384033203125,0.12139892578125,0.99200439453125,-3.521575927734375,13.331146240234375,2.19818115234375,1,2.0,1.0,1.0,2.0,10.00
2024-10-11 20:47:23.679,1.4814558,0.56025237,0.5929319,0.989569,1.1855713,0.061750695,-0.07058817,0.6324033,0.76936245,0.07932502,0.4246854,0.75687915,0.6809756,-0.080802,0.47341627,0.70173365,-0.10964426,-0.46398088,0.3917591,0.3075309,793.36993,796.1905,799.011,798.60803,540.7326,0.12384033203125,0.12139892578125,0.99200439453125,-3.521575927734375,13.331146240234375,2.19818115234375,1,2.0,1.0,1.0,2.0,10.00
2024-10-11 20:47:23.733,1.4814558,0.56025237,0.5929319,0.989569,1.1855713,0.061750695,-0.07058817,0.6324033,0.76936245,0.07932502,0.4246854,0.75687915,0.6809756,-0.080802,0.47341627,0.70173365,-0.10964426,-0.46398088,0.3917591,0.3075309,792.1612,796.99634,798.20514,801.02563,600.3663,0.10528564453125,0.10528564453125,0.9892578125,-3.282318115234375,13.20404052734375,1.502838134765625,1,2.0,1.0,1.0,2.0,10.00
2024-10-11 20:47:23.734,1.4814558,0.56025237,0.5929319,0.989569,1.1855713,0.061750695,-0.07058817,0.6324033,0.76936245,0.07932502,0.4246854,0.75687915,0.6809756,-0.080802,0.47341627,0.70173365,-0.10964426,-0.46398088,0.3917591,0.3075309,800.6227,804.2491,798.60803,800.2198,695.05493,0.10528564453125,0.10528564453125,0.9892578125,-3.282318115234375,13.20404052734375,1.502838134765625,1,2.0,1.0,1.0,2.0,10.00
2024-10-11 20:47:23.734,1.4814558,0.56025237,0.5929319,0.989569,1.1855713,0.061750695,-0.07058817,0.6324033,0.76936245,0.07932502,0.4246854,0.75687915,0.6809756,-0.080802,0.47341627,0.70173365,-0.10964426,-0.46398088,0.3917591,0.3075309,804.65204,802.6374,801.02563,790.54944,574.17584,0.10528564453125,0.10528564453125,0.9892578125,-3.282318115234375,13.20404052734375,1.502838134765625,1,2.0,1.0,1.0,2.0,10.00
2024-10-11 20:47:23.735,1.4814558,0.56025237,0.5929319,0.989569,1.1855713,0.061750695,-0.07058817,0.6324033,0.76936245,0.07932502,0.4246854,0.75687915,0.6809756,-0.080802,0.47341627,0.70173365,-0.10964426,-0.46398088,0.3917591,0.3075309,809.0842,801.4286,800.6227,792.1612,545.9707,0.10528564453125,0.10528564453125,0.9892578125,-3.282318115234375,13.20404052734375,1.502838134765625,1,2.0,1.0,1.0,2.0,10.00
2024-10-11 20:47:23.735,1.4814558,0.56025237,0.5929319,0.989569,1.1855713,0.061750695,-0.07058817,0.6324033,0.76936245,0.07932502,0.4246854,0.75687915,0.6809756,-0.080802,0.47341627,0.70173365,-0.10964426,-0.46398088,0.3917591,0.3075309,808.68134,799.81683,798.20514,796.5934,721.2454,0.10528564453125,0.10528564453125,0.9892578125,-3.282318115234375,13.20404052734375,1.502838134765625,1,2.0,1.0,1.0,2.0,10.00
2024-10-11 20:47:23.736,1.4814558,0.56025237,0.5929319,0.989569,1.1855713,0.061750695,-0.07058817,0.6324033,0.76936245,0.07932502,0.4246854,0.75687915,0.6809756,-0.080802,0.47341627,0.70173365,-0.10964426,-0.46398088,0.3917591,0.3075309,800.6227,798.20514,789.34064,799.81683,772.8205,0.10528564453125,0.10528564453125,0.9892578125,-3.282318115234375,13.20404052734375,1.502838134765625,1,2.0,1.0,1.0,2.0,10.00
2024-10-11 20:47:23.736,1.4814558,0.56025237,0.5929319,0.989569,1.1855713,0.061750695,-0.07058817,0.6324033,0.76936245,0.07932502,0.4246854,0.75687915,0.6809756,-0.080802,0.47341627,0.70173365,-0.10964426,-0.46398088,0.3917591,0.3075309,804.65204,801.02563,790.14655,807.8755,826.8132,0.10528564453125,0.10528564453125,0.9892578125,-3.282318115234375,13.20404052734375,1.502838134765625,1,2.0,1.0,1.0,2.0,10.00
2024-10-11 20:47:23.737,1.4814558,0.56025237,0.5929319,0.989569,1.1855713,0.061750695,-0.07058817,0.6324033,0.76936245,0.07932502,0.4246854,0.75687915,0.6809756,-0.080802,0.47341627,0.70173365,-0.10964426,-0.46398088,0.3917591,0.3075309,815.12823,802.6374,795.78754,810.293,816.337,0.10528564453125,0.10528564453125,0.9892578125,-3.282318115234375,13.20404052734375,1.502838134765625,1,2.0,1.0,1.0,2.0,10.00
2024-10-11 20:47:23.737,1.4814558,0.56025237,0.5929319,0.989569,1.1855713,0.061750695,-0.07058817,0.6324033,0.76936245,0.07932502,0.4246854,0.75687915,0.6809756,-0.080802,0.47341627,0.70173365,-0.10964426,-0.46398088,0.3917591,0.3075309,818.7546,803.0403,796.1905,819.5604,1099.1941,0.10528564453125,0.10528564453125,0.9892578125,-3.282318115234375,13.20404052734375,1.502838134765625,1,2.0,1.0,1.0,2.0,10.00
2024-10-11 20:47:23.738,1.4814558,0.56025237,0.5929319,0.989569,1.1855713,0.061750695,-0.07058817,0.6324033,0.76936245,0.07932502,0.4246854,0.75687915,0.6809756,-0.080802,0.47341627,0.70173365,-0.10964426,-0.46398088,0.3917591,0.3075309,806.6667,801.4286,805.8608,811.0989,1197.1062,0.10528564453125,0.10528564453125,0.9892578125,-3.282318115234375,13.20404052734375,1.502838134765625,1,2.0,1.0,1.0,2.0,10.00
2024-10-11 20:47:23.739,1.4814558,0.56025237,0.5929319,0.989569,1.1855713,0.061750695,-0.07058817,0.6324033,0.76936245,0.07932502,0.4246854,0.75687915,0.6809756,-0.080802,0.47341627,0.70173365,-0.10964426,-0.46398088,0.3917591,0.3075309,801.02563,801.02563,809.89014,796.1905,748.24176,0.10528564453125,0.10528564453125,0.9892578125,-3.282318115234375,13.20404052734375,1.502838134765625,1,2.0,1.0,1.0,2.0,10.00
2024-10-11 20:47:23.739,1.4814558,0.56025237,0.5929319,0.989569,1.1855713,0.061750695,-0.07058817,0.6324033,0.76936245,0.07932502,0.4246854,0.75687915,0.6809756,-0.080802,0.47341627,0.70173365,-0.10964426,-0.46398088,0.3917591,0.3075309,809.0842,800.2198,801.8315,801.8315,713.5897,0.10528564453125,0.10528564453125,0.9892578125,-3.282318115234375,13.20404052734375,1.502838134765625,1,2.0,1.0,1.0,2.0,10.00
2024-10-11 20:47:23.766,1.4814558,0.56025237,0.5929319,0.989569,1.1855713,0.061750695,-0.07058817,0.6324033,0.76936245,0.07932502,0.4246854,0.75687915,0.6809756,-0.080802,0.47341627,0.70173365,-0.10964426,-0.46398088,0.3917591,0.3075309,808.68134,800.6227,795.78754,806.6667,849.3773,0.075927734375,0.0966796875,0.98870849609375,-2.325286865234375,12.942352294921875,0.58319091796875,1,2.0,1.0,1.0,2.0,10.00
2024-10-11 20:47:23.767,1.4814558,0.56025237,0.5929319,0.989569,1.1855713,0.061750695,-0.07058817,0.6324033,0.76936245,0.07932502,0.4246854,0.75687915,0.6809756,-0.080802,0.47341627,0.70173365,-0.10964426,-0.46398088,0.3917591,0.3075309,801.8315,806.26373,801.8315,808.68134,794.9817,0.075927734375,0.0966796875,0.98870849609375,-2.325286865234375,12.942352294921875,0.58319091796875,1,2.0,1.0,1.0,2.0,10.00
2024-10-11 20:47:23.768,1.4814558,0.56025237,0.5929319,0.989569,1.1855713,0.061750695,-0.07058817,0.6324033,0.76936245,0.07932502,0.4246854,0.75687915,0.6809756,-0.080802,0.47341627,0.70173365,-0.10964426,-0.46398088,0.3917591,0.3075309,803.0403,806.26373,804.2491,808.68134,796.5934,0.075927734375,0.0966796875,0.98870849609375,-2.325286865234375,12.942352294921875,0.58319091796875,1,2.0,1.0,1.0,2.0,10.00
2024-10-11 20:47:23.768,1.4814558,0.59745944,0.5929319,0.989569,1.1855713,0.0069147493,-0.07058817,0.6324033,0.76936245,0.12438294,0.4246854,0.75687915,0.6809756,-0.1053906,0.47341627,0.70173365,-0.10964426,-0.46371388,0.3917591,0.3075309,809.4872,803.8461,802.6374,799.011,820.7692,0.075927734375,0.0966796875,0.98870849609375,-2.325286865234375,12.942352294921875,0.58319091796875,1,2.0,1.0,1.0,2.0,10.00
2024-10-11 20:47:23.772,1.4814558,0.59745944,0.5929319,0.989569,1.1855713,0.0069147493,-0.07058817,0.6324033,0.76936245,0.12438294,0.4246854,0.75687915,0.6809756,-0.1053906,0.47341627,0.70173365,-0.10964426,-0.46371388,0.3917591,0.3075309,807.8755,808.2784,799.011,796.99634,782.49084,0.075927734375,0.0966796875,0.98870849609375,-2.325286865234375,12.942352294921875,0.58319091796875,1,2.0,1.0,1.0,2.0,10.00
2024-10-11 20:47:23.772,1.4814558,0.59745944,0.5929319,0.989569,1.1855713,0.0069147493,-0.07058817,0.6324033,0.76936245,0.12438294,0.4246854,0.75687915,0.6809756,-0.1053906,0.47341627,0.70173365,-0.10964426,-0.46371388,0.3917591,0.3075309,805.05493,804.2491,786.52014,800.2198,799.41394,0.075927734375,0.0966796875,0.98870849609375,-2.325286865234375,12.942352294921875,0.58319091796875,1,2.0,1.0,1.0,2.0,10.00
2024-10-11 20:47:23.773,1.4814558,0.59745944,0.5929319,0.989569,1.1855713,0.0069147493,-0.07058817,0.6324033,0.76936245,0.12438294,0.4246854,0.75687915,0.6809756,-0.1053906,0.47341627,0.70173365,-0.10964426,-0.46371388,0.3917591,0.3075309,802.6374,796.5934,793.36993,790.9524,907.3993,0.075927734375,0.0966796875,0.98870849609375,-2.325286865234375,12.942352294921875,0.58319091796875,1,2.0,1.0,1.0,2.0,10.00
2024-10-11 20:47:23.773,1.4814558,0.59745944,0.5929319,0.989569,1.1855713,0.0069147493,-0.07058817,0.6324033,0.76936245,0.12438294,0.4246854,0.75687915,0.6809756,-0.1053906,0.47341627,0.70173365,-0.10964426,-0.46371388,0.3917591,0.3075309,803.8461,795.38464,810.696,792.5641,931.978,0.075927734375,0.0966796875,0.98870849609375,-2.325286865234375,12.942352294921875,0.58319091796875,1,2.0,1.0,1.0,2.0,10.00
2024-10-11 20:47:23.774,1.4814558,0.59745944,0.5929319,0.989569,1.1855713,0.0069147493,-0.07058817,0.6324033,0.76936245,0.12438294,0.4246854,0.75687915,0.6809756,-0.1053906,0.47341627,0.70173365,-0.10964426,-0.46371388,0.3917591,0.3075309,799.81683,793.36993,807.8755,803.8461,926.7399,0.075927734375,0.0966796875,0.98870849609375,-2.325286865234375,12.942352294921875,0.58319091796875,1,2.0,1.0,1.0,2.0,10.00
2024-10-11 20:47:23.774,1.4814558,0.59745944,0.5929319,0.989569,1.1855713,0.0069147493,-0.07058817,0.6324033,0.76936245,0.12438294,0.4246854,0.75687915,0.6809756,-0.1053906,0.47341627,0.70173365,-0.10964426,-0.46371388,0.3917591,0.3075309,797.3993,795.38464,805.8608,804.65204,866.30035,0.075927734375,0.0966796875,0.98870849609375,-2.325286865234375,12.942352294921875,0.58319091796875,1,2.0,1.0,1.0,2.0,10.00
2024-10-11 20:47:23.775,1.4814558,0.59745944,0.5929319,0.989569,1.1855713,0.0069147493,-0.07058817,0.6324033,0.76936245,0.12438294,0.4246854,0.75687915,0.6809756,-0.1053906,0.47341627,0.70173365,-0.10964426,-0.46371388,0.3917591,0.3075309,797.3993,793.7729,807.0696,801.02563,733.3333,0.075927734375,0.0966796875,0.98870849609375,-2.325286865234375,12.942352294921875,0.58319091796875,1,2.0,1.0,1.0,2.0,10.00
2024-10-11 20:47:23.775,1.4814558,0.59745944,0.5929319,0.989569,1.1855713,0.0069147493,-0.07058817,0.6324033,0.76936245,0.12438294,0.4246854,0.75687915,0.6809756,-0.1053906,0.47341627,0.70173365,-0.10964426,-0.46371388,0.3917591,0.3075309,799.81683,789.7436,801.4286,801.4286,915.05493,0.075927734375,0.0966796875,0.98870849609375,-2.325286865234375,12.942352294921875,0.58319091796875,1,2.0,1.0,1.0,2.0,10.00
2024-10-11 20:47:23.834,1.4814558,0.59745944,0.5929319,0.989569,1.1855713,0.0069147493,-0.07058817,0.6324033,0.76936245,0.12438294,0.4246854,0.75687915,0.6809756,-0.1053906,0.47341627,0.70173365,-0.10964426,-0.46371388,0.3917591,0.3075309,807.8755,795.78754,795.78754,811.50183,944.0659,0.0587158203125,0.09674072265625,0.9989013671875,-0.35888671875,11.28997802734375,0.91217041015625,1,2.0,1.0,1.0,2.0,10.00
2024-10-11 20:47:23.835,1.4814558,0.59745944,0.5929319,0.989569,1.1855713,0.0069147493,-0.07058817,0.6324033,0.76936245,0.12438294,0.4246854,0.75687915,0.6809756,-0.1053906,0.47341627,0.70173365,-0.10964426,-0.46371388,0.3917591,0.3075309,816.7399,801.4286,801.4286,812.71063,686.1905,0.0587158203125,0.09674072265625,0.9989013671875,-0.35888671875,11.28997802734375,0.91217041015625,1,2.0,1.0,1.0,2.0,10.00
2024-10-11 20:47:23.835,1.4814558,0.59745944,0.5929319,0.989569,1.1855713,0.0069147493,-0.07058817,0.6324033,0.76936245,0.12438294,0.4246854,0.75687915,0.6809756,-0.1053906,0.47341627,0.70173365,-0.10964426,-0.46371388,0.3917591,0.3075309,816.337,799.81683,800.2198,811.50183,655.56775,0.0587158203125,0.09674072265625,0.9989013671875,-0.35888671875,11.28997802734375,0.91217041015625,1,2.0,1.0,1.0,2.0,10.00
2024-10-11 20:47:23.836,1.4814558,0.59745944,0.5929319,0.989569,1.1855713,0.0069147493,-0.07058817,0.6324033,0.76936245,0.12438294,0.4246854,0.75687915,0.6809756,-0.1053906,0.47341627,0.70173365,-0.10964426,-0.46371388,0.3917591,0.3075309,803.44324,793.7729,800.6227,816.337,923.91943,0.0587158203125,0.09674072265625,0.9989013671875,-0.35888671875,11.28997802734375,0.91217041015625,1,2.0,1.0,1.0,2.0,10.00
2024-10-11 20:47:23.836,1.4814558,0.59745944,0.5929319,0.989569,1.1855713,0.0069147493,-0.07058817,0.6324033,0.76936245,0.12438294,0.4246854,0.75687915,0.6809756,-0.1053906,0.47341627,0.70173365,-0.10964426,-0.46371388,0.3917591,0.3075309,798.60803,793.36993,810.293,813.5165,1156.8132,0.0587158203125,0.09674072265625,0.9989013671875,-0.35888671875,11.28997802734375,0.91217041015625,1,2.0,1.0,1.0,2.0,10.00
2024-10-11 20:47:23.837,1.4814558,0.59745944,0.5929319,0.989569,1.1855713,0.0069147493,-0.07058817,0.6324033,0.76936245,0.12438294,0.4246854,0.75687915,0.6809756,-0.1053906,0.47341627,0.70173365,-0.10964426,-0.46371388,0.3917591,0.3075309,803.0403,797.8022,801.02563,810.293,958.97437,0.0587158203125,0.09674072265625,0.9989013671875,-0.35888671875,11.28997802734375,0.91217041015625,1,2.0,1.0,1.0,2.0,10.00
2024-10-11 20:47:23.837,1.4814558,0.59745944,0.5929319,0.989569,1.1855713,0.0069147493,-0.07058817,0.6324033,0.76936245,0.12438294,0.4246854,0.75687915,0.6809756,-0.1053906,0.47341627,0.70173365,-0.10964426,-0.46371388,0.3917591,0.3075309,801.02563,794.17584,800.2198,803.8461,837.6923,0.0587158203125,0.09674072265625,0.9989013671875,-0.35888671875,11.28997802734375,0.91217041015625,1,2.0,1.0,1.0,2.0,10.00
2024-10-11 20:47:23.838,1.4814558,0.59745944,0.5929319,0.989569,1.1855713,0.0069147493,-0.07058817,0.6324033,0.76936245,0.12438294,0.4246854,0.75687915,0.6809756,-0.1053906,0.47341627,0.70173365,-0.10964426,-0.46371388,0.3917591,0.3075309,791.3553,790.9524,808.68134,801.8315,853.8095,0.0587158203125,0.09674072265625,0.9989013671875,-0.35888671875,11.28997802734375,0.91217041015625,1,2.0,1.0,1.0,2.0,10.00
2024-10-11 20:47:23.838,1.4814558,0.59745944,0.5929319,0.989569,1.1855713,0.0069147493,-0.07058817,0.6324033,0.76936245,0.12438294,0.4246854,0.75687915,0.6809756,-0.1053906,0.47341627,0.70173365,-0.10964426,-0.46371388,0.3917591,0.3075309,790.54944,794.17584,797.8022,801.8315,777.25275,0.0587158203125,0.09674072265625,0.9989013671875,-0.35888671875,11.28997802734375,0.91217041015625,1,2.0,1.0,1.0,2.0,10.00
2024-10-11 20:47:23.839,1.4814558,0.59745944,0.5929319,0.989569,1.1855713,0.0069147493,-0.07058817,0.6324033,0.76936245,0.12438294,0.4246854,0.75687915,0.6809756,-0.1053906,0.47341627,0.70173365,-0.10964426,-0.46371388,0.3917591,0.3075309,795.38464,798.60803,795.38464,794.17584,753.0769,0.0587158203125,0.09674072265625,0.9989013671875,-0.35888671875,11.28997802734375,0.91217041015625,1,2.0,1.0,1.0,2.0,10.00
2024-10-11 20:47:23.839,1.4814558,0.59745944,0.5929319,0.989569,1.1855713,0.0069147493,-0.07058817,0.6324033,0.76936245,0.12438294,0.4246854,0.75687915,0.6809756,-0.1053906,0.47341627,0.70173365,-0.10964426,-0.46371388,0.3917591,0.3075309,801.4286,800.6227,799.011,803.0403,727.6923,0.0587158203125,0.09674072265625,0.9989013671875,-0.35888671875,11.28997802734375,0.91217041015625,1,2.0,1.0,1.0,2.0,10.00
2024-10-11 20:47:23.840,1.4814558,0.59745944,0.5929319,0.989569,1.1855713,0.0069147493,-0.07058817,0.6324033,0.76936245,0.12438294,0.4246854,0.75687915,0.6809756,-0.1053906,0.47341627,0.70173365,-0.10964426,-0.46371388,0.3917591,0.3075309,805.8608,796.1905,797.8022,811.0989,1019.81683,0.0587158203125,0.09674072265625,0.9989013671875,-0.35888671875,11.28997802734375,0.91217041015625,1,2.0,1.0,1.0,2.0,10.00
2024-10-11 20:47:23.840,1.4814558,0.59745944,0.5929319,0.989569,1.1855713,0.0069147493,-0.07058817,0.6324033,0.76936245,0.12438294,0.4246854,0.75687915,0.6809756,-0.1053906,0.47341627,0.70173365,-0.10964426,-0.46371388,0.3917591,0.3075309,802.6374,794.17584,790.14655,800.2198,1054.4689,0.04052734375,0.10223388671875,0.991943359375,0.777587890625,11.671295166015625,0.994415283203125,1,2.0,1.0,1.0,2.0,10.00
2024-10-11 20:47:23.841,1.4814558,0.59745944,0.5929319,0.989569,1.1855713,0.0069147493,-0.07058817,0.6324033,0.76936245,0.12438294,0.4246854,0.75687915,0.6809756,-0.1053906,0.47341627,0.70173365,-0.10964426,-0.46371388,0.3917591,0.3075309,792.96704,797.8022,792.5641,790.14655,605.2015,0.04052734375,0.10223388671875,0.991943359375,0.777587890625,11.671295166015625,0.994415283203125,1,2.0,1.0,1.0,2.0,10.00
2024-10-11 20:47:23.841,1.4814558,0.59745944,0.5929319,0.989569,1.1855713,0.0069147493,-0.07058817,0.6324033,0.76936245,0.12438294,0.4246854,0.75687915,0.6809756,-0.1053906,0.47341627,0.70173365,-0.10964426,-0.46371388,0.3917591,0.3075309,800.6227,801.02563,799.41394,797.8022,678.93774,0.04052734375,0.10223388671875,0.991943359375,0.777587890625,11.671295166015625,0.994415283203125,1,2.0,1.0,1.0,2.0,10.00
2024-10-11 20:47:23.842,1.4814558,0.59745944,0.5929319,0.989569,1.1855713,0.0069147493,-0.07058817,0.6324033,0.76936245,0.12438294,0.4246854,0.75687915,0.6809756,-0.1053906,0.47341627,0.70173365,-0.10964426,-0.46371388,0.3917591,0.3075309,802.6374,802.23444,799.81683,792.96704,738.5714,0.04052734375,0.10223388671875,0.991943359375,0.777587890625,11.671295166015625,0.994415283203125,1,2.0,1.0,1.0,2.0,10.00
2024-10-11 20:47:23.842,1.4814558,0.59745944,0.5929319,0.989569,1.1855713,0.0069147493,-0.07058817,0.6324033,0.76936245,0.12438294,0.4246854,0.75687915,0.6809756,-0.1053906,0.47341627,0.70173365,-0.10964426,-0.46371388,0.3917591,0.3075309,794.9817,797.8022,792.1612,782.8938,661.6117,0.04052734375,0.10223388671875,0.991943359375,0.777587890625,11.671295166015625,0.994415283203125,1,2.0,1.0,1.0,2.0,10.00
2024-10-11 20:47:23.843,1.4814558,0.6890015,0.55349404,0.989569,1.1855713,-0.0050533265,-0.09389809,0.6324033,0.76936245,0.1313584,0.39235282,0.75687915,0.6809756,-0.12126593,0.46044105,0.70173365,-0.10964426,-0.45920438,0.40147093,0.3075309,797.3993,790.9524,794.17584,780.07324,624.94507,0.04052734375,0.10223388671875,0.991943359375,0.777587890625,11.671295166015625,0.994415283203125,1,2.0,1.0,1.0,2.0,10.00
2024-10-11 20:47:23.846,1.4814558,0.6890015,0.55349404,0.989569,1.1855713,-0.0050533265,-0.09389809,0.6324033,0.76936245,0.1313584,0.39235282,0.75687915,0.6809756,-0.12126593,0.46044105,0.70173365,-0.10964426,-0.45920438,0.40147093,0.3075309,794.9817,791.75824,794.9817,785.31134,768.3883,0.04052734375,0.10223388671875,0.991943359375,0.777587890625,11.671295166015625,0.994415283203125,1,2.0,1.0,1.0,2.0,10.00
2024-10-11 20:47:23.847,1.4814558,0.6890015,0.55349404,0.989569,1.1855713,-0.0050533265,-0.09389809,0.6324033,0.76936245,0.1313584,0.39235282,0.75687915,0.6809756,-0.12126593,0.46044105,0.70173365,-0.10964426,-0.45920438,0.40147093,0.3075309,804.65204,798.60803,791.75824,799.011,817.5458,0.04052734375,0.10223388671875,0.991943359375,0.777587890625,11.671295166015625,0.994415283203125,1,2.0,1.0,1.0,2.0,10.00
2024-10-11 20:47:23.847,1.4814558,0.6890015,0.55349404,0.989569,1.1855713,-0.0050533265,-0.09389809,0.6324033,0.76936245,0.1313584,0.39235282,0.75687915,0.6809756,-0.12126593,0.46044105,0.70173365,-0.10964426,-0.45920438,0.40147093,0.3075309,804.65204,797.3993,798.60803,804.65204,631.79486,0.04052734375,0.10223388671875,0.991943359375,0.777587890625,11.671295166015625,0.994415283203125,1,2.0,1.0,1.0,2.0,10.00
2024-10-11 20:47:23.848,1.4814558,0.6890015,0.55349404,0.989569,1.1855713,-0.0050533265,-0.09389809,0.6324033,0.76936245,0.1313584,0.39235282,0.75687915,0.6809756,-0.12126593,0.46044105,0.70173365,-0.10964426,-0.45920438,0.40147093,0.3075309,799.81683,798.20514,801.4286,811.50183,578.60803,0.04052734375,0.10223388671875,0.991943359375,0.777587890625,11.671295166015625,0.994415283203125,1,2.0,1.0,1.0,2.0,10.00
2024-10-11 20:47:23.848,1.4814558,0.6890015,0.55349404,0.989569,1.1855713,-0.0050533265,-0.09389809,0.6324033,0.76936245,0.1313584,0.39235282,0.75687915,0.6809756,-0.12126593,0.46044105,0.70173365,-0.10964426,-0.45920438,0.40147093,0.3075309,801.8315,796.5934,795.78754,813.91943,778.46155,0.04052734375,0.10223388671875,0.991943359375,0.777587890625,11.671295166015625,0.994415283203125,1,2.0,1.0,1.0,2.0,10.00
2024-10-11 20:47:23.849,1.4814558,0.6890015,0.55349404,0.989569,1.1855713,-0.0050533265,-0.09389809,0.6324033,0.76936245,0.1313584,0.39235282,0.75687915,0.6809756,-0.12126593,0.46044105,0.70173365,-0.10964426,-0.45920438,0.40147093,0.3075309,804.2491,795.38464,792.1612,811.50183,934.7985,0.04052734375,0.10223388671875,0.991943359375,0.777587890625,11.671295166015625,0.994415283203125,1,2.0,1.0,1.0,2.0,10.00
2024-10-11 20:47:23.975,1.4814558,0.6890015,0.55349404,0.989569,1.1855713,-0.0050533265,-0.09389809,0.6324033,0.76936245,0.1313584,0.39235282,0.75687915,0.6809756,-0.12126593,0.46044105,0.70173365,-0.10964426,-0.45920438,0.40147093,0.3075309,807.0696,795.38464,803.44324,807.8755,674.10254,0.01495361328125,0.109619140625,1.00262451171875,1.293487548828125,12.919921875,0.4486083984375,1,2.0,1.0,1.0,2.0,10.00
2024-10-11 20:47:23.976,1.4814558,0.6890015,0.55349404,0.989569,1.1855713,-0.0050533265,-0.09389809,0.6324033,0.76936245,0.1313584,0.39235282,0.75687915,0.6809756,-0.12126593,0.46044105,0.70173365,-0.10964426,-0.45920438,0.40147093,0.3075309,813.5165,793.7729,811.9048,806.6667,534.2857,0.01495361328125,0.109619140625,1.00262451171875,1.293487548828125,12.919921875,0.4486083984375,1,2.0,1.0,1.0,2.0,10.00
2024-10-11 20:47:23.977,1.4814558,0.6890015,0.55349404,0.989569,1.1855713,-0.0050533265,-0.09389809,0.6324033,0.76936245,0.1313584,0.39235282,0.75687915,0.6809756,-0.12126593,0.46044105,0.70173365,-0.10964426,-0.45920438,0.40147093,0.3075309,813.5165,794.17584,792.1612,808.68134,912.23444,0.01495361328125,0.109619140625,1.00262451171875,1.293487548828125,12.919921875,0.4486083984375,1,2.0,1.0,1.0,2.0,10.00
2024-10-11 20:47:23.978,1.4814558,0.6890015,0.55349404,0.989569,1.1855713,-0.0050533265,-0.09389809,0.6324033,0.76936245,0.1313584,0.39235282,0.75687915,0.6809756,-0.12126593,0.46044105,0.70173365,-0.10964426,-0.45920438,0.40147093,0.3075309,803.8461,795.38464,789.7436,815.5311,1004.10254,0.01495361328125,0.109619140625,1.00262451171875,1.293487548828125,12.919921875,0.4486083984375,1,2.0,1.0,1.0,2.0,10.00
2024-10-11 20:47:23.978,1.4814558,0.6890015,0.55349404,0.989569,1.1855713,-0.0050533265,-0.09389809,0.6324033,0.76936245,0.1313584,0.39235282,0.75687915,0.6809756,-0.12126593,0.46044105,0.70173365,-0.10964426,-0.45920438,0.40147093,0.3075309,789.34064,794.17584,810.293,813.1135,686.99634,0.01495361328125,0.109619140625,1.00262451171875,1.293487548828125,12.919921875,0.4486083984375,1,2.0,1.0,1.0,2.0,10.00
2024-10-11 20:47:23.979,1.4814558,0.6890015,0.55349404,0.989569,1.1855713,-0.0050533265,-0.09389809,0.6324033,0.76936245,0.1313584,0.39235282,0.75687915,0.6809756,-0.12126593,0.46044105,0.70173365,-0.10964426,-0.45920438,0.40147093,0.3075309,800.6227,794.17584,801.8315,808.2784,624.94507,0.01495361328125,0.109619140625,1.00262451171875,1.293487548828125,12.919921875,0.4486083984375,1,2.0,1.0,1.0,2.0,10.00
2024-10-11 20:47:23.980,1.4814558,0.6890015,0.55349404,0.989569,1.1855713,-0.0050533265,-0.09389809,0.6324033,0.76936245,0.1313584,0.39235282,0.75687915,0.6809756,-0.12126593,0.46044105,0.70173365,-0.10964426,-0.45920438,0.40147093,0.3075309,813.91943,796.5934,794.57874,815.12823,804.2491,0.01495361328125,0.109619140625,1.00262451171875,1.293487548828125,12.919921875,0.4486083984375,1,2.0,1.0,1.0,2.0,10.00
2024-10-11 20:47:23.980,1.4814558,0.6890015,0.55349404,0.989569,1.1855713,-0.0050533265,-0.09389809,0.6324033,0.76936245,0.1313584,0.39235282,0.75687915,0.6809756,-0.12126593,0.46044105,0.70173365,-0.10964426,-0.45920438,0.40147093,0.3075309,806.6667,794.9817,803.44324,818.7546,1083.8828,0.01495361328125,0.109619140625,1.00262451171875,1.293487548828125,12.919921875,0.4486083984375,1,2.0,1.0,1.0,2.0,10.00
2024-10-11 20:47:23.981,1.4814558,0.6890015,0.55349404,0.989569,1.1855713,-0.0050533265,-0.09389809,0.6324033,0.76936245,0.1313584,0.39235282,0.75687915,0.6809756,-0.12126593,0.46044105,0.70173365,-0.10964426,-0.45920438,0.40147093,0.3075309,798.20514,794.17584,809.89014,807.0696,743.00366,0.01495361328125,0.109619140625,1.00262451171875,1.293487548828125,12.919921875,0.4486083984375,1,2.0,1.0,1.0,2.0,10.00
2024-10-11 20:47:23.982,1.4814558,0.6890015,0.55349404,0.989569,1.1855713,-0.0050533265,-0.09389809,0.6324033,0.76936245,0.1313584,0.39235282,0.75687915,0.6809756,-0.12126593,0.46044105,0.70173365,-0.10964426,-0.45920438,0.40147093,0.3075309,794.9817,790.9524,799.011,799.41394,478.6813,0.01495361328125,0.109619140625,1.00262451171875,1.293487548828125,12.919921875,0.4486083984375,1,2.0,1.0,1.0,2.0,10.00
2024-10-11 20:47:23.982,1.4814558,0.6890015,0.55349404,0.989569,1.1855713,-0.0050533265,-0.09389809,0.6324033,0.76936245,0.1313584,0.39235282,0.75687915,0.6809756,-0.12126593,0.46044105,0.70173365,-0.10964426,-0.45920438,0.40147093,0.3075309,800.2198,794.57874,789.34064,798.20514,561.685,0.01495361328125,0.109619140625,1.00262451171875,1.293487548828125,12.919921875,0.4486083984375,1,2.0,1.0,1.0,2.0,10.00
2024-10-11 20:47:23.983,1.4814558,0.6890015,0.55349404,0.989569,1.1855713,-0.0050533265,-0.09389809,0.6324033,0.76936245,0.1313584,0.39235282,0.75687915,0.6809756,-0.12126593,0.46044105,0.70173365,-0.10964426,-0.45920438,0.40147093,0.3075309,797.3993,797.8022,788.93774,801.4286,554.83514,0.01495361328125,0.109619140625,1.00262451171875,1.293487548828125,12.919921875,0.4486083984375,1,2.0,1.0,1.0,2.0,10.00
2024-10-11 20:47:24.012,1.4814558,0.6890015,0.55349404,0.989569,1.1855713,-0.0050533265,-0.09389809,0.6324033,0.76936245,0.1313584,0.39235282,0.75687915,0.6809756,-0.12126593,0.46044105,0.70173365,-0.10964426,-0.45920438,0.40147093,0.3075309,801.4286,795.78754,788.1319,804.2491,584.65204,0.01495361328125,0.109619140625,1.00262451171875,1.293487548828125,12.919921875,0.4486083984375,1,2.0,1.0,1.0,2.0,10.00
2024-10-11 20:47:24.013,1.4814558,0.6890015,0.55349404,0.989569,1.1855713,-0.0050533265,-0.09389809,0.6324033,0.76936245,0.1313584,0.39235282,0.75687915,0.6809756,-0.12126593,0.46044105,0.70173365,-0.10964426,-0.45920438,0.40147093,0.3075309,796.5934,792.5641,792.5641,801.02563,655.9707,0.01495361328125,0.109619140625,1.00262451171875,1.293487548828125,12.919921875,0.4486083984375,1,2.0,1.0,1.0,2.0,10.00
2024-10-11 20:47:24.013,1.4814558,0.6890015,0.55349404,0.989569,1.1855713,-0.0050533265,-0.09389809,0.6324033,0.76936245,0.1313584,0.39235282,0.75687915,0.6809756,-0.12126593,0.46044105,0.70173365,-0.10964426,-0.45920438,0.40147093,0.3075309,787.72894,790.54944,791.75824,801.02563,672.8938,0.01495361328125,0.109619140625,1.00262451171875,1.293487548828125,12.919921875,0.4486083984375,1,2.0,1.0,1.0,2.0,10.00
2024-10-11 20:47:24.014,1.4814558,0.6890015,0.55349404,0.989569,1.1855713,-0.0050533265,-0.09389809,0.6324033,0.76936245,0.1313584,0.39235282,0.75687915,0.6809756,-0.12126593,0.46044105,0.70173365,-0.10964426,-0.45920438,0.40147093,0.3075309,791.75824,788.1319,789.34064,798.60803,691.4286,0.01495361328125,0.109619140625,1.00262451171875,1.293487548828125,12.919921875,0.4486083984375,1,2.0,1.0,1.0,2.0,10.00
2024-10-11 20:47:24.014,1.4814558,0.6890015,0.55349404,0.989569,1.1855713,-0.0050533265,-0.09389809,0.6324033,0.76936245,0.1313584,0.39235282,0.75687915,0.6809756,-0.12126593,0.46044105,0.70173365,-0.10964426,-0.45920438,0.40147093,0.3075309,800.2198,788.1319,799.81683,795.78754,642.674,0.01495361328125,0.109619140625,1.00262451171875,1.293487548828125,12.919921875,0.4486083984375,1,2.0,1.0,1.0,2.0,10.00
2024-10-11 20:47:24.015,1.4814558,0.6890015,0.55349404,0.989569,1.1855713,-0.0050533265,-0.09389809,0.6324033,0.76936245,0.1313584,0.39235282,0.75687915,0.6809756,-0.12126593,0.46044105,0.70173365,-0.10964426,-0.45920438,0.40147093,0.3075309,804.65204,791.3553,798.60803,794.9817,841.31866,0.01495361328125,0.109619140625,1.00262451171875,1.293487548828125,12.919921875,0.4486083984375,1,2.0,1.0,1.0,2.0,10.00
2024-10-11 20:47:24.015,1.4814558,0.6890015,0.55349404,0.989569,1.1855713,-0.0050533265,-0.09389809,0.6324033,0.76936245,0.1313584,0.39235282,0.75687915,0.6809756,-0.12126593,0.46044105,0.70173365,-0.10964426,-0.45920438,0.40147093,0.3075309,800.6227,790.54944,792.5641,796.99634,931.978,0.01495361328125,0.109619140625,1.00262451171875,1.293487548828125,12.919921875,0.4486083984375,1,2.0,1.0,1.0,2.0,10.00
2024-10-11 20:47:24.016,1.4814558,0.7122499,0.5510358,0.989569,1.1855713,-0.008359009,-0.09528946,0.6324033,0.76936245,0.12381652,0.3804304,0.75687915,0.6809756,-0.1286258,0.45250311,0.70173365,-0.10964426,-0.45914087,0.41007534,0.3075309,800.6227,785.31134,795.78754,796.5934,704.7253,0.01495361328125,0.109619140625,1.00262451171875,1.293487548828125,12.919921875,0.4486083984375,1,2.0,1.0,1.0,2.0,10.00
2024-10-11 20:47:24.020,1.4814558,0.7122499,0.5510358,0.989569,1.1855713,-0.008359009,-0.09528946,0.6324033,0.76936245,0.12381652,0.3804304,0.75687915,0.6809756,-0.1286258,0.45250311,0.70173365,-0.10964426,-0.45914087,0.41007534,0.3075309,798.20514,786.1172,794.57874,788.5348,616.4835,0.01495361328125,0.109619140625,1.00262451171875,1.293487548828125,12.919921875,0.4486083984375,1,2.0,1.0,1.0,2.0,10.00
2024-10-11 20:47:24.021,1.4814558,0.7122499,0.5510358,0.989569,1.1855713,-0.008359009,-0.09528946,0.6324033,0.76936245,0.12381652,0.3804304,0.75687915,0.6809756,-0.1286258,0.45250311,0.70173365,-0.10964426,-0.45914087,0.41007534,0.3075309,799.81683,792.96704,796.99634,792.5641,792.1612,0.01495361328125,0.109619140625,1.00262451171875,1.293487548828125,12.919921875,0.4486083984375,1,2.0,1.0,1.0,2.0,10.00
2024-10-11 20:47:24.021,1.4814558,0.7122499,0.5510358,0.989569,1.1855713,-0.008359009,-0.09528946,0.6324033,0.76936245,0.12381652,0.3804304,0.75687915,0.6809756,-0.1286258,0.45250311,0.70173365,-0.10964426,-0.45914087,0.41007534,0.3075309,796.5934,794.57874,798.60803,805.4579,860.2564,0.01495361328125,0.109619140625,1.00262451171875,1.293487548828125,12.919921875,0.4486083984375,1,2.0,1.0,1.0,2.0,10.00
2024-10-11 20:47:24.022,1.4814558,0.7122499,0.5510358,0.989569,1.1855713,-0.008359009,-0.09528946,0.6324033,0.76936245,0.12381652,0.3804304,0.75687915,0.6809756,-0.1286258,0.45250311,0.70173365,-0.10964426,-0.45914087,0.41007534,0.3075309,798.20514,795.78754,789.7436,812.3077,632.6007,0.01495361328125,0.109619140625,1.00262451171875,1.293487548828125,12.919921875,0.4486083984375,1,2.0,1.0,1.0,2.0,10.00
2024-10-11 20:47:24.109,1.4814558,0.7122499,0.5510358,0.989569,1.1855713,-0.008359009,-0.09528946,0.6324033,0.76936245,0.12381652,0.3804304,0.75687915,0.6809756,-0.1286258,0.45250311,0.70173365,-0.10964426,-0.45914087,0.41007534,0.3075309,805.05493,797.3993,785.7143,809.0842,618.9011,-0.00494384765625,0.1087646484375,1.0003662109375,1.562652587890625,13.435821533203125,-0.889739990234375,1,2.0,1.0,1.0,2.0,10.00
2024-10-11 20:47:24.110,1.4814558,0.7122499,0.5510358,0.989569,1.1855713,-0.008359009,-0.09528946,0.6324033,0.76936245,0.12381652,0.3804304,0.75687915,0.6809756,-0.1286258,0.45250311,0.70173365,-0.10964426,-0.45914087,0.41007534,0.3075309,801.02563,798.20514,798.20514,808.2784,790.54944,-0.00494384765625,0.1087646484375,1.0003662109375,1.562652587890625,13.435821533203125,-0.889739990234375,1,2.0,1.0,1.0,2.0,10.00
2024-10-11 20:47:24.111,1.4814558,0.7122499,0.5510358,0.989569,1.1855713,-0.008359009,-0.09528946,0.6324033,0.76936245,0.12381652,0.3804304,0.75687915,0.6809756,-0.1286258,0.45250311,0.70173365,-0.10964426,-0.45914087,0.41007534,0.3075309,804.2491,797.3993,813.91943,807.47253,842.1245,-0.00494384765625,0.1087646484375,1.0003662109375,1.562652587890625,13.435821533203125,-0.889739990234375,1,2.0,1.0,1.0,2.0,10.00
2024-10-11 20:47:24.112,1.4814558,0.7122499,0.5510358,0.989569,1.1855713,-0.008359009,-0.09528946,0.6324033,0.76936245,0.12381652,0.3804304,0.75687915,0.6809756,-0.1286258,0.45250311,0.70173365,-0.10964426,-0.45914087,0.41007534,0.3075309,798.60803,792.96704,817.1429,795.38464,660.0,-0.00494384765625,0.1087646484375,1.0003662109375,1.562652587890625,13.435821533203125,-0.889739990234375,1,2.0,1.0,1.0,2.0,10.00
2024-10-11 20:47:24.113,1.4814558,0.7122499,0.5510358,0.989569,1.1855713,-0.008359009,-0.09528946,0.6324033,0.76936245,0.12381652,0.3804304,0.75687915,0.6809756,-0.1286258,0.45250311,0.70173365,-0.10964426,-0.45914087,0.41007534,0.3075309,802.23444,792.96704,811.0989,795.38464,643.8828,-0.00494384765625,0.1087646484375,1.0003662109375,1.562652587890625,13.435821533203125,-0.889739990234375,1,2.0,1.0,1.0,2.0,10.00
2024-10-11 20:47:24.113,1.4814558,0.7122499,0.5510358,0.989569,1.1855713,-0.008359009,-0.09528946,0.6324033,0.76936245,0.12381652,0.3804304,0.75687915,0.6809756,-0.1286258,0.45250311,0.70173365,-0.10964426,-0.45914087,0.41007534,0.3075309,814.7253,796.5934,808.68134,803.8461,864.68866,-0.00494384765625,0.1087646484375,1.0003662109375,1.562652587890625,13.435821533203125,-0.889739990234375,1,2.0,1.0,1.0,2.0,10.00
2024-10-11 20:47:24.114,1.4814558,0.7122499,0.5510358,0.989569,1.1855713,-0.008359009,-0.09528946,0.6324033,0.76936245,0.12381652,0.3804304,0.75687915,0.6809756,-0.1286258,0.45250311,0.70173365,-0.10964426,-0.45914087,0.41007534,0.3075309,809.0842,798.20514,812.3077,809.4872,909.81683,-0.00494384765625,0.1087646484375,1.0003662109375,1.562652587890625,13.435821533203125,-0.889739990234375,1,2.0,1.0,1.0,2.0,10.00
2024-10-11 20:47:24.115,1.4814558,0.7122499,0.5510358,0.989569,1.1855713,-0.008359009,-0.09528946,0.6324033,0.76936245,0.12381652,0.3804304,0.75687915,0.6809756,-0.1286258,0.45250311,0.70173365,-0.10964426,-0.45914087,0.41007534,0.3075309,803.44324,800.2198,809.0842,808.2784,748.24176,-0.00494384765625,0.1087646484375,1.0003662109375,1.562652587890625,13.435821533203125,-0.889739990234375,1,2.0,1.0,1.0,2.0,10.00
2024-10-11 20:47:24.115,1.4814558,0.7122499,0.5510358,0.989569,1.1855713,-0.008359009,-0.09528946,0.6324033,0.76936245,0.12381652,0.3804304,0.75687915,0.6809756,-0.1286258,0.45250311,0.70173365,-0.10964426,-0.45914087,0.41007534,0.3075309,808.2784,801.02563,808.2784,812.3077,697.47253,-0.00494384765625,0.1087646484375,1.0003662109375,1.562652587890625,13.435821533203125,-0.889739990234375,1,2.0,1.0,1.0,2.0,10.00
2024-10-11 20:47:24.116,1.4814558,0.7122499,0.5510358,0.989569,1.1855713,-0.008359009,-0.09528946,0.6324033,0.76936245,0.12381652,0.3804304,0.75687915,0.6809756,-0.1286258,0.45250311,0.70173365,-0.10964426,-0.45914087,0.41007534,0.3075309,815.5311,799.41394,796.1905,819.15753,693.44324,-0.00494384765625,0.1087646484375,1.0003662109375,1.562652587890625,13.435821533203125,-0.889739990234375,1,2.0,1.0,1.0,2.0,10.00
2024-10-11 20:47:24.117,1.4814558,0.7122499,0.5510358,0.989569,1.1855713,-0.008359009,-0.09528946,0.6324033,0.76936245,0.12381652,0.3804304,0.75687915,0.6809756,-0.1286258,0.45250311,0.70173365,-0.10964426,-0.45914087,0.41007534,0.3075309,817.1429,802.23444,779.67035,819.15753,643.0769,-0.00494384765625,0.1087646484375,1.0003662109375,1.562652587890625,13.435821533203125,-0.889739990234375,1,2.0,1.0,1.0,2.0,10.00
2024-10-11 20:47:24.117,1.4814558,0.7122499,0.5510358,0.989569,1.1855713,-0.008359009,-0.09528946,0.6324033,0.76936245,0.12381652,0.3804304,0.75687915,0.6809756,-0.1286258,0.45250311,0.70173365,-0.10964426,-0.45914087,0.41007534,0.3075309,815.5311,805.4579,793.7729,824.3956,511.3187,-0.00494384765625,0.1087646484375,1.0003662109375,1.562652587890625,13.435821533203125,-0.889739990234375,1,2.0,1.0,1.0,2.0,10.00
2024-10-11 20:47:24.196,1.4814558,0.7122499,0.5510358,0.989569,1.1855713,-0.008359009,-0.09528946,0.6324033,0.76936245,0.12381652,0.3804304,0.75687915,0.6809756,-0.1286258,0.45250311,0.70173365,-0.10964426,-0.45914087,0.41007534,0.3075309,813.5165,802.23444,801.4286,830.0366,623.73627,-0.02496337890625,0.11370849609375,0.99896240234375,3.12530517578125,12.643280029296875,-2.355194091796875,1,2.0,1.0,1.0,2.0,10.00
2024-10-11 20:47:24.197,1.4814558,0.7122499,0.5510358,0.989569,1.1855713,-0.008359009,-0.09528946,0.6324033,0.76936245,0.12381652,0.3804304,0.75687915,0.6809756,-0.1286258,0.45250311,0.70173365,-0.10964426,-0.45914087,0.41007534,0.3075309,819.15753,796.99634,798.20514,824.3956,838.49817,-0.02496337890625,0.11370849609375,0.99896240234375,3.12530517578125,12.643280029296875,-2.355194091796875,1,2.0,1.0,1.0,2.0,10.00
2024-10-11 20:47:24.198,1.4814558,0.7122499,0.5510358,0.989569,1.1855713,-0.008359009,-0.09528946,0.6324033,0.76936245,0.12381652,0.3804304,0.75687915,0.6809756,-0.1286258,0.45250311,0.70173365,-0.10964426,-0.45914087,0.41007534,0.3075309,812.71063,797.8022,805.4579,814.7253,756.30035,-0.02496337890625,0.11370849609375,0.99896240234375,3.12530517578125,12.643280029296875,-2.355194091796875,1,2.0,1.0,1.0,2.0,10.00
2024-10-11 20:47:24.199,1.4814558,0.7122499,0.5510358,0.989569,1.1855713,-0.008359009,-0.09528946,0.6324033,0.76936245,0.12381652,0.3804304,0.75687915,0.6809756,-0.1286258,0.45250311,0.70173365,-0.10964426,-0.45914087,0.41007534,0.3075309,802.23444,799.011,812.3077,815.12823,630.18317,-0.02496337890625,0.11370849609375,0.99896240234375,3.12530517578125,12.643280029296875,-2.355194091796875,1,2.0,1.0,1.0,2.0,10.00
2024-10-11 20:47:24.199,1.4814558,0.7122499,0.5510358,0.989569,1.1855713,-0.008359009,-0.09528946,0.6324033,0.76936245,0.12381652,0.3804304,0.75687915,0.6809756,-0.1286258,0.45250311,0.70173365,-0.10964426,-0.45914087,0.41007534,0.3075309,812.71063,800.2198,811.50183,821.978,658.3883,-0.02496337890625,0.11370849609375,0.99896240234375,3.12530517578125,12.643280029296875,-2.355194091796875,1,2.0,1.0,1.0,2.0,10.00
2024-10-11 20:47:24.200,1.4814558,0.7122499,0.5510358,0.989569,1.1855713,-0.008359009,-0.09528946,0.6324033,0.76936245,0.12381652,0.3804304,0.75687915,0.6809756,-0.1286258,0.45250311,0.70173365,-0.10964426,-0.45914087,0.41007534,0.3075309,822.381,803.44324,801.8315,825.2015,796.99634,-0.02496337890625,0.11370849609375,0.99896240234375,3.12530517578125,12.643280029296875,-2.355194091796875,1,2.0,1.0,1.0,2.0,10.00
2024-10-11 20:47:24.201,1.4814558,0.7122499,0.5510358,0.989569,1.1855713,-0.008359009,-0.09528946,0.6324033,0.76936245,0.12381652,0.3804304,0.75687915,0.6809756,-0.1286258,0.45250311,0.70173365,-0.10964426,-0.45914087,0.41007534,0.3075309,825.2015,804.65204,805.8608,826.0073,860.65936,-0.02496337890625,0.11370849609375,0.99896240234375,3.12530517578125,12.643280029296875,-2.355194091796875,1,2.0,1.0,1.0,2.0,10.00
2024-10-11 20:47:24.202,1.4814558,0.7122499,0.5510358,0.989569,1.1855713,-0.008359009,-0.09528946,0.6324033,0.76936245,0.12381652,0.3804304,0.75687915,0.6809756,-0.1286258,0.45250311,0.70173365,-0.10964426,-0.45914087,0.41007534,0.3075309,814.7253,801.02563,819.5604,828.8278,715.2015,-0.02496337890625,0.11370849609375,0.99896240234375,3.12530517578125,12.643280029296875,-2.355194091796875,1,2.0,1.0,1.0,2.0,10.00
2024-10-11 20:47:24.202,1.4814558,0.7122499,0.5510358,0.989569,1.1855713,-0.008359009,-0.09528946,0.6324033,0.76936245,0.12381652,0.3804304,0.75687915,0.6809756,-0.1286258,0.45250311,0.70173365,-0.10964426,-0.45914087,0.41007534,0.3075309,803.8461,797.3993,801.8315,821.978,752.674,-0.02496337890625,0.11370849609375,0.99896240234375,3.12530517578125,12.643280029296875,-2.355194091796875,1,2.0,1.0,1.0,2.0,10.00
2024-10-11 20:47:24.203,1.4814558,0.7412342,0.56931895,0.989569,1.1855713,-0.0027782426,-0.098280445,0.6324033,0.76936245,0.11894004,0.37828073,0.75687915,0.6809756,-0.13222302,0.4517186,0.70173365,-0.10964426,-0.4650944,0.41655913,0.3075309,811.50183,802.6374,788.5348,817.9487,864.2857,-0.02496337890625,0.11370849609375,0.99896240234375,3.12530517578125,12.643280029296875,-2.355194091796875,1,2.0,1.0,1.0,2.0,10.00
2024-10-11 20:47:24.208,1.4814558,0.7412342,0.56931895,0.989569,1.1855713,-0.0027782426,-0.098280445,0.6324033,0.76936245,0.11894004,0.37828073,0.75687915,0.6809756,-0.13222302,0.4517186,0.70173365,-0.10964426,-0.4650944,0.41655913,0.3075309,811.50183,800.2198,805.4579,818.3516,701.50183,-0.02496337890625,0.11370849609375,0.99896240234375,3.12530517578125,12.643280029296875,-2.355194091796875,1,2.0,1.0,1.0,2.0,10.00
2024-10-11 20:47:24.209,1.4814558,0.7412342,0.56931895,0.989569,1.1855713,-0.0027782426,-0.098280445,0.6324033,0.76936245,0.11894004,0.37828073,0.75687915,0.6809756,-0.13222302,0.4517186,0.70173365,-0.10964426,-0.4650944,0.41655913,0.3075309,804.2491,795.38464,809.0842,814.7253,716.8132,-0.02496337890625,0.11370849609375,0.99896240234375,3.12530517578125,12.643280029296875,-2.355194091796875,1,2.0,1.0,1.0,2.0,10.00
2024-10-11 20:47:24.242,1.4814558,0.7412342,0.56931895,0.989569,1.1855713,-0.0027782426,-0.098280445,0.6324033,0.76936245,0.11894004,0.37828073,0.75687915,0.6809756,-0.13222302,0.4517186,0.70173365,-0.10964426,-0.4650944,0.41655913,0.3075309,807.8755,796.99634,809.0842,817.1429,832.8571,-0.0372314453125,0.121826171875,1.0050048828125,2.94586181640625,12.852630615234375,-3.895416259765625,1,2.0,1.0,1.0,2.0,10.00
2024-10-11 20:47:24.243,1.4814558,0.7412342,0.56931895,0.989569,1.1855713,-0.0027782426,-0.098280445,0.6324033,0.76936245,0.11894004,0.37828073,0.75687915,0.6809756,-0.13222302,0.4517186,0.70173365,-0.10964426,-0.4650944,0.41655913,0.3075309,814.7253,795.38464,800.6227,817.1429,848.5714,-0.0372314453125,0.121826171875,1.0050048828125,2.94586181640625,12.852630615234375,-3.895416259765625,1,2.0,1.0,1.0,2.0,10.00
2024-10-11 20:47:24.243,1.4814558,0.7412342,0.56931895,0.989569,1.1855713,-0.0027782426,-0.098280445,0.6324033,0.76936245,0.11894004,0.37828073,0.75687915,0.6809756,-0.13222302,0.4517186,0.70173365,-0.10964426,-0.4650944,0.41655913,0.3075309,809.0842,800.6227,799.011,812.71063,644.2857,-0.0372314453125,0.121826171875,1.0050048828125,2.94586181640625,12.852630615234375,-3.895416259765625,1,2.0,1.0,1.0,2.0,10.00
2024-10-11 20:47:24.244,1.4814558,0.7412342,0.56931895,0.989569,1.1855713,-0.0027782426,-0.098280445,0.6324033,0.76936245,0.11894004,0.37828073,0.75687915,0.6809756,-0.13222302,0.4517186,0.70173365,-0.10964426,-0.4650944,0.41655913,0.3075309,802.23444,800.2198,806.26373,807.47253,570.14655,-0.0372314453125,0.121826171875,1.0050048828125,2.94586181640625,12.852630615234375,-3.895416259765625,1,2.0,1.0,1.0,2.0,10.00
2024-10-11 20:47:24.245,1.4814558,0.7412342,0.56931895,0.989569,1.1855713,-0.0027782426,-0.098280445,0.6324033,0.76936245,0.11894004,0.37828073,0.75687915,0.6809756,-0.13222302,0.4517186,0.70173365,-0.10964426,-0.4650944,0.41655913,0.3075309,808.2784,796.99634,809.0842,811.50183,706.337,-0.0372314453125,0.121826171875,1.0050048828125,2.94586181640625,12.852630615234375,-3.895416259765625,1,2.0,1.0,1.0,2.0,10.00
2024-10-11 20:47:24.246,1.4814558,0.7412342,0.56931895,0.989569,1.1855713,-0.0027782426,-0.098280445,0.6324033,0.76936245,0.11894004,0.37828073,0.75687915,0.6809756,-0.13222302,0.4517186,0.70173365,-0.10964426,-0.4650944,0.41655913,0.3075309,809.4872,798.60803,809.89014,812.71063,803.0403,-0.0372314453125,0.121826171875,1.0050048828125,2.94586181640625,12.852630615234375,-3.895416259765625,1,2.0,1.0,1.0,2.0,10.00
2024-10-11 20:47:24.246,1.4814558,0.7412342,0.56931895,0.989569,1.1855713,-0.0027782426,-0.098280445,0.6324033,0.76936245,0.11894004,0.37828073,0.75687915,0.6809756,-0.13222302,0.4517186,0.70173365,-0.10964426,-0.4650944,0.41655913,0.3075309,807.8755,797.8022,804.2491,810.293,701.50183,-0.0372314453125,0.121826171875,1.0050048828125,2.94586181640625,12.852630615234375,-3.895416259765625,1,2.0,1.0,1.0,2.0,10.00
2024-10-11 20:47:24.247,1.4814558,0.7412342,0.56931895,0.989569,1.1855713,-0.0027782426,-0.098280445,0.6324033,0.76936245,0.11894004,0.37828073,0.75687915,0.6809756,-0.13222302,0.4517186,0.70173365,-0.10964426,-0.4650944,0.41655913,0.3075309,814.7253,798.60803,801.02563,817.9487,552.8205,-0.0372314453125,0.121826171875,1.0050048828125,2.94586181640625,12.852630615234375,-3.895416259765625,1,2.0,1.0,1.0,2.0,10.00
2024-10-11 20:47:24.248,1.4814558,0.7412342,0.56931895,0.989569,1.1855713,-0.0027782426,-0.098280445,0.6324033,0.76936245,0.11894004,0.37828073,0.75687915,0.6809756,-0.13222302,0.4517186,0.70173365,-0.10964426,-0.4650944,0.41655913,0.3075309,815.5311,801.8315,795.38464,821.1722,591.50183,-0.0372314453125,0.121826171875,1.0050048828125,2.94586181640625,12.852630615234375,-3.895416259765625,1,2.0,1.0,1.0,2.0,10.00
2024-10-11 20:47:24.248,1.4814558,0.7412342,0.56931895,0.989569,1.1855713,-0.0027782426,-0.098280445,0.6324033,0.76936245,0.11894004,0.37828073,0.75687915,0.6809756,-0.13222302,0.4517186,0.70173365,-0.10964426,-0.4650944,0.41655913,0.3075309,805.4579,800.2198,785.31134,811.9048,623.73627,-0.0372314453125,0.121826171875,1.0050048828125,2.94586181640625,12.852630615234375,-3.895416259765625,1,2.0,1.0,1.0,2.0,10.00
2024-10-11 20:47:24.249,1.4814558,0.7412342,0.56931895,0.989569,1.1855713,-0.0027782426,-0.098280445,0.6324033,0.76936245,0.11894004,0.37828073,0.75687915,0.6809756,-0.13222302,0.4517186,0.70173365,-0.10964426,-0.4650944,0.41655913,0.3075309,797.8022,796.99634,788.5348,810.293,505.27472,-0.0372314453125,0.121826171875,1.0050048828125,2.94586181640625,12.852630615234375,-3.895416259765625,1,2.0,1.0,1.0,2.0,10.00
2024-10-11 20:47:24.250,1.4814558,0.7412342,0.56931895,0.989569,1.1855713,-0.0027782426,-0.098280445,0.6324033,0.76936245,0.11894004,0.37828073,0.75687915,0.6809756,-0.13222302,0.4517186,0.70173365,-0.10964426,-0.4650944,0.41655913,0.3075309,801.8315,796.1905,805.05493,813.91943,574.17584,-0.0372314453125,0.121826171875,1.0050048828125,2.94586181640625,12.852630615234375,-3.895416259765625,1,2.0,1.0,1.0,2.0,10.00
2024-10-11 20:47:24.279,1.4814558,0.7412342,0.56931895,0.989569,1.1855713,-0.0027782426,-0.098280445,0.6324033,0.76936245,0.11894004,0.37828073,0.75687915,0.6809756,-0.13222302,0.4517186,0.70173365,-0.10964426,-0.4650944,0.41655913,0.3075309,807.0696,800.6227,817.5458,818.3516,723.663,-0.0548095703125,0.12017822265625,1.00335693359375,1.48040771484375,13.92181396484375,-4.77020263671875,1,2.0,1.0,1.0,2.0,10.00
2024-10-11 20:47:24.281,1.4814558,0.7412342,0.56931895,0.989569,1.1855713,-0.0027782426,-0.098280445,0.6324033,0.76936245,0.11894004,0.37828073,0.75687915,0.6809756,-0.13222302,0.4517186,0.70173365,-0.10964426,-0.4650944,0.41655913,0.3075309,801.8315,799.41394,820.7692,814.3223,719.2308,-0.0548095703125,0.12017822265625,1.00335693359375,1.48040771484375,13.92181396484375,-4.77020263671875,1,2.0,1.0,1.0,2.0,10.00
2024-10-11 20:47:24.281,1.4814558,0.7412342,0.56931895,0.989569,1.1855713,-0.0027782426,-0.098280445,0.6324033,0.76936245,0.11894004,0.37828073,0.75687915,0.6809756,-0.13222302,0.4517186,0.70173365,-0.10964426,-0.4650944,0.41655913,0.3075309,801.02563,796.99634,811.50183,806.6667,579.41394,-0.0548095703125,0.12017822265625,1.00335693359375,1.48040771484375,13.92181396484375,-4.77020263671875,1,2.0,1.0,1.0,2.0,10.00
2024-10-11 20:47:24.282,1.4814558,0.7412342,0.56931895,0.989569,1.1855713,-0.0027782426,-0.098280445,0.6324033,0.76936245,0.11894004,0.37828073,0.75687915,0.6809756,-0.13222302,0.4517186,0.70173365,-0.10964426,-0.4650944,0.41655913,0.3075309,805.8608,799.41394,802.23444,807.8755,600.7692,-0.0548095703125,0.12017822265625,1.00335693359375,1.48040771484375,13.92181396484375,-4.77020263671875,1,2.0,1.0,1.0,2.0,10.00
2024-10-11 20:47:24.283,1.4814558,0.7412342,0.56931895,0.989569,1.1855713,-0.0027782426,-0.098280445,0.6324033,0.76936245,0.11894004,0.37828073,0.75687915,0.6809756,-0.13222302,0.4517186,0.70173365,-0.10964426,-0.4650944,0.41655913,0.3075309,796.5934,796.99634,800.2198,807.0696,731.31866,-0.0548095703125,0.12017822265625,1.00335693359375,1.48040771484375,13.92181396484375,-4.77020263671875,1,2.0,1.0,1.0,2.0,10.00
2024-10-11 20:47:24.283,1.4814558,0.7412342,0.56931895,0.989569,1.1855713,-0.0027782426,-0.098280445,0.6324033,0.76936245,0.11894004,0.37828073,0.75687915,0.6809756,-0.13222302,0.4517186,0.70173365,-0.10964426,-0.4650944,0.41655913,0.3075309,798.60803,796.1905,791.75824,801.02563,650.7326,-0.0548095703125,0.12017822265625,1.00335693359375,1.48040771484375,13.92181396484375,-4.77020263671875,1,2.0,1.0,1.0,2.0,10.00
2024-10-11 20:47:24.284,1.4814558,0.7412342,0.56931895,0.989569,1.1855713,-0.0027782426,-0.098280445,0.6324033,0.76936245,0.11894004,0.37828073,0.75687915,0.6809756,-0.13222302,0.4517186,0.70173365,-0.10964426,-0.4650944,0.41655913,0.3075309,807.0696,794.57874,796.1905,799.41394,626.55676,-0.0548095703125,0.12017822265625,1.00335693359375,1.48040771484375,13.92181396484375,-4.77020263671875,1,2.0,1.0,1.0,2.0,10.00
2024-10-11 20:47:24.285,1.4814558,0.7412342,0.56931895,0.989569,1.1855713,-0.0027782426,-0.098280445,0.6324033,0.76936245,0.11894004,0.37828073,0.75687915,0.6809756,-0.13222302,0.4517186,0.70173365,-0.10964426,-0.4650944,0.41655913,0.3075309,800.6227,792.1612,799.011,809.0842,845.34796,-0.0548095703125,0.12017822265625,1.00335693359375,1.48040771484375,13.92181396484375,-4.77020263671875,1,2.0,1.0,1.0,2.0,10.00
2024-10-11 20:47:24.285,1.4814558,0.7412342,0.56931895,0.989569,1.1855713,-0.0027782426,-0.098280445,0.6324033,0.76936245,0.11894004,0.37828073,0.75687915,0.6809756,-0.13222302,0.4517186,0.70173365,-0.10964426,-0.4650944,0.41655913,0.3075309,786.52014,796.1905,799.011,813.91943,910.2198,-0.0548095703125,0.12017822265625,1.00335693359375,1.48040771484375,13.92181396484375,-4.77020263671875,1,2.0,1.0,1.0,2.0,10.00
2024-10-11 20:47:24.286,1.4814558,0.7412342,0.56931895,0.989569,1.1855713,-0.0027782426,-0.098280445,0.6324033,0.76936245,0.11894004,0.37828073,0.75687915,0.6809756,-0.13222302,0.4517186,0.70173365,-0.10964426,-0.4650944,0.41655913,0.3075309,786.52014,795.78754,808.2784,809.4872,670.4762,-0.0548095703125,0.12017822265625,1.00335693359375,1.48040771484375,13.92181396484375,-4.77020263671875,1,2.0,1.0,1.0,2.0,10.00
2024-10-11 20:47:24.287,1.4814558,0.7412342,0.56931895,0.989569,1.1855713,-0.0027782426,-0.098280445,0.6324033,0.76936245,0.11894004,0.37828073,0.75687915,0.6809756,-0.13222302,0.4517186,0.70173365,-0.10964426,-0.4650944,0.41655913,0.3075309,789.7436,793.7729,806.6667,804.2491,598.3516,-0.0548095703125,0.12017822265625,1.00335693359375,1.48040771484375,13.92181396484375,-4.77020263671875,1,2.0,1.0,1.0,2.0,10.00
2024-10-11 20:47:24.288,1.4814558,0.81264466,0.58806145,0.989569,1.1855713,0.007656634,-0.11544868,0.6324033,0.76936245,0.124414004,0.37623322,0.75687915,0.6809756,-0.13092089,0.45401305,0.70173365,-0.10964426,-0.46928823,0.42050505,0.3075309,786.9231,793.7729,806.26373,801.4286,782.49084,-0.0548095703125,0.12017822265625,1.00335693359375,1.48040771484375,13.92181396484375,-4.77020263671875,1,2.0,1.0,1.0,2.0,10.00
2024-10-11 20:47:24.361,1.4814558,0.81264466,0.58806145,0.989569,1.1855713,0.007656634,-0.11544868,0.6324033,0.76936245,0.124414004,0.37623322,0.75687915,0.6809756,-0.13092089,0.45401305,0.70173365,-0.10964426,-0.46928823,0.42050505,0.3075309,793.36993,796.5934,804.2491,803.44324,724.4689,-0.0548095703125,0.12017822265625,1.00335693359375,1.48040771484375,13.92181396484375,-4.77020263671875,1,2.0,1.0,1.0,2.0,10.00
2024-10-11 20:47:24.362,1.4814558,0.81264466,0.58806145,0.989569,1.1855713,0.007656634,-0.11544868,0.6324033,0.76936245,0.124414004,0.37623322,0.75687915,0.6809756,-0.13092089,0.45401305,0.70173365,-0.10964426,-0.46928823,0.42050505,0.3075309,794.17584,796.1905,803.44324,797.8022,623.3333,-0.0548095703125,0.12017822265625,1.00335693359375,1.48040771484375,13.92181396484375,-4.77020263671875,1,2.0,1.0,1.0,2.0,10.00
2024-10-11 20:47:24.363,1.4814558,0.81264466,0.58806145,0.989569,1.1855713,0.007656634,-0.11544868,0.6324033,0.76936245,0.124414004,0.37623322,0.75687915,0.6809756,-0.13092089,0.45401305,0.70173365,-0.10964426,-0.46928823,0.42050505,0.3075309,795.38464,792.96704,802.23444,794.9817,587.0696,-0.0548095703125,0.12017822265625,1.00335693359375,1.48040771484375,13.92181396484375,-4.77020263671875,1,2.0,1.0,1.0,2.0,10.00
2024-10-11 20:47:24.364,1.4814558,0.81264466,0.58806145,0.989569,1.1855713,0.007656634,-0.11544868,0.6324033,0.76936245,0.124414004,0.37623322,0.75687915,0.6809756,-0.13092089,0.45401305,0.70173365,-0.10964426,-0.46928823,0.42050505,0.3075309,801.02563,794.9817,799.011,804.2491,735.34796,-0.0548095703125,0.12017822265625,1.00335693359375,1.48040771484375,13.92181396484375,-4.77020263671875,1,2.0,1.0,1.0,2.0,10.00
2024-10-11 20:47:24.365,1.4814558,0.81264466,0.58806145,0.989569,1.1855713,0.007656634,-0.11544868,0.6324033,0.76936245,0.124414004,0.37623322,0.75687915,0.6809756,-0.13092089,0.45401305,0.70173365,-0.10964426,-0.46928823,0.42050505,0.3075309,794.57874,794.57874,806.26373,801.4286,890.4762,-0.0548095703125,0.12017822265625,1.00335693359375,1.48040771484375,13.92181396484375,-4.77020263671875,1,2.0,1.0,1.0,2.0,10.00
2024-10-11 20:47:24.365,1.4814558,0.81264466,0.58806145,0.989569,1.1855713,0.007656634,-0.11544868,0.6324033,0.76936245,0.124414004,0.37623322,0.75687915,0.6809756,-0.13092089,0.45401305,0.70173365,-0.10964426,-0.46928823,0.42050505,0.3075309,796.1905,790.54944,797.8022,796.5934,750.65936,-0.0548095703125,0.12017822265625,1.00335693359375,1.48040771484375,13.92181396484375,-4.77020263671875,1,2.0,1.0,1.0,2.0,10.00
2024-10-11 20:47:24.366,1.4814558,0.81264466,0.58806145,0.989569,1.1855713,0.007656634,-0.11544868,0.6324033,0.76936245,0.124414004,0.37623322,0.75687915,0.6809756,-0.13092089,0.45401305,0.70173365,-0.10964426,-0.46928823,0.42050505,0.3075309,796.1905,789.34064,781.28204,803.0403,675.31134,-0.0548095703125,0.12017822265625,1.00335693359375,1.48040771484375,13.92181396484375,-4.77020263671875,1,2.0,1.0,1.0,2.0,10.00
2024-10-11 20:47:24.367,1.4814558,0.81264466,0.58806145,0.989569,1.1855713,0.007656634,-0.11544868,0.6324033,0.76936245,0.124414004,0.37623322,0.75687915,0.6809756,-0.13092089,0.45401305,0.70173365,-0.10964426,-0.46928823,0.42050505,0.3075309,801.4286,792.5641,797.8022,807.0696,805.05493,-0.0548095703125,0.12017822265625,1.00335693359375,1.48040771484375,13.92181396484375,-4.77020263671875,1,2.0,1.0,1.0,2.0,10.00
2024-10-11 20:47:24.367,1.4814558,0.81264466,0.58806145,0.989569,1.1855713,0.007656634,-0.11544868,0.6324033,0.76936245,0.124414004,0.37623322,0.75687915,0.6809756,-0.13092089,0.45401305,0.70173365,-0.10964426,-0.46928823,0.42050505,0.3075309,811.0989,790.14655,809.4872,811.9048,856.63007,-0.0548095703125,0.12017822265625,1.00335693359375,1.48040771484375,13.92181396484375,-4.77020263671875,1,2.0,1.0,1.0,2.0,10.00
2024-10-11 20:47:24.368,1.4814558,0.81264466,0.58806145,0.989569,1.1855713,0.007656634,-0.11544868,0.6324033,0.76936245,0.124414004,0.37623322,0.75687915,0.6809756,-0.13092089,0.45401305,0.70173365,-0.10964426,-0.46928823,0.42050505,0.3075309,803.0403,791.3553,805.8608,809.89014,595.5311,-0.0548095703125,0.12017822265625,1.00335693359375,1.48040771484375,13.92181396484375,-4.77020263671875,1,2.0,1.0,1.0,2.0,10.00
2024-10-11 20:47:24.369,1.4814558,0.81264466,0.58806145,0.989569,1.1855713,0.007656634,-0.11544868,0.6324033,0.76936245,0.124414004,0.37623322,0.75687915,0.6809756,-0.13092089,0.45401305,0.70173365,-0.10964426,-0.46928823,0.42050505,0.3075309,794.57874,792.5641,813.1135,803.0403,592.3077,-0.0548095703125,0.12017822265625,1.00335693359375,1.48040771484375,13.92181396484375,-4.77020263671875,1,2.0,1.0,1.0,2.0,10.00
2024-10-11 20:47:24.369,1.4814558,0.81264466,0.58806145,0.989569,1.1855713,0.007656634,-0.11544868,0.6324033,0.76936245,0.124414004,0.37623322,0.75687915,0.6809756,-0.13092089,0.45401305,0.70173365,-0.10964426,-0.46928823,0.42050505,0.3075309,803.0403,789.34064,815.12823,808.68134,755.09155,-0.0548095703125,0.12017822265625,1.00335693359375,1.48040771484375,13.92181396484375,-4.77020263671875,1,2.0,1.0,1.0,2.0,10.00
2024-10-11 20:47:24.428,1.4814558,0.81264466,0.58806145,0.989569,1.1855713,0.007656634,-0.11544868,0.6324033,0.76936245,0.124414004,0.37623322,0.75687915,0.6809756,-0.13092089,0.45401305,0.70173365,-0.10964426,-0.46928823,0.42050505,0.3075309,809.4872,790.54944,809.0842,813.5165,664.0293,-0.07098388671875,0.1175537109375,0.99560546875,0.13458251953125,12.478790283203125,-4.702911376953125,1,2.0,1.0,1.0,2.0,10.00
2024-10-11 20:47:24.430,1.4814558,0.81264466,0.58806145,0.989569,1.1855713,0.007656634,-0.11544868,0.6324033,0.76936245,0.124414004,0.37623322,0.75687915,0.6809756,-0.13092089,0.45401305,0.70173365,-0.10964426,-0.46928823,0.42050505,0.3075309,803.0403,796.99634,803.8461,811.0989,518.1685,-0.07098388671875,0.1175537109375,0.99560546875,0.13458251953125,12.478790283203125,-4.702911376953125,1,2.0,1.0,1.0,2.0,10.00
