TimeStamp,Delta_TP9,Delta_AF7,Delta_AF8,Delta_TP10,Theta_TP9,Theta_AF7,Theta_AF8,Theta_TP10,Alpha_TP9,Alpha_AF7,Alpha_AF8,Alpha_TP10,Beta_TP9,Beta_AF7,Beta_AF8,Beta_TP10,Gamma_TP9,Gamma_AF7,Gamma_AF8,Gamma_TP10,RAW_TP9,RAW_AF7,RAW_AF8,RAW_TP10,AUX_RIGHT,Accelerometer_X,Accelerometer_Y,Accelerometer_Z,Gyro_X,Gyro_Y,Gyro_Z,HeadBandOn,HSI_TP9,HSI_AF7,HSI_AF8,HSI_TP10,Battery,Elements
2024-10-11 20:38:31.762,0.13857464,0.6762523,0.72565055,0.08438157,0.4078013,0.3988796,0.36873388,0.5875351,0.45396483,0.27388555,0.11950538,0.14027707,0.31089175,-0.043578014,0.15691009,0.3935599,0.008378546,-0.1946605,-0.04543638,-0.07373067,800.2198,793.36993,794.57874,794.57874,740.989,-0.21905517578125,0.09002685546875,0.97943115234375,0.49346923828125,-1.398162841796875,0.31402587890625,1,2.0,1.0,1.0,2.0,10.00
2024-10-11 20:38:31.764,0.13857464,0.6762523,0.72565055,0.08438157,0.4078013,0.3988796,0.36873388,0.5875351,0.45396483,0.27388555,0.11950538,0.14027707,0.31089175,-0.043578014,0.15691009,0.3935599,0.008378546,-0.1946605,-0.04543638,-0.07373067,797.3993,795.78754,789.7436,789.34064,640.65936,-0.21905517578125,0.09002685546875,0.97943115234375,0.49346923828125,-1.398162841796875,0.31402587890625,1,2.0,1.0,1.0,2.0,10.00
2024-10-11 20:38:31.766,0.13857464,0.6762523,0.72565055,0.08438157,0.4078013,0.3988796,0.36873388,0.5875351,0.45396483,0.27388555,0.11950538,0.14027707,0.31089175,-0.043578014,0.15691009,0.3935599,0.008378546,-0.1946605,-0.04543638,-0.07373067,800.6227,794.57874,799.41394,790.14655,582.6374,-0.21905517578125,0.09002685546875,0.97943115234375,0.49346923828125,-1.398162841796875,0.31402587890625,1,2.0,1.0,1.0,2.0,10.00
2024-10-11 20:38:31.768,0.13857464,0.6762523,0.72565055,0.08438157,0.4078013,0.3988796,0.36873388,0.5875351,0.45396483,0.27388555,0.11950538,0.14027707,0.31089175,-0.043578014,0.15691009,0.3935599,0.008378546,-0.1946605,-0.04543638,-0.07373067,798.60803,790.9524,802.6374,791.75824,705.5311,-0.21905517578125,0.09002685546875,0.97943115234375,0.49346923828125,-1.398162841796875,0.31402587890625,1,2.0,1.0,1.0,2.0,10.00
2024-10-11 20:38:31.770,0.13857464,0.6762523,0.72565055,0.08438157,0.4078013,0.3988796,0.36873388,0.5875351,0.45396483,0.27388555,0.11950538,0.14027707,0.31089175,-0.043578014,0.15691009,0.3935599,0.008378546,-0.1946605,-0.04543638,-0.07373067,798.20514,798.20514,798.60803,792.5641,749.85345,-0.21905517578125,0.09002685546875,0.97943115234375,0.49346923828125,-1.398162841796875,0.31402587890625,1,2.0,1.0,1.0,2.0,10.00
2024-10-11 20:38:31.771,0.13857464,0.6762523,0.72565055,0.08438157,0.4078013,0.3988796,0.36873388,0.5875351,0.45396483,0.27388555,0.11950538,0.14027707,0.31089175,-0.043578014,0.15691009,0.3935599,0.008378546,-0.1946605,-0.04543638,-0.07373067,804.65204,795.38464,797.8022,790.9524,747.03296,-0.21905517578125,0.09002685546875,0.97943115234375,0.49346923828125,-1.398162841796875,0.31402587890625,1,2.0,1.0,1.0,2.0,10.00
2024-10-11 20:38:31.772,0.13857464,0.6762523,0.72565055,0.08438157,0.4078013,0.3988796,0.36873388,0.5875351,0.45396483,0.27388555,0.11950538,0.14027707,0.31089175,-0.043578014,0.15691009,0.3935599,0.008378546,-0.1946605,-0.04543638,-0.07373067,796.1905,791.3553,799.011,786.1172,728.0952,-0.21905517578125,0.09002685546875,0.97943115234375,0.49346923828125,-1.398162841796875,0.31402587890625,1,2.0,1.0,1.0,2.0,10.00
2024-10-11 20:38:31.773,0.13857464,0.6762523,0.72565055,0.08438157,0.4078013,0.3988796,0.36873388,0.5875351,0.45396483,0.27388555,0.11950538,0.14027707,0.31089175,-0.043578014,0.15691009,0.3935599,0.008378546,-0.1946605,-0.04543638,-0.07373067,799.81683,797.3993,796.99634,786.52014,799.41394,-0.21905517578125,0.09002685546875,0.97943115234375,0.49346923828125,-1.398162841796875,0.31402587890625,1,2.0,1.0,1.0,2.0,10.00
2024-10-11 20:38:31.774,0.13857464,0.6762523,0.72565055,0.08438157,0.4078013,0.3988796,0.36873388,0.5875351,0.45396483,0.27388555,0.11950538,0.14027707,0.31089175,-0.043578014,0.15691009,0.3935599,0.008378546,-0.1946605,-0.04543638,-0.07373067,813.1135,797.8022,794.9817,791.75824,1055.2748,-0.21905517578125,0.09002685546875,0.97943115234375,0.49346923828125,-1.398162841796875,0.31402587890625,1,2.0,1.0,1.0,2.0,10.00
2024-10-11 20:38:31.775,0.13857464,0.6762523,0.72565055,0.08438157,0.4078013,0.3988796,0.36873388,0.5875351,0.45396483,0.27388555,0.11950538,0.14027707,0.31089175,-0.043578014,0.15691009,0.3935599,0.008378546,-0.1946605,-0.04543638,-0.07373067,797.8022,796.1905,789.7436,790.54944,883.6264,-0.21905517578125,0.09002685546875,0.97943115234375,0.49346923828125,-1.398162841796875,0.31402587890625,1,2.0,1.0,1.0,2.0,10.00
2024-10-11 20:38:31.776,0.13857464,0.6762523,0.72565055,0.08438157,0.4078013,0.3988796,0.36873388,0.5875351,0.45396483,0.27388555,0.11950538,0.14027707,0.31089175,-0.043578014,0.15691009,0.3935599,0.008378546,-0.1946605,-0.04543638,-0.07373067,794.57874,801.4286,797.3993,793.7729,587.47253,-0.21905517578125,0.09002685546875,0.97943115234375,0.49346923828125,-1.398162841796875,0.31402587890625,1,2.0,1.0,1.0,2.0,10.00
2024-10-11 20:38:31.777,0.13857464,0.6762523,0.72565055,0.08438157,0.4078013,0.3988796,0.36873388,0.5875351,0.45396483,0.27388555,0.11950538,0.14027707,0.31089175,-0.043578014,0.15691009,0.3935599,0.008378546,-0.1946605,-0.04543638,-0.07373067,800.6227,800.6227,804.2491,801.4286,770.80585,-0.21905517578125,0.09002685546875,0.97943115234375,0.49346923828125,-1.398162841796875,0.31402587890625,1,2.0,1.0,1.0,2.0,10.00
2024-10-11 20:38:31.841,0.13857464,0.6762523,0.72565055,0.08438157,0.4078013,0.3988796,0.36873388,0.5875351,0.45396483,0.27388555,0.11950538,0.14027707,0.31089175,-0.043578014,0.15691009,0.3935599,0.008378546,-0.1946605,-0.04543638,-0.07373067,797.8022,799.41394,802.6374,807.8755,981.53845,-0.2164306640625,0.09222412109375,0.98089599609375,0.874786376953125,-1.428070068359375,0.73272705078125,1,2.0,1.0,1.0,2.0,10.00
2024-10-11 20:38:31.844,0.13857464,0.6762523,0.72565055,0.08438157,0.4078013,0.3988796,0.36873388,0.5875351,0.45396483,0.27388555,0.11950538,0.14027707,0.31089175,-0.043578014,0.15691009,0.3935599,0.008378546,-0.1946605,-0.04543638,-0.07373067,790.54944,797.8022,804.2491,802.6374,705.9341,-0.2164306640625,0.09222412109375,0.98089599609375,0.874786376953125,-1.428070068359375,0.73272705078125,1,2.0,1.0,1.0,2.0,10.00
2024-10-11 20:38:31.845,0.13857464,0.6762523,0.72565055,0.08438157,0.4078013,0.3988796,0.36873388,0.5875351,0.45396483,0.27388555,0.11950538,0.14027707,0.31089175,-0.043578014,0.15691009,0.3935599,0.008378546,-0.1946605,-0.04543638,-0.07373067,792.1612,793.36993,805.4579,800.2198,620.5128,-0.2164306640625,0.09222412109375,0.98089599609375,0.874786376953125,-1.428070068359375,0.73272705078125,1,2.0,1.0,1.0,2.0,10.00
2024-10-11 20:38:31.847,0.13857464,0.6762523,0.6867289,0.08438157,0.4078013,0.3988796,0.3357501,0.5875351,0.45396483,0.27388555,0.11950538,0.14027707,0.31089175,-0.043578014,0.15822035,0.3935599,0.008378546,-0.1946605,-0.067286484,-0.07373067,799.011,791.3553,803.44324,797.8022,754.68866,-0.2164306640625,0.09222412109375,0.98089599609375,0.874786376953125,-1.428070068359375,0.73272705078125,1,2.0,1.0,1.0,2.0,10.00
2024-10-11 20:38:31.852,0.13857464,0.6762523,0.6867289,0.08438157,0.4078013,0.3988796,0.3357501,0.5875351,0.45396483,0.27388555,0.11950538,0.14027707,0.31089175,-0.043578014,0.15822035,0.3935599,0.008378546,-0.1946605,-0.067286484,-0.07373067,790.9524,794.57874,798.60803,790.14655,729.304,-0.2164306640625,0.09222412109375,0.98089599609375,0.874786376953125,-1.428070068359375,0.73272705078125,1,2.0,1.0,1.0,2.0,10.00
2024-10-11 20:38:31.853,0.13857464,0.6762523,0.6867289,0.08438157,0.4078013,0.3988796,0.3357501,0.5875351,0.45396483,0.27388555,0.11950538,0.14027707,0.31089175,-0.043578014,0.15822035,0.3935599,0.008378546,-0.1946605,-0.067286484,-0.07373067,790.54944,800.6227,804.2491,794.17584,781.28204,-0.2164306640625,0.09222412109375,0.98089599609375,0.874786376953125,-1.428070068359375,0.73272705078125,1,2.0,1.0,1.0,2.0,10.00
2024-10-11 20:38:31.854,0.13857464,0.6762523,0.6867289,0.08438157,0.4078013,0.3988796,0.3357501,0.5875351,0.45396483,0.27388555,0.11950538,0.14027707,0.31089175,-0.043578014,0.15822035,0.3935599,0.008378546,-0.1946605,-0.067286484,-0.07373067,797.3993,803.0403,807.8755,802.23444,913.44324,-0.2164306640625,0.09222412109375,0.98089599609375,0.874786376953125,-1.428070068359375,0.73272705078125,1,2.0,1.0,1.0,2.0,10.00
2024-10-11 20:38:31.855,0.13857464,0.6762523,0.6867289,0.08438157,0.4078013,0.3988796,0.3357501,0.5875351,0.45396483,0.27388555,0.11950538,0.14027707,0.31089175,-0.043578014,0.15822035,0.3935599,0.008378546,-0.1946605,-0.067286484,-0.07373067,806.26373,803.44324,801.4286,804.65204,857.03296,-0.2164306640625,0.09222412109375,0.98089599609375,0.874786376953125,-1.428070068359375,0.73272705078125,1,2.0,1.0,1.0,2.0,10.00
2024-10-11 20:38:31.856,0.13857464,0.6762523,0.6867289,0.08438157,0.4078013,0.3988796,0.3357501,0.5875351,0.45396483,0.27388555,0.11950538,0.14027707,0.31089175,-0.043578014,0.15822035,0.3935599,0.008378546,-0.1946605,-0.067286484,-0.07373067,801.02563,804.65204,801.02563,803.8461,606.0073,-0.2164306640625,0.09222412109375,0.98089599609375,0.874786376953125,-1.428070068359375,0.73272705078125,1,2.0,1.0,1.0,2.0,10.00
2024-10-11 20:38:31.857,0.13857464,0.6762523,0.6867289,0.08438157,0.4078013,0.3988796,0.3357501,0.5875351,0.45396483,0.27388555,0.11950538,0.14027707,0.31089175,-0.043578014,0.15822035,0.3935599,0.008378546,-0.1946605,-0.067286484,-0.07373067,796.5934,803.8461,802.23444,808.68134,621.31866,-0.2164306640625,0.09222412109375,0.98089599609375,0.874786376953125,-1.428070068359375,0.73272705078125,1,2.0,1.0,1.0,2.0,10.00
2024-10-11 20:38:31.858,0.13857464,0.6762523,0.6867289,0.08438157,0.4078013,0.3988796,0.3357501,0.5875351,0.45396483,0.27388555,0.11950538,0.14027707,0.31089175,-0.043578014,0.15822035,0.3935599,0.008378546,-0.1946605,-0.067286484,-0.07373067,799.81683,801.8315,804.65204,810.293,785.7143,-0.2164306640625,0.09222412109375,0.98089599609375,0.874786376953125,-1.428070068359375,0.73272705078125,1,2.0,1.0,1.0,2.0,10.00
2024-10-11 20:38:31.859,0.13857464,0.6762523,0.6867289,0.08438157,0.4078013,0.3988796,0.3357501,0.5875351,0.45396483,0.27388555,0.11950538,0.14027707,0.31089175,-0.043578014,0.15822035,0.3935599,0.008378546,-0.1946605,-0.067286484,-0.07373067,799.011,802.6374,803.44324,795.78754,873.95605,-0.2164306640625,0.09222412109375,0.98089599609375,0.874786376953125,-1.428070068359375,0.73272705078125,1,2.0,1.0,1.0,2.0,10.00
2024-10-11 20:38:31.860,0.13857464,0.6762523,0.6867289,0.08438157,0.4078013,0.3988796,0.3357501,0.5875351,0.45396483,0.27388555,0.11950538,0.14027707,0.31089175,-0.043578014,0.15822035,0.3935599,0.008378546,-0.1946605,-0.067286484,-0.07373067,800.2198,804.65204,801.02563,796.99634,803.44324,-0.213134765625,0.09393310546875,0.98443603515625,1.024322509765625,-1.308441162109375,0.994415283203125,1,2.0,1.0,1.0,2.0,10.00
2024-10-11 20:38:31.861,0.13857464,0.6762523,0.6867289,0.08438157,0.4078013,0.3988796,0.3357501,0.5875351,0.45396483,0.27388555,0.11950538,0.14027707,0.31089175,-0.043578014,0.15822035,0.3935599,0.008378546,-0.1946605,-0.067286484,-0.07373067,802.6374,803.44324,805.4579,805.8608,737.76556,-0.213134765625,0.09393310546875,0.98443603515625,1.024322509765625,-1.308441162109375,0.994415283203125,1,2.0,1.0,1.0,2.0,10.00
2024-10-11 20:38:31.863,0.13857464,0.6762523,0.6867289,0.08438157,0.4078013,0.3988796,0.3357501,0.5875351,0.45396483,0.27388555,0.11950538,0.14027707,0.31089175,-0.043578014,0.15822035,0.3935599,0.008378546,-0.1946605,-0.067286484,-0.07373067,800.6227,801.02563,809.0842,809.0842,781.685,-0.213134765625,0.09393310546875,0.98443603515625,1.024322509765625,-1.308441162109375,0.994415283203125,1,2.0,1.0,1.0,2.0,10.00
2024-10-11 20:38:31.864,0.13857464,0.6762523,0.6867289,0.08438157,0.4078013,0.3988796,0.3357501,0.5875351,0.45396483,0.27388555,0.11950538,0.14027707,0.31089175,-0.043578014,0.15822035,0.3935599,0.008378546,-0.1946605,-0.067286484,-0.07373067,786.9231,799.41394,809.0842,809.0842,1087.1062,-0.213134765625,0.09393310546875,0.98443603515625,1.024322509765625,-1.308441162109375,0.994415283203125,1,2.0,1.0,1.0,2.0,10.00
2024-10-11 20:38:31.865,0.13857464,0.6762523,0.6867289,0.08438157,0.4078013,0.3988796,0.3357501,0.5875351,0.45396483,0.27388555,0.11950538,0.14027707,0.31089175,-0.043578014,0.15822035,0.3935599,0.008378546,-0.1946605,-0.067286484,-0.07373067,781.28204,805.4579,800.2198,793.36993,994.83514,-0.213134765625,0.09393310546875,0.98443603515625,1.024322509765625,-1.308441162109375,0.994415283203125,1,2.0,1.0,1.0,2.0,10.00
2024-10-11 20:38:31.866,0.13857464,0.6762523,0.6867289,0.08438157,0.4078013,0.3988796,0.3357501,0.5875351,0.45396483,0.27388555,0.11950538,0.14027707,0.31089175,-0.043578014,0.15822035,0.3935599,0.008378546,-0.1946605,-0.067286484,-0.07373067,789.7436,802.23444,798.60803,795.78754,697.8755,-0.213134765625,0.09393310546875,0.98443603515625,1.024322509765625,-1.308441162109375,0.994415283203125,1,2.0,1.0,1.0,2.0,10.00
2024-10-11 20:38:31.867,0.13857464,0.6762523,0.6867289,0.08438157,0.4078013,0.3988796,0.3357501,0.5875351,0.45396483,0.27388555,0.11950538,0.14027707,0.31089175,-0.043578014,0.15822035,0.3935599,0.008378546,-0.1946605,-0.067286484,-0.07373067,770.0,790.9524,803.44324,794.9817,843.73627,-0.213134765625,0.09393310546875,0.98443603515625,1.024322509765625,-1.308441162109375,0.994415283203125,1,2.0,1.0,1.0,2.0,10.00
2024-10-11 20:38:31.868,0.13857464,0.6762523,0.6867289,0.08438157,0.4078013,0.3988796,0.3357501,0.5875351,0.45396483,0.27388555,0.11950538,0.14027707,0.31089175,-0.043578014,0.15822035,0.3935599,0.008378546,-0.1946605,-0.067286484,-0.07373067,755.89746,796.99634,809.4872,789.7436,1038.3517,-0.213134765625,0.09393310546875,0.98443603515625,1.024322509765625,-1.308441162109375,0.994415283203125,1,2.0,1.0,1.0,2.0,10.00
2024-10-11 20:38:31.869,0.13857464,0.6762523,0.6867289,0.08438157,0.4078013,0.3988796,0.3357501,0.5875351,0.45396483,0.27388555,0.11950538,0.14027707,0.31089175,-0.043578014,0.15822035,0.3935599,0.008378546,-0.1946605,-0.067286484,-0.07373067,767.5824,816.7399,816.7399,779.67035,749.85345,-0.213134765625,0.09393310546875,0.98443603515625,1.024322509765625,-1.308441162109375,0.994415283203125,1,2.0,1.0,1.0,2.0,10.00
2024-10-11 20:38:31.871,0.13857464,0.6762523,0.6867289,0.08438157,0.4078013,0.3988796,0.3357501,0.5875351,0.45396483,0.27388555,0.11950538,0.14027707,0.31089175,-0.043578014,0.15822035,0.3935599,0.008378546,-0.1946605,-0.067286484,-0.07373067,776.8498,828.4249,817.5458,768.3883,631.79486,-0.213134765625,0.09393310546875,0.98443603515625,1.024322509765625,-1.308441162109375,0.994415283203125,1,2.0,1.0,1.0,2.0,10.00
2024-10-11 20:38:31.872,0.13857464,0.6762523,0.6867289,0.08438157,0.4078013,0.3988796,0.3357501,0.5875351,0.45396483,0.27388555,0.11950538,0.14027707,0.31089175,-0.043578014,0.15822035,0.3935599,0.008378546,-0.1946605,-0.067286484,-0.07373067,769.59705,821.1722,810.696,763.5531,749.85345,-0.213134765625,0.09393310546875,0.98443603515625,1.024322509765625,-1.308441162109375,0.994415283203125,1,2.0,1.0,1.0,2.0,10.00
2024-10-11 20:38:31.874,0.13857464,0.6762523,0.6867289,0.08438157,0.4078013,0.3988796,0.3357501,0.5875351,0.45396483,0.27388555,0.11950538,0.14027707,0.31089175,-0.043578014,0.15822035,0.3935599,0.008378546,-0.1946605,-0.067286484,-0.07373067,744.21246,815.9341,807.47253,742.6007,726.08057,-0.213134765625,0.09393310546875,0.98443603515625,1.024322509765625,-1.308441162109375,0.994415283203125,1,2.0,1.0,1.0,2.0,10.00
2024-10-11 20:38:31.903,0.13857464,0.6762523,0.6867289,0.08438157,0.4078013,0.3988796,0.3357501,0.5875351,0.45396483,0.27388555,0.11950538,0.14027707,0.31089175,-0.043578014,0.15822035,0.3935599,0.008378546,-0.1946605,-0.067286484,-0.07373067,746.63007,829.2308,814.7253,738.1685,670.4762,-0.213134765625,0.09393310546875,0.98443603515625,1.024322509765625,-1.308441162109375,0.994415283203125,1,2.0,1.0,1.0,2.0,10.00
2024-10-11 20:38:31.904,0.13857464,0.6762523,0.6867289,0.08438157,0.4078013,0.3988796,0.3357501,0.5875351,0.45396483,0.27388555,0.11950538,0.14027707,0.31089175,-0.043578014,0.15822035,0.3935599,0.008378546,-0.1946605,-0.067286484,-0.07373067,734.94507,836.08057,824.7985,735.34796,711.1722,-0.213134765625,0.09393310546875,0.98443603515625,1.024322509765625,-1.308441162109375,0.994415283203125,1,2.0,1.0,1.0,2.0,10.00
2024-10-11 20:38:31.905,0.13857464,0.6762523,0.6867289,0.08438157,0.4078013,0.3988796,0.3357501,0.5875351,0.45396483,0.27388555,0.11950538,0.14027707,0.31089175,-0.043578014,0.15822035,0.3935599,0.008378546,-0.1946605,-0.067286484,-0.07373067,704.3223,831.6484,819.5604,721.2454,922.71063,-0.213134765625,0.09393310546875,0.98443603515625,1.024322509765625,-1.308441162109375,0.994415283203125,1,2.0,1.0,1.0,2.0,10.00
2024-10-11 20:38:31.906,0.13857464,0.6762523,0.6867289,0.08438157,0.4078013,0.3988796,0.3357501,0.5875351,0.45396483,0.27388555,0.11950538,0.14027707,0.31089175,-0.043578014,0.15822035,0.3935599,0.008378546,-0.1946605,-0.067286484,-0.07373067,706.337,839.707,817.1429,713.1868,851.79486,-0.213134765625,0.09393310546875,0.98443603515625,1.024322509765625,-1.308441162109375,0.994415283203125,1,2.0,1.0,1.0,2.0,10.00
2024-10-11 20:38:31.907,0.13857464,0.6762523,0.6867289,0.08438157,0.4078013,0.3988796,0.3357501,0.5875351,0.45396483,0.27388555,0.11950538,0.14027707,0.31089175,-0.043578014,0.15822035,0.3935599,0.008378546,-0.1946605,-0.067286484,-0.07373067,699.89014,844.1392,817.9487,699.89014,664.83514,-0.213134765625,0.09393310546875,0.98443603515625,1.024322509765625,-1.308441162109375,0.994415283203125,1,2.0,1.0,1.0,2.0,10.00
2024-10-11 20:38:31.908,0.13857464,0.6762523,0.6623713,0.08438157,0.4078013,0.3988796,0.31732854,0.5875351,0.45396483,0.27388555,0.11950538,0.14027707,0.31089175,-0.043578014,0.15052819,0.3935599,0.008378546,-0.1946605,-0.093934216,-0.07373067,680.54944,836.4835,813.91943,687.8022,877.98535,-0.213134765625,0.09393310546875,0.98443603515625,1.024322509765625,-1.308441162109375,0.994415283203125,1,2.0,1.0,1.0,2.0,10.00
2024-10-11 20:38:31.913,0.13857464,0.6762523,0.6623713,0.08438157,0.4078013,0.3988796,0.31732854,0.5875351,0.45396483,0.27388555,0.11950538,0.14027707,0.31089175,-0.043578014,0.15052819,0.3935599,0.008378546,-0.1946605,-0.093934216,-0.07373067,682.5641,834.4689,818.7546,688.60803,1132.2344,-0.213134765625,0.09393310546875,0.98443603515625,1.024322509765625,-1.308441162109375,0.994415283203125,1,2.0,1.0,1.0,2.0,10.00
2024-10-11 20:38:31.914,0.13857464,0.6762523,0.6623713,0.08438157,0.4078013,0.3988796,0.31732854,0.5875351,0.45396483,0.27388555,0.11950538,0.14027707,0.31089175,-0.043578014,0.15052819,0.3935599,0.008378546,-0.1946605,-0.093934216,-0.07373067,677.72894,840.10986,823.1868,679.34064,869.92676,-0.213134765625,0.09393310546875,0.98443603515625,1.024322509765625,-1.308441162109375,0.994415283203125,1,2.0,1.0,1.0,2.0,10.00
2024-10-11 20:38:31.915,0.13857464,0.6762523,0.6623713,0.08438157,0.4078013,0.3988796,0.31732854,0.5875351,0.45396483,0.27388555,0.11950538,0.14027707,0.31089175,-0.043578014,0.15052819,0.3935599,0.008378546,-0.1946605,-0.093934216,-0.07373067,673.69965,843.73627,824.3956,674.5055,659.59705,-0.213134765625,0.09393310546875,0.98443603515625,1.024322509765625,-1.308441162109375,0.994415283203125,1,2.0,1.0,1.0,2.0,10.00
2024-10-11 20:38:31.916,0.13857464,0.6762523,0.6623713,0.08438157,0.4078013,0.3988796,0.31732854,0.5875351,0.45396483,0.27388555,0.11950538,0.14027707,0.31089175,-0.043578014,0.15052819,0.3935599,0.008378546,-0.1946605,-0.093934216,-0.07373067,675.31134,841.31866,823.1868,678.1319,752.27106,-0.213134765625,0.09393310546875,0.98443603515625,1.024322509765625,-1.308441162109375,0.994415283203125,1,2.0,1.0,1.0,2.0,10.00
2024-10-11 20:38:31.917,0.13857464,0.6762523,0.6623713,0.08438157,0.4078013,0.3988796,0.31732854,0.5875351,0.45396483,0.27388555,0.11950538,0.14027707,0.31089175,-0.043578014,0.15052819,0.3935599,0.008378546,-0.1946605,-0.093934216,-0.07373067,676.52014,833.2601,828.8278,685.78754,904.57874,-0.213134765625,0.09393310546875,0.98443603515625,1.024322509765625,-1.308441162109375,0.994415283203125,1,2.0,1.0,1.0,2.0,10.00
2024-10-11 20:38:31.918,0.13857464,0.6762523,0.6623713,0.08438157,0.4078013,0.3988796,0.31732854,0.5875351,0.45396483,0.27388555,0.11950538,0.14027707,0.31089175,-0.043578014,0.15052819,0.3935599,0.008378546,-0.1946605,-0.093934216,-0.07373067,690.6227,830.84247,830.4396,694.2491,766.3736,-0.213134765625,0.09393310546875,0.98443603515625,1.024322509765625,-1.308441162109375,0.994415283203125,1,2.0,1.0,1.0,2.0,10.00
2024-10-11 20:38:31.920,0.13857464,0.6762523,0.6623713,0.08438157,0.4078013,0.3988796,0.31732854,0.5875351,0.45396483,0.27388555,0.11950538,0.14027707,0.31089175,-0.043578014,0.15052819,0.3935599,0.008378546,-0.1946605,-0.093934216,-0.07373067,704.3223,840.10986,823.1868,697.8755,660.40295,-0.2183837890625,0.09442138671875,0.99072265625,0.37384033203125,-1.338348388671875,2.235565185546875,1,2.0,1.0,1.0,2.0,10.00
2024-10-11 20:38:31.921,0.13857464,0.6762523,0.6623713,0.08438157,0.4078013,0.3988796,0.31732854,0.5875351,0.45396483,0.27388555,0.11950538,0.14027707,0.31089175,-0.043578014,0.15052819,0.3935599,0.008378546,-0.1946605,-0.093934216,-0.07373067,697.47253,841.31866,828.022,700.696,672.49084,-0.2183837890625,0.09442138671875,0.99072265625,0.37384033203125,-1.338348388671875,2.235565185546875,1,2.0,1.0,1.0,2.0,10.00
2024-10-11 20:38:31.922,0.13857464,0.6762523,0.6623713,0.08438157,0.4078013,0.3988796,0.31732854,0.5875351,0.45396483,0.27388555,0.11950538,0.14027707,0.31089175,-0.043578014,0.15052819,0.3935599,0.008378546,-0.1946605,-0.093934216,-0.07373067,690.6227,832.4542,832.0513,707.5458,904.17584,-0.2183837890625,0.09442138671875,0.99072265625,0.37384033203125,-1.338348388671875,2.235565185546875,1,2.0,1.0,1.0,2.0,10.00
2024-10-11 20:38:31.924,0.13857464,0.6762523,0.6623713,0.08438157,0.4078013,0.3988796,0.31732854,0.5875351,0.45396483,0.27388555,0.11950538,0.14027707,0.31089175,-0.043578014,0.15052819,0.3935599,0.008378546,-0.1946605,-0.093934216,-0.07373067,699.0842,824.3956,829.6337,722.8571,792.1612,-0.2183837890625,0.09442138671875,0.99072265625,0.37384033203125,-1.338348388671875,2.235565185546875,1,2.0,1.0,1.0,2.0,10.00
2024-10-11 20:38:31.925,0.13857464,0.6762523,0.6623713,0.08438157,0.4078013,0.3988796,0.31732854,0.5875351,0.45396483,0.27388555,0.11950538,0.14027707,0.31089175,-0.043578014,0.15052819,0.3935599,0.008378546,-0.1946605,-0.093934216,-0.07373067,709.5604,818.3516,827.619,736.1539,637.8388,-0.2183837890625,0.09442138671875,0.99072265625,0.37384033203125,-1.338348388671875,2.235565185546875,1,2.0,1.0,1.0,2.0,10.00
2024-10-11 20:38:31.926,0.13857464,0.6762523,0.6623713,0.08438157,0.4078013,0.3988796,0.31732854,0.5875351,0.45396483,0.27388555,0.11950538,0.14027707,0.31089175,-0.043578014,0.15052819,0.3935599,0.008378546,-0.1946605,-0.093934216,-0.07373067,724.4689,823.5897,819.5604,743.8095,861.06226,-0.2183837890625,0.09442138671875,0.99072265625,0.37384033203125,-1.338348388671875,2.235565185546875,1,2.0,1.0,1.0,2.0,10.00
2024-10-11 20:38:31.927,0.13857464,0.6762523,0.6623713,0.08438157,0.4078013,0.3988796,0.31732854,0.5875351,0.45396483,0.27388555,0.11950538,0.14027707,0.31089175,-0.043578014,0.15052819,0.3935599,0.008378546,-0.1946605,-0.093934216,-0.07373067,747.03296,823.5897,816.337,749.45056,951.7216,-0.2183837890625,0.09442138671875,0.99072265625,0.37384033203125,-1.338348388671875,2.235565185546875,1,2.0,1.0,1.0,2.0,10.00
2024-10-11 20:38:31.928,0.13857464,0.6762523,0.6623713,0.08438157,0.4078013,0.3988796,0.31732854,0.5875351,0.45396483,0.27388555,0.11950538,0.14027707,0.31089175,-0.043578014,0.15052819,0.3935599,0.008378546,-0.1946605,-0.093934216,-0.07373067,755.4945,814.3223,811.0989,757.1062,861.8681,-0.2183837890625,0.09442138671875,0.99072265625,0.37384033203125,-1.338348388671875,2.235565185546875,1,2.0,1.0,1.0,2.0,10.00
2024-10-11 20:38:31.929,0.13857464,0.6762523,0.6623713,0.08438157,0.4078013,0.3988796,0.31732854,0.5875351,0.45396483,0.27388555,0.11950538,0.14027707,0.31089175,-0.043578014,0.15052819,0.3935599,0.008378546,-0.1946605,-0.093934216,-0.07373067,745.42126,810.293,806.6667,762.3443,733.3333,-0.2183837890625,0.09442138671875,0.99072265625,0.37384033203125,-1.338348388671875,2.235565185546875,1,2.0,1.0,1.0,2.0,10.00
2024-10-11 20:38:31.930,0.13857464,0.6762523,0.6623713,0.08438157,0.4078013,0.3988796,0.31732854,0.5875351,0.45396483,0.27388555,0.11950538,0.14027707,0.31089175,-0.043578014,0.15052819,0.3935599,0.008378546,-0.1946605,-0.093934216,-0.07373067,748.6447,802.6374,804.65204,771.6117,743.4066,-0.2183837890625,0.09442138671875,0.99072265625,0.37384033203125,-1.338348388671875,2.235565185546875,1,2.0,1.0,1.0,2.0,10.00
2024-10-11 20:38:31.931,0.13857464,0.6762523,0.6623713,0.08438157,0.4078013,0.3988796,0.31732854,0.5875351,0.45396483,0.27388555,0.11950538,0.14027707,0.31089175,-0.043578014,0.15052819,0.3935599,0.008378546,-0.1946605,-0.093934216,-0.07373067,760.7326,794.9817,801.8315,786.52014,765.56775,-0.2183837890625,0.09442138671875,0.99072265625,0.37384033203125,-1.338348388671875,2.235565185546875,1,2.0,1.0,1.0,2.0,10.00
2024-10-11 20:38:31.932,0.13857464,0.6762523,0.6623713,0.08438157,0.4078013,0.3988796,0.31732854,0.5875351,0.45396483,0.27388555,0.11950538,0.14027707,0.31089175,-0.043578014,0.15052819,0.3935599,0.008378546,-0.1946605,-0.093934216,-0.07373067,764.35895,790.54944,802.6374,788.1319,639.45056,-0.2183837890625,0.09442138671875,0.99072265625,0.37384033203125,-1.338348388671875,2.235565185546875,1,2.0,1.0,1.0,2.0,10.00
2024-10-11 20:38:31.967,0.13857464,0.6762523,0.6623713,0.08438157,0.4078013,0.3988796,0.31732854,0.5875351,0.45396483,0.27388555,0.11950538,0.14027707,0.31089175,-0.043578014,0.15052819,0.3935599,0.008378546,-0.1946605,-0.093934216,-0.07373067,765.9707,786.1172,803.0403,784.90845,628.97437,-0.2381591796875,0.08197021484375,0.9742431640625,0.73272705078125,0.186920166015625,-0.829925537109375,1,2.0,1.0,1.0,2.0,10.00
2024-10-11 20:38:31.968,0.13857464,0.6762523,0.6623713,0.08438157,0.4078013,0.3988796,0.31732854,0.5875351,0.45396483,0.27388555,0.11950538,0.14027707,0.31089175,-0.043578014,0.15052819,0.3935599,0.008378546,-0.1946605,-0.093934216,-0.07373067,783.69965,781.28204,800.2198,795.78754,799.011,-0.2381591796875,0.08197021484375,0.9742431640625,0.73272705078125,0.186920166015625,-0.829925537109375,1,2.0,1.0,1.0,2.0,10.00
2024-10-11 20:38:31.969,0.13857464,0.6762523,0.6623713,0.08438157,0.4078013,0.3988796,0.31732854,0.5875351,0.45396483,0.27388555,0.11950538,0.14027707,0.31089175,-0.043578014,0.15052819,0.3935599,0.008378546,-0.1946605,-0.093934216,-0.07373067,799.81683,783.2967,796.5934,798.60803,815.12823,-0.2381591796875,0.08197021484375,0.9742431640625,0.73272705078125,0.186920166015625,-0.829925537109375,1,2.0,1.0,1.0,2.0,10.00
2024-10-11 20:38:31.970,0.13857464,0.6762523,0.6623713,0.08438157,0.4078013,0.3988796,0.31732854,0.5875351,0.45396483,0.27388555,0.11950538,0.14027707,0.31089175,-0.043578014,0.15052819,0.3935599,0.008378546,-0.1946605,-0.093934216,-0.07373067,805.05493,788.93774,793.7729,802.6374,728.9011,-0.2381591796875,0.08197021484375,0.9742431640625,0.73272705078125,0.186920166015625,-0.829925537109375,1,2.0,1.0,1.0,2.0,10.00
2024-10-11 20:38:31.970,0.13857464,0.6762523,0.6623713,0.08438157,0.4078013,0.3988796,0.31732854,0.5875351,0.45396483,0.27388555,0.11950538,0.14027707,0.31089175,-0.043578014,0.15052819,0.3935599,0.008378546,-0.1946605,-0.093934216,-0.07373067,813.91943,784.5055,793.7729,817.9487,732.1245,-0.2381591796875,0.08197021484375,0.9742431640625,0.73272705078125,0.186920166015625,-0.829925537109375,1,2.0,1.0,1.0,2.0,10.00
2024-10-11 20:38:31.971,0.13857464,0.6762523,0.6623713,0.08438157,0.4078013,0.3988796,0.31732854,0.5875351,0.45396483,0.27388555,0.11950538,0.14027707,0.31089175,-0.043578014,0.15052819,0.3935599,0.008378546,-0.1946605,-0.093934216,-0.07373067,815.5311,778.86444,791.75824,831.2454,1074.2124,-0.2381591796875,0.08197021484375,0.9742431640625,0.73272705078125,0.186920166015625,-0.829925537109375,1,2.0,1.0,1.0,2.0,10.00
2024-10-11 20:38:31.971,0.13857464,0.6762523,0.6623713,0.08438157,0.4078013,0.3988796,0.31732854,0.5875351,0.45396483,0.27388555,0.11950538,0.14027707,0.31089175,-0.043578014,0.15052819,0.3935599,0.008378546,-0.1946605,-0.093934216,-0.07373067,816.7399,780.87915,786.1172,833.2601,1162.0513,-0.2381591796875,0.08197021484375,0.9742431640625,0.73272705078125,0.186920166015625,-0.829925537109375,1,2.0,1.0,1.0,2.0,10.00
2024-10-11 20:38:31.972,0.13857464,0.6762523,0.65474933,0.08438157,0.4078013,0.3988796,0.30784044,0.5875351,0.45396483,0.27388555,0.11950538,0.14027707,0.31089175,-0.043578014,0.13507804,0.3935599,0.008378546,-0.1946605,-0.12102508,-0.07373067,830.4396,784.10254,790.54944,833.663,837.6923,-0.2381591796875,0.08197021484375,0.9742431640625,0.73272705078125,0.186920166015625,-0.829925537109375,1,2.0,1.0,1.0,2.0,10.00
2024-10-11 20:38:31.976,0.13857464,0.6762523,0.65474933,0.08438157,0.4078013,0.3988796,0.30784044,0.5875351,0.45396483,0.27388555,0.11950538,0.14027707,0.31089175,-0.043578014,0.13507804,0.3935599,0.008378546,-0.1946605,-0.12102508,-0.07373067,827.2161,780.87915,788.93774,836.08057,873.1502,-0.2381591796875,0.08197021484375,0.9742431640625,0.73272705078125,0.186920166015625,-0.829925537109375,1,2.0,1.0,1.0,2.0,10.00
2024-10-11 20:38:31.977,0.13857464,0.6762523,0.65474933,0.08438157,0.4078013,0.3988796,0.30784044,0.5875351,0.45396483,0.27388555,0.11950538,0.14027707,0.31089175,-0.043578014,0.13507804,0.3935599,0.008378546,-0.1946605,-0.12102508,-0.07373067,825.2015,778.0586,783.2967,840.5128,941.2454,-0.2381591796875,0.08197021484375,0.9742431640625,0.73272705078125,0.186920166015625,-0.829925537109375,1,2.0,1.0,1.0,2.0,10.00
2024-10-11 20:38:31.978,0.13857464,0.6762523,0.65474933,0.08438157,0.4078013,0.3988796,0.30784044,0.5875351,0.45396483,0.27388555,0.11950538,0.14027707,0.31089175,-0.043578014,0.13507804,0.3935599,0.008378546,-0.1946605,-0.12102508,-0.07373067,840.5128,784.90845,795.38464,844.1392,723.663,-0.2381591796875,0.08197021484375,0.9742431640625,0.73272705078125,0.186920166015625,-0.829925537109375,1,2.0,1.0,1.0,2.0,10.00
2024-10-11 20:38:31.979,0.13857464,0.6762523,0.65474933,0.08438157,0.4078013,0.3988796,0.30784044,0.5875351,0.45396483,0.27388555,0.11950538,0.14027707,0.31089175,-0.043578014,0.13507804,0.3935599,0.008378546,-0.1946605,-0.12102508,-0.07373067,847.76556,781.28204,797.8022,840.5128,606.4103,-0.2381591796875,0.08197021484375,0.9742431640625,0.73272705078125,0.186920166015625,-0.829925537109375,1,2.0,1.0,1.0,2.0,10.00
2024-10-11 20:38:31.980,0.13857464,0.6762523,0.65474933,0.08438157,0.4078013,0.3988796,0.30784044,0.5875351,0.45396483,0.27388555,0.11950538,0.14027707,0.31089175,-0.043578014,0.13507804,0.3935599,0.008378546,-0.1946605,-0.12102508,-0.07373067,839.707,778.46155,795.38464,842.52747,703.91943,-0.2237548828125,0.098876953125,0.9830322265625,2.61688232421875,0.575714111328125,-1.9140625,1,2.0,1.0,1.0,2.0,10.00
2024-10-11 20:38:31.981,0.13857464,0.6762523,0.65474933,0.08438157,0.4078013,0.3988796,0.30784044,0.5875351,0.45396483,0.27388555,0.11950538,0.14027707,0.31089175,-0.043578014,0.13507804,0.3935599,0.008378546,-0.1946605,-0.12102508,-0.07373067,839.707,780.87915,793.36993,844.5421,795.78754,-0.2237548828125,0.098876953125,0.9830322265625,2.61688232421875,0.575714111328125,-1.9140625,1,2.0,1.0,1.0,2.0,10.00
2024-10-11 20:38:31.982,0.13857464,0.6762523,0.65474933,0.08438157,0.4078013,0.3988796,0.30784044,0.5875351,0.45396483,0.27388555,0.11950538,0.14027707,0.31089175,-0.043578014,0.13507804,0.3935599,0.008378546,-0.1946605,-0.12102508,-0.07373067,845.7509,780.87915,794.17584,844.5421,740.18317,-0.2237548828125,0.098876953125,0.9830322265625,2.61688232421875,0.575714111328125,-1.9140625,1,2.0,1.0,1.0,2.0,10.00
2024-10-11 20:38:31.983,0.13857464,0.6762523,0.65474933,0.08438157,0.4078013,0.3988796,0.30784044,0.5875351,0.45396483,0.27388555,0.11950538,0.14027707,0.31089175,-0.043578014,0.13507804,0.3935599,0.008378546,-0.1946605,-0.12102508,-0.07373067,848.1685,780.87915,799.81683,844.1392,665.2381,-0.2237548828125,0.098876953125,0.9830322265625,2.61688232421875,0.575714111328125,-1.9140625,1,2.0,1.0,1.0,2.0,10.00
2024-10-11 20:38:31.984,0.13857464,0.6762523,0.65474933,0.08438157,0.4078013,0.3988796,0.30784044,0.5875351,0.45396483,0.27388555,0.11950538,0.14027707,0.31089175,-0.043578014,0.13507804,0.3935599,0.008378546,-0.1946605,-0.12102508,-0.07373067,849.7802,779.67035,799.011,844.1392,769.19415,-0.2237548828125,0.098876953125,0.9830322265625,2.61688232421875,0.575714111328125,-1.9140625,1,2.0,1.0,1.0,2.0,10.00
2024-10-11 20:38:31.985,0.13857464,0.6762523,0.65474933,0.08438157,0.4078013,0.3988796,0.30784044,0.5875351,0.45396483,0.27388555,0.11950538,0.14027707,0.31089175,-0.043578014,0.13507804,0.3935599,0.008378546,-0.1946605,-0.12102508,-0.07373067,847.76556,776.4469,792.5641,838.0952,855.82416,-0.2237548828125,0.098876953125,0.9830322265625,2.61688232421875,0.575714111328125,-1.9140625,1,2.0,1.0,1.0,2.0,10.00
2024-10-11 20:38:31.985,0.13857464,0.6762523,0.65474933,0.08438157,0.4078013,0.3988796,0.30784044,0.5875351,0.45396483,0.27388555,0.11950538,0.14027707,0.31089175,-0.043578014,0.13507804,0.3935599,0.008378546,-0.1946605,-0.12102508,-0.07373067,842.1245,773.6264,793.7729,832.0513,873.95605,-0.2237548828125,0.098876953125,0.9830322265625,2.61688232421875,0.575714111328125,-1.9140625,1,2.0,1.0,1.0,2.0,10.00
2024-10-11 20:38:31.986,0.13857464,0.6762523,0.65474933,0.08438157,0.4078013,0.3988796,0.30784044,0.5875351,0.45396483,0.27388555,0.11950538,0.14027707,0.31089175,-0.043578014,0.13507804,0.3935599,0.008378546,-0.1946605,-0.12102508,-0.07373067,837.6923,775.64105,798.20514,836.8865,818.3516,-0.2237548828125,0.098876953125,0.9830322265625,2.61688232421875,0.575714111328125,-1.9140625,1,2.0,1.0,1.0,2.0,10.00
2024-10-11 20:38:31.987,0.13857464,0.6762523,0.65474933,0.08438157,0.4078013,0.3988796,0.30784044,0.5875351,0.45396483,0.27388555,0.11950538,0.14027707,0.31089175,-0.043578014,0.13507804,0.3935599,0.008378546,-0.1946605,-0.12102508,-0.07373067,839.707,777.25275,792.5641,842.1245,810.696,-0.2237548828125,0.098876953125,0.9830322265625,2.61688232421875,0.575714111328125,-1.9140625,1,2.0,1.0,1.0,2.0,10.00
2024-10-11 20:38:31.987,0.13857464,0.6762523,0.65474933,0.08438157,0.4078013,0.3988796,0.30784044,0.5875351,0.45396483,0.27388555,0.11950538,0.14027707,0.31089175,-0.043578014,0.13507804,0.3935599,0.008378546,-0.1946605,-0.12102508,-0.07373067,840.10986,778.86444,790.14655,850.58606,1183.0037,-0.2237548828125,0.098876953125,0.9830322265625,2.61688232421875,0.575714111328125,-1.9140625,1,2.0,1.0,1.0,2.0,10.00
2024-10-11 20:38:31.988,0.13857464,0.6762523,0.65474933,0.08438157,0.4078013,0.3988796,0.30784044,0.5875351,0.45396483,0.27388555,0.11950538,0.14027707,0.31089175,-0.043578014,0.13507804,0.3935599,0.008378546,-0.1946605,-0.12102508,-0.07373067,830.0366,777.25275,791.75824,848.5714,946.4835,-0.2237548828125,0.098876953125,0.9830322265625,2.61688232421875,0.575714111328125,-1.9140625,1,2.0,1.0,1.0,2.0,10.00
2024-10-11 20:38:31.989,0.13857464,0.6762523,0.65474933,0.08438157,0.4078013,0.3988796,0.30784044,0.5875351,0.45396483,0.27388555,0.11950538,0.14027707,0.31089175,-0.043578014,0.13507804,0.3935599,0.008378546,-0.1946605,-0.12102508,-0.07373067,829.6337,773.22345,792.96704,837.28937,593.91943,-0.2237548828125,0.098876953125,0.9830322265625,2.61688232421875,0.575714111328125,-1.9140625,1,2.0,1.0,1.0,2.0,10.00
2024-10-11 20:38:32.047,0.13857464,0.6762523,0.65474933,0.08438157,0.4078013,0.3988796,0.30784044,0.5875351,0.45396483,0.27388555,0.11950538,0.14027707,0.31089175,-0.043578014,0.13507804,0.3935599,0.008378546,-0.1946605,-0.12102508,-0.07373067,836.08057,777.25275,794.9817,841.31866,758.71796,-0.21490478515625,0.10699462890625,0.97723388671875,2.07855224609375,-0.485992431640625,1.233673095703125,1,2.0,1.0,1.0,2.0,10.00
2024-10-11 20:38:32.048,0.13857464,0.6762523,0.65474933,0.08438157,0.4078013,0.3988796,0.30784044,0.5875351,0.45396483,0.27388555,0.11950538,0.14027707,0.31089175,-0.043578014,0.13507804,0.3935599,0.008378546,-0.1946605,-0.12102508,-0.07373067,834.0659,776.04395,796.1905,841.7216,771.6117,-0.21490478515625,0.10699462890625,0.97723388671875,2.07855224609375,-0.485992431640625,1.233673095703125,1,2.0,1.0,1.0,2.0,10.00
2024-10-11 20:38:32.048,0.13857464,0.6762523,0.65474933,0.08438157,0.4078013,0.3988796,0.30784044,0.5875351,0.45396483,0.27388555,0.11950538,0.14027707,0.31089175,-0.043578014,0.13507804,0.3935599,0.008378546,-0.1946605,-0.12102508,-0.07373067,834.0659,773.6264,796.5934,834.87177,624.1392,-0.21490478515625,0.10699462890625,0.97723388671875,2.07855224609375,-0.485992431640625,1.233673095703125,1,2.0,1.0,1.0,2.0,10.00
2024-10-11 20:38:32.049,0.13857464,0.6762523,0.65474933,0.08438157,0.4078013,0.3988796,0.30784044,0.5875351,0.45396483,0.27388555,0.11950538,0.14027707,0.31089175,-0.043578014,0.13507804,0.3935599,0.008378546,-0.1946605,-0.12102508,-0.07373067,831.6484,770.80585,797.3993,834.87177,643.8828,-0.21490478515625,0.10699462890625,0.97723388671875,2.07855224609375,-0.485992431640625,1.233673095703125,1,2.0,1.0,1.0,2.0,10.00
2024-10-11 20:38:32.050,0.13857464,0.6762523,0.65474933,0.08438157,0.4078013,0.3988796,0.30784044,0.5875351,0.45396483,0.27388555,0.11950538,0.14027707,0.31089175,-0.043578014,0.13507804,0.3935599,0.008378546,-0.1946605,-0.12102508,-0.07373067,830.4396,776.4469,799.41394,836.08057,703.5165,-0.21490478515625,0.10699462890625,0.97723388671875,2.07855224609375,-0.485992431640625,1.233673095703125,1,2.0,1.0,1.0,2.0,10.00
2024-10-11 20:38:32.051,0.13857464,0.6762523,0.65474933,0.08438157,0.4078013,0.3988796,0.30784044,0.5875351,0.45396483,0.27388555,0.11950538,0.14027707,0.31089175,-0.043578014,0.13507804,0.3935599,0.008378546,-0.1946605,-0.12102508,-0.07373067,826.4103,783.69965,796.99634,835.6777,810.696,-0.21490478515625,0.10699462890625,0.97723388671875,2.07855224609375,-0.485992431640625,1.233673095703125,1,2.0,1.0,1.0,2.0,10.00
2024-10-11 20:38:32.051,0.13857464,0.6762523,0.65474933,0.08438157,0.4078013,0.3988796,0.30784044,0.5875351,0.45396483,0.27388555,0.11950538,0.14027707,0.31089175,-0.043578014,0.13507804,0.3935599,0.008378546,-0.1946605,-0.12102508,-0.07373067,821.978,782.0879,788.93774,829.6337,875.56775,-0.21490478515625,0.10699462890625,0.97723388671875,2.07855224609375,-0.485992431640625,1.233673095703125,1,2.0,1.0,1.0,2.0,10.00
2024-10-11 20:38:32.052,0.13857464,0.6762523,0.65474933,0.08438157,0.4078013,0.3988796,0.30784044,0.5875351,0.45396483,0.27388555,0.11950538,0.14027707,0.31089175,-0.043578014,0.13507804,0.3935599,0.008378546,-0.1946605,-0.12102508,-0.07373067,830.0366,780.4762,795.38464,828.8278,745.42126,-0.21490478515625,0.10699462890625,0.97723388671875,2.07855224609375,-0.485992431640625,1.233673095703125,1,2.0,1.0,1.0,2.0,10.00
2024-10-11 20:38:32.053,0.13857464,0.6762523,0.65474933,0.08438157,0.4078013,0.3988796,0.30784044,0.5875351,0.45396483,0.27388555,0.11950538,0.14027707,0.31089175,-0.043578014,0.13507804,0.3935599,0.008378546,-0.1946605,-0.12102508,-0.07373067,833.2601,780.07324,800.2198,840.9158,964.61536,-0.21490478515625,0.10699462890625,0.97723388671875,2.07855224609375,-0.485992431640625,1.233673095703125,1,2.0,1.0,1.0,2.0,10.00
2024-10-11 20:38:32,,,,,,,,,,,,,,,,,,,,,,,,,,,,,,,,,,,,,,/muse/elements/blink
2024-10-11 20:38:32.053,0.13857464,0.6762523,0.6669123,0.08438157,0.4078013,0.3988796,0.30530116,0.5875351,0.45396483,0.27388555,0.123621695,0.14027707,0.31089175,-0.043578014,0.11610542,0.3935599,0.008378546,-0.1946605,-0.14093411,-0.07373067,840.10986,784.90845,795.38464,840.5128,929.9634,-0.21490478515625,0.10699462890625,0.97723388671875,2.07855224609375,-0.485992431640625,1.233673095703125,1,2.0,1.0,1.0,2.0,10.00
2024-10-11 20:38:32.057,0.13857464,0.6762523,0.6669123,0.08438157,0.4078013,0.3988796,0.30530116,0.5875351,0.45396483,0.27388555,0.123621695,0.14027707,0.31089175,-0.043578014,0.11610542,0.3935599,0.008378546,-0.1946605,-0.14093411,-0.07373067,835.6777,785.31134,793.36993,830.84247,664.0293,-0.21490478515625,0.10699462890625,0.97723388671875,2.07855224609375,-0.485992431640625,1.233673095703125,1,2.0,1.0,1.0,2.0,10.00
2024-10-11 20:38:32.058,0.13857464,0.6762523,0.6669123,0.08438157,0.4078013,0.3988796,0.30530116,0.5875351,0.45396483,0.27388555,0.123621695,0.14027707,0.31089175,-0.043578014,0.11610542,0.3935599,0.008378546,-0.1946605,-0.14093411,-0.07373067,830.0366,785.31134,796.5934,831.2454,738.1685,-0.21490478515625,0.10699462890625,0.97723388671875,2.07855224609375,-0.485992431640625,1.233673095703125,1,2.0,1.0,1.0,2.0,10.00
2024-10-11 20:38:32.080,0.13857464,0.6762523,0.6669123,0.08438157,0.4078013,0.3988796,0.30530116,0.5875351,0.45396483,0.27388555,0.123621695,0.14027707,0.31089175,-0.043578014,0.11610542,0.3935599,0.008378546,-0.1946605,-0.14093411,-0.07373067,830.4396,784.10254,799.011,832.0513,801.4286,-0.2235107421875,0.1204833984375,0.9791259765625,2.175750732421875,-1.614990234375,4.164581298828125,1,2.0,1.0,1.0,2.0,10.00
2024-10-11 20:38:32.081,0.13857464,0.6762523,0.6669123,0.08438157,0.4078013,0.3988796,0.30530116,0.5875351,0.45396483,0.27388555,0.123621695,0.14027707,0.31089175,-0.043578014,0.11610542,0.3935599,0.008378546,-0.1946605,-0.14093411,-0.07373067,833.663,785.31134,799.41394,828.022,871.9414,-0.2235107421875,0.1204833984375,0.9791259765625,2.175750732421875,-1.614990234375,4.164581298828125,1,2.0,1.0,1.0,2.0,10.00
2024-10-11 20:38:32.082,0.13857464,0.6762523,0.6669123,0.08438157,0.4078013,0.3988796,0.30530116,0.5875351,0.45396483,0.27388555,0.123621695,0.14027707,0.31089175,-0.043578014,0.11610542,0.3935599,0.008378546,-0.1946605,-0.14093411,-0.07373067,832.8571,790.9524,797.3993,832.0513,800.6227,-0.2235107421875,0.1204833984375,0.9791259765625,2.175750732421875,-1.614990234375,4.164581298828125,1,2.0,1.0,1.0,2.0,10.00
2024-10-11 20:38:32.082,0.13857464,0.6762523,0.6669123,0.08438157,0.4078013,0.3988796,0.30530116,0.5875351,0.45396483,0.27388555,0.123621695,0.14027707,0.31089175,-0.043578014,0.11610542,0.3935599,0.008378546,-0.1946605,-0.14093411,-0.07373067,834.87177,788.1319,799.41394,839.707,701.9048,-0.2235107421875,0.1204833984375,0.9791259765625,2.175750732421875,-1.614990234375,4.164581298828125,1,2.0,1.0,1.0,2.0,10.00
2024-10-11 20:38:32.083,0.13857464,0.6762523,0.6669123,0.08438157,0.4078013,0.3988796,0.30530116,0.5875351,0.45396483,0.27388555,0.123621695,0.14027707,0.31089175,-0.043578014,0.11610542,0.3935599,0.008378546,-0.1946605,-0.14093411,-0.07373067,843.73627,786.1172,798.20514,837.6923,744.21246,-0.2235107421875,0.1204833984375,0.9791259765625,2.175750732421875,-1.614990234375,4.164581298828125,1,2.0,1.0,1.0,2.0,10.00
2024-10-11 20:38:32.083,0.13857464,0.6762523,0.6669123,0.08438157,0.4078013,0.3988796,0.30530116,0.5875351,0.45396483,0.27388555,0.123621695,0.14027707,0.31089175,-0.043578014,0.11610542,0.3935599,0.008378546,-0.1946605,-0.14093411,-0.07373067,834.87177,784.5055,790.14655,827.2161,807.47253,-0.2235107421875,0.1204833984375,0.9791259765625,2.175750732421875,-1.614990234375,4.164581298828125,1,2.0,1.0,1.0,2.0,10.00
2024-10-11 20:38:32.084,0.13857464,0.6762523,0.6669123,0.08438157,0.4078013,0.3988796,0.30530116,0.5875351,0.45396483,0.27388555,0.123621695,0.14027707,0.31089175,-0.043578014,0.11610542,0.3935599,0.008378546,-0.1946605,-0.14093411,-0.07373067,833.2601,784.10254,788.93774,826.4103,804.2491,-0.2235107421875,0.1204833984375,0.9791259765625,2.175750732421875,-1.614990234375,4.164581298828125,1,2.0,1.0,1.0,2.0,10.00
2024-10-11 20:38:32.084,0.13857464,0.6762523,0.6669123,0.08438157,0.4078013,0.3988796,0.30530116,0.5875351,0.45396483,0.27388555,0.123621695,0.14027707,0.31089175,-0.043578014,0.11610542,0.3935599,0.008378546,-0.1946605,-0.14093411,-0.07373067,836.4835,791.3553,790.9524,836.08057,841.7216,-0.2235107421875,0.1204833984375,0.9791259765625,2.175750732421875,-1.614990234375,4.164581298828125,1,2.0,1.0,1.0,2.0,10.00
2024-10-11 20:38:32.085,0.13857464,0.6762523,0.6669123,0.08438157,0.4078013,0.3988796,0.30530116,0.5875351,0.45396483,0.27388555,0.123621695,0.14027707,0.31089175,-0.043578014,0.11610542,0.3935599,0.008378546,-0.1946605,-0.14093411,-0.07373067,832.8571,790.54944,796.99634,836.8865,1007.326,-0.2235107421875,0.1204833984375,0.9791259765625,2.175750732421875,-1.614990234375,4.164581298828125,1,2.0,1.0,1.0,2.0,10.00
2024-10-11 20:38:32.085,0.13857464,0.6762523,0.6669123,0.08438157,0.4078013,0.3988796,0.30530116,0.5875351,0.45396483,0.27388555,0.123621695,0.14027707,0.31089175,-0.043578014,0.11610542,0.3935599,0.008378546,-0.1946605,-0.14093411,-0.07373067,829.6337,786.1172,800.6227,823.1868,665.64105,-0.2235107421875,0.1204833984375,0.9791259765625,2.175750732421875,-1.614990234375,4.164581298828125,1,2.0,1.0,1.0,2.0,10.00
2024-10-11 20:38:32.086,0.13857464,0.6762523,0.6669123,0.08438157,0.4078013,0.3988796,0.30530116,0.5875351,0.45396483,0.27388555,0.123621695,0.14027707,0.31089175,-0.043578014,0.11610542,0.3935599,0.008378546,-0.1946605,-0.14093411,-0.07373067,819.9634,790.54944,793.36993,826.0073,474.652,-0.2235107421875,0.1204833984375,0.9791259765625,2.175750732421875,-1.614990234375,4.164581298828125,1,2.0,1.0,1.0,2.0,10.00
2024-10-11 20:38:32.087,0.13857464,0.6762523,0.6669123,0.08438157,0.4078013,0.3988796,0.30530116,0.5875351,0.45396483,0.27388555,0.123621695,0.14027707,0.31089175,-0.043578014,0.11610542,0.3935599,0.008378546,-0.1946605,-0.14093411,-0.07373067,826.0073,788.1319,794.9817,834.4689,673.69965,-0.2235107421875,0.1204833984375,0.9791259765625,2.175750732421875,-1.614990234375,4.164581298828125,1,2.0,1.0,1.0,2.0,10.00
2024-10-11 20:38:32.147,0.13857464,0.6762523,0.6669123,0.08438157,0.4078013,0.3988796,0.30530116,0.5875351,0.45396483,0.27388555,0.123621695,0.14027707,0.31089175,-0.043578014,0.11610542,0.3935599,0.008378546,-0.1946605,-0.14093411,-0.07373067,826.0073,788.93774,800.6227,831.2454,679.7436,-0.2235107421875,0.1204833984375,0.9791259765625,2.175750732421875,-1.614990234375,4.164581298828125,1,2.0,1.0,1.0,2.0,10.00
2024-10-11 20:38:32.148,0.13857464,0.6762523,0.6669123,0.08438157,0.4078013,0.3988796,0.30530116,0.5875351,0.45396483,0.27388555,0.123621695,0.14027707,0.31089175,-0.043578014,0.11610542,0.3935599,0.008378546,-0.1946605,-0.14093411,-0.07373067,811.0989,793.7729,792.96704,829.6337,577.8022,-0.2235107421875,0.1204833984375,0.9791259765625,2.175750732421875,-1.614990234375,4.164581298828125,1,2.0,1.0,1.0,2.0,10.00
2024-10-11 20:38:32.149,0.13857464,0.6762523,0.6669123,0.08438157,0.4078013,0.3988796,0.30530116,0.5875351,0.45396483,0.27388555,0.123621695,0.14027707,0.31089175,-0.043578014,0.11610542,0.3935599,0.008378546,-0.1946605,-0.14093411,-0.07373067,815.9341,793.36993,797.8022,836.4835,735.7509,-0.2235107421875,0.1204833984375,0.9791259765625,2.175750732421875,-1.614990234375,4.164581298828125,1,2.0,1.0,1.0,2.0,10.00
2024-10-11 20:38:32.150,0.13857464,0.6762523,0.6669123,0.08438157,0.4078013,0.3988796,0.30530116,0.5875351,0.45396483,0.27388555,0.123621695,0.14027707,0.31089175,-0.043578014,0.11610542,0.3935599,0.008378546,-0.1946605,-0.14093411,-0.07373067,824.7985,796.1905,804.2491,837.6923,923.1135,-0.2235107421875,0.1204833984375,0.9791259765625,2.175750732421875,-1.614990234375,4.164581298828125,1,2.0,1.0,1.0,2.0,10.00
2024-10-11 20:38:32.151,0.13857464,0.6762523,0.6669123,0.08438157,0.4078013,0.3988796,0.30530116,0.5875351,0.45396483,0.27388555,0.123621695,0.14027707,0.31089175,-0.043578014,0.11610542,0.3935599,0.008378546,-0.1946605,-0.14093411,-0.07373067,824.7985,799.011,802.6374,829.6337,873.95605,-0.2235107421875,0.1204833984375,0.9791259765625,2.175750732421875,-1.614990234375,4.164581298828125,1,2.0,1.0,1.0,2.0,10.00
2024-10-11 20:38:32.151,0.13857464,0.6762523,0.6669123,0.08438157,0.4078013,0.3988796,0.30530116,0.5875351,0.45396483,0.27388555,0.123621695,0.14027707,0.31089175,-0.043578014,0.11610542,0.3935599,0.008378546,-0.1946605,-0.14093411,-0.07373067,828.4249,795.38464,799.81683,819.9634,780.87915,-0.2235107421875,0.1204833984375,0.9791259765625,2.175750732421875,-1.614990234375,4.164581298828125,1,2.0,1.0,1.0,2.0,10.00
2024-10-11 20:38:32.152,0.13857464,0.6762523,0.6669123,0.08438157,0.4078013,0.3988796,0.30530116,0.5875351,0.45396483,0.27388555,0.123621695,0.14027707,0.31089175,-0.043578014,0.11610542,0.3935599,0.008378546,-0.1946605,-0.14093411,-0.07373067,828.022,791.75824,794.9817,816.337,733.3333,-0.2235107421875,0.1204833984375,0.9791259765625,2.175750732421875,-1.614990234375,4.164581298828125,1,2.0,1.0,1.0,2.0,10.00
2024-10-11 20:38:32.153,0.13857464,0.6762523,0.6669123,0.08438157,0.4078013,0.3988796,0.30530116,0.5875351,0.45396483,0.27388555,0.123621695,0.14027707,0.31089175,-0.043578014,0.11610542,0.3935599,0.008378546,-0.1946605,-0.14093411,-0.07373067,823.9927,796.5934,806.6667,815.12823,730.10986,-0.2235107421875,0.1204833984375,0.9791259765625,2.175750732421875,-1.614990234375,4.164581298828125,1,2.0,1.0,1.0,2.0,10.00
2024-10-11 20:38:32.153,0.13857464,0.6762523,0.6669123,0.08438157,0.4078013,0.3988796,0.30530116,0.5875351,0.45396483,0.27388555,0.123621695,0.14027707,0.31089175,-0.043578014,0.11610542,0.3935599,0.008378546,-0.1946605,-0.14093411,-0.07373067,823.1868,800.6227,807.8755,814.3223,601.1722,-0.2235107421875,0.1204833984375,0.9791259765625,2.175750732421875,-1.614990234375,4.164581298828125,1,2.0,1.0,1.0,2.0,10.00
2024-10-11 20:38:32.154,0.13857464,0.6762523,0.6669123,0.08438157,0.4078013,0.3988796,0.30530116,0.5875351,0.45396483,0.27388555,0.123621695,0.14027707,0.31089175,-0.043578014,0.11610542,0.3935599,0.008378546,-0.1946605,-0.14093411,-0.07373067,821.1722,796.5934,795.78754,814.3223,497.21613,-0.2235107421875,0.1204833984375,0.9791259765625,2.175750732421875,-1.614990234375,4.164581298828125,1,2.0,1.0,1.0,2.0,10.00
2024-10-11 20:38:32.155,0.13857464,0.6762523,0.6669123,0.08438157,0.4078013,0.3988796,0.30530116,0.5875351,0.45396483,0.27388555,0.123621695,0.14027707,0.31089175,-0.043578014,0.11610542,0.3935599,0.008378546,-0.1946605,-0.14093411,-0.07373067,820.7692,795.38464,805.05493,814.3223,529.85345,-0.2235107421875,0.1204833984375,0.9791259765625,2.175750732421875,-1.614990234375,4.164581298828125,1,2.0,1.0,1.0,2.0,10.00
2024-10-11 20:38:32.155,0.13857464,0.6762523,0.706532,0.08438157,0.4078013,0.3988796,0.32403877,0.5875351,0.45396483,0.27388555,0.15524507,0.14027707,0.31089175,-0.043578014,0.09797276,0.3935599,0.008378546,-0.1946605,-0.14886214,-0.07373067,823.5897,792.1612,809.89014,819.5604,938.4249,-0.2235107421875,0.1204833984375,0.9791259765625,2.175750732421875,-1.614990234375,4.164581298828125,1,2.0,1.0,1.0,2.0,10.00
2024-10-11 20:38:32.159,0.13857464,0.6762523,0.706532,0.08438157,0.4078013,0.3988796,0.32403877,0.5875351,0.45396483,0.27388555,0.15524507,0.14027707,0.31089175,-0.043578014,0.09797276,0.3935599,0.008378546,-0.1946605,-0.14886214,-0.07373067,822.381,790.9524,802.23444,821.1722,943.663,-0.2247314453125,0.12567138671875,0.97979736328125,1.622467041015625,-1.60003662109375,5.12908935546875,1,2.0,1.0,1.0,2.0,10.00
2024-10-11 20:38:32.160,0.13857464,0.6762523,0.706532,0.08438157,0.4078013,0.3988796,0.32403877,0.5875351,0.45396483,0.27388555,0.15524507,0.14027707,0.31089175,-0.043578014,0.09797276,0.3935599,0.008378546,-0.1946605,-0.14886214,-0.07373067,817.9487,793.7729,796.1905,809.4872,531.8681,-0.2247314453125,0.12567138671875,0.97979736328125,1.622467041015625,-1.60003662109375,5.12908935546875,1,2.0,1.0,1.0,2.0,10.00
2024-10-11 20:38:32.161,0.13857464,0.6762523,0.706532,0.08438157,0.4078013,0.3988796,0.32403877,0.5875351,0.45396483,0.27388555,0.15524507,0.14027707,0.31089175,-0.043578014,0.09797276,0.3935599,0.008378546,-0.1946605,-0.14886214,-0.07373067,820.3663,794.17584,799.41394,805.8608,540.32965,-0.2247314453125,0.12567138671875,0.97979736328125,1.622467041015625,-1.60003662109375,5.12908935546875,1,2.0,1.0,1.0,2.0,10.00
2024-10-11 20:38:32.161,0.13857464,0.6762523,0.706532,0.08438157,0.4078013,0.3988796,0.32403877,0.5875351,0.45396483,0.27388555,0.15524507,0.14027707,0.31089175,-0.043578014,0.09797276,0.3935599,0.008378546,-0.1946605,-0.14886214,-0.07373067,815.9341,795.38464,798.20514,811.9048,655.9707,-0.2247314453125,0.12567138671875,0.97979736328125,1.622467041015625,-1.60003662109375,5.12908935546875,1,2.0,1.0,1.0,2.0,10.00
2024-10-11 20:38:32.162,0.13857464,0.6762523,0.706532,0.08438157,0.4078013,0.3988796,0.32403877,0.5875351,0.45396483,0.27388555,0.15524507,0.14027707,0.31089175,-0.043578014,0.09797276,0.3935599,0.008378546,-0.1946605,-0.14886214,-0.07373067,808.2784,792.5641,793.36993,809.4872,579.41394,-0.2247314453125,0.12567138671875,0.97979736328125,1.622467041015625,-1.60003662109375,5.12908935546875,1,2.0,1.0,1.0,2.0,10.00
2024-10-11 20:38:32.162,0.13857464,0.6762523,0.706532,0.08438157,0.4078013,0.3988796,0.32403877,0.5875351,0.45396483,0.27388555,0.15524507,0.14027707,0.31089175,-0.043578014,0.09797276,0.3935599,0.008378546,-0.1946605,-0.14886214,-0.07373067,804.65204,786.9231,798.60803,810.293,571.3553,-0.2247314453125,0.12567138671875,0.97979736328125,1.622467041015625,-1.60003662109375,5.12908935546875,1,2.0,1.0,1.0,2.0,10.00
2024-10-11 20:38:32.163,0.13857464,0.6762523,0.706532,0.08438157,0.4078013,0.3988796,0.32403877,0.5875351,0.45396483,0.27388555,0.15524507,0.14027707,0.31089175,-0.043578014,0.09797276,0.3935599,0.008378546,-0.1946605,-0.14886214,-0.07373067,804.2491,785.7143,800.6227,809.4872,739.7802,-0.2247314453125,0.12567138671875,0.97979736328125,1.622467041015625,-1.60003662109375,5.12908935546875,1,2.0,1.0,1.0,2.0,10.00
2024-10-11 20:38:32.164,0.13857464,0.6762523,0.706532,0.08438157,0.4078013,0.3988796,0.32403877,0.5875351,0.45396483,0.27388555,0.15524507,0.14027707,0.31089175,-0.043578014,0.09797276,0.3935599,0.008378546,-0.1946605,-0.14886214,-0.07373067,801.4286,788.1319,800.6227,803.8461,805.4579,-0.2247314453125,0.12567138671875,0.97979736328125,1.622467041015625,-1.60003662109375,5.12908935546875,1,2.0,1.0,1.0,2.0,10.00
2024-10-11 20:38:32.164,0.13857464,0.6762523,0.706532,0.08438157,0.4078013,0.3988796,0.32403877,0.5875351,0.45396483,0.27388555,0.15524507,0.14027707,0.31089175,-0.043578014,0.09797276,0.3935599,0.008378546,-0.1946605,-0.14886214,-0.07373067,801.4286,796.5934,799.81683,811.9048,695.8608,-0.2247314453125,0.12567138671875,0.97979736328125,1.622467041015625,-1.60003662109375,5.12908935546875,1,2.0,1.0,1.0,2.0,10.00
2024-10-11 20:38:32.165,0.13857464,0.6762523,0.706532,0.08438157,0.4078013,0.3988796,0.32403877,0.5875351,0.45396483,0.27388555,0.15524507,0.14027707,0.31089175,-0.043578014,0.09797276,0.3935599,0.008378546,-0.1946605,-0.14886214,-0.07373067,799.41394,796.99634,803.44324,816.337,548.3883,-0.2247314453125,0.12567138671875,0.97979736328125,1.622467041015625,-1.60003662109375,5.12908935546875,1,2.0,1.0,1.0,2.0,10.00
2024-10-11 20:38:32.166,0.13857464,0.6762523,0.706532,0.08438157,0.4078013,0.3988796,0.32403877,0.5875351,0.45396483,0.27388555,0.15524507,0.14027707,0.31089175,-0.043578014,0.09797276,0.3935599,0.008378546,-0.1946605,-0.14886214,-0.07373067,798.60803,786.9231,805.05493,805.8608,628.1685,-0.2247314453125,0.12567138671875,0.97979736328125,1.622467041015625,-1.60003662109375,5.12908935546875,1,2.0,1.0,1.0,2.0,10.00
2024-10-11 20:38:32.167,0.13857464,0.6762523,0.706532,0.08438157,0.4078013,0.3988796,0.32403877,0.5875351,0.45396483,0.27388555,0.15524507,0.14027707,0.31089175,-0.043578014,0.09797276,0.3935599,0.008378546,-0.1946605,-0.14886214,-0.07373067,804.65204,791.3553,794.9817,808.2784,772.4176,-0.2247314453125,0.12567138671875,0.97979736328125,1.622467041015625,-1.60003662109375,5.12908935546875,1,2.0,1.0,1.0,2.0,10.00
2024-10-11 20:38:32.189,0.13857464,0.6762523,0.706532,0.08438157,0.4078013,0.3988796,0.32403877,0.5875351,0.45396483,0.27388555,0.15524507,0.14027707,0.31089175,-0.043578014,0.09797276,0.3935599,0.008378546,-0.1946605,-0.14886214,-0.07373067,811.9048,792.5641,797.3993,804.65204,608.4249,-0.2275390625,0.13165283203125,0.98895263671875,0.0897216796875,-0.545806884765625,4.78515625,1,2.0,1.0,1.0,2.0,10.00
2024-10-11 20:38:32.190,0.13857464,0.6762523,0.706532,0.08438157,0.4078013,0.3988796,0.32403877,0.5875351,0.45396483,0.27388555,0.15524507,0.14027707,0.31089175,-0.043578014,0.09797276,0.3935599,0.008378546,-0.1946605,-0.14886214,-0.07373067,813.5165,793.36993,801.02563,799.41394,583.0403,-0.2275390625,0.13165283203125,0.98895263671875,0.0897216796875,-0.545806884765625,4.78515625,1,2.0,1.0,1.0,2.0,10.00
2024-10-11 20:38:32.190,0.13857464,0.6762523,0.706532,0.08438157,0.4078013,0.3988796,0.32403877,0.5875351,0.45396483,0.27388555,0.15524507,0.14027707,0.31089175,-0.043578014,0.09797276,0.3935599,0.008378546,-0.1946605,-0.14886214,-0.07373067,811.9048,786.9231,796.99634,801.02563,767.98535,-0.2275390625,0.13165283203125,0.98895263671875,0.0897216796875,-0.545806884765625,4.78515625,1,2.0,1.0,1.0,2.0,10.00
2024-10-11 20:38:32.191,0.13857464,0.6762523,0.706532,0.08438157,0.4078013,0.3988796,0.32403877,0.5875351,0.45396483,0.27388555,0.15524507,0.14027707,0.31089175,-0.043578014,0.09797276,0.3935599,0.008378546,-0.1946605,-0.14886214,-0.07373067,809.4872,784.5055,794.9817,801.4286,715.2015,-0.2275390625,0.13165283203125,0.98895263671875,0.0897216796875,-0.545806884765625,4.78515625,1,2.0,1.0,1.0,2.0,10.00
2024-10-11 20:38:32.192,0.13857464,0.6762523,0.706532,0.08438157,0.4078013,0.3988796,0.32403877,0.5875351,0.45396483,0.27388555,0.15524507,0.14027707,0.31089175,-0.043578014,0.09797276,0.3935599,0.008378546,-0.1946605,-0.14886214,-0.07373067,811.0989,791.3553,798.20514,803.8461,603.1868,-0.2275390625,0.13165283203125,0.98895263671875,0.0897216796875,-0.545806884765625,4.78515625,1,2.0,1.0,1.0,2.0,10.00
2024-10-11 20:38:32.192,0.13857464,0.6762523,0.706532,0.08438157,0.4078013,0.3988796,0.32403877,0.5875351,0.45396483,0.27388555,0.15524507,0.14027707,0.31089175,-0.043578014,0.09797276,0.3935599,0.008378546,-0.1946605,-0.14886214,-0.07373067,805.8608,788.1319,800.2198,803.0403,807.47253,-0.2275390625,0.13165283203125,0.98895263671875,0.0897216796875,-0.545806884765625,4.78515625,1,2.0,1.0,1.0,2.0,10.00
2024-10-11 20:38:32.193,0.13857464,0.6762523,0.706532,0.08438157,0.4078013,0.3988796,0.32403877,0.5875351,0.45396483,0.27388555,0.15524507,0.14027707,0.31089175,-0.043578014,0.09797276,0.3935599,0.008378546,-0.1946605,-0.14886214,-0.07373067,801.8315,786.52014,794.57874,804.65204,1188.6447,-0.2275390625,0.13165283203125,0.98895263671875,0.0897216796875,-0.545806884765625,4.78515625,1,2.0,1.0,1.0,2.0,10.00
2024-10-11 20:38:32.194,0.13857464,0.6762523,0.706532,0.08438157,0.4078013,0.3988796,0.32403877,0.5875351,0.45396483,0.27388555,0.15524507,0.14027707,0.31089175,-0.043578014,0.09797276,0.3935599,0.008378546,-0.1946605,-0.14886214,-0.07373067,810.696,790.9524,790.9524,806.26373,1224.1025,-0.2275390625,0.13165283203125,0.98895263671875,0.0897216796875,-0.545806884765625,4.78515625,1,2.0,1.0,1.0,2.0,10.00
2024-10-11 20:38:32.194,0.13857464,0.6762523,0.706532,0.08438157,0.4078013,0.3988796,0.32403877,0.5875351,0.45396483,0.27388555,0.15524507,0.14027707,0.31089175,-0.043578014,0.09797276,0.3935599,0.008378546,-0.1946605,-0.14886214,-0.07373067,824.3956,790.14655,792.5641,818.3516,760.7326,-0.2275390625,0.13165283203125,0.98895263671875,0.0897216796875,-0.545806884765625,4.78515625,1,2.0,1.0,1.0,2.0,10.00
2024-10-11 20:38:32.195,0.13857464,0.6762523,0.706532,0.08438157,0.4078013,0.3988796,0.32403877,0.5875351,0.45396483,0.27388555,0.15524507,0.14027707,0.31089175,-0.043578014,0.09797276,0.3935599,0.008378546,-0.1946605,-0.14886214,-0.07373067,821.1722,790.54944,803.8461,826.4103,646.30035,-0.2275390625,0.13165283203125,0.98895263671875,0.0897216796875,-0.545806884765625,4.78515625,1,2.0,1.0,1.0,2.0,10.00
2024-10-11 20:38:32.195,0.13857464,0.6762523,0.706532,0.08438157,0.4078013,0.3988796,0.32403877,0.5875351,0.45396483,0.27388555,0.15524507,0.14027707,0.31089175,-0.043578014,0.09797276,0.3935599,0.008378546,-0.1946605,-0.14886214,-0.07373067,791.75824,794.9817,805.05493,801.8315,782.0879,-0.2275390625,0.13165283203125,0.98895263671875,0.0897216796875,-0.545806884765625,4.78515625,1,2.0,1.0,1.0,2.0,10.00
2024-10-11 20:38:32.196,0.13857464,0.6762523,0.706532,0.08438157,0.4078013,0.3988796,0.32403877,0.5875351,0.45396483,0.27388555,0.15524507,0.14027707,0.31089175,-0.043578014,0.09797276,0.3935599,0.008378546,-0.1946605,-0.14886214,-0.07373067,787.326,791.75824,806.6667,794.9817,576.1905,-0.2275390625,0.13165283203125,0.98895263671875,0.0897216796875,-0.545806884765625,4.78515625,1,2.0,1.0,1.0,2.0,10.00
2024-10-11 20:38:32.336,0.13857464,0.6762523,0.706532,0.08438157,0.4078013,0.3988796,0.32403877,0.5875351,0.45396483,0.27388555,0.15524507,0.14027707,0.31089175,-0.043578014,0.09797276,0.3935599,0.008378546,-0.1946605,-0.14886214,-0.07373067,795.38464,788.1319,810.696,805.05493,489.96338,-0.2384033203125,0.114501953125,0.98065185546875,-3.476715087890625,-1.1065673828125,3.27484130859375,1,2.0,1.0,1.0,2.0,10.00
2024-10-11 20:38:32.337,0.13857464,0.762091,0.7693542,0.08438157,0.4078013,0.47503108,0.37470016,0.5875351,0.45396483,0.26193884,0.2170101,0.14027707,0.31089175,-0.02116969,0.08218218,0.3935599,0.008378546,-0.20413174,-0.14866628,-0.07373067,792.96704,788.93774,809.0842,809.0842,579.011,-0.2384033203125,0.114501953125,0.98065185546875,-3.476715087890625,-1.1065673828125,3.27484130859375,1,2.0,1.0,1.0,2.0,10.00
2024-10-11 20:38:32.343,0.13857464,0.762091,0.7693542,0.08438157,0.4078013,0.47503108,0.37470016,0.5875351,0.45396483,0.26193884,0.2170101,0.14027707,0.31089175,-0.02116969,0.08218218,0.3935599,0.008378546,-0.20413174,-0.14866628,-0.07373067,786.52014,789.34064,809.0842,803.44324,655.9707,-0.2384033203125,0.114501953125,0.98065185546875,-3.476715087890625,-1.1065673828125,3.27484130859375,1,2.0,1.0,1.0,2.0,10.00
2024-10-11 20:38:32.343,0.13857464,0.762091,0.7693542,0.08438157,0.4078013,0.47503108,0.37470016,0.5875351,0.45396483,0.26193884,0.2170101,0.14027707,0.31089175,-0.02116969,0.08218218,0.3935599,0.008378546,-0.20413174,-0.14866628,-0.07373067,786.1172,792.5641,807.8755,797.8022,575.38464,-0.2384033203125,0.114501953125,0.98065185546875,-3.476715087890625,-1.1065673828125,3.27484130859375,1,2.0,1.0,1.0,2.0,10.00
2024-10-11 20:38:32.344,0.13857464,0.762091,0.7693542,0.08438157,0.4078013,0.47503108,0.37470016,0.5875351,0.45396483,0.26193884,0.2170101,0.14027707,0.31089175,-0.02116969,0.08218218,0.3935599,0.008378546,-0.20413174,-0.14866628,-0.07373067,787.72894,791.3553,810.696,806.6667,470.2198,-0.2384033203125,0.114501953125,0.98065185546875,-3.476715087890625,-1.1065673828125,3.27484130859375,1,2.0,1.0,1.0,2.0,10.00
2024-10-11 20:38:32.345,0.13857464,0.762091,0.7693542,0.08438157,0.4078013,0.47503108,0.37470016,0.5875351,0.45396483,0.26193884,0.2170101,0.14027707,0.31089175,-0.02116969,0.08218218,0.3935599,0.008378546,-0.20413174,-0.14866628,-0.07373067,781.685,783.2967,809.4872,806.6667,770.40295,-0.2384033203125,0.114501953125,0.98065185546875,-3.476715087890625,-1.1065673828125,3.27484130859375,1,2.0,1.0,1.0,2.0,10.00
2024-10-11 20:38:32.345,0.13857464,0.762091,0.7693542,0.08438157,0.4078013,0.47503108,0.37470016,0.5875351,0.45396483,0.26193884,0.2170101,0.14027707,0.31089175,-0.02116969,0.08218218,0.3935599,0.008378546,-0.20413174,-0.14866628,-0.07373067,784.90845,785.7143,809.4872,806.26373,971.06226,-0.2384033203125,0.114501953125,0.98065185546875,-3.476715087890625,-1.1065673828125,3.27484130859375,1,2.0,1.0,1.0,2.0,10.00
2024-10-11 20:38:32.346,0.13857464,0.762091,0.7693542,0.08438157,0.4078013,0.47503108,0.37470016,0.5875351,0.45396483,0.26193884,0.2170101,0.14027707,0.31089175,-0.02116969,0.08218218,0.3935599,0.008378546,-0.20413174,-0.14866628,-0.07373067,792.5641,789.34064,811.50183,810.696,639.45056,-0.2384033203125,0.114501953125,0.98065185546875,-3.476715087890625,-1.1065673828125,3.27484130859375,1,2.0,1.0,1.0,2.0,10.00
2024-10-11 20:38:32.346,0.13857464,0.762091,0.7693542,0.08438157,0.4078013,0.47503108,0.37470016,0.5875351,0.45396483,0.26193884,0.2170101,0.14027707,0.31089175,-0.02116969,0.08218218,0.3935599,0.008378546,-0.20413174,-0.14866628,-0.07373067,790.14655,785.7143,807.0696,809.4872,449.2674,-0.2384033203125,0.114501953125,0.98065185546875,-3.476715087890625,-1.1065673828125,3.27484130859375,1,2.0,1.0,1.0,2.0,10.00
2024-10-11 20:38:32.347,0.13857464,0.762091,0.7693542,0.08438157,0.4078013,0.47503108,0.37470016,0.5875351,0.45396483,0.26193884,0.2170101,0.14027707,0.31089175,-0.02116969,0.08218218,0.3935599,0.008378546,-0.20413174,-0.14866628,-0.07373067,791.75824,785.7143,804.65204,807.0696,581.8315,-0.2384033203125,0.114501953125,0.98065185546875,-3.476715087890625,-1.1065673828125,3.27484130859375,1,2.0,1.0,1.0,2.0,10.00
2024-10-11 20:38:32.348,0.13857464,0.762091,0.7693542,0.08438157,0.4078013,0.47503108,0.37470016,0.5875351,0.45396483,0.26193884,0.2170101,0.14027707,0.31089175,-0.02116969,0.08218218,0.3935599,0.008378546,-0.20413174,-0.14866628,-0.07373067,803.8461,790.9524,809.0842,807.0696,705.9341,-0.2384033203125,0.114501953125,0.98065185546875,-3.476715087890625,-1.1065673828125,3.27484130859375,1,2.0,1.0,1.0,2.0,10.00
2024-10-11 20:38:32.348,0.13857464,0.762091,0.7693542,0.08438157,0.4078013,0.47503108,0.37470016,0.5875351,0.45396483,0.26193884,0.2170101,0.14027707,0.31089175,-0.02116969,0.08218218,0.3935599,0.008378546,-0.20413174,-0.14866628,-0.07373067,814.7253,792.5641,810.293,804.65204,599.9634,-0.2384033203125,0.114501953125,0.98065185546875,-3.476715087890625,-1.1065673828125,3.27484130859375,1,2.0,1.0,1.0,2.0,10.00
2024-10-11 20:38:32.436,0.13857464,0.762091,0.7693542,0.08438157,0.4078013,0.47503108,0.37470016,0.5875351,0.45396483,0.26193884,0.2170101,0.14027707,0.31089175,-0.02116969,0.08218218,0.3935599,0.008378546,-0.20413174,-0.14866628,-0.07373067,813.1135,788.5348,806.26373,800.2198,605.2015,-0.22760009765625,0.103515625,0.98577880859375,-4.5458984375,-3.072967529296875,1.00189208984375,1,2.0,1.0,1.0,2.0,10.00
2024-10-11 20:38:32.438,0.13857464,0.762091,0.7693542,0.08438157,0.4078013,0.47503108,0.37470016,0.5875351,0.45396483,0.26193884,0.2170101,0.14027707,0.31089175,-0.02116969,0.08218218,0.3935599,0.008378546,-0.20413174,-0.14866628,-0.07373067,802.23444,784.90845,801.4286,803.44324,861.8681,-0.22760009765625,0.103515625,0.98577880859375,-4.5458984375,-3.072967529296875,1.00189208984375,1,2.0,1.0,1.0,2.0,10.00
2024-10-11 20:38:32.438,0.13857464,0.762091,0.7693542,0.08438157,0.4078013,0.47503108,0.37470016,0.5875351,0.45396483,0.26193884,0.2170101,0.14027707,0.31089175,-0.02116969,0.08218218,0.3935599,0.008378546,-0.20413174,-0.14866628,-0.07373067,801.4286,788.1319,806.26373,805.8608,799.41394,-0.22760009765625,0.103515625,0.98577880859375,-4.5458984375,-3.072967529296875,1.00189208984375,1,2.0,1.0,1.0,2.0,10.00
2024-10-11 20:38:32.439,0.13857464,0.762091,0.7693542,0.08438157,0.4078013,0.47503108,0.37470016,0.5875351,0.45396483,0.26193884,0.2170101,0.14027707,0.31089175,-0.02116969,0.08218218,0.3935599,0.008378546,-0.20413174,-0.14866628,-0.07373067,807.47253,790.54944,807.8755,805.05493,587.47253,-0.22760009765625,0.103515625,0.98577880859375,-4.5458984375,-3.072967529296875,1.00189208984375,1,2.0,1.0,1.0,2.0,10.00
2024-10-11 20:38:32.439,0.13857464,0.762091,0.7693542,0.08438157,0.4078013,0.47503108,0.37470016,0.5875351,0.45396483,0.26193884,0.2170101,0.14027707,0.31089175,-0.02116969,0.08218218,0.3935599,0.008378546,-0.20413174,-0.14866628,-0.07373067,807.8755,789.7436,803.8461,806.26373,562.49084,-0.22760009765625,0.103515625,0.98577880859375,-4.5458984375,-3.072967529296875,1.00189208984375,1,2.0,1.0,1.0,2.0,10.00
2024-10-11 20:38:32.440,0.13857464,0.762091,0.7693542,0.08438157,0.4078013,0.47503108,0.37470016,0.5875351,0.45396483,0.26193884,0.2170101,0.14027707,0.31089175,-0.02116969,0.08218218,0.3935599,0.008378546,-0.20413174,-0.14866628,-0.07373067,809.89014,786.9231,807.47253,815.12823,707.5458,-0.22760009765625,0.103515625,0.98577880859375,-4.5458984375,-3.072967529296875,1.00189208984375,1,2.0,1.0,1.0,2.0,10.00
2024-10-11 20:38:32.441,0.13857464,0.762091,0.7693542,0.08438157,0.4078013,0.47503108,0.37470016,0.5875351,0.45396483,0.26193884,0.2170101,0.14027707,0.31089175,-0.02116969,0.08218218,0.3935599,0.008378546,-0.20413174,-0.14866628,-0.07373067,810.696,790.9524,804.65204,819.9634,734.1392,-0.22760009765625,0.103515625,0.98577880859375,-4.5458984375,-3.072967529296875,1.00189208984375,1,2.0,1.0,1.0,2.0,10.00
2024-10-11 20:38:32.441,0.13857464,0.762091,0.7693542,0.08438157,0.4078013,0.47503108,0.37470016,0.5875351,0.45396483,0.26193884,0.2170101,0.14027707,0.31089175,-0.02116969,0.08218218,0.3935599,0.008378546,-0.20413174,-0.14866628,-0.07373067,809.0842,796.99634,805.4579,811.9048,541.9414,-0.22760009765625,0.103515625,0.98577880859375,-4.5458984375,-3.072967529296875,1.00189208984375,1,2.0,1.0,1.0,2.0,10.00
2024-10-11 20:38:32.442,0.13857464,0.762091,0.7693542,0.08438157,0.4078013,0.47503108,0.37470016,0.5875351,0.45396483,0.26193884,0.2170101,0.14027707,0.31089175,-0.02116969,0.08218218,0.3935599,0.008378546,-0.20413174,-0.14866628,-0.07373067,801.8315,799.81683,813.5165,815.12823,490.76923,-0.22760009765625,0.103515625,0.98577880859375,-4.5458984375,-3.072967529296875,1.00189208984375,1,2.0,1.0,1.0,2.0,10.00
2024-10-11 20:38:32.442,0.13857464,0.762091,0.7693542,0.08438157,0.4078013,0.47503108,0.37470016,0.5875351,0.45396483,0.26193884,0.2170101,0.14027707,0.31089175,-0.02116969,0.08218218,0.3935599,0.008378546,-0.20413174,-0.14866628,-0.07373067,801.8315,791.75824,809.0842,823.1868,663.22345,-0.22760009765625,0.103515625,0.98577880859375,-4.5458984375,-3.072967529296875,1.00189208984375,1,2.0,1.0,1.0,2.0,10.00
2024-10-11 20:38:32.443,0.13857464,0.762091,0.7693542,0.08438157,0.4078013,0.47503108,0.37470016,0.5875351,0.45396483,0.26193884,0.2170101,0.14027707,0.31089175,-0.02116969,0.08218218,0.3935599,0.008378546,-0.20413174,-0.14866628,-0.07373067,803.44324,785.7143,797.8022,812.3077,512.9304,-0.22760009765625,0.103515625,0.98577880859375,-4.5458984375,-3.072967529296875,1.00189208984375,1,2.0,1.0,1.0,2.0,10.00
2024-10-11 20:38:32.443,0.13857464,0.762091,0.7693542,0.08438157,0.4078013,0.47503108,0.37470016,0.5875351,0.45396483,0.26193884,0.2170101,0.14027707,0.31089175,-0.02116969,0.08218218,0.3935599,0.008378546,-0.20413174,-0.14866628,-0.07373067,799.81683,789.34064,797.8022,804.65204,517.3626,-0.22760009765625,0.103515625,0.98577880859375,-4.5458984375,-3.072967529296875,1.00189208984375,1,2.0,1.0,1.0,2.0,10.00
2024-10-11 20:38:32.506,0.13857464,0.762091,0.7693542,0.08438157,0.4078013,0.47503108,0.37470016,0.5875351,0.45396483,0.26193884,0.2170101,0.14027707,0.31089175,-0.02116969,0.08218218,0.3935599,0.008378546,-0.20413174,-0.14866628,-0.07373067,803.8461,788.93774,799.81683,800.2198,674.10254,-0.22760009765625,0.103515625,0.98577880859375,-4.5458984375,-3.072967529296875,1.00189208984375,1,2.0,1.0,1.0,2.0,10.00
2024-10-11 20:38:32.508,0.13857464,0.762091,0.7693542,0.08438157,0.4078013,0.47503108,0.37470016,0.5875351,0.45396483,0.26193884,0.2170101,0.14027707,0.31089175,-0.02116969,0.08218218,0.3935599,0.008378546,-0.20413174,-0.14866628,-0.07373067,799.81683,789.34064,802.23444,796.5934,798.60803,-0.22760009765625,0.103515625,0.98577880859375,-4.5458984375,-3.072967529296875,1.00189208984375,1,2.0,1.0,1.0,2.0,10.00
2024-10-11 20:38:32.508,0.13857464,0.762091,0.7693542,0.08438157,0.4078013,0.47503108,0.37470016,0.5875351,0.45396483,0.26193884,0.2170101,0.14027707,0.31089175,-0.02116969,0.08218218,0.3935599,0.008378546,-0.20413174,-0.14866628,-0.07373067,795.38464,790.14655,802.6374,799.41394,666.8498,-0.22760009765625,0.103515625,0.98577880859375,-4.5458984375,-3.072967529296875,1.00189208984375,1,2.0,1.0,1.0,2.0,10.00
2024-10-11 20:38:32.509,0.13857464,0.762091,0.834377,0.08438157,0.4078013,0.47503108,0.44386312,0.5875351,0.45396483,0.26193884,0.3018374,0.14027707,0.31089175,-0.02116969,0.0669428,0.3935599,0.008378546,-0.20413174,-0.14743917,-0.07373067,795.38464,788.1319,794.57874,796.5934,592.3077,-0.22760009765625,0.103515625,0.98577880859375,-4.5458984375,-3.072967529296875,1.00189208984375,1,2.0,1.0,1.0,2.0,10.00
2024-10-11 20:38:32.514,0.13857464,0.762091,0.834377,0.08438157,0.4078013,0.47503108,0.44386312,0.5875351,0.45396483,0.26193884,0.3018374,0.14027707,0.31089175,-0.02116969,0.0669428,0.3935599,0.008378546,-0.20413174,-0.14743917,-0.07373067,791.75824,790.9524,794.9817,797.8022,742.1978,-0.22760009765625,0.103515625,0.98577880859375,-4.5458984375,-3.072967529296875,1.00189208984375,1,2.0,1.0,1.0,2.0,10.00
2024-10-11 20:38:32.515,0.13857464,0.762091,0.834377,0.08438157,0.4078013,0.47503108,0.44386312,0.5875351,0.45396483,0.26193884,0.3018374,0.14027707,0.31089175,-0.02116969,0.0669428,0.3935599,0.008378546,-0.20413174,-0.14743917,-0.07373067,788.1319,793.36993,807.0696,808.2784,894.90845,-0.22760009765625,0.103515625,0.98577880859375,-4.5458984375,-3.072967529296875,1.00189208984375,1,2.0,1.0,1.0,2.0,10.00
2024-10-11 20:38:32.515,0.13857464,0.762091,0.834377,0.08438157,0.4078013,0.47503108,0.44386312,0.5875351,0.45396483,0.26193884,0.3018374,0.14027707,0.31089175,-0.02116969,0.0669428,0.3935599,0.008378546,-0.20413174,-0.14743917,-0.07373067,795.38464,799.41394,810.696,810.696,862.674,-0.22760009765625,0.103515625,0.98577880859375,-4.5458984375,-3.072967529296875,1.00189208984375,1,2.0,1.0,1.0,2.0,10.00
2024-10-11 20:38:32.516,0.13857464,0.762091,0.834377,0.08438157,0.4078013,0.47503108,0.44386312,0.5875351,0.45396483,0.26193884,0.3018374,0.14027707,0.31089175,-0.02116969,0.0669428,0.3935599,0.008378546,-0.20413174,-0.14743917,-0.07373067,796.1905,801.02563,808.68134,812.3077,691.02563,-0.22760009765625,0.103515625,0.98577880859375,-4.5458984375,-3.072967529296875,1.00189208984375,1,2.0,1.0,1.0,2.0,10.00
2024-10-11 20:38:32.517,0.13857464,0.762091,0.834377,0.08438157,0.4078013,0.47503108,0.44386312,0.5875351,0.45396483,0.26193884,0.3018374,0.14027707,0.31089175,-0.02116969,0.0669428,0.3935599,0.008378546,-0.20413174,-0.14743917,-0.07373067,798.60803,791.3553,806.6667,807.47253,681.75824,-0.22760009765625,0.103515625,0.98577880859375,-4.5458984375,-3.072967529296875,1.00189208984375,1,2.0,1.0,1.0,2.0,10.00
2024-10-11 20:38:32.518,0.13857464,0.762091,0.834377,0.08438157,0.4078013,0.47503108,0.44386312,0.5875351,0.45396483,0.26193884,0.3018374,0.14027707,0.31089175,-0.02116969,0.0669428,0.3935599,0.008378546,-0.20413174,-0.14743917,-0.07373067,804.2491,790.54944,805.05493,803.44324,636.63007,-0.22760009765625,0.103515625,0.98577880859375,-4.5458984375,-3.072967529296875,1.00189208984375,1,2.0,1.0,1.0,2.0,10.00
2024-10-11 20:38:32.518,0.13857464,0.762091,0.834377,0.08438157,0.4078013,0.47503108,0.44386312,0.5875351,0.45396483,0.26193884,0.3018374,0.14027707,0.31089175,-0.02116969,0.0669428,0.3935599,0.008378546,-0.20413174,-0.14743917,-0.07373067,805.05493,794.17584,805.05493,805.4579,599.9634,-0.22760009765625,0.103515625,0.98577880859375,-4.5458984375,-3.072967529296875,1.00189208984375,1,2.0,1.0,1.0,2.0,10.00
2024-10-11 20:38:32.519,0.13857464,0.762091,0.834377,0.08438157,0.4078013,0.47503108,0.44386312,0.5875351,0.45396483,0.26193884,0.3018374,0.14027707,0.31089175,-0.02116969,0.0669428,0.3935599,0.008378546,-0.20413174,-0.14743917,-0.07373067,809.0842,797.8022,801.02563,811.0989,683.36993,-0.22760009765625,0.103515625,0.98577880859375,-4.5458984375,-3.072967529296875,1.00189208984375,1,2.0,1.0,1.0,2.0,10.00
2024-10-11 20:38:32.641,0.13857464,0.762091,0.834377,0.08438157,0.4078013,0.47503108,0.44386312,0.5875351,0.45396483,0.26193884,0.3018374,0.14027707,0.31089175,-0.02116969,0.0669428,0.3935599,0.008378546,-0.20413174,-0.14743917,-0.07373067,802.23444,797.8022,798.60803,816.7399,829.2308,-0.21881103515625,0.09503173828125,0.98095703125,-4.32159423828125,-2.3028564453125,0.635528564453125,1,2.0,1.0,1.0,2.0,10.00
2024-10-11 20:38:32.642,0.13857464,0.762091,0.834377,0.08438157,0.4078013,0.47503108,0.44386312,0.5875351,0.45396483,0.26193884,0.3018374,0.14027707,0.31089175,-0.02116969,0.0669428,0.3935599,0.008378546,-0.20413174,-0.14743917,-0.07373067,803.8461,794.17584,798.60803,809.4872,823.9927,-0.21881103515625,0.09503173828125,0.98095703125,-4.32159423828125,-2.3028564453125,0.635528564453125,1,2.0,1.0,1.0,2.0,10.00
2024-10-11 20:38:32.643,0.13857464,0.762091,0.834377,0.08438157,0.4078013,0.47503108,0.44386312,0.5875351,0.45396483,0.26193884,0.3018374,0.14027707,0.31089175,-0.02116969,0.0669428,0.3935599,0.008378546,-0.20413174,-0.14743917,-0.07373067,808.2784,795.78754,795.38464,803.44324,633.00366,-0.21881103515625,0.09503173828125,0.98095703125,-4.32159423828125,-2.3028564453125,0.635528564453125,1,2.0,1.0,1.0,2.0,10.00
2024-10-11 20:38:32.644,0.13857464,0.762091,0.834377,0.08438157,0.4078013,0.47503108,0.44386312,0.5875351,0.45396483,0.26193884,0.3018374,0.14027707,0.31089175,-0.02116969,0.0669428,0.3935599,0.008378546,-0.20413174,-0.14743917,-0.07373067,801.8315,797.3993,800.2198,809.0842,618.0952,-0.21881103515625,0.09503173828125,0.98095703125,-4.32159423828125,-2.3028564453125,0.635528564453125,1,2.0,1.0,1.0,2.0,10.00
2024-10-11 20:38:32.644,0.13857464,0.762091,0.834377,0.08438157,0.4078013,0.47503108,0.44386312,0.5875351,0.45396483,0.26193884,0.3018374,0.14027707,0.31089175,-0.02116969,0.0669428,0.3935599,0.008378546,-0.20413174,-0.14743917,-0.07373067,803.0403,792.96704,803.8461,809.4872,891.685,-0.21881103515625,0.09503173828125,0.98095703125,-4.32159423828125,-2.3028564453125,0.635528564453125,1,2.0,1.0,1.0,2.0,10.00
2024-10-11 20:38:32.645,0.13857464,0.762091,0.834377,0.08438157,0.4078013,0.47503108,0.44386312,0.5875351,0.45396483,0.26193884,0.3018374,0.14027707,0.31089175,-0.02116969,0.0669428,0.3935599,0.008378546,-0.20413174,-0.14743917,-0.07373067,797.3993,791.3553,801.8315,800.6227,892.8938,-0.21881103515625,0.09503173828125,0.98095703125,-4.32159423828125,-2.3028564453125,0.635528564453125,1,2.0,1.0,1.0,2.0,10.00
2024-10-11 20:38:32.646,0.13857464,0.762091,0.834377,0.08438157,0.4078013,0.47503108,0.44386312,0.5875351,0.45396483,0.26193884,0.3018374,0.14027707,0.31089175,-0.02116969,0.0669428,0.3935599,0.008378546,-0.20413174,-0.14743917,-0.07373067,794.17584,796.5934,799.011,798.60803,653.1502,-0.21881103515625,0.09503173828125,0.98095703125,-4.32159423828125,-2.3028564453125,0.635528564453125,1,2.0,1.0,1.0,2.0,10.00
2024-10-11 20:38:32.646,0.13857464,0.762091,0.834377,0.08438157,0.4078013,0.47503108,0.44386312,0.5875351,0.45396483,0.26193884,0.3018374,0.14027707,0.31089175,-0.02116969,0.0669428,0.3935599,0.008378546,-0.20413174,-0.14743917,-0.07373067,794.17584,796.5934,794.17584,794.9817,731.7216,-0.21881103515625,0.09503173828125,0.98095703125,-4.32159423828125,-2.3028564453125,0.635528564453125,1,2.0,1.0,1.0,2.0,10.00
2024-10-11 20:38:32.647,0.13857464,0.762091,0.834377,0.08438157,0.4078013,0.47503108,0.44386312,0.5875351,0.45396483,0.26193884,0.3018374,0.14027707,0.31089175,-0.02116969,0.0669428,0.3935599,0.008378546,-0.20413174,-0.14743917,-0.07373067,795.78754,791.75824,791.3553,794.17584,859.0476,-0.21881103515625,0.09503173828125,0.98095703125,-4.32159423828125,-2.3028564453125,0.635528564453125,1,2.0,1.0,1.0,2.0,10.00
2024-10-11 20:38:32.648,0.13857464,0.762091,0.834377,0.08438157,0.4078013,0.47503108,0.44386312,0.5875351,0.45396483,0.26193884,0.3018374,0.14027707,0.31089175,-0.02116969,0.0669428,0.3935599,0.008378546,-0.20413174,-0.14743917,-0.07373067,795.78754,788.1319,794.9817,794.17584,678.93774,-0.21881103515625,0.09503173828125,0.98095703125,-4.32159423828125,-2.3028564453125,0.635528564453125,1,2.0,1.0,1.0,2.0,10.00
2024-10-11 20:38:32.648,0.13857464,0.762091,0.834377,0.08438157,0.4078013,0.47503108,0.44386312,0.5875351,0.45396483,0.26193884,0.3018374,0.14027707,0.31089175,-0.02116969,0.0669428,0.3935599,0.008378546,-0.20413174,-0.14743917,-0.07373067,792.5641,784.90845,795.78754,794.17584,495.20148,-0.21881103515625,0.09503173828125,0.98095703125,-4.32159423828125,-2.3028564453125,0.635528564453125,1,2.0,1.0,1.0,2.0,10.00
2024-10-11 20:38:32.649,0.13857464,0.762091,0.834377,0.08438157,0.4078013,0.47503108,0.44386312,0.5875351,0.45396483,0.26193884,0.3018374,0.14027707,0.31089175,-0.02116969,0.0669428,0.3935599,0.008378546,-0.20413174,-0.14743917,-0.07373067,798.60803,790.9524,792.1612,805.4579,577.3993,-0.21881103515625,0.09503173828125,0.98095703125,-4.32159423828125,-2.3028564453125,0.635528564453125,1,2.0,1.0,1.0,2.0,10.00
2024-10-11 20:38:32.650,0.13857464,0.762091,0.834377,0.08438157,0.4078013,0.47503108,0.44386312,0.5875351,0.45396483,0.26193884,0.3018374,0.14027707,0.31089175,-0.02116969,0.0669428,0.3935599,0.008378546,-0.20413174,-0.14743917,-0.07373067,803.8461,800.2198,795.38464,812.3077,792.5641,-0.22882080078125,0.07391357421875,0.978759765625,-4.747772216796875,-0.740203857421875,-0.904693603515625,1,2.0,1.0,1.0,2.0,10.00
2024-10-11 20:38:32.650,0.13857464,0.762091,0.834377,0.08438157,0.4078013,0.47503108,0.44386312,0.5875351,0.45396483,0.26193884,0.3018374,0.14027707,0.31089175,-0.02116969,0.0669428,0.3935599,0.008378546,-0.20413174,-0.14743917,-0.07373067,803.44324,799.011,807.0696,804.65204,622.52747,-0.22882080078125,0.07391357421875,0.978759765625,-4.747772216796875,-0.740203857421875,-0.904693603515625,1,2.0,1.0,1.0,2.0,10.00
2024-10-11 20:38:32.651,0.13857464,0.762091,0.834377,0.08438157,0.4078013,0.47503108,0.44386312,0.5875351,0.45396483,0.26193884,0.3018374,0.14027707,0.31089175,-0.02116969,0.0669428,0.3935599,0.008378546,-0.20413174,-0.14743917,-0.07373067,803.8461,793.36993,807.0696,804.2491,482.30768,-0.22882080078125,0.07391357421875,0.978759765625,-4.747772216796875,-0.740203857421875,-0.904693603515625,1,2.0,1.0,1.0,2.0,10.00
2024-10-11 20:38:32.651,0.13857464,0.762091,0.834377,0.08438157,0.4078013,0.47503108,0.44386312,0.5875351,0.45396483,0.26193884,0.3018374,0.14027707,0.31089175,-0.02116969,0.0669428,0.3935599,0.008378546,-0.20413174,-0.14743917,-0.07373067,805.4579,790.54944,800.2198,804.65204,521.79486,-0.22882080078125,0.07391357421875,0.978759765625,-4.747772216796875,-0.740203857421875,-0.904693603515625,1,2.0,1.0,1.0,2.0,10.00
2024-10-11 20:38:32.652,0.13857464,0.762091,0.834377,0.08438157,0.4078013,0.47503108,0.44386312,0.5875351,0.45396483,0.26193884,0.3018374,0.14027707,0.31089175,-0.02116969,0.0669428,0.3935599,0.008378546,-0.20413174,-0.14743917,-0.07373067,805.4579,788.1319,799.81683,803.8461,544.7619,-0.22882080078125,0.07391357421875,0.978759765625,-4.747772216796875,-0.740203857421875,-0.904693603515625,1,2.0,1.0,1.0,2.0,10.00
2024-10-11 20:38:32.653,0.13857464,0.762091,0.88510025,0.08438157,0.4078013,0.47503108,0.5045463,0.5875351,0.45396483,0.26193884,0.35505822,0.14027707,0.31089175,-0.02116969,0.051666707,0.3935599,0.008378546,-0.20413174,-0.15103753,-0.07373067,801.4286,792.5641,806.6667,807.47253,545.56775,-0.22882080078125,0.07391357421875,0.978759765625,-4.747772216796875,-0.740203857421875,-0.904693603515625,1,2.0,1.0,1.0,2.0,10.00
2024-10-11 20:38:32.657,0.13857464,0.762091,0.88510025,0.08438157,0.4078013,0.47503108,0.5045463,0.5875351,0.45396483,0.26193884,0.35505822,0.14027707,0.31089175,-0.02116969,0.051666707,0.3935599,0.008378546,-0.20413174,-0.15103753,-0.07373067,801.8315,796.99634,805.05493,803.0403,584.65204,-0.22882080078125,0.07391357421875,0.978759765625,-4.747772216796875,-0.740203857421875,-0.904693603515625,1,2.0,1.0,1.0,2.0,10.00
2024-10-11 20:38:32.658,0.13857464,0.762091,0.88510025,0.08438157,0.4078013,0.47503108,0.5045463,0.5875351,0.45396483,0.26193884,0.35505822,0.14027707,0.31089175,-0.02116969,0.051666707,0.3935599,0.008378546,-0.20413174,-0.15103753,-0.07373067,806.6667,796.5934,798.60803,795.78754,649.92676,-0.22882080078125,0.07391357421875,0.978759765625,-4.747772216796875,-0.740203857421875,-0.904693603515625,1,2.0,1.0,1.0,2.0,10.00
2024-10-11 20:38:32.658,0.13857464,0.762091,0.88510025,0.08438157,0.4078013,0.47503108,0.5045463,0.5875351,0.45396483,0.26193884,0.35505822,0.14027707,0.31089175,-0.02116969,0.051666707,0.3935599,0.008378546,-0.20413174,-0.15103753,-0.07373067,795.78754,797.8022,801.8315,798.60803,701.50183,-0.22882080078125,0.07391357421875,0.978759765625,-4.747772216796875,-0.740203857421875,-0.904693603515625,1,2.0,1.0,1.0,2.0,10.00
2024-10-11 20:38:32.659,0.13857464,0.762091,0.88510025,0.08438157,0.4078013,0.47503108,0.5045463,0.5875351,0.45396483,0.26193884,0.35505822,0.14027707,0.31089175,-0.02116969,0.051666707,0.3935599,0.008378546,-0.20413174,-0.15103753,-0.07373067,793.7729,800.2198,801.8315,798.60803,682.5641,-0.22882080078125,0.07391357421875,0.978759765625,-4.747772216796875,-0.740203857421875,-0.904693603515625,1,2.0,1.0,1.0,2.0,10.00
2024-10-11 20:38:32.659,0.13857464,0.762091,0.88510025,0.08438157,0.4078013,0.47503108,0.5045463,0.5875351,0.45396483,0.26193884,0.35505822,0.14027707,0.31089175,-0.02116969,0.051666707,0.3935599,0.008378546,-0.20413174,-0.15103753,-0.07373067,800.6227,797.8022,798.20514,791.75824,602.7839,-0.22882080078125,0.07391357421875,0.978759765625,-4.747772216796875,-0.740203857421875,-0.904693603515625,1,2.0,1.0,1.0,2.0,10.00
2024-10-11 20:38:32.660,0.13857464,0.762091,0.88510025,0.08438157,0.4078013,0.47503108,0.5045463,0.5875351,0.45396483,0.26193884,0.35505822,0.14027707,0.31089175,-0.02116969,0.051666707,0.3935599,0.008378546,-0.20413174,-0.15103753,-0.07373067,798.20514,800.2198,802.23444,795.38464,677.326,-0.22882080078125,0.07391357421875,0.978759765625,-4.747772216796875,-0.740203857421875,-0.904693603515625,1,2.0,1.0,1.0,2.0,10.00
2024-10-11 20:38:32.661,0.13857464,0.762091,0.88510025,0.08438157,0.4078013,0.47503108,0.5045463,0.5875351,0.45396483,0.26193884,0.35505822,0.14027707,0.31089175,-0.02116969,0.051666707,0.3935599,0.008378546,-0.20413174,-0.15103753,-0.07373067,804.2491,801.02563,807.8755,804.65204,674.90845,-0.224853515625,0.06964111328125,0.98284912109375,-3.90289306640625,-1.36077880859375,-0.874786376953125,1,2.0,1.0,1.0,2.0,10.00
2024-10-11 20:38:32.661,0.13857464,0.762091,0.88510025,0.08438157,0.4078013,0.47503108,0.5045463,0.5875351,0.45396483,0.26193884,0.35505822,0.14027707,0.31089175,-0.02116969,0.051666707,0.3935599,0.008378546,-0.20413174,-0.15103753,-0.07373067,801.8315,798.20514,805.05493,802.6374,542.74725,-0.224853515625,0.06964111328125,0.98284912109375,-3.90289306640625,-1.36077880859375,-0.874786376953125,1,2.0,1.0,1.0,2.0,10.00
2024-10-11 20:38:32.662,0.13857464,0.762091,0.88510025,0.08438157,0.4078013,0.47503108,0.5045463,0.5875351,0.45396483,0.26193884,0.35505822,0.14027707,0.31089175,-0.02116969,0.051666707,0.3935599,0.008378546,-0.20413174,-0.15103753,-0.07373067,800.6227,794.9817,798.60803,804.2491,541.53845,-0.224853515625,0.06964111328125,0.98284912109375,-3.90289306640625,-1.36077880859375,-0.874786376953125,1,2.0,1.0,1.0,2.0,10.00
2024-10-11 20:38:32.663,0.13857464,0.762091,0.88510025,0.08438157,0.4078013,0.47503108,0.5045463,0.5875351,0.45396483,0.26193884,0.35505822,0.14027707,0.31089175,-0.02116969,0.051666707,0.3935599,0.008378546,-0.20413174,-0.15103753,-0.07373067,804.2491,786.9231,796.99634,806.26373,691.8315,-0.224853515625,0.06964111328125,0.98284912109375,-3.90289306640625,-1.36077880859375,-0.874786376953125,1,2.0,1.0,1.0,2.0,10.00
2024-10-11 20:38:32.663,0.13857464,0.762091,0.88510025,0.08438157,0.4078013,0.47503108,0.5045463,0.5875351,0.45396483,0.26193884,0.35505822,0.14027707,0.31089175,-0.02116969,0.051666707,0.3935599,0.008378546,-0.20413174,-0.15103753,-0.07373067,801.8315,792.1612,799.81683,805.4579,683.36993,-0.224853515625,0.06964111328125,0.98284912109375,-3.90289306640625,-1.36077880859375,-0.874786376953125,1,2.0,1.0,1.0,2.0,10.00
2024-10-11 20:38:32.664,0.13857464,0.762091,0.88510025,0.08438157,0.4078013,0.47503108,0.5045463,0.5875351,0.45396483,0.26193884,0.35505822,0.14027707,0.31089175,-0.02116969,0.051666707,0.3935599,0.008378546,-0.20413174,-0.15103753,-0.07373067,794.9817,792.96704,806.6667,807.0696,666.04395,-0.224853515625,0.06964111328125,0.98284912109375,-3.90289306640625,-1.36077880859375,-0.874786376953125,1,2.0,1.0,1.0,2.0,10.00
2024-10-11 20:38:32.664,0.13857464,0.762091,0.88510025,0.08438157,0.4078013,0.47503108,0.5045463,0.5875351,0.45396483,0.26193884,0.35505822,0.14027707,0.31089175,-0.02116969,0.051666707,0.3935599,0.008378546,-0.20413174,-0.15103753,-0.07373067,788.5348,793.36993,808.2784,802.6374,817.9487,-0.224853515625,0.06964111328125,0.98284912109375,-3.90289306640625,-1.36077880859375,-0.874786376953125,1,2.0,1.0,1.0,2.0,10.00
2024-10-11 20:38:32.665,0.13857464,0.762091,0.88510025,0.08438157,0.4078013,0.47503108,0.5045463,0.5875351,0.45396483,0.26193884,0.35505822,0.14027707,0.31089175,-0.02116969,0.051666707,0.3935599,0.008378546,-0.20413174,-0.15103753,-0.07373067,793.7729,798.60803,799.011,793.7729,864.68866,-0.224853515625,0.06964111328125,0.98284912109375,-3.90289306640625,-1.36077880859375,-0.874786376953125,1,2.0,1.0,1.0,2.0,10.00
2024-10-11 20:38:32.665,0.13857464,0.762091,0.88510025,0.08438157,0.4078013,0.47503108,0.5045463,0.5875351,0.45396483,0.26193884,0.35505822,0.14027707,0.31089175,-0.02116969,0.051666707,0.3935599,0.008378546,-0.20413174,-0.15103753,-0.07373067,799.81683,798.20514,796.1905,792.1612,757.9121,-0.224853515625,0.06964111328125,0.98284912109375,-3.90289306640625,-1.36077880859375,-0.874786376953125,1,2.0,1.0,1.0,2.0,10.00
2024-10-11 20:38:32.666,0.13857464,0.762091,0.88510025,0.08438157,0.4078013,0.47503108,0.5045463,0.5875351,0.45396483,0.26193884,0.35505822,0.14027707,0.31089175,-0.02116969,0.051666707,0.3935599,0.008378546,-0.20413174,-0.15103753,-0.07373067,800.2198,797.3993,801.02563,792.5641,671.28204,-0.224853515625,0.06964111328125,0.98284912109375,-3.90289306640625,-1.36077880859375,-0.874786376953125,1,2.0,1.0,1.0,2.0,10.00
2024-10-11 20:38:32.667,0.13857464,0.762091,0.88510025,0.08438157,0.4078013,0.47503108,0.5045463,0.5875351,0.45396483,0.26193884,0.35505822,0.14027707,0.31089175,-0.02116969,0.051666707,0.3935599,0.008378546,-0.20413174,-0.15103753,-0.07373067,797.8022,793.36993,799.41394,792.5641,645.09155,-0.224853515625,0.06964111328125,0.98284912109375,-3.90289306640625,-1.36077880859375,-0.874786376953125,1,2.0,1.0,1.0,2.0,10.00
2024-10-11 20:38:32.667,0.13857464,0.762091,0.88510025,0.08438157,0.4078013,0.47503108,0.5045463,0.5875351,0.45396483,0.26193884,0.35505822,0.14027707,0.31089175,-0.02116969,0.051666707,0.3935599,0.008378546,-0.20413174,-0.15103753,-0.07373067,803.0403,790.14655,796.99634,798.20514,850.58606,-0.224853515625,0.06964111328125,0.98284912109375,-3.90289306640625,-1.36077880859375,-0.874786376953125,1,2.0,1.0,1.0,2.0,10.00
2024-10-11 20:38:32.693,0.13857464,0.762091,0.88510025,0.08438157,0.4078013,0.47503108,0.5045463,0.5875351,0.45396483,0.26193884,0.35505822,0.14027707,0.31089175,-0.02116969,0.051666707,0.3935599,0.008378546,-0.20413174,-0.15103753,-0.07373067,799.41394,793.36993,793.7729,790.9524,811.50183,-0.221435546875,0.0631103515625,0.97589111328125,-3.15521240234375,-2.34771728515625,0.904693603515625,1,2.0,1.0,1.0,2.0,10.00
2024-10-11 20:38:32.694,0.13857464,0.762091,0.88510025,0.08438157,0.4078013,0.47503108,0.5045463,0.5875351,0.45396483,0.26193884,0.35505822,0.14027707,0.31089175,-0.02116969,0.051666707,0.3935599,0.008378546,-0.20413174,-0.15103753,-0.07373067,796.1905,797.8022,792.1612,791.3553,648.71796,-0.221435546875,0.0631103515625,0.97589111328125,-3.15521240234375,-2.34771728515625,0.904693603515625,1,2.0,1.0,1.0,2.0,10.00
2024-10-11 20:38:32.694,0.13857464,0.762091,0.88510025,0.08438157,0.4078013,0.47503108,0.5045463,0.5875351,0.45396483,0.26193884,0.35505822,0.14027707,0.31089175,-0.02116969,0.051666707,0.3935599,0.008378546,-0.20413174,-0.15103753,-0.07373067,805.4579,799.011,799.011,799.011,630.58606,-0.221435546875,0.0631103515625,0.97589111328125,-3.15521240234375,-2.34771728515625,0.904693603515625,1,2.0,1.0,1.0,2.0,10.00
2024-10-11 20:38:32.695,0.13857464,0.762091,0.88510025,0.08438157,0.4078013,0.47503108,0.5045463,0.5875351,0.45396483,0.26193884,0.35505822,0.14027707,0.31089175,-0.02116969,0.051666707,0.3935599,0.008378546,-0.20413174,-0.15103753,-0.07373067,795.38464,796.5934,796.1905,787.326,579.81683,-0.221435546875,0.0631103515625,0.97589111328125,-3.15521240234375,-2.34771728515625,0.904693603515625,1,2.0,1.0,1.0,2.0,10.00
2024-10-11 20:38:32.695,0.13857464,0.762091,0.88510025,0.08438157,0.4078013,0.47503108,0.5045463,0.5875351,0.45396483,0.26193884,0.35505822,0.14027707,0.31089175,-0.02116969,0.051666707,0.3935599,0.008378546,-0.20413174,-0.15103753,-0.07373067,788.93774,794.57874,798.60803,790.9524,495.20148,-0.221435546875,0.0631103515625,0.97589111328125,-3.15521240234375,-2.34771728515625,0.904693603515625,1,2.0,1.0,1.0,2.0,10.00
2024-10-11 20:38:32.696,0.13857464,0.762091,0.88510025,0.08438157,0.4078013,0.47503108,0.5045463,0.5875351,0.45396483,0.26193884,0.35505822,0.14027707,0.31089175,-0.02116969,0.051666707,0.3935599,0.008378546,-0.20413174,-0.15103753,-0.07373067,798.60803,788.1319,806.26373,807.0696,557.25275,-0.221435546875,0.0631103515625,0.97589111328125,-3.15521240234375,-2.34771728515625,0.904693603515625,1,2.0,1.0,1.0,2.0,10.00
2024-10-11 20:38:32.697,0.13857464,0.762091,0.88510025,0.08438157,0.4078013,0.47503108,0.5045463,0.5875351,0.45396483,0.26193884,0.35505822,0.14027707,0.31089175,-0.02116969,0.051666707,0.3935599,0.008378546,-0.20413174,-0.15103753,-0.07373067,807.47253,792.1612,800.6227,809.89014,825.2015,-0.221435546875,0.0631103515625,0.97589111328125,-3.15521240234375,-2.34771728515625,0.904693603515625,1,2.0,1.0,1.0,2.0,10.00
2024-10-11 20:38:32.697,0.13857464,0.762091,0.9136092,0.08438157,0.4078013,0.47503108,0.5399715,0.5875351,0.45396483,0.26193884,0.3554129,0.14027707,0.31089175,-0.02116969,0.039315477,0.3935599,0.008378546,-0.20413174,-0.16268067,-0.07373067,801.8315,801.4286,791.75824,790.14655,854.21246,-0.221435546875,0.0631103515625,0.97589111328125,-3.15521240234375,-2.34771728515625,0.904693603515625,1,2.0,1.0,1.0,2.0,10.00
2024-10-11 20:38:32.701,0.13857464,0.762091,0.9136092,0.08438157,0.4078013,0.47503108,0.5399715,0.5875351,0.45396483,0.26193884,0.3554129,0.14027707,0.31089175,-0.02116969,0.039315477,0.3935599,0.008378546,-0.20413174,-0.16268067,-0.07373067,794.17584,803.8461,792.1612,779.67035,569.34064,-0.221435546875,0.0631103515625,0.97589111328125,-3.15521240234375,-2.34771728515625,0.904693603515625,1,2.0,1.0,1.0,2.0,10.00
2024-10-11 20:38:32.702,0.13857464,0.762091,0.9136092,0.08438157,0.4078013,0.47503108,0.5399715,0.5875351,0.45396483,0.26193884,0.3554129,0.14027707,0.31089175,-0.02116969,0.039315477,0.3935599,0.008378546,-0.20413174,-0.16268067,-0.07373067,798.20514,805.4579,792.5641,780.07324,548.7912,-0.221435546875,0.0631103515625,0.97589111328125,-3.15521240234375,-2.34771728515625,0.904693603515625,1,2.0,1.0,1.0,2.0,10.00
2024-10-11 20:38:32.703,0.13857464,0.762091,0.9136092,0.08438157,0.4078013,0.47503108,0.5399715,0.5875351,0.45396483,0.26193884,0.3554129,0.14027707,0.31089175,-0.02116969,0.039315477,0.3935599,0.008378546,-0.20413174,-0.16268067,-0.07373067,790.54944,798.60803,788.5348,770.0,691.02563,-0.221435546875,0.0631103515625,0.97589111328125,-3.15521240234375,-2.34771728515625,0.904693603515625,1,2.0,1.0,1.0,2.0,10.00
2024-10-11 20:38:32.703,0.13857464,0.762091,0.9136092,0.08438157,0.4078013,0.47503108,0.5399715,0.5875351,0.45396483,0.26193884,0.3554129,0.14027707,0.31089175,-0.02116969,0.039315477,0.3935599,0.008378546,-0.20413174,-0.16268067,-0.07373067,788.93774,794.9817,786.1172,772.01465,619.304,-0.221435546875,0.0631103515625,0.97589111328125,-3.15521240234375,-2.34771728515625,0.904693603515625,1,2.0,1.0,1.0,2.0,10.00
2024-10-11 20:38:32.704,0.13857464,0.762091,0.9136092,0.08438157,0.4078013,0.47503108,0.5399715,0.5875351,0.45396483,0.26193884,0.3554129,0.14027707,0.31089175,-0.02116969,0.039315477,0.3935599,0.008378546,-0.20413174,-0.16268067,-0.07373067,790.14655,801.8315,781.685,780.07324,426.30035,-0.221435546875,0.0631103515625,0.97589111328125,-3.15521240234375,-2.34771728515625,0.904693603515625,1,2.0,1.0,1.0,2.0,10.00
2024-10-11 20:38:32.705,0.13857464,0.762091,0.9136092,0.08438157,0.4078013,0.47503108,0.5399715,0.5875351,0.45396483,0.26193884,0.3554129,0.14027707,0.31089175,-0.02116969,0.039315477,0.3935599,0.008378546,-0.20413174,-0.16268067,-0.07373067,796.1905,801.4286,784.5055,779.67035,451.28204,-0.221435546875,0.0631103515625,0.97589111328125,-3.15521240234375,-2.34771728515625,0.904693603515625,1,2.0,1.0,1.0,2.0,10.00
2024-10-11 20:38:32.705,0.13857464,0.762091,0.9136092,0.08438157,0.4078013,0.47503108,0.5399715,0.5875351,0.45396483,0.26193884,0.3554129,0.14027707,0.31089175,-0.02116969,0.039315477,0.3935599,0.008378546,-0.20413174,-0.16268067,-0.07373067,796.1905,796.5934,786.1172,783.2967,786.1172,-0.221435546875,0.0631103515625,0.97589111328125,-3.15521240234375,-2.34771728515625,0.904693603515625,1,2.0,1.0,1.0,2.0,10.00
2024-10-11 20:38:32.706,0.13857464,0.762091,0.9136092,0.08438157,0.4078013,0.47503108,0.5399715,0.5875351,0.45396483,0.26193884,0.3554129,0.14027707,0.31089175,-0.02116969,0.039315477,0.3935599,0.008378546,-0.20413174,-0.16268067,-0.07373067,788.1319,797.8022,776.04395,783.2967,767.1795,-0.221435546875,0.0631103515625,0.97589111328125,-3.15521240234375,-2.34771728515625,0.904693603515625,1,2.0,1.0,1.0,2.0,10.00
2024-10-11 20:38:32.706,0.13857464,0.762091,0.9136092,0.08438157,0.4078013,0.47503108,0.5399715,0.5875351,0.45396483,0.26193884,0.3554129,0.14027707,0.31089175,-0.02116969,0.039315477,0.3935599,0.008378546,-0.20413174,-0.16268067,-0.07373067,798.20514,801.02563,779.2674,780.87915,443.62637,-0.221435546875,0.0631103515625,0.97589111328125,-3.15521240234375,-2.34771728515625,0.904693603515625,1,2.0,1.0,1.0,2.0,10.00
2024-10-11 20:38:32.707,0.13857464,0.762091,0.9136092,0.08438157,0.4078013,0.47503108,0.5399715,0.5875351,0.45396483,0.26193884,0.3554129,0.14027707,0.31089175,-0.02116969,0.039315477,0.3935599,0.008378546,-0.20413174,-0.16268067,-0.07373067,802.6374,803.0403,791.75824,782.8938,565.7143,-0.221435546875,0.0631103515625,0.97589111328125,-3.15521240234375,-2.34771728515625,0.904693603515625,1,2.0,1.0,1.0,2.0,10.00
2024-10-11 20:38:32.708,0.13857464,0.762091,0.9136092,0.08438157,0.4078013,0.47503108,0.5399715,0.5875351,0.45396483,0.26193884,0.3554129,0.14027707,0.31089175,-0.02116969,0.039315477,0.3935599,0.008378546,-0.20413174,-0.16268067,-0.07373067,796.5934,802.23444,785.31134,787.326,840.10986,-0.221435546875,0.0631103515625,0.97589111328125,-3.15521240234375,-2.34771728515625,0.904693603515625,1,2.0,1.0,1.0,2.0,10.00
2024-10-11 20:38:32.708,0.13857464,0.762091,0.9136092,0.08438157,0.4078013,0.47503108,0.5399715,0.5875351,0.45396483,0.26193884,0.3554129,0.14027707,0.31089175,-0.02116969,0.039315477,0.3935599,0.008378546,-0.20413174,-0.16268067,-0.07373067,797.3993,803.44324,784.90845,794.17584,625.7509,-0.221435546875,0.0631103515625,0.97589111328125,-3.15521240234375,-2.34771728515625,0.904693603515625,1,2.0,1.0,1.0,2.0,10.00
2024-10-11 20:38:32.709,0.13857464,0.762091,0.9136092,0.08438157,0.4078013,0.47503108,0.5399715,0.5875351,0.45396483,0.26193884,0.3554129,0.14027707,0.31089175,-0.02116969,0.039315477,0.3935599,0.008378546,-0.20413174,-0.16268067,-0.07373067,804.2491,801.8315,790.9524,798.20514,340.07327,-0.221435546875,0.0631103515625,0.97589111328125,-3.15521240234375,-2.34771728515625,0.904693603515625,1,2.0,1.0,1.0,2.0,10.00
2024-10-11 20:38:32.709,0.13857464,0.762091,0.9136092,0.08438157,0.4078013,0.47503108,0.5399715,0.5875351,0.45396483,0.26193884,0.3554129,0.14027707,0.31089175,-0.02116969,0.039315477,0.3935599,0.008378546,-0.20413174,-0.16268067,-0.07373067,803.0403,805.8608,788.5348,797.3993,392.85715,-0.221435546875,0.0631103515625,0.97589111328125,-3.15521240234375,-2.34771728515625,0.904693603515625,1,2.0,1.0,1.0,2.0,10.00
2024-10-11 20:38:32.710,0.13857464,0.762091,0.9136092,0.08438157,0.4078013,0.47503108,0.5399715,0.5875351,0.45396483,0.26193884,0.3554129,0.14027707,0.31089175,-0.02116969,0.039315477,0.3935599,0.008378546,-0.20413174,-0.16268067,-0.07373067,794.17584,801.02563,788.93774,792.96704,589.0842,-0.221435546875,0.0631103515625,0.97589111328125,-3.15521240234375,-2.34771728515625,0.904693603515625,1,2.0,1.0,1.0,2.0,10.00
2024-10-11 20:38:32.710,0.13857464,0.762091,0.9136092,0.08438157,0.4078013,0.47503108,0.5399715,0.5875351,0.45396483,0.26193884,0.3554129,0.14027707,0.31089175,-0.02116969,0.039315477,0.3935599,0.008378546,-0.20413174,-0.16268067,-0.07373067,796.99634,797.3993,791.75824,791.75824,572.5641,-0.221435546875,0.0631103515625,0.97589111328125,-3.15521240234375,-2.34771728515625,0.904693603515625,1,2.0,1.0,1.0,2.0,10.00
2024-10-11 20:38:32.711,0.13857464,0.762091,0.9136092,0.08438157,0.4078013,0.47503108,0.5399715,0.5875351,0.45396483,0.26193884,0.3554129,0.14027707,0.31089175,-0.02116969,0.039315477,0.3935599,0.008378546,-0.20413174,-0.16268067,-0.07373067,799.011,806.6667,794.17584,790.9524,442.82053,-0.2291259765625,0.05462646484375,0.98443603515625,-2.6019287109375,-1.876678466796875,1.1663818359375,1,2.0,1.0,1.0,2.0,10.00
2024-10-11 20:38:32.712,0.13857464,0.762091,0.9136092,0.08438157,0.4078013,0.47503108,0.5399715,0.5875351,0.45396483,0.26193884,0.3554129,0.14027707,0.31089175,-0.02116969,0.039315477,0.3935599,0.008378546,-0.20413174,-0.16268067,-0.07373067,798.60803,801.4286,797.3993,794.9817,529.0476,-0.2291259765625,0.05462646484375,0.98443603515625,-2.6019287109375,-1.876678466796875,1.1663818359375,1,2.0,1.0,1.0,2.0,10.00
2024-10-11 20:38:32.712,0.13857464,0.762091,0.9136092,0.08438157,0.4078013,0.47503108,0.5399715,0.5875351,0.45396483,0.26193884,0.3554129,0.14027707,0.31089175,-0.02116969,0.039315477,0.3935599,0.008378546,-0.20413174,-0.16268067,-0.07373067,798.20514,796.5934,796.99634,801.8315,662.01465,-0.2291259765625,0.05462646484375,0.98443603515625,-2.6019287109375,-1.876678466796875,1.1663818359375,1,2.0,1.0,1.0,2.0,10.00
2024-10-11 20:38:32.713,0.13857464,0.762091,0.9136092,0.08438157,0.4078013,0.47503108,0.5399715,0.5875351,0.45396483,0.26193884,0.3554129,0.14027707,0.31089175,-0.02116969,0.039315477,0.3935599,0.008378546,-0.20413174,-0.16268067,-0.07373067,801.02563,800.6227,792.5641,800.6227,540.7326,-0.2291259765625,0.05462646484375,0.98443603515625,-2.6019287109375,-1.876678466796875,1.1663818359375,1,2.0,1.0,1.0,2.0,10.00
2024-10-11 20:38:32.714,0.13857464,0.762091,0.9136092,0.08438157,0.4078013,0.47503108,0.5399715,0.5875351,0.45396483,0.26193884,0.3554129,0.14027707,0.31089175,-0.02116969,0.039315477,0.3935599,0.008378546,-0.20413174,-0.16268067,-0.07373067,800.6227,796.99634,798.20514,791.75824,456.92307,-0.2291259765625,0.05462646484375,0.98443603515625,-2.6019287109375,-1.876678466796875,1.1663818359375,1,2.0,1.0,1.0,2.0,10.00
2024-10-11 20:38:32.714,0.13857464,0.762091,0.9136092,0.08438157,0.4078013,0.47503108,0.5399715,0.5875351,0.45396483,0.26193884,0.3554129,0.14027707,0.31089175,-0.02116969,0.039315477,0.3935599,0.008378546,-0.20413174,-0.16268067,-0.07373067,801.8315,791.3553,797.8022,789.7436,602.381,-0.2291259765625,0.05462646484375,0.98443603515625,-2.6019287109375,-1.876678466796875,1.1663818359375,1,2.0,1.0,1.0,2.0,10.00
2024-10-11 20:38:32.715,0.13857464,0.762091,0.9136092,0.08438157,0.4078013,0.47503108,0.5399715,0.5875351,0.45396483,0.26193884,0.3554129,0.14027707,0.31089175,-0.02116969,0.039315477,0.3935599,0.008378546,-0.20413174,-0.16268067,-0.07373067,801.02563,793.36993,798.20514,793.36993,732.52747,-0.2291259765625,0.05462646484375,0.98443603515625,-2.6019287109375,-1.876678466796875,1.1663818359375,1,2.0,1.0,1.0,2.0,10.00
2024-10-11 20:38:32.715,0.13857464,0.762091,0.9136092,0.08438157,0.4078013,0.47503108,0.5399715,0.5875351,0.45396483,0.26193884,0.3554129,0.14027707,0.31089175,-0.02116969,0.039315477,0.3935599,0.008378546,-0.20413174,-0.16268067,-0.07373067,793.36993,795.78754,800.6227,794.9817,616.4835,-0.2291259765625,0.05462646484375,0.98443603515625,-2.6019287109375,-1.876678466796875,1.1663818359375,1,2.0,1.0,1.0,2.0,10.00
2024-10-11 20:38:32.716,0.13857464,0.762091,0.9136092,0.08438157,0.4078013,0.47503108,0.5399715,0.5875351,0.45396483,0.26193884,0.3554129,0.14027707,0.31089175,-0.02116969,0.039315477,0.3935599,0.008378546,-0.20413174,-0.16268067,-0.07373067,797.8022,796.5934,797.3993,796.5934,500.43958,-0.2291259765625,0.05462646484375,0.98443603515625,-2.6019287109375,-1.876678466796875,1.1663818359375,1,2.0,1.0,1.0,2.0,10.00
2024-10-11 20:38:32.716,0.13857464,0.762091,0.9183339,0.08438157,0.4078013,0.47503108,0.5472985,0.5875351,0.45396483,0.26193884,0.35575315,0.14027707,0.31089175,-0.02116969,0.031823907,0.3935599,0.008378546,-0.20413174,-0.18281569,-0.07373067,797.8022,794.57874,792.5641,796.5934,541.13556,-0.2291259765625,0.05462646484375,0.98443603515625,-2.6019287109375,-1.876678466796875,1.1663818359375,1,2.0,1.0,1.0,2.0,10.00
2024-10-11 20:38:32.721,0.13857464,0.762091,0.9183339,0.08438157,0.4078013,0.47503108,0.5472985,0.5875351,0.45396483,0.26193884,0.35575315,0.14027707,0.31089175,-0.02116969,0.031823907,0.3935599,0.008378546,-0.20413174,-0.18281569,-0.07373067,803.44324,799.011,789.34064,802.23444,574.9817,-0.2291259765625,0.05462646484375,0.98443603515625,-2.6019287109375,-1.876678466796875,1.1663818359375,1,2.0,1.0,1.0,2.0,10.00
2024-10-11 20:38:32.721,0.13857464,0.762091,0.9183339,0.08438157,0.4078013,0.47503108,0.5472985,0.5875351,0.45396483,0.26193884,0.35575315,0.14027707,0.31089175,-0.02116969,0.031823907,0.3935599,0.008378546,-0.20413174,-0.18281569,-0.07373067,811.50183,801.02563,795.38464,806.6667,568.1319,-0.2291259765625,0.05462646484375,0.98443603515625,-2.6019287109375,-1.876678466796875,1.1663818359375,1,2.0,1.0,1.0,2.0,10.00
2024-10-11 20:38:32.746,0.13857464,0.762091,0.9183339,0.08438157,0.4078013,0.47503108,0.5472985,0.5875351,0.45396483,0.26193884,0.35575315,0.14027707,0.31089175,-0.02116969,0.031823907,0.3935599,0.008378546,-0.20413174,-0.18281569,-0.07373067,811.50183,798.20514,797.8022,806.6667,542.3443,-0.2213134765625,0.04644775390625,0.9892578125,-1.03179931640625,-1.652374267578125,0.829925537109375,1,2.0,1.0,1.0,2.0,10.00
2024-10-11 20:38:32.747,0.13857464,0.762091,0.9183339,0.08438157,0.4078013,0.47503108,0.5472985,0.5875351,0.45396483,0.26193884,0.35575315,0.14027707,0.31089175,-0.02116969,0.031823907,0.3935599,0.008378546,-0.20413174,-0.18281569,-0.07373067,816.7399,797.3993,799.81683,805.4579,713.9927,-0.2213134765625,0.04644775390625,0.9892578125,-1.03179931640625,-1.652374267578125,0.829925537109375,1,2.0,1.0,1.0,2.0,10.00
2024-10-11 20:38:32.748,0.13857464,0.762091,0.9183339,0.08438157,0.4078013,0.47503108,0.5472985,0.5875351,0.45396483,0.26193884,0.35575315,0.14027707,0.31089175,-0.02116969,0.031823907,0.3935599,0.008378546,-0.20413174,-0.18281569,-0.07373067,812.3077,794.17584,799.41394,799.81683,700.696,-0.2213134765625,0.04644775390625,0.9892578125,-1.03179931640625,-1.652374267578125,0.829925537109375,1,2.0,1.0,1.0,2.0,10.00
2024-10-11 20:38:32.748,0.13857464,0.762091,0.9183339,0.08438157,0.4078013,0.47503108,0.5472985,0.5875351,0.45396483,0.26193884,0.35575315,0.14027707,0.31089175,-0.02116969,0.031823907,0.3935599,0.008378546,-0.20413174,-0.18281569,-0.07373067,805.05493,796.99634,794.9817,797.3993,503.663,-0.2213134765625,0.04644775390625,0.9892578125,-1.03179931640625,-1.652374267578125,0.829925537109375,1,2.0,1.0,1.0,2.0,10.00
2024-10-11 20:38:32.749,0.13857464,0.762091,0.9183339,0.08438157,0.4078013,0.47503108,0.5472985,0.5875351,0.45396483,0.26193884,0.35575315,0.14027707,0.31089175,-0.02116969,0.031823907,0.3935599,0.008378546,-0.20413174,-0.18281569,-0.07373067,808.68134,799.41394,791.3553,794.17584,519.3773,-0.2213134765625,0.04644775390625,0.9892578125,-1.03179931640625,-1.652374267578125,0.829925537109375,1,2.0,1.0,1.0,2.0,10.00
2024-10-11 20:38:32.750,0.13857464,0.762091,0.9183339,0.08438157,0.4078013,0.47503108,0.5472985,0.5875351,0.45396483,0.26193884,0.35575315,0.14027707,0.31089175,-0.02116969,0.031823907,0.3935599,0.008378546,-0.20413174,-0.18281569,-0.07373067,807.47253,792.5641,791.75824,796.99634,801.4286,-0.2213134765625,0.04644775390625,0.9892578125,-1.03179931640625,-1.652374267578125,0.829925537109375,1,2.0,1.0,1.0,2.0,10.00
2024-10-11 20:38:32.750,0.13857464,0.762091,0.9183339,0.08438157,0.4078013,0.47503108,0.5472985,0.5875351,0.45396483,0.26193884,0.35575315,0.14027707,0.31089175,-0.02116969,0.031823907,0.3935599,0.008378546,-0.20413174,-0.18281569,-0.07373067,799.41394,792.5641,794.57874,807.47253,986.77655,-0.2213134765625,0.04644775390625,0.9892578125,-1.03179931640625,-1.652374267578125,0.829925537109375,1,2.0,1.0,1.0,2.0,10.00
2024-10-11 20:38:32.751,0.13857464,0.762091,0.9183339,0.08438157,0.4078013,0.47503108,0.5472985,0.5875351,0.45396483,0.26193884,0.35575315,0.14027707,0.31089175,-0.02116969,0.031823907,0.3935599,0.008378546,-0.20413174,-0.18281569,-0.07373067,801.4286,799.41394,799.41394,803.0403,620.9158,-0.2213134765625,0.04644775390625,0.9892578125,-1.03179931640625,-1.652374267578125,0.829925537109375,1,2.0,1.0,1.0,2.0,10.00
2024-10-11 20:38:32.751,0.13857464,0.762091,0.9183339,0.08438157,0.4078013,0.47503108,0.5472985,0.5875351,0.45396483,0.26193884,0.35575315,0.14027707,0.31089175,-0.02116969,0.031823907,0.3935599,0.008378546,-0.20413174,-0.18281569,-0.07373067,803.0403,798.20514,799.81683,797.3993,572.96704,-0.2213134765625,0.04644775390625,0.9892578125,-1.03179931640625,-1.652374267578125,0.829925537109375,1,2.0,1.0,1.0,2.0,10.00
2024-10-11 20:38:32.752,0.13857464,0.762091,0.9183339,0.08438157,0.4078013,0.47503108,0.5472985,0.5875351,0.45396483,0.26193884,0.35575315,0.14027707,0.31089175,-0.02116969,0.031823907,0.3935599,0.008378546,-0.20413174,-0.18281569,-0.07373067,803.8461,793.36993,794.9817,806.26373,877.98535,-0.2213134765625,0.04644775390625,0.9892578125,-1.03179931640625,-1.652374267578125,0.829925537109375,1,2.0,1.0,1.0,2.0,10.00
2024-10-11 20:38:32.752,0.13857464,0.762091,0.9183339,0.08438157,0.4078013,0.47503108,0.5472985,0.5875351,0.45396483,0.26193884,0.35575315,0.14027707,0.31089175,-0.02116969,0.031823907,0.3935599,0.008378546,-0.20413174,-0.18281569,-0.07373067,802.23444,788.5348,794.57874,820.7692,1119.7435,-0.2213134765625,0.04644775390625,0.9892578125,-1.03179931640625,-1.652374267578125,0.829925537109375,1,2.0,1.0,1.0,2.0,10.00
2024-10-11 20:38:32.753,0.13857464,0.762091,0.9183339,0.08438157,0.4078013,0.47503108,0.5472985,0.5875351,0.45396483,0.26193884,0.35575315,0.14027707,0.31089175,-0.02116969,0.031823907,0.3935599,0.008378546,-0.20413174,-0.18281569,-0.07373067,794.17584,793.7729,794.17584,821.5751,1043.9927,-0.2213134765625,0.04644775390625,0.9892578125,-1.03179931640625,-1.652374267578125,0.829925537109375,1,2.0,1.0,1.0,2.0,10.00
2024-10-11 20:38:32.777,0.13857464,0.762091,0.9183339,0.08438157,0.4078013,0.47503108,0.5472985,0.5875351,0.45396483,0.26193884,0.35575315,0.14027707,0.31089175,-0.02116969,0.031823907,0.3935599,0.008378546,-0.20413174,-0.18281569,-0.07373067,803.0403,799.81683,792.96704,813.1135,634.21246,-0.21820068359375,0.05303955078125,0.97271728515625,1.128997802734375,-0.441131591796875,0.605621337890625,1,2.0,1.0,1.0,2.0,10.00
2024-10-11 20:38:32.778,0.13857464,0.762091,0.9183339,0.08438157,0.4078013,0.47503108,0.5472985,0.5875351,0.45396483,0.26193884,0.35575315,0.14027707,0.31089175,-0.02116969,0.031823907,0.3935599,0.008378546,-0.20413174,-0.18281569,-0.07373067,805.4579,799.011,802.23444,807.0696,548.7912,-0.21820068359375,0.05303955078125,0.97271728515625,1.128997802734375,-0.441131591796875,0.605621337890625,1,2.0,1.0,1.0,2.0,10.00
2024-10-11 20:38:32.779,0.13857464,0.762091,0.9183339,0.08438157,0.4078013,0.47503108,0.5472985,0.5875351,0.45396483,0.26193884,0.35575315,0.14027707,0.31089175,-0.02116969,0.031823907,0.3935599,0.008378546,-0.20413174,-0.18281569,-0.07373067,791.75824,794.9817,806.26373,803.8461,560.87915,-0.21820068359375,0.05303955078125,0.97271728515625,1.128997802734375,-0.441131591796875,0.605621337890625,1,2.0,1.0,1.0,2.0,10.00
2024-10-11 20:38:32.780,0.13857464,0.762091,0.9183339,0.08438157,0.4078013,0.47503108,0.5472985,0.5875351,0.45396483,0.26193884,0.35575315,0.14027707,0.31089175,-0.02116969,0.031823907,0.3935599,0.008378546,-0.20413174,-0.18281569,-0.07373067,792.5641,791.75824,801.4286,803.0403,398.49817,-0.21820068359375,0.05303955078125,0.97271728515625,1.128997802734375,-0.441131591796875,0.605621337890625,1,2.0,1.0,1.0,2.0,10.00
2024-10-11 20:38:32.780,0.13857464,0.762091,0.9183339,0.08438157,0.4078013,0.47503108,0.5472985,0.5875351,0.45396483,0.26193884,0.35575315,0.14027707,0.31089175,-0.02116969,0.031823907,0.3935599,0.008378546,-0.20413174,-0.18281569,-0.07373067,801.02563,798.60803,805.05493,807.8755,524.61536,-0.21820068359375,0.05303955078125,0.97271728515625,1.128997802734375,-0.441131591796875,0.605621337890625,1,2.0,1.0,1.0,2.0,10.00
2024-10-11 20:38:32.781,0.13857464,0.762091,0.9183339,0.08438157,0.4078013,0.47503108,0.5472985,0.5875351,0.45396483,0.26193884,0.35575315,0.14027707,0.31089175,-0.02116969,0.031823907,0.3935599,0.008378546,-0.20413174,-0.18281569,-0.07373067,803.8461,803.0403,807.8755,807.8755,837.6923,-0.21820068359375,0.05303955078125,0.97271728515625,1.128997802734375,-0.441131591796875,0.605621337890625,1,2.0,1.0,1.0,2.0,10.00
2024-10-11 20:38:32.781,0.13857464,0.762091,0.9183339,0.08438157,0.4078013,0.47503108,0.5472985,0.5875351,0.45396483,0.26193884,0.35575315,0.14027707,0.31089175,-0.02116969,0.031823907,0.3935599,0.008378546,-0.20413174,-0.18281569,-0.07373067,806.26373,801.4286,802.6374,805.4579,657.5824,-0.21820068359375,0.05303955078125,0.97271728515625,1.128997802734375,-0.441131591796875,0.605621337890625,1,2.0,1.0,1.0,2.0,10.00
2024-10-11 20:38:32.782,0.13857464,0.762091,0.9183339,0.08438157,0.4078013,0.47503108,0.5472985,0.5875351,0.45396483,0.26193884,0.35575315,0.14027707,0.31089175,-0.02116969,0.031823907,0.3935599,0.008378546,-0.20413174,-0.18281569,-0.07373067,806.26373,798.60803,801.02563,799.41394,485.1282,-0.21820068359375,0.05303955078125,0.97271728515625,1.128997802734375,-0.441131591796875,0.605621337890625,1,2.0,1.0,1.0,2.0,10.00
2024-10-11 20:38:32.782,0.13857464,0.762091,0.9183339,0.08438157,0.4078013,0.47503108,0.5472985,0.5875351,0.45396483,0.26193884,0.35575315,0.14027707,0.31089175,-0.02116969,0.031823907,0.3935599,0.008378546,-0.20413174,-0.18281569,-0.07373067,801.4286,797.3993,799.81683,804.2491,602.381,-0.21820068359375,0.05303955078125,0.97271728515625,1.128997802734375,-0.441131591796875,0.605621337890625,1,2.0,1.0,1.0,2.0,10.00
2024-10-11 20:38:32.783,0.13857464,0.762091,0.9183339,0.08438157,0.4078013,0.47503108,0.5472985,0.5875351,0.45396483,0.26193884,0.35575315,0.14027707,0.31089175,-0.02116969,0.031823907,0.3935599,0.008378546,-0.20413174,-0.18281569,-0.07373067,799.81683,801.8315,796.1905,815.9341,681.3553,-0.21820068359375,0.05303955078125,0.97271728515625,1.128997802734375,-0.441131591796875,0.605621337890625,1,2.0,1.0,1.0,2.0,10.00
2024-10-11 20:38:32.784,0.13857464,0.762091,0.9183339,0.08438157,0.4078013,0.47503108,0.5472985,0.5875351,0.45396483,0.26193884,0.35575315,0.14027707,0.31089175,-0.02116969,0.031823907,0.3935599,0.008378546,-0.20413174,-0.18281569,-0.07373067,800.2198,798.20514,799.011,813.91943,609.6337,-0.21820068359375,0.05303955078125,0.97271728515625,1.128997802734375,-0.441131591796875,0.605621337890625,1,2.0,1.0,1.0,2.0,10.00
2024-10-11 20:38:32.784,0.13857464,0.762091,0.90078545,0.08438157,0.4078013,0.47503108,0.52979666,0.5875351,0.45396483,0.26193884,0.35688823,0.14027707,0.31089175,-0.02116969,0.028022982,0.3935599,0.008378546,-0.20413174,-0.20686391,-0.07373067,796.1905,794.9817,803.8461,808.68134,608.022,-0.21820068359375,0.05303955078125,0.97271728515625,1.128997802734375,-0.441131591796875,0.605621337890625,1,2.0,1.0,1.0,2.0,10.00
2024-10-11 20:38:32.813,0.13857464,0.762091,0.90078545,0.08438157,0.4078013,0.47503108,0.52979666,0.5875351,0.45396483,0.26193884,0.35688823,0.14027707,0.31089175,-0.02116969,0.028022982,0.3935599,0.008378546,-0.20413174,-0.20686391,-0.07373067,797.8022,791.3553,801.02563,806.6667,751.8681,-0.22161865234375,0.0604248046875,0.98126220703125,2.88604736328125,0.49346923828125,1.293487548828125,1,2.0,1.0,1.0,2.0,10.00
2024-10-11 20:38:32.814,0.13857464,0.762091,0.90078545,0.08438157,0.4078013,0.47503108,0.52979666,0.5875351,0.45396483,0.26193884,0.35688823,0.14027707,0.31089175,-0.02116969,0.028022982,0.3935599,0.008378546,-0.20413174,-0.20686391,-0.07373067,802.6374,790.14655,799.011,810.696,807.8755,-0.22161865234375,0.0604248046875,0.98126220703125,2.88604736328125,0.49346923828125,1.293487548828125,1,2.0,1.0,1.0,2.0,10.00
2024-10-11 20:38:32.815,0.13857464,0.762091,0.90078545,0.08438157,0.4078013,0.47503108,0.52979666,0.5875351,0.45396483,0.26193884,0.35688823,0.14027707,0.31089175,-0.02116969,0.028022982,0.3935599,0.008378546,-0.20413174,-0.20686391,-0.07373067,792.1612,795.78754,805.05493,805.8608,578.20514,-0.22161865234375,0.0604248046875,0.98126220703125,2.88604736328125,0.49346923828125,1.293487548828125,1,2.0,1.0,1.0,2.0,10.00
2024-10-11 20:38:32.815,0.13857464,0.762091,0.90078545,0.08438157,0.4078013,0.47503108,0.52979666,0.5875351,0.45396483,0.26193884,0.35688823,0.14027707,0.31089175,-0.02116969,0.028022982,0.3935599,0.008378546,-0.20413174,-0.20686391,-0.07373067,793.36993,801.4286,801.4286,805.05493,445.64102,-0.22161865234375,0.0604248046875,0.98126220703125,2.88604736328125,0.49346923828125,1.293487548828125,1,2.0,1.0,1.0,2.0,10.00
2024-10-11 20:38:32.816,0.13857464,0.762091,0.90078545,0.08438157,0.4078013,0.47503108,0.52979666,0.5875351,0.45396483,0.26193884,0.35688823,0.14027707,0.31089175,-0.02116969,0.028022982,0.3935599,0.008378546,-0.20413174,-0.20686391,-0.07373067,803.44324,799.011,801.8315,808.68134,684.9817,-0.22161865234375,0.0604248046875,0.98126220703125,2.88604736328125,0.49346923828125,1.293487548828125,1,2.0,1.0,1.0,2.0,10.00
2024-10-11 20:38:32.816,0.13857464,0.762091,0.90078545,0.08438157,0.4078013,0.47503108,0.52979666,0.5875351,0.45396483,0.26193884,0.35688823,0.14027707,0.31089175,-0.02116969,0.028022982,0.3935599,0.008378546,-0.20413174,-0.20686391,-0.07373067,798.20514,791.75824,809.89014,811.9048,1233.773,-0.22161865234375,0.0604248046875,0.98126220703125,2.88604736328125,0.49346923828125,1.293487548828125,1,2.0,1.0,1.0,2.0,10.00
2024-10-11 20:38:32.817,0.13857464,0.762091,0.90078545,0.08438157,0.4078013,0.47503108,0.52979666,0.5875351,0.45396483,0.26193884,0.35688823,0.14027707,0.31089175,-0.02116969,0.028022982,0.3935599,0.008378546,-0.20413174,-0.20686391,-0.07373067,810.293,791.3553,811.0989,823.1868,1311.9414,-0.22161865234375,0.0604248046875,0.98126220703125,2.88604736328125,0.49346923828125,1.293487548828125,1,2.0,1.0,1.0,2.0,10.00
2024-10-11 20:38:32.818,0.13857464,0.762091,0.90078545,0.08438157,0.4078013,0.47503108,0.52979666,0.5875351,0.45396483,0.26193884,0.35688823,0.14027707,0.31089175,-0.02116969,0.028022982,0.3935599,0.008378546,-0.20413174,-0.20686391,-0.07373067,819.9634,796.5934,805.8608,818.3516,906.1905,-0.22161865234375,0.0604248046875,0.98126220703125,2.88604736328125,0.49346923828125,1.293487548828125,1,2.0,1.0,1.0,2.0,10.00
2024-10-11 20:38:32.818,0.13857464,0.762091,0.90078545,0.08438157,0.4078013,0.47503108,0.52979666,0.5875351,0.45396483,0.26193884,0.35688823,0.14027707,0.31089175,-0.02116969,0.028022982,0.3935599,0.008378546,-0.20413174,-0.20686391,-0.07373067,809.89014,802.6374,802.6374,800.6227,650.7326,-0.22161865234375,0.0604248046875,0.98126220703125,2.88604736328125,0.49346923828125,1.293487548828125,1,2.0,1.0,1.0,2.0,10.00
2024-10-11 20:38:32.819,0.13857464,0.762091,0.90078545,0.08438157,0.4078013,0.47503108,0.52979666,0.5875351,0.45396483,0.26193884,0.35688823,0.14027707,0.31089175,-0.02116969,0.028022982,0.3935599,0.008378546,-0.20413174,-0.20686391,-0.07373067,809.89014,803.44324,804.65204,804.65204,455.31134,-0.22161865234375,0.0604248046875,0.98126220703125,2.88604736328125,0.49346923828125,1.293487548828125,1,2.0,1.0,1.0,2.0,10.00
2024-10-11 20:38:32.819,0.13857464,0.762091,0.90078545,0.08438157,0.4078013,0.47503108,0.52979666,0.5875351,0.45396483,0.26193884,0.35688823,0.14027707,0.31089175,-0.02116969,0.028022982,0.3935599,0.008378546,-0.20413174,-0.20686391,-0.07373067,809.4872,804.2491,803.0403,805.8608,393.663,-0.22161865234375,0.0604248046875,0.98126220703125,2.88604736328125,0.49346923828125,1.293487548828125,1,2.0,1.0,1.0,2.0,10.00
