TimeStamp,Delta_TP9,Delta_AF7,Delta_AF8,Delta_TP10,Theta_TP9,Theta_AF7,Theta_AF8,Theta_TP10,Alpha_TP9,Alpha_AF7,Alpha_AF8,Alpha_TP10,Beta_TP9,Beta_AF7,Beta_AF8,Beta_TP10,Gamma_TP9,Gamma_AF7,Gamma_AF8,Gamma_TP10,RAW_TP9,RAW_AF7,RAW_AF8,RAW_TP10,AUX_RIGHT,Accelerometer_X,Accelerometer_Y,Accelerometer_Z,Gyro_X,Gyro_Y,Gyro_Z,HeadBandOn,HSI_TP9,HSI_AF7,HSI_AF8,HSI_TP10,Battery,Elements
2024-10-11 20:45:16.681,0.6975472,0.67602754,0.8533291,0.8618614,0.23704141,0.075718485,0.31659406,0.46340063,0.34745273,0.16957988,0.1316783,0.5813638,0.5219581,-0.056327976,0.36237964,0.38584235,0.070491,-0.5060905,0.027296202,-0.060878463,788.1319,804.65204,790.54944,776.04395,710.7692,0.20294189453125,0.10894775390625,0.97509765625,-1.801910400390625,11.61895751953125,-3.1402587890625,1,1.0,1.0,1.0,1.0,10.00
2024-10-11 20:45:16.682,0.6975472,0.67602754,0.8533291,0.8618614,0.23704141,0.075718485,0.31659406,0.46340063,0.34745273,0.16957988,0.1316783,0.5813638,0.5219581,-0.056327976,0.36237964,0.38584235,0.070491,-0.5060905,0.027296202,-0.060878463,789.34064,803.44324,789.7436,787.72894,799.41394,0.20294189453125,0.10894775390625,0.97509765625,-1.801910400390625,11.61895751953125,-3.1402587890625,1,1.0,1.0,1.0,1.0,10.00
2024-10-11 20:45:16.683,0.6975472,0.67602754,0.8533291,0.8618614,0.23704141,0.075718485,0.31659406,0.46340063,0.34745273,0.16957988,0.1316783,0.5813638,0.5219581,-0.056327976,0.36237964,0.38584235,0.070491,-0.5060905,0.027296202,-0.060878463,785.7143,798.60803,801.8315,793.7729,763.5531,0.20294189453125,0.10894775390625,0.97509765625,-1.801910400390625,11.61895751953125,-3.1402587890625,1,1.0,1.0,1.0,1.0,10.00
2024-10-11 20:45:16.683,0.6975472,0.67602754,0.8533291,0.8618614,0.23704141,0.075718485,0.31659406,0.46340063,0.34745273,0.16957988,0.1316783,0.5813638,0.5219581,-0.056327976,0.36237964,0.38584235,0.070491,-0.5060905,0.027296202,-0.060878463,786.52014,796.99634,794.17584,792.96704,639.45056,0.20294189453125,0.10894775390625,0.97509765625,-1.801910400390625,11.61895751953125,-3.1402587890625,1,1.0,1.0,1.0,1.0,10.00
2024-10-11 20:45:16.684,0.6975472,0.67602754,0.8533291,0.8618614,0.23704141,0.075718485,0.31659406,0.46340063,0.34745273,0.16957988,0.1316783,0.5813638,0.5219581,-0.056327976,0.36237964,0.38584235,0.070491,-0.5060905,0.027296202,-0.060878463,794.17584,801.8315,786.1172,797.8022,715.2015,0.20294189453125,0.10894775390625,0.97509765625,-1.801910400390625,11.61895751953125,-3.1402587890625,1,1.0,1.0,1.0,1.0,10.00
2024-10-11 20:45:16.684,0.6975472,0.67602754,0.8533291,0.8618614,0.23704141,0.075718485,0.31659406,0.46340063,0.34745273,0.16957988,0.1316783,0.5813638,0.5219581,-0.056327976,0.36237964,0.38584235,0.070491,-0.5060905,0.027296202,-0.060878463,803.0403,798.60803,801.4286,800.6227,958.5714,0.20294189453125,0.10894775390625,0.97509765625,-1.801910400390625,11.61895751953125,-3.1402587890625,1,1.0,1.0,1.0,1.0,10.00
2024-10-11 20:45:16.685,0.6975472,0.67602754,0.8533291,0.8618614,0.23704141,0.075718485,0.31659406,0.46340063,0.34745273,0.16957988,0.1316783,0.5813638,0.5219581,-0.056327976,0.36237964,0.38584235,0.070491,-0.5060905,0.027296202,-0.060878463,806.26373,799.81683,805.05493,796.5934,908.20514,0.20294189453125,0.10894775390625,0.97509765625,-1.801910400390625,11.61895751953125,-3.1402587890625,1,1.0,1.0,1.0,1.0,10.00
2024-10-11 20:45:16.685,0.6975472,0.67602754,0.8533291,0.8618614,0.23704141,0.075718485,0.31659406,0.46340063,0.34745273,0.16957988,0.1316783,0.5813638,0.5219581,-0.056327976,0.36237964,0.38584235,0.070491,-0.5060905,0.027296202,-0.060878463,790.54944,803.44324,799.41394,793.36993,584.2491,0.20294189453125,0.10894775390625,0.97509765625,-1.801910400390625,11.61895751953125,-3.1402587890625,1,1.0,1.0,1.0,1.0,10.00
2024-10-11 20:45:16.686,0.6975472,0.67602754,0.8533291,0.8618614,0.23704141,0.075718485,0.31659406,0.46340063,0.34745273,0.16957988,0.1316783,0.5813638,0.5219581,-0.056327976,0.36237964,0.38584235,0.070491,-0.5060905,0.027296202,-0.060878463,782.0879,793.7729,799.81683,796.1905,603.1868,0.20294189453125,0.10894775390625,0.97509765625,-1.801910400390625,11.61895751953125,-3.1402587890625,1,1.0,1.0,1.0,1.0,10.00
2024-10-11 20:45:16.686,0.6975472,0.67602754,0.8533291,0.8618614,0.23704141,0.075718485,0.31659406,0.46340063,0.34745273,0.16957988,0.1316783,0.5813638,0.5219581,-0.056327976,0.36237964,0.38584235,0.070491,-0.5060905,0.027296202,-0.060878463,792.5641,792.5641,798.20514,799.011,803.44324,0.20294189453125,0.10894775390625,0.97509765625,-1.801910400390625,11.61895751953125,-3.1402587890625,1,1.0,1.0,1.0,1.0,10.00
2024-10-11 20:45:16.687,0.6975472,0.67602754,0.8533291,0.8618614,0.23704141,0.075718485,0.31659406,0.46340063,0.34745273,0.16957988,0.1316783,0.5813638,0.5219581,-0.056327976,0.36237964,0.38584235,0.070491,-0.5060905,0.027296202,-0.060878463,791.3553,797.8022,791.3553,790.54944,793.7729,0.20294189453125,0.10894775390625,0.97509765625,-1.801910400390625,11.61895751953125,-3.1402587890625,1,1.0,1.0,1.0,1.0,10.00
2024-10-11 20:45:16.688,0.6975472,0.67602754,0.8533291,0.8618614,0.23704141,0.075718485,0.31659406,0.46340063,0.34745273,0.16957988,0.1316783,0.5813638,0.5219581,-0.056327976,0.36237964,0.38584235,0.070491,-0.5060905,0.027296202,-0.060878463,796.1905,799.81683,786.1172,797.8022,602.381,0.20294189453125,0.10894775390625,0.97509765625,-1.801910400390625,11.61895751953125,-3.1402587890625,1,1.0,1.0,1.0,1.0,10.00
2024-10-11 20:45:16.730,0.6975472,0.67602754,0.8533291,0.8618614,0.23704141,0.075718485,0.31659406,0.46340063,0.34745273,0.16957988,0.1316783,0.5813638,0.5219581,-0.056327976,0.36237964,0.38584235,0.070491,-0.5060905,0.027296202,-0.060878463,799.41394,797.3993,783.2967,803.8461,724.87177,0.185302734375,0.1065673828125,0.9755859375,-0.35888671875,10.3778076171875,-3.970184326171875,1,1.0,1.0,1.0,1.0,10.00
2024-10-11 20:45:16.731,0.6975472,0.67602754,0.8533291,0.8618614,0.23704141,0.075718485,0.31659406,0.46340063,0.34745273,0.16957988,0.1316783,0.5813638,0.5219581,-0.056327976,0.36237964,0.38584235,0.070491,-0.5060905,0.027296202,-0.060878463,800.2198,795.38464,788.1319,806.26373,932.381,0.185302734375,0.1065673828125,0.9755859375,-0.35888671875,10.3778076171875,-3.970184326171875,1,1.0,1.0,1.0,1.0,10.00
2024-10-11 20:45:16.732,0.6975472,0.67602754,0.8533291,0.8618614,0.23704141,0.075718485,0.31659406,0.46340063,0.34745273,0.16957988,0.1316783,0.5813638,0.5219581,-0.056327976,0.36237964,0.38584235,0.070491,-0.5060905,0.027296202,-0.060878463,806.6667,797.3993,797.3993,810.293,822.7839,0.185302734375,0.1065673828125,0.9755859375,-0.35888671875,10.3778076171875,-3.970184326171875,1,1.0,1.0,1.0,1.0,10.00
2024-10-11 20:45:16.733,0.6975472,0.67602754,0.8533291,0.8618614,0.23704141,0.075718485,0.31659406,0.46340063,0.34745273,0.16957988,0.1316783,0.5813638,0.5219581,-0.056327976,0.36237964,0.38584235,0.070491,-0.5060905,0.027296202,-0.060878463,807.8755,799.81683,802.23444,803.8461,641.4652,0.185302734375,0.1065673828125,0.9755859375,-0.35888671875,10.3778076171875,-3.970184326171875,1,1.0,1.0,1.0,1.0,10.00
2024-10-11 20:45:16.733,0.6975472,0.67602754,0.8533291,0.8618614,0.23704141,0.075718485,0.31659406,0.46340063,0.34745273,0.16957988,0.1316783,0.5813638,0.5219581,-0.056327976,0.36237964,0.38584235,0.070491,-0.5060905,0.027296202,-0.060878463,805.05493,798.60803,799.81683,804.65204,749.85345,0.185302734375,0.1065673828125,0.9755859375,-0.35888671875,10.3778076171875,-3.970184326171875,1,1.0,1.0,1.0,1.0,10.00
2024-10-11 20:45:16.734,0.6975472,0.67602754,0.8533291,0.8618614,0.23704141,0.075718485,0.31659406,0.46340063,0.34745273,0.16957988,0.1316783,0.5813638,0.5219581,-0.056327976,0.36237964,0.38584235,0.070491,-0.5060905,0.027296202,-0.060878463,807.8755,794.9817,794.57874,808.68134,985.56775,0.185302734375,0.1065673828125,0.9755859375,-0.35888671875,10.3778076171875,-3.970184326171875,1,1.0,1.0,1.0,1.0,10.00
2024-10-11 20:45:16.734,0.6975472,0.67602754,0.8533291,0.8618614,0.23704141,0.075718485,0.31659406,0.46340063,0.34745273,0.16957988,0.1316783,0.5813638,0.5219581,-0.056327976,0.36237964,0.38584235,0.070491,-0.5060905,0.027296202,-0.060878463,807.47253,795.38464,796.5934,803.44324,879.19415,0.185302734375,0.1065673828125,0.9755859375,-0.35888671875,10.3778076171875,-3.970184326171875,1,1.0,1.0,1.0,1.0,10.00
2024-10-11 20:45:16,,,,,,,,,,,,,,,,,,,,,,,,,,,,,,,,,,,,,,/muse/elements/blink
2024-10-11 20:45:16.735,0.6975472,0.673501,0.8504592,0.8618614,0.23704141,0.10156936,0.27267796,0.46340063,0.34745273,0.16751114,0.18687065,0.5813638,0.5219581,-0.08914095,0.3698888,0.38584235,0.070491,-0.51097596,0.046415012,-0.060878463,801.02563,794.9817,798.60803,794.17584,713.1868,0.185302734375,0.1065673828125,0.9755859375,-0.35888671875,10.3778076171875,-3.970184326171875,1,1.0,1.0,1.0,1.0,10.00
2024-10-11 20:45:16.739,0.6975472,0.673501,0.8504592,0.8618614,0.23704141,0.10156936,0.27267796,0.46340063,0.34745273,0.16751114,0.18687065,0.5813638,0.5219581,-0.08914095,0.3698888,0.38584235,0.070491,-0.51097596,0.046415012,-0.060878463,797.8022,797.3993,792.5641,796.5934,785.7143,0.185302734375,0.1065673828125,0.9755859375,-0.35888671875,10.3778076171875,-3.970184326171875,1,1.0,1.0,1.0,1.0,10.00
2024-10-11 20:45:16.740,0.6975472,0.673501,0.8504592,0.8618614,0.23704141,0.10156936,0.27267796,0.46340063,0.34745273,0.16751114,0.18687065,0.5813638,0.5219581,-0.08914095,0.3698888,0.38584235,0.070491,-0.51097596,0.046415012,-0.060878463,804.65204,799.81683,782.0879,799.011,900.54944,0.185302734375,0.1065673828125,0.9755859375,-0.35888671875,10.3778076171875,-3.970184326171875,1,1.0,1.0,1.0,1.0,10.00
2024-10-11 20:45:16.741,0.6975472,0.673501,0.8504592,0.8618614,0.23704141,0.10156936,0.27267796,0.46340063,0.34745273,0.16751114,0.18687065,0.5813638,0.5219581,-0.08914095,0.3698888,0.38584235,0.070491,-0.51097596,0.046415012,-0.060878463,805.8608,803.44324,786.1172,788.1319,633.4066,0.185302734375,0.1065673828125,0.9755859375,-0.35888671875,10.3778076171875,-3.970184326171875,1,1.0,1.0,1.0,1.0,10.00
2024-10-11 20:45:16.741,0.6975472,0.673501,0.8504592,0.8618614,0.23704141,0.10156936,0.27267796,0.46340063,0.34745273,0.16751114,0.18687065,0.5813638,0.5219581,-0.08914095,0.3698888,0.38584235,0.070491,-0.51097596,0.046415012,-0.060878463,796.1905,803.0403,799.011,787.326,548.3883,0.185302734375,0.1065673828125,0.9755859375,-0.35888671875,10.3778076171875,-3.970184326171875,1,1.0,1.0,1.0,1.0,10.00
2024-10-11 20:45:16.765,0.6975472,0.673501,0.8504592,0.8618614,0.23704141,0.10156936,0.27267796,0.46340063,0.34745273,0.16751114,0.18687065,0.5813638,0.5219581,-0.08914095,0.3698888,0.38584235,0.070491,-0.51097596,0.046415012,-0.060878463,799.81683,799.011,793.7729,789.7436,711.5751,0.185302734375,0.1065673828125,0.9755859375,-0.35888671875,10.3778076171875,-3.970184326171875,1,1.0,1.0,1.0,1.0,10.00
2024-10-11 20:45:16.766,0.6975472,0.673501,0.8504592,0.8618614,0.23704141,0.10156936,0.27267796,0.46340063,0.34745273,0.16751114,0.18687065,0.5813638,0.5219581,-0.08914095,0.3698888,0.38584235,0.070491,-0.51097596,0.046415012,-0.060878463,805.05493,795.38464,796.99634,788.93774,767.1795,0.185302734375,0.1065673828125,0.9755859375,-0.35888671875,10.3778076171875,-3.970184326171875,1,1.0,1.0,1.0,1.0,10.00
2024-10-11 20:45:16.767,0.6975472,0.673501,0.8504592,0.8618614,0.23704141,0.10156936,0.27267796,0.46340063,0.34745273,0.16751114,0.18687065,0.5813638,0.5219581,-0.08914095,0.3698888,0.38584235,0.070491,-0.51097596,0.046415012,-0.060878463,799.011,793.7729,802.23444,792.5641,627.76556,0.185302734375,0.1065673828125,0.9755859375,-0.35888671875,10.3778076171875,-3.970184326171875,1,1.0,1.0,1.0,1.0,10.00
2024-10-11 20:45:16.768,0.6975472,0.673501,0.8504592,0.8618614,0.23704141,0.10156936,0.27267796,0.46340063,0.34745273,0.16751114,0.18687065,0.5813638,0.5219581,-0.08914095,0.3698888,0.38584235,0.070491,-0.51097596,0.046415012,-0.060878463,799.41394,794.17584,805.4579,790.54944,518.97437,0.185302734375,0.1065673828125,0.9755859375,-0.35888671875,10.3778076171875,-3.970184326171875,1,1.0,1.0,1.0,1.0,10.00
2024-10-11 20:45:16.769,0.6975472,0.673501,0.8504592,0.8618614,0.23704141,0.10156936,0.27267796,0.46340063,0.34745273,0.16751114,0.18687065,0.5813638,0.5219581,-0.08914095,0.3698888,0.38584235,0.070491,-0.51097596,0.046415012,-0.060878463,804.2491,791.75824,805.8608,795.78754,871.9414,0.185302734375,0.1065673828125,0.9755859375,-0.35888671875,10.3778076171875,-3.970184326171875,1,1.0,1.0,1.0,1.0,10.00
2024-10-11 20:45:16.769,0.6975472,0.673501,0.8504592,0.8618614,0.23704141,0.10156936,0.27267796,0.46340063,0.34745273,0.16751114,0.18687065,0.5813638,0.5219581,-0.08914095,0.3698888,0.38584235,0.070491,-0.51097596,0.046415012,-0.060878463,803.0403,795.78754,802.6374,804.65204,1287.7656,0.185302734375,0.1065673828125,0.9755859375,-0.35888671875,10.3778076171875,-3.970184326171875,1,1.0,1.0,1.0,1.0,10.00
2024-10-11 20:45:16.770,0.6975472,0.673501,0.8504592,0.8618614,0.23704141,0.10156936,0.27267796,0.46340063,0.34745273,0.16751114,0.18687065,0.5813638,0.5219581,-0.08914095,0.3698888,0.38584235,0.070491,-0.51097596,0.046415012,-0.060878463,795.78754,799.81683,803.8461,801.02563,1041.978,0.185302734375,0.1065673828125,0.9755859375,-0.35888671875,10.3778076171875,-3.970184326171875,1,1.0,1.0,1.0,1.0,10.00
2024-10-11 20:45:16.771,0.6975472,0.673501,0.8504592,0.8618614,0.23704141,0.10156936,0.27267796,0.46340063,0.34745273,0.16751114,0.18687065,0.5813638,0.5219581,-0.08914095,0.3698888,0.38584235,0.070491,-0.51097596,0.046415012,-0.060878463,794.57874,794.9817,801.02563,806.6667,729.707,0.185302734375,0.1065673828125,0.9755859375,-0.35888671875,10.3778076171875,-3.970184326171875,1,1.0,1.0,1.0,1.0,10.00
2024-10-11 20:45:16.772,0.6975472,0.673501,0.8504592,0.8618614,0.23704141,0.10156936,0.27267796,0.46340063,0.34745273,0.16751114,0.18687065,0.5813638,0.5219581,-0.08914095,0.3698888,0.38584235,0.070491,-0.51097596,0.046415012,-0.060878463,794.9817,792.1612,798.20514,811.50183,667.6557,0.185302734375,0.1065673828125,0.9755859375,-0.35888671875,10.3778076171875,-3.970184326171875,1,1.0,1.0,1.0,1.0,10.00
2024-10-11 20:45:16.775,0.6975472,0.673501,0.8504592,0.8618614,0.23704141,0.10156936,0.27267796,0.46340063,0.34745273,0.16751114,0.18687065,0.5813638,0.5219581,-0.08914095,0.3698888,0.38584235,0.070491,-0.51097596,0.046415012,-0.060878463,792.96704,794.17584,786.52014,810.293,640.65936,0.185302734375,0.1065673828125,0.9755859375,-0.35888671875,10.3778076171875,-3.970184326171875,1,1.0,1.0,1.0,1.0,10.00
2024-10-11 20:45:16.776,0.6975472,0.673501,0.8504592,0.8618614,0.23704141,0.10156936,0.27267796,0.46340063,0.34745273,0.16751114,0.18687065,0.5813638,0.5219581,-0.08914095,0.3698888,0.38584235,0.070491,-0.51097596,0.046415012,-0.060878463,799.41394,797.3993,791.3553,803.44324,667.6557,0.185302734375,0.1065673828125,0.9755859375,-0.35888671875,10.3778076171875,-3.970184326171875,1,1.0,1.0,1.0,1.0,10.00
2024-10-11 20:45:16.777,0.6975472,0.673501,0.8504592,0.8618614,0.23704141,0.10156936,0.27267796,0.46340063,0.34745273,0.16751114,0.18687065,0.5813638,0.5219581,-0.08914095,0.3698888,0.38584235,0.070491,-0.51097596,0.046415012,-0.060878463,804.65204,794.57874,806.26373,795.78754,689.81683,0.185302734375,0.1065673828125,0.9755859375,-0.35888671875,10.3778076171875,-3.970184326171875,1,1.0,1.0,1.0,1.0,10.00
2024-10-11 20:45:16.830,0.6975472,0.673501,0.8504592,0.8618614,0.23704141,0.10156936,0.27267796,0.46340063,0.34745273,0.16751114,0.18687065,0.5813638,0.5219581,-0.08914095,0.3698888,0.38584235,0.070491,-0.51097596,0.046415012,-0.060878463,802.6374,792.5641,801.02563,798.60803,749.85345,0.183349609375,0.11383056640625,0.98016357421875,0.979461669921875,9.532928466796875,-4.80010986328125,1,1.0,1.0,1.0,1.0,10.00
2024-10-11 20:45:16.831,0.6975472,0.673501,0.8504592,0.8618614,0.23704141,0.10156936,0.27267796,0.46340063,0.34745273,0.16751114,0.18687065,0.5813638,0.5219581,-0.08914095,0.3698888,0.38584235,0.070491,-0.51097596,0.046415012,-0.060878463,806.6667,795.78754,798.20514,801.8315,733.73627,0.183349609375,0.11383056640625,0.98016357421875,0.979461669921875,9.532928466796875,-4.80010986328125,1,1.0,1.0,1.0,1.0,10.00
2024-10-11 20:45:16.832,0.6975472,0.673501,0.8504592,0.8618614,0.23704141,0.10156936,0.27267796,0.46340063,0.34745273,0.16751114,0.18687065,0.5813638,0.5219581,-0.08914095,0.3698888,0.38584235,0.070491,-0.51097596,0.046415012,-0.060878463,805.4579,796.99634,802.23444,802.23444,666.8498,0.183349609375,0.11383056640625,0.98016357421875,0.979461669921875,9.532928466796875,-4.80010986328125,1,1.0,1.0,1.0,1.0,10.00
2024-10-11 20:45:16.833,0.6975472,0.673501,0.8504592,0.8618614,0.23704141,0.10156936,0.27267796,0.46340063,0.34745273,0.16751114,0.18687065,0.5813638,0.5219581,-0.08914095,0.3698888,0.38584235,0.070491,-0.51097596,0.046415012,-0.060878463,809.0842,797.8022,803.44324,802.23444,755.4945,0.183349609375,0.11383056640625,0.98016357421875,0.979461669921875,9.532928466796875,-4.80010986328125,1,1.0,1.0,1.0,1.0,10.00
2024-10-11 20:45:16.833,0.6975472,0.673501,0.8504592,0.8618614,0.23704141,0.10156936,0.27267796,0.46340063,0.34745273,0.16751114,0.18687065,0.5813638,0.5219581,-0.08914095,0.3698888,0.38584235,0.070491,-0.51097596,0.046415012,-0.060878463,807.0696,796.5934,798.20514,802.6374,819.15753,0.183349609375,0.11383056640625,0.98016357421875,0.979461669921875,9.532928466796875,-4.80010986328125,1,1.0,1.0,1.0,1.0,10.00
2024-10-11 20:45:16.834,0.6975472,0.673501,0.8504592,0.8618614,0.23704141,0.10156936,0.27267796,0.46340063,0.34745273,0.16751114,0.18687065,0.5813638,0.5219581,-0.08914095,0.3698888,0.38584235,0.070491,-0.51097596,0.046415012,-0.060878463,804.65204,794.57874,792.1612,807.47253,799.81683,0.183349609375,0.11383056640625,0.98016357421875,0.979461669921875,9.532928466796875,-4.80010986328125,1,1.0,1.0,1.0,1.0,10.00
2024-10-11 20:45:16.834,0.6975472,0.673501,0.8504592,0.8618614,0.23704141,0.10156936,0.27267796,0.46340063,0.34745273,0.16751114,0.18687065,0.5813638,0.5219581,-0.08914095,0.3698888,0.38584235,0.070491,-0.51097596,0.046415012,-0.060878463,816.337,796.1905,784.10254,809.89014,765.9707,0.183349609375,0.11383056640625,0.98016357421875,0.979461669921875,9.532928466796875,-4.80010986328125,1,1.0,1.0,1.0,1.0,10.00
2024-10-11 20:45:16.835,0.6975472,0.673501,0.8504592,0.8618614,0.23704141,0.10156936,0.27267796,0.46340063,0.34745273,0.16751114,0.18687065,0.5813638,0.5219581,-0.08914095,0.3698888,0.38584235,0.070491,-0.51097596,0.046415012,-0.060878463,801.02563,792.1612,788.1319,803.0403,878.3883,0.183349609375,0.11383056640625,0.98016357421875,0.979461669921875,9.532928466796875,-4.80010986328125,1,1.0,1.0,1.0,1.0,10.00
2024-10-11 20:45:16.835,0.6975472,0.673501,0.8504592,0.8618614,0.23704141,0.10156936,0.27267796,0.46340063,0.34745273,0.16751114,0.18687065,0.5813638,0.5219581,-0.08914095,0.3698888,0.38584235,0.070491,-0.51097596,0.046415012,-0.060878463,796.99634,787.72894,804.2491,799.41394,933.5897,0.183349609375,0.11383056640625,0.98016357421875,0.979461669921875,9.532928466796875,-4.80010986328125,1,1.0,1.0,1.0,1.0,10.00
2024-10-11 20:45:16.836,0.6975472,0.67047924,0.89172095,0.8618614,0.23704141,0.13665333,0.2661419,0.46340063,0.34745273,0.16751114,0.29568163,0.5813638,0.5219581,-0.12553263,0.3882898,0.38584235,0.070491,-0.5154736,0.07926697,-0.060878463,800.6227,793.7729,809.89014,797.3993,663.22345,0.183349609375,0.11383056640625,0.98016357421875,0.979461669921875,9.532928466796875,-4.80010986328125,1,1.0,1.0,1.0,1.0,10.00
2024-10-11 20:45:16.840,0.6975472,0.67047924,0.89172095,0.8618614,0.23704141,0.13665333,0.2661419,0.46340063,0.34745273,0.16751114,0.29568163,0.5813638,0.5219581,-0.12553263,0.3882898,0.38584235,0.070491,-0.5154736,0.07926697,-0.060878463,804.65204,802.6374,809.89014,797.8022,562.0879,0.183349609375,0.11383056640625,0.98016357421875,0.979461669921875,9.532928466796875,-4.80010986328125,1,1.0,1.0,1.0,1.0,10.00
2024-10-11 20:45:16.840,0.6975472,0.67047924,0.89172095,0.8618614,0.23704141,0.13665333,0.2661419,0.46340063,0.34745273,0.16751114,0.29568163,0.5813638,0.5219581,-0.12553263,0.3882898,0.38584235,0.070491,-0.5154736,0.07926697,-0.060878463,806.6667,794.9817,809.89014,803.44324,761.53845,0.183349609375,0.11383056640625,0.98016357421875,0.979461669921875,9.532928466796875,-4.80010986328125,1,1.0,1.0,1.0,1.0,10.00
2024-10-11 20:45:16.937,0.6975472,0.67047924,0.89172095,0.8618614,0.23704141,0.13665333,0.2661419,0.46340063,0.34745273,0.16751114,0.29568163,0.5813638,0.5219581,-0.12553263,0.3882898,0.38584235,0.070491,-0.5154736,0.07926697,-0.060878463,813.91943,792.1612,807.0696,809.89014,792.5641,0.17071533203125,0.1231689453125,0.99102783203125,1.36077880859375,11.103057861328125,-2.75146484375,1,1.0,1.0,1.0,1.0,10.00
2024-10-11 20:45:16.938,0.6975472,0.67047924,0.89172095,0.8618614,0.23704141,0.13665333,0.2661419,0.46340063,0.34745273,0.16751114,0.29568163,0.5813638,0.5219581,-0.12553263,0.3882898,0.38584235,0.070491,-0.5154736,0.07926697,-0.060878463,819.5604,799.41394,804.2491,806.26373,529.0476,0.17071533203125,0.1231689453125,0.99102783203125,1.36077880859375,11.103057861328125,-2.75146484375,1,1.0,1.0,1.0,1.0,10.00
2024-10-11 20:45:16.939,0.6975472,0.67047924,0.89172095,0.8618614,0.23704141,0.13665333,0.2661419,0.46340063,0.34745273,0.16751114,0.29568163,0.5813638,0.5219581,-0.12553263,0.3882898,0.38584235,0.070491,-0.5154736,0.07926697,-0.060878463,806.26373,797.8022,803.8461,808.68134,554.83514,0.17071533203125,0.1231689453125,0.99102783203125,1.36077880859375,11.103057861328125,-2.75146484375,1,1.0,1.0,1.0,1.0,10.00
2024-10-11 20:45:16.940,0.6975472,0.67047924,0.89172095,0.8618614,0.23704141,0.13665333,0.2661419,0.46340063,0.34745273,0.16751114,0.29568163,0.5813638,0.5219581,-0.12553263,0.3882898,0.38584235,0.070491,-0.5154736,0.07926697,-0.060878463,800.2198,796.99634,800.2198,816.337,751.06226,0.17071533203125,0.1231689453125,0.99102783203125,1.36077880859375,11.103057861328125,-2.75146484375,1,1.0,1.0,1.0,1.0,10.00
2024-10-11 20:45:16.940,0.6975472,0.67047924,0.89172095,0.8618614,0.23704141,0.13665333,0.2661419,0.46340063,0.34745273,0.16751114,0.29568163,0.5813638,0.5219581,-0.12553263,0.3882898,0.38584235,0.070491,-0.5154736,0.07926697,-0.060878463,800.6227,795.78754,802.23444,813.1135,791.75824,0.17071533203125,0.1231689453125,0.99102783203125,1.36077880859375,11.103057861328125,-2.75146484375,1,1.0,1.0,1.0,1.0,10.00
2024-10-11 20:45:16.941,0.6975472,0.67047924,0.89172095,0.8618614,0.23704141,0.13665333,0.2661419,0.46340063,0.34745273,0.16751114,0.29568163,0.5813638,0.5219581,-0.12553263,0.3882898,0.38584235,0.070491,-0.5154736,0.07926697,-0.060878463,799.011,799.41394,806.26373,809.4872,713.9927,0.17071533203125,0.1231689453125,0.99102783203125,1.36077880859375,11.103057861328125,-2.75146484375,1,1.0,1.0,1.0,1.0,10.00
2024-10-11 20:45:16.942,0.6975472,0.67047924,0.89172095,0.8618614,0.23704141,0.13665333,0.2661419,0.46340063,0.34745273,0.16751114,0.29568163,0.5813638,0.5219581,-0.12553263,0.3882898,0.38584235,0.070491,-0.5154736,0.07926697,-0.060878463,802.23444,803.0403,798.20514,805.05493,722.4542,0.17071533203125,0.1231689453125,0.99102783203125,1.36077880859375,11.103057861328125,-2.75146484375,1,1.0,1.0,1.0,1.0,10.00
2024-10-11 20:45:16.942,0.6975472,0.67047924,0.89172095,0.8618614,0.23704141,0.13665333,0.2661419,0.46340063,0.34745273,0.16751114,0.29568163,0.5813638,0.5219581,-0.12553263,0.3882898,0.38584235,0.070491,-0.5154736,0.07926697,-0.060878463,808.68134,804.65204,803.44324,803.0403,881.6117,0.17071533203125,0.1231689453125,0.99102783203125,1.36077880859375,11.103057861328125,-2.75146484375,1,1.0,1.0,1.0,1.0,10.00
2024-10-11 20:45:16.943,0.6975472,0.67047924,0.89172095,0.8618614,0.23704141,0.13665333,0.2661419,0.46340063,0.34745273,0.16751114,0.29568163,0.5813638,0.5219581,-0.12553263,0.3882898,0.38584235,0.070491,-0.5154736,0.07926697,-0.060878463,805.05493,809.4872,819.15753,803.0403,748.24176,0.17071533203125,0.1231689453125,0.99102783203125,1.36077880859375,11.103057861328125,-2.75146484375,1,1.0,1.0,1.0,1.0,10.00
2024-10-11 20:45:16.944,0.6975472,0.67047924,0.89172095,0.8618614,0.23704141,0.13665333,0.2661419,0.46340063,0.34745273,0.16751114,0.29568163,0.5813638,0.5219581,-0.12553263,0.3882898,0.38584235,0.070491,-0.5154736,0.07926697,-0.060878463,806.26373,805.4579,813.91943,802.6374,562.8938,0.17071533203125,0.1231689453125,0.99102783203125,1.36077880859375,11.103057861328125,-2.75146484375,1,1.0,1.0,1.0,1.0,10.00
2024-10-11 20:45:16.944,0.6975472,0.67047924,0.89172095,0.8618614,0.23704141,0.13665333,0.2661419,0.46340063,0.34745273,0.16751114,0.29568163,0.5813638,0.5219581,-0.12553263,0.3882898,0.38584235,0.070491,-0.5154736,0.07926697,-0.060878463,818.7546,796.99634,804.2491,809.0842,746.63007,0.17071533203125,0.1231689453125,0.99102783203125,1.36077880859375,11.103057861328125,-2.75146484375,1,1.0,1.0,1.0,1.0,10.00
2024-10-11 20:45:16.945,0.6975472,0.67047924,0.89172095,0.8618614,0.23704141,0.13665333,0.2661419,0.46340063,0.34745273,0.16751114,0.29568163,0.5813638,0.5219581,-0.12553263,0.3882898,0.38584235,0.070491,-0.5154736,0.07926697,-0.060878463,820.3663,798.60803,801.4286,811.9048,847.3626,0.17071533203125,0.1231689453125,0.99102783203125,1.36077880859375,11.103057861328125,-2.75146484375,1,1.0,1.0,1.0,1.0,10.00
2024-10-11 20:45:16.947,0.6975472,0.67047924,0.89172095,0.8618614,0.23704141,0.13665333,0.2661419,0.46340063,0.34745273,0.16751114,0.29568163,0.5813638,0.5219581,-0.12553263,0.3882898,0.38584235,0.070491,-0.5154736,0.07926697,-0.060878463,807.47253,800.2198,791.3553,805.4579,792.5641,0.14404296875,0.12255859375,0.99420166015625,1.36077880859375,14.07135009765625,-0.777587890625,1,1.0,1.0,1.0,1.0,10.00
2024-10-11 20:45:16.948,0.6975472,0.67047924,0.89172095,0.8618614,0.23704141,0.13665333,0.2661419,0.46340063,0.34745273,0.16751114,0.29568163,0.5813638,0.5219581,-0.12553263,0.3882898,0.38584235,0.070491,-0.5154736,0.07926697,-0.060878463,803.8461,797.3993,782.8938,803.0403,734.94507,0.14404296875,0.12255859375,0.99420166015625,1.36077880859375,14.07135009765625,-0.777587890625,1,1.0,1.0,1.0,1.0,10.00
2024-10-11 20:45:16.948,0.6975472,0.67047924,0.89172095,0.8618614,0.23704141,0.13665333,0.2661419,0.46340063,0.34745273,0.16751114,0.29568163,0.5813638,0.5219581,-0.12553263,0.3882898,0.38584235,0.070491,-0.5154736,0.07926697,-0.060878463,796.5934,795.38464,796.5934,801.8315,856.2271,0.14404296875,0.12255859375,0.99420166015625,1.36077880859375,14.07135009765625,-0.777587890625,1,1.0,1.0,1.0,1.0,10.00
2024-10-11 20:45:16.949,0.6975472,0.67047924,0.89172095,0.8618614,0.23704141,0.13665333,0.2661419,0.46340063,0.34745273,0.16751114,0.29568163,0.5813638,0.5219581,-0.12553263,0.3882898,0.38584235,0.070491,-0.5154736,0.07926697,-0.060878463,794.17584,799.011,804.65204,806.26373,978.315,0.14404296875,0.12255859375,0.99420166015625,1.36077880859375,14.07135009765625,-0.777587890625,1,1.0,1.0,1.0,1.0,10.00
2024-10-11 20:45:16.950,0.6975472,0.67047924,0.89172095,0.8618614,0.23704141,0.13665333,0.2661419,0.46340063,0.34745273,0.16751114,0.29568163,0.5813638,0.5219581,-0.12553263,0.3882898,0.38584235,0.070491,-0.5154736,0.07926697,-0.060878463,811.50183,798.20514,805.05493,817.9487,782.0879,0.14404296875,0.12255859375,0.99420166015625,1.36077880859375,14.07135009765625,-0.777587890625,1,1.0,1.0,1.0,1.0,10.00
2024-10-11 20:45:16.951,0.6975472,0.67047924,0.89172095,0.8618614,0.23704141,0.13665333,0.2661419,0.46340063,0.34745273,0.16751114,0.29568163,0.5813638,0.5219581,-0.12553263,0.3882898,0.38584235,0.070491,-0.5154736,0.07926697,-0.060878463,812.3077,792.5641,813.5165,818.3516,773.22345,0.14404296875,0.12255859375,0.99420166015625,1.36077880859375,14.07135009765625,-0.777587890625,1,1.0,1.0,1.0,1.0,10.00
2024-10-11 20:45:16.952,0.6975472,0.67047924,0.89172095,0.8618614,0.23704141,0.13665333,0.2661419,0.46340063,0.34745273,0.16751114,0.29568163,0.5813638,0.5219581,-0.12553263,0.3882898,0.38584235,0.070491,-0.5154736,0.07926697,-0.060878463,786.52014,796.1905,804.65204,797.3993,913.0403,0.14404296875,0.12255859375,0.99420166015625,1.36077880859375,14.07135009765625,-0.777587890625,1,1.0,1.0,1.0,1.0,10.00
2024-10-11 20:45:16.953,0.6975472,0.67047924,0.89172095,0.8618614,0.23704141,0.13665333,0.2661419,0.46340063,0.34745273,0.16751114,0.29568163,0.5813638,0.5219581,-0.12553263,0.3882898,0.38584235,0.070491,-0.5154736,0.07926697,-0.060878463,779.2674,800.6227,796.5934,780.87915,842.1245,0.14404296875,0.12255859375,0.99420166015625,1.36077880859375,14.07135009765625,-0.777587890625,1,1.0,1.0,1.0,1.0,10.00
2024-10-11 20:45:16.953,0.6975472,0.67047924,0.89172095,0.8618614,0.23704141,0.13665333,0.2661419,0.46340063,0.34745273,0.16751114,0.29568163,0.5813638,0.5219581,-0.12553263,0.3882898,0.38584235,0.070491,-0.5154736,0.07926697,-0.060878463,786.9231,797.8022,788.93774,781.28204,625.7509,0.14404296875,0.12255859375,0.99420166015625,1.36077880859375,14.07135009765625,-0.777587890625,1,1.0,1.0,1.0,1.0,10.00
2024-10-11 20:45:16.954,0.6975472,0.67047924,0.89172095,0.8618614,0.23704141,0.13665333,0.2661419,0.46340063,0.34745273,0.16751114,0.29568163,0.5813638,0.5219581,-0.12553263,0.3882898,0.38584235,0.070491,-0.5154736,0.07926697,-0.060878463,772.01465,796.99634,796.1905,777.6557,579.011,0.14404296875,0.12255859375,0.99420166015625,1.36077880859375,14.07135009765625,-0.777587890625,1,1.0,1.0,1.0,1.0,10.00
2024-10-11 20:45:16.955,0.6975472,0.67047924,0.89172095,0.8618614,0.23704141,0.13665333,0.2661419,0.46340063,0.34745273,0.16751114,0.29568163,0.5813638,0.5219581,-0.12553263,0.3882898,0.38584235,0.070491,-0.5154736,0.07926697,-0.060878463,765.56775,796.1905,809.89014,770.80585,824.3956,0.14404296875,0.12255859375,0.99420166015625,1.36077880859375,14.07135009765625,-0.777587890625,1,1.0,1.0,1.0,1.0,10.00
2024-10-11 20:45:16.956,0.7405636,0.6645949,0.8872771,0.8745765,0.24088779,0.16259001,0.2389024,0.44425136,0.30412045,0.1657273,0.28633314,0.49738446,0.49659398,-0.1584182,0.39210227,0.38672268,0.07051376,-0.51929444,0.09491461,-0.07861739,771.6117,794.57874,801.4286,766.77655,939.2308,0.14404296875,0.12255859375,0.99420166015625,1.36077880859375,14.07135009765625,-0.777587890625,1,1.0,1.0,1.0,1.0,10.00
2024-10-11 20:45:16.962,0.7405636,0.6645949,0.8872771,0.8745765,0.24088779,0.16259001,0.2389024,0.44425136,0.30412045,0.1657273,0.28633314,0.49738446,0.49659398,-0.1584182,0.39210227,0.38672268,0.07051376,-0.51929444,0.09491461,-0.07861739,775.64105,801.02563,800.6227,767.98535,709.5604,0.1168212890625,0.12091064453125,0.9879150390625,1.00189208984375,16.650848388671875,-0.770111083984375,1,1.0,1.0,1.0,1.0,10.00
2024-10-11 20:45:16.963,0.7405636,0.6645949,0.8872771,0.8745765,0.24088779,0.16259001,0.2389024,0.44425136,0.30412045,0.1657273,0.28633314,0.49738446,0.49659398,-0.1584182,0.39210227,0.38672268,0.07051376,-0.51929444,0.09491461,-0.07861739,774.0293,804.65204,798.20514,774.0293,645.4945,0.1168212890625,0.12091064453125,0.9879150390625,1.00189208984375,16.650848388671875,-0.770111083984375,1,1.0,1.0,1.0,1.0,10.00
2024-10-11 20:45:16.964,0.7405636,0.6645949,0.8872771,0.8745765,0.24088779,0.16259001,0.2389024,0.44425136,0.30412045,0.1657273,0.28633314,0.49738446,0.49659398,-0.1584182,0.39210227,0.38672268,0.07051376,-0.51929444,0.09491461,-0.07861739,766.3736,796.99634,796.5934,778.86444,791.3553,0.1168212890625,0.12091064453125,0.9879150390625,1.00189208984375,16.650848388671875,-0.770111083984375,1,1.0,1.0,1.0,1.0,10.00
2024-10-11 20:45:16.965,0.7405636,0.6645949,0.8872771,0.8745765,0.24088779,0.16259001,0.2389024,0.44425136,0.30412045,0.1657273,0.28633314,0.49738446,0.49659398,-0.1584182,0.39210227,0.38672268,0.07051376,-0.51929444,0.09491461,-0.07861739,769.19415,795.38464,801.8315,776.04395,740.18317,0.1168212890625,0.12091064453125,0.9879150390625,1.00189208984375,16.650848388671875,-0.770111083984375,1,1.0,1.0,1.0,1.0,10.00
2024-10-11 20:45:16.965,0.7405636,0.6645949,0.8872771,0.8745765,0.24088779,0.16259001,0.2389024,0.44425136,0.30412045,0.1657273,0.28633314,0.49738446,0.49659398,-0.1584182,0.39210227,0.38672268,0.07051376,-0.51929444,0.09491461,-0.07861739,768.7912,796.5934,797.3993,773.6264,587.8755,0.1168212890625,0.12091064453125,0.9879150390625,1.00189208984375,16.650848388671875,-0.770111083984375,1,1.0,1.0,1.0,1.0,10.00
2024-10-11 20:45:16.966,0.7405636,0.6645949,0.8872771,0.8745765,0.24088779,0.16259001,0.2389024,0.44425136,0.30412045,0.1657273,0.28633314,0.49738446,0.49659398,-0.1584182,0.39210227,0.38672268,0.07051376,-0.51929444,0.09491461,-0.07861739,776.04395,792.96704,790.9524,780.07324,779.2674,0.1168212890625,0.12091064453125,0.9879150390625,1.00189208984375,16.650848388671875,-0.770111083984375,1,1.0,1.0,1.0,1.0,10.00
2024-10-11 20:45:16.967,0.7405636,0.6645949,0.8872771,0.8745765,0.24088779,0.16259001,0.2389024,0.44425136,0.30412045,0.1657273,0.28633314,0.49738446,0.49659398,-0.1584182,0.39210227,0.38672268,0.07051376,-0.51929444,0.09491461,-0.07861739,780.87915,798.60803,804.2491,782.49084,996.8498,0.1168212890625,0.12091064453125,0.9879150390625,1.00189208984375,16.650848388671875,-0.770111083984375,1,1.0,1.0,1.0,1.0,10.00
2024-10-11 20:45:16.968,0.7405636,0.6645949,0.8872771,0.8745765,0.24088779,0.16259001,0.2389024,0.44425136,0.30412045,0.1657273,0.28633314,0.49738446,0.49659398,-0.1584182,0.39210227,0.38672268,0.07051376,-0.51929444,0.09491461,-0.07861739,783.2967,803.8461,803.44324,784.90845,817.9487,0.1168212890625,0.12091064453125,0.9879150390625,1.00189208984375,16.650848388671875,-0.770111083984375,1,1.0,1.0,1.0,1.0,10.00
2024-10-11 20:45:16.969,0.7405636,0.6645949,0.8872771,0.8745765,0.24088779,0.16259001,0.2389024,0.44425136,0.30412045,0.1657273,0.28633314,0.49738446,0.49659398,-0.1584182,0.39210227,0.38672268,0.07051376,-0.51929444,0.09491461,-0.07861739,797.3993,802.6374,800.6227,796.1905,528.6447,0.1168212890625,0.12091064453125,0.9879150390625,1.00189208984375,16.650848388671875,-0.770111083984375,1,1.0,1.0,1.0,1.0,10.00
2024-10-11 20:45:16.970,0.7405636,0.6645949,0.8872771,0.8745765,0.24088779,0.16259001,0.2389024,0.44425136,0.30412045,0.1657273,0.28633314,0.49738446,0.49659398,-0.1584182,0.39210227,0.38672268,0.07051376,-0.51929444,0.09491461,-0.07861739,799.81683,803.44324,816.337,798.60803,645.89746,0.1168212890625,0.12091064453125,0.9879150390625,1.00189208984375,16.650848388671875,-0.770111083984375,1,1.0,1.0,1.0,1.0,10.00
2024-10-11 20:45:16.971,0.7405636,0.6645949,0.8872771,0.8745765,0.24088779,0.16259001,0.2389024,0.44425136,0.30412045,0.1657273,0.28633314,0.49738446,0.49659398,-0.1584182,0.39210227,0.38672268,0.07051376,-0.51929444,0.09491461,-0.07861739,797.3993,799.41394,810.696,794.9817,766.77655,0.1168212890625,0.12091064453125,0.9879150390625,1.00189208984375,16.650848388671875,-0.770111083984375,1,1.0,1.0,1.0,1.0,10.00
2024-10-11 20:45:16.971,0.7405636,0.6645949,0.8872771,0.8745765,0.24088779,0.16259001,0.2389024,0.44425136,0.30412045,0.1657273,0.28633314,0.49738446,0.49659398,-0.1584182,0.39210227,0.38672268,0.07051376,-0.51929444,0.09491461,-0.07861739,800.2198,798.60803,805.05493,796.5934,645.89746,0.1168212890625,0.12091064453125,0.9879150390625,1.00189208984375,16.650848388671875,-0.770111083984375,1,1.0,1.0,1.0,1.0,10.00
2024-10-11 20:45:17.003,0.7405636,0.6645949,0.8872771,0.8745765,0.24088779,0.16259001,0.2389024,0.44425136,0.30412045,0.1657273,0.28633314,0.49738446,0.49659398,-0.1584182,0.39210227,0.38672268,0.07051376,-0.51929444,0.09491461,-0.07861739,804.65204,798.60803,804.65204,800.2198,569.34064,0.1168212890625,0.12091064453125,0.9879150390625,1.00189208984375,16.650848388671875,-0.770111083984375,1,1.0,1.0,1.0,1.0,10.00
2024-10-11 20:45:17.004,0.7405636,0.6645949,0.8872771,0.8745765,0.24088779,0.16259001,0.2389024,0.44425136,0.30412045,0.1657273,0.28633314,0.49738446,0.49659398,-0.1584182,0.39210227,0.38672268,0.07051376,-0.51929444,0.09491461,-0.07861739,803.0403,794.17584,796.5934,804.2491,689.81683,0.1168212890625,0.12091064453125,0.9879150390625,1.00189208984375,16.650848388671875,-0.770111083984375,1,1.0,1.0,1.0,1.0,10.00
2024-10-11 20:45:17.005,0.7405636,0.6645949,0.8872771,0.8745765,0.24088779,0.16259001,0.2389024,0.44425136,0.30412045,0.1657273,0.28633314,0.49738446,0.49659398,-0.1584182,0.39210227,0.38672268,0.07051376,-0.51929444,0.09491461,-0.07861739,805.8608,794.9817,797.3993,815.12823,832.8571,0.1168212890625,0.12091064453125,0.9879150390625,1.00189208984375,16.650848388671875,-0.770111083984375,1,1.0,1.0,1.0,1.0,10.00
2024-10-11 20:45:17.006,0.7405636,0.6645949,0.8872771,0.8745765,0.24088779,0.16259001,0.2389024,0.44425136,0.30412045,0.1657273,0.28633314,0.49738446,0.49659398,-0.1584182,0.39210227,0.38672268,0.07051376,-0.51929444,0.09491461,-0.07861739,809.0842,799.011,797.8022,811.0989,818.7546,0.1168212890625,0.12091064453125,0.9879150390625,1.00189208984375,16.650848388671875,-0.770111083984375,1,1.0,1.0,1.0,1.0,10.00
2024-10-11 20:45:17.006,0.7405636,0.6645949,0.8872771,0.8745765,0.24088779,0.16259001,0.2389024,0.44425136,0.30412045,0.1657273,0.28633314,0.49738446,0.49659398,-0.1584182,0.39210227,0.38672268,0.07051376,-0.51929444,0.09491461,-0.07861739,804.2491,801.8315,791.3553,804.2491,687.8022,0.1168212890625,0.12091064453125,0.9879150390625,1.00189208984375,16.650848388671875,-0.770111083984375,1,1.0,1.0,1.0,1.0,10.00
2024-10-11 20:45:17.007,0.7405636,0.6645949,0.8872771,0.8745765,0.24088779,0.16259001,0.2389024,0.44425136,0.30412045,0.1657273,0.28633314,0.49738446,0.49659398,-0.1584182,0.39210227,0.38672268,0.07051376,-0.51929444,0.09491461,-0.07861739,799.41394,799.81683,803.44324,804.65204,795.78754,0.1168212890625,0.12091064453125,0.9879150390625,1.00189208984375,16.650848388671875,-0.770111083984375,1,1.0,1.0,1.0,1.0,10.00
2024-10-11 20:45:17.008,0.7405636,0.6645949,0.8872771,0.8745765,0.24088779,0.16259001,0.2389024,0.44425136,0.30412045,0.1657273,0.28633314,0.49738446,0.49659398,-0.1584182,0.39210227,0.38672268,0.07051376,-0.51929444,0.09491461,-0.07861739,794.57874,792.96704,814.3223,807.47253,1012.96704,0.1168212890625,0.12091064453125,0.9879150390625,1.00189208984375,16.650848388671875,-0.770111083984375,1,1.0,1.0,1.0,1.0,10.00
2024-10-11 20:45:17.008,0.7405636,0.6645949,0.8872771,0.8745765,0.24088779,0.16259001,0.2389024,0.44425136,0.30412045,0.1657273,0.28633314,0.49738446,0.49659398,-0.1584182,0.39210227,0.38672268,0.07051376,-0.51929444,0.09491461,-0.07861739,792.1612,791.3553,814.3223,805.05493,872.74725,0.1168212890625,0.12091064453125,0.9879150390625,1.00189208984375,16.650848388671875,-0.770111083984375,1,1.0,1.0,1.0,1.0,10.00
2024-10-11 20:45:17.009,0.7405636,0.6645949,0.8872771,0.8745765,0.24088779,0.16259001,0.2389024,0.44425136,0.30412045,0.1657273,0.28633314,0.49738446,0.49659398,-0.1584182,0.39210227,0.38672268,0.07051376,-0.51929444,0.09491461,-0.07861739,786.1172,793.36993,811.9048,801.4286,672.8938,0.1168212890625,0.12091064453125,0.9879150390625,1.00189208984375,16.650848388671875,-0.770111083984375,1,1.0,1.0,1.0,1.0,10.00
2024-10-11 20:45:17.010,0.7405636,0.6645949,0.8872771,0.8745765,0.24088779,0.16259001,0.2389024,0.44425136,0.30412045,0.1657273,0.28633314,0.49738446,0.49659398,-0.1584182,0.39210227,0.38672268,0.07051376,-0.51929444,0.09491461,-0.07861739,793.7729,796.1905,805.8608,810.696,867.1062,0.1168212890625,0.12091064453125,0.9879150390625,1.00189208984375,16.650848388671875,-0.770111083984375,1,1.0,1.0,1.0,1.0,10.00
2024-10-11 20:45:17.010,0.7405636,0.6645949,0.8872771,0.8745765,0.24088779,0.16259001,0.2389024,0.44425136,0.30412045,0.1657273,0.28633314,0.49738446,0.49659398,-0.1584182,0.39210227,0.38672268,0.07051376,-0.51929444,0.09491461,-0.07861739,803.8461,798.20514,803.44324,811.50183,1017.8022,0.1168212890625,0.12091064453125,0.9879150390625,1.00189208984375,16.650848388671875,-0.770111083984375,1,1.0,1.0,1.0,1.0,10.00
2024-10-11 20:45:17.011,0.7405636,0.6645949,0.8872771,0.8745765,0.24088779,0.16259001,0.2389024,0.44425136,0.30412045,0.1657273,0.28633314,0.49738446,0.49659398,-0.1584182,0.39210227,0.38672268,0.07051376,-0.51929444,0.09491461,-0.07861739,802.6374,799.41394,801.02563,804.65204,699.4872,0.1168212890625,0.12091064453125,0.9879150390625,1.00189208984375,16.650848388671875,-0.770111083984375,1,1.0,1.0,1.0,1.0,10.00
2024-10-11 20:45:17.012,0.7405636,0.6645949,0.8872771,0.8745765,0.24088779,0.16259001,0.2389024,0.44425136,0.30412045,0.1657273,0.28633314,0.49738446,0.49659398,-0.1584182,0.39210227,0.38672268,0.07051376,-0.51929444,0.09491461,-0.07861739,807.0696,799.011,794.17584,800.6227,486.337,0.094482421875,0.12188720703125,0.99322509765625,0.889739990234375,17.10693359375,-0.545806884765625,1,1.0,1.0,1.0,1.0,10.00
2024-10-11 20:45:17.013,0.79119736,0.6514422,0.8822349,0.8805984,0.2555215,0.1586241,0.21816964,0.40524274,0.25038853,0.15782692,0.28633314,0.45291385,0.4830945,-0.18491206,0.4002104,0.38507232,0.08118154,-0.522025,0.115932174,-0.08969333,801.02563,794.57874,791.3553,801.4286,626.1539,0.094482421875,0.12188720703125,0.99322509765625,0.889739990234375,17.10693359375,-0.545806884765625,1,1.0,1.0,1.0,1.0,10.00
2024-10-11 20:45:17.020,0.79119736,0.6514422,0.8822349,0.8805984,0.2555215,0.1586241,0.21816964,0.40524274,0.25038853,0.15782692,0.28633314,0.45291385,0.4830945,-0.18491206,0.4002104,0.38507232,0.08118154,-0.522025,0.115932174,-0.08969333,793.36993,795.78754,792.5641,800.6227,695.4579,0.094482421875,0.12188720703125,0.99322509765625,0.889739990234375,17.10693359375,-0.545806884765625,1,1.0,1.0,1.0,1.0,10.00
2024-10-11 20:45:17.020,0.79119736,0.6514422,0.8822349,0.8805984,0.2555215,0.1586241,0.21816964,0.40524274,0.25038853,0.15782692,0.28633314,0.45291385,0.4830945,-0.18491206,0.4002104,0.38507232,0.08118154,-0.522025,0.115932174,-0.08969333,804.65204,798.60803,796.99634,800.2198,539.5238,0.094482421875,0.12188720703125,0.99322509765625,0.889739990234375,17.10693359375,-0.545806884765625,1,1.0,1.0,1.0,1.0,10.00
2024-10-11 20:45:17.021,0.79119736,0.6514422,0.8822349,0.8805984,0.2555215,0.1586241,0.21816964,0.40524274,0.25038853,0.15782692,0.28633314,0.45291385,0.4830945,-0.18491206,0.4002104,0.38507232,0.08118154,-0.522025,0.115932174,-0.08969333,809.89014,794.57874,809.4872,804.65204,574.17584,0.094482421875,0.12188720703125,0.99322509765625,0.889739990234375,17.10693359375,-0.545806884765625,1,1.0,1.0,1.0,1.0,10.00
2024-10-11 20:45:17.022,0.79119736,0.6514422,0.8822349,0.8805984,0.2555215,0.1586241,0.21816964,0.40524274,0.25038853,0.15782692,0.28633314,0.45291385,0.4830945,-0.18491206,0.4002104,0.38507232,0.08118154,-0.522025,0.115932174,-0.08969333,807.47253,793.7729,808.68134,808.68134,856.63007,0.094482421875,0.12188720703125,0.99322509765625,0.889739990234375,17.10693359375,-0.545806884765625,1,1.0,1.0,1.0,1.0,10.00
2024-10-11 20:45:17.023,0.79119736,0.6514422,0.8822349,0.8805984,0.2555215,0.1586241,0.21816964,0.40524274,0.25038853,0.15782692,0.28633314,0.45291385,0.4830945,-0.18491206,0.4002104,0.38507232,0.08118154,-0.522025,0.115932174,-0.08969333,806.26373,794.9817,807.47253,807.47253,874.7619,0.094482421875,0.12188720703125,0.99322509765625,0.889739990234375,17.10693359375,-0.545806884765625,1,1.0,1.0,1.0,1.0,10.00
2024-10-11 20:45:17.023,0.79119736,0.6514422,0.8822349,0.8805984,0.2555215,0.1586241,0.21816964,0.40524274,0.25038853,0.15782692,0.28633314,0.45291385,0.4830945,-0.18491206,0.4002104,0.38507232,0.08118154,-0.522025,0.115932174,-0.08969333,803.8461,798.20514,813.1135,804.2491,746.63007,0.094482421875,0.12188720703125,0.99322509765625,0.889739990234375,17.10693359375,-0.545806884765625,1,1.0,1.0,1.0,1.0,10.00
2024-10-11 20:45:17.024,0.79119736,0.6514422,0.8822349,0.8805984,0.2555215,0.1586241,0.21816964,0.40524274,0.25038853,0.15782692,0.28633314,0.45291385,0.4830945,-0.18491206,0.4002104,0.38507232,0.08118154,-0.522025,0.115932174,-0.08969333,798.20514,799.81683,807.8755,801.8315,676.1172,0.094482421875,0.12188720703125,0.99322509765625,0.889739990234375,17.10693359375,-0.545806884765625,1,1.0,1.0,1.0,1.0,10.00
2024-10-11 20:45:17.025,0.79119736,0.6514422,0.8822349,0.8805984,0.2555215,0.1586241,0.21816964,0.40524274,0.25038853,0.15782692,0.28633314,0.45291385,0.4830945,-0.18491206,0.4002104,0.38507232,0.08118154,-0.522025,0.115932174,-0.08969333,799.41394,799.011,802.6374,799.81683,618.49817,0.094482421875,0.12188720703125,0.99322509765625,0.889739990234375,17.10693359375,-0.545806884765625,1,1.0,1.0,1.0,1.0,10.00
2024-10-11 20:45:17.025,0.79119736,0.6514422,0.8822349,0.8805984,0.2555215,0.1586241,0.21816964,0.40524274,0.25038853,0.15782692,0.28633314,0.45291385,0.4830945,-0.18491206,0.4002104,0.38507232,0.08118154,-0.522025,0.115932174,-0.08969333,799.81683,800.2198,806.6667,806.6667,562.49084,0.094482421875,0.12188720703125,0.99322509765625,0.889739990234375,17.10693359375,-0.545806884765625,1,1.0,1.0,1.0,1.0,10.00
2024-10-11 20:45:17.026,0.79119736,0.6514422,0.8822349,0.8805984,0.2555215,0.1586241,0.21816964,0.40524274,0.25038853,0.15782692,0.28633314,0.45291385,0.4830945,-0.18491206,0.4002104,0.38507232,0.08118154,-0.522025,0.115932174,-0.08969333,794.57874,802.23444,804.2491,807.47253,532.674,0.094482421875,0.12188720703125,0.99322509765625,0.889739990234375,17.10693359375,-0.545806884765625,1,1.0,1.0,1.0,1.0,10.00
2024-10-11 20:45:17.027,0.79119736,0.6514422,0.8822349,0.8805984,0.2555215,0.1586241,0.21816964,0.40524274,0.25038853,0.15782692,0.28633314,0.45291385,0.4830945,-0.18491206,0.4002104,0.38507232,0.08118154,-0.522025,0.115932174,-0.08969333,797.3993,801.4286,803.0403,810.696,713.5897,0.0648193359375,0.12481689453125,0.99578857421875,0.478515625,17.92938232421875,0.31402587890625,1,1.0,1.0,1.0,1.0,10.00
2024-10-11 20:45:17.028,0.79119736,0.6514422,0.8822349,0.8805984,0.2555215,0.1586241,0.21816964,0.40524274,0.25038853,0.15782692,0.28633314,0.45291385,0.4830945,-0.18491206,0.4002104,0.38507232,0.08118154,-0.522025,0.115932174,-0.08969333,801.4286,796.99634,811.50183,813.1135,840.5128,0.0648193359375,0.12481689453125,0.99578857421875,0.478515625,17.92938232421875,0.31402587890625,1,1.0,1.0,1.0,1.0,10.00
2024-10-11 20:45:17.028,0.79119736,0.6514422,0.8822349,0.8805984,0.2555215,0.1586241,0.21816964,0.40524274,0.25038853,0.15782692,0.28633314,0.45291385,0.4830945,-0.18491206,0.4002104,0.38507232,0.08118154,-0.522025,0.115932174,-0.08969333,805.8608,797.3993,792.96704,809.0842,738.1685,0.0648193359375,0.12481689453125,0.99578857421875,0.478515625,17.92938232421875,0.31402587890625,1,1.0,1.0,1.0,1.0,10.00
2024-10-11 20:45:17.029,0.79119736,0.6514422,0.8822349,0.8805984,0.2555215,0.1586241,0.21816964,0.40524274,0.25038853,0.15782692,0.28633314,0.45291385,0.4830945,-0.18491206,0.4002104,0.38507232,0.08118154,-0.522025,0.115932174,-0.08969333,812.3077,798.60803,790.14655,808.2784,670.07324,0.0648193359375,0.12481689453125,0.99578857421875,0.478515625,17.92938232421875,0.31402587890625,1,1.0,1.0,1.0,1.0,10.00
2024-10-11 20:45:17.030,0.79119736,0.6514422,0.8822349,0.8805984,0.2555215,0.1586241,0.21816964,0.40524274,0.25038853,0.15782692,0.28633314,0.45291385,0.4830945,-0.18491206,0.4002104,0.38507232,0.08118154,-0.522025,0.115932174,-0.08969333,811.0989,793.36993,806.26373,809.89014,776.8498,0.0648193359375,0.12481689453125,0.99578857421875,0.478515625,17.92938232421875,0.31402587890625,1,1.0,1.0,1.0,1.0,10.00
2024-10-11 20:45:17.031,0.79119736,0.6514422,0.8822349,0.8805984,0.2555215,0.1586241,0.21816964,0.40524274,0.25038853,0.15782692,0.28633314,0.45291385,0.4830945,-0.18491206,0.4002104,0.38507232,0.08118154,-0.522025,0.115932174,-0.08969333,810.293,791.75824,803.8461,811.50183,863.47986,0.0648193359375,0.12481689453125,0.99578857421875,0.478515625,17.92938232421875,0.31402587890625,1,1.0,1.0,1.0,1.0,10.00
2024-10-11 20:45:17.032,0.79119736,0.6514422,0.8822349,0.8805984,0.2555215,0.1586241,0.21816964,0.40524274,0.25038853,0.15782692,0.28633314,0.45291385,0.4830945,-0.18491206,0.4002104,0.38507232,0.08118154,-0.522025,0.115932174,-0.08969333,802.23444,792.5641,796.99634,803.8461,791.3553,0.0648193359375,0.12481689453125,0.99578857421875,0.478515625,17.92938232421875,0.31402587890625,1,1.0,1.0,1.0,1.0,10.00
2024-10-11 20:45:17.032,0.79119736,0.6514422,0.8822349,0.8805984,0.2555215,0.1586241,0.21816964,0.40524274,0.25038853,0.15782692,0.28633314,0.45291385,0.4830945,-0.18491206,0.4002104,0.38507232,0.08118154,-0.522025,0.115932174,-0.08969333,804.2491,793.36993,789.7436,805.05493,709.9634,0.0648193359375,0.12481689453125,0.99578857421875,0.478515625,17.92938232421875,0.31402587890625,1,1.0,1.0,1.0,1.0,10.00
2024-10-11 20:45:17.033,0.79119736,0.6514422,0.8822349,0.8805984,0.2555215,0.1586241,0.21816964,0.40524274,0.25038853,0.15782692,0.28633314,0.45291385,0.4830945,-0.18491206,0.4002104,0.38507232,0.08118154,-0.522025,0.115932174,-0.08969333,801.8315,792.1612,795.78754,802.23444,839.304,0.0648193359375,0.12481689453125,0.99578857421875,0.478515625,17.92938232421875,0.31402587890625,1,1.0,1.0,1.0,1.0,10.00
2024-10-11 20:45:17.034,0.79119736,0.6514422,0.8822349,0.8805984,0.2555215,0.1586241,0.21816964,0.40524274,0.25038853,0.15782692,0.28633314,0.45291385,0.4830945,-0.18491206,0.4002104,0.38507232,0.08118154,-0.522025,0.115932174,-0.08969333,788.1319,792.96704,805.4579,802.23444,905.78754,0.0648193359375,0.12481689453125,0.99578857421875,0.478515625,17.92938232421875,0.31402587890625,1,1.0,1.0,1.0,1.0,10.00
2024-10-11 20:45:17.035,0.79119736,0.6514422,0.8822349,0.8805984,0.2555215,0.1586241,0.21816964,0.40524274,0.25038853,0.15782692,0.28633314,0.45291385,0.4830945,-0.18491206,0.4002104,0.38507232,0.08118154,-0.522025,0.115932174,-0.08969333,790.14655,795.78754,802.6374,811.0989,614.0659,0.0648193359375,0.12481689453125,0.99578857421875,0.478515625,17.92938232421875,0.31402587890625,1,1.0,1.0,1.0,1.0,10.00
2024-10-11 20:45:17.036,0.79119736,0.6514422,0.8822349,0.8805984,0.2555215,0.1586241,0.21816964,0.40524274,0.25038853,0.15782692,0.28633314,0.45291385,0.4830945,-0.18491206,0.4002104,0.38507232,0.08118154,-0.522025,0.115932174,-0.08969333,792.5641,793.36993,790.54944,806.26373,566.9231,0.0648193359375,0.12481689453125,0.99578857421875,0.478515625,17.92938232421875,0.31402587890625,1,1.0,1.0,1.0,1.0,10.00
2024-10-11 20:45:17.037,0.79119736,0.6514422,0.8822349,0.8805984,0.2555215,0.1586241,0.21816964,0.40524274,0.25038853,0.15782692,0.28633314,0.45291385,0.4830945,-0.18491206,0.4002104,0.38507232,0.08118154,-0.522025,0.115932174,-0.08969333,797.8022,789.7436,801.4286,808.2784,880.80585,0.03253173828125,0.12689208984375,1.00390625,-0.994415283203125,19.791107177734375,0.500946044921875,1,1.0,1.0,1.0,1.0,10.00
2024-10-11 20:45:17.038,0.79119736,0.6514422,0.8822349,0.8805984,0.2555215,0.1586241,0.21816964,0.40524274,0.25038853,0.15782692,0.28633314,0.45291385,0.4830945,-0.18491206,0.4002104,0.38507232,0.08118154,-0.522025,0.115932174,-0.08969333,802.6374,789.34064,810.293,818.7546,1193.4799,0.03253173828125,0.12689208984375,1.00390625,-0.994415283203125,19.791107177734375,0.500946044921875,1,1.0,1.0,1.0,1.0,10.00
2024-10-11 20:45:17.039,0.79119736,0.6514422,0.8822349,0.8805984,0.2555215,0.1586241,0.21816964,0.40524274,0.25038853,0.15782692,0.28633314,0.45291385,0.4830945,-0.18491206,0.4002104,0.38507232,0.08118154,-0.522025,0.115932174,-0.08969333,801.4286,786.52014,804.2491,821.1722,1244.652,0.03253173828125,0.12689208984375,1.00390625,-0.994415283203125,19.791107177734375,0.500946044921875,1,1.0,1.0,1.0,1.0,10.00
2024-10-11 20:45:17.039,0.83697355,0.62554264,0.8665001,0.86974895,0.26926842,0.11775045,0.19752328,0.34249836,0.20817491,0.11559314,0.28633314,0.44012067,0.47277266,-0.205667,0.41116896,0.38260734,0.09937302,-0.5221252,0.13850588,-0.09566133,798.20514,787.326,799.81683,816.337,1046.0073,0.03253173828125,0.12689208984375,1.00390625,-0.994415283203125,19.791107177734375,0.500946044921875,1,1.0,1.0,1.0,1.0,10.00
2024-10-11 20:45:17.045,0.83697355,0.62554264,0.8665001,0.86974895,0.26926842,0.11775045,0.19752328,0.34249836,0.20817491,0.11559314,0.28633314,0.44012067,0.47277266,-0.205667,0.41116896,0.38260734,0.09937302,-0.5221252,0.13850588,-0.09566133,801.02563,793.36993,795.38464,810.696,805.05493,0.03253173828125,0.12689208984375,1.00390625,-0.994415283203125,19.791107177734375,0.500946044921875,1,1.0,1.0,1.0,1.0,10.00
2024-10-11 20:45:17.046,0.83697355,0.62554264,0.8665001,0.86974895,0.26926842,0.11775045,0.19752328,0.34249836,0.20817491,0.11559314,0.28633314,0.44012067,0.47277266,-0.205667,0.41116896,0.38260734,0.09937302,-0.5221252,0.13850588,-0.09566133,806.6667,790.9524,800.6227,808.2784,765.16486,0.03253173828125,0.12689208984375,1.00390625,-0.994415283203125,19.791107177734375,0.500946044921875,1,1.0,1.0,1.0,1.0,10.00
2024-10-11 20:45:17.047,0.83697355,0.62554264,0.8665001,0.86974895,0.26926842,0.11775045,0.19752328,0.34249836,0.20817491,0.11559314,0.28633314,0.44012067,0.47277266,-0.205667,0.41116896,0.38260734,0.09937302,-0.5221252,0.13850588,-0.09566133,802.6374,788.93774,803.0403,801.8315,708.3516,0.03253173828125,0.12689208984375,1.00390625,-0.994415283203125,19.791107177734375,0.500946044921875,1,1.0,1.0,1.0,1.0,10.00
2024-10-11 20:45:17.048,0.83697355,0.62554264,0.8665001,0.86974895,0.26926842,0.11775045,0.19752328,0.34249836,0.20817491,0.11559314,0.28633314,0.44012067,0.47277266,-0.205667,0.41116896,0.38260734,0.09937302,-0.5221252,0.13850588,-0.09566133,799.81683,788.5348,790.9524,799.41394,667.6557,0.03253173828125,0.12689208984375,1.00390625,-0.994415283203125,19.791107177734375,0.500946044921875,1,1.0,1.0,1.0,1.0,10.00
2024-10-11 20:45:17.049,0.83697355,0.62554264,0.8665001,0.86974895,0.26926842,0.11775045,0.19752328,0.34249836,0.20817491,0.11559314,0.28633314,0.44012067,0.47277266,-0.205667,0.41116896,0.38260734,0.09937302,-0.5221252,0.13850588,-0.09566133,803.8461,786.1172,791.3553,801.02563,852.1978,0.03253173828125,0.12689208984375,1.00390625,-0.994415283203125,19.791107177734375,0.500946044921875,1,1.0,1.0,1.0,1.0,10.00
2024-10-11 20:45:17.050,0.83697355,0.62554264,0.8665001,0.86974895,0.26926842,0.11775045,0.19752328,0.34249836,0.20817491,0.11559314,0.28633314,0.44012067,0.47277266,-0.205667,0.41116896,0.38260734,0.09937302,-0.5221252,0.13850588,-0.09566133,802.6374,786.9231,785.7143,802.6374,1148.3517,0.03253173828125,0.12689208984375,1.00390625,-0.994415283203125,19.791107177734375,0.500946044921875,1,1.0,1.0,1.0,1.0,10.00
2024-10-11 20:45:17.050,0.83697355,0.62554264,0.8665001,0.86974895,0.26926842,0.11775045,0.19752328,0.34249836,0.20817491,0.11559314,0.28633314,0.44012067,0.47277266,-0.205667,0.41116896,0.38260734,0.09937302,-0.5221252,0.13850588,-0.09566133,801.02563,787.72894,782.0879,806.6667,1095.5677,0.03253173828125,0.12689208984375,1.00390625,-0.994415283203125,19.791107177734375,0.500946044921875,1,1.0,1.0,1.0,1.0,10.00
2024-10-11 20:45:17.051,0.83697355,0.62554264,0.8665001,0.86974895,0.26926842,0.11775045,0.19752328,0.34249836,0.20817491,0.11559314,0.28633314,0.44012067,0.47277266,-0.205667,0.41116896,0.38260734,0.09937302,-0.5221252,0.13850588,-0.09566133,807.8755,787.72894,801.4286,805.8608,913.44324,0.03253173828125,0.12689208984375,1.00390625,-0.994415283203125,19.791107177734375,0.500946044921875,1,1.0,1.0,1.0,1.0,10.00
2024-10-11 20:45:17.082,0.83697355,0.62554264,0.8665001,0.86974895,0.26926842,0.11775045,0.19752328,0.34249836,0.20817491,0.11559314,0.28633314,0.44012067,0.47277266,-0.205667,0.41116896,0.38260734,0.09937302,-0.5221252,0.13850588,-0.09566133,797.3993,787.326,807.47253,803.44324,694.2491,0.0087890625,0.12164306640625,1.00225830078125,-2.213134765625,20.209808349609375,-0.73272705078125,1,1.0,1.0,1.0,1.0,10.00
2024-10-11 20:45:17.083,0.83697355,0.62554264,0.8665001,0.86974895,0.26926842,0.11775045,0.19752328,0.34249836,0.20817491,0.11559314,0.28633314,0.44012067,0.47277266,-0.205667,0.41116896,0.38260734,0.09937302,-0.5221252,0.13850588,-0.09566133,791.75824,790.14655,792.96704,803.8461,566.1172,0.0087890625,0.12164306640625,1.00225830078125,-2.213134765625,20.209808349609375,-0.73272705078125,1,1.0,1.0,1.0,1.0,10.00
2024-10-11 20:45:17.084,0.83697355,0.62554264,0.8665001,0.86974895,0.26926842,0.11775045,0.19752328,0.34249836,0.20817491,0.11559314,0.28633314,0.44012067,0.47277266,-0.205667,0.41116896,0.38260734,0.09937302,-0.5221252,0.13850588,-0.09566133,806.26373,793.36993,789.7436,801.4286,453.69965,0.0087890625,0.12164306640625,1.00225830078125,-2.213134765625,20.209808349609375,-0.73272705078125,1,1.0,1.0,1.0,1.0,10.00
2024-10-11 20:45:17.085,0.83697355,0.62554264,0.8665001,0.86974895,0.26926842,0.11775045,0.19752328,0.34249836,0.20817491,0.11559314,0.28633314,0.44012067,0.47277266,-0.205667,0.41116896,0.38260734,0.09937302,-0.5221252,0.13850588,-0.09566133,811.9048,795.78754,794.9817,807.0696,579.41394,0.0087890625,0.12164306640625,1.00225830078125,-2.213134765625,20.209808349609375,-0.73272705078125,1,1.0,1.0,1.0,1.0,10.00
2024-10-11 20:45:17.086,0.83697355,0.62554264,0.8665001,0.86974895,0.26926842,0.11775045,0.19752328,0.34249836,0.20817491,0.11559314,0.28633314,0.44012067,0.47277266,-0.205667,0.41116896,0.38260734,0.09937302,-0.5221252,0.13850588,-0.09566133,803.8461,796.99634,796.1905,806.26373,787.72894,0.0087890625,0.12164306640625,1.00225830078125,-2.213134765625,20.209808349609375,-0.73272705078125,1,1.0,1.0,1.0,1.0,10.00
2024-10-11 20:45:17.087,0.83697355,0.62554264,0.8665001,0.86974895,0.26926842,0.11775045,0.19752328,0.34249836,0.20817491,0.11559314,0.28633314,0.44012067,0.47277266,-0.205667,0.41116896,0.38260734,0.09937302,-0.5221252,0.13850588,-0.09566133,805.4579,798.20514,803.8461,792.1612,752.27106,0.0087890625,0.12164306640625,1.00225830078125,-2.213134765625,20.209808349609375,-0.73272705078125,1,1.0,1.0,1.0,1.0,10.00
2024-10-11 20:45:17.088,0.83697355,0.62554264,0.8665001,0.86974895,0.26926842,0.11775045,0.19752328,0.34249836,0.20817491,0.11559314,0.28633314,0.44012067,0.47277266,-0.205667,0.41116896,0.38260734,0.09937302,-0.5221252,0.13850588,-0.09566133,809.0842,794.17584,797.3993,788.93774,773.22345,0.0087890625,0.12164306640625,1.00225830078125,-2.213134765625,20.209808349609375,-0.73272705078125,1,1.0,1.0,1.0,1.0,10.00
2024-10-11 20:45:17.088,0.83697355,0.62554264,0.8665001,0.86974895,0.26926842,0.11775045,0.19752328,0.34249836,0.20817491,0.11559314,0.28633314,0.44012067,0.47277266,-0.205667,0.41116896,0.38260734,0.09937302,-0.5221252,0.13850588,-0.09566133,810.293,796.1905,805.05493,794.9817,830.4396,0.0087890625,0.12164306640625,1.00225830078125,-2.213134765625,20.209808349609375,-0.73272705078125,1,1.0,1.0,1.0,1.0,10.00
2024-10-11 20:45:17.089,0.83697355,0.62554264,0.8665001,0.86974895,0.26926842,0.11775045,0.19752328,0.34249836,0.20817491,0.11559314,0.28633314,0.44012067,0.47277266,-0.205667,0.41116896,0.38260734,0.09937302,-0.5221252,0.13850588,-0.09566133,815.12823,801.02563,807.0696,798.60803,815.5311,0.0087890625,0.12164306640625,1.00225830078125,-2.213134765625,20.209808349609375,-0.73272705078125,1,1.0,1.0,1.0,1.0,10.00
2024-10-11 20:45:17.090,0.83697355,0.62554264,0.8665001,0.86974895,0.26926842,0.11775045,0.19752328,0.34249836,0.20817491,0.11559314,0.28633314,0.44012067,0.47277266,-0.205667,0.41116896,0.38260734,0.09937302,-0.5221252,0.13850588,-0.09566133,808.2784,796.5934,794.57874,798.20514,654.35895,0.0087890625,0.12164306640625,1.00225830078125,-2.213134765625,20.209808349609375,-0.73272705078125,1,1.0,1.0,1.0,1.0,10.00
2024-10-11 20:45:17.090,0.83697355,0.62554264,0.8665001,0.86974895,0.26926842,0.11775045,0.19752328,0.34249836,0.20817491,0.11559314,0.28633314,0.44012067,0.47277266,-0.205667,0.41116896,0.38260734,0.09937302,-0.5221252,0.13850588,-0.09566133,807.0696,795.38464,799.011,795.38464,583.0403,0.0087890625,0.12164306640625,1.00225830078125,-2.213134765625,20.209808349609375,-0.73272705078125,1,1.0,1.0,1.0,1.0,10.00
2024-10-11 20:45:17.091,0.83697355,0.62554264,0.8665001,0.86974895,0.26926842,0.11775045,0.19752328,0.34249836,0.20817491,0.11559314,0.28633314,0.44012067,0.47277266,-0.205667,0.41116896,0.38260734,0.09937302,-0.5221252,0.13850588,-0.09566133,815.9341,794.17584,800.6227,803.8461,746.63007,0.0087890625,0.12164306640625,1.00225830078125,-2.213134765625,20.209808349609375,-0.73272705078125,1,1.0,1.0,1.0,1.0,10.00
2024-10-11 20:45:17.159,0.83697355,0.62554264,0.8665001,0.86974895,0.26926842,0.11775045,0.19752328,0.34249836,0.20817491,0.11559314,0.28633314,0.44012067,0.47277266,-0.205667,0.41116896,0.38260734,0.09937302,-0.5221252,0.13850588,-0.09566133,814.7253,790.9524,796.5934,803.8461,991.6117,0.0087890625,0.12164306640625,1.00225830078125,-2.213134765625,20.209808349609375,-0.73272705078125,1,1.0,1.0,1.0,1.0,10.00
2024-10-11 20:45:17.160,0.83697355,0.62554264,0.8665001,0.86974895,0.26926842,0.11775045,0.19752328,0.34249836,0.20817491,0.11559314,0.28633314,0.44012067,0.47277266,-0.205667,0.41116896,0.38260734,0.09937302,-0.5221252,0.13850588,-0.09566133,813.91943,792.96704,800.6227,793.36993,791.3553,0.0087890625,0.12164306640625,1.00225830078125,-2.213134765625,20.209808349609375,-0.73272705078125,1,1.0,1.0,1.0,1.0,10.00
2024-10-11 20:45:17.161,0.83697355,0.62554264,0.8665001,0.86974895,0.26926842,0.11775045,0.19752328,0.34249836,0.20817491,0.11559314,0.28633314,0.44012067,0.47277266,-0.205667,0.41116896,0.38260734,0.09937302,-0.5221252,0.13850588,-0.09566133,816.7399,795.78754,794.9817,803.0403,686.1905,0.0087890625,0.12164306640625,1.00225830078125,-2.213134765625,20.209808349609375,-0.73272705078125,1,1.0,1.0,1.0,1.0,10.00
2024-10-11 20:45:17.162,0.83697355,0.62554264,0.8665001,0.86974895,0.26926842,0.11775045,0.19752328,0.34249836,0.20817491,0.11559314,0.28633314,0.44012067,0.47277266,-0.205667,0.41116896,0.38260734,0.09937302,-0.5221252,0.13850588,-0.09566133,813.91943,796.1905,801.4286,809.0842,833.2601,0.0087890625,0.12164306640625,1.00225830078125,-2.213134765625,20.209808349609375,-0.73272705078125,1,1.0,1.0,1.0,1.0,10.00
2024-10-11 20:45:17.163,0.83697355,0.62554264,0.8665001,0.86974895,0.26926842,0.11775045,0.19752328,0.34249836,0.20817491,0.11559314,0.28633314,0.44012067,0.47277266,-0.205667,0.41116896,0.38260734,0.09937302,-0.5221252,0.13850588,-0.09566133,812.71063,796.1905,801.4286,802.23444,801.8315,0.0087890625,0.12164306640625,1.00225830078125,-2.213134765625,20.209808349609375,-0.73272705078125,1,1.0,1.0,1.0,1.0,10.00
2024-10-11 20:45:17.163,0.87730986,0.5851953,0.8380886,0.8401383,0.27736327,0.05497479,0.18136118,0.2728035,0.19672312,0.028512865,0.28633314,0.43029246,0.46252784,-0.22361994,0.42329875,0.38264832,0.11667188,-0.51628387,0.16053881,-0.09964592,819.15753,797.3993,787.72894,806.26373,752.27106,0.0087890625,0.12164306640625,1.00225830078125,-2.213134765625,20.209808349609375,-0.73272705078125,1,1.0,1.0,1.0,1.0,10.00
2024-10-11 20:45:17.170,0.87730986,0.5851953,0.8380886,0.8401383,0.27736327,0.05497479,0.18136118,0.2728035,0.19672312,0.028512865,0.28633314,0.43029246,0.46252784,-0.22361994,0.42329875,0.38264832,0.11667188,-0.51628387,0.16053881,-0.09964592,811.0989,797.8022,791.75824,814.3223,802.23444,0.0087890625,0.12164306640625,1.00225830078125,-2.213134765625,20.209808349609375,-0.73272705078125,1,1.0,1.0,1.0,1.0,10.00
2024-10-11 20:45:17.170,0.87730986,0.5851953,0.8380886,0.8401383,0.27736327,0.05497479,0.18136118,0.2728035,0.19672312,0.028512865,0.28633314,0.43029246,0.46252784,-0.22361994,0.42329875,0.38264832,0.11667188,-0.51628387,0.16053881,-0.09964592,805.4579,792.96704,788.93774,817.9487,998.86444,0.0087890625,0.12164306640625,1.00225830078125,-2.213134765625,20.209808349609375,-0.73272705078125,1,1.0,1.0,1.0,1.0,10.00
2024-10-11 20:45:17.171,0.87730986,0.5851953,0.8380886,0.8401383,0.27736327,0.05497479,0.18136118,0.2728035,0.19672312,0.028512865,0.28633314,0.43029246,0.46252784,-0.22361994,0.42329875,0.38264832,0.11667188,-0.51628387,0.16053881,-0.09964592,812.71063,792.5641,786.1172,819.9634,987.5824,0.0087890625,0.12164306640625,1.00225830078125,-2.213134765625,20.209808349609375,-0.73272705078125,1,1.0,1.0,1.0,1.0,10.00
2024-10-11 20:45:17.172,0.87730986,0.5851953,0.8380886,0.8401383,0.27736327,0.05497479,0.18136118,0.2728035,0.19672312,0.028512865,0.28633314,0.43029246,0.46252784,-0.22361994,0.42329875,0.38264832,0.11667188,-0.51628387,0.16053881,-0.09964592,811.0989,795.78754,800.2198,807.47253,588.2784,0.0087890625,0.12164306640625,1.00225830078125,-2.213134765625,20.209808349609375,-0.73272705078125,1,1.0,1.0,1.0,1.0,10.00
2024-10-11 20:45:17.173,0.87730986,0.5851953,0.8380886,0.8401383,0.27736327,0.05497479,0.18136118,0.2728035,0.19672312,0.028512865,0.28633314,0.43029246,0.46252784,-0.22361994,0.42329875,0.38264832,0.11667188,-0.51628387,0.16053881,-0.09964592,814.3223,793.36993,800.6227,808.2784,537.50916,0.0087890625,0.12164306640625,1.00225830078125,-2.213134765625,20.209808349609375,-0.73272705078125,1,1.0,1.0,1.0,1.0,10.00
2024-10-11 20:45:17.174,0.87730986,0.5851953,0.8380886,0.8401383,0.27736327,0.05497479,0.18136118,0.2728035,0.19672312,0.028512865,0.28633314,0.43029246,0.46252784,-0.22361994,0.42329875,0.38264832,0.11667188,-0.51628387,0.16053881,-0.09964592,809.89014,794.9817,803.44324,815.12823,624.94507,0.0087890625,0.12164306640625,1.00225830078125,-2.213134765625,20.209808349609375,-0.73272705078125,1,1.0,1.0,1.0,1.0,10.00
2024-10-11 20:45:17.175,0.87730986,0.5851953,0.8380886,0.8401383,0.27736327,0.05497479,0.18136118,0.2728035,0.19672312,0.028512865,0.28633314,0.43029246,0.46252784,-0.22361994,0.42329875,0.38264832,0.11667188,-0.51628387,0.16053881,-0.09964592,812.3077,800.6227,807.47253,805.8608,608.8278,-0.01953125,0.1151123046875,0.994873046875,-2.071075439453125,22.7294921875,-2.400054931640625,1,1.0,1.0,1.0,1.0,10.00
2024-10-11 20:45:17.175,0.87730986,0.5851953,0.8380886,0.8401383,0.27736327,0.05497479,0.18136118,0.2728035,0.19672312,0.028512865,0.28633314,0.43029246,0.46252784,-0.22361994,0.42329875,0.38264832,0.11667188,-0.51628387,0.16053881,-0.09964592,816.7399,801.8315,799.41394,800.6227,616.8865,-0.01953125,0.1151123046875,0.994873046875,-2.071075439453125,22.7294921875,-2.400054931640625,1,1.0,1.0,1.0,1.0,10.00
2024-10-11 20:45:17.176,0.87730986,0.5851953,0.8380886,0.8401383,0.27736327,0.05497479,0.18136118,0.2728035,0.19672312,0.028512865,0.28633314,0.43029246,0.46252784,-0.22361994,0.42329875,0.38264832,0.11667188,-0.51628387,0.16053881,-0.09964592,811.50183,796.99634,791.3553,807.47253,720.84247,-0.01953125,0.1151123046875,0.994873046875,-2.071075439453125,22.7294921875,-2.400054931640625,1,1.0,1.0,1.0,1.0,10.00
2024-10-11 20:45:17.177,0.87730986,0.5851953,0.8380886,0.8401383,0.27736327,0.05497479,0.18136118,0.2728035,0.19672312,0.028512865,0.28633314,0.43029246,0.46252784,-0.22361994,0.42329875,0.38264832,0.11667188,-0.51628387,0.16053881,-0.09964592,817.5458,792.5641,799.41394,816.337,754.68866,-0.01953125,0.1151123046875,0.994873046875,-2.071075439453125,22.7294921875,-2.400054931640625,1,1.0,1.0,1.0,1.0,10.00
2024-10-11 20:45:17.178,0.87730986,0.5851953,0.8380886,0.8401383,0.27736327,0.05497479,0.18136118,0.2728035,0.19672312,0.028512865,0.28633314,0.43029246,0.46252784,-0.22361994,0.42329875,0.38264832,0.11667188,-0.51628387,0.16053881,-0.09964592,811.0989,792.96704,811.50183,813.91943,624.94507,-0.01953125,0.1151123046875,0.994873046875,-2.071075439453125,22.7294921875,-2.400054931640625,1,1.0,1.0,1.0,1.0,10.00
2024-10-11 20:45:17.178,0.87730986,0.5851953,0.8380886,0.8401383,0.27736327,0.05497479,0.18136118,0.2728035,0.19672312,0.028512865,0.28633314,0.43029246,0.46252784,-0.22361994,0.42329875,0.38264832,0.11667188,-0.51628387,0.16053881,-0.09964592,804.2491,788.1319,813.1135,815.12823,659.59705,-0.01953125,0.1151123046875,0.994873046875,-2.071075439453125,22.7294921875,-2.400054931640625,1,1.0,1.0,1.0,1.0,10.00
2024-10-11 20:45:17.179,0.87730986,0.5851953,0.8380886,0.8401383,0.27736327,0.05497479,0.18136118,0.2728035,0.19672312,0.028512865,0.28633314,0.43029246,0.46252784,-0.22361994,0.42329875,0.38264832,0.11667188,-0.51628387,0.16053881,-0.09964592,822.381,792.96704,803.0403,827.2161,916.6667,-0.01953125,0.1151123046875,0.994873046875,-2.071075439453125,22.7294921875,-2.400054931640625,1,1.0,1.0,1.0,1.0,10.00
2024-10-11 20:45:17.180,0.87730986,0.5851953,0.8380886,0.8401383,0.27736327,0.05497479,0.18136118,0.2728035,0.19672312,0.028512865,0.28633314,0.43029246,0.46252784,-0.22361994,0.42329875,0.38264832,0.11667188,-0.51628387,0.16053881,-0.09964592,815.12823,805.8608,801.4286,808.2784,1049.2307,-0.01953125,0.1151123046875,0.994873046875,-2.071075439453125,22.7294921875,-2.400054931640625,1,1.0,1.0,1.0,1.0,10.00
2024-10-11 20:45:17.181,0.87730986,0.5851953,0.8380886,0.8401383,0.27736327,0.05497479,0.18136118,0.2728035,0.19672312,0.028512865,0.28633314,0.43029246,0.46252784,-0.22361994,0.42329875,0.38264832,0.11667188,-0.51628387,0.16053881,-0.09964592,790.14655,804.65204,807.47253,787.72894,732.52747,-0.01953125,0.1151123046875,0.994873046875,-2.071075439453125,22.7294921875,-2.400054931640625,1,1.0,1.0,1.0,1.0,10.00
2024-10-11 20:45:17.181,0.87730986,0.5851953,0.8380886,0.8401383,0.27736327,0.05497479,0.18136118,0.2728035,0.19672312,0.028512865,0.28633314,0.43029246,0.46252784,-0.22361994,0.42329875,0.38264832,0.11667188,-0.51628387,0.16053881,-0.09964592,794.17584,801.02563,802.6374,795.78754,600.7692,-0.01953125,0.1151123046875,0.994873046875,-2.071075439453125,22.7294921875,-2.400054931640625,1,1.0,1.0,1.0,1.0,10.00
2024-10-11 20:45:17.182,0.87730986,0.5851953,0.8380886,0.8401383,0.27736327,0.05497479,0.18136118,0.2728035,0.19672312,0.028512865,0.28633314,0.43029246,0.46252784,-0.22361994,0.42329875,0.38264832,0.11667188,-0.51628387,0.16053881,-0.09964592,795.78754,801.8315,801.02563,791.75824,715.6044,-0.01953125,0.1151123046875,0.994873046875,-2.071075439453125,22.7294921875,-2.400054931640625,1,1.0,1.0,1.0,1.0,10.00
2024-10-11 20:45:17.183,0.87730986,0.5851953,0.8380886,0.8401383,0.27736327,0.05497479,0.18136118,0.2728035,0.19672312,0.028512865,0.28633314,0.43029246,0.46252784,-0.22361994,0.42329875,0.38264832,0.11667188,-0.51628387,0.16053881,-0.09964592,786.1172,799.41394,803.8461,778.0586,679.34064,-0.01953125,0.1151123046875,0.994873046875,-2.071075439453125,22.7294921875,-2.400054931640625,1,1.0,1.0,1.0,1.0,10.00
2024-10-11 20:45:17.218,0.87730986,0.5851953,0.8380886,0.8401383,0.27736327,0.05497479,0.18136118,0.2728035,0.19672312,0.028512865,0.28633314,0.43029246,0.46252784,-0.22361994,0.42329875,0.38264832,0.11667188,-0.51628387,0.16053881,-0.09964592,780.07324,798.20514,786.52014,769.19415,561.685,-0.045654296875,0.1087646484375,0.99786376953125,-1.607513427734375,23.604278564453125,-2.6019287109375,1,1.0,1.0,1.0,1.0,10.00
2024-10-11 20:45:17.219,0.87730986,0.5851953,0.8380886,0.8401383,0.27736327,0.05497479,0.18136118,0.2728035,0.19672312,0.028512865,0.28633314,0.43029246,0.46252784,-0.22361994,0.42329875,0.38264832,0.11667188,-0.51628387,0.16053881,-0.09964592,786.9231,799.81683,782.49084,775.64105,544.7619,-0.045654296875,0.1087646484375,0.99786376953125,-1.607513427734375,23.604278564453125,-2.6019287109375,1,1.0,1.0,1.0,1.0,10.00
2024-10-11 20:45:17.221,0.87730986,0.5851953,0.8380886,0.8401383,0.27736327,0.05497479,0.18136118,0.2728035,0.19672312,0.028512865,0.28633314,0.43029246,0.46252784,-0.22361994,0.42329875,0.38264832,0.11667188,-0.51628387,0.16053881,-0.09964592,786.52014,802.23444,800.2198,781.28204,759.5238,-0.045654296875,0.1087646484375,0.99786376953125,-1.607513427734375,23.604278564453125,-2.6019287109375,1,1.0,1.0,1.0,1.0,10.00
2024-10-11 20:45:17.222,0.87730986,0.5851953,0.8380886,0.8401383,0.27736327,0.05497479,0.18136118,0.2728035,0.19672312,0.028512865,0.28633314,0.43029246,0.46252784,-0.22361994,0.42329875,0.38264832,0.11667188,-0.51628387,0.16053881,-0.09964592,784.90845,803.44324,802.23444,782.49084,774.43225,-0.045654296875,0.1087646484375,0.99786376953125,-1.607513427734375,23.604278564453125,-2.6019287109375,1,1.0,1.0,1.0,1.0,10.00
2024-10-11 20:45:17.223,0.87730986,0.5851953,0.8380886,0.8401383,0.27736327,0.05497479,0.18136118,0.2728035,0.19672312,0.028512865,0.28633314,0.43029246,0.46252784,-0.22361994,0.42329875,0.38264832,0.11667188,-0.51628387,0.16053881,-0.09964592,788.5348,798.60803,796.5934,777.6557,496.00732,-0.045654296875,0.1087646484375,0.99786376953125,-1.607513427734375,23.604278564453125,-2.6019287109375,1,1.0,1.0,1.0,1.0,10.00
2024-10-11 20:45:17.223,0.87730986,0.5851953,0.8380886,0.8401383,0.27736327,0.05497479,0.18136118,0.2728035,0.19672312,0.028512865,0.28633314,0.43029246,0.46252784,-0.22361994,0.42329875,0.38264832,0.11667188,-0.51628387,0.16053881,-0.09964592,786.1172,796.99634,798.20514,767.1795,583.44324,-0.045654296875,0.1087646484375,0.99786376953125,-1.607513427734375,23.604278564453125,-2.6019287109375,1,1.0,1.0,1.0,1.0,10.00
2024-10-11 20:45:17.224,0.87730986,0.5851953,0.8380886,0.8401383,0.27736327,0.05497479,0.18136118,0.2728035,0.19672312,0.028512865,0.28633314,0.43029246,0.46252784,-0.22361994,0.42329875,0.38264832,0.11667188,-0.51628387,0.16053881,-0.09964592,786.52014,798.60803,801.02563,784.5055,904.9817,-0.045654296875,0.1087646484375,0.99786376953125,-1.607513427734375,23.604278564453125,-2.6019287109375,1,1.0,1.0,1.0,1.0,10.00
2024-10-11 20:45:17.225,0.87730986,0.53653556,0.8041994,0.80293226,0.27736327,-0.0010206908,0.1792142,0.22727928,0.19672312,-0.0074498057,0.2861025,0.42680028,0.46252784,-0.2405693,0.4346128,0.38725862,0.11667188,-0.5036296,0.18195938,-0.101754084,777.6557,797.8022,790.9524,801.8315,1122.1611,-0.045654296875,0.1087646484375,0.99786376953125,-1.607513427734375,23.604278564453125,-2.6019287109375,1,1.0,1.0,1.0,1.0,10.00
2024-10-11 20:45:17.231,0.87730986,0.53653556,0.8041994,0.80293226,0.27736327,-0.0010206908,0.1792142,0.22727928,0.19672312,-0.0074498057,0.2861025,0.42680028,0.46252784,-0.2405693,0.4346128,0.38725862,0.11667188,-0.5036296,0.18195938,-0.101754084,778.46155,796.99634,794.9817,796.1905,875.56775,-0.045654296875,0.1087646484375,0.99786376953125,-1.607513427734375,23.604278564453125,-2.6019287109375,1,1.0,1.0,1.0,1.0,10.00
2024-10-11 20:45:17.232,0.87730986,0.53653556,0.8041994,0.80293226,0.27736327,-0.0010206908,0.1792142,0.22727928,0.19672312,-0.0074498057,0.2861025,0.42680028,0.46252784,-0.2405693,0.4346128,0.38725862,0.11667188,-0.5036296,0.18195938,-0.101754084,786.52014,797.8022,798.20514,792.1612,594.7253,-0.045654296875,0.1087646484375,0.99786376953125,-1.607513427734375,23.604278564453125,-2.6019287109375,1,1.0,1.0,1.0,1.0,10.00
2024-10-11 20:45:17.233,0.87730986,0.53653556,0.8041994,0.80293226,0.27736327,-0.0010206908,0.1792142,0.22727928,0.19672312,-0.0074498057,0.2861025,0.42680028,0.46252784,-0.2405693,0.4346128,0.38725862,0.11667188,-0.5036296,0.18195938,-0.101754084,788.1319,794.57874,782.8938,793.36993,683.36993,-0.045654296875,0.1087646484375,0.99786376953125,-1.607513427734375,23.604278564453125,-2.6019287109375,1,1.0,1.0,1.0,1.0,10.00
2024-10-11 20:45:17.234,0.87730986,0.53653556,0.8041994,0.80293226,0.27736327,-0.0010206908,0.1792142,0.22727928,0.19672312,-0.0074498057,0.2861025,0.42680028,0.46252784,-0.2405693,0.4346128,0.38725862,0.11667188,-0.5036296,0.18195938,-0.101754084,789.34064,791.3553,780.87915,794.57874,715.6044,-0.045654296875,0.1087646484375,0.99786376953125,-1.607513427734375,23.604278564453125,-2.6019287109375,1,1.0,1.0,1.0,1.0,10.00
2024-10-11 20:45:17.264,0.87730986,0.53653556,0.8041994,0.80293226,0.27736327,-0.0010206908,0.1792142,0.22727928,0.19672312,-0.0074498057,0.2861025,0.42680028,0.46252784,-0.2405693,0.4346128,0.38725862,0.11667188,-0.5036296,0.18195938,-0.101754084,788.5348,789.7436,802.23444,799.011,511.3187,-0.0732421875,0.10760498046875,0.99560546875,-1.27105712890625,23.55194091796875,-1.1663818359375,1,1.0,1.0,1.0,1.0,10.00
2024-10-11 20:45:17.265,0.87730986,0.53653556,0.8041994,0.80293226,0.27736327,-0.0010206908,0.1792142,0.22727928,0.19672312,-0.0074498057,0.2861025,0.42680028,0.46252784,-0.2405693,0.4346128,0.38725862,0.11667188,-0.5036296,0.18195938,-0.101754084,792.5641,792.96704,807.47253,801.8315,529.85345,-0.0732421875,0.10760498046875,0.99560546875,-1.27105712890625,23.55194091796875,-1.1663818359375,1,1.0,1.0,1.0,1.0,10.00
2024-10-11 20:45:17.266,0.87730986,0.53653556,0.8041994,0.80293226,0.27736327,-0.0010206908,0.1792142,0.22727928,0.19672312,-0.0074498057,0.2861025,0.42680028,0.46252784,-0.2405693,0.4346128,0.38725862,0.11667188,-0.5036296,0.18195938,-0.101754084,790.9524,795.38464,803.0403,808.68134,614.0659,-0.0732421875,0.10760498046875,0.99560546875,-1.27105712890625,23.55194091796875,-1.1663818359375,1,1.0,1.0,1.0,1.0,10.00
2024-10-11 20:45:17.267,0.87730986,0.53653556,0.8041994,0.80293226,0.27736327,-0.0010206908,0.1792142,0.22727928,0.19672312,-0.0074498057,0.2861025,0.42680028,0.46252784,-0.2405693,0.4346128,0.38725862,0.11667188,-0.5036296,0.18195938,-0.101754084,792.96704,792.5641,809.4872,808.68134,555.64105,-0.0732421875,0.10760498046875,0.99560546875,-1.27105712890625,23.55194091796875,-1.1663818359375,1,1.0,1.0,1.0,1.0,10.00
2024-10-11 20:45:17.268,0.87730986,0.53653556,0.8041994,0.80293226,0.27736327,-0.0010206908,0.1792142,0.22727928,0.19672312,-0.0074498057,0.2861025,0.42680028,0.46252784,-0.2405693,0.4346128,0.38725862,0.11667188,-0.5036296,0.18195938,-0.101754084,809.89014,794.9817,807.47253,798.60803,510.51282,-0.0732421875,0.10760498046875,0.99560546875,-1.27105712890625,23.55194091796875,-1.1663818359375,1,1.0,1.0,1.0,1.0,10.00
2024-10-11 20:45:17.269,0.87730986,0.53653556,0.8041994,0.80293226,0.27736327,-0.0010206908,0.1792142,0.22727928,0.19672312,-0.0074498057,0.2861025,0.42680028,0.46252784,-0.2405693,0.4346128,0.38725862,0.11667188,-0.5036296,0.18195938,-0.101754084,807.47253,799.41394,804.2491,801.4286,674.90845,-0.0732421875,0.10760498046875,0.99560546875,-1.27105712890625,23.55194091796875,-1.1663818359375,1,1.0,1.0,1.0,1.0,10.00
2024-10-11 20:45:17.270,0.87730986,0.53653556,0.8041994,0.80293226,0.27736327,-0.0010206908,0.1792142,0.22727928,0.19672312,-0.0074498057,0.2861025,0.42680028,0.46252784,-0.2405693,0.4346128,0.38725862,0.11667188,-0.5036296,0.18195938,-0.101754084,797.8022,796.99634,795.78754,803.8461,898.5348,-0.0732421875,0.10760498046875,0.99560546875,-1.27105712890625,23.55194091796875,-1.1663818359375,1,1.0,1.0,1.0,1.0,10.00
2024-10-11 20:45:17.271,0.87730986,0.53653556,0.8041994,0.80293226,0.27736327,-0.0010206908,0.1792142,0.22727928,0.19672312,-0.0074498057,0.2861025,0.42680028,0.46252784,-0.2405693,0.4346128,0.38725862,0.11667188,-0.5036296,0.18195938,-0.101754084,805.8608,796.1905,785.7143,806.26373,750.65936,-0.0732421875,0.10760498046875,0.99560546875,-1.27105712890625,23.55194091796875,-1.1663818359375,1,1.0,1.0,1.0,1.0,10.00
2024-10-11 20:45:17.272,0.87730986,0.53653556,0.8041994,0.80293226,0.27736327,-0.0010206908,0.1792142,0.22727928,0.19672312,-0.0074498057,0.2861025,0.42680028,0.46252784,-0.2405693,0.4346128,0.38725862,0.11667188,-0.5036296,0.18195938,-0.101754084,798.60803,797.8022,794.9817,807.0696,682.96704,-0.0732421875,0.10760498046875,0.99560546875,-1.27105712890625,23.55194091796875,-1.1663818359375,1,1.0,1.0,1.0,1.0,10.00
2024-10-11 20:45:17.273,0.87730986,0.53653556,0.8041994,0.80293226,0.27736327,-0.0010206908,0.1792142,0.22727928,0.19672312,-0.0074498057,0.2861025,0.42680028,0.46252784,-0.2405693,0.4346128,0.38725862,0.11667188,-0.5036296,0.18195938,-0.101754084,790.14655,796.99634,814.3223,803.8461,834.0659,-0.0732421875,0.10760498046875,0.99560546875,-1.27105712890625,23.55194091796875,-1.1663818359375,1,1.0,1.0,1.0,1.0,10.00
2024-10-11 20:45:17.274,0.87730986,0.53653556,0.8041994,0.80293226,0.27736327,-0.0010206908,0.1792142,0.22727928,0.19672312,-0.0074498057,0.2861025,0.42680028,0.46252784,-0.2405693,0.4346128,0.38725862,0.11667188,-0.5036296,0.18195938,-0.101754084,792.96704,795.38464,820.7692,802.23444,847.3626,-0.0732421875,0.10760498046875,0.99560546875,-1.27105712890625,23.55194091796875,-1.1663818359375,1,1.0,1.0,1.0,1.0,10.00
2024-10-11 20:45:17.274,0.87730986,0.53653556,0.8041994,0.80293226,0.27736327,-0.0010206908,0.1792142,0.22727928,0.19672312,-0.0074498057,0.2861025,0.42680028,0.46252784,-0.2405693,0.4346128,0.38725862,0.11667188,-0.5036296,0.18195938,-0.101754084,789.7436,794.17584,810.293,795.78754,677.326,-0.0732421875,0.10760498046875,0.99560546875,-1.27105712890625,23.55194091796875,-1.1663818359375,1,1.0,1.0,1.0,1.0,10.00
2024-10-11 20:45:17.341,0.87730986,0.53653556,0.8041994,0.80293226,0.27736327,-0.0010206908,0.1792142,0.22727928,0.19672312,-0.0074498057,0.2861025,0.42680028,0.46252784,-0.2405693,0.4346128,0.38725862,0.11667188,-0.5036296,0.18195938,-0.101754084,797.8022,794.17584,805.05493,801.02563,559.67035,-0.102294921875,0.10498046875,0.993896484375,-1.57012939453125,24.710845947265625,0.418701171875,1,1.0,1.0,1.0,1.0,10.00
2024-10-11 20:45:17.342,0.87730986,0.53653556,0.8041994,0.80293226,0.27736327,-0.0010206908,0.1792142,0.22727928,0.19672312,-0.0074498057,0.2861025,0.42680028,0.46252784,-0.2405693,0.4346128,0.38725862,0.11667188,-0.5036296,0.18195938,-0.101754084,800.6227,792.96704,806.6667,805.4579,728.0952,-0.102294921875,0.10498046875,0.993896484375,-1.57012939453125,24.710845947265625,0.418701171875,1,1.0,1.0,1.0,1.0,10.00
2024-10-11 20:45:17.343,0.87730986,0.53653556,0.8041994,0.80293226,0.27736327,-0.0010206908,0.1792142,0.22727928,0.19672312,-0.0074498057,0.2861025,0.42680028,0.46252784,-0.2405693,0.4346128,0.38725862,0.11667188,-0.5036296,0.18195938,-0.101754084,799.81683,795.38464,796.99634,803.44324,736.9597,-0.102294921875,0.10498046875,0.993896484375,-1.57012939453125,24.710845947265625,0.418701171875,1,1.0,1.0,1.0,1.0,10.00
2024-10-11 20:45:17.344,0.87730986,0.53653556,0.8041994,0.80293226,0.27736327,-0.0010206908,0.1792142,0.22727928,0.19672312,-0.0074498057,0.2861025,0.42680028,0.46252784,-0.2405693,0.4346128,0.38725862,0.11667188,-0.5036296,0.18195938,-0.101754084,811.0989,796.5934,795.78754,805.05493,485.53113,-0.102294921875,0.10498046875,0.993896484375,-1.57012939453125,24.710845947265625,0.418701171875,1,1.0,1.0,1.0,1.0,10.00
2024-10-11 20:45:17.345,0.87730986,0.53653556,0.8041994,0.80293226,0.27736327,-0.0010206908,0.1792142,0.22727928,0.19672312,-0.0074498057,0.2861025,0.42680028,0.46252784,-0.2405693,0.4346128,0.38725862,0.11667188,-0.5036296,0.18195938,-0.101754084,818.3516,794.9817,803.44324,806.26373,503.663,-0.102294921875,0.10498046875,0.993896484375,-1.57012939453125,24.710845947265625,0.418701171875,1,1.0,1.0,1.0,1.0,10.00
2024-10-11 20:45:17.345,0.87730986,0.53653556,0.8041994,0.80293226,0.27736327,-0.0010206908,0.1792142,0.22727928,0.19672312,-0.0074498057,0.2861025,0.42680028,0.46252784,-0.2405693,0.4346128,0.38725862,0.11667188,-0.5036296,0.18195938,-0.101754084,809.4872,794.57874,800.2198,807.47253,950.5128,-0.102294921875,0.10498046875,0.993896484375,-1.57012939453125,24.710845947265625,0.418701171875,1,1.0,1.0,1.0,1.0,10.00
2024-10-11 20:45:17.346,0.87730986,0.53653556,0.8041994,0.80293226,0.27736327,-0.0010206908,0.1792142,0.22727928,0.19672312,-0.0074498057,0.2861025,0.42680028,0.46252784,-0.2405693,0.4346128,0.38725862,0.11667188,-0.5036296,0.18195938,-0.101754084,812.3077,799.011,788.93774,813.91943,1133.4432,-0.102294921875,0.10498046875,0.993896484375,-1.57012939453125,24.710845947265625,0.418701171875,1,1.0,1.0,1.0,1.0,10.00
2024-10-11 20:45:17.347,0.87730986,0.53653556,0.8041994,0.80293226,0.27736327,-0.0010206908,0.1792142,0.22727928,0.19672312,-0.0074498057,0.2861025,0.42680028,0.46252784,-0.2405693,0.4346128,0.38725862,0.11667188,-0.5036296,0.18195938,-0.101754084,804.65204,800.6227,794.9817,804.65204,616.8865,-0.102294921875,0.10498046875,0.993896484375,-1.57012939453125,24.710845947265625,0.418701171875,1,1.0,1.0,1.0,1.0,10.00
2024-10-11 20:45:17.347,0.87730986,0.53653556,0.8041994,0.80293226,0.27736327,-0.0010206908,0.1792142,0.22727928,0.19672312,-0.0074498057,0.2861025,0.42680028,0.46252784,-0.2405693,0.4346128,0.38725862,0.11667188,-0.5036296,0.18195938,-0.101754084,800.2198,796.99634,809.89014,804.2491,487.14285,-0.102294921875,0.10498046875,0.993896484375,-1.57012939453125,24.710845947265625,0.418701171875,1,1.0,1.0,1.0,1.0,10.00
2024-10-11 20:45:17.348,0.87730986,0.506639,0.7726038,0.7840978,0.27736327,-0.027574757,0.16539259,0.22237648,0.19672312,-0.020461442,0.27280402,0.4108768,0.46252784,-0.2571011,0.4736996,0.3962169,0.11667188,-0.48794636,0.20860563,-0.10243236,809.0842,796.99634,809.0842,814.7253,614.4689,-0.102294921875,0.10498046875,0.993896484375,-1.57012939453125,24.710845947265625,0.418701171875,1,1.0,1.0,1.0,1.0,10.00
2024-10-11 20:45:17.354,0.87730986,0.506639,0.7726038,0.7840978,0.27736327,-0.027574757,0.16539259,0.22237648,0.19672312,-0.020461442,0.27280402,0.4108768,0.46252784,-0.2571011,0.4736996,0.3962169,0.11667188,-0.48794636,0.20860563,-0.10243236,807.47253,797.3993,803.44324,810.293,570.14655,-0.102294921875,0.10498046875,0.993896484375,-1.57012939453125,24.710845947265625,0.418701171875,1,1.0,1.0,1.0,1.0,10.00
2024-10-11 20:45:17.355,0.87730986,0.506639,0.7726038,0.7840978,0.27736327,-0.027574757,0.16539259,0.22237648,0.19672312,-0.020461442,0.27280402,0.4108768,0.46252784,-0.2571011,0.4736996,0.3962169,0.11667188,-0.48794636,0.20860563,-0.10243236,811.0989,799.41394,796.5934,807.0696,513.73627,-0.102294921875,0.10498046875,0.993896484375,-1.57012939453125,24.710845947265625,0.418701171875,1,1.0,1.0,1.0,1.0,10.00
2024-10-11 20:45:17.383,0.87730986,0.506639,0.7726038,0.7840978,0.27736327,-0.027574757,0.16539259,0.22237648,0.19672312,-0.020461442,0.27280402,0.4108768,0.46252784,-0.2571011,0.4736996,0.3962169,0.11667188,-0.48794636,0.20860563,-0.10243236,809.4872,800.6227,790.14655,808.68134,571.75824,-0.1307373046875,0.0968017578125,0.98883056640625,-1.24114990234375,23.79119873046875,1.7645263671875,1,1.0,1.0,1.0,1.0,10.00
2024-10-11 20:45:17.384,0.87730986,0.506639,0.7726038,0.7840978,0.27736327,-0.027574757,0.16539259,0.22237648,0.19672312,-0.020461442,0.27280402,0.4108768,0.46252784,-0.2571011,0.4736996,0.3962169,0.11667188,-0.48794636,0.20860563,-0.10243236,801.4286,796.99634,794.57874,808.68134,652.74725,-0.1307373046875,0.0968017578125,0.98883056640625,-1.24114990234375,23.79119873046875,1.7645263671875,1,1.0,1.0,1.0,1.0,10.00
2024-10-11 20:45:17.385,0.87730986,0.506639,0.7726038,0.7840978,0.27736327,-0.027574757,0.16539259,0.22237648,0.19672312,-0.020461442,0.27280402,0.4108768,0.46252784,-0.2571011,0.4736996,0.3962169,0.11667188,-0.48794636,0.20860563,-0.10243236,797.3993,795.78754,801.8315,807.0696,586.6667,-0.1307373046875,0.0968017578125,0.98883056640625,-1.24114990234375,23.79119873046875,1.7645263671875,1,1.0,1.0,1.0,1.0,10.00
2024-10-11 20:45:17.385,0.87730986,0.506639,0.7726038,0.7840978,0.27736327,-0.027574757,0.16539259,0.22237648,0.19672312,-0.020461442,0.27280402,0.4108768,0.46252784,-0.2571011,0.4736996,0.3962169,0.11667188,-0.48794636,0.20860563,-0.10243236,807.47253,797.8022,801.02563,801.8315,488.35165,-0.1307373046875,0.0968017578125,0.98883056640625,-1.24114990234375,23.79119873046875,1.7645263671875,1,1.0,1.0,1.0,1.0,10.00
2024-10-11 20:45:17.386,0.87730986,0.506639,0.7726038,0.7840978,0.27736327,-0.027574757,0.16539259,0.22237648,0.19672312,-0.020461442,0.27280402,0.4108768,0.46252784,-0.2571011,0.4736996,0.3962169,0.11667188,-0.48794636,0.20860563,-0.10243236,813.1135,798.20514,793.7729,805.8608,749.85345,-0.1307373046875,0.0968017578125,0.98883056640625,-1.24114990234375,23.79119873046875,1.7645263671875,1,1.0,1.0,1.0,1.0,10.00
2024-10-11 20:45:17.387,0.87730986,0.506639,0.7726038,0.7840978,0.27736327,-0.027574757,0.16539259,0.22237648,0.19672312,-0.020461442,0.27280402,0.4108768,0.46252784,-0.2571011,0.4736996,0.3962169,0.11667188,-0.48794636,0.20860563,-0.10243236,806.26373,795.38464,796.1905,810.696,1023.0403,-0.1307373046875,0.0968017578125,0.98883056640625,-1.24114990234375,23.79119873046875,1.7645263671875,1,1.0,1.0,1.0,1.0,10.00
2024-10-11 20:45:17.388,0.87730986,0.506639,0.7726038,0.7840978,0.27736327,-0.027574757,0.16539259,0.22237648,0.19672312,-0.020461442,0.27280402,0.4108768,0.46252784,-0.2571011,0.4736996,0.3962169,0.11667188,-0.48794636,0.20860563,-0.10243236,805.05493,793.7729,809.4872,804.2491,827.2161,-0.1307373046875,0.0968017578125,0.98883056640625,-1.24114990234375,23.79119873046875,1.7645263671875,1,1.0,1.0,1.0,1.0,10.00
2024-10-11 20:45:17.389,0.87730986,0.506639,0.7726038,0.7840978,0.27736327,-0.027574757,0.16539259,0.22237648,0.19672312,-0.020461442,0.27280402,0.4108768,0.46252784,-0.2571011,0.4736996,0.3962169,0.11667188,-0.48794636,0.20860563,-0.10243236,811.0989,795.38464,807.0696,800.6227,641.06226,-0.1307373046875,0.0968017578125,0.98883056640625,-1.24114990234375,23.79119873046875,1.7645263671875,1,1.0,1.0,1.0,1.0,10.00
2024-10-11 20:45:17.390,0.87730986,0.506639,0.7726038,0.7840978,0.27736327,-0.027574757,0.16539259,0.22237648,0.19672312,-0.020461442,0.27280402,0.4108768,0.46252784,-0.2571011,0.4736996,0.3962169,0.11667188,-0.48794636,0.20860563,-0.10243236,817.1429,793.7729,798.60803,805.8608,700.696,-0.1307373046875,0.0968017578125,0.98883056640625,-1.24114990234375,23.79119873046875,1.7645263671875,1,1.0,1.0,1.0,1.0,10.00
2024-10-11 20:45:17.391,0.87730986,0.506639,0.7726038,0.7840978,0.27736327,-0.027574757,0.16539259,0.22237648,0.19672312,-0.020461442,0.27280402,0.4108768,0.46252784,-0.2571011,0.4736996,0.3962169,0.11667188,-0.48794636,0.20860563,-0.10243236,828.022,797.8022,796.5934,807.8755,778.86444,-0.1307373046875,0.0968017578125,0.98883056640625,-1.24114990234375,23.79119873046875,1.7645263671875,1,1.0,1.0,1.0,1.0,10.00
2024-10-11 20:45:17.391,0.87730986,0.506639,0.7726038,0.7840978,0.27736327,-0.027574757,0.16539259,0.22237648,0.19672312,-0.020461442,0.27280402,0.4108768,0.46252784,-0.2571011,0.4736996,0.3962169,0.11667188,-0.48794636,0.20860563,-0.10243236,826.4103,803.8461,796.5934,805.8608,587.0696,-0.1307373046875,0.0968017578125,0.98883056640625,-1.24114990234375,23.79119873046875,1.7645263671875,1,1.0,1.0,1.0,1.0,10.00
2024-10-11 20:45:17.392,0.87730986,0.506639,0.7726038,0.7840978,0.27736327,-0.027574757,0.16539259,0.22237648,0.19672312,-0.020461442,0.27280402,0.4108768,0.46252784,-0.2571011,0.4736996,0.3962169,0.11667188,-0.48794636,0.20860563,-0.10243236,814.3223,801.8315,794.17584,801.8315,521.79486,-0.1307373046875,0.0968017578125,0.98883056640625,-1.24114990234375,23.79119873046875,1.7645263671875,1,1.0,1.0,1.0,1.0,10.00
2024-10-11 20:45:17.424,0.87730986,0.506639,0.7726038,0.7840978,0.27736327,-0.027574757,0.16539259,0.22237648,0.19672312,-0.020461442,0.27280402,0.4108768,0.46252784,-0.2571011,0.4736996,0.3962169,0.11667188,-0.48794636,0.20860563,-0.10243236,807.47253,796.5934,796.1905,804.65204,707.9487,-0.1307373046875,0.0968017578125,0.98883056640625,-1.24114990234375,23.79119873046875,1.7645263671875,1,1.0,1.0,1.0,1.0,10.00
2024-10-11 20:45:17.425,0.87730986,0.506639,0.7726038,0.7840978,0.27736327,-0.027574757,0.16539259,0.22237648,0.19672312,-0.020461442,0.27280402,0.4108768,0.46252784,-0.2571011,0.4736996,0.3962169,0.11667188,-0.48794636,0.20860563,-0.10243236,799.81683,795.78754,800.6227,805.4579,725.6777,-0.1307373046875,0.0968017578125,0.98883056640625,-1.24114990234375,23.79119873046875,1.7645263671875,1,1.0,1.0,1.0,1.0,10.00
2024-10-11 20:45:17.426,0.87730986,0.506639,0.7726038,0.7840978,0.27736327,-0.027574757,0.16539259,0.22237648,0.19672312,-0.020461442,0.27280402,0.4108768,0.46252784,-0.2571011,0.4736996,0.3962169,0.11667188,-0.48794636,0.20860563,-0.10243236,804.65204,799.011,804.65204,798.60803,519.7802,-0.1307373046875,0.0968017578125,0.98883056640625,-1.24114990234375,23.79119873046875,1.7645263671875,1,1.0,1.0,1.0,1.0,10.00
2024-10-11 20:45:17.427,0.87730986,0.506639,0.7726038,0.7840978,0.27736327,-0.027574757,0.16539259,0.22237648,0.19672312,-0.020461442,0.27280402,0.4108768,0.46252784,-0.2571011,0.4736996,0.3962169,0.11667188,-0.48794636,0.20860563,-0.10243236,808.2784,797.8022,795.78754,801.8315,533.0769,-0.1307373046875,0.0968017578125,0.98883056640625,-1.24114990234375,23.79119873046875,1.7645263671875,1,1.0,1.0,1.0,1.0,10.00
2024-10-11 20:45:17.428,0.87730986,0.506639,0.7726038,0.7840978,0.27736327,-0.027574757,0.16539259,0.22237648,0.19672312,-0.020461442,0.27280402,0.4108768,0.46252784,-0.2571011,0.4736996,0.3962169,0.11667188,-0.48794636,0.20860563,-0.10243236,809.89014,797.8022,794.57874,807.0696,697.0696,-0.1307373046875,0.0968017578125,0.98883056640625,-1.24114990234375,23.79119873046875,1.7645263671875,1,1.0,1.0,1.0,1.0,10.00
2024-10-11 20:45:17.428,0.87730986,0.506639,0.7726038,0.7840978,0.27736327,-0.027574757,0.16539259,0.22237648,0.19672312,-0.020461442,0.27280402,0.4108768,0.46252784,-0.2571011,0.4736996,0.3962169,0.11667188,-0.48794636,0.20860563,-0.10243236,805.8608,795.38464,793.36993,802.6374,755.09155,-0.1307373046875,0.0968017578125,0.98883056640625,-1.24114990234375,23.79119873046875,1.7645263671875,1,1.0,1.0,1.0,1.0,10.00
2024-10-11 20:45:17.429,0.87730986,0.506639,0.7726038,0.7840978,0.27736327,-0.027574757,0.16539259,0.22237648,0.19672312,-0.020461442,0.27280402,0.4108768,0.46252784,-0.2571011,0.4736996,0.3962169,0.11667188,-0.48794636,0.20860563,-0.10243236,799.41394,794.17584,787.72894,803.8461,776.4469,-0.1307373046875,0.0968017578125,0.98883056640625,-1.24114990234375,23.79119873046875,1.7645263671875,1,1.0,1.0,1.0,1.0,10.00
2024-10-11 20:45:17.430,0.87730986,0.506639,0.7726038,0.7840978,0.27736327,-0.027574757,0.16539259,0.22237648,0.19672312,-0.020461442,0.27280402,0.4108768,0.46252784,-0.2571011,0.4736996,0.3962169,0.11667188,-0.48794636,0.20860563,-0.10243236,804.65204,797.3993,798.60803,804.65204,708.7546,-0.1307373046875,0.0968017578125,0.98883056640625,-1.24114990234375,23.79119873046875,1.7645263671875,1,1.0,1.0,1.0,1.0,10.00
2024-10-11 20:45:17.430,0.87730986,0.506639,0.7726038,0.7840978,0.27736327,-0.027574757,0.16539259,0.22237648,0.19672312,-0.020461442,0.27280402,0.4108768,0.46252784,-0.2571011,0.4736996,0.3962169,0.11667188,-0.48794636,0.20860563,-0.10243236,805.05493,794.17584,804.2491,809.4872,780.4762,-0.1307373046875,0.0968017578125,0.98883056640625,-1.24114990234375,23.79119873046875,1.7645263671875,1,1.0,1.0,1.0,1.0,10.00
2024-10-11 20:45:17.431,0.87730986,0.506639,0.7726038,0.7840978,0.27736327,-0.027574757,0.16539259,0.22237648,0.19672312,-0.020461442,0.27280402,0.4108768,0.46252784,-0.2571011,0.4736996,0.3962169,0.11667188,-0.48794636,0.20860563,-0.10243236,809.0842,795.38464,801.02563,813.1135,794.17584,-0.1307373046875,0.0968017578125,0.98883056640625,-1.24114990234375,23.79119873046875,1.7645263671875,1,1.0,1.0,1.0,1.0,10.00
2024-10-11 20:45:17.432,0.87730986,0.506639,0.7726038,0.7840978,0.27736327,-0.027574757,0.16539259,0.22237648,0.19672312,-0.020461442,0.27280402,0.4108768,0.46252784,-0.2571011,0.4736996,0.3962169,0.11667188,-0.48794636,0.20860563,-0.10243236,815.9341,803.44324,804.2491,809.0842,553.6264,-0.1307373046875,0.0968017578125,0.98883056640625,-1.24114990234375,23.79119873046875,1.7645263671875,1,1.0,1.0,1.0,1.0,10.00
2024-10-11 20:45:17.432,0.87730986,0.49990943,0.75731784,0.7806848,0.27736327,-0.029377488,0.14001334,0.24115913,0.19672312,-0.015255827,0.28527355,0.39037916,0.46252784,-0.2712995,0.5036834,0.40544495,0.11667188,-0.47279596,0.22506048,-0.10292264,807.47253,804.65204,795.38464,809.89014,590.696,-0.1307373046875,0.0968017578125,0.98883056640625,-1.24114990234375,23.79119873046875,1.7645263671875,1,1.0,1.0,1.0,1.0,10.00
2024-10-11 20:45:17.465,0.87730986,0.49990943,0.75731784,0.7806848,0.27736327,-0.029377488,0.14001334,0.24115913,0.19672312,-0.015255827,0.28527355,0.39037916,0.46252784,-0.2712995,0.5036834,0.40544495,0.11667188,-0.47279596,0.22506048,-0.10292264,807.8755,801.8315,787.72894,803.0403,701.0989,-0.1668701171875,0.0943603515625,0.981201171875,-0.5084228515625,22.871551513671875,1.734619140625,1,1.0,1.0,1.0,1.0,10.00
2024-10-11 20:45:17.466,0.87730986,0.49990943,0.75731784,0.7806848,0.27736327,-0.029377488,0.14001334,0.24115913,0.19672312,-0.015255827,0.28527355,0.39037916,0.46252784,-0.2712995,0.5036834,0.40544495,0.11667188,-0.47279596,0.22506048,-0.10292264,815.12823,804.65204,803.44324,801.8315,666.8498,-0.1668701171875,0.0943603515625,0.981201171875,-0.5084228515625,22.871551513671875,1.734619140625,1,1.0,1.0,1.0,1.0,10.00
2024-10-11 20:45:17.467,0.87730986,0.49990943,0.75731784,0.7806848,0.27736327,-0.029377488,0.14001334,0.24115913,0.19672312,-0.015255827,0.28527355,0.39037916,0.46252784,-0.2712995,0.5036834,0.40544495,0.11667188,-0.47279596,0.22506048,-0.10292264,810.293,803.44324,799.81683,805.8608,574.57874,-0.1668701171875,0.0943603515625,0.981201171875,-0.5084228515625,22.871551513671875,1.734619140625,1,1.0,1.0,1.0,1.0,10.00
2024-10-11 20:45:17.468,0.87730986,0.49990943,0.75731784,0.7806848,0.27736327,-0.029377488,0.14001334,0.24115913,0.19672312,-0.015255827,0.28527355,0.39037916,0.46252784,-0.2712995,0.5036834,0.40544495,0.11667188,-0.47279596,0.22506048,-0.10292264,808.2784,802.23444,803.0403,810.293,637.8388,-0.1668701171875,0.0943603515625,0.981201171875,-0.5084228515625,22.871551513671875,1.734619140625,1,1.0,1.0,1.0,1.0,10.00
2024-10-11 20:45:17.469,0.87730986,0.49990943,0.75731784,0.7806848,0.27736327,-0.029377488,0.14001334,0.24115913,0.19672312,-0.015255827,0.28527355,0.39037916,0.46252784,-0.2712995,0.5036834,0.40544495,0.11667188,-0.47279596,0.22506048,-0.10292264,811.0989,799.41394,814.7253,811.0989,883.6264,-0.1668701171875,0.0943603515625,0.981201171875,-0.5084228515625,22.871551513671875,1.734619140625,1,1.0,1.0,1.0,1.0,10.00
2024-10-11 20:45:17.470,0.87730986,0.49990943,0.75731784,0.7806848,0.27736327,-0.029377488,0.14001334,0.24115913,0.19672312,-0.015255827,0.28527355,0.39037916,0.46252784,-0.2712995,0.5036834,0.40544495,0.11667188,-0.47279596,0.22506048,-0.10292264,808.68134,796.1905,801.4286,799.011,823.5897,-0.1668701171875,0.0943603515625,0.981201171875,-0.5084228515625,22.871551513671875,1.734619140625,1,1.0,1.0,1.0,1.0,10.00
2024-10-11 20:45:17.470,0.87730986,0.49990943,0.75731784,0.7806848,0.27736327,-0.029377488,0.14001334,0.24115913,0.19672312,-0.015255827,0.28527355,0.39037916,0.46252784,-0.2712995,0.5036834,0.40544495,0.11667188,-0.47279596,0.22506048,-0.10292264,802.6374,796.99634,799.011,797.8022,663.22345,-0.1668701171875,0.0943603515625,0.981201171875,-0.5084228515625,22.871551513671875,1.734619140625,1,1.0,1.0,1.0,1.0,10.00
2024-10-11 20:45:17.471,0.87730986,0.49990943,0.75731784,0.7806848,0.27736327,-0.029377488,0.14001334,0.24115913,0.19672312,-0.015255827,0.28527355,0.39037916,0.46252784,-0.2712995,0.5036834,0.40544495,0.11667188,-0.47279596,0.22506048,-0.10292264,807.8755,797.8022,809.4872,804.2491,876.77655,-0.1668701171875,0.0943603515625,0.981201171875,-0.5084228515625,22.871551513671875,1.734619140625,1,1.0,1.0,1.0,1.0,10.00
2024-10-11 20:45:17.472,0.87730986,0.49990943,0.75731784,0.7806848,0.27736327,-0.029377488,0.14001334,0.24115913,0.19672312,-0.015255827,0.28527355,0.39037916,0.46252784,-0.2712995,0.5036834,0.40544495,0.11667188,-0.47279596,0.22506048,-0.10292264,812.3077,797.3993,805.4579,802.23444,853.4066,-0.1668701171875,0.0943603515625,0.981201171875,-0.5084228515625,22.871551513671875,1.734619140625,1,1.0,1.0,1.0,1.0,10.00
2024-10-11 20:45:17.475,0.87730986,0.49990943,0.75731784,0.7806848,0.27736327,-0.029377488,0.14001334,0.24115913,0.19672312,-0.015255827,0.28527355,0.39037916,0.46252784,-0.2712995,0.5036834,0.40544495,0.11667188,-0.47279596,0.22506048,-0.10292264,806.26373,801.02563,798.20514,800.6227,518.1685,-0.1668701171875,0.0943603515625,0.981201171875,-0.5084228515625,22.871551513671875,1.734619140625,1,1.0,1.0,1.0,1.0,10.00
2024-10-11 20:45:17.476,0.87730986,0.49990943,0.75731784,0.7806848,0.27736327,-0.029377488,0.14001334,0.24115913,0.19672312,-0.015255827,0.28527355,0.39037916,0.46252784,-0.2712995,0.5036834,0.40544495,0.11667188,-0.47279596,0.22506048,-0.10292264,809.89014,804.2491,800.2198,802.23444,489.1575,-0.1668701171875,0.0943603515625,0.981201171875,-0.5084228515625,22.871551513671875,1.734619140625,1,1.0,1.0,1.0,1.0,10.00
2024-10-11 20:45:17.477,0.87730986,0.49990943,0.75731784,0.7806848,0.27736327,-0.029377488,0.14001334,0.24115913,0.19672312,-0.015255827,0.28527355,0.39037916,0.46252784,-0.2712995,0.5036834,0.40544495,0.11667188,-0.47279596,0.22506048,-0.10292264,808.68134,803.44324,801.8315,813.5165,660.40295,-0.1668701171875,0.0943603515625,0.981201171875,-0.5084228515625,22.871551513671875,1.734619140625,1,1.0,1.0,1.0,1.0,10.00
2024-10-11 20:45:17.478,0.87730986,0.49990943,0.75731784,0.7806848,0.27736327,-0.029377488,0.14001334,0.24115913,0.19672312,-0.015255827,0.28527355,0.39037916,0.46252784,-0.2712995,0.5036834,0.40544495,0.11667188,-0.47279596,0.22506048,-0.10292264,808.68134,804.65204,801.4286,818.7546,637.03296,-0.1904296875,0.09796142578125,0.97802734375,0.620574951171875,20.45654296875,1.996307373046875,1,1.0,1.0,1.0,1.0,10.00
2024-10-11 20:45:17.479,0.87730986,0.49990943,0.75731784,0.7806848,0.27736327,-0.029377488,0.14001334,0.24115913,0.19672312,-0.015255827,0.28527355,0.39037916,0.46252784,-0.2712995,0.5036834,0.40544495,0.11667188,-0.47279596,0.22506048,-0.10292264,815.12823,801.8315,804.65204,810.696,527.8388,-0.1904296875,0.09796142578125,0.97802734375,0.620574951171875,20.45654296875,1.996307373046875,1,1.0,1.0,1.0,1.0,10.00
2024-10-11 20:45:17.480,0.87730986,0.49990943,0.75731784,0.7806848,0.27736327,-0.029377488,0.14001334,0.24115913,0.19672312,-0.015255827,0.28527355,0.39037916,0.46252784,-0.2712995,0.5036834,0.40544495,0.11667188,-0.47279596,0.22506048,-0.10292264,817.1429,799.41394,807.8755,807.47253,539.5238,-0.1904296875,0.09796142578125,0.97802734375,0.620574951171875,20.45654296875,1.996307373046875,1,1.0,1.0,1.0,1.0,10.00
2024-10-11 20:45:17.481,0.87730986,0.49990943,0.75731784,0.7806848,0.27736327,-0.029377488,0.14001334,0.24115913,0.19672312,-0.015255827,0.28527355,0.39037916,0.46252784,-0.2712995,0.5036834,0.40544495,0.11667188,-0.47279596,0.22506048,-0.10292264,809.89014,793.7729,799.41394,812.3077,776.8498,-0.1904296875,0.09796142578125,0.97802734375,0.620574951171875,20.45654296875,1.996307373046875,1,1.0,1.0,1.0,1.0,10.00
2024-10-11 20:45:17.482,0.87730986,0.49990943,0.75731784,0.7806848,0.27736327,-0.029377488,0.14001334,0.24115913,0.19672312,-0.015255827,0.28527355,0.39037916,0.46252784,-0.2712995,0.5036834,0.40544495,0.11667188,-0.47279596,0.22506048,-0.10292264,808.2784,792.5641,801.02563,814.7253,844.5421,-0.1904296875,0.09796142578125,0.97802734375,0.620574951171875,20.45654296875,1.996307373046875,1,1.0,1.0,1.0,1.0,10.00
2024-10-11 20:45:17.483,0.87730986,0.49990943,0.75731784,0.7806848,0.27736327,-0.029377488,0.14001334,0.24115913,0.19672312,-0.015255827,0.28527355,0.39037916,0.46252784,-0.2712995,0.5036834,0.40544495,0.11667188,-0.47279596,0.22506048,-0.10292264,811.50183,799.41394,810.696,810.696,678.1319,-0.1904296875,0.09796142578125,0.97802734375,0.620574951171875,20.45654296875,1.996307373046875,1,1.0,1.0,1.0,1.0,10.00
2024-10-11 20:45:17.484,0.87730986,0.49990943,0.75731784,0.7806848,0.27736327,-0.029377488,0.14001334,0.24115913,0.19672312,-0.015255827,0.28527355,0.39037916,0.46252784,-0.2712995,0.5036834,0.40544495,0.11667188,-0.47279596,0.22506048,-0.10292264,805.05493,799.81683,811.0989,809.4872,720.4396,-0.1904296875,0.09796142578125,0.97802734375,0.620574951171875,20.45654296875,1.996307373046875,1,1.0,1.0,1.0,1.0,10.00
2024-10-11 20:45:17.485,0.87730986,0.49990943,0.75731784,0.7806848,0.27736327,-0.029377488,0.14001334,0.24115913,0.19672312,-0.015255827,0.28527355,0.39037916,0.46252784,-0.2712995,0.5036834,0.40544495,0.11667188,-0.47279596,0.22506048,-0.10292264,803.44324,798.20514,800.6227,811.9048,755.89746,-0.1904296875,0.09796142578125,0.97802734375,0.620574951171875,20.45654296875,1.996307373046875,1,1.0,1.0,1.0,1.0,10.00
2024-10-11 20:45:17.486,0.87730986,0.49990943,0.75731784,0.7806848,0.27736327,-0.029377488,0.14001334,0.24115913,0.19672312,-0.015255827,0.28527355,0.39037916,0.46252784,-0.2712995,0.5036834,0.40544495,0.11667188,-0.47279596,0.22506048,-0.10292264,810.293,798.20514,782.49084,811.9048,660.40295,-0.1904296875,0.09796142578125,0.97802734375,0.620574951171875,20.45654296875,1.996307373046875,1,1.0,1.0,1.0,1.0,10.00
2024-10-11 20:45:17.487,0.87730986,0.49990943,0.75731784,0.7806848,0.27736327,-0.029377488,0.14001334,0.24115913,0.19672312,-0.015255827,0.28527355,0.39037916,0.46252784,-0.2712995,0.5036834,0.40544495,0.11667188,-0.47279596,0.22506048,-0.10292264,800.2198,799.011,794.57874,805.8608,576.99634,-0.1904296875,0.09796142578125,0.97802734375,0.620574951171875,20.45654296875,1.996307373046875,1,1.0,1.0,1.0,1.0,10.00
2024-10-11 20:45:17.488,0.87730986,0.49990943,0.75731784,0.7806848,0.27736327,-0.029377488,0.14001334,0.24115913,0.19672312,-0.015255827,0.28527355,0.39037916,0.46252784,-0.2712995,0.5036834,0.40544495,0.11667188,-0.47279596,0.22506048,-0.10292264,794.9817,795.38464,808.2784,796.99634,594.3223,-0.1904296875,0.09796142578125,0.97802734375,0.620574951171875,20.45654296875,1.996307373046875,1,1.0,1.0,1.0,1.0,10.00
2024-10-11 20:45:17.489,0.87730986,0.49990943,0.75731784,0.7806848,0.27736327,-0.029377488,0.14001334,0.24115913,0.19672312,-0.015255827,0.28527355,0.39037916,0.46252784,-0.2712995,0.5036834,0.40544495,0.11667188,-0.47279596,0.22506048,-0.10292264,802.23444,792.1612,805.8608,796.1905,631.39197,-0.1904296875,0.09796142578125,0.97802734375,0.620574951171875,20.45654296875,1.996307373046875,1,1.0,1.0,1.0,1.0,10.00
2024-10-11 20:45:17.598,0.87730986,0.49990943,0.75731784,0.7806848,0.27736327,-0.029377488,0.14001334,0.24115913,0.19672312,-0.015255827,0.28527355,0.39037916,0.46252784,-0.2712995,0.5036834,0.40544495,0.11667188,-0.47279596,0.22506048,-0.10292264,809.89014,798.20514,797.8022,799.011,548.3883,-0.2171630859375,0.10211181640625,0.98443603515625,1.682281494140625,18.58734130859375,2.0635986328125,1,1.0,1.0,1.0,1.0,10.00
2024-10-11 20:45:17.599,0.87730986,0.5020795,0.74824876,0.7806848,0.27736327,-0.022159109,0.106315546,0.24115913,0.19672312,-0.0103546325,0.31216165,0.39037916,0.46252784,-0.2809564,0.5249937,0.40544495,0.11667188,-0.4591696,0.23532912,-0.10292264,805.8608,799.011,792.96704,798.20514,419.45056,-0.2171630859375,0.10211181640625,0.98443603515625,1.682281494140625,18.58734130859375,2.0635986328125,1,1.0,1.0,1.0,1.0,10.00
2024-10-11 20:45:17.605,0.87730986,0.5020795,0.74824876,0.7806848,0.27736327,-0.022159109,0.106315546,0.24115913,0.19672312,-0.0103546325,0.31216165,0.39037916,0.46252784,-0.2809564,0.5249937,0.40544495,0.11667188,-0.4591696,0.23532912,-0.10292264,796.5934,798.60803,809.4872,796.1905,437.98535,-0.2171630859375,0.10211181640625,0.98443603515625,1.682281494140625,18.58734130859375,2.0635986328125,1,1.0,1.0,1.0,1.0,10.00
2024-10-11 20:45:17.605,0.87730986,0.5020795,0.74824876,0.7806848,0.27736327,-0.022159109,0.106315546,0.24115913,0.19672312,-0.0103546325,0.31216165,0.39037916,0.46252784,-0.2809564,0.5249937,0.40544495,0.11667188,-0.4591696,0.23532912,-0.10292264,801.8315,799.41394,810.696,800.2198,920.293,-0.2171630859375,0.10211181640625,0.98443603515625,1.682281494140625,18.58734130859375,2.0635986328125,1,1.0,1.0,1.0,1.0,10.00
2024-10-11 20:45:17.606,0.87730986,0.5020795,0.74824876,0.7806848,0.27736327,-0.022159109,0.106315546,0.24115913,0.19672312,-0.0103546325,0.31216165,0.39037916,0.46252784,-0.2809564,0.5249937,0.40544495,0.11667188,-0.4591696,0.23532912,-0.10292264,798.60803,796.5934,802.23444,799.81683,1018.60803,-0.2171630859375,0.10211181640625,0.98443603515625,1.682281494140625,18.58734130859375,2.0635986328125,1,1.0,1.0,1.0,1.0,10.00
2024-10-11 20:45:17.607,0.87730986,0.5020795,0.74824876,0.7806848,0.27736327,-0.022159109,0.106315546,0.24115913,0.19672312,-0.0103546325,0.31216165,0.39037916,0.46252784,-0.2809564,0.5249937,0.40544495,0.11667188,-0.4591696,0.23532912,-0.10292264,787.326,795.38464,795.38464,792.1612,620.10986,-0.2171630859375,0.10211181640625,0.98443603515625,1.682281494140625,18.58734130859375,2.0635986328125,1,1.0,1.0,1.0,1.0,10.00
2024-10-11 20:45:17.608,0.87730986,0.5020795,0.74824876,0.7806848,0.27736327,-0.022159109,0.106315546,0.24115913,0.19672312,-0.0103546325,0.31216165,0.39037916,0.46252784,-0.2809564,0.5249937,0.40544495,0.11667188,-0.4591696,0.23532912,-0.10292264,794.57874,794.57874,785.31134,794.57874,711.5751,-0.2171630859375,0.10211181640625,0.98443603515625,1.682281494140625,18.58734130859375,2.0635986328125,1,1.0,1.0,1.0,1.0,10.00
2024-10-11 20:45:17.609,0.87730986,0.5020795,0.74824876,0.7806848,0.27736327,-0.022159109,0.106315546,0.24115913,0.19672312,-0.0103546325,0.31216165,0.39037916,0.46252784,-0.2809564,0.5249937,0.40544495,0.11667188,-0.4591696,0.23532912,-0.10292264,800.6227,794.9817,792.5641,804.65204,975.4945,-0.2171630859375,0.10211181640625,0.98443603515625,1.682281494140625,18.58734130859375,2.0635986328125,1,1.0,1.0,1.0,1.0,10.00
2024-10-11 20:45:17.610,0.87730986,0.5020795,0.74824876,0.7806848,0.27736327,-0.022159109,0.106315546,0.24115913,0.19672312,-0.0103546325,0.31216165,0.39037916,0.46252784,-0.2809564,0.5249937,0.40544495,0.11667188,-0.4591696,0.23532912,-0.10292264,803.44324,797.3993,802.6374,800.2198,782.8938,-0.2171630859375,0.10211181640625,0.98443603515625,1.682281494140625,18.58734130859375,2.0635986328125,1,1.0,1.0,1.0,1.0,10.00
2024-10-11 20:45:17.611,0.87730986,0.5020795,0.74824876,0.7806848,0.27736327,-0.022159109,0.106315546,0.24115913,0.19672312,-0.0103546325,0.31216165,0.39037916,0.46252784,-0.2809564,0.5249937,0.40544495,0.11667188,-0.4591696,0.23532912,-0.10292264,804.65204,796.1905,800.2198,801.02563,571.75824,-0.2171630859375,0.10211181640625,0.98443603515625,1.682281494140625,18.58734130859375,2.0635986328125,1,1.0,1.0,1.0,1.0,10.00
2024-10-11 20:45:17.611,0.87730986,0.5020795,0.74824876,0.7806848,0.27736327,-0.022159109,0.106315546,0.24115913,0.19672312,-0.0103546325,0.31216165,0.39037916,0.46252784,-0.2809564,0.5249937,0.40544495,0.11667188,-0.4591696,0.23532912,-0.10292264,802.23444,791.75824,802.6374,803.8461,711.1722,-0.2171630859375,0.10211181640625,0.98443603515625,1.682281494140625,18.58734130859375,2.0635986328125,1,1.0,1.0,1.0,1.0,10.00
2024-10-11 20:45:17.612,0.87730986,0.5020795,0.74824876,0.7806848,0.27736327,-0.022159109,0.106315546,0.24115913,0.19672312,-0.0103546325,0.31216165,0.39037916,0.46252784,-0.2809564,0.5249937,0.40544495,0.11667188,-0.4591696,0.23532912,-0.10292264,801.4286,793.7729,798.60803,799.81683,678.93774,-0.2171630859375,0.10211181640625,0.98443603515625,1.682281494140625,18.58734130859375,2.0635986328125,1,1.0,1.0,1.0,1.0,10.00
2024-10-11 20:45:17.640,0.87730986,0.5020795,0.74824876,0.7806848,0.27736327,-0.022159109,0.106315546,0.24115913,0.19672312,-0.0103546325,0.31216165,0.39037916,0.46252784,-0.2809564,0.5249937,0.40544495,0.11667188,-0.4591696,0.23532912,-0.10292264,798.20514,794.9817,795.38464,804.65204,608.022,-0.24163818359375,0.10894775390625,0.97503662109375,2.086029052734375,16.37420654296875,1.233673095703125,1,1.0,1.0,1.0,1.0,10.00
2024-10-11 20:45:17.641,0.87730986,0.5020795,0.74824876,0.7806848,0.27736327,-0.022159109,0.106315546,0.24115913,0.19672312,-0.0103546325,0.31216165,0.39037916,0.46252784,-0.2809564,0.5249937,0.40544495,0.11667188,-0.4591696,0.23532912,-0.10292264,805.4579,794.57874,802.23444,808.68134,662.8205,-0.24163818359375,0.10894775390625,0.97503662109375,2.086029052734375,16.37420654296875,1.233673095703125,1,1.0,1.0,1.0,1.0,10.00
2024-10-11 20:45:17.642,0.87730986,0.5020795,0.74824876,0.7806848,0.27736327,-0.022159109,0.106315546,0.24115913,0.19672312,-0.0103546325,0.31216165,0.39037916,0.46252784,-0.2809564,0.5249937,0.40544495,0.11667188,-0.4591696,0.23532912,-0.10292264,807.47253,800.6227,797.3993,807.8755,649.12085,-0.24163818359375,0.10894775390625,0.97503662109375,2.086029052734375,16.37420654296875,1.233673095703125,1,1.0,1.0,1.0,1.0,10.00
2024-10-11 20:45:17.643,0.87730986,0.5020795,0.74824876,0.7806848,0.27736327,-0.022159109,0.106315546,0.24115913,0.19672312,-0.0103546325,0.31216165,0.39037916,0.46252784,-0.2809564,0.5249937,0.40544495,0.11667188,-0.4591696,0.23532912,-0.10292264,798.60803,796.5934,793.7729,801.4286,628.1685,-0.24163818359375,0.10894775390625,0.97503662109375,2.086029052734375,16.37420654296875,1.233673095703125,1,1.0,1.0,1.0,1.0,10.00
2024-10-11 20:45:17.644,0.87730986,0.5020795,0.74824876,0.7806848,0.27736327,-0.022159109,0.106315546,0.24115913,0.19672312,-0.0103546325,0.31216165,0.39037916,0.46252784,-0.2809564,0.5249937,0.40544495,0.11667188,-0.4591696,0.23532912,-0.10292264,799.011,797.8022,801.02563,806.26373,560.07324,-0.24163818359375,0.10894775390625,0.97503662109375,2.086029052734375,16.37420654296875,1.233673095703125,1,1.0,1.0,1.0,1.0,10.00
2024-10-11 20:45:17.644,0.87730986,0.5020795,0.74824876,0.7806848,0.27736327,-0.022159109,0.106315546,0.24115913,0.19672312,-0.0103546325,0.31216165,0.39037916,0.46252784,-0.2809564,0.5249937,0.40544495,0.11667188,-0.4591696,0.23532912,-0.10292264,802.6374,798.20514,809.0842,809.4872,619.707,-0.24163818359375,0.10894775390625,0.97503662109375,2.086029052734375,16.37420654296875,1.233673095703125,1,1.0,1.0,1.0,1.0,10.00
2024-10-11 20:45:17.645,0.87730986,0.5020795,0.74824876,0.7806848,0.27736327,-0.022159109,0.106315546,0.24115913,0.19672312,-0.0103546325,0.31216165,0.39037916,0.46252784,-0.2809564,0.5249937,0.40544495,0.11667188,-0.4591696,0.23532912,-0.10292264,806.6667,789.7436,807.47253,803.0403,875.16486,-0.24163818359375,0.10894775390625,0.97503662109375,2.086029052734375,16.37420654296875,1.233673095703125,1,1.0,1.0,1.0,1.0,10.00
2024-10-11 20:45:17.646,0.87730986,0.5020795,0.74824876,0.7806848,0.27736327,-0.022159109,0.106315546,0.24115913,0.19672312,-0.0103546325,0.31216165,0.39037916,0.46252784,-0.2809564,0.5249937,0.40544495,0.11667188,-0.4591696,0.23532912,-0.10292264,802.23444,791.3553,802.23444,796.99634,760.32965,-0.24163818359375,0.10894775390625,0.97503662109375,2.086029052734375,16.37420654296875,1.233673095703125,1,1.0,1.0,1.0,1.0,10.00
2024-10-11 20:45:17.646,0.87730986,0.5020795,0.74824876,0.7806848,0.27736327,-0.022159109,0.106315546,0.24115913,0.19672312,-0.0103546325,0.31216165,0.39037916,0.46252784,-0.2809564,0.5249937,0.40544495,0.11667188,-0.4591696,0.23532912,-0.10292264,799.011,795.38464,803.8461,797.8022,517.76556,-0.24163818359375,0.10894775390625,0.97503662109375,2.086029052734375,16.37420654296875,1.233673095703125,1,1.0,1.0,1.0,1.0,10.00
2024-10-11 20:45:17.647,0.87730986,0.5020795,0.74824876,0.7806848,0.27736327,-0.022159109,0.106315546,0.24115913,0.19672312,-0.0103546325,0.31216165,0.39037916,0.46252784,-0.2809564,0.5249937,0.40544495,0.11667188,-0.4591696,0.23532912,-0.10292264,801.02563,796.99634,793.36993,801.4286,545.16486,-0.24163818359375,0.10894775390625,0.97503662109375,2.086029052734375,16.37420654296875,1.233673095703125,1,1.0,1.0,1.0,1.0,10.00
2024-10-11 20:45:17.648,0.87730986,0.5020795,0.74824876,0.7806848,0.27736327,-0.022159109,0.106315546,0.24115913,0.19672312,-0.0103546325,0.31216165,0.39037916,0.46252784,-0.2809564,0.5249937,0.40544495,0.11667188,-0.4591696,0.23532912,-0.10292264,802.23444,796.99634,789.7436,807.47253,612.0513,-0.24163818359375,0.10894775390625,0.97503662109375,2.086029052734375,16.37420654296875,1.233673095703125,1,1.0,1.0,1.0,1.0,10.00
2024-10-11 20:45:17.649,0.87730986,0.5020795,0.74824876,0.7806848,0.27736327,-0.022159109,0.106315546,0.24115913,0.19672312,-0.0103546325,0.31216165,0.39037916,0.46252784,-0.2809564,0.5249937,0.40544495,0.11667188,-0.4591696,0.23532912,-0.10292264,809.0842,796.5934,799.41394,815.12823,559.67035,-0.24163818359375,0.10894775390625,0.97503662109375,2.086029052734375,16.37420654296875,1.233673095703125,1,1.0,1.0,1.0,1.0,10.00
2024-10-11 20:45:17.649,0.87730986,0.5020795,0.74824876,0.7806848,0.27736327,-0.022159109,0.106315546,0.24115913,0.19672312,-0.0103546325,0.31216165,0.39037916,0.46252784,-0.2809564,0.5249937,0.40544495,0.11667188,-0.4591696,0.23532912,-0.10292264,805.8608,796.1905,789.7436,809.89014,514.5421,-0.24163818359375,0.10894775390625,0.97503662109375,2.086029052734375,16.37420654296875,1.233673095703125,1,1.0,1.0,1.0,1.0,10.00
2024-10-11 20:45:17.650,0.87730986,0.5020795,0.74824876,0.7806848,0.27736327,-0.022159109,0.106315546,0.24115913,0.19672312,-0.0103546325,0.31216165,0.39037916,0.46252784,-0.2809564,0.5249937,0.40544495,0.11667188,-0.4591696,0.23532912,-0.10292264,801.4286,797.3993,800.6227,808.68134,656.77655,-0.24163818359375,0.10894775390625,0.97503662109375,2.086029052734375,16.37420654296875,1.233673095703125,1,1.0,1.0,1.0,1.0,10.00
2024-10-11 20:45:17.651,0.87730986,0.5020795,0.74824876,0.7806848,0.27736327,-0.022159109,0.106315546,0.24115913,0.19672312,-0.0103546325,0.31216165,0.39037916,0.46252784,-0.2809564,0.5249937,0.40544495,0.11667188,-0.4591696,0.23532912,-0.10292264,802.23444,796.1905,816.7399,809.0842,745.42126,-0.24163818359375,0.10894775390625,0.97503662109375,2.086029052734375,16.37420654296875,1.233673095703125,1,1.0,1.0,1.0,1.0,10.00
2024-10-11 20:45:17.652,0.87730986,0.5061577,0.7406114,0.7806848,0.27736327,-0.014184046,0.0712611,0.24115913,0.19672312,-0.01790473,0.3359836,0.39037916,0.46252784,-0.28560448,0.5414971,0.40544495,0.11667188,-0.44717467,0.24276574,-0.10292264,795.38464,787.72894,805.8608,803.0403,768.3883,-0.24163818359375,0.10894775390625,0.97503662109375,2.086029052734375,16.37420654296875,1.233673095703125,1,1.0,1.0,1.0,1.0,10.00
2024-10-11 20:45:17.657,0.87730986,0.5061577,0.7406114,0.7806848,0.27736327,-0.014184046,0.0712611,0.24115913,0.19672312,-0.01790473,0.3359836,0.39037916,0.46252784,-0.28560448,0.5414971,0.40544495,0.11667188,-0.44717467,0.24276574,-0.10292264,801.02563,789.34064,801.02563,802.23444,742.6007,-0.24163818359375,0.10894775390625,0.97503662109375,2.086029052734375,16.37420654296875,1.233673095703125,1,1.0,1.0,1.0,1.0,10.00
2024-10-11 20:45:17.658,0.87730986,0.5061577,0.7406114,0.7806848,0.27736327,-0.014184046,0.0712611,0.24115913,0.19672312,-0.01790473,0.3359836,0.39037916,0.46252784,-0.28560448,0.5414971,0.40544495,0.11667188,-0.44717467,0.24276574,-0.10292264,811.50183,792.96704,800.6227,806.6667,765.9707,-0.24163818359375,0.10894775390625,0.97503662109375,2.086029052734375,16.37420654296875,1.233673095703125,1,1.0,1.0,1.0,1.0,10.00
2024-10-11 20:45:17.659,0.87730986,0.5061577,0.7406114,0.7806848,0.27736327,-0.014184046,0.0712611,0.24115913,0.19672312,-0.01790473,0.3359836,0.39037916,0.46252784,-0.28560448,0.5414971,0.40544495,0.11667188,-0.44717467,0.24276574,-0.10292264,820.7692,788.1319,801.8315,825.2015,938.022,-0.24163818359375,0.10894775390625,0.97503662109375,2.086029052734375,16.37420654296875,1.233673095703125,1,1.0,1.0,1.0,1.0,10.00
2024-10-11 20:45:17.660,0.87730986,0.5061577,0.7406114,0.7806848,0.27736327,-0.014184046,0.0712611,0.24115913,0.19672312,-0.01790473,0.3359836,0.39037916,0.46252784,-0.28560448,0.5414971,0.40544495,0.11667188,-0.44717467,0.24276574,-0.10292264,806.6667,788.1319,802.6374,813.5165,692.6374,-0.24163818359375,0.10894775390625,0.97503662109375,2.086029052734375,16.37420654296875,1.233673095703125,1,1.0,1.0,1.0,1.0,10.00
2024-10-11 20:45:17.661,0.87730986,0.5061577,0.7406114,0.7806848,0.27736327,-0.014184046,0.0712611,0.24115913,0.19672312,-0.01790473,0.3359836,0.39037916,0.46252784,-0.28560448,0.5414971,0.40544495,0.11667188,-0.44717467,0.24276574,-0.10292264,791.75824,795.38464,800.6227,791.3553,446.4469,-0.24163818359375,0.10894775390625,0.97503662109375,2.086029052734375,16.37420654296875,1.233673095703125,1,1.0,1.0,1.0,1.0,10.00
2024-10-11 20:45:17.661,0.87730986,0.5061577,0.7406114,0.7806848,0.27736327,-0.014184046,0.0712611,0.24115913,0.19672312,-0.01790473,0.3359836,0.39037916,0.46252784,-0.28560448,0.5414971,0.40544495,0.11667188,-0.44717467,0.24276574,-0.10292264,795.38464,795.38464,797.3993,797.8022,694.2491,-0.24163818359375,0.10894775390625,0.97503662109375,2.086029052734375,16.37420654296875,1.233673095703125,1,1.0,1.0,1.0,1.0,10.00
2024-10-11 20:45:17.662,0.87730986,0.5061577,0.7406114,0.7806848,0.27736327,-0.014184046,0.0712611,0.24115913,0.19672312,-0.01790473,0.3359836,0.39037916,0.46252784,-0.28560448,0.5414971,0.40544495,0.11667188,-0.44717467,0.24276574,-0.10292264,791.3553,791.75824,803.44324,799.011,826.0073,-0.24163818359375,0.10894775390625,0.97503662109375,2.086029052734375,16.37420654296875,1.233673095703125,1,1.0,1.0,1.0,1.0,10.00
2024-10-11 20:45:17.663,0.87730986,0.5061577,0.7406114,0.7806848,0.27736327,-0.014184046,0.0712611,0.24115913,0.19672312,-0.01790473,0.3359836,0.39037916,0.46252784,-0.28560448,0.5414971,0.40544495,0.11667188,-0.44717467,0.24276574,-0.10292264,792.5641,793.7729,801.8315,789.7436,564.10254,-0.24163818359375,0.10894775390625,0.97503662109375,2.086029052734375,16.37420654296875,1.233673095703125,1,1.0,1.0,1.0,1.0,10.00
