TimeStamp,Delta_TP9,Delta_AF7,Delta_AF8,Delta_TP10,Theta_TP9,Theta_AF7,Theta_AF8,Theta_TP10,Alpha_TP9,Alpha_AF7,Alpha_AF8,Alpha_TP10,Beta_TP9,Beta_AF7,Beta_AF8,Beta_TP10,Gamma_TP9,Gamma_AF7,Gamma_AF8,Gamma_TP10,RAW_TP9,RAW_AF7,RAW_AF8,RAW_TP10,AUX_RIGHT,Accelerometer_X,Accelerometer_Y,Accelerometer_Z,Gyro_X,Gyro_Y,Gyro_Z,HeadBandOn,HSI_TP9,HSI_AF7,HSI_AF8,HSI_TP10,Battery,Elements
2024-10-11 20:46:46.949,0.7393767,0.8940906,-0.20868291,0.9155977,0.55632913,0.4319046,-0.08702081,0.44906065,0.6158349,0.2375608,-0.059344362,0.5218447,0.4362744,-0.17479785,0.552903,0.3112637,-0.036785036,-0.23833962,0.3415378,-0.055917177,792.96704,788.5348,817.5458,794.9817,896.1172,0.06463623046875,0.1270751953125,0.99725341796875,0.85235595703125,-0.710296630859375,0.3887939453125,1,1.0,1.0,1.0,1.0,10.00
2024-10-11 20:46:46.950,0.7393767,0.8940906,-0.20868291,0.9155977,0.55632913,0.4319046,-0.08702081,0.44906065,0.6158349,0.2375608,-0.059344362,0.5218447,0.4362744,-0.17479785,0.552903,0.3112637,-0.036785036,-0.23833962,0.3415378,-0.055917177,790.9524,791.3553,803.8461,796.5934,948.49817,0.06463623046875,0.1270751953125,0.99725341796875,0.85235595703125,-0.710296630859375,0.3887939453125,1,1.0,1.0,1.0,1.0,10.00
2024-10-11 20:46:46.951,0.7393767,0.8940906,-0.20868291,0.9155977,0.55632913,0.4319046,-0.08702081,0.44906065,0.6158349,0.2375608,-0.059344362,0.5218447,0.4362744,-0.17479785,0.552903,0.3112637,-0.036785036,-0.23833962,0.3415378,-0.055917177,790.14655,797.8022,798.60803,793.7729,796.5934,0.06463623046875,0.1270751953125,0.99725341796875,0.85235595703125,-0.710296630859375,0.3887939453125,1,1.0,1.0,1.0,1.0,10.00
2024-10-11 20:46:46.952,0.7393767,0.8940906,-0.20868291,0.9155977,0.55632913,0.4319046,-0.08702081,0.44906065,0.6158349,0.2375608,-0.059344362,0.5218447,0.4362744,-0.17479785,0.552903,0.3112637,-0.036785036,-0.23833962,0.3415378,-0.055917177,790.54944,795.38464,799.41394,792.1612,699.0842,0.06463623046875,0.1270751953125,0.99725341796875,0.85235595703125,-0.710296630859375,0.3887939453125,1,1.0,1.0,1.0,1.0,10.00
2024-10-11 20:46:46.953,0.7393767,0.8940906,-0.20868291,0.9155977,0.55632913,0.4319046,-0.08702081,0.44906065,0.6158349,0.2375608,-0.059344362,0.5218447,0.4362744,-0.17479785,0.552903,0.3112637,-0.036785036,-0.23833962,0.3415378,-0.055917177,797.8022,792.5641,780.87915,794.9817,726.4835,0.06463623046875,0.1270751953125,0.99725341796875,0.85235595703125,-0.710296630859375,0.3887939453125,1,1.0,1.0,1.0,1.0,10.00
2024-10-11 20:46:46.953,0.68572557,0.8856127,-0.23434202,0.8551255,0.5427301,0.4098832,-0.057569433,0.42358777,0.6158349,0.23453462,-0.058836285,0.58101237,0.4470594,-0.17548063,0.53361464,0.36161366,-0.030873267,-0.27842918,0.31787288,-0.020515455,798.60803,794.9817,779.2674,791.3553,827.2161,0.06463623046875,0.1270751953125,0.99725341796875,0.85235595703125,-0.710296630859375,0.3887939453125,1,1.0,1.0,1.0,1.0,10.00
2024-10-11 20:46:46.958,0.68572557,0.8856127,-0.23434202,0.8551255,0.5427301,0.4098832,-0.057569433,0.42358777,0.6158349,0.23453462,-0.058836285,0.58101237,0.4470594,-0.17548063,0.53361464,0.36161366,-0.030873267,-0.27842918,0.31787288,-0.020515455,790.9524,794.57874,805.4579,789.7436,834.4689,0.06463623046875,0.1270751953125,0.99725341796875,0.85235595703125,-0.710296630859375,0.3887939453125,1,1.0,1.0,1.0,1.0,10.00
2024-10-11 20:46:46.959,0.68572557,0.8856127,-0.23434202,0.8551255,0.5427301,0.4098832,-0.057569433,0.42358777,0.6158349,0.23453462,-0.058836285,0.58101237,0.4470594,-0.17548063,0.53361464,0.36161366,-0.030873267,-0.27842918,0.31787288,-0.020515455,791.75824,795.38464,807.0696,796.1905,803.8461,0.06463623046875,0.1270751953125,0.99725341796875,0.85235595703125,-0.710296630859375,0.3887939453125,1,1.0,1.0,1.0,1.0,10.00
2024-10-11 20:46:46.960,0.68572557,0.8856127,-0.23434202,0.8551255,0.5427301,0.4098832,-0.057569433,0.42358777,0.6158349,0.23453462,-0.058836285,0.58101237,0.4470594,-0.17548063,0.53361464,0.36161366,-0.030873267,-0.27842918,0.31787288,-0.020515455,792.5641,797.8022,794.57874,801.8315,875.56775,0.06463623046875,0.1270751953125,0.99725341796875,0.85235595703125,-0.710296630859375,0.3887939453125,1,1.0,1.0,1.0,1.0,10.00
2024-10-11 20:46:46.961,0.68572557,0.8856127,-0.23434202,0.8551255,0.5427301,0.4098832,-0.057569433,0.42358777,0.6158349,0.23453462,-0.058836285,0.58101237,0.4470594,-0.17548063,0.53361464,0.36161366,-0.030873267,-0.27842918,0.31787288,-0.020515455,796.99634,799.011,794.57874,790.9524,849.3773,0.06463623046875,0.1270751953125,0.99725341796875,0.85235595703125,-0.710296630859375,0.3887939453125,1,1.0,1.0,1.0,1.0,10.00
2024-10-11 20:46:46.962,0.68572557,0.8856127,-0.23434202,0.8551255,0.5427301,0.4098832,-0.057569433,0.42358777,0.6158349,0.23453462,-0.058836285,0.58101237,0.4470594,-0.17548063,0.53361464,0.36161366,-0.030873267,-0.27842918,0.31787288,-0.020515455,797.8022,796.99634,801.4286,787.72894,660.40295,0.06463623046875,0.1270751953125,0.99725341796875,0.85235595703125,-0.710296630859375,0.3887939453125,1,1.0,1.0,1.0,1.0,10.00
2024-10-11 20:46:46.963,0.68572557,0.8856127,-0.23434202,0.8551255,0.5427301,0.4098832,-0.057569433,0.42358777,0.6158349,0.23453462,-0.058836285,0.58101237,0.4470594,-0.17548063,0.53361464,0.36161366,-0.030873267,-0.27842918,0.31787288,-0.020515455,796.5934,795.38464,799.41394,792.1612,675.31134,0.06463623046875,0.1270751953125,0.99725341796875,0.85235595703125,-0.710296630859375,0.3887939453125,1,1.0,1.0,1.0,1.0,10.00
2024-10-11 20:46:46.964,0.68572557,0.8856127,-0.23434202,0.8551255,0.5427301,0.4098832,-0.057569433,0.42358777,0.6158349,0.23453462,-0.058836285,0.58101237,0.4470594,-0.17548063,0.53361464,0.36161366,-0.030873267,-0.27842918,0.31787288,-0.020515455,794.57874,794.9817,797.8022,794.17584,783.2967,0.06463623046875,0.1270751953125,0.99725341796875,0.85235595703125,-0.710296630859375,0.3887939453125,1,1.0,1.0,1.0,1.0,10.00
2024-10-11 20:46:46.965,0.68572557,0.8856127,-0.23434202,0.8551255,0.5427301,0.4098832,-0.057569433,0.42358777,0.6158349,0.23453462,-0.058836285,0.58101237,0.4470594,-0.17548063,0.53361464,0.36161366,-0.030873267,-0.27842918,0.31787288,-0.020515455,786.52014,796.5934,793.7729,792.1612,620.9158,0.06463623046875,0.1270751953125,0.99725341796875,0.85235595703125,-0.710296630859375,0.3887939453125,1,1.0,1.0,1.0,1.0,10.00
2024-10-11 20:46:46.965,0.68572557,0.8856127,-0.23434202,0.8551255,0.5427301,0.4098832,-0.057569433,0.42358777,0.6158349,0.23453462,-0.058836285,0.58101237,0.4470594,-0.17548063,0.53361464,0.36161366,-0.030873267,-0.27842918,0.31787288,-0.020515455,794.57874,800.2198,799.81683,788.93774,460.1465,0.06463623046875,0.1270751953125,0.99725341796875,0.85235595703125,-0.710296630859375,0.3887939453125,1,1.0,1.0,1.0,1.0,10.00
2024-10-11 20:46:46.966,0.68572557,0.8856127,-0.23434202,0.8551255,0.5427301,0.4098832,-0.057569433,0.42358777,0.6158349,0.23453462,-0.058836285,0.58101237,0.4470594,-0.17548063,0.53361464,0.36161366,-0.030873267,-0.27842918,0.31787288,-0.020515455,801.8315,801.4286,799.81683,792.5641,655.9707,0.06463623046875,0.1270751953125,0.99725341796875,0.85235595703125,-0.710296630859375,0.3887939453125,1,1.0,1.0,1.0,1.0,10.00
2024-10-11 20:46:46.967,0.68572557,0.8856127,-0.23434202,0.8551255,0.5427301,0.4098832,-0.057569433,0.42358777,0.6158349,0.23453462,-0.058836285,0.58101237,0.4470594,-0.17548063,0.53361464,0.36161366,-0.030873267,-0.27842918,0.31787288,-0.020515455,794.57874,800.2198,796.5934,792.1612,877.98535,0.06463623046875,0.1270751953125,0.99725341796875,0.85235595703125,-0.710296630859375,0.3887939453125,1,1.0,1.0,1.0,1.0,10.00
2024-10-11 20:46:46.968,0.68572557,0.8856127,-0.23434202,0.8551255,0.5427301,0.4098832,-0.057569433,0.42358777,0.6158349,0.23453462,-0.058836285,0.58101237,0.4470594,-0.17548063,0.53361464,0.36161366,-0.030873267,-0.27842918,0.31787288,-0.020515455,794.9817,796.99634,803.8461,790.54944,849.7802,0.06463623046875,0.1270751953125,0.99725341796875,0.85235595703125,-0.710296630859375,0.3887939453125,1,1.0,1.0,1.0,1.0,10.00
2024-10-11 20:46:46.969,0.68572557,0.8856127,-0.23434202,0.8551255,0.5427301,0.4098832,-0.057569433,0.42358777,0.6158349,0.23453462,-0.058836285,0.58101237,0.4470594,-0.17548063,0.53361464,0.36161366,-0.030873267,-0.27842918,0.31787288,-0.020515455,799.81683,796.1905,797.8022,799.81683,734.1392,0.06463623046875,0.1270751953125,0.99725341796875,0.85235595703125,-0.710296630859375,0.3887939453125,1,1.0,1.0,1.0,1.0,10.00
2024-10-11 20:46:46.970,0.68572557,0.8856127,-0.23434202,0.8551255,0.5427301,0.4098832,-0.057569433,0.42358777,0.6158349,0.23453462,-0.058836285,0.58101237,0.4470594,-0.17548063,0.53361464,0.36161366,-0.030873267,-0.27842918,0.31787288,-0.020515455,803.44324,800.2198,795.78754,811.9048,762.74725,0.06463623046875,0.1270751953125,0.99725341796875,0.85235595703125,-0.710296630859375,0.3887939453125,1,1.0,1.0,1.0,1.0,10.00
2024-10-11 20:46:46.971,0.68572557,0.8856127,-0.23434202,0.8551255,0.5427301,0.4098832,-0.057569433,0.42358777,0.6158349,0.23453462,-0.058836285,0.58101237,0.4470594,-0.17548063,0.53361464,0.36161366,-0.030873267,-0.27842918,0.31787288,-0.020515455,800.2198,801.4286,797.8022,815.5311,847.3626,0.06463623046875,0.1270751953125,0.99725341796875,0.85235595703125,-0.710296630859375,0.3887939453125,1,1.0,1.0,1.0,1.0,10.00
2024-10-11 20:46:46.971,0.68572557,0.8856127,-0.23434202,0.8551255,0.5427301,0.4098832,-0.057569433,0.42358777,0.6158349,0.23453462,-0.058836285,0.58101237,0.4470594,-0.17548063,0.53361464,0.36161366,-0.030873267,-0.27842918,0.31787288,-0.020515455,800.2198,796.99634,796.5934,807.8755,657.98535,0.06463623046875,0.1270751953125,0.99725341796875,0.85235595703125,-0.710296630859375,0.3887939453125,1,1.0,1.0,1.0,1.0,10.00
2024-10-11 20:46:46.972,0.68572557,0.8856127,-0.23434202,0.8551255,0.5427301,0.4098832,-0.057569433,0.42358777,0.6158349,0.23453462,-0.058836285,0.58101237,0.4470594,-0.17548063,0.53361464,0.36161366,-0.030873267,-0.27842918,0.31787288,-0.020515455,801.8315,794.57874,799.41394,801.4286,606.4103,0.06463623046875,0.1270751953125,0.99725341796875,0.85235595703125,-0.710296630859375,0.3887939453125,1,1.0,1.0,1.0,1.0,10.00
2024-10-11 20:46:46.973,0.68572557,0.8856127,-0.23434202,0.8551255,0.5427301,0.4098832,-0.057569433,0.42358777,0.6158349,0.23453462,-0.058836285,0.58101237,0.4470594,-0.17548063,0.53361464,0.36161366,-0.030873267,-0.27842918,0.31787288,-0.020515455,794.57874,796.5934,803.0403,805.8608,842.52747,0.06463623046875,0.1270751953125,0.99725341796875,0.85235595703125,-0.710296630859375,0.3887939453125,1,1.0,1.0,1.0,1.0,10.00
2024-10-11 20:46:46.974,0.68572557,0.8856127,-0.23434202,0.8551255,0.5427301,0.4098832,-0.057569433,0.42358777,0.6158349,0.23453462,-0.058836285,0.58101237,0.4470594,-0.17548063,0.53361464,0.36161366,-0.030873267,-0.27842918,0.31787288,-0.020515455,794.17584,795.78754,793.36993,808.68134,842.52747,0.05810546875,0.12860107421875,0.99639892578125,0.83740234375,-0.418701171875,0.171966552734375,1,1.0,1.0,1.0,1.0,10.00
2024-10-11 20:46:46.975,0.68572557,0.8856127,-0.23434202,0.8551255,0.5427301,0.4098832,-0.057569433,0.42358777,0.6158349,0.23453462,-0.058836285,0.58101237,0.4470594,-0.17548063,0.53361464,0.36161366,-0.030873267,-0.27842918,0.31787288,-0.020515455,792.96704,796.5934,795.38464,800.2198,660.40295,0.05810546875,0.12860107421875,0.99639892578125,0.83740234375,-0.418701171875,0.171966552734375,1,1.0,1.0,1.0,1.0,10.00
2024-10-11 20:46:46.976,0.68572557,0.8856127,-0.23434202,0.8551255,0.5427301,0.4098832,-0.057569433,0.42358777,0.6158349,0.23453462,-0.058836285,0.58101237,0.4470594,-0.17548063,0.53361464,0.36161366,-0.030873267,-0.27842918,0.31787288,-0.020515455,801.02563,798.20514,802.23444,796.99634,674.90845,0.05810546875,0.12860107421875,0.99639892578125,0.83740234375,-0.418701171875,0.171966552734375,1,1.0,1.0,1.0,1.0,10.00
2024-10-11 20:46:46.978,0.68572557,0.8856127,-0.23434202,0.8551255,0.5427301,0.4098832,-0.057569433,0.42358777,0.6158349,0.23453462,-0.058836285,0.58101237,0.4470594,-0.17548063,0.53361464,0.36161366,-0.030873267,-0.27842918,0.31787288,-0.020515455,817.9487,796.5934,800.2198,808.68134,834.0659,0.05810546875,0.12860107421875,0.99639892578125,0.83740234375,-0.418701171875,0.171966552734375,1,1.0,1.0,1.0,1.0,10.00
2024-10-11 20:46:46.979,0.68572557,0.8856127,-0.23434202,0.8551255,0.5427301,0.4098832,-0.057569433,0.42358777,0.6158349,0.23453462,-0.058836285,0.58101237,0.4470594,-0.17548063,0.53361464,0.36161366,-0.030873267,-0.27842918,0.31787288,-0.020515455,815.9341,799.41394,808.2784,811.50183,894.10254,0.05810546875,0.12860107421875,0.99639892578125,0.83740234375,-0.418701171875,0.171966552734375,1,1.0,1.0,1.0,1.0,10.00
2024-10-11 20:46:46.980,0.68572557,0.8856127,-0.23434202,0.8551255,0.5427301,0.4098832,-0.057569433,0.42358777,0.6158349,0.23453462,-0.058836285,0.58101237,0.4470594,-0.17548063,0.53361464,0.36161366,-0.030873267,-0.27842918,0.31787288,-0.020515455,808.2784,801.4286,807.0696,807.8755,851.39197,0.05810546875,0.12860107421875,0.99639892578125,0.83740234375,-0.418701171875,0.171966552734375,1,1.0,1.0,1.0,1.0,10.00
2024-10-11 20:46:46.981,0.68572557,0.8856127,-0.23434202,0.8551255,0.5427301,0.4098832,-0.057569433,0.42358777,0.6158349,0.23453462,-0.058836285,0.58101237,0.4470594,-0.17548063,0.53361464,0.36161366,-0.030873267,-0.27842918,0.31787288,-0.020515455,807.47253,797.3993,796.1905,801.02563,923.5165,0.05810546875,0.12860107421875,0.99639892578125,0.83740234375,-0.418701171875,0.171966552734375,1,1.0,1.0,1.0,1.0,10.00
2024-10-11 20:46:46.982,0.6506743,0.8641817,-0.2560351,0.8038565,0.5305531,0.3672343,-0.03046507,0.41807708,0.6158349,0.2018726,-0.058836285,0.6153967,0.47529745,-0.18210869,0.51482886,0.41281414,-0.021343004,-0.32778224,0.29151765,0.015363744,800.2198,793.36993,795.38464,796.99634,1059.7069,0.05810546875,0.12860107421875,0.99639892578125,0.83740234375,-0.418701171875,0.171966552734375,1,1.0,1.0,1.0,1.0,10.00
2024-10-11 20:46:46.987,0.6506743,0.8641817,-0.2560351,0.8038565,0.5305531,0.3672343,-0.03046507,0.41807708,0.6158349,0.2018726,-0.058836285,0.6153967,0.47529745,-0.18210869,0.51482886,0.41281414,-0.021343004,-0.32778224,0.29151765,0.015363744,791.75824,798.60803,790.9524,799.011,954.1392,0.05810546875,0.12860107421875,0.99639892578125,0.83740234375,-0.418701171875,0.171966552734375,1,1.0,1.0,1.0,1.0,10.00
2024-10-11 20:46:46.988,0.6506743,0.8641817,-0.2560351,0.8038565,0.5305531,0.3672343,-0.03046507,0.41807708,0.6158349,0.2018726,-0.058836285,0.6153967,0.47529745,-0.18210869,0.51482886,0.41281414,-0.021343004,-0.32778224,0.29151765,0.015363744,798.60803,804.2491,796.99634,805.4579,767.5824,0.05810546875,0.12860107421875,0.99639892578125,0.83740234375,-0.418701171875,0.171966552734375,1,1.0,1.0,1.0,1.0,10.00
2024-10-11 20:46:46.989,0.6506743,0.8641817,-0.2560351,0.8038565,0.5305531,0.3672343,-0.03046507,0.41807708,0.6158349,0.2018726,-0.058836285,0.6153967,0.47529745,-0.18210869,0.51482886,0.41281414,-0.021343004,-0.32778224,0.29151765,0.015363744,805.4579,799.41394,805.05493,805.4579,816.337,0.05810546875,0.12860107421875,0.99639892578125,0.83740234375,-0.418701171875,0.171966552734375,1,1.0,1.0,1.0,1.0,10.00
2024-10-11 20:46:46.990,0.6506743,0.8641817,-0.2560351,0.8038565,0.5305531,0.3672343,-0.03046507,0.41807708,0.6158349,0.2018726,-0.058836285,0.6153967,0.47529745,-0.18210869,0.51482886,0.41281414,-0.021343004,-0.32778224,0.29151765,0.015363744,807.8755,797.8022,799.81683,798.60803,865.09155,0.05810546875,0.12860107421875,0.99639892578125,0.83740234375,-0.418701171875,0.171966552734375,1,1.0,1.0,1.0,1.0,10.00
2024-10-11 20:46:46.992,0.6506743,0.8641817,-0.2560351,0.8038565,0.5305531,0.3672343,-0.03046507,0.41807708,0.6158349,0.2018726,-0.058836285,0.6153967,0.47529745,-0.18210869,0.51482886,0.41281414,-0.021343004,-0.32778224,0.29151765,0.015363744,803.44324,801.4286,810.696,799.011,826.0073,0.06146240234375,0.12890625,0.99798583984375,0.560760498046875,-0.530853271484375,0.381317138671875,1,1.0,1.0,1.0,1.0,10.00
2024-10-11 20:46:46.993,0.6506743,0.8641817,-0.2560351,0.8038565,0.5305531,0.3672343,-0.03046507,0.41807708,0.6158349,0.2018726,-0.058836285,0.6153967,0.47529745,-0.18210869,0.51482886,0.41281414,-0.021343004,-0.32778224,0.29151765,0.015363744,795.38464,803.0403,804.2491,799.41394,754.68866,0.06146240234375,0.12890625,0.99798583984375,0.560760498046875,-0.530853271484375,0.381317138671875,1,1.0,1.0,1.0,1.0,10.00
2024-10-11 20:46:46.994,0.6506743,0.8641817,-0.2560351,0.8038565,0.5305531,0.3672343,-0.03046507,0.41807708,0.6158349,0.2018726,-0.058836285,0.6153967,0.47529745,-0.18210869,0.51482886,0.41281414,-0.021343004,-0.32778224,0.29151765,0.015363744,791.75824,800.6227,796.99634,806.26373,775.64105,0.06146240234375,0.12890625,0.99798583984375,0.560760498046875,-0.530853271484375,0.381317138671875,1,1.0,1.0,1.0,1.0,10.00
2024-10-11 20:46:46.995,0.6506743,0.8641817,-0.2560351,0.8038565,0.5305531,0.3672343,-0.03046507,0.41807708,0.6158349,0.2018726,-0.058836285,0.6153967,0.47529745,-0.18210869,0.51482886,0.41281414,-0.021343004,-0.32778224,0.29151765,0.015363744,788.1319,800.6227,807.47253,808.2784,890.4762,0.06146240234375,0.12890625,0.99798583984375,0.560760498046875,-0.530853271484375,0.381317138671875,1,1.0,1.0,1.0,1.0,10.00
2024-10-11 20:46:46.996,0.6506743,0.8641817,-0.2560351,0.8038565,0.5305531,0.3672343,-0.03046507,0.41807708,0.6158349,0.2018726,-0.058836285,0.6153967,0.47529745,-0.18210869,0.51482886,0.41281414,-0.021343004,-0.32778224,0.29151765,0.015363744,793.36993,800.6227,807.47253,802.6374,736.9597,0.06146240234375,0.12890625,0.99798583984375,0.560760498046875,-0.530853271484375,0.381317138671875,1,1.0,1.0,1.0,1.0,10.00
2024-10-11 20:46:46.997,0.6506743,0.8641817,-0.2560351,0.8038565,0.5305531,0.3672343,-0.03046507,0.41807708,0.6158349,0.2018726,-0.058836285,0.6153967,0.47529745,-0.18210869,0.51482886,0.41281414,-0.021343004,-0.32778224,0.29151765,0.015363744,799.81683,797.3993,805.8608,807.0696,791.3553,0.06146240234375,0.12890625,0.99798583984375,0.560760498046875,-0.530853271484375,0.381317138671875,1,1.0,1.0,1.0,1.0,10.00
2024-10-11 20:46:46.998,0.6506743,0.8641817,-0.2560351,0.8038565,0.5305531,0.3672343,-0.03046507,0.41807708,0.6158349,0.2018726,-0.058836285,0.6153967,0.47529745,-0.18210869,0.51482886,0.41281414,-0.021343004,-0.32778224,0.29151765,0.015363744,803.0403,799.011,796.1905,811.50183,1092.7472,0.06146240234375,0.12890625,0.99798583984375,0.560760498046875,-0.530853271484375,0.381317138671875,1,1.0,1.0,1.0,1.0,10.00
2024-10-11 20:46:46.998,0.6506743,0.8641817,-0.2560351,0.8038565,0.5305531,0.3672343,-0.03046507,0.41807708,0.6158349,0.2018726,-0.058836285,0.6153967,0.47529745,-0.18210869,0.51482886,0.41281414,-0.021343004,-0.32778224,0.29151765,0.015363744,798.60803,794.57874,800.6227,805.8608,1049.2307,0.06146240234375,0.12890625,0.99798583984375,0.560760498046875,-0.530853271484375,0.381317138671875,1,1.0,1.0,1.0,1.0,10.00
2024-10-11 20:46:46.999,0.6506743,0.8641817,-0.2560351,0.8038565,0.5305531,0.3672343,-0.03046507,0.41807708,0.6158349,0.2018726,-0.058836285,0.6153967,0.47529745,-0.18210869,0.51482886,0.41281414,-0.021343004,-0.32778224,0.29151765,0.015363744,790.54944,789.7436,811.9048,805.05493,738.5714,0.06146240234375,0.12890625,0.99798583984375,0.560760498046875,-0.530853271484375,0.381317138671875,1,1.0,1.0,1.0,1.0,10.00
2024-10-11 20:46:47.000,0.6506743,0.8641817,-0.2560351,0.8038565,0.5305531,0.3672343,-0.03046507,0.41807708,0.6158349,0.2018726,-0.058836285,0.6153967,0.47529745,-0.18210869,0.51482886,0.41281414,-0.021343004,-0.32778224,0.29151765,0.015363744,787.326,796.5934,804.65204,803.0403,682.5641,0.06146240234375,0.12890625,0.99798583984375,0.560760498046875,-0.530853271484375,0.381317138671875,1,1.0,1.0,1.0,1.0,10.00
2024-10-11 20:46:47.001,0.6506743,0.8641817,-0.2560351,0.8038565,0.5305531,0.3672343,-0.03046507,0.41807708,0.6158349,0.2018726,-0.058836285,0.6153967,0.47529745,-0.18210869,0.51482886,0.41281414,-0.021343004,-0.32778224,0.29151765,0.015363744,795.38464,796.5934,801.4286,804.65204,936.4103,0.06146240234375,0.12890625,0.99798583984375,0.560760498046875,-0.530853271484375,0.381317138671875,1,1.0,1.0,1.0,1.0,10.00
2024-10-11 20:46:47.002,0.6506743,0.8641817,-0.2560351,0.8038565,0.5305531,0.3672343,-0.03046507,0.41807708,0.6158349,0.2018726,-0.058836285,0.6153967,0.47529745,-0.18210869,0.51482886,0.41281414,-0.021343004,-0.32778224,0.29151765,0.015363744,800.6227,796.99634,799.81683,805.4579,983.5531,0.06146240234375,0.12890625,0.99798583984375,0.560760498046875,-0.530853271484375,0.381317138671875,1,1.0,1.0,1.0,1.0,10.00
2024-10-11 20:46:47.003,0.6506743,0.8641817,-0.2560351,0.8038565,0.5305531,0.3672343,-0.03046507,0.41807708,0.6158349,0.2018726,-0.058836285,0.6153967,0.47529745,-0.18210869,0.51482886,0.41281414,-0.021343004,-0.32778224,0.29151765,0.015363744,792.5641,799.81683,800.6227,795.78754,722.4542,0.05267333984375,0.12359619140625,0.99847412109375,0.88226318359375,-0.142059326171875,0.157012939453125,1,1.0,1.0,1.0,1.0,10.00
2024-10-11 20:46:47.004,0.6506743,0.8641817,-0.2560351,0.8038565,0.5305531,0.3672343,-0.03046507,0.41807708,0.6158349,0.2018726,-0.058836285,0.6153967,0.47529745,-0.18210869,0.51482886,0.41281414,-0.021343004,-0.32778224,0.29151765,0.015363744,785.31134,793.7729,804.2491,792.5641,653.1502,0.05267333984375,0.12359619140625,0.99847412109375,0.88226318359375,-0.142059326171875,0.157012939453125,1,1.0,1.0,1.0,1.0,10.00
2024-10-11 20:46:47.005,0.6506743,0.8641817,-0.2560351,0.8038565,0.5305531,0.3672343,-0.03046507,0.41807708,0.6158349,0.2018726,-0.058836285,0.6153967,0.47529745,-0.18210869,0.51482886,0.41281414,-0.021343004,-0.32778224,0.29151765,0.015363744,786.9231,786.9231,799.011,798.20514,899.34064,0.05267333984375,0.12359619140625,0.99847412109375,0.88226318359375,-0.142059326171875,0.157012939453125,1,1.0,1.0,1.0,1.0,10.00
2024-10-11 20:46:47.006,0.6506743,0.8641817,-0.2560351,0.8038565,0.5305531,0.3672343,-0.03046507,0.41807708,0.6158349,0.2018726,-0.058836285,0.6153967,0.47529745,-0.18210869,0.51482886,0.41281414,-0.021343004,-0.32778224,0.29151765,0.015363744,794.9817,786.1172,789.34064,794.9817,894.10254,0.05267333984375,0.12359619140625,0.99847412109375,0.88226318359375,-0.142059326171875,0.157012939453125,1,1.0,1.0,1.0,1.0,10.00
2024-10-11 20:46:47.007,0.6506743,0.8641817,-0.2560351,0.8038565,0.5305531,0.3672343,-0.03046507,0.41807708,0.6158349,0.2018726,-0.058836285,0.6153967,0.47529745,-0.18210869,0.51482886,0.41281414,-0.021343004,-0.32778224,0.29151765,0.015363744,796.1905,788.5348,792.5641,787.326,603.5897,0.05267333984375,0.12359619140625,0.99847412109375,0.88226318359375,-0.142059326171875,0.157012939453125,1,1.0,1.0,1.0,1.0,10.00
2024-10-11 20:46:47.008,0.6506743,0.8641817,-0.2560351,0.8038565,0.5305531,0.3672343,-0.03046507,0.41807708,0.6158349,0.2018726,-0.058836285,0.6153967,0.47529745,-0.18210869,0.51482886,0.41281414,-0.021343004,-0.32778224,0.29151765,0.015363744,790.9524,789.7436,805.8608,792.96704,748.24176,0.05267333984375,0.12359619140625,0.99847412109375,0.88226318359375,-0.142059326171875,0.157012939453125,1,1.0,1.0,1.0,1.0,10.00
2024-10-11 20:46:47.009,0.6506743,0.8641817,-0.2560351,0.8038565,0.5305531,0.3672343,-0.03046507,0.41807708,0.6158349,0.2018726,-0.058836285,0.6153967,0.47529745,-0.18210869,0.51482886,0.41281414,-0.021343004,-0.32778224,0.29151765,0.015363744,795.38464,790.9524,803.0403,799.41394,1082.674,0.05267333984375,0.12359619140625,0.99847412109375,0.88226318359375,-0.142059326171875,0.157012939453125,1,1.0,1.0,1.0,1.0,10.00
2024-10-11 20:46:47.010,0.6506743,0.8641817,-0.2560351,0.8038565,0.5305531,0.3672343,-0.03046507,0.41807708,0.6158349,0.2018726,-0.058836285,0.6153967,0.47529745,-0.18210869,0.51482886,0.41281414,-0.021343004,-0.32778224,0.29151765,0.015363744,789.7436,793.7729,802.6374,801.4286,992.01465,0.05267333984375,0.12359619140625,0.99847412109375,0.88226318359375,-0.142059326171875,0.157012939453125,1,1.0,1.0,1.0,1.0,10.00
2024-10-11 20:46:47.011,0.6506743,0.8641817,-0.2560351,0.8038565,0.5305531,0.3672343,-0.03046507,0.41807708,0.6158349,0.2018726,-0.058836285,0.6153967,0.47529745,-0.18210869,0.51482886,0.41281414,-0.021343004,-0.32778224,0.29151765,0.015363744,790.14655,794.9817,806.6667,802.23444,683.7729,0.05267333984375,0.12359619140625,0.99847412109375,0.88226318359375,-0.142059326171875,0.157012939453125,1,1.0,1.0,1.0,1.0,10.00
2024-10-11 20:46:47.011,0.64023113,0.8146904,-0.2763251,0.77211696,0.5312291,0.2829339,-0.02297162,0.42638797,0.6158349,0.14810714,-0.058836285,0.6263287,0.50809354,-0.19464129,0.5038349,0.4533438,-0.004145007,-0.38675514,0.27108574,0.04180034,797.8022,793.7729,801.4286,802.6374,639.85345,0.05267333984375,0.12359619140625,0.99847412109375,0.88226318359375,-0.142059326171875,0.157012939453125,1,1.0,1.0,1.0,1.0,10.00
2024-10-11 20:46:47.016,0.64023113,0.8146904,-0.2763251,0.77211696,0.5312291,0.2829339,-0.02297162,0.42638797,0.6158349,0.14810714,-0.058836285,0.6263287,0.50809354,-0.19464129,0.5038349,0.4533438,-0.004145007,-0.38675514,0.27108574,0.04180034,793.7729,792.96704,795.78754,800.2198,746.63007,0.05267333984375,0.12359619140625,0.99847412109375,0.88226318359375,-0.142059326171875,0.157012939453125,1,1.0,1.0,1.0,1.0,10.00
2024-10-11 20:46:47.017,0.64023113,0.8146904,-0.2763251,0.77211696,0.5312291,0.2829339,-0.02297162,0.42638797,0.6158349,0.14810714,-0.058836285,0.6263287,0.50809354,-0.19464129,0.5038349,0.4533438,-0.004145007,-0.38675514,0.27108574,0.04180034,801.02563,793.7729,791.3553,798.60803,708.7546,0.05267333984375,0.12359619140625,0.99847412109375,0.88226318359375,-0.142059326171875,0.157012939453125,1,1.0,1.0,1.0,1.0,10.00
2024-10-11 20:46:47.019,0.64023113,0.8146904,-0.2763251,0.77211696,0.5312291,0.2829339,-0.02297162,0.42638797,0.6158349,0.14810714,-0.058836285,0.6263287,0.50809354,-0.19464129,0.5038349,0.4533438,-0.004145007,-0.38675514,0.27108574,0.04180034,800.2198,793.36993,796.99634,793.36993,695.4579,0.04425048828125,0.12066650390625,0.994140625,0.770111083984375,0.620574951171875,-0.2392578125,1,1.0,1.0,1.0,1.0,10.00
2024-10-11 20:46:47.020,0.64023113,0.8146904,-0.2763251,0.77211696,0.5312291,0.2829339,-0.02297162,0.42638797,0.6158349,0.14810714,-0.058836285,0.6263287,0.50809354,-0.19464129,0.5038349,0.4533438,-0.004145007,-0.38675514,0.27108574,0.04180034,790.9524,795.78754,796.1905,794.9817,776.4469,0.04425048828125,0.12066650390625,0.994140625,0.770111083984375,0.620574951171875,-0.2392578125,1,1.0,1.0,1.0,1.0,10.00
2024-10-11 20:46:47.021,0.64023113,0.8146904,-0.2763251,0.77211696,0.5312291,0.2829339,-0.02297162,0.42638797,0.6158349,0.14810714,-0.058836285,0.6263287,0.50809354,-0.19464129,0.5038349,0.4533438,-0.004145007,-0.38675514,0.27108574,0.04180034,794.57874,801.02563,796.1905,796.5934,946.4835,0.04425048828125,0.12066650390625,0.994140625,0.770111083984375,0.620574951171875,-0.2392578125,1,1.0,1.0,1.0,1.0,10.00
2024-10-11 20:46:47.022,0.64023113,0.8146904,-0.2763251,0.77211696,0.5312291,0.2829339,-0.02297162,0.42638797,0.6158349,0.14810714,-0.058836285,0.6263287,0.50809354,-0.19464129,0.5038349,0.4533438,-0.004145007,-0.38675514,0.27108574,0.04180034,805.4579,799.011,812.3077,790.9524,865.4945,0.04425048828125,0.12066650390625,0.994140625,0.770111083984375,0.620574951171875,-0.2392578125,1,1.0,1.0,1.0,1.0,10.00
2024-10-11 20:46:47.022,0.64023113,0.8146904,-0.2763251,0.77211696,0.5312291,0.2829339,-0.02297162,0.42638797,0.6158349,0.14810714,-0.058836285,0.6263287,0.50809354,-0.19464129,0.5038349,0.4533438,-0.004145007,-0.38675514,0.27108574,0.04180034,805.8608,798.20514,816.7399,790.14655,569.34064,0.04425048828125,0.12066650390625,0.994140625,0.770111083984375,0.620574951171875,-0.2392578125,1,1.0,1.0,1.0,1.0,10.00
2024-10-11 20:46:47.024,0.64023113,0.8146904,-0.2763251,0.77211696,0.5312291,0.2829339,-0.02297162,0.42638797,0.6158349,0.14810714,-0.058836285,0.6263287,0.50809354,-0.19464129,0.5038349,0.4533438,-0.004145007,-0.38675514,0.27108574,0.04180034,796.1905,796.99634,809.4872,795.78754,668.86444,0.04425048828125,0.12066650390625,0.994140625,0.770111083984375,0.620574951171875,-0.2392578125,1,1.0,1.0,1.0,1.0,10.00
2024-10-11 20:46:47.025,0.64023113,0.8146904,-0.2763251,0.77211696,0.5312291,0.2829339,-0.02297162,0.42638797,0.6158349,0.14810714,-0.058836285,0.6263287,0.50809354,-0.19464129,0.5038349,0.4533438,-0.004145007,-0.38675514,0.27108574,0.04180034,791.3553,796.5934,806.6667,793.36993,852.6007,0.04425048828125,0.12066650390625,0.994140625,0.770111083984375,0.620574951171875,-0.2392578125,1,1.0,1.0,1.0,1.0,10.00
2024-10-11 20:46:47.026,0.64023113,0.8146904,-0.2763251,0.77211696,0.5312291,0.2829339,-0.02297162,0.42638797,0.6158349,0.14810714,-0.058836285,0.6263287,0.50809354,-0.19464129,0.5038349,0.4533438,-0.004145007,-0.38675514,0.27108574,0.04180034,798.60803,799.41394,808.68134,788.93774,727.6923,0.04425048828125,0.12066650390625,0.994140625,0.770111083984375,0.620574951171875,-0.2392578125,1,1.0,1.0,1.0,1.0,10.00
2024-10-11 20:46:47.027,0.64023113,0.8146904,-0.2763251,0.77211696,0.5312291,0.2829339,-0.02297162,0.42638797,0.6158349,0.14810714,-0.058836285,0.6263287,0.50809354,-0.19464129,0.5038349,0.4533438,-0.004145007,-0.38675514,0.27108574,0.04180034,811.0989,800.2198,809.4872,795.38464,596.337,0.04425048828125,0.12066650390625,0.994140625,0.770111083984375,0.620574951171875,-0.2392578125,1,1.0,1.0,1.0,1.0,10.00
2024-10-11 20:46:47.028,0.64023113,0.8146904,-0.2763251,0.77211696,0.5312291,0.2829339,-0.02297162,0.42638797,0.6158349,0.14810714,-0.058836285,0.6263287,0.50809354,-0.19464129,0.5038349,0.4533438,-0.004145007,-0.38675514,0.27108574,0.04180034,803.44324,804.65204,808.2784,810.293,755.89746,0.04425048828125,0.12066650390625,0.994140625,0.770111083984375,0.620574951171875,-0.2392578125,1,1.0,1.0,1.0,1.0,10.00
2024-10-11 20:46:47.029,0.64023113,0.8146904,-0.2763251,0.77211696,0.5312291,0.2829339,-0.02297162,0.42638797,0.6158349,0.14810714,-0.058836285,0.6263287,0.50809354,-0.19464129,0.5038349,0.4533438,-0.004145007,-0.38675514,0.27108574,0.04180034,801.02563,803.0403,801.4286,823.1868,1058.9011,0.04425048828125,0.12066650390625,0.994140625,0.770111083984375,0.620574951171875,-0.2392578125,1,1.0,1.0,1.0,1.0,10.00
2024-10-11 20:46:47.030,0.64023113,0.8146904,-0.2763251,0.77211696,0.5312291,0.2829339,-0.02297162,0.42638797,0.6158349,0.14810714,-0.058836285,0.6263287,0.50809354,-0.19464129,0.5038349,0.4533438,-0.004145007,-0.38675514,0.27108574,0.04180034,805.05493,798.20514,790.14655,819.5604,1192.2711,0.04425048828125,0.12066650390625,0.994140625,0.770111083984375,0.620574951171875,-0.2392578125,1,1.0,1.0,1.0,1.0,10.00
2024-10-11 20:46:47.071,0.64023113,0.8146904,-0.2763251,0.77211696,0.5312291,0.2829339,-0.02297162,0.42638797,0.6158349,0.14810714,-0.058836285,0.6263287,0.50809354,-0.19464129,0.5038349,0.4533438,-0.004145007,-0.38675514,0.27108574,0.04180034,805.05493,800.2198,784.10254,811.0989,1135.4579,0.04425048828125,0.12066650390625,0.994140625,0.770111083984375,0.620574951171875,-0.2392578125,1,1.0,1.0,1.0,1.0,10.00
2024-10-11 20:46:47.072,0.64023113,0.8146904,-0.2763251,0.77211696,0.5312291,0.2829339,-0.02297162,0.42638797,0.6158349,0.14810714,-0.058836285,0.6263287,0.50809354,-0.19464129,0.5038349,0.4533438,-0.004145007,-0.38675514,0.27108574,0.04180034,803.0403,801.8315,795.78754,803.0403,956.9597,0.04425048828125,0.12066650390625,0.994140625,0.770111083984375,0.620574951171875,-0.2392578125,1,1.0,1.0,1.0,1.0,10.00
2024-10-11 20:46:47.073,0.64023113,0.8146904,-0.2763251,0.77211696,0.5312291,0.2829339,-0.02297162,0.42638797,0.6158349,0.14810714,-0.058836285,0.6263287,0.50809354,-0.19464129,0.5038349,0.4533438,-0.004145007,-0.38675514,0.27108574,0.04180034,798.20514,802.6374,802.23444,803.44324,772.01465,0.04425048828125,0.12066650390625,0.994140625,0.770111083984375,0.620574951171875,-0.2392578125,1,1.0,1.0,1.0,1.0,10.00
2024-10-11 20:46:47.074,0.64023113,0.8146904,-0.2763251,0.77211696,0.5312291,0.2829339,-0.02297162,0.42638797,0.6158349,0.14810714,-0.058836285,0.6263287,0.50809354,-0.19464129,0.5038349,0.4533438,-0.004145007,-0.38675514,0.27108574,0.04180034,801.02563,801.02563,792.1612,816.337,678.5348,0.04425048828125,0.12066650390625,0.994140625,0.770111083984375,0.620574951171875,-0.2392578125,1,1.0,1.0,1.0,1.0,10.00
2024-10-11 20:46:47.075,0.64023113,0.8146904,-0.2763251,0.77211696,0.5312291,0.2829339,-0.02297162,0.42638797,0.6158349,0.14810714,-0.058836285,0.6263287,0.50809354,-0.19464129,0.5038349,0.4533438,-0.004145007,-0.38675514,0.27108574,0.04180034,815.9341,799.011,803.0403,830.4396,609.6337,0.04425048828125,0.12066650390625,0.994140625,0.770111083984375,0.620574951171875,-0.2392578125,1,1.0,1.0,1.0,1.0,10.00
2024-10-11 20:46:47.076,0.64023113,0.8146904,-0.2763251,0.77211696,0.5312291,0.2829339,-0.02297162,0.42638797,0.6158349,0.14810714,-0.058836285,0.6263287,0.50809354,-0.19464129,0.5038349,0.4533438,-0.004145007,-0.38675514,0.27108574,0.04180034,800.2198,798.60803,820.7692,808.68134,891.685,0.04425048828125,0.12066650390625,0.994140625,0.770111083984375,0.620574951171875,-0.2392578125,1,1.0,1.0,1.0,1.0,10.00
2024-10-11 20:46:47.077,0.64023113,0.8146904,-0.2763251,0.77211696,0.5312291,0.2829339,-0.02297162,0.42638797,0.6158349,0.14810714,-0.058836285,0.6263287,0.50809354,-0.19464129,0.5038349,0.4533438,-0.004145007,-0.38675514,0.27108574,0.04180034,763.5531,799.011,811.50183,779.2674,1108.0586,0.04425048828125,0.12066650390625,0.994140625,0.770111083984375,0.620574951171875,-0.2392578125,1,1.0,1.0,1.0,1.0,10.00
2024-10-11 20:46:47.078,0.64023113,0.8146904,-0.2763251,0.77211696,0.5312291,0.2829339,-0.02297162,0.42638797,0.6158349,0.14810714,-0.058836285,0.6263287,0.50809354,-0.19464129,0.5038349,0.4533438,-0.004145007,-0.38675514,0.27108574,0.04180034,770.0,798.60803,802.23444,765.56775,734.94507,0.04425048828125,0.12066650390625,0.994140625,0.770111083984375,0.620574951171875,-0.2392578125,1,1.0,1.0,1.0,1.0,10.00
2024-10-11 20:46:47.079,0.64023113,0.8146904,-0.2763251,0.77211696,0.5312291,0.2829339,-0.02297162,0.42638797,0.6158349,0.14810714,-0.058836285,0.6263287,0.50809354,-0.19464129,0.5038349,0.4533438,-0.004145007,-0.38675514,0.27108574,0.04180034,778.0586,799.81683,806.6667,757.1062,587.47253,0.04425048828125,0.12066650390625,0.994140625,0.770111083984375,0.620574951171875,-0.2392578125,1,1.0,1.0,1.0,1.0,10.00
2024-10-11 20:46:47.080,0.64023113,0.8146904,-0.2763251,0.77211696,0.5312291,0.2829339,-0.02297162,0.42638797,0.6158349,0.14810714,-0.058836285,0.6263287,0.50809354,-0.19464129,0.5038349,0.4533438,-0.004145007,-0.38675514,0.27108574,0.04180034,753.47986,801.4286,803.8461,751.06226,890.87915,0.04425048828125,0.12066650390625,0.994140625,0.770111083984375,0.620574951171875,-0.2392578125,1,1.0,1.0,1.0,1.0,10.00
2024-10-11 20:46:47.081,0.64023113,0.8146904,-0.2763251,0.77211696,0.5312291,0.2829339,-0.02297162,0.42638797,0.6158349,0.14810714,-0.058836285,0.6263287,0.50809354,-0.19464129,0.5038349,0.4533438,-0.004145007,-0.38675514,0.27108574,0.04180034,729.304,801.8315,790.54944,729.707,979.5238,0.04425048828125,0.12066650390625,0.994140625,0.770111083984375,0.620574951171875,-0.2392578125,1,1.0,1.0,1.0,1.0,10.00
2024-10-11 20:46:47.083,0.63434756,0.7178101,-0.2917582,0.77211696,0.5523988,0.13863201,-0.03665439,0.42638797,0.6182738,0.09171426,-0.057758894,0.6263287,0.53189445,-0.20785198,0.5000074,0.4533438,0.027176287,-0.45241287,0.25862306,0.04180034,729.304,802.6374,790.14655,715.2015,645.4945,0.04425048828125,0.12066650390625,0.994140625,0.770111083984375,0.620574951171875,-0.2392578125,1,1.0,1.0,1.0,1.0,10.00
2024-10-11 20:46:47.088,0.63434756,0.7178101,-0.2917582,0.77211696,0.5523988,0.13863201,-0.03665439,0.42638797,0.6182738,0.09171426,-0.057758894,0.6263287,0.53189445,-0.20785198,0.5000074,0.4533438,0.027176287,-0.45241287,0.25862306,0.04180034,709.15753,799.81683,788.93774,703.1135,635.42126,0.03265380859375,0.1138916015625,0.99981689453125,0.785064697265625,0.67291259765625,-1.54022216796875,1,1.0,1.0,1.0,1.0,10.00
2024-10-11 20:46:47.089,0.63434756,0.7178101,-0.2917582,0.77211696,0.5523988,0.13863201,-0.03665439,0.42638797,0.6182738,0.09171426,-0.057758894,0.6263287,0.53189445,-0.20785198,0.5000074,0.4533438,0.027176287,-0.45241287,0.25862306,0.04180034,706.7399,799.011,785.31134,705.5311,909.41394,0.03265380859375,0.1138916015625,0.99981689453125,0.785064697265625,0.67291259765625,-1.54022216796875,1,1.0,1.0,1.0,1.0,10.00
2024-10-11 20:46:47.090,0.63434756,0.7178101,-0.2917582,0.77211696,0.5523988,0.13863201,-0.03665439,0.42638797,0.6182738,0.09171426,-0.057758894,0.6263287,0.53189445,-0.20785198,0.5000074,0.4533438,0.027176287,-0.45241287,0.25862306,0.04180034,716.4103,796.1905,787.72894,720.84247,1218.0586,0.03265380859375,0.1138916015625,0.99981689453125,0.785064697265625,0.67291259765625,-1.54022216796875,1,1.0,1.0,1.0,1.0,10.00
2024-10-11 20:46:47.091,0.63434756,0.7178101,-0.2917582,0.77211696,0.5523988,0.13863201,-0.03665439,0.42638797,0.6182738,0.09171426,-0.057758894,0.6263287,0.53189445,-0.20785198,0.5000074,0.4533438,0.027176287,-0.45241287,0.25862306,0.04180034,688.20514,805.4579,792.1612,707.9487,929.9634,0.03265380859375,0.1138916015625,0.99981689453125,0.785064697265625,0.67291259765625,-1.54022216796875,1,1.0,1.0,1.0,1.0,10.00
2024-10-11 20:46:47.092,0.63434756,0.7178101,-0.2917582,0.77211696,0.5523988,0.13863201,-0.03665439,0.42638797,0.6182738,0.09171426,-0.057758894,0.6263287,0.53189445,-0.20785198,0.5000074,0.4533438,0.027176287,-0.45241287,0.25862306,0.04180034,689.011,804.2491,796.99634,696.6667,670.07324,0.03265380859375,0.1138916015625,0.99981689453125,0.785064697265625,0.67291259765625,-1.54022216796875,1,1.0,1.0,1.0,1.0,10.00
2024-10-11 20:46:47.093,0.63434756,0.7178101,-0.2917582,0.77211696,0.5523988,0.13863201,-0.03665439,0.42638797,0.6182738,0.09171426,-0.057758894,0.6263287,0.53189445,-0.20785198,0.5000074,0.4533438,0.027176287,-0.45241287,0.25862306,0.04180034,696.26373,800.2198,796.1905,695.05493,813.91943,0.03265380859375,0.1138916015625,0.99981689453125,0.785064697265625,0.67291259765625,-1.54022216796875,1,1.0,1.0,1.0,1.0,10.00
2024-10-11 20:46:47.094,0.63434756,0.7178101,-0.2917582,0.77211696,0.5523988,0.13863201,-0.03665439,0.42638797,0.6182738,0.09171426,-0.057758894,0.6263287,0.53189445,-0.20785198,0.5000074,0.4533438,0.027176287,-0.45241287,0.25862306,0.04180034,682.96704,804.65204,792.5641,686.99634,727.6923,0.03265380859375,0.1138916015625,0.99981689453125,0.785064697265625,0.67291259765625,-1.54022216796875,1,1.0,1.0,1.0,1.0,10.00
2024-10-11 20:46:47.095,0.63434756,0.7178101,-0.2917582,0.77211696,0.5523988,0.13863201,-0.03665439,0.42638797,0.6182738,0.09171426,-0.057758894,0.6263287,0.53189445,-0.20785198,0.5000074,0.4533438,0.027176287,-0.45241287,0.25862306,0.04180034,686.1905,802.23444,784.90845,689.81683,544.35895,0.03265380859375,0.1138916015625,0.99981689453125,0.785064697265625,0.67291259765625,-1.54022216796875,1,1.0,1.0,1.0,1.0,10.00
2024-10-11 20:46:47.096,0.63434756,0.7178101,-0.2917582,0.77211696,0.5523988,0.13863201,-0.03665439,0.42638797,0.6182738,0.09171426,-0.057758894,0.6263287,0.53189445,-0.20785198,0.5000074,0.4533438,0.027176287,-0.45241287,0.25862306,0.04180034,685.38464,803.0403,780.07324,684.9817,558.86444,0.03265380859375,0.1138916015625,0.99981689453125,0.785064697265625,0.67291259765625,-1.54022216796875,1,1.0,1.0,1.0,1.0,10.00
2024-10-11 20:46:47.096,0.63434756,0.7178101,-0.2917582,0.77211696,0.5523988,0.13863201,-0.03665439,0.42638797,0.6182738,0.09171426,-0.057758894,0.6263287,0.53189445,-0.20785198,0.5000074,0.4533438,0.027176287,-0.45241287,0.25862306,0.04180034,689.41394,805.05493,785.31134,697.8755,914.65204,0.03265380859375,0.1138916015625,0.99981689453125,0.785064697265625,0.67291259765625,-1.54022216796875,1,1.0,1.0,1.0,1.0,10.00
2024-10-11 20:46:47.097,0.63434756,0.7178101,-0.2917582,0.77211696,0.5523988,0.13863201,-0.03665439,0.42638797,0.6182738,0.09171426,-0.057758894,0.6263287,0.53189445,-0.20785198,0.5000074,0.4533438,0.027176287,-0.45241287,0.25862306,0.04180034,693.8461,807.0696,798.60803,701.50183,704.3223,0.03265380859375,0.1138916015625,0.99981689453125,0.785064697265625,0.67291259765625,-1.54022216796875,1,1.0,1.0,1.0,1.0,10.00
2024-10-11 20:46:47.098,0.63434756,0.7178101,-0.2917582,0.77211696,0.5523988,0.13863201,-0.03665439,0.42638797,0.6182738,0.09171426,-0.057758894,0.6263287,0.53189445,-0.20785198,0.5000074,0.4533438,0.027176287,-0.45241287,0.25862306,0.04180034,692.23444,807.47253,792.1612,691.4286,342.49084,0.03265380859375,0.1138916015625,0.99981689453125,0.785064697265625,0.67291259765625,-1.54022216796875,1,1.0,1.0,1.0,1.0,10.00
2024-10-11 20:46:47.099,0.63434756,0.7178101,-0.2917582,0.77211696,0.5523988,0.13863201,-0.03665439,0.42638797,0.6182738,0.09171426,-0.057758894,0.6263287,0.53189445,-0.20785198,0.5000074,0.4533438,0.027176287,-0.45241287,0.25862306,0.04180034,691.02563,805.4579,779.2674,699.89014,438.38828,0.0311279296875,0.11004638671875,1.0010986328125,0.777587890625,-0.426177978515625,-3.461761474609375,1,1.0,1.0,1.0,1.0,10.00
2024-10-11 20:46:47.100,0.63434756,0.7178101,-0.2917582,0.77211696,0.5523988,0.13863201,-0.03665439,0.42638797,0.6182738,0.09171426,-0.057758894,0.6263287,0.53189445,-0.20785198,0.5000074,0.4533438,0.027176287,-0.45241287,0.25862306,0.04180034,693.8461,806.26373,784.90845,700.293,458.13187,0.0311279296875,0.11004638671875,1.0010986328125,0.777587890625,-0.426177978515625,-3.461761474609375,1,1.0,1.0,1.0,1.0,10.00
2024-10-11 20:46:47.101,0.63434756,0.7178101,-0.2917582,0.77211696,0.5523988,0.13863201,-0.03665439,0.42638797,0.6182738,0.09171426,-0.057758894,0.6263287,0.53189445,-0.20785198,0.5000074,0.4533438,0.027176287,-0.45241287,0.25862306,0.04180034,700.696,807.47253,792.96704,702.3077,413.4066,0.0311279296875,0.11004638671875,1.0010986328125,0.777587890625,-0.426177978515625,-3.461761474609375,1,1.0,1.0,1.0,1.0,10.00
2024-10-11 20:46:47.102,0.63434756,0.7178101,-0.2917582,0.77211696,0.5523988,0.13863201,-0.03665439,0.42638797,0.6182738,0.09171426,-0.057758894,0.6263287,0.53189445,-0.20785198,0.5000074,0.4533438,0.027176287,-0.45241287,0.25862306,0.04180034,694.2491,804.65204,795.78754,714.3956,435.56778,0.0311279296875,0.11004638671875,1.0010986328125,0.777587890625,-0.426177978515625,-3.461761474609375,1,1.0,1.0,1.0,1.0,10.00
2024-10-11 20:46:47.103,0.63434756,0.7178101,-0.2917582,0.77211696,0.5523988,0.13863201,-0.03665439,0.42638797,0.6182738,0.09171426,-0.057758894,0.6263287,0.53189445,-0.20785198,0.5000074,0.4533438,0.027176287,-0.45241287,0.25862306,0.04180034,689.41394,807.0696,794.9817,712.381,573.36993,0.0311279296875,0.11004638671875,1.0010986328125,0.777587890625,-0.426177978515625,-3.461761474609375,1,1.0,1.0,1.0,1.0,10.00
2024-10-11 20:46:47.104,0.63434756,0.7178101,-0.2917582,0.77211696,0.5523988,0.13863201,-0.03665439,0.42638797,0.6182738,0.09171426,-0.057758894,0.6263287,0.53189445,-0.20785198,0.5000074,0.4533438,0.027176287,-0.45241287,0.25862306,0.04180034,704.3223,812.71063,798.60803,721.2454,671.685,0.0311279296875,0.11004638671875,1.0010986328125,0.777587890625,-0.426177978515625,-3.461761474609375,1,1.0,1.0,1.0,1.0,10.00
2024-10-11 20:46:47.105,0.63434756,0.7178101,-0.2917582,0.77211696,0.5523988,0.13863201,-0.03665439,0.42638797,0.6182738,0.09171426,-0.057758894,0.6263287,0.53189445,-0.20785198,0.5000074,0.4533438,0.027176287,-0.45241287,0.25862306,0.04180034,716.8132,811.0989,800.6227,736.55676,663.6264,0.0311279296875,0.11004638671875,1.0010986328125,0.777587890625,-0.426177978515625,-3.461761474609375,1,1.0,1.0,1.0,1.0,10.00
2024-10-11 20:46:47.106,0.63434756,0.7178101,-0.2917582,0.77211696,0.5523988,0.13863201,-0.03665439,0.42638797,0.6182738,0.09171426,-0.057758894,0.6263287,0.53189445,-0.20785198,0.5000074,0.4533438,0.027176287,-0.45241287,0.25862306,0.04180034,708.7546,808.68134,792.96704,728.9011,550.40295,0.0311279296875,0.11004638671875,1.0010986328125,0.777587890625,-0.426177978515625,-3.461761474609375,1,1.0,1.0,1.0,1.0,10.00
2024-10-11 20:46:47.106,0.63434756,0.7178101,-0.2917582,0.77211696,0.5523988,0.13863201,-0.03665439,0.42638797,0.6182738,0.09171426,-0.057758894,0.6263287,0.53189445,-0.20785198,0.5000074,0.4533438,0.027176287,-0.45241287,0.25862306,0.04180034,722.4542,806.26373,783.69965,734.94507,661.2088,0.0311279296875,0.11004638671875,1.0010986328125,0.777587890625,-0.426177978515625,-3.461761474609375,1,1.0,1.0,1.0,1.0,10.00
2024-10-11 20:46:47.107,0.63434756,0.7178101,-0.2917582,0.77211696,0.5523988,0.13863201,-0.03665439,0.42638797,0.6182738,0.09171426,-0.057758894,0.6263287,0.53189445,-0.20785198,0.5000074,0.4533438,0.027176287,-0.45241287,0.25862306,0.04180034,736.1539,805.8608,788.1319,732.9304,686.1905,0.0311279296875,0.11004638671875,1.0010986328125,0.777587890625,-0.426177978515625,-3.461761474609375,1,1.0,1.0,1.0,1.0,10.00
2024-10-11 20:46:47.108,0.63434756,0.7178101,-0.2917582,0.77211696,0.5523988,0.13863201,-0.03665439,0.42638797,0.6182738,0.09171426,-0.057758894,0.6263287,0.53189445,-0.20785198,0.5000074,0.4533438,0.027176287,-0.45241287,0.25862306,0.04180034,734.1392,807.0696,794.9817,729.707,593.1135,0.0311279296875,0.11004638671875,1.0010986328125,0.777587890625,-0.426177978515625,-3.461761474609375,1,1.0,1.0,1.0,1.0,10.00
2024-10-11 20:46:47.108,0.63434756,0.7178101,-0.2917582,0.77211696,0.5523988,0.13863201,-0.03665439,0.42638797,0.6182738,0.09171426,-0.057758894,0.6263287,0.53189445,-0.20785198,0.5000074,0.4533438,0.027176287,-0.45241287,0.25862306,0.04180034,726.4835,807.0696,794.9817,743.00366,643.0769,0.0311279296875,0.11004638671875,1.0010986328125,0.777587890625,-0.426177978515625,-3.461761474609375,1,1.0,1.0,1.0,1.0,10.00
2024-10-11 20:46:47.141,0.63434756,0.7178101,-0.2917582,0.77211696,0.5523988,0.13863201,-0.03665439,0.42638797,0.6182738,0.09171426,-0.057758894,0.6263287,0.53189445,-0.20785198,0.5000074,0.4533438,0.027176287,-0.45241287,0.25862306,0.04180034,742.6007,800.6227,793.36993,764.35895,938.8278,0.048828125,0.11767578125,0.9959716796875,2.34771728515625,-3.99261474609375,-4.3963623046875,1,1.0,1.0,1.0,1.0,10.00
2024-10-11 20:46:47.142,0.63434756,0.5597789,-0.2941381,0.77211696,0.5523988,-0.06940867,-0.06227203,0.42638797,0.6182738,0.028629318,-0.047233243,0.6263287,0.53189445,-0.21723011,0.49820164,0.4533438,0.027176287,-0.5132382,0.24983788,0.04180034,745.0183,800.6227,782.49084,769.59705,1017.3993,0.048828125,0.11767578125,0.9959716796875,2.34771728515625,-3.99261474609375,-4.3963623046875,1,1.0,1.0,1.0,1.0,10.00
2024-10-11 20:46:47.147,0.63434756,0.5597789,-0.2941381,0.77211696,0.5523988,-0.06940867,-0.06227203,0.42638797,0.6182738,0.028629318,-0.047233243,0.6263287,0.53189445,-0.21723011,0.49820164,0.4533438,0.027176287,-0.5132382,0.24983788,0.04180034,740.989,803.44324,794.9817,765.16486,571.75824,0.048828125,0.11767578125,0.9959716796875,2.34771728515625,-3.99261474609375,-4.3963623046875,1,1.0,1.0,1.0,1.0,10.00
2024-10-11 20:46:47.147,0.63434756,0.5597789,-0.2941381,0.77211696,0.5523988,-0.06940867,-0.06227203,0.42638797,0.6182738,0.028629318,-0.047233243,0.6263287,0.53189445,-0.21723011,0.49820164,0.4533438,0.027176287,-0.5132382,0.24983788,0.04180034,748.24176,801.8315,810.293,770.0,599.9634,0.048828125,0.11767578125,0.9959716796875,2.34771728515625,-3.99261474609375,-4.3963623046875,1,1.0,1.0,1.0,1.0,10.00
2024-10-11 20:46:47.148,0.63434756,0.5597789,-0.2941381,0.77211696,0.5523988,-0.06940867,-0.06227203,0.42638797,0.6182738,0.028629318,-0.047233243,0.6263287,0.53189445,-0.21723011,0.49820164,0.4533438,0.027176287,-0.5132382,0.24983788,0.04180034,748.6447,804.2491,801.02563,769.59705,661.6117,0.048828125,0.11767578125,0.9959716796875,2.34771728515625,-3.99261474609375,-4.3963623046875,1,1.0,1.0,1.0,1.0,10.00
2024-10-11 20:46:47.148,0.63434756,0.5597789,-0.2941381,0.77211696,0.5523988,-0.06940867,-0.06227203,0.42638797,0.6182738,0.028629318,-0.047233243,0.6263287,0.53189445,-0.21723011,0.49820164,0.4533438,0.027176287,-0.5132382,0.24983788,0.04180034,753.47986,803.0403,799.41394,769.59705,792.96704,0.048828125,0.11767578125,0.9959716796875,2.34771728515625,-3.99261474609375,-4.3963623046875,1,1.0,1.0,1.0,1.0,10.00
2024-10-11 20:46:47.149,0.63434756,0.5597789,-0.2941381,0.77211696,0.5523988,-0.06940867,-0.06227203,0.42638797,0.6182738,0.028629318,-0.047233243,0.6263287,0.53189445,-0.21723011,0.49820164,0.4533438,0.027176287,-0.5132382,0.24983788,0.04180034,761.9414,805.8608,809.4872,767.1795,929.9634,0.048828125,0.11767578125,0.9959716796875,2.34771728515625,-3.99261474609375,-4.3963623046875,1,1.0,1.0,1.0,1.0,10.00
2024-10-11 20:46:47.149,0.63434756,0.5597789,-0.2941381,0.77211696,0.5523988,-0.06940867,-0.06227203,0.42638797,0.6182738,0.028629318,-0.047233243,0.6263287,0.53189445,-0.21723011,0.49820164,0.4533438,0.027176287,-0.5132382,0.24983788,0.04180034,770.0,807.47253,815.5311,775.2381,813.1135,0.048828125,0.11767578125,0.9959716796875,2.34771728515625,-3.99261474609375,-4.3963623046875,1,1.0,1.0,1.0,1.0,10.00
2024-10-11 20:46:47.150,0.63434756,0.5597789,-0.2941381,0.77211696,0.5523988,-0.06940867,-0.06227203,0.42638797,0.6182738,0.028629318,-0.047233243,0.6263287,0.53189445,-0.21723011,0.49820164,0.4533438,0.027176287,-0.5132382,0.24983788,0.04180034,768.7912,806.26373,805.4579,779.67035,808.68134,0.048828125,0.11767578125,0.9959716796875,2.34771728515625,-3.99261474609375,-4.3963623046875,1,1.0,1.0,1.0,1.0,10.00
2024-10-11 20:46:47.150,0.63434756,0.5597789,-0.2941381,0.77211696,0.5523988,-0.06940867,-0.06227203,0.42638797,0.6182738,0.028629318,-0.047233243,0.6263287,0.53189445,-0.21723011,0.49820164,0.4533438,0.027176287,-0.5132382,0.24983788,0.04180034,766.77655,809.0842,806.26373,776.8498,677.326,0.048828125,0.11767578125,0.9959716796875,2.34771728515625,-3.99261474609375,-4.3963623046875,1,1.0,1.0,1.0,1.0,10.00
2024-10-11 20:46:47.151,0.63434756,0.5597789,-0.2941381,0.77211696,0.5523988,-0.06940867,-0.06227203,0.42638797,0.6182738,0.028629318,-0.047233243,0.6263287,0.53189445,-0.21723011,0.49820164,0.4533438,0.027176287,-0.5132382,0.24983788,0.04180034,767.1795,807.47253,812.71063,783.69965,552.4176,0.048828125,0.11767578125,0.9959716796875,2.34771728515625,-3.99261474609375,-4.3963623046875,1,1.0,1.0,1.0,1.0,10.00
2024-10-11 20:46:47.152,0.63434756,0.5597789,-0.2941381,0.77211696,0.5523988,-0.06940867,-0.06227203,0.42638797,0.6182738,0.028629318,-0.047233243,0.6263287,0.53189445,-0.21723011,0.49820164,0.4533438,0.027176287,-0.5132382,0.24983788,0.04180034,762.3443,799.81683,804.65204,787.72894,751.4652,0.048828125,0.11767578125,0.9959716796875,2.34771728515625,-3.99261474609375,-4.3963623046875,1,1.0,1.0,1.0,1.0,10.00
2024-10-11 20:46:47.152,0.63434756,0.5597789,-0.2941381,0.77211696,0.5523988,-0.06940867,-0.06227203,0.42638797,0.6182738,0.028629318,-0.047233243,0.6263287,0.53189445,-0.21723011,0.49820164,0.4533438,0.027176287,-0.5132382,0.24983788,0.04180034,760.7326,796.99634,796.1905,782.8938,847.3626,0.07403564453125,0.13818359375,0.99169921875,4.65057373046875,-2.3028564453125,-3.1103515625,1,1.0,1.0,1.0,1.0,10.00
2024-10-11 20:46:47.153,0.63434756,0.5597789,-0.2941381,0.77211696,0.5523988,-0.06940867,-0.06227203,0.42638797,0.6182738,0.028629318,-0.047233243,0.6263287,0.53189445,-0.21723011,0.49820164,0.4533438,0.027176287,-0.5132382,0.24983788,0.04180034,763.95605,801.02563,795.38464,773.22345,629.7802,0.07403564453125,0.13818359375,0.99169921875,4.65057373046875,-2.3028564453125,-3.1103515625,1,1.0,1.0,1.0,1.0,10.00
2024-10-11 20:46:47.153,0.63434756,0.5597789,-0.2941381,0.77211696,0.5523988,-0.06940867,-0.06227203,0.42638797,0.6182738,0.028629318,-0.047233243,0.6263287,0.53189445,-0.21723011,0.49820164,0.4533438,0.027176287,-0.5132382,0.24983788,0.04180034,767.98535,801.8315,800.6227,774.43225,595.5311,0.07403564453125,0.13818359375,0.99169921875,4.65057373046875,-2.3028564453125,-3.1103515625,1,1.0,1.0,1.0,1.0,10.00
2024-10-11 20:46:47.154,0.63434756,0.5597789,-0.2941381,0.77211696,0.5523988,-0.06940867,-0.06227203,0.42638797,0.6182738,0.028629318,-0.047233243,0.6263287,0.53189445,-0.21723011,0.49820164,0.4533438,0.027176287,-0.5132382,0.24983788,0.04180034,769.19415,798.20514,786.1172,779.67035,788.5348,0.07403564453125,0.13818359375,0.99169921875,4.65057373046875,-2.3028564453125,-3.1103515625,1,1.0,1.0,1.0,1.0,10.00
2024-10-11 20:46:47.155,0.63434756,0.5597789,-0.2941381,0.77211696,0.5523988,-0.06940867,-0.06227203,0.42638797,0.6182738,0.028629318,-0.047233243,0.6263287,0.53189445,-0.21723011,0.49820164,0.4533438,0.027176287,-0.5132382,0.24983788,0.04180034,769.19415,794.57874,788.1319,774.43225,819.5604,0.07403564453125,0.13818359375,0.99169921875,4.65057373046875,-2.3028564453125,-3.1103515625,1,1.0,1.0,1.0,1.0,10.00
2024-10-11 20:46:47.156,0.63434756,0.5597789,-0.2941381,0.77211696,0.5523988,-0.06940867,-0.06227203,0.42638797,0.6182738,0.028629318,-0.047233243,0.6263287,0.53189445,-0.21723011,0.49820164,0.4533438,0.027176287,-0.5132382,0.24983788,0.04180034,774.83514,794.17584,807.47253,774.83514,686.99634,0.07403564453125,0.13818359375,0.99169921875,4.65057373046875,-2.3028564453125,-3.1103515625,1,1.0,1.0,1.0,1.0,10.00
2024-10-11 20:46:47.157,0.63434756,0.5597789,-0.2941381,0.77211696,0.5523988,-0.06940867,-0.06227203,0.42638797,0.6182738,0.028629318,-0.047233243,0.6263287,0.53189445,-0.21723011,0.49820164,0.4533438,0.027176287,-0.5132382,0.24983788,0.04180034,778.0586,796.5934,804.2491,782.49084,846.55676,0.07403564453125,0.13818359375,0.99169921875,4.65057373046875,-2.3028564453125,-3.1103515625,1,1.0,1.0,1.0,1.0,10.00
2024-10-11 20:46:47.158,0.63434756,0.5597789,-0.2941381,0.77211696,0.5523988,-0.06940867,-0.06227203,0.42638797,0.6182738,0.028629318,-0.047233243,0.6263287,0.53189445,-0.21723011,0.49820164,0.4533438,0.027176287,-0.5132382,0.24983788,0.04180034,777.6557,798.20514,795.78754,784.10254,827.619,0.07403564453125,0.13818359375,0.99169921875,4.65057373046875,-2.3028564453125,-3.1103515625,1,1.0,1.0,1.0,1.0,10.00
2024-10-11 20:46:47.158,0.63434756,0.5597789,-0.2941381,0.77211696,0.5523988,-0.06940867,-0.06227203,0.42638797,0.6182738,0.028629318,-0.047233243,0.6263287,0.53189445,-0.21723011,0.49820164,0.4533438,0.027176287,-0.5132382,0.24983788,0.04180034,774.43225,795.38464,796.99634,784.10254,657.1795,0.07403564453125,0.13818359375,0.99169921875,4.65057373046875,-2.3028564453125,-3.1103515625,1,1.0,1.0,1.0,1.0,10.00
2024-10-11 20:46:47.159,0.63434756,0.5597789,-0.2941381,0.77211696,0.5523988,-0.06940867,-0.06227203,0.42638797,0.6182738,0.028629318,-0.047233243,0.6263287,0.53189445,-0.21723011,0.49820164,0.4533438,0.027176287,-0.5132382,0.24983788,0.04180034,764.7619,796.1905,813.1135,779.2674,572.5641,0.07403564453125,0.13818359375,0.99169921875,4.65057373046875,-2.3028564453125,-3.1103515625,1,1.0,1.0,1.0,1.0,10.00
2024-10-11 20:46:47.160,0.63434756,0.5597789,-0.2941381,0.77211696,0.5523988,-0.06940867,-0.06227203,0.42638797,0.6182738,0.028629318,-0.047233243,0.6263287,0.53189445,-0.21723011,0.49820164,0.4533438,0.027176287,-0.5132382,0.24983788,0.04180034,757.9121,800.2198,815.12823,772.01465,612.8571,0.07403564453125,0.13818359375,0.99169921875,4.65057373046875,-2.3028564453125,-3.1103515625,1,1.0,1.0,1.0,1.0,10.00
2024-10-11 20:46:47.161,0.63434756,0.5597789,-0.2941381,0.77211696,0.5523988,-0.06940867,-0.06227203,0.42638797,0.6182738,0.028629318,-0.047233243,0.6263287,0.53189445,-0.21723011,0.49820164,0.4533438,0.027176287,-0.5132382,0.24983788,0.04180034,771.2088,799.81683,808.68134,783.2967,1044.7986,0.07403564453125,0.13818359375,0.99169921875,4.65057373046875,-2.3028564453125,-3.1103515625,1,1.0,1.0,1.0,1.0,10.00
2024-10-11 20:46:47.214,0.63434756,0.5597789,-0.2941381,0.77211696,0.5523988,-0.06940867,-0.06227203,0.42638797,0.6182738,0.028629318,-0.047233243,0.6263287,0.53189445,-0.21723011,0.49820164,0.4533438,0.027176287,-0.5132382,0.24983788,0.04180034,780.4762,799.011,803.44324,790.54944,1104.4323,0.077392578125,0.1697998046875,0.99652099609375,5.166473388671875,-0.157012939453125,-2.10845947265625,1,1.0,1.0,1.0,1.0,10.00
2024-10-11 20:46:47.215,0.63434756,0.5597789,-0.2941381,0.77211696,0.5523988,-0.06940867,-0.06227203,0.42638797,0.6182738,0.028629318,-0.047233243,0.6263287,0.53189445,-0.21723011,0.49820164,0.4533438,0.027176287,-0.5132382,0.24983788,0.04180034,783.69965,802.23444,799.011,785.7143,601.5751,0.077392578125,0.1697998046875,0.99652099609375,5.166473388671875,-0.157012939453125,-2.10845947265625,1,1.0,1.0,1.0,1.0,10.00
2024-10-11 20:46:47.216,0.63434756,0.5597789,-0.2941381,0.77211696,0.5523988,-0.06940867,-0.06227203,0.42638797,0.6182738,0.028629318,-0.047233243,0.6263287,0.53189445,-0.21723011,0.49820164,0.4533438,0.027176287,-0.5132382,0.24983788,0.04180034,803.8461,802.23444,793.36993,790.9524,664.43225,0.077392578125,0.1697998046875,0.99652099609375,5.166473388671875,-0.157012939453125,-2.10845947265625,1,1.0,1.0,1.0,1.0,10.00
2024-10-11 20:46:47,,,,,,,,,,,,,,,,,,,,,,,,,,,,,,,,,,,,,,/muse/elements/blink
2024-10-11 20:46:47.217,0.63434756,0.34648535,-0.28181297,0.77211696,0.5523988,-0.29801315,-0.08420115,0.42638797,0.6182738,-0.031012425,-0.04312598,0.6263287,0.53189445,-0.22264852,0.49760887,0.4533438,0.027176287,-0.55231833,0.24045639,0.04180034,805.8608,802.6374,796.1905,799.41394,853.8095,0.077392578125,0.1697998046875,0.99652099609375,5.166473388671875,-0.157012939453125,-2.10845947265625,1,1.0,1.0,1.0,1.0,10.00
2024-10-11 20:46:47.221,0.63434756,0.34648535,-0.28181297,0.77211696,0.5523988,-0.29801315,-0.08420115,0.42638797,0.6182738,-0.031012425,-0.04312598,0.6263287,0.53189445,-0.22264852,0.49760887,0.4533438,0.027176287,-0.55231833,0.24045639,0.04180034,796.1905,803.0403,796.5934,802.23444,755.09155,0.077392578125,0.1697998046875,0.99652099609375,5.166473388671875,-0.157012939453125,-2.10845947265625,1,1.0,1.0,1.0,1.0,10.00
2024-10-11 20:46:47.222,0.63434756,0.34648535,-0.28181297,0.77211696,0.5523988,-0.29801315,-0.08420115,0.42638797,0.6182738,-0.031012425,-0.04312598,0.6263287,0.53189445,-0.22264852,0.49760887,0.4533438,0.027176287,-0.55231833,0.24045639,0.04180034,791.3553,805.4579,788.93774,794.17584,716.4103,0.077392578125,0.1697998046875,0.99652099609375,5.166473388671875,-0.157012939453125,-2.10845947265625,1,1.0,1.0,1.0,1.0,10.00
2024-10-11 20:46:47.222,0.63434756,0.34648535,-0.28181297,0.77211696,0.5523988,-0.29801315,-0.08420115,0.42638797,0.6182738,-0.031012425,-0.04312598,0.6263287,0.53189445,-0.22264852,0.49760887,0.4533438,0.027176287,-0.55231833,0.24045639,0.04180034,785.7143,803.44324,798.20514,791.3553,948.49817,0.077392578125,0.1697998046875,0.99652099609375,5.166473388671875,-0.157012939453125,-2.10845947265625,1,1.0,1.0,1.0,1.0,10.00
2024-10-11 20:46:47.223,0.63434756,0.34648535,-0.28181297,0.77211696,0.5523988,-0.29801315,-0.08420115,0.42638797,0.6182738,-0.031012425,-0.04312598,0.6263287,0.53189445,-0.22264852,0.49760887,0.4533438,0.027176287,-0.55231833,0.24045639,0.04180034,786.9231,801.02563,799.41394,801.8315,1151.1721,0.077392578125,0.1697998046875,0.99652099609375,5.166473388671875,-0.157012939453125,-2.10845947265625,1,1.0,1.0,1.0,1.0,10.00
2024-10-11 20:46:47.223,0.63434756,0.34648535,-0.28181297,0.77211696,0.5523988,-0.29801315,-0.08420115,0.42638797,0.6182738,-0.031012425,-0.04312598,0.6263287,0.53189445,-0.22264852,0.49760887,0.4533438,0.027176287,-0.55231833,0.24045639,0.04180034,781.28204,803.44324,794.9817,802.6374,868.71796,0.077392578125,0.1697998046875,0.99652099609375,5.166473388671875,-0.157012939453125,-2.10845947265625,1,1.0,1.0,1.0,1.0,10.00
2024-10-11 20:46:47.224,0.63434756,0.34648535,-0.28181297,0.77211696,0.5523988,-0.29801315,-0.08420115,0.42638797,0.6182738,-0.031012425,-0.04312598,0.6263287,0.53189445,-0.22264852,0.49760887,0.4533438,0.027176287,-0.55231833,0.24045639,0.04180034,785.31134,800.2198,794.57874,798.60803,632.1978,0.077392578125,0.1697998046875,0.99652099609375,5.166473388671875,-0.157012939453125,-2.10845947265625,1,1.0,1.0,1.0,1.0,10.00
2024-10-11 20:46:47.224,0.63434756,0.34648535,-0.28181297,0.77211696,0.5523988,-0.29801315,-0.08420115,0.42638797,0.6182738,-0.031012425,-0.04312598,0.6263287,0.53189445,-0.22264852,0.49760887,0.4533438,0.027176287,-0.55231833,0.24045639,0.04180034,796.5934,801.8315,804.65204,796.99634,702.3077,0.077392578125,0.1697998046875,0.99652099609375,5.166473388671875,-0.157012939453125,-2.10845947265625,1,1.0,1.0,1.0,1.0,10.00
2024-10-11 20:46:47.225,0.63434756,0.34648535,-0.28181297,0.77211696,0.5523988,-0.29801315,-0.08420115,0.42638797,0.6182738,-0.031012425,-0.04312598,0.6263287,0.53189445,-0.22264852,0.49760887,0.4533438,0.027176287,-0.55231833,0.24045639,0.04180034,798.60803,802.23444,803.44324,796.5934,748.6447,0.077392578125,0.1697998046875,0.99652099609375,5.166473388671875,-0.157012939453125,-2.10845947265625,1,1.0,1.0,1.0,1.0,10.00
2024-10-11 20:46:47.246,0.63434756,0.34648535,-0.28181297,0.77211696,0.5523988,-0.29801315,-0.08420115,0.42638797,0.6182738,-0.031012425,-0.04312598,0.6263287,0.53189445,-0.22264852,0.49760887,0.4533438,0.027176287,-0.55231833,0.24045639,0.04180034,796.99634,796.99634,802.6374,790.54944,662.01465,0.077392578125,0.1697998046875,0.99652099609375,5.166473388671875,-0.157012939453125,-2.10845947265625,1,1.0,1.0,1.0,1.0,10.00
2024-10-11 20:46:47.247,0.63434756,0.34648535,-0.28181297,0.77211696,0.5523988,-0.29801315,-0.08420115,0.42638797,0.6182738,-0.031012425,-0.04312598,0.6263287,0.53189445,-0.22264852,0.49760887,0.4533438,0.027176287,-0.55231833,0.24045639,0.04180034,794.57874,792.1612,798.60803,785.7143,570.54944,0.077392578125,0.1697998046875,0.99652099609375,5.166473388671875,-0.157012939453125,-2.10845947265625,1,1.0,1.0,1.0,1.0,10.00
2024-10-11 20:46:47.247,0.63434756,0.34648535,-0.28181297,0.77211696,0.5523988,-0.29801315,-0.08420115,0.42638797,0.6182738,-0.031012425,-0.04312598,0.6263287,0.53189445,-0.22264852,0.49760887,0.4533438,0.027176287,-0.55231833,0.24045639,0.04180034,794.9817,790.54944,791.75824,784.5055,564.10254,0.077392578125,0.1697998046875,0.99652099609375,5.166473388671875,-0.157012939453125,-2.10845947265625,1,1.0,1.0,1.0,1.0,10.00
2024-10-11 20:46:47.248,0.63434756,0.34648535,-0.28181297,0.77211696,0.5523988,-0.29801315,-0.08420115,0.42638797,0.6182738,-0.031012425,-0.04312598,0.6263287,0.53189445,-0.22264852,0.49760887,0.4533438,0.027176287,-0.55231833,0.24045639,0.04180034,793.7729,792.96704,796.5934,787.326,611.2454,0.077392578125,0.1697998046875,0.99652099609375,5.166473388671875,-0.157012939453125,-2.10845947265625,1,1.0,1.0,1.0,1.0,10.00
2024-10-11 20:46:47.249,0.63434756,0.34648535,-0.28181297,0.77211696,0.5523988,-0.29801315,-0.08420115,0.42638797,0.6182738,-0.031012425,-0.04312598,0.6263287,0.53189445,-0.22264852,0.49760887,0.4533438,0.027176287,-0.55231833,0.24045639,0.04180034,785.31134,795.78754,795.78754,792.96704,614.4689,0.077392578125,0.1697998046875,0.99652099609375,5.166473388671875,-0.157012939453125,-2.10845947265625,1,1.0,1.0,1.0,1.0,10.00
2024-10-11 20:46:47.249,0.63434756,0.34648535,-0.28181297,0.77211696,0.5523988,-0.29801315,-0.08420115,0.42638797,0.6182738,-0.031012425,-0.04312598,0.6263287,0.53189445,-0.22264852,0.49760887,0.4533438,0.027176287,-0.55231833,0.24045639,0.04180034,783.2967,798.60803,799.81683,792.5641,728.49817,0.077392578125,0.1697998046875,0.99652099609375,5.166473388671875,-0.157012939453125,-2.10845947265625,1,1.0,1.0,1.0,1.0,10.00
2024-10-11 20:46:47.250,0.63434756,0.34648535,-0.28181297,0.77211696,0.5523988,-0.29801315,-0.08420115,0.42638797,0.6182738,-0.031012425,-0.04312598,0.6263287,0.53189445,-0.22264852,0.49760887,0.4533438,0.027176287,-0.55231833,0.24045639,0.04180034,793.7729,798.20514,799.011,787.326,895.31134,0.077392578125,0.1697998046875,0.99652099609375,5.166473388671875,-0.157012939453125,-2.10845947265625,1,1.0,1.0,1.0,1.0,10.00
2024-10-11 20:46:47.250,0.63434756,0.34648535,-0.28181297,0.77211696,0.5523988,-0.29801315,-0.08420115,0.42638797,0.6182738,-0.031012425,-0.04312598,0.6263287,0.53189445,-0.22264852,0.49760887,0.4533438,0.027176287,-0.55231833,0.24045639,0.04180034,801.8315,798.60803,794.57874,794.17584,837.28937,0.077392578125,0.1697998046875,0.99652099609375,5.166473388671875,-0.157012939453125,-2.10845947265625,1,1.0,1.0,1.0,1.0,10.00
2024-10-11 20:46:47.250,0.63434756,0.34648535,-0.28181297,0.77211696,0.5523988,-0.29801315,-0.08420115,0.42638797,0.6182738,-0.031012425,-0.04312598,0.6263287,0.53189445,-0.22264852,0.49760887,0.4533438,0.027176287,-0.55231833,0.24045639,0.04180034,803.0403,801.02563,801.4286,805.8608,630.989,0.077392578125,0.1697998046875,0.99652099609375,5.166473388671875,-0.157012939453125,-2.10845947265625,1,1.0,1.0,1.0,1.0,10.00
2024-10-11 20:46:47.251,0.63434756,0.34648535,-0.28181297,0.77211696,0.5523988,-0.29801315,-0.08420115,0.42638797,0.6182738,-0.031012425,-0.04312598,0.6263287,0.53189445,-0.22264852,0.49760887,0.4533438,0.027176287,-0.55231833,0.24045639,0.04180034,805.4579,803.0403,802.6374,806.26373,564.10254,0.077392578125,0.1697998046875,0.99652099609375,5.166473388671875,-0.157012939453125,-2.10845947265625,1,1.0,1.0,1.0,1.0,10.00
2024-10-11 20:46:47.251,0.63434756,0.34648535,-0.28181297,0.77211696,0.5523988,-0.29801315,-0.08420115,0.42638797,0.6182738,-0.031012425,-0.04312598,0.6263287,0.53189445,-0.22264852,0.49760887,0.4533438,0.027176287,-0.55231833,0.24045639,0.04180034,807.47253,798.20514,807.0696,799.81683,706.7399,0.077392578125,0.1697998046875,0.99652099609375,5.166473388671875,-0.157012939453125,-2.10845947265625,1,1.0,1.0,1.0,1.0,10.00
2024-10-11 20:46:47.252,0.63434756,0.34648535,-0.28181297,0.77211696,0.5523988,-0.29801315,-0.08420115,0.42638797,0.6182738,-0.031012425,-0.04312598,0.6263287,0.53189445,-0.22264852,0.49760887,0.4533438,0.027176287,-0.55231833,0.24045639,0.04180034,807.0696,794.17584,810.293,794.9817,717.2161,0.077392578125,0.1697998046875,0.99652099609375,5.166473388671875,-0.157012939453125,-2.10845947265625,1,1.0,1.0,1.0,1.0,10.00
2024-10-11 20:46:47.280,0.63434756,0.34648535,-0.28181297,0.77211696,0.5523988,-0.29801315,-0.08420115,0.42638797,0.6182738,-0.031012425,-0.04312598,0.6263287,0.53189445,-0.22264852,0.49760887,0.4533438,0.027176287,-0.55231833,0.24045639,0.04180034,797.8022,796.1905,811.50183,796.5934,580.6227,0.07373046875,0.19403076171875,1.00567626953125,3.940277099609375,2.332763671875,-3.9178466796875,1,1.0,1.0,1.0,1.0,10.00
2024-10-11 20:46:47.281,0.63434756,0.34648535,-0.28181297,0.77211696,0.5523988,-0.29801315,-0.08420115,0.42638797,0.6182738,-0.031012425,-0.04312598,0.6263287,0.53189445,-0.22264852,0.49760887,0.4533438,0.027176287,-0.55231833,0.24045639,0.04180034,794.17584,796.99634,812.3077,800.2198,636.2271,0.07373046875,0.19403076171875,1.00567626953125,3.940277099609375,2.332763671875,-3.9178466796875,1,1.0,1.0,1.0,1.0,10.00
2024-10-11 20:46:47.282,0.63434756,0.34648535,-0.28181297,0.77211696,0.5523988,-0.29801315,-0.08420115,0.42638797,0.6182738,-0.031012425,-0.04312598,0.6263287,0.53189445,-0.22264852,0.49760887,0.4533438,0.027176287,-0.55231833,0.24045639,0.04180034,794.17584,796.99634,798.60803,805.8608,974.2857,0.07373046875,0.19403076171875,1.00567626953125,3.940277099609375,2.332763671875,-3.9178466796875,1,1.0,1.0,1.0,1.0,10.00
2024-10-11 20:46:47.282,0.63434756,0.34648535,-0.28181297,0.77211696,0.5523988,-0.29801315,-0.08420115,0.42638797,0.6182738,-0.031012425,-0.04312598,0.6263287,0.53189445,-0.22264852,0.49760887,0.4533438,0.027176287,-0.55231833,0.24045639,0.04180034,789.34064,792.5641,798.20514,801.8315,873.5531,0.07373046875,0.19403076171875,1.00567626953125,3.940277099609375,2.332763671875,-3.9178466796875,1,1.0,1.0,1.0,1.0,10.00
2024-10-11 20:46:47.283,0.63434756,0.34648535,-0.28181297,0.77211696,0.5523988,-0.29801315,-0.08420115,0.42638797,0.6182738,-0.031012425,-0.04312598,0.6263287,0.53189445,-0.22264852,0.49760887,0.4533438,0.027176287,-0.55231833,0.24045639,0.04180034,792.5641,789.7436,803.44324,802.23444,578.60803,0.07373046875,0.19403076171875,1.00567626953125,3.940277099609375,2.332763671875,-3.9178466796875,1,1.0,1.0,1.0,1.0,10.00
2024-10-11 20:46:47.283,0.63434756,0.14879973,-0.23571047,0.77211696,0.5523988,-0.44436246,-0.08460871,0.42638797,0.6182738,-0.09108811,-0.04312598,0.6263287,0.53189445,-0.2272213,0.50217086,0.4533438,0.027176287,-0.5644293,0.22954923,0.04180034,794.57874,789.34064,800.6227,809.4872,873.1502,0.07373046875,0.19403076171875,1.00567626953125,3.940277099609375,2.332763671875,-3.9178466796875,1,1.0,1.0,1.0,1.0,10.00
2024-10-11 20:46:47.287,0.63434756,0.14879973,-0.23571047,0.77211696,0.5523988,-0.44436246,-0.08460871,0.42638797,0.6182738,-0.09108811,-0.04312598,0.6263287,0.53189445,-0.2272213,0.50217086,0.4533438,0.027176287,-0.5644293,0.22954923,0.04180034,794.57874,792.96704,791.3553,811.0989,1080.6593,0.07373046875,0.19403076171875,1.00567626953125,3.940277099609375,2.332763671875,-3.9178466796875,1,1.0,1.0,1.0,1.0,10.00
2024-10-11 20:46:47.288,0.63434756,0.14879973,-0.23571047,0.77211696,0.5523988,-0.44436246,-0.08460871,0.42638797,0.6182738,-0.09108811,-0.04312598,0.6263287,0.53189445,-0.2272213,0.50217086,0.4533438,0.027176287,-0.5644293,0.22954923,0.04180034,795.38464,798.20514,792.5641,805.8608,770.40295,0.07373046875,0.19403076171875,1.00567626953125,3.940277099609375,2.332763671875,-3.9178466796875,1,1.0,1.0,1.0,1.0,10.00
2024-10-11 20:46:47.288,0.63434756,0.14879973,-0.23571047,0.77211696,0.5523988,-0.44436246,-0.08460871,0.42638797,0.6182738,-0.09108811,-0.04312598,0.6263287,0.53189445,-0.2272213,0.50217086,0.4533438,0.027176287,-0.5644293,0.22954923,0.04180034,792.1612,799.011,807.8755,804.65204,595.12823,0.07373046875,0.19403076171875,1.00567626953125,3.940277099609375,2.332763671875,-3.9178466796875,1,1.0,1.0,1.0,1.0,10.00
2024-10-11 20:46:47.289,0.63434756,0.14879973,-0.23571047,0.77211696,0.5523988,-0.44436246,-0.08460871,0.42638797,0.6182738,-0.09108811,-0.04312598,0.6263287,0.53189445,-0.2272213,0.50217086,0.4533438,0.027176287,-0.5644293,0.22954923,0.04180034,788.5348,799.011,806.6667,805.8608,814.3223,0.07373046875,0.19403076171875,1.00567626953125,3.940277099609375,2.332763671875,-3.9178466796875,1,1.0,1.0,1.0,1.0,10.00
2024-10-11 20:46:47.289,0.63434756,0.14879973,-0.23571047,0.77211696,0.5523988,-0.44436246,-0.08460871,0.42638797,0.6182738,-0.09108811,-0.04312598,0.6263287,0.53189445,-0.2272213,0.50217086,0.4533438,0.027176287,-0.5644293,0.22954923,0.04180034,795.78754,798.60803,808.2784,801.4286,890.4762,0.07373046875,0.19403076171875,1.00567626953125,3.940277099609375,2.332763671875,-3.9178466796875,1,1.0,1.0,1.0,1.0,10.00
2024-10-11 20:46:47.290,0.63434756,0.14879973,-0.23571047,0.77211696,0.5523988,-0.44436246,-0.08460871,0.42638797,0.6182738,-0.09108811,-0.04312598,0.6263287,0.53189445,-0.2272213,0.50217086,0.4533438,0.027176287,-0.5644293,0.22954923,0.04180034,801.8315,799.41394,809.0842,797.8022,631.39197,0.07373046875,0.19403076171875,1.00567626953125,3.940277099609375,2.332763671875,-3.9178466796875,1,1.0,1.0,1.0,1.0,10.00
2024-10-11 20:46:47.384,0.63434756,0.14879973,-0.23571047,0.77211696,0.5523988,-0.44436246,-0.08460871,0.42638797,0.6182738,-0.09108811,-0.04312598,0.6263287,0.53189445,-0.2272213,0.50217086,0.4533438,0.027176287,-0.5644293,0.22954923,0.04180034,800.2198,799.011,799.41394,801.8315,522.1978,0.068115234375,0.20599365234375,1.007568359375,0.83740234375,5.674896240234375,-6.676788330078125,1,1.0,1.0,1.0,1.0,10.00
2024-10-11 20:46:47.385,0.63434756,0.14879973,-0.23571047,0.77211696,0.5523988,-0.44436246,-0.08460871,0.42638797,0.6182738,-0.09108811,-0.04312598,0.6263287,0.53189445,-0.2272213,0.50217086,0.4533438,0.027176287,-0.5644293,0.22954923,0.04180034,804.2491,799.41394,798.20514,807.8755,718.8278,0.068115234375,0.20599365234375,1.007568359375,0.83740234375,5.674896240234375,-6.676788330078125,1,1.0,1.0,1.0,1.0,10.00
2024-10-11 20:46:47.386,0.63434756,0.14879973,-0.23571047,0.77211696,0.5523988,-0.44436246,-0.08460871,0.42638797,0.6182738,-0.09108811,-0.04312598,0.6263287,0.53189445,-0.2272213,0.50217086,0.4533438,0.027176287,-0.5644293,0.22954923,0.04180034,800.6227,803.8461,801.4286,803.44324,918.2784,0.068115234375,0.20599365234375,1.007568359375,0.83740234375,5.674896240234375,-6.676788330078125,1,1.0,1.0,1.0,1.0,10.00
2024-10-11 20:46:47.387,0.63434756,0.14879973,-0.23571047,0.77211696,0.5523988,-0.44436246,-0.08460871,0.42638797,0.6182738,-0.09108811,-0.04312598,0.6263287,0.53189445,-0.2272213,0.50217086,0.4533438,0.027176287,-0.5644293,0.22954923,0.04180034,794.57874,801.4286,796.5934,792.5641,791.75824,0.068115234375,0.20599365234375,1.007568359375,0.83740234375,5.674896240234375,-6.676788330078125,1,1.0,1.0,1.0,1.0,10.00
2024-10-11 20:46:47.387,0.63434756,0.14879973,-0.23571047,0.77211696,0.5523988,-0.44436246,-0.08460871,0.42638797,0.6182738,-0.09108811,-0.04312598,0.6263287,0.53189445,-0.2272213,0.50217086,0.4533438,0.027176287,-0.5644293,0.22954923,0.04180034,798.20514,801.4286,807.47253,788.5348,613.663,0.068115234375,0.20599365234375,1.007568359375,0.83740234375,5.674896240234375,-6.676788330078125,1,1.0,1.0,1.0,1.0,10.00
2024-10-11 20:46:47.388,0.63434756,0.14879973,-0.23571047,0.77211696,0.5523988,-0.44436246,-0.08460871,0.42638797,0.6182738,-0.09108811,-0.04312598,0.6263287,0.53189445,-0.2272213,0.50217086,0.4533438,0.027176287,-0.5644293,0.22954923,0.04180034,796.1905,802.6374,811.9048,795.38464,844.1392,0.068115234375,0.20599365234375,1.007568359375,0.83740234375,5.674896240234375,-6.676788330078125,1,1.0,1.0,1.0,1.0,10.00
2024-10-11 20:46:47.389,0.63434756,0.14879973,-0.23571047,0.77211696,0.5523988,-0.44436246,-0.08460871,0.42638797,0.6182738,-0.09108811,-0.04312598,0.6263287,0.53189445,-0.2272213,0.50217086,0.4533438,0.027176287,-0.5644293,0.22954923,0.04180034,790.9524,799.41394,794.9817,804.2491,1376.8132,0.068115234375,0.20599365234375,1.007568359375,0.83740234375,5.674896240234375,-6.676788330078125,1,1.0,1.0,1.0,1.0,10.00
2024-10-11 20:46:47.390,0.63434756,0.14879973,-0.23571047,0.77211696,0.5523988,-0.44436246,-0.08460871,0.42638797,0.6182738,-0.09108811,-0.04312598,0.6263287,0.53189445,-0.2272213,0.50217086,0.4533438,0.027176287,-0.5644293,0.22954923,0.04180034,790.14655,803.8461,786.9231,807.0696,1019.41394,0.068115234375,0.20599365234375,1.007568359375,0.83740234375,5.674896240234375,-6.676788330078125,1,1.0,1.0,1.0,1.0,10.00
2024-10-11 20:46:47.390,0.63434756,0.14879973,-0.23571047,0.77211696,0.5523988,-0.44436246,-0.08460871,0.42638797,0.6182738,-0.09108811,-0.04312598,0.6263287,0.53189445,-0.2272213,0.50217086,0.4533438,0.027176287,-0.5644293,0.22954923,0.04180034,790.9524,801.02563,805.05493,798.20514,575.78754,0.068115234375,0.20599365234375,1.007568359375,0.83740234375,5.674896240234375,-6.676788330078125,1,1.0,1.0,1.0,1.0,10.00
2024-10-11 20:46:47.391,0.63434756,0.14879973,-0.23571047,0.77211696,0.5523988,-0.44436246,-0.08460871,0.42638797,0.6182738,-0.09108811,-0.04312598,0.6263287,0.53189445,-0.2272213,0.50217086,0.4533438,0.027176287,-0.5644293,0.22954923,0.04180034,795.38464,795.78754,799.41394,791.3553,654.35895,0.068115234375,0.20599365234375,1.007568359375,0.83740234375,5.674896240234375,-6.676788330078125,1,1.0,1.0,1.0,1.0,10.00
2024-10-11 20:46:47.392,0.63434756,0.14879973,-0.23571047,0.77211696,0.5523988,-0.44436246,-0.08460871,0.42638797,0.6182738,-0.09108811,-0.04312598,0.6263287,0.53189445,-0.2272213,0.50217086,0.4533438,0.027176287,-0.5644293,0.22954923,0.04180034,802.23444,798.20514,785.31134,798.60803,733.73627,0.068115234375,0.20599365234375,1.007568359375,0.83740234375,5.674896240234375,-6.676788330078125,1,1.0,1.0,1.0,1.0,10.00
2024-10-11 20:46:47.392,0.63434756,0.14879973,-0.23571047,0.77211696,0.5523988,-0.44436246,-0.08460871,0.42638797,0.6182738,-0.09108811,-0.04312598,0.6263287,0.53189445,-0.2272213,0.50217086,0.4533438,0.027176287,-0.5644293,0.22954923,0.04180034,805.05493,801.4286,803.44324,804.2491,755.09155,0.068115234375,0.20599365234375,1.007568359375,0.83740234375,5.674896240234375,-6.676788330078125,1,1.0,1.0,1.0,1.0,10.00
2024-10-11 20:46:47.421,0.63434756,0.14879973,-0.23571047,0.77211696,0.5523988,-0.44436246,-0.08460871,0.42638797,0.6182738,-0.09108811,-0.04312598,0.6263287,0.53189445,-0.2272213,0.50217086,0.4533438,0.027176287,-0.5644293,0.22954923,0.04180034,805.4579,800.6227,809.89014,803.0403,678.93774,0.0513916015625,0.1990966796875,1.00537109375,-4.007568359375,7.932891845703125,-8.052520751953125,1,1.0,1.0,1.0,1.0,10.00
2024-10-11 20:46:47.422,0.63434756,0.14879973,-0.23571047,0.77211696,0.5523988,-0.44436246,-0.08460871,0.42638797,0.6182738,-0.09108811,-0.04312598,0.6263287,0.53189445,-0.2272213,0.50217086,0.4533438,0.027176287,-0.5644293,0.22954923,0.04180034,801.8315,796.1905,806.26373,805.05493,745.42126,0.0513916015625,0.1990966796875,1.00537109375,-4.007568359375,7.932891845703125,-8.052520751953125,1,1.0,1.0,1.0,1.0,10.00
2024-10-11 20:46:47.423,0.63434756,0.14879973,-0.23571047,0.77211696,0.5523988,-0.44436246,-0.08460871,0.42638797,0.6182738,-0.09108811,-0.04312598,0.6263287,0.53189445,-0.2272213,0.50217086,0.4533438,0.027176287,-0.5644293,0.22954923,0.04180034,803.0403,797.8022,810.696,810.293,730.5128,0.0513916015625,0.1990966796875,1.00537109375,-4.007568359375,7.932891845703125,-8.052520751953125,1,1.0,1.0,1.0,1.0,10.00
2024-10-11 20:46:47.424,0.63434756,0.14879973,-0.23571047,0.77211696,0.5523988,-0.44436246,-0.08460871,0.42638797,0.6182738,-0.09108811,-0.04312598,0.6263287,0.53189445,-0.2272213,0.50217086,0.4533438,0.027176287,-0.5644293,0.22954923,0.04180034,804.65204,800.2198,811.9048,809.4872,623.73627,0.0513916015625,0.1990966796875,1.00537109375,-4.007568359375,7.932891845703125,-8.052520751953125,1,1.0,1.0,1.0,1.0,10.00
2024-10-11 20:46:47.424,0.63434756,0.14879973,-0.23571047,0.77211696,0.5523988,-0.44436246,-0.08460871,0.42638797,0.6182738,-0.09108811,-0.04312598,0.6263287,0.53189445,-0.2272213,0.50217086,0.4533438,0.027176287,-0.5644293,0.22954923,0.04180034,805.8608,796.99634,808.68134,797.8022,718.8278,0.0513916015625,0.1990966796875,1.00537109375,-4.007568359375,7.932891845703125,-8.052520751953125,1,1.0,1.0,1.0,1.0,10.00
2024-10-11 20:46:47.425,0.63434756,0.14879973,-0.23571047,0.77211696,0.5523988,-0.44436246,-0.08460871,0.42638797,0.6182738,-0.09108811,-0.04312598,0.6263287,0.53189445,-0.2272213,0.50217086,0.4533438,0.027176287,-0.5644293,0.22954923,0.04180034,810.696,795.38464,807.0696,791.75824,871.53845,0.0513916015625,0.1990966796875,1.00537109375,-4.007568359375,7.932891845703125,-8.052520751953125,1,1.0,1.0,1.0,1.0,10.00
2024-10-11 20:46:47.426,0.63434756,0.14879973,-0.23571047,0.77211696,0.5523988,-0.44436246,-0.08460871,0.42638797,0.6182738,-0.09108811,-0.04312598,0.6263287,0.53189445,-0.2272213,0.50217086,0.4533438,0.027176287,-0.5644293,0.22954923,0.04180034,809.0842,803.44324,807.47253,799.41394,803.8461,0.0513916015625,0.1990966796875,1.00537109375,-4.007568359375,7.932891845703125,-8.052520751953125,1,1.0,1.0,1.0,1.0,10.00
2024-10-11 20:46:47.426,0.63434756,0.062807836,-0.16081657,0.77211696,0.5523988,-0.46639663,-0.05565798,0.42638797,0.6182738,-0.06707214,-0.04312598,0.6263287,0.53189445,-0.23266113,0.51423174,0.4533438,0.027176287,-0.56092995,0.2185896,0.04180034,809.4872,810.293,796.99634,801.8315,687.3993,0.0513916015625,0.1990966796875,1.00537109375,-4.007568359375,7.932891845703125,-8.052520751953125,1,1.0,1.0,1.0,1.0,10.00
2024-10-11 20:46:47.432,0.63434756,0.062807836,-0.16081657,0.77211696,0.5523988,-0.46639663,-0.05565798,0.42638797,0.6182738,-0.06707214,-0.04312598,0.6263287,0.53189445,-0.23266113,0.51423174,0.4533438,0.027176287,-0.56092995,0.2185896,0.04180034,809.4872,801.4286,790.54944,804.65204,792.5641,0.0513916015625,0.1990966796875,1.00537109375,-4.007568359375,7.932891845703125,-8.052520751953125,1,1.0,1.0,1.0,1.0,10.00
2024-10-11 20:46:47.433,0.63434756,0.062807836,-0.16081657,0.77211696,0.5523988,-0.46639663,-0.05565798,0.42638797,0.6182738,-0.06707214,-0.04312598,0.6263287,0.53189445,-0.23266113,0.51423174,0.4533438,0.027176287,-0.56092995,0.2185896,0.04180034,807.47253,794.9817,799.011,806.26373,882.01465,0.0513916015625,0.1990966796875,1.00537109375,-4.007568359375,7.932891845703125,-8.052520751953125,1,1.0,1.0,1.0,1.0,10.00
2024-10-11 20:46:47.434,0.63434756,0.062807836,-0.16081657,0.77211696,0.5523988,-0.46639663,-0.05565798,0.42638797,0.6182738,-0.06707214,-0.04312598,0.6263287,0.53189445,-0.23266113,0.51423174,0.4533438,0.027176287,-0.56092995,0.2185896,0.04180034,808.68134,798.20514,805.4579,805.8608,677.326,0.0513916015625,0.1990966796875,1.00537109375,-4.007568359375,7.932891845703125,-8.052520751953125,1,1.0,1.0,1.0,1.0,10.00
2024-10-11 20:46:47.434,0.63434756,0.062807836,-0.16081657,0.77211696,0.5523988,-0.46639663,-0.05565798,0.42638797,0.6182738,-0.06707214,-0.04312598,0.6263287,0.53189445,-0.23266113,0.51423174,0.4533438,0.027176287,-0.56092995,0.2185896,0.04180034,801.8315,797.3993,804.2491,809.0842,603.5897,0.0513916015625,0.1990966796875,1.00537109375,-4.007568359375,7.932891845703125,-8.052520751953125,1,1.0,1.0,1.0,1.0,10.00
2024-10-11 20:46:47.534,0.63434756,0.062807836,-0.16081657,0.77211696,0.5523988,-0.46639663,-0.05565798,0.42638797,0.6182738,-0.06707214,-0.04312598,0.6263287,0.53189445,-0.23266113,0.51423174,0.4533438,0.027176287,-0.56092995,0.2185896,0.04180034,802.6374,793.36993,807.8755,815.5311,820.7692,0.0321044921875,0.1806640625,1.003662109375,-7.559051513671875,9.92919921875,-9.802093505859375,1,1.0,1.0,1.0,1.0,10.00
2024-10-11 20:46:47.535,0.63434756,0.062807836,-0.16081657,0.77211696,0.5523988,-0.46639663,-0.05565798,0.42638797,0.6182738,-0.06707214,-0.04312598,0.6263287,0.53189445,-0.23266113,0.51423174,0.4533438,0.027176287,-0.56092995,0.2185896,0.04180034,805.8608,789.34064,806.6667,814.3223,956.9597,0.0321044921875,0.1806640625,1.003662109375,-7.559051513671875,9.92919921875,-9.802093505859375,1,1.0,1.0,1.0,1.0,10.00
2024-10-11 20:46:47.535,0.63434756,0.062807836,-0.16081657,0.77211696,0.5523988,-0.46639663,-0.05565798,0.42638797,0.6182738,-0.06707214,-0.04312598,0.6263287,0.53189445,-0.23266113,0.51423174,0.4533438,0.027176287,-0.56092995,0.2185896,0.04180034,796.5934,790.14655,799.41394,802.6374,734.5421,0.0321044921875,0.1806640625,1.003662109375,-7.559051513671875,9.92919921875,-9.802093505859375,1,1.0,1.0,1.0,1.0,10.00
2024-10-11 20:46:47.536,0.63434756,0.062807836,-0.16081657,0.77211696,0.5523988,-0.46639663,-0.05565798,0.42638797,0.6182738,-0.06707214,-0.04312598,0.6263287,0.53189445,-0.23266113,0.51423174,0.4533438,0.027176287,-0.56092995,0.2185896,0.04180034,799.011,792.96704,800.2198,798.60803,703.91943,0.0321044921875,0.1806640625,1.003662109375,-7.559051513671875,9.92919921875,-9.802093505859375,1,1.0,1.0,1.0,1.0,10.00
2024-10-11 20:46:47.536,0.63434756,0.062807836,-0.16081657,0.77211696,0.5523988,-0.46639663,-0.05565798,0.42638797,0.6182738,-0.06707214,-0.04312598,0.6263287,0.53189445,-0.23266113,0.51423174,0.4533438,0.027176287,-0.56092995,0.2185896,0.04180034,803.0403,792.1612,800.6227,802.6374,893.2967,0.0321044921875,0.1806640625,1.003662109375,-7.559051513671875,9.92919921875,-9.802093505859375,1,1.0,1.0,1.0,1.0,10.00
2024-10-11 20:46:47.537,0.63434756,0.062807836,-0.16081657,0.77211696,0.5523988,-0.46639663,-0.05565798,0.42638797,0.6182738,-0.06707214,-0.04312598,0.6263287,0.53189445,-0.23266113,0.51423174,0.4533438,0.027176287,-0.56092995,0.2185896,0.04180034,803.8461,792.5641,796.1905,805.05493,850.989,0.0321044921875,0.1806640625,1.003662109375,-7.559051513671875,9.92919921875,-9.802093505859375,1,1.0,1.0,1.0,1.0,10.00
2024-10-11 20:46:47.538,0.63434756,0.062807836,-0.16081657,0.77211696,0.5523988,-0.46639663,-0.05565798,0.42638797,0.6182738,-0.06707214,-0.04312598,0.6263287,0.53189445,-0.23266113,0.51423174,0.4533438,0.027176287,-0.56092995,0.2185896,0.04180034,802.6374,796.99634,795.38464,802.23444,686.1905,0.0321044921875,0.1806640625,1.003662109375,-7.559051513671875,9.92919921875,-9.802093505859375,1,1.0,1.0,1.0,1.0,10.00
2024-10-11 20:46:47.538,0.63434756,0.062807836,-0.16081657,0.77211696,0.5523988,-0.46639663,-0.05565798,0.42638797,0.6182738,-0.06707214,-0.04312598,0.6263287,0.53189445,-0.23266113,0.51423174,0.4533438,0.027176287,-0.56092995,0.2185896,0.04180034,805.8608,793.7729,800.6227,815.12823,722.0513,0.0321044921875,0.1806640625,1.003662109375,-7.559051513671875,9.92919921875,-9.802093505859375,1,1.0,1.0,1.0,1.0,10.00
2024-10-11 20:46:47.539,0.63434756,0.062807836,-0.16081657,0.77211696,0.5523988,-0.46639663,-0.05565798,0.42638797,0.6182738,-0.06707214,-0.04312598,0.6263287,0.53189445,-0.23266113,0.51423174,0.4533438,0.027176287,-0.56092995,0.2185896,0.04180034,813.5165,790.9524,795.78754,826.8132,890.87915,0.0321044921875,0.1806640625,1.003662109375,-7.559051513671875,9.92919921875,-9.802093505859375,1,1.0,1.0,1.0,1.0,10.00
2024-10-11 20:46:47.539,0.63434756,0.062807836,-0.16081657,0.77211696,0.5523988,-0.46639663,-0.05565798,0.42638797,0.6182738,-0.06707214,-0.04312598,0.6263287,0.53189445,-0.23266113,0.51423174,0.4533438,0.027176287,-0.56092995,0.2185896,0.04180034,817.5458,792.96704,801.02563,813.5165,857.4359,0.0321044921875,0.1806640625,1.003662109375,-7.559051513671875,9.92919921875,-9.802093505859375,1,1.0,1.0,1.0,1.0,10.00
2024-10-11 20:46:47.540,0.63434756,0.062807836,-0.16081657,0.77211696,0.5523988,-0.46639663,-0.05565798,0.42638797,0.6182738,-0.06707214,-0.04312598,0.6263287,0.53189445,-0.23266113,0.51423174,0.4533438,0.027176287,-0.56092995,0.2185896,0.04180034,814.3223,790.54944,815.12823,801.02563,677.326,0.0321044921875,0.1806640625,1.003662109375,-7.559051513671875,9.92919921875,-9.802093505859375,1,1.0,1.0,1.0,1.0,10.00
2024-10-11 20:46:47.540,0.63434756,0.062807836,-0.16081657,0.77211696,0.5523988,-0.46639663,-0.05565798,0.42638797,0.6182738,-0.06707214,-0.04312598,0.6263287,0.53189445,-0.23266113,0.51423174,0.4533438,0.027176287,-0.56092995,0.2185896,0.04180034,809.4872,791.3553,805.4579,809.89014,715.6044,0.0321044921875,0.1806640625,1.003662109375,-7.559051513671875,9.92919921875,-9.802093505859375,1,1.0,1.0,1.0,1.0,10.00
2024-10-11 20:46:47.541,0.63434756,0.062807836,-0.16081657,0.77211696,0.5523988,-0.46639663,-0.05565798,0.42638797,0.6182738,-0.06707214,-0.04312598,0.6263287,0.53189445,-0.23266113,0.51423174,0.4533438,0.027176287,-0.56092995,0.2185896,0.04180034,818.3516,791.3553,796.1905,824.3956,1096.3737,0.0321044921875,0.1806640625,1.003662109375,-7.559051513671875,9.92919921875,-9.802093505859375,1,1.0,1.0,1.0,1.0,10.00
2024-10-11 20:46:47.542,0.63434756,0.062807836,-0.16081657,0.77211696,0.5523988,-0.46639663,-0.05565798,0.42638797,0.6182738,-0.06707214,-0.04312598,0.6263287,0.53189445,-0.23266113,0.51423174,0.4533438,0.027176287,-0.56092995,0.2185896,0.04180034,825.2015,796.1905,806.26373,823.5897,1178.9744,0.0321044921875,0.1806640625,1.003662109375,-7.559051513671875,9.92919921875,-9.802093505859375,1,1.0,1.0,1.0,1.0,10.00
2024-10-11 20:46:47.542,0.63434756,0.062807836,-0.16081657,0.77211696,0.5523988,-0.46639663,-0.05565798,0.42638797,0.6182738,-0.06707214,-0.04312598,0.6263287,0.53189445,-0.23266113,0.51423174,0.4533438,0.027176287,-0.56092995,0.2185896,0.04180034,813.91943,799.011,811.9048,806.6667,705.12823,0.0321044921875,0.1806640625,1.003662109375,-7.559051513671875,9.92919921875,-9.802093505859375,1,1.0,1.0,1.0,1.0,10.00
2024-10-11 20:46:47.543,0.63434756,0.062807836,-0.16081657,0.77211696,0.5523988,-0.46639663,-0.05565798,0.42638797,0.6182738,-0.06707214,-0.04312598,0.6263287,0.53189445,-0.23266113,0.51423174,0.4533438,0.027176287,-0.56092995,0.2185896,0.04180034,813.91943,794.9817,809.4872,800.2198,749.45056,0.0321044921875,0.1806640625,1.003662109375,-7.559051513671875,9.92919921875,-9.802093505859375,1,1.0,1.0,1.0,1.0,10.00
2024-10-11 20:46:47.544,0.63434756,0.062807836,-0.16081657,0.77211696,0.5523988,-0.46639663,-0.05565798,0.42638797,0.6182738,-0.06707214,-0.04312598,0.6263287,0.53189445,-0.23266113,0.51423174,0.4533438,0.027176287,-0.56092995,0.2185896,0.04180034,812.71063,792.96704,803.44324,799.81683,841.31866,0.0321044921875,0.1806640625,1.003662109375,-7.559051513671875,9.92919921875,-9.802093505859375,1,1.0,1.0,1.0,1.0,10.00
2024-10-11 20:46:47.545,0.63434756,0.062807836,-0.16081657,0.77211696,0.5523988,-0.46639663,-0.05565798,0.42638797,0.6182738,-0.06707214,-0.04312598,0.6263287,0.53189445,-0.23266113,0.51423174,0.4533438,0.027176287,-0.56092995,0.2185896,0.04180034,802.6374,794.9817,792.1612,799.81683,813.5165,0.0321044921875,0.1806640625,1.003662109375,-7.559051513671875,9.92919921875,-9.802093505859375,1,1.0,1.0,1.0,1.0,10.00
2024-10-11 20:46:47.545,0.63434756,0.062807836,-0.16081657,0.77211696,0.5523988,-0.46639663,-0.05565798,0.42638797,0.6182738,-0.06707214,-0.04312598,0.6263287,0.53189445,-0.23266113,0.51423174,0.4533438,0.027176287,-0.56092995,0.2185896,0.04180034,803.44324,794.9817,789.34064,805.05493,763.5531,0.0321044921875,0.1806640625,1.003662109375,-7.559051513671875,9.92919921875,-9.802093505859375,1,1.0,1.0,1.0,1.0,10.00
2024-10-11 20:46:47.546,0.63434756,0.062807836,-0.16081657,0.77211696,0.5523988,-0.46639663,-0.05565798,0.42638797,0.6182738,-0.06707214,-0.04312598,0.6263287,0.53189445,-0.23266113,0.51423174,0.4533438,0.027176287,-0.56092995,0.2185896,0.04180034,806.26373,795.38464,801.02563,809.89014,801.4286,0.0321044921875,0.1806640625,1.003662109375,-7.559051513671875,9.92919921875,-9.802093505859375,1,1.0,1.0,1.0,1.0,10.00
2024-10-11 20:46:47.546,0.63434756,0.062807836,-0.16081657,0.77211696,0.5523988,-0.46639663,-0.05565798,0.42638797,0.6182738,-0.06707214,-0.04312598,0.6263287,0.53189445,-0.23266113,0.51423174,0.4533438,0.027176287,-0.56092995,0.2185896,0.04180034,804.65204,796.5934,814.3223,813.91943,902.5641,0.0321044921875,0.1806640625,1.003662109375,-7.559051513671875,9.92919921875,-9.802093505859375,1,1.0,1.0,1.0,1.0,10.00
2024-10-11 20:46:47.547,0.63434756,0.083145365,-0.08725641,0.77211696,0.5523988,-0.43935156,-0.012541822,0.42638797,0.6182738,-0.030671095,-0.04312598,0.6263287,0.53189445,-0.23552641,0.52995306,0.4533438,0.027176287,-0.5531426,0.2088047,0.04180034,809.4872,799.81683,811.50183,811.9048,666.04395,0.0321044921875,0.1806640625,1.003662109375,-7.559051513671875,9.92919921875,-9.802093505859375,1,1.0,1.0,1.0,1.0,10.00
2024-10-11 20:46:47.551,0.63434756,0.083145365,-0.08725641,0.77211696,0.5523988,-0.43935156,-0.012541822,0.42638797,0.6182738,-0.030671095,-0.04312598,0.6263287,0.53189445,-0.23552641,0.52995306,0.4533438,0.027176287,-0.5531426,0.2088047,0.04180034,813.1135,799.41394,801.02563,809.4872,635.82416,0.0321044921875,0.1806640625,1.003662109375,-7.559051513671875,9.92919921875,-9.802093505859375,1,1.0,1.0,1.0,1.0,10.00
2024-10-11 20:46:47.552,0.63434756,0.083145365,-0.08725641,0.77211696,0.5523988,-0.43935156,-0.012541822,0.42638797,0.6182738,-0.030671095,-0.04312598,0.6263287,0.53189445,-0.23552641,0.52995306,0.4533438,0.027176287,-0.5531426,0.2088047,0.04180034,814.7253,797.3993,795.38464,812.71063,856.2271,0.0321044921875,0.1806640625,1.003662109375,-7.559051513671875,9.92919921875,-9.802093505859375,1,1.0,1.0,1.0,1.0,10.00
2024-10-11 20:46:47.553,0.63434756,0.083145365,-0.08725641,0.77211696,0.5523988,-0.43935156,-0.012541822,0.42638797,0.6182738,-0.030671095,-0.04312598,0.6263287,0.53189445,-0.23552641,0.52995306,0.4533438,0.027176287,-0.5531426,0.2088047,0.04180034,817.5458,796.5934,797.8022,812.71063,810.293,0.0076904296875,0.15423583984375,0.99969482421875,-11.34979248046875,11.013336181640625,-10.250701904296875,1,1.0,1.0,1.0,1.0,10.00
2024-10-11 20:46:47.553,0.63434756,0.083145365,-0.08725641,0.77211696,0.5523988,-0.43935156,-0.012541822,0.42638797,0.6182738,-0.030671095,-0.04312598,0.6263287,0.53189445,-0.23552641,0.52995306,0.4533438,0.027176287,-0.5531426,0.2088047,0.04180034,807.8755,791.75824,808.68134,807.8755,695.8608,0.0076904296875,0.15423583984375,0.99969482421875,-11.34979248046875,11.013336181640625,-10.250701904296875,1,1.0,1.0,1.0,1.0,10.00
2024-10-11 20:46:47.554,0.63434756,0.083145365,-0.08725641,0.77211696,0.5523988,-0.43935156,-0.012541822,0.42638797,0.6182738,-0.030671095,-0.04312598,0.6263287,0.53189445,-0.23552641,0.52995306,0.4533438,0.027176287,-0.5531426,0.2088047,0.04180034,803.0403,794.9817,803.8461,801.8315,757.50916,0.0076904296875,0.15423583984375,0.99969482421875,-11.34979248046875,11.013336181640625,-10.250701904296875,1,1.0,1.0,1.0,1.0,10.00
2024-10-11 20:46:47.555,0.63434756,0.083145365,-0.08725641,0.77211696,0.5523988,-0.43935156,-0.012541822,0.42638797,0.6182738,-0.030671095,-0.04312598,0.6263287,0.53189445,-0.23552641,0.52995306,0.4533438,0.027176287,-0.5531426,0.2088047,0.04180034,808.68134,793.7729,800.6227,805.05493,794.17584,0.0076904296875,0.15423583984375,0.99969482421875,-11.34979248046875,11.013336181640625,-10.250701904296875,1,1.0,1.0,1.0,1.0,10.00
2024-10-11 20:46:47.555,0.63434756,0.083145365,-0.08725641,0.77211696,0.5523988,-0.43935156,-0.012541822,0.42638797,0.6182738,-0.030671095,-0.04312598,0.6263287,0.53189445,-0.23552641,0.52995306,0.4533438,0.027176287,-0.5531426,0.2088047,0.04180034,808.68134,788.5348,803.44324,811.0989,806.26373,0.0076904296875,0.15423583984375,0.99969482421875,-11.34979248046875,11.013336181640625,-10.250701904296875,1,1.0,1.0,1.0,1.0,10.00
2024-10-11 20:46:47.556,0.63434756,0.083145365,-0.08725641,0.77211696,0.5523988,-0.43935156,-0.012541822,0.42638797,0.6182738,-0.030671095,-0.04312598,0.6263287,0.53189445,-0.23552641,0.52995306,0.4533438,0.027176287,-0.5531426,0.2088047,0.04180034,799.81683,786.1172,801.8315,807.8755,768.7912,0.0076904296875,0.15423583984375,0.99969482421875,-11.34979248046875,11.013336181640625,-10.250701904296875,1,1.0,1.0,1.0,1.0,10.00
2024-10-11 20:46:47.557,0.63434756,0.083145365,-0.08725641,0.77211696,0.5523988,-0.43935156,-0.012541822,0.42638797,0.6182738,-0.030671095,-0.04312598,0.6263287,0.53189445,-0.23552641,0.52995306,0.4533438,0.027176287,-0.5531426,0.2088047,0.04180034,797.8022,785.31134,813.1135,803.8461,720.84247,0.0076904296875,0.15423583984375,0.99969482421875,-11.34979248046875,11.013336181640625,-10.250701904296875,1,1.0,1.0,1.0,1.0,10.00
2024-10-11 20:46:47.557,0.63434756,0.083145365,-0.08725641,0.77211696,0.5523988,-0.43935156,-0.012541822,0.42638797,0.6182738,-0.030671095,-0.04312598,0.6263287,0.53189445,-0.23552641,0.52995306,0.4533438,0.027176287,-0.5531426,0.2088047,0.04180034,796.99634,786.1172,808.68134,806.26373,858.6447,0.0076904296875,0.15423583984375,0.99969482421875,-11.34979248046875,11.013336181640625,-10.250701904296875,1,1.0,1.0,1.0,1.0,10.00
2024-10-11 20:46:47.558,0.63434756,0.083145365,-0.08725641,0.77211696,0.5523988,-0.43935156,-0.012541822,0.42638797,0.6182738,-0.030671095,-0.04312598,0.6263287,0.53189445,-0.23552641,0.52995306,0.4533438,0.027176287,-0.5531426,0.2088047,0.04180034,800.6227,791.75824,797.8022,811.50183,839.707,0.0076904296875,0.15423583984375,0.99969482421875,-11.34979248046875,11.013336181640625,-10.250701904296875,1,1.0,1.0,1.0,1.0,10.00
2024-10-11 20:46:47.558,0.63434756,0.083145365,-0.08725641,0.77211696,0.5523988,-0.43935156,-0.012541822,0.42638797,0.6182738,-0.030671095,-0.04312598,0.6263287,0.53189445,-0.23552641,0.52995306,0.4533438,0.027176287,-0.5531426,0.2088047,0.04180034,809.0842,796.5934,808.68134,813.1135,667.6557,0.0076904296875,0.15423583984375,0.99969482421875,-11.34979248046875,11.013336181640625,-10.250701904296875,1,1.0,1.0,1.0,1.0,10.00
2024-10-11 20:46:47.559,0.63434756,0.083145365,-0.08725641,0.77211696,0.5523988,-0.43935156,-0.012541822,0.42638797,0.6182738,-0.030671095,-0.04312598,0.6263287,0.53189445,-0.23552641,0.52995306,0.4533438,0.027176287,-0.5531426,0.2088047,0.04180034,809.89014,792.96704,815.9341,811.0989,647.9121,0.0076904296875,0.15423583984375,0.99969482421875,-11.34979248046875,11.013336181640625,-10.250701904296875,1,1.0,1.0,1.0,1.0,10.00
2024-10-11 20:46:47.559,0.63434756,0.083145365,-0.08725641,0.77211696,0.5523988,-0.43935156,-0.012541822,0.42638797,0.6182738,-0.030671095,-0.04312598,0.6263287,0.53189445,-0.23552641,0.52995306,0.4533438,0.027176287,-0.5531426,0.2088047,0.04180034,804.2491,789.7436,801.4286,809.89014,733.3333,0.0076904296875,0.15423583984375,0.99969482421875,-11.34979248046875,11.013336181640625,-10.250701904296875,1,1.0,1.0,1.0,1.0,10.00
2024-10-11 20:46:47.586,0.63434756,0.083145365,-0.08725641,0.77211696,0.5523988,-0.43935156,-0.012541822,0.42638797,0.6182738,-0.030671095,-0.04312598,0.6263287,0.53189445,-0.23552641,0.52995306,0.4533438,0.027176287,-0.5531426,0.2088047,0.04180034,803.44324,788.5348,788.93774,812.71063,777.6557,-0.00433349609375,0.12005615234375,1.00189208984375,-13.555450439453125,10.175933837890625,-9.069366455078125,1,1.0,1.0,1.0,1.0,10.00
2024-10-11 20:46:47.587,0.63434756,0.083145365,-0.08725641,0.77211696,0.5523988,-0.43935156,-0.012541822,0.42638797,0.6182738,-0.030671095,-0.04312598,0.6263287,0.53189445,-0.23552641,0.52995306,0.4533438,0.027176287,-0.5531426,0.2088047,0.04180034,807.8755,790.54944,803.8461,812.71063,751.4652,-0.00433349609375,0.12005615234375,1.00189208984375,-13.555450439453125,10.175933837890625,-9.069366455078125,1,1.0,1.0,1.0,1.0,10.00
2024-10-11 20:46:47.588,0.63434756,0.083145365,-0.08725641,0.77211696,0.5523988,-0.43935156,-0.012541822,0.42638797,0.6182738,-0.030671095,-0.04312598,0.6263287,0.53189445,-0.23552641,0.52995306,0.4533438,0.027176287,-0.5531426,0.2088047,0.04180034,815.5311,794.17584,811.0989,810.293,791.3553,-0.00433349609375,0.12005615234375,1.00189208984375,-13.555450439453125,10.175933837890625,-9.069366455078125,1,1.0,1.0,1.0,1.0,10.00
2024-10-11 20:46:47.589,0.63434756,0.083145365,-0.08725641,0.77211696,0.5523988,-0.43935156,-0.012541822,0.42638797,0.6182738,-0.030671095,-0.04312598,0.6263287,0.53189445,-0.23552641,0.52995306,0.4533438,0.027176287,-0.5531426,0.2088047,0.04180034,809.89014,792.1612,809.0842,805.05493,831.2454,-0.00433349609375,0.12005615234375,1.00189208984375,-13.555450439453125,10.175933837890625,-9.069366455078125,1,1.0,1.0,1.0,1.0,10.00
2024-10-11 20:46:47.589,0.63434756,0.083145365,-0.08725641,0.77211696,0.5523988,-0.43935156,-0.012541822,0.42638797,0.6182738,-0.030671095,-0.04312598,0.6263287,0.53189445,-0.23552641,0.52995306,0.4533438,0.027176287,-0.5531426,0.2088047,0.04180034,812.3077,790.9524,817.9487,801.4286,689.81683,-0.00433349609375,0.12005615234375,1.00189208984375,-13.555450439453125,10.175933837890625,-9.069366455078125,1,1.0,1.0,1.0,1.0,10.00
2024-10-11 20:46:47.590,0.63434756,0.083145365,-0.08725641,0.77211696,0.5523988,-0.43935156,-0.012541822,0.42638797,0.6182738,-0.030671095,-0.04312598,0.6263287,0.53189445,-0.23552641,0.52995306,0.4533438,0.027176287,-0.5531426,0.2088047,0.04180034,809.0842,793.36993,812.71063,805.05493,733.3333,-0.00433349609375,0.12005615234375,1.00189208984375,-13.555450439453125,10.175933837890625,-9.069366455078125,1,1.0,1.0,1.0,1.0,10.00
2024-10-11 20:46:47.591,0.63434756,0.083145365,-0.08725641,0.77211696,0.5523988,-0.43935156,-0.012541822,0.42638797,0.6182738,-0.030671095,-0.04312598,0.6263287,0.53189445,-0.23552641,0.52995306,0.4533438,0.027176287,-0.5531426,0.2088047,0.04180034,792.5641,796.99634,807.47253,811.50183,834.4689,-0.00433349609375,0.12005615234375,1.00189208984375,-13.555450439453125,10.175933837890625,-9.069366455078125,1,1.0,1.0,1.0,1.0,10.00
2024-10-11 20:46:47.592,0.63434756,0.083145365,-0.08725641,0.77211696,0.5523988,-0.43935156,-0.012541822,0.42638797,0.6182738,-0.030671095,-0.04312598,0.6263287,0.53189445,-0.23552641,0.52995306,0.4533438,0.027176287,-0.5531426,0.2088047,0.04180034,799.81683,795.78754,806.26373,811.9048,1055.6776,-0.00433349609375,0.12005615234375,1.00189208984375,-13.555450439453125,10.175933837890625,-9.069366455078125,1,1.0,1.0,1.0,1.0,10.00
2024-10-11 20:46:47.592,0.63434756,0.083145365,-0.08725641,0.77211696,0.5523988,-0.43935156,-0.012541822,0.42638797,0.6182738,-0.030671095,-0.04312598,0.6263287,0.53189445,-0.23552641,0.52995306,0.4533438,0.027176287,-0.5531426,0.2088047,0.04180034,807.0696,790.54944,799.011,811.0989,1263.5897,-0.00433349609375,0.12005615234375,1.00189208984375,-13.555450439453125,10.175933837890625,-9.069366455078125,1,1.0,1.0,1.0,1.0,10.00
2024-10-11 20:46:47.593,0.63434756,0.083145365,-0.08725641,0.77211696,0.5523988,-0.43935156,-0.012541822,0.42638797,0.6182738,-0.030671095,-0.04312598,0.6263287,0.53189445,-0.23552641,0.52995306,0.4533438,0.027176287,-0.5531426,0.2088047,0.04180034,804.65204,790.9524,792.1612,805.8608,1000.87915,-0.00433349609375,0.12005615234375,1.00189208984375,-13.555450439453125,10.175933837890625,-9.069366455078125,1,1.0,1.0,1.0,1.0,10.00
2024-10-11 20:46:47.594,0.63434756,0.083145365,-0.08725641,0.77211696,0.5523988,-0.43935156,-0.012541822,0.42638797,0.6182738,-0.030671095,-0.04312598,0.6263287,0.53189445,-0.23552641,0.52995306,0.4533438,0.027176287,-0.5531426,0.2088047,0.04180034,800.2198,795.38464,792.5641,801.4286,774.0293,-0.00433349609375,0.12005615234375,1.00189208984375,-13.555450439453125,10.175933837890625,-9.069366455078125,1,1.0,1.0,1.0,1.0,10.00
2024-10-11 20:46:47.594,0.63434756,0.1260865,-0.037891272,0.77211696,0.5523988,-0.40194568,0.022009432,0.42638797,0.6182738,-0.0095015485,-0.04312598,0.6263287,0.53189445,-0.22877033,0.542785,0.4533438,0.027176287,-0.5441767,0.20024605,0.04180034,798.60803,801.02563,791.75824,799.81683,654.35895,-0.00433349609375,0.12005615234375,1.00189208984375,-13.555450439453125,10.175933837890625,-9.069366455078125,1,1.0,1.0,1.0,1.0,10.00
2024-10-11 20:46:47.655,0.63434756,0.1260865,-0.037891272,0.77211696,0.5523988,-0.40194568,0.022009432,0.42638797,0.6182738,-0.0095015485,-0.04312598,0.6263287,0.53189445,-0.22877033,0.542785,0.4533438,0.027176287,-0.5441767,0.20024605,0.04180034,808.68134,802.23444,795.38464,796.1905,511.3187,-0.0189208984375,0.093017578125,0.99835205078125,-14.198455810546875,10.39276123046875,-6.68426513671875,1,1.0,1.0,1.0,1.0,10.00
2024-10-11 20:46:47.656,0.63434756,0.1260865,-0.037891272,0.77211696,0.5523988,-0.40194568,0.022009432,0.42638797,0.6182738,-0.0095015485,-0.04312598,0.6263287,0.53189445,-0.22877033,0.542785,0.4533438,0.027176287,-0.5441767,0.20024605,0.04180034,823.9927,798.60803,786.9231,797.3993,508.9011,-0.0189208984375,0.093017578125,0.99835205078125,-14.198455810546875,10.39276123046875,-6.68426513671875,1,1.0,1.0,1.0,1.0,10.00
2024-10-11 20:46:47.657,0.63434756,0.1260865,-0.037891272,0.77211696,0.5523988,-0.40194568,0.022009432,0.42638797,0.6182738,-0.0095015485,-0.04312598,0.6263287,0.53189445,-0.22877033,0.542785,0.4533438,0.027176287,-0.5441767,0.20024605,0.04180034,821.1722,797.3993,772.8205,799.41394,572.5641,-0.0189208984375,0.093017578125,0.99835205078125,-14.198455810546875,10.39276123046875,-6.68426513671875,1,1.0,1.0,1.0,1.0,10.00
2024-10-11 20:46:47.658,0.63434756,0.1260865,-0.037891272,0.77211696,0.5523988,-0.40194568,0.022009432,0.42638797,0.6182738,-0.0095015485,-0.04312598,0.6263287,0.53189445,-0.22877033,0.542785,0.4533438,0.027176287,-0.5441767,0.20024605,0.04180034,813.1135,792.5641,796.99634,793.7729,589.89014,-0.0189208984375,0.093017578125,0.99835205078125,-14.198455810546875,10.39276123046875,-6.68426513671875,1,1.0,1.0,1.0,1.0,10.00
2024-10-11 20:46:47.659,0.63434756,0.1260865,-0.037891272,0.77211696,0.5523988,-0.40194568,0.022009432,0.42638797,0.6182738,-0.0095015485,-0.04312598,0.6263287,0.53189445,-0.22877033,0.542785,0.4533438,0.027176287,-0.5441767,0.20024605,0.04180034,808.68134,789.34064,818.7546,792.1612,536.30035,-0.0189208984375,0.093017578125,0.99835205078125,-14.198455810546875,10.39276123046875,-6.68426513671875,1,1.0,1.0,1.0,1.0,10.00
2024-10-11 20:46:47.659,0.63434756,0.1260865,-0.037891272,0.77211696,0.5523988,-0.40194568,0.022009432,0.42638797,0.6182738,-0.0095015485,-0.04312598,0.6263287,0.53189445,-0.22877033,0.542785,0.4533438,0.027176287,-0.5441767,0.20024605,0.04180034,802.23444,791.3553,813.1135,794.9817,664.83514,-0.0189208984375,0.093017578125,0.99835205078125,-14.198455810546875,10.39276123046875,-6.68426513671875,1,1.0,1.0,1.0,1.0,10.00
2024-10-11 20:46:47.660,0.63434756,0.1260865,-0.037891272,0.77211696,0.5523988,-0.40194568,0.022009432,0.42638797,0.6182738,-0.0095015485,-0.04312598,0.6263287,0.53189445,-0.22877033,0.542785,0.4533438,0.027176287,-0.5441767,0.20024605,0.04180034,796.1905,789.34064,801.4286,799.41394,869.5238,-0.0189208984375,0.093017578125,0.99835205078125,-14.198455810546875,10.39276123046875,-6.68426513671875,1,1.0,1.0,1.0,1.0,10.00
2024-10-11 20:46:47.661,0.63434756,0.1260865,-0.037891272,0.77211696,0.5523988,-0.40194568,0.022009432,0.42638797,0.6182738,-0.0095015485,-0.04312598,0.6263287,0.53189445,-0.22877033,0.542785,0.4533438,0.027176287,-0.5441767,0.20024605,0.04180034,801.02563,794.17584,806.26373,808.2784,791.3553,-0.0189208984375,0.093017578125,0.99835205078125,-14.198455810546875,10.39276123046875,-6.68426513671875,1,1.0,1.0,1.0,1.0,10.00
2024-10-11 20:46:47.662,0.63434756,0.1260865,-0.037891272,0.77211696,0.5523988,-0.40194568,0.022009432,0.42638797,0.6182738,-0.0095015485,-0.04312598,0.6263287,0.53189445,-0.22877033,0.542785,0.4533438,0.027176287,-0.5441767,0.20024605,0.04180034,803.8461,801.02563,813.91943,805.4579,529.45056,-0.0189208984375,0.093017578125,0.99835205078125,-14.198455810546875,10.39276123046875,-6.68426513671875,1,1.0,1.0,1.0,1.0,10.00
2024-10-11 20:46:47.662,0.63434756,0.1260865,-0.037891272,0.77211696,0.5523988,-0.40194568,0.022009432,0.42638797,0.6182738,-0.0095015485,-0.04312598,0.6263287,0.53189445,-0.22877033,0.542785,0.4533438,0.027176287,-0.5441767,0.20024605,0.04180034,799.41394,795.78754,803.0403,799.41394,516.9597,-0.0189208984375,0.093017578125,0.99835205078125,-14.198455810546875,10.39276123046875,-6.68426513671875,1,1.0,1.0,1.0,1.0,10.00
2024-10-11 20:46:47.663,0.63434756,0.1260865,-0.037891272,0.77211696,0.5523988,-0.40194568,0.022009432,0.42638797,0.6182738,-0.0095015485,-0.04312598,0.6263287,0.53189445,-0.22877033,0.542785,0.4533438,0.027176287,-0.5441767,0.20024605,0.04180034,796.5934,792.5641,794.17584,803.44324,725.6777,-0.0189208984375,0.093017578125,0.99835205078125,-14.198455810546875,10.39276123046875,-6.68426513671875,1,1.0,1.0,1.0,1.0,10.00
2024-10-11 20:46:47.664,0.63434756,0.1260865,-0.037891272,0.77211696,0.5523988,-0.40194568,0.022009432,0.42638797,0.6182738,-0.0095015485,-0.04312598,0.6263287,0.53189445,-0.22877033,0.542785,0.4533438,0.027176287,-0.5441767,0.20024605,0.04180034,796.99634,795.78754,801.8315,804.2491,720.0366,-0.0189208984375,0.093017578125,0.99835205078125,-14.198455810546875,10.39276123046875,-6.68426513671875,1,1.0,1.0,1.0,1.0,10.00
2024-10-11 20:46:47.756,0.63434756,0.1260865,-0.037891272,0.77211696,0.5523988,-0.40194568,0.022009432,0.42638797,0.6182738,-0.0095015485,-0.04312598,0.6263287,0.53189445,-0.22877033,0.542785,0.4533438,0.027176287,-0.5441767,0.20024605,0.04180034,806.26373,797.8022,805.8608,800.2198,615.6777,-0.0340576171875,0.07000732421875,1.000732421875,-13.884429931640625,10.7366943359375,-3.45428466796875,1,1.0,1.0,1.0,1.0,10.00
2024-10-11 20:46:47.757,0.63434756,0.1260865,-0.037891272,0.77211696,0.5523988,-0.40194568,0.022009432,0.42638797,0.6182738,-0.0095015485,-0.04312598,0.6263287,0.53189445,-0.22877033,0.542785,0.4533438,0.027176287,-0.5441767,0.20024605,0.04180034,804.2491,797.3993,790.54944,796.1905,688.60803,-0.0340576171875,0.07000732421875,1.000732421875,-13.884429931640625,10.7366943359375,-3.45428466796875,1,1.0,1.0,1.0,1.0,10.00
2024-10-11 20:46:47.758,0.63434756,0.1260865,-0.037891272,0.77211696,0.5523988,-0.40194568,0.022009432,0.42638797,0.6182738,-0.0095015485,-0.04312598,0.6263287,0.53189445,-0.22877033,0.542785,0.4533438,0.027176287,-0.5441767,0.20024605,0.04180034,793.36993,793.36993,783.2967,800.6227,709.5604,-0.0340576171875,0.07000732421875,1.000732421875,-13.884429931640625,10.7366943359375,-3.45428466796875,1,1.0,1.0,1.0,1.0,10.00
2024-10-11 20:46:47.758,0.63434756,0.1260865,-0.037891272,0.77211696,0.5523988,-0.40194568,0.022009432,0.42638797,0.6182738,-0.0095015485,-0.04312598,0.6263287,0.53189445,-0.22877033,0.542785,0.4533438,0.027176287,-0.5441767,0.20024605,0.04180034,790.9524,794.17584,784.90845,805.05493,594.3223,-0.0340576171875,0.07000732421875,1.000732421875,-13.884429931640625,10.7366943359375,-3.45428466796875,1,1.0,1.0,1.0,1.0,10.00
2024-10-11 20:46:47.759,0.63434756,0.1260865,-0.037891272,0.77211696,0.5523988,-0.40194568,0.022009432,0.42638797,0.6182738,-0.0095015485,-0.04312598,0.6263287,0.53189445,-0.22877033,0.542785,0.4533438,0.027176287,-0.5441767,0.20024605,0.04180034,795.38464,794.9817,777.6557,803.44324,472.23444,-0.0340576171875,0.07000732421875,1.000732421875,-13.884429931640625,10.7366943359375,-3.45428466796875,1,1.0,1.0,1.0,1.0,10.00
2024-10-11 20:46:47.760,0.63434756,0.1260865,-0.037891272,0.77211696,0.5523988,-0.40194568,0.022009432,0.42638797,0.6182738,-0.0095015485,-0.04312598,0.6263287,0.53189445,-0.22877033,0.542785,0.4533438,0.027176287,-0.5441767,0.20024605,0.04180034,799.011,796.5934,796.99634,811.0989,672.49084,-0.0340576171875,0.07000732421875,1.000732421875,-13.884429931640625,10.7366943359375,-3.45428466796875,1,1.0,1.0,1.0,1.0,10.00
2024-10-11 20:46:47.761,0.63434756,0.1260865,-0.037891272,0.77211696,0.5523988,-0.40194568,0.022009432,0.42638797,0.6182738,-0.0095015485,-0.04312598,0.6263287,0.53189445,-0.22877033,0.542785,0.4533438,0.027176287,-0.5441767,0.20024605,0.04180034,804.65204,797.8022,820.3663,815.5311,890.4762,-0.0340576171875,0.07000732421875,1.000732421875,-13.884429931640625,10.7366943359375,-3.45428466796875,1,1.0,1.0,1.0,1.0,10.00
2024-10-11 20:46:47.761,0.63434756,0.1260865,-0.037891272,0.77211696,0.5523988,-0.40194568,0.022009432,0.42638797,0.6182738,-0.0095015485,-0.04312598,0.6263287,0.53189445,-0.22877033,0.542785,0.4533438,0.027176287,-0.5441767,0.20024605,0.04180034,803.44324,798.20514,816.7399,801.8315,732.1245,-0.0340576171875,0.07000732421875,1.000732421875,-13.884429931640625,10.7366943359375,-3.45428466796875,1,1.0,1.0,1.0,1.0,10.00
2024-10-11 20:46:47.762,0.63434756,0.1260865,-0.037891272,0.77211696,0.5523988,-0.40194568,0.022009432,0.42638797,0.6182738,-0.0095015485,-0.04312598,0.6263287,0.53189445,-0.22877033,0.542785,0.4533438,0.027176287,-0.5441767,0.20024605,0.04180034,803.8461,803.0403,809.4872,797.8022,650.7326,-0.0340576171875,0.07000732421875,1.000732421875,-13.884429931640625,10.7366943359375,-3.45428466796875,1,1.0,1.0,1.0,1.0,10.00
2024-10-11 20:46:47.763,0.63434756,0.1260865,-0.037891272,0.77211696,0.5523988,-0.40194568,0.022009432,0.42638797,0.6182738,-0.0095015485,-0.04312598,0.6263287,0.53189445,-0.22877033,0.542785,0.4533438,0.027176287,-0.5441767,0.20024605,0.04180034,803.8461,804.2491,805.8608,805.8608,804.2491,-0.0340576171875,0.07000732421875,1.000732421875,-13.884429931640625,10.7366943359375,-3.45428466796875,1,1.0,1.0,1.0,1.0,10.00
2024-10-11 20:46:47.763,0.63434756,0.1260865,-0.037891272,0.77211696,0.5523988,-0.40194568,0.022009432,0.42638797,0.6182738,-0.0095015485,-0.04312598,0.6263287,0.53189445,-0.22877033,0.542785,0.4533438,0.027176287,-0.5441767,0.20024605,0.04180034,797.3993,799.011,805.8608,804.65204,819.15753,-0.0340576171875,0.07000732421875,1.000732421875,-13.884429931640625,10.7366943359375,-3.45428466796875,1,1.0,1.0,1.0,1.0,10.00
2024-10-11 20:46:47.764,0.63434756,0.1260865,-0.037891272,0.77211696,0.5523988,-0.40194568,0.022009432,0.42638797,0.6182738,-0.0095015485,-0.04312598,0.6263287,0.53189445,-0.22877033,0.542785,0.4533438,0.027176287,-0.5441767,0.20024605,0.04180034,803.44324,800.6227,797.3993,805.05493,693.0403,-0.0340576171875,0.07000732421875,1.000732421875,-13.884429931640625,10.7366943359375,-3.45428466796875,1,1.0,1.0,1.0,1.0,10.00
2024-10-11 20:46:47.823,0.63434756,0.1260865,-0.037891272,0.77211696,0.5523988,-0.40194568,0.022009432,0.42638797,0.6182738,-0.0095015485,-0.04312598,0.6263287,0.53189445,-0.22877033,0.542785,0.4533438,0.027176287,-0.5441767,0.20024605,0.04180034,811.9048,803.8461,786.52014,803.8461,607.2161,-0.0340576171875,0.07000732421875,1.000732421875,-13.884429931640625,10.7366943359375,-3.45428466796875,1,1.0,1.0,1.0,1.0,10.00
2024-10-11 20:46:47.824,0.63434756,0.15106022,-0.036300577,0.77211696,0.5523988,-0.36604553,0.02966456,0.42638797,0.6182738,-0.00641969,-0.044860814,0.6263287,0.53189445,-0.20979749,0.550001,0.4533438,0.027176287,-0.5327512,0.17926267,0.04180034,809.0842,800.2198,798.20514,810.696,745.82416,-0.0340576171875,0.07000732421875,1.000732421875,-13.884429931640625,10.7366943359375,-3.45428466796875,1,1.0,1.0,1.0,1.0,10.00
2024-10-11 20:46:47.830,0.63434756,0.15106022,-0.036300577,0.77211696,0.5523988,-0.36604553,0.02966456,0.42638797,0.6182738,-0.00641969,-0.044860814,0.6263287,0.53189445,-0.20979749,0.550001,0.4533438,0.027176287,-0.5327512,0.17926267,0.04180034,803.8461,801.8315,803.44324,816.7399,798.60803,-0.0340576171875,0.07000732421875,1.000732421875,-13.884429931640625,10.7366943359375,-3.45428466796875,1,1.0,1.0,1.0,1.0,10.00
2024-10-11 20:46:47.831,0.63434756,0.15106022,-0.036300577,0.77211696,0.5523988,-0.36604553,0.02966456,0.42638797,0.6182738,-0.00641969,-0.044860814,0.6263287,0.53189445,-0.20979749,0.550001,0.4533438,0.027176287,-0.5327512,0.17926267,0.04180034,806.6667,806.26373,796.99634,809.0842,599.15753,-0.0340576171875,0.07000732421875,1.000732421875,-13.884429931640625,10.7366943359375,-3.45428466796875,1,1.0,1.0,1.0,1.0,10.00
2024-10-11 20:46:47.831,0.63434756,0.15106022,-0.036300577,0.77211696,0.5523988,-0.36604553,0.02966456,0.42638797,0.6182738,-0.00641969,-0.044860814,0.6263287,0.53189445,-0.20979749,0.550001,0.4533438,0.027176287,-0.5327512,0.17926267,0.04180034,812.3077,802.23444,797.8022,802.23444,635.0183,-0.0340576171875,0.07000732421875,1.000732421875,-13.884429931640625,10.7366943359375,-3.45428466796875,1,1.0,1.0,1.0,1.0,10.00
2024-10-11 20:46:47.832,0.63434756,0.15106022,-0.036300577,0.77211696,0.5523988,-0.36604553,0.02966456,0.42638797,0.6182738,-0.00641969,-0.044860814,0.6263287,0.53189445,-0.20979749,0.550001,0.4533438,0.027176287,-0.5327512,0.17926267,0.04180034,812.71063,799.81683,788.1319,799.81683,885.2381,-0.0340576171875,0.07000732421875,1.000732421875,-13.884429931640625,10.7366943359375,-3.45428466796875,1,1.0,1.0,1.0,1.0,10.00
2024-10-11 20:46:47.833,0.63434756,0.15106022,-0.036300577,0.77211696,0.5523988,-0.36604553,0.02966456,0.42638797,0.6182738,-0.00641969,-0.044860814,0.6263287,0.53189445,-0.20979749,0.550001,0.4533438,0.027176287,-0.5327512,0.17926267,0.04180034,811.0989,802.23444,774.83514,804.2491,998.86444,-0.0340576171875,0.07000732421875,1.000732421875,-13.884429931640625,10.7366943359375,-3.45428466796875,1,1.0,1.0,1.0,1.0,10.00
2024-10-11 20:46:47.833,0.63434756,0.15106022,-0.036300577,0.77211696,0.5523988,-0.36604553,0.02966456,0.42638797,0.6182738,-0.00641969,-0.044860814,0.6263287,0.53189445,-0.20979749,0.550001,0.4533438,0.027176287,-0.5327512,0.17926267,0.04180034,813.1135,802.23444,798.60803,807.47253,763.1502,-0.0340576171875,0.07000732421875,1.000732421875,-13.884429931640625,10.7366943359375,-3.45428466796875,1,1.0,1.0,1.0,1.0,10.00
2024-10-11 20:46:47.834,0.63434756,0.15106022,-0.036300577,0.77211696,0.5523988,-0.36604553,0.02966456,0.42638797,0.6182738,-0.00641969,-0.044860814,0.6263287,0.53189445,-0.20979749,0.550001,0.4533438,0.027176287,-0.5327512,0.17926267,0.04180034,812.71063,805.05493,816.337,801.02563,648.71796,-0.0340576171875,0.07000732421875,1.000732421875,-13.884429931640625,10.7366943359375,-3.45428466796875,1,1.0,1.0,1.0,1.0,10.00
2024-10-11 20:46:47.835,0.63434756,0.15106022,-0.036300577,0.77211696,0.5523988,-0.36604553,0.02966456,0.42638797,0.6182738,-0.00641969,-0.044860814,0.6263287,0.53189445,-0.20979749,0.550001,0.4533438,0.027176287,-0.5327512,0.17926267,0.04180034,816.7399,802.23444,811.0989,809.0842,784.5055,-0.0340576171875,0.07000732421875,1.000732421875,-13.884429931640625,10.7366943359375,-3.45428466796875,1,1.0,1.0,1.0,1.0,10.00
2024-10-11 20:46:47.835,0.63434756,0.15106022,-0.036300577,0.77211696,0.5523988,-0.36604553,0.02966456,0.42638797,0.6182738,-0.00641969,-0.044860814,0.6263287,0.53189445,-0.20979749,0.550001,0.4533438,0.027176287,-0.5327512,0.17926267,0.04180034,811.0989,798.60803,801.4286,818.3516,765.16486,-0.0340576171875,0.07000732421875,1.000732421875,-13.884429931640625,10.7366943359375,-3.45428466796875,1,1.0,1.0,1.0,1.0,10.00
2024-10-11 20:46:47.836,0.63434756,0.15106022,-0.036300577,0.77211696,0.5523988,-0.36604553,0.02966456,0.42638797,0.6182738,-0.00641969,-0.044860814,0.6263287,0.53189445,-0.20979749,0.550001,0.4533438,0.027176287,-0.5327512,0.17926267,0.04180034,805.8608,802.6374,795.78754,811.0989,598.3516,-0.0340576171875,0.07000732421875,1.000732421875,-13.884429931640625,10.7366943359375,-3.45428466796875,1,1.0,1.0,1.0,1.0,10.00
2024-10-11 20:46:47.863,0.63434756,0.15106022,-0.036300577,0.77211696,0.5523988,-0.36604553,0.02966456,0.42638797,0.6182738,-0.00641969,-0.044860814,0.6263287,0.53189445,-0.20979749,0.550001,0.4533438,0.027176287,-0.5327512,0.17926267,0.04180034,808.68134,794.9817,804.65204,810.696,675.7143,-0.050537109375,0.04730224609375,0.9979248046875,-13.809661865234375,10.534820556640625,-1.03179931640625,1,1.0,1.0,1.0,1.0,10.00
2024-10-11 20:46:47.865,0.63434756,0.15106022,-0.036300577,0.77211696,0.5523988,-0.36604553,0.02966456,0.42638797,0.6182738,-0.00641969,-0.044860814,0.6263287,0.53189445,-0.20979749,0.550001,0.4533438,0.027176287,-0.5327512,0.17926267,0.04180034,801.02563,789.7436,805.05493,810.293,794.17584,-0.050537109375,0.04730224609375,0.9979248046875,-13.809661865234375,10.534820556640625,-1.03179931640625,1,1.0,1.0,1.0,1.0,10.00
2024-10-11 20:46:47.865,0.63434756,0.15106022,-0.036300577,0.77211696,0.5523988,-0.36604553,0.02966456,0.42638797,0.6182738,-0.00641969,-0.044860814,0.6263287,0.53189445,-0.20979749,0.550001,0.4533438,0.027176287,-0.5327512,0.17926267,0.04180034,802.6374,792.5641,801.8315,803.0403,602.7839,-0.050537109375,0.04730224609375,0.9979248046875,-13.809661865234375,10.534820556640625,-1.03179931640625,1,1.0,1.0,1.0,1.0,10.00
2024-10-11 20:46:47.866,0.63434756,0.15106022,-0.036300577,0.77211696,0.5523988,-0.36604553,0.02966456,0.42638797,0.6182738,-0.00641969,-0.044860814,0.6263287,0.53189445,-0.20979749,0.550001,0.4533438,0.027176287,-0.5327512,0.17926267,0.04180034,808.68134,795.38464,800.6227,798.20514,472.23444,-0.050537109375,0.04730224609375,0.9979248046875,-13.809661865234375,10.534820556640625,-1.03179931640625,1,1.0,1.0,1.0,1.0,10.00
2024-10-11 20:46:47.867,0.63434756,0.15106022,-0.036300577,0.77211696,0.5523988,-0.36604553,0.02966456,0.42638797,0.6182738,-0.00641969,-0.044860814,0.6263287,0.53189445,-0.20979749,0.550001,0.4533438,0.027176287,-0.5327512,0.17926267,0.04180034,799.011,796.99634,794.57874,801.02563,731.7216,-0.050537109375,0.04730224609375,0.9979248046875,-13.809661865234375,10.534820556640625,-1.03179931640625,1,1.0,1.0,1.0,1.0,10.00
2024-10-11 20:46:47.868,0.63434756,0.15106022,-0.036300577,0.77211696,0.5523988,-0.36604553,0.02966456,0.42638797,0.6182738,-0.00641969,-0.044860814,0.6263287,0.53189445,-0.20979749,0.550001,0.4533438,0.027176287,-0.5327512,0.17926267,0.04180034,799.81683,795.38464,792.1612,811.50183,977.50916,-0.050537109375,0.04730224609375,0.9979248046875,-13.809661865234375,10.534820556640625,-1.03179931640625,1,1.0,1.0,1.0,1.0,10.00
2024-10-11 20:46:47.868,0.63434756,0.15106022,-0.036300577,0.77211696,0.5523988,-0.36604553,0.02966456,0.42638797,0.6182738,-0.00641969,-0.044860814,0.6263287,0.53189445,-0.20979749,0.550001,0.4533438,0.027176287,-0.5327512,0.17926267,0.04180034,807.8755,792.1612,797.8022,808.68134,795.78754,-0.050537109375,0.04730224609375,0.9979248046875,-13.809661865234375,10.534820556640625,-1.03179931640625,1,1.0,1.0,1.0,1.0,10.00
2024-10-11 20:46:47.869,0.63434756,0.15106022,-0.036300577,0.77211696,0.5523988,-0.36604553,0.02966456,0.42638797,0.6182738,-0.00641969,-0.044860814,0.6263287,0.53189445,-0.20979749,0.550001,0.4533438,0.027176287,-0.5327512,0.17926267,0.04180034,804.65204,792.96704,801.4286,796.5934,629.3773,-0.050537109375,0.04730224609375,0.9979248046875,-13.809661865234375,10.534820556640625,-1.03179931640625,1,1.0,1.0,1.0,1.0,10.00
2024-10-11 20:46:47.870,0.63434756,0.15106022,-0.036300577,0.77211696,0.5523988,-0.36604553,0.02966456,0.42638797,0.6182738,-0.00641969,-0.044860814,0.6263287,0.53189445,-0.20979749,0.550001,0.4533438,0.027176287,-0.5327512,0.17926267,0.04180034,817.9487,804.2491,785.31134,806.6667,730.5128,-0.050537109375,0.04730224609375,0.9979248046875,-13.809661865234375,10.534820556640625,-1.03179931640625,1,1.0,1.0,1.0,1.0,10.00
