TimeStamp,Delta_TP9,Delta_AF7,Delta_AF8,Delta_TP10,Theta_TP9,Theta_AF7,Theta_AF8,Theta_TP10,Alpha_TP9,Alpha_AF7,Alpha_AF8,Alpha_TP10,Beta_TP9,Beta_AF7,Beta_AF8,Beta_TP10,Gamma_TP9,Gamma_AF7,Gamma_AF8,Gamma_TP10,RAW_TP9,RAW_AF7,RAW_AF8,RAW_TP10,AUX_RIGHT,Accelerometer_X,Accelerometer_Y,Accelerometer_Z,Gyro_X,Gyro_Y,Gyro_Z,HeadBandOn,HSI_TP9,HSI_AF7,HSI_AF8,HSI_TP10,Battery,Elements
2024-10-11 20:46:42.535,1.196759,0.6911065,0.53969526,1.0320313,0.88970643,0.10646517,0.37735566,0.7611927,1.0210669,-0.283481,0.38451117,0.73205835,0.64606875,-0.18991475,0.41101912,0.5566912,0.24206476,-0.4091475,0.1959074,-0.009707184,796.1905,802.6374,784.5055,799.41394,677.326,-0.0430908203125,0.14581298828125,0.99853515625,0.2691650390625,-0.04486083984375,1.256103515625,1,1.0,1.0,1.0,1.0,10.00
2024-10-11 20:46:42.536,1.196759,0.6911065,0.53969526,1.0320313,0.88970643,0.10646517,0.37735566,0.7611927,1.0210669,-0.283481,0.38451117,0.73205835,0.64606875,-0.18991475,0.41101912,0.5566912,0.24206476,-0.4091475,0.1959074,-0.009707184,803.0403,801.4286,784.5055,808.2784,719.6337,-0.0430908203125,0.14581298828125,0.99853515625,0.2691650390625,-0.04486083984375,1.256103515625,1,1.0,1.0,1.0,1.0,10.00
2024-10-11 20:46:42.538,1.196759,0.6911065,0.53969526,1.0320313,0.88970643,0.10646517,0.37735566,0.7611927,1.0210669,-0.283481,0.38451117,0.73205835,0.64606875,-0.18991475,0.41101912,0.5566912,0.24206476,-0.4091475,0.1959074,-0.009707184,810.293,796.99634,811.0989,808.2784,743.4066,-0.0430908203125,0.14581298828125,0.99853515625,0.2691650390625,-0.04486083984375,1.256103515625,1,1.0,1.0,1.0,1.0,10.00
2024-10-11 20:46:42.539,1.196759,0.6911065,0.53969526,1.0320313,0.88970643,0.10646517,0.37735566,0.7611927,1.0210669,-0.283481,0.38451117,0.73205835,0.64606875,-0.18991475,0.41101912,0.5566912,0.24206476,-0.4091475,0.1959074,-0.009707184,807.0696,799.011,821.978,807.8755,669.67035,-0.0430908203125,0.14581298828125,0.99853515625,0.2691650390625,-0.04486083984375,1.256103515625,1,1.0,1.0,1.0,1.0,10.00
2024-10-11 20:46:42.540,1.196759,0.6911065,0.53969526,1.0320313,0.88970643,0.10646517,0.37735566,0.7611927,1.0210669,-0.283481,0.38451117,0.73205835,0.64606875,-0.18991475,0.41101912,0.5566912,0.24206476,-0.4091475,0.1959074,-0.009707184,804.2491,802.6374,809.0842,811.0989,615.6777,-0.0430908203125,0.14581298828125,0.99853515625,0.2691650390625,-0.04486083984375,1.256103515625,1,1.0,1.0,1.0,1.0,10.00
2024-10-11 20:46:42.541,1.196759,0.6911065,0.53969526,1.0320313,0.88970643,0.10646517,0.37735566,0.7611927,1.0210669,-0.283481,0.38451117,0.73205835,0.64606875,-0.18991475,0.41101912,0.5566912,0.24206476,-0.4091475,0.1959074,-0.009707184,801.8315,798.20514,804.65204,813.91943,1153.5897,-0.0430908203125,0.14581298828125,0.99853515625,0.2691650390625,-0.04486083984375,1.256103515625,1,1.0,1.0,1.0,1.0,10.00
2024-10-11 20:46:42.542,1.196759,0.6911065,0.53969526,1.0320313,0.88970643,0.10646517,0.37735566,0.7611927,1.0210669,-0.283481,0.38451117,0.73205835,0.64606875,-0.18991475,0.41101912,0.5566912,0.24206476,-0.4091475,0.1959074,-0.009707184,805.4579,797.3993,803.8461,815.9341,1199.1208,-0.0430908203125,0.14581298828125,0.99853515625,0.2691650390625,-0.04486083984375,1.256103515625,1,1.0,1.0,1.0,1.0,10.00
2024-10-11 20:46:42.544,1.196759,0.6911065,0.53969526,1.0320313,0.88970643,0.10646517,0.37735566,0.7611927,1.0210669,-0.283481,0.38451117,0.73205835,0.64606875,-0.18991475,0.41101912,0.5566912,0.24206476,-0.4091475,0.1959074,-0.009707184,809.0842,803.0403,807.0696,808.2784,565.31134,-0.0430908203125,0.14581298828125,0.99853515625,0.2691650390625,-0.04486083984375,1.256103515625,1,1.0,1.0,1.0,1.0,10.00
2024-10-11 20:46:42.545,1.196759,0.6911065,0.53969526,1.0320313,0.88970643,0.10646517,0.37735566,0.7611927,1.0210669,-0.283481,0.38451117,0.73205835,0.64606875,-0.18991475,0.41101912,0.5566912,0.24206476,-0.4091475,0.1959074,-0.009707184,811.50183,801.02563,793.36993,804.65204,526.63007,-0.0430908203125,0.14581298828125,0.99853515625,0.2691650390625,-0.04486083984375,1.256103515625,1,1.0,1.0,1.0,1.0,10.00
2024-10-11 20:46:42.546,1.196759,0.6911065,0.53969526,1.0320313,0.88970643,0.10646517,0.37735566,0.7611927,1.0210669,-0.283481,0.38451117,0.73205835,0.64606875,-0.18991475,0.41101912,0.5566912,0.24206476,-0.4091475,0.1959074,-0.009707184,807.8755,799.41394,786.52014,799.81683,622.52747,-0.0430908203125,0.14581298828125,0.99853515625,0.2691650390625,-0.04486083984375,1.256103515625,1,1.0,1.0,1.0,1.0,10.00
2024-10-11 20:46:42.547,1.196759,0.6911065,0.53969526,1.0320313,0.88970643,0.10646517,0.37735566,0.7611927,1.0210669,-0.283481,0.38451117,0.73205835,0.64606875,-0.18991475,0.41101912,0.5566912,0.24206476,-0.4091475,0.1959074,-0.009707184,803.44324,802.6374,802.6374,794.17584,558.0586,-0.0430908203125,0.14581298828125,0.99853515625,0.2691650390625,-0.04486083984375,1.256103515625,1,1.0,1.0,1.0,1.0,10.00
2024-10-11 20:46:42.548,1.196759,0.6911065,0.53969526,1.0320313,0.88970643,0.10646517,0.37735566,0.7611927,1.0210669,-0.283481,0.38451117,0.73205835,0.64606875,-0.18991475,0.41101912,0.5566912,0.24206476,-0.4091475,0.1959074,-0.009707184,802.6374,803.0403,812.3077,799.81683,543.95605,-0.0430908203125,0.14581298828125,0.99853515625,0.2691650390625,-0.04486083984375,1.256103515625,1,1.0,1.0,1.0,1.0,10.00
2024-10-11 20:46:42.650,1.196759,0.6911065,0.53969526,1.0320313,0.88970643,0.10646517,0.37735566,0.7611927,1.0210669,-0.283481,0.38451117,0.73205835,0.64606875,-0.18991475,0.41101912,0.5566912,0.24206476,-0.4091475,0.1959074,-0.009707184,801.4286,801.02563,803.44324,799.81683,652.74725,-0.04559326171875,0.14422607421875,0.99468994140625,0.299072265625,-0.4486083984375,1.278533935546875,1,1.0,1.0,1.0,1.0,10.00
2024-10-11 20:46:42.651,1.196759,0.6911065,0.53969526,1.0320313,0.88970643,0.10646517,0.37735566,0.7611927,1.0210669,-0.283481,0.38451117,0.73205835,0.64606875,-0.18991475,0.41101912,0.5566912,0.24206476,-0.4091475,0.1959074,-0.009707184,802.6374,802.23444,803.8461,795.78754,676.9231,-0.04559326171875,0.14422607421875,0.99468994140625,0.299072265625,-0.4486083984375,1.278533935546875,1,1.0,1.0,1.0,1.0,10.00
2024-10-11 20:46:42.652,1.196759,0.6911065,0.53969526,1.0320313,0.88970643,0.10646517,0.37735566,0.7611927,1.0210669,-0.283481,0.38451117,0.73205835,0.64606875,-0.18991475,0.41101912,0.5566912,0.24206476,-0.4091475,0.1959074,-0.009707184,806.26373,803.0403,811.0989,799.011,599.5604,-0.04559326171875,0.14422607421875,0.99468994140625,0.299072265625,-0.4486083984375,1.278533935546875,1,1.0,1.0,1.0,1.0,10.00
2024-10-11 20:46:42.652,1.196759,0.6911065,0.53969526,1.0320313,0.88970643,0.10646517,0.37735566,0.7611927,1.0210669,-0.283481,0.38451117,0.73205835,0.64606875,-0.18991475,0.41101912,0.5566912,0.24206476,-0.4091475,0.1959074,-0.009707184,806.6667,806.26373,800.2198,805.4579,631.79486,-0.04559326171875,0.14422607421875,0.99468994140625,0.299072265625,-0.4486083984375,1.278533935546875,1,1.0,1.0,1.0,1.0,10.00
2024-10-11 20:46:42.653,1.196759,0.6911065,0.53969526,1.0320313,0.88970643,0.10646517,0.37735566,0.7611927,1.0210669,-0.283481,0.38451117,0.73205835,0.64606875,-0.18991475,0.41101912,0.5566912,0.24206476,-0.4091475,0.1959074,-0.009707184,800.2198,803.0403,793.7729,810.293,749.45056,-0.04559326171875,0.14422607421875,0.99468994140625,0.299072265625,-0.4486083984375,1.278533935546875,1,1.0,1.0,1.0,1.0,10.00
2024-10-11 20:46:42.654,1.196759,0.6911065,0.53969526,1.0320313,0.88970643,0.10646517,0.37735566,0.7611927,1.0210669,-0.283481,0.38451117,0.73205835,0.64606875,-0.18991475,0.41101912,0.5566912,0.24206476,-0.4091475,0.1959074,-0.009707184,794.57874,795.38464,805.05493,804.2491,779.2674,-0.04559326171875,0.14422607421875,0.99468994140625,0.299072265625,-0.4486083984375,1.278533935546875,1,1.0,1.0,1.0,1.0,10.00
2024-10-11 20:46:42.655,1.196759,0.6911065,0.53969526,1.0320313,0.88970643,0.10646517,0.37735566,0.7611927,1.0210669,-0.283481,0.38451117,0.73205835,0.64606875,-0.18991475,0.41101912,0.5566912,0.24206476,-0.4091475,0.1959074,-0.009707184,790.9524,793.36993,799.41394,800.2198,705.5311,-0.04559326171875,0.14422607421875,0.99468994140625,0.299072265625,-0.4486083984375,1.278533935546875,1,1.0,1.0,1.0,1.0,10.00
2024-10-11 20:46:42.656,1.2848271,0.66481006,0.5715432,1.1018637,0.9713918,0.09093412,0.38368842,0.81443167,1.0435,-0.2476413,0.38451117,0.80785847,0.67185813,-0.18608373,0.41685098,0.5822404,0.275413,-0.42534187,0.19626726,0.0126275495,794.9817,797.8022,787.72894,809.4872,720.0366,-0.04559326171875,0.14422607421875,0.99468994140625,0.299072265625,-0.4486083984375,1.278533935546875,1,1.0,1.0,1.0,1.0,10.00
2024-10-11 20:46:42.662,1.2848271,0.66481006,0.5715432,1.1018637,0.9713918,0.09093412,0.38368842,0.81443167,1.0435,-0.2476413,0.38451117,0.80785847,0.67185813,-0.18608373,0.41685098,0.5822404,0.275413,-0.42534187,0.19626726,0.0126275495,802.23444,803.44324,799.81683,812.3077,889.67035,-0.04559326171875,0.14422607421875,0.99468994140625,0.299072265625,-0.4486083984375,1.278533935546875,1,1.0,1.0,1.0,1.0,10.00
2024-10-11 20:46:42.663,1.2848271,0.66481006,0.5715432,1.1018637,0.9713918,0.09093412,0.38368842,0.81443167,1.0435,-0.2476413,0.38451117,0.80785847,0.67185813,-0.18608373,0.41685098,0.5822404,0.275413,-0.42534187,0.19626726,0.0126275495,808.2784,799.81683,808.2784,800.6227,892.0879,-0.04559326171875,0.14422607421875,0.99468994140625,0.299072265625,-0.4486083984375,1.278533935546875,1,1.0,1.0,1.0,1.0,10.00
2024-10-11 20:46:42.665,1.2848271,0.66481006,0.5715432,1.1018637,0.9713918,0.09093412,0.38368842,0.81443167,1.0435,-0.2476413,0.38451117,0.80785847,0.67185813,-0.18608373,0.41685098,0.5822404,0.275413,-0.42534187,0.19626726,0.0126275495,799.41394,797.3993,804.2491,794.57874,661.2088,-0.04559326171875,0.14422607421875,0.99468994140625,0.299072265625,-0.4486083984375,1.278533935546875,1,1.0,1.0,1.0,1.0,10.00
2024-10-11 20:46:42.666,1.2848271,0.66481006,0.5715432,1.1018637,0.9713918,0.09093412,0.38368842,0.81443167,1.0435,-0.2476413,0.38451117,0.80785847,0.67185813,-0.18608373,0.41685098,0.5822404,0.275413,-0.42534187,0.19626726,0.0126275495,794.9817,798.60803,799.41394,786.52014,556.8498,-0.04559326171875,0.14422607421875,0.99468994140625,0.299072265625,-0.4486083984375,1.278533935546875,1,1.0,1.0,1.0,1.0,10.00
2024-10-11 20:46:42.668,1.2848271,0.66481006,0.5715432,1.1018637,0.9713918,0.09093412,0.38368842,0.81443167,1.0435,-0.2476413,0.38451117,0.80785847,0.67185813,-0.18608373,0.41685098,0.5822404,0.275413,-0.42534187,0.19626726,0.0126275495,798.60803,796.99634,793.7729,792.96704,767.98535,-0.0494384765625,0.14288330078125,0.99810791015625,0.31402587890625,-0.500946044921875,1.428070068359375,1,1.0,1.0,1.0,1.0,10.00
2024-10-11 20:46:42.668,1.2848271,0.66481006,0.5715432,1.1018637,0.9713918,0.09093412,0.38368842,0.81443167,1.0435,-0.2476413,0.38451117,0.80785847,0.67185813,-0.18608373,0.41685098,0.5822404,0.275413,-0.42534187,0.19626726,0.0126275495,801.02563,800.6227,795.38464,802.23444,925.5311,-0.0494384765625,0.14288330078125,0.99810791015625,0.31402587890625,-0.500946044921875,1.428070068359375,1,1.0,1.0,1.0,1.0,10.00
2024-10-11 20:46:42.669,1.2848271,0.66481006,0.5715432,1.1018637,0.9713918,0.09093412,0.38368842,0.81443167,1.0435,-0.2476413,0.38451117,0.80785847,0.67185813,-0.18608373,0.41685098,0.5822404,0.275413,-0.42534187,0.19626726,0.0126275495,803.0403,803.0403,789.34064,794.57874,729.707,-0.0494384765625,0.14288330078125,0.99810791015625,0.31402587890625,-0.500946044921875,1.428070068359375,1,1.0,1.0,1.0,1.0,10.00
2024-10-11 20:46:42.671,1.2848271,0.66481006,0.5715432,1.1018637,0.9713918,0.09093412,0.38368842,0.81443167,1.0435,-0.2476413,0.38451117,0.80785847,0.67185813,-0.18608373,0.41685098,0.5822404,0.275413,-0.42534187,0.19626726,0.0126275495,813.5165,801.8315,787.72894,794.57874,616.4835,-0.0494384765625,0.14288330078125,0.99810791015625,0.31402587890625,-0.500946044921875,1.428070068359375,1,1.0,1.0,1.0,1.0,10.00
2024-10-11 20:46:42.672,1.2848271,0.66481006,0.5715432,1.1018637,0.9713918,0.09093412,0.38368842,0.81443167,1.0435,-0.2476413,0.38451117,0.80785847,0.67185813,-0.18608373,0.41685098,0.5822404,0.275413,-0.42534187,0.19626726,0.0126275495,813.91943,797.8022,799.011,799.81683,781.685,-0.0494384765625,0.14288330078125,0.99810791015625,0.31402587890625,-0.500946044921875,1.428070068359375,1,1.0,1.0,1.0,1.0,10.00
2024-10-11 20:46:42.673,1.2848271,0.66481006,0.5715432,1.1018637,0.9713918,0.09093412,0.38368842,0.81443167,1.0435,-0.2476413,0.38451117,0.80785847,0.67185813,-0.18608373,0.41685098,0.5822404,0.275413,-0.42534187,0.19626726,0.0126275495,796.99634,792.5641,807.8755,800.6227,1002.49084,-0.0494384765625,0.14288330078125,0.99810791015625,0.31402587890625,-0.500946044921875,1.428070068359375,1,1.0,1.0,1.0,1.0,10.00
2024-10-11 20:46:42.674,1.2848271,0.66481006,0.5715432,1.1018637,0.9713918,0.09093412,0.38368842,0.81443167,1.0435,-0.2476413,0.38451117,0.80785847,0.67185813,-0.18608373,0.41685098,0.5822404,0.275413,-0.42534187,0.19626726,0.0126275495,796.99634,801.02563,805.8608,799.81683,791.75824,-0.0494384765625,0.14288330078125,0.99810791015625,0.31402587890625,-0.500946044921875,1.428070068359375,1,1.0,1.0,1.0,1.0,10.00
2024-10-11 20:46:42.675,1.2848271,0.66481006,0.5715432,1.1018637,0.9713918,0.09093412,0.38368842,0.81443167,1.0435,-0.2476413,0.38451117,0.80785847,0.67185813,-0.18608373,0.41685098,0.5822404,0.275413,-0.42534187,0.19626726,0.0126275495,803.0403,801.02563,793.7729,802.6374,674.5055,-0.0494384765625,0.14288330078125,0.99810791015625,0.31402587890625,-0.500946044921875,1.428070068359375,1,1.0,1.0,1.0,1.0,10.00
2024-10-11 20:46:42.676,1.2848271,0.66481006,0.5715432,1.1018637,0.9713918,0.09093412,0.38368842,0.81443167,1.0435,-0.2476413,0.38451117,0.80785847,0.67185813,-0.18608373,0.41685098,0.5822404,0.275413,-0.42534187,0.19626726,0.0126275495,805.4579,794.9817,799.81683,811.9048,931.1722,-0.0494384765625,0.14288330078125,0.99810791015625,0.31402587890625,-0.500946044921875,1.428070068359375,1,1.0,1.0,1.0,1.0,10.00
2024-10-11 20:46:42.676,1.2848271,0.66481006,0.5715432,1.1018637,0.9713918,0.09093412,0.38368842,0.81443167,1.0435,-0.2476413,0.38451117,0.80785847,0.67185813,-0.18608373,0.41685098,0.5822404,0.275413,-0.42534187,0.19626726,0.0126275495,789.7436,801.8315,809.89014,804.2491,840.9158,-0.0494384765625,0.14288330078125,0.99810791015625,0.31402587890625,-0.500946044921875,1.428070068359375,1,1.0,1.0,1.0,1.0,10.00
2024-10-11 20:46:42.677,1.2848271,0.66481006,0.5715432,1.1018637,0.9713918,0.09093412,0.38368842,0.81443167,1.0435,-0.2476413,0.38451117,0.80785847,0.67185813,-0.18608373,0.41685098,0.5822404,0.275413,-0.42534187,0.19626726,0.0126275495,780.07324,799.81683,806.6667,787.326,597.9487,-0.0494384765625,0.14288330078125,0.99810791015625,0.31402587890625,-0.500946044921875,1.428070068359375,1,1.0,1.0,1.0,1.0,10.00
2024-10-11 20:46:42.678,1.2848271,0.66481006,0.5715432,1.1018637,0.9713918,0.09093412,0.38368842,0.81443167,1.0435,-0.2476413,0.38451117,0.80785847,0.67185813,-0.18608373,0.41685098,0.5822404,0.275413,-0.42534187,0.19626726,0.0126275495,790.14655,789.7436,806.26373,799.81683,611.2454,-0.0494384765625,0.14288330078125,0.99810791015625,0.31402587890625,-0.500946044921875,1.428070068359375,1,1.0,1.0,1.0,1.0,10.00
2024-10-11 20:46:42.703,1.2848271,0.66481006,0.5715432,1.1018637,0.9713918,0.09093412,0.38368842,0.81443167,1.0435,-0.2476413,0.38451117,0.80785847,0.67185813,-0.18608373,0.41685098,0.5822404,0.275413,-0.42534187,0.19626726,0.0126275495,799.41394,786.1172,795.78754,818.3516,960.18317,-0.05108642578125,0.14227294921875,1.0001220703125,0.246734619140625,-1.158905029296875,1.727142333984375,1,1.0,1.0,1.0,1.0,10.00
2024-10-11 20:46:42.704,1.2848271,0.66481006,0.5715432,1.1018637,0.9713918,0.09093412,0.38368842,0.81443167,1.0435,-0.2476413,0.38451117,0.80785847,0.67185813,-0.18608373,0.41685098,0.5822404,0.275413,-0.42534187,0.19626726,0.0126275495,801.4286,788.1319,792.1612,815.5311,914.2491,-0.05108642578125,0.14227294921875,1.0001220703125,0.246734619140625,-1.158905029296875,1.727142333984375,1,1.0,1.0,1.0,1.0,10.00
2024-10-11 20:46:42.705,1.2848271,0.66481006,0.5715432,1.1018637,0.9713918,0.09093412,0.38368842,0.81443167,1.0435,-0.2476413,0.38451117,0.80785847,0.67185813,-0.18608373,0.41685098,0.5822404,0.275413,-0.42534187,0.19626726,0.0126275495,795.38464,793.36993,809.89014,804.2491,596.7399,-0.05108642578125,0.14227294921875,1.0001220703125,0.246734619140625,-1.158905029296875,1.727142333984375,1,1.0,1.0,1.0,1.0,10.00
2024-10-11 20:46:42.706,1.2848271,0.66481006,0.5715432,1.1018637,0.9713918,0.09093412,0.38368842,0.81443167,1.0435,-0.2476413,0.38451117,0.80785847,0.67185813,-0.18608373,0.41685098,0.5822404,0.275413,-0.42534187,0.19626726,0.0126275495,797.3993,790.14655,811.9048,809.4872,670.87915,-0.05108642578125,0.14227294921875,1.0001220703125,0.246734619140625,-1.158905029296875,1.727142333984375,1,1.0,1.0,1.0,1.0,10.00
2024-10-11 20:46:42.708,1.2848271,0.66481006,0.5715432,1.1018637,0.9713918,0.09093412,0.38368842,0.81443167,1.0435,-0.2476413,0.38451117,0.80785847,0.67185813,-0.18608373,0.41685098,0.5822404,0.275413,-0.42534187,0.19626726,0.0126275495,810.293,784.5055,809.89014,823.1868,740.18317,-0.05108642578125,0.14227294921875,1.0001220703125,0.246734619140625,-1.158905029296875,1.727142333984375,1,1.0,1.0,1.0,1.0,10.00
2024-10-11 20:46:42.709,1.2848271,0.66481006,0.5715432,1.1018637,0.9713918,0.09093412,0.38368842,0.81443167,1.0435,-0.2476413,0.38451117,0.80785847,0.67185813,-0.18608373,0.41685098,0.5822404,0.275413,-0.42534187,0.19626726,0.0126275495,818.7546,781.28204,819.5604,831.6484,873.1502,-0.05108642578125,0.14227294921875,1.0001220703125,0.246734619140625,-1.158905029296875,1.727142333984375,1,1.0,1.0,1.0,1.0,10.00
2024-10-11 20:46:42.710,1.2848271,0.66481006,0.5715432,1.1018637,0.9713918,0.09093412,0.38368842,0.81443167,1.0435,-0.2476413,0.38451117,0.80785847,0.67185813,-0.18608373,0.41685098,0.5822404,0.275413,-0.42534187,0.19626726,0.0126275495,823.9927,784.10254,822.7839,832.4542,910.2198,-0.05108642578125,0.14227294921875,1.0001220703125,0.246734619140625,-1.158905029296875,1.727142333984375,1,1.0,1.0,1.0,1.0,10.00
2024-10-11 20:46:42.711,1.2848271,0.66481006,0.5715432,1.1018637,0.9713918,0.09093412,0.38368842,0.81443167,1.0435,-0.2476413,0.38451117,0.80785847,0.67185813,-0.18608373,0.41685098,0.5822404,0.275413,-0.42534187,0.19626726,0.0126275495,816.337,786.9231,822.381,824.7985,1021.4286,-0.05108642578125,0.14227294921875,1.0001220703125,0.246734619140625,-1.158905029296875,1.727142333984375,1,1.0,1.0,1.0,1.0,10.00
2024-10-11 20:46:42.712,1.2848271,0.66481006,0.5715432,1.1018637,0.9713918,0.09093412,0.38368842,0.81443167,1.0435,-0.2476413,0.38451117,0.80785847,0.67185813,-0.18608373,0.41685098,0.5822404,0.275413,-0.42534187,0.19626726,0.0126275495,815.5311,789.34064,824.3956,824.3956,1042.381,-0.05108642578125,0.14227294921875,1.0001220703125,0.246734619140625,-1.158905029296875,1.727142333984375,1,1.0,1.0,1.0,1.0,10.00
2024-10-11 20:46:42.713,1.322504,0.64235705,0.59756076,1.1018637,1.0074561,0.07561443,0.39013147,0.81443167,1.0535016,-0.22861056,0.387701,0.80785847,0.69227725,-0.18706593,0.43245256,0.5822404,0.28781542,-0.43562737,0.21055444,0.0126275495,815.12823,788.1319,814.3223,828.8278,820.3663,-0.05108642578125,0.14227294921875,1.0001220703125,0.246734619140625,-1.158905029296875,1.727142333984375,1,1.0,1.0,1.0,1.0,10.00
2024-10-11 20:46:42.719,1.322504,0.64235705,0.59756076,1.1018637,1.0074561,0.07561443,0.39013147,0.81443167,1.0535016,-0.22861056,0.387701,0.80785847,0.69227725,-0.18706593,0.43245256,0.5822404,0.28781542,-0.43562737,0.21055444,0.0126275495,819.5604,779.2674,822.381,838.49817,773.22345,-0.05108642578125,0.14227294921875,1.0001220703125,0.246734619140625,-1.158905029296875,1.727142333984375,1,1.0,1.0,1.0,1.0,10.00
2024-10-11 20:46:42.720,1.322504,0.64235705,0.59756076,1.1018637,1.0074561,0.07561443,0.39013147,0.81443167,1.0535016,-0.22861056,0.387701,0.80785847,0.69227725,-0.18706593,0.43245256,0.5822404,0.28781542,-0.43562737,0.21055444,0.0126275495,809.4872,783.2967,843.3333,832.0513,906.1905,-0.05108642578125,0.14227294921875,1.0001220703125,0.246734619140625,-1.158905029296875,1.727142333984375,1,1.0,1.0,1.0,1.0,10.00
2024-10-11 20:46:42.785,1.322504,0.64235705,0.59756076,1.1018637,1.0074561,0.07561443,0.39013147,0.81443167,1.0535016,-0.22861056,0.387701,0.80785847,0.69227725,-0.18706593,0.43245256,0.5822404,0.28781542,-0.43562737,0.21055444,0.0126275495,810.293,785.7143,831.6484,826.8132,851.39197,-0.05230712890625,0.13702392578125,0.98876953125,0.46356201171875,-0.59814453125,1.27105712890625,1,1.0,1.0,1.0,1.0,10.00
2024-10-11 20:46:42.786,1.322504,0.64235705,0.59756076,1.1018637,1.0074561,0.07561443,0.39013147,0.81443167,1.0535016,-0.22861056,0.387701,0.80785847,0.69227725,-0.18706593,0.43245256,0.5822404,0.28781542,-0.43562737,0.21055444,0.0126275495,827.2161,781.685,826.0073,835.2747,707.1429,-0.05230712890625,0.13702392578125,0.98876953125,0.46356201171875,-0.59814453125,1.27105712890625,1,1.0,1.0,1.0,1.0,10.00
2024-10-11 20:46:42.787,1.322504,0.64235705,0.59756076,1.1018637,1.0074561,0.07561443,0.39013147,0.81443167,1.0535016,-0.22861056,0.387701,0.80785847,0.69227725,-0.18706593,0.43245256,0.5822404,0.28781542,-0.43562737,0.21055444,0.0126275495,826.0073,782.0879,842.1245,830.84247,729.707,-0.05230712890625,0.13702392578125,0.98876953125,0.46356201171875,-0.59814453125,1.27105712890625,1,1.0,1.0,1.0,1.0,10.00
2024-10-11 20:46:42.787,1.322504,0.64235705,0.59756076,1.1018637,1.0074561,0.07561443,0.39013147,0.81443167,1.0535016,-0.22861056,0.387701,0.80785847,0.69227725,-0.18706593,0.43245256,0.5822404,0.28781542,-0.43562737,0.21055444,0.0126275495,825.2015,774.43225,844.1392,840.10986,935.6044,-0.05230712890625,0.13702392578125,0.98876953125,0.46356201171875,-0.59814453125,1.27105712890625,1,1.0,1.0,1.0,1.0,10.00
2024-10-11 20:46:42.788,1.322504,0.64235705,0.59756076,1.1018637,1.0074561,0.07561443,0.39013147,0.81443167,1.0535016,-0.22861056,0.387701,0.80785847,0.69227725,-0.18706593,0.43245256,0.5822404,0.28781542,-0.43562737,0.21055444,0.0126275495,830.84247,774.83514,835.6777,845.7509,980.32965,-0.05230712890625,0.13702392578125,0.98876953125,0.46356201171875,-0.59814453125,1.27105712890625,1,1.0,1.0,1.0,1.0,10.00
2024-10-11 20:46:42.788,1.322504,0.64235705,0.59756076,1.1018637,1.0074561,0.07561443,0.39013147,0.81443167,1.0535016,-0.22861056,0.387701,0.80785847,0.69227725,-0.18706593,0.43245256,0.5822404,0.28781542,-0.43562737,0.21055444,0.0126275495,828.4249,780.07324,831.2454,842.52747,866.7033,-0.05230712890625,0.13702392578125,0.98876953125,0.46356201171875,-0.59814453125,1.27105712890625,1,1.0,1.0,1.0,1.0,10.00
2024-10-11 20:46:42.789,1.322504,0.64235705,0.59756076,1.1018637,1.0074561,0.07561443,0.39013147,0.81443167,1.0535016,-0.22861056,0.387701,0.80785847,0.69227725,-0.18706593,0.43245256,0.5822404,0.28781542,-0.43562737,0.21055444,0.0126275495,819.5604,781.685,836.8865,841.7216,951.7216,-0.05230712890625,0.13702392578125,0.98876953125,0.46356201171875,-0.59814453125,1.27105712890625,1,1.0,1.0,1.0,1.0,10.00
2024-10-11 20:46:42.789,1.322504,0.64235705,0.59756076,1.1018637,1.0074561,0.07561443,0.39013147,0.81443167,1.0535016,-0.22861056,0.387701,0.80785847,0.69227725,-0.18706593,0.43245256,0.5822404,0.28781542,-0.43562737,0.21055444,0.0126275495,816.7399,779.67035,835.6777,837.28937,1062.1245,-0.05230712890625,0.13702392578125,0.98876953125,0.46356201171875,-0.59814453125,1.27105712890625,1,1.0,1.0,1.0,1.0,10.00
2024-10-11 20:46:42.790,1.322504,0.64235705,0.59756076,1.1018637,1.0074561,0.07561443,0.39013147,0.81443167,1.0535016,-0.22861056,0.387701,0.80785847,0.69227725,-0.18706593,0.43245256,0.5822404,0.28781542,-0.43562737,0.21055444,0.0126275495,821.5751,773.6264,832.0513,839.304,942.4542,-0.05230712890625,0.13702392578125,0.98876953125,0.46356201171875,-0.59814453125,1.27105712890625,1,1.0,1.0,1.0,1.0,10.00
2024-10-11 20:46:42.790,1.322504,0.64235705,0.59756076,1.1018637,1.0074561,0.07561443,0.39013147,0.81443167,1.0535016,-0.22861056,0.387701,0.80785847,0.69227725,-0.18706593,0.43245256,0.5822404,0.28781542,-0.43562737,0.21055444,0.0126275495,821.978,775.64105,838.9011,843.3333,767.1795,-0.05230712890625,0.13702392578125,0.98876953125,0.46356201171875,-0.59814453125,1.27105712890625,1,1.0,1.0,1.0,1.0,10.00
2024-10-11 20:46:42.791,1.322504,0.64235705,0.59756076,1.1018637,1.0074561,0.07561443,0.39013147,0.81443167,1.0535016,-0.22861056,0.387701,0.80785847,0.69227725,-0.18706593,0.43245256,0.5822404,0.28781542,-0.43562737,0.21055444,0.0126275495,816.7399,779.2674,842.1245,841.7216,877.1795,-0.05230712890625,0.13702392578125,0.98876953125,0.46356201171875,-0.59814453125,1.27105712890625,1,1.0,1.0,1.0,1.0,10.00
2024-10-11 20:46:42.791,1.322504,0.64235705,0.59756076,1.1018637,1.0074561,0.07561443,0.39013147,0.81443167,1.0535016,-0.22861056,0.387701,0.80785847,0.69227725,-0.18706593,0.43245256,0.5822404,0.28781542,-0.43562737,0.21055444,0.0126275495,822.7839,780.07324,837.6923,832.8571,924.3223,-0.05230712890625,0.13702392578125,0.98876953125,0.46356201171875,-0.59814453125,1.27105712890625,1,1.0,1.0,1.0,1.0,10.00
2024-10-11 20:46:42.815,1.322504,0.64235705,0.59756076,1.1018637,1.0074561,0.07561443,0.39013147,0.81443167,1.0535016,-0.22861056,0.387701,0.80785847,0.69227725,-0.18706593,0.43245256,0.5822404,0.28781542,-0.43562737,0.21055444,0.0126275495,826.4103,783.69965,828.022,825.2015,714.3956,-0.05084228515625,0.137939453125,0.9949951171875,1.368255615234375,-0.321502685546875,1.308441162109375,1,1.0,1.0,1.0,1.0,10.00
2024-10-11 20:46:42.816,1.322504,0.64235705,0.59756076,1.1018637,1.0074561,0.07561443,0.39013147,0.81443167,1.0535016,-0.22861056,0.387701,0.80785847,0.69227725,-0.18706593,0.43245256,0.5822404,0.28781542,-0.43562737,0.21055444,0.0126275495,818.3516,782.49084,814.3223,821.5751,674.5055,-0.05084228515625,0.137939453125,0.9949951171875,1.368255615234375,-0.321502685546875,1.308441162109375,1,1.0,1.0,1.0,1.0,10.00
2024-10-11 20:46:42.817,1.322504,0.64235705,0.59756076,1.1018637,1.0074561,0.07561443,0.39013147,0.81443167,1.0535016,-0.22861056,0.387701,0.80785847,0.69227725,-0.18706593,0.43245256,0.5822404,0.28781542,-0.43562737,0.21055444,0.0126275495,821.5751,776.8498,817.9487,826.8132,869.92676,-0.05084228515625,0.137939453125,0.9949951171875,1.368255615234375,-0.321502685546875,1.308441162109375,1,1.0,1.0,1.0,1.0,10.00
2024-10-11 20:46:42.818,1.322504,0.64235705,0.59756076,1.1018637,1.0074561,0.07561443,0.39013147,0.81443167,1.0535016,-0.22861056,0.387701,0.80785847,0.69227725,-0.18706593,0.43245256,0.5822404,0.28781542,-0.43562737,0.21055444,0.0126275495,823.1868,778.0586,826.8132,826.4103,862.674,-0.05084228515625,0.137939453125,0.9949951171875,1.368255615234375,-0.321502685546875,1.308441162109375,1,1.0,1.0,1.0,1.0,10.00
2024-10-11 20:46:42.819,1.322504,0.64235705,0.59756076,1.1018637,1.0074561,0.07561443,0.39013147,0.81443167,1.0535016,-0.22861056,0.387701,0.80785847,0.69227725,-0.18706593,0.43245256,0.5822404,0.28781542,-0.43562737,0.21055444,0.0126275495,817.1429,780.4762,819.5604,824.7985,658.7912,-0.05084228515625,0.137939453125,0.9949951171875,1.368255615234375,-0.321502685546875,1.308441162109375,1,1.0,1.0,1.0,1.0,10.00
2024-10-11 20:46:42.819,1.322504,0.64235705,0.59756076,1.1018637,1.0074561,0.07561443,0.39013147,0.81443167,1.0535016,-0.22861056,0.387701,0.80785847,0.69227725,-0.18706593,0.43245256,0.5822404,0.28781542,-0.43562737,0.21055444,0.0126275495,814.7253,778.86444,820.3663,823.5897,722.4542,-0.05084228515625,0.137939453125,0.9949951171875,1.368255615234375,-0.321502685546875,1.308441162109375,1,1.0,1.0,1.0,1.0,10.00
2024-10-11 20:46:42.820,1.322504,0.64235705,0.59756076,1.1018637,1.0074561,0.07561443,0.39013147,0.81443167,1.0535016,-0.22861056,0.387701,0.80785847,0.69227725,-0.18706593,0.43245256,0.5822404,0.28781542,-0.43562737,0.21055444,0.0126275495,810.293,782.49084,822.7839,819.9634,867.1062,-0.05084228515625,0.137939453125,0.9949951171875,1.368255615234375,-0.321502685546875,1.308441162109375,1,1.0,1.0,1.0,1.0,10.00
2024-10-11 20:46:42.820,1.322504,0.64235705,0.59756076,1.1018637,1.0074561,0.07561443,0.39013147,0.81443167,1.0535016,-0.22861056,0.387701,0.80785847,0.69227725,-0.18706593,0.43245256,0.5822404,0.28781542,-0.43562737,0.21055444,0.0126275495,811.9048,787.72894,814.7253,819.5604,876.77655,-0.05084228515625,0.137939453125,0.9949951171875,1.368255615234375,-0.321502685546875,1.308441162109375,1,1.0,1.0,1.0,1.0,10.00
2024-10-11 20:46:42.821,1.322504,0.64235705,0.59756076,1.1018637,1.0074561,0.07561443,0.39013147,0.81443167,1.0535016,-0.22861056,0.387701,0.80785847,0.69227725,-0.18706593,0.43245256,0.5822404,0.28781542,-0.43562737,0.21055444,0.0126275495,823.9927,788.93774,809.89014,820.7692,768.7912,-0.05084228515625,0.137939453125,0.9949951171875,1.368255615234375,-0.321502685546875,1.308441162109375,1,1.0,1.0,1.0,1.0,10.00
2024-10-11 20:46:42.821,1.322504,0.64235705,0.59756076,1.1018637,1.0074561,0.07561443,0.39013147,0.81443167,1.0535016,-0.22861056,0.387701,0.80785847,0.69227725,-0.18706593,0.43245256,0.5822404,0.28781542,-0.43562737,0.21055444,0.0126275495,820.7692,790.14655,808.68134,811.50183,750.65936,-0.05084228515625,0.137939453125,0.9949951171875,1.368255615234375,-0.321502685546875,1.308441162109375,1,1.0,1.0,1.0,1.0,10.00
2024-10-11 20:46:42.822,1.322504,0.64235705,0.59756076,1.1018637,1.0074561,0.07561443,0.39013147,0.81443167,1.0535016,-0.22861056,0.387701,0.80785847,0.69227725,-0.18706593,0.43245256,0.5822404,0.28781542,-0.43562737,0.21055444,0.0126275495,811.9048,786.52014,805.4579,809.4872,843.73627,-0.05084228515625,0.137939453125,0.9949951171875,1.368255615234375,-0.321502685546875,1.308441162109375,1,1.0,1.0,1.0,1.0,10.00
2024-10-11 20:46:42.822,1.3300353,0.6276748,0.59756076,1.1018637,1.0205768,0.060733017,0.39013147,0.81443167,1.056452,-0.22861056,0.387701,0.80785847,0.70539796,-0.18897475,0.43245256,0.5822404,0.29162988,-0.4417952,0.21055444,0.0126275495,822.7839,789.34064,809.4872,818.3516,843.3333,-0.05084228515625,0.137939453125,0.9949951171875,1.368255615234375,-0.321502685546875,1.308441162109375,1,1.0,1.0,1.0,1.0,10.00
2024-10-11 20:46:42.850,1.3300353,0.6276748,0.59756076,1.1018637,1.0205768,0.060733017,0.39013147,0.81443167,1.056452,-0.22861056,0.387701,0.80785847,0.70539796,-0.18897475,0.43245256,0.5822404,0.29162988,-0.4417952,0.21055444,0.0126275495,823.5897,789.7436,813.91943,816.7399,647.50916,-0.05084228515625,0.137939453125,0.9949951171875,1.368255615234375,-0.321502685546875,1.308441162109375,1,1.0,1.0,1.0,1.0,10.00
2024-10-11 20:46:42.850,1.3300353,0.6276748,0.59756076,1.1018637,1.0205768,0.060733017,0.39013147,0.81443167,1.056452,-0.22861056,0.387701,0.80785847,0.70539796,-0.18897475,0.43245256,0.5822404,0.29162988,-0.4417952,0.21055444,0.0126275495,811.0989,788.93774,816.7399,815.5311,535.4945,-0.05084228515625,0.137939453125,0.9949951171875,1.368255615234375,-0.321502685546875,1.308441162109375,1,1.0,1.0,1.0,1.0,10.00
2024-10-11 20:46:42.851,1.3300353,0.6276748,0.59756076,1.1018637,1.0205768,0.060733017,0.39013147,0.81443167,1.056452,-0.22861056,0.387701,0.80785847,0.70539796,-0.18897475,0.43245256,0.5822404,0.29162988,-0.4417952,0.21055444,0.0126275495,803.0403,790.14655,810.696,819.15753,686.99634,-0.05084228515625,0.137939453125,0.9949951171875,1.368255615234375,-0.321502685546875,1.308441162109375,1,1.0,1.0,1.0,1.0,10.00
2024-10-11 20:46:42.852,1.3300353,0.6276748,0.59756076,1.1018637,1.0205768,0.060733017,0.39013147,0.81443167,1.056452,-0.22861056,0.387701,0.80785847,0.70539796,-0.18897475,0.43245256,0.5822404,0.29162988,-0.4417952,0.21055444,0.0126275495,804.65204,791.75824,802.23444,818.3516,806.6667,-0.05084228515625,0.137939453125,0.9949951171875,1.368255615234375,-0.321502685546875,1.308441162109375,1,1.0,1.0,1.0,1.0,10.00
2024-10-11 20:46:42.852,1.3300353,0.6276748,0.59756076,1.1018637,1.0205768,0.060733017,0.39013147,0.81443167,1.056452,-0.22861056,0.387701,0.80785847,0.70539796,-0.18897475,0.43245256,0.5822404,0.29162988,-0.4417952,0.21055444,0.0126275495,809.0842,795.78754,816.337,818.3516,708.3516,-0.05084228515625,0.137939453125,0.9949951171875,1.368255615234375,-0.321502685546875,1.308441162109375,1,1.0,1.0,1.0,1.0,10.00
2024-10-11 20:46:42.853,1.3300353,0.6276748,0.59756076,1.1018637,1.0205768,0.060733017,0.39013147,0.81443167,1.056452,-0.22861056,0.387701,0.80785847,0.70539796,-0.18897475,0.43245256,0.5822404,0.29162988,-0.4417952,0.21055444,0.0126275495,809.89014,793.36993,819.5604,819.5604,809.4872,-0.05084228515625,0.137939453125,0.9949951171875,1.368255615234375,-0.321502685546875,1.308441162109375,1,1.0,1.0,1.0,1.0,10.00
2024-10-11 20:46:42.853,1.3300353,0.6276748,0.59756076,1.1018637,1.0205768,0.060733017,0.39013147,0.81443167,1.056452,-0.22861056,0.387701,0.80785847,0.70539796,-0.18897475,0.43245256,0.5822404,0.29162988,-0.4417952,0.21055444,0.0126275495,809.89014,790.54944,816.7399,818.3516,1026.6666,-0.05084228515625,0.137939453125,0.9949951171875,1.368255615234375,-0.321502685546875,1.308441162109375,1,1.0,1.0,1.0,1.0,10.00
2024-10-11 20:46:42.854,1.3300353,0.6276748,0.59756076,1.1018637,1.0205768,0.060733017,0.39013147,0.81443167,1.056452,-0.22861056,0.387701,0.80785847,0.70539796,-0.18897475,0.43245256,0.5822404,0.29162988,-0.4417952,0.21055444,0.0126275495,813.1135,792.5641,812.71063,817.1429,908.60803,-0.05084228515625,0.137939453125,0.9949951171875,1.368255615234375,-0.321502685546875,1.308441162109375,1,1.0,1.0,1.0,1.0,10.00
2024-10-11 20:46:42.854,1.3300353,0.6276748,0.59756076,1.1018637,1.0205768,0.060733017,0.39013147,0.81443167,1.056452,-0.22861056,0.387701,0.80785847,0.70539796,-0.18897475,0.43245256,0.5822404,0.29162988,-0.4417952,0.21055444,0.0126275495,808.68134,795.38464,796.5934,811.50183,648.315,-0.05084228515625,0.137939453125,0.9949951171875,1.368255615234375,-0.321502685546875,1.308441162109375,1,1.0,1.0,1.0,1.0,10.00
2024-10-11 20:46:42.855,1.3300353,0.6276748,0.59756076,1.1018637,1.0205768,0.060733017,0.39013147,0.81443167,1.056452,-0.22861056,0.387701,0.80785847,0.70539796,-0.18897475,0.43245256,0.5822404,0.29162988,-0.4417952,0.21055444,0.0126275495,809.0842,790.9524,798.60803,811.9048,754.68866,-0.05084228515625,0.137939453125,0.9949951171875,1.368255615234375,-0.321502685546875,1.308441162109375,1,1.0,1.0,1.0,1.0,10.00
2024-10-11 20:46:42.855,1.3300353,0.6276748,0.59756076,1.1018637,1.0205768,0.060733017,0.39013147,0.81443167,1.056452,-0.22861056,0.387701,0.80785847,0.70539796,-0.18897475,0.43245256,0.5822404,0.29162988,-0.4417952,0.21055444,0.0126275495,812.71063,788.93774,805.4579,821.978,904.9817,-0.05084228515625,0.137939453125,0.9949951171875,1.368255615234375,-0.321502685546875,1.308441162109375,1,1.0,1.0,1.0,1.0,10.00
2024-10-11 20:46:42.855,1.3300353,0.6276748,0.59756076,1.1018637,1.0205768,0.060733017,0.39013147,0.81443167,1.056452,-0.22861056,0.387701,0.80785847,0.70539796,-0.18897475,0.43245256,0.5822404,0.29162988,-0.4417952,0.21055444,0.0126275495,813.1135,792.5641,809.0842,821.5751,836.4835,-0.05084228515625,0.137939453125,0.9949951171875,1.368255615234375,-0.321502685546875,1.308441162109375,1,1.0,1.0,1.0,1.0,10.00
2024-10-11 20:46:42.917,1.3300353,0.6276748,0.59756076,1.1018637,1.0205768,0.060733017,0.39013147,0.81443167,1.056452,-0.22861056,0.387701,0.80785847,0.70539796,-0.18897475,0.43245256,0.5822404,0.29162988,-0.4417952,0.21055444,0.0126275495,809.89014,795.78754,815.5311,815.5311,756.7033,-0.0537109375,0.14654541015625,0.9923095703125,1.48040771484375,-0.276641845703125,1.89910888671875,1,1.0,1.0,1.0,1.0,10.00
2024-10-11 20:46:42.917,1.3300353,0.6276748,0.59756076,1.1018637,1.0205768,0.060733017,0.39013147,0.81443167,1.056452,-0.22861056,0.387701,0.80785847,0.70539796,-0.18897475,0.43245256,0.5822404,0.29162988,-0.4417952,0.21055444,0.0126275495,806.26373,793.36993,816.337,816.7399,880.40295,-0.0537109375,0.14654541015625,0.9923095703125,1.48040771484375,-0.276641845703125,1.89910888671875,1,1.0,1.0,1.0,1.0,10.00
2024-10-11 20:46:42.918,1.3300353,0.6276748,0.59756076,1.1018637,1.0205768,0.060733017,0.39013147,0.81443167,1.056452,-0.22861056,0.387701,0.80785847,0.70539796,-0.18897475,0.43245256,0.5822404,0.29162988,-0.4417952,0.21055444,0.0126275495,802.6374,793.36993,808.2784,807.0696,1020.2198,-0.0537109375,0.14654541015625,0.9923095703125,1.48040771484375,-0.276641845703125,1.89910888671875,1,1.0,1.0,1.0,1.0,10.00
2024-10-11 20:46:42.919,1.3300353,0.6276748,0.59756076,1.1018637,1.0205768,0.060733017,0.39013147,0.81443167,1.056452,-0.22861056,0.387701,0.80785847,0.70539796,-0.18897475,0.43245256,0.5822404,0.29162988,-0.4417952,0.21055444,0.0126275495,810.696,797.3993,813.91943,810.696,807.8755,-0.0537109375,0.14654541015625,0.9923095703125,1.48040771484375,-0.276641845703125,1.89910888671875,1,1.0,1.0,1.0,1.0,10.00
2024-10-11 20:46:42.919,1.3300353,0.6276748,0.59756076,1.1018637,1.0205768,0.060733017,0.39013147,0.81443167,1.056452,-0.22861056,0.387701,0.80785847,0.70539796,-0.18897475,0.43245256,0.5822404,0.29162988,-0.4417952,0.21055444,0.0126275495,818.3516,794.17584,811.50183,818.7546,653.1502,-0.0537109375,0.14654541015625,0.9923095703125,1.48040771484375,-0.276641845703125,1.89910888671875,1,1.0,1.0,1.0,1.0,10.00
2024-10-11 20:46:42.920,1.3300353,0.6276748,0.59756076,1.1018637,1.0205768,0.060733017,0.39013147,0.81443167,1.056452,-0.22861056,0.387701,0.80785847,0.70539796,-0.18897475,0.43245256,0.5822404,0.29162988,-0.4417952,0.21055444,0.0126275495,818.3516,791.75824,796.99634,814.7253,925.12823,-0.0537109375,0.14654541015625,0.9923095703125,1.48040771484375,-0.276641845703125,1.89910888671875,1,1.0,1.0,1.0,1.0,10.00
2024-10-11 20:46:42.920,1.3300353,0.6276748,0.59756076,1.1018637,1.0205768,0.060733017,0.39013147,0.81443167,1.056452,-0.22861056,0.387701,0.80785847,0.70539796,-0.18897475,0.43245256,0.5822404,0.29162988,-0.4417952,0.21055444,0.0126275495,812.71063,784.10254,813.91943,809.4872,974.68866,-0.0537109375,0.14654541015625,0.9923095703125,1.48040771484375,-0.276641845703125,1.89910888671875,1,1.0,1.0,1.0,1.0,10.00
2024-10-11 20:46:42.921,1.3300353,0.6276748,0.59756076,1.1018637,1.0205768,0.060733017,0.39013147,0.81443167,1.056452,-0.22861056,0.387701,0.80785847,0.70539796,-0.18897475,0.43245256,0.5822404,0.29162988,-0.4417952,0.21055444,0.0126275495,814.3223,780.4762,817.9487,805.05493,686.5934,-0.0537109375,0.14654541015625,0.9923095703125,1.48040771484375,-0.276641845703125,1.89910888671875,1,1.0,1.0,1.0,1.0,10.00
2024-10-11 20:46:42.921,1.3300353,0.6276748,0.59756076,1.1018637,1.0205768,0.060733017,0.39013147,0.81443167,1.056452,-0.22861056,0.387701,0.80785847,0.70539796,-0.18897475,0.43245256,0.5822404,0.29162988,-0.4417952,0.21055444,0.0126275495,816.7399,796.5934,811.9048,808.2784,588.2784,-0.0537109375,0.14654541015625,0.9923095703125,1.48040771484375,-0.276641845703125,1.89910888671875,1,1.0,1.0,1.0,1.0,10.00
2024-10-11 20:46:42.922,1.3300353,0.6276748,0.59756076,1.1018637,1.0205768,0.060733017,0.39013147,0.81443167,1.056452,-0.22861056,0.387701,0.80785847,0.70539796,-0.18897475,0.43245256,0.5822404,0.29162988,-0.4417952,0.21055444,0.0126275495,807.8755,801.8315,797.8022,815.5311,738.97437,-0.0537109375,0.14654541015625,0.9923095703125,1.48040771484375,-0.276641845703125,1.89910888671875,1,1.0,1.0,1.0,1.0,10.00
2024-10-11 20:46:42.922,1.3300353,0.6276748,0.59756076,1.1018637,1.0205768,0.060733017,0.39013147,0.81443167,1.056452,-0.22861056,0.387701,0.80785847,0.70539796,-0.18897475,0.43245256,0.5822404,0.29162988,-0.4417952,0.21055444,0.0126275495,808.68134,802.23444,796.5934,811.50183,748.6447,-0.0537109375,0.14654541015625,0.9923095703125,1.48040771484375,-0.276641845703125,1.89910888671875,1,1.0,1.0,1.0,1.0,10.00
2024-10-11 20:46:42.923,1.3300353,0.6276748,0.59756076,1.1018637,1.0205768,0.060733017,0.39013147,0.81443167,1.056452,-0.22861056,0.387701,0.80785847,0.70539796,-0.18897475,0.43245256,0.5822404,0.29162988,-0.4417952,0.21055444,0.0126275495,807.8755,803.8461,813.1135,807.47253,480.29303,-0.0537109375,0.14654541015625,0.9923095703125,1.48040771484375,-0.276641845703125,1.89910888671875,1,1.0,1.0,1.0,1.0,10.00
2024-10-11 20:46:42.924,1.3300353,0.6276748,0.59756076,1.1018637,1.0205768,0.060733017,0.39013147,0.81443167,1.056452,-0.22861056,0.387701,0.80785847,0.70539796,-0.18897475,0.43245256,0.5822404,0.29162988,-0.4417952,0.21055444,0.0126275495,801.4286,802.23444,807.8755,809.89014,543.1502,-0.05682373046875,0.14434814453125,0.99560546875,1.1962890625,-0.9271240234375,1.256103515625,1,1.0,1.0,1.0,1.0,10.00
2024-10-11 20:46:42.924,1.3300353,0.5392057,0.59756076,1.1018637,1.0205768,0.036318928,0.39013147,0.81443167,1.056452,-0.22861056,0.387701,0.80785847,0.70539796,-0.19615257,0.43245256,0.5822404,0.29162988,-0.45553523,0.21055444,0.0126275495,803.0403,799.81683,809.89014,807.0696,718.4249,-0.05682373046875,0.14434814453125,0.99560546875,1.1962890625,-0.9271240234375,1.256103515625,1,1.0,1.0,1.0,1.0,10.00
2024-10-11 20:46:42.929,1.3300353,0.5392057,0.59756076,1.1018637,1.0205768,0.036318928,0.39013147,0.81443167,1.056452,-0.22861056,0.387701,0.80785847,0.70539796,-0.19615257,0.43245256,0.5822404,0.29162988,-0.45553523,0.21055444,0.0126275495,811.50183,795.38464,812.3077,807.0696,756.30035,-0.05682373046875,0.14434814453125,0.99560546875,1.1962890625,-0.9271240234375,1.256103515625,1,1.0,1.0,1.0,1.0,10.00
2024-10-11 20:46:42.929,1.3300353,0.5392057,0.59756076,1.1018637,1.0205768,0.036318928,0.39013147,0.81443167,1.056452,-0.22861056,0.387701,0.80785847,0.70539796,-0.19615257,0.43245256,0.5822404,0.29162988,-0.45553523,0.21055444,0.0126275495,810.696,792.5641,804.65204,805.05493,674.90845,-0.05682373046875,0.14434814453125,0.99560546875,1.1962890625,-0.9271240234375,1.256103515625,1,1.0,1.0,1.0,1.0,10.00
2024-10-11 20:46:42.930,1.3300353,0.5392057,0.59756076,1.1018637,1.0205768,0.036318928,0.39013147,0.81443167,1.056452,-0.22861056,0.387701,0.80785847,0.70539796,-0.19615257,0.43245256,0.5822404,0.29162988,-0.45553523,0.21055444,0.0126275495,800.6227,792.1612,799.81683,802.6374,687.3993,-0.05682373046875,0.14434814453125,0.99560546875,1.1962890625,-0.9271240234375,1.256103515625,1,1.0,1.0,1.0,1.0,10.00
2024-10-11 20:46:42.930,1.3300353,0.5392057,0.59756076,1.1018637,1.0205768,0.036318928,0.39013147,0.81443167,1.056452,-0.22861056,0.387701,0.80785847,0.70539796,-0.19615257,0.43245256,0.5822404,0.29162988,-0.45553523,0.21055444,0.0126275495,792.96704,796.1905,790.54944,803.0403,946.4835,-0.05682373046875,0.14434814453125,0.99560546875,1.1962890625,-0.9271240234375,1.256103515625,1,1.0,1.0,1.0,1.0,10.00
2024-10-11 20:46:42.931,1.3300353,0.5392057,0.59756076,1.1018637,1.0205768,0.036318928,0.39013147,0.81443167,1.056452,-0.22861056,0.387701,0.80785847,0.70539796,-0.19615257,0.43245256,0.5822404,0.29162988,-0.45553523,0.21055444,0.0126275495,788.5348,794.9817,790.54944,801.8315,981.53845,-0.05682373046875,0.14434814453125,0.99560546875,1.1962890625,-0.9271240234375,1.256103515625,1,1.0,1.0,1.0,1.0,10.00
2024-10-11 20:46:42.931,1.3300353,0.5392057,0.59756076,1.1018637,1.0205768,0.036318928,0.39013147,0.81443167,1.056452,-0.22861056,0.387701,0.80785847,0.70539796,-0.19615257,0.43245256,0.5822404,0.29162988,-0.45553523,0.21055444,0.0126275495,794.17584,791.75824,798.60803,798.20514,670.07324,-0.05682373046875,0.14434814453125,0.99560546875,1.1962890625,-0.9271240234375,1.256103515625,1,1.0,1.0,1.0,1.0,10.00
2024-10-11 20:46:42.932,1.3300353,0.5392057,0.59756076,1.1018637,1.0205768,0.036318928,0.39013147,0.81443167,1.056452,-0.22861056,0.387701,0.80785847,0.70539796,-0.19615257,0.43245256,0.5822404,0.29162988,-0.45553523,0.21055444,0.0126275495,796.5934,792.5641,806.6667,802.23444,606.0073,-0.05682373046875,0.14434814453125,0.99560546875,1.1962890625,-0.9271240234375,1.256103515625,1,1.0,1.0,1.0,1.0,10.00
2024-10-11 20:46:42.932,1.3300353,0.5392057,0.59756076,1.1018637,1.0205768,0.036318928,0.39013147,0.81443167,1.056452,-0.22861056,0.387701,0.80785847,0.70539796,-0.19615257,0.43245256,0.5822404,0.29162988,-0.45553523,0.21055444,0.0126275495,794.9817,795.38464,807.8755,805.05493,761.9414,-0.05682373046875,0.14434814453125,0.99560546875,1.1962890625,-0.9271240234375,1.256103515625,1,1.0,1.0,1.0,1.0,10.00
2024-10-11 20:46:42.933,1.3300353,0.5392057,0.59756076,1.1018637,1.0205768,0.036318928,0.39013147,0.81443167,1.056452,-0.22861056,0.387701,0.80785847,0.70539796,-0.19615257,0.43245256,0.5822404,0.29162988,-0.45553523,0.21055444,0.0126275495,799.41394,796.99634,803.44324,803.44324,733.73627,-0.05682373046875,0.14434814453125,0.99560546875,1.1962890625,-0.9271240234375,1.256103515625,1,1.0,1.0,1.0,1.0,10.00
2024-10-11 20:46:42.933,1.3300353,0.5392057,0.59756076,1.1018637,1.0205768,0.036318928,0.39013147,0.81443167,1.056452,-0.22861056,0.387701,0.80785847,0.70539796,-0.19615257,0.43245256,0.5822404,0.29162988,-0.45553523,0.21055444,0.0126275495,803.8461,794.17584,798.20514,800.2198,609.6337,-0.05682373046875,0.14434814453125,0.99560546875,1.1962890625,-0.9271240234375,1.256103515625,1,1.0,1.0,1.0,1.0,10.00
2024-10-11 20:46:42.955,1.3300353,0.5392057,0.59756076,1.1018637,1.0205768,0.036318928,0.39013147,0.81443167,1.056452,-0.22861056,0.387701,0.80785847,0.70539796,-0.19615257,0.43245256,0.5822404,0.29162988,-0.45553523,0.21055444,0.0126275495,794.9817,796.1905,794.57874,798.20514,595.9341,-0.04473876953125,0.15606689453125,0.99835205078125,1.622467041015625,-1.4654541015625,-0.022430419921875,1,1.0,1.0,1.0,1.0,10.00
2024-10-11 20:46:42.956,1.3300353,0.5392057,0.59756076,1.1018637,1.0205768,0.036318928,0.39013147,0.81443167,1.056452,-0.22861056,0.387701,0.80785847,0.70539796,-0.19615257,0.43245256,0.5822404,0.29162988,-0.45553523,0.21055444,0.0126275495,797.3993,797.8022,790.54944,804.2491,781.28204,-0.04473876953125,0.15606689453125,0.99835205078125,1.622467041015625,-1.4654541015625,-0.022430419921875,1,1.0,1.0,1.0,1.0,10.00
2024-10-11 20:46:42.957,1.3300353,0.5392057,0.59756076,1.1018637,1.0205768,0.036318928,0.39013147,0.81443167,1.056452,-0.22861056,0.387701,0.80785847,0.70539796,-0.19615257,0.43245256,0.5822404,0.29162988,-0.45553523,0.21055444,0.0126275495,801.8315,796.99634,785.7143,800.2198,757.50916,-0.04473876953125,0.15606689453125,0.99835205078125,1.622467041015625,-1.4654541015625,-0.022430419921875,1,1.0,1.0,1.0,1.0,10.00
2024-10-11 20:46:42.958,1.3300353,0.5392057,0.59756076,1.1018637,1.0205768,0.036318928,0.39013147,0.81443167,1.056452,-0.22861056,0.387701,0.80785847,0.70539796,-0.19615257,0.43245256,0.5822404,0.29162988,-0.45553523,0.21055444,0.0126275495,802.23444,796.1905,793.36993,794.17584,617.6923,-0.04473876953125,0.15606689453125,0.99835205078125,1.622467041015625,-1.4654541015625,-0.022430419921875,1,1.0,1.0,1.0,1.0,10.00
2024-10-11 20:46:42.959,1.3300353,0.5392057,0.59756076,1.1018637,1.0205768,0.036318928,0.39013147,0.81443167,1.056452,-0.22861056,0.387701,0.80785847,0.70539796,-0.19615257,0.43245256,0.5822404,0.29162988,-0.45553523,0.21055444,0.0126275495,799.81683,795.78754,799.81683,795.38464,745.82416,-0.04473876953125,0.15606689453125,0.99835205078125,1.622467041015625,-1.4654541015625,-0.022430419921875,1,1.0,1.0,1.0,1.0,10.00
2024-10-11 20:46:42.960,1.3300353,0.5392057,0.59756076,1.1018637,1.0205768,0.036318928,0.39013147,0.81443167,1.056452,-0.22861056,0.387701,0.80785847,0.70539796,-0.19615257,0.43245256,0.5822404,0.29162988,-0.45553523,0.21055444,0.0126275495,794.9817,795.38464,798.20514,799.41394,977.1062,-0.04473876953125,0.15606689453125,0.99835205078125,1.622467041015625,-1.4654541015625,-0.022430419921875,1,1.0,1.0,1.0,1.0,10.00
2024-10-11 20:46:42.960,1.3300353,0.5392057,0.59756076,1.1018637,1.0205768,0.036318928,0.39013147,0.81443167,1.056452,-0.22861056,0.387701,0.80785847,0.70539796,-0.19615257,0.43245256,0.5822404,0.29162988,-0.45553523,0.21055444,0.0126275495,801.02563,797.8022,800.2198,792.96704,947.6923,-0.04473876953125,0.15606689453125,0.99835205078125,1.622467041015625,-1.4654541015625,-0.022430419921875,1,1.0,1.0,1.0,1.0,10.00
2024-10-11 20:46:42.961,1.3300353,0.5392057,0.59756076,1.1018637,1.0205768,0.036318928,0.39013147,0.81443167,1.056452,-0.22861056,0.387701,0.80785847,0.70539796,-0.19615257,0.43245256,0.5822404,0.29162988,-0.45553523,0.21055444,0.0126275495,792.1612,796.5934,802.23444,785.7143,743.4066,-0.04473876953125,0.15606689453125,0.99835205078125,1.622467041015625,-1.4654541015625,-0.022430419921875,1,1.0,1.0,1.0,1.0,10.00
2024-10-11 20:46:42.962,1.3300353,0.5392057,0.59756076,1.1018637,1.0205768,0.036318928,0.39013147,0.81443167,1.056452,-0.22861056,0.387701,0.80785847,0.70539796,-0.19615257,0.43245256,0.5822404,0.29162988,-0.45553523,0.21055444,0.0126275495,782.0879,796.1905,794.17584,790.14655,740.58606,-0.04473876953125,0.15606689453125,0.99835205078125,1.622467041015625,-1.4654541015625,-0.022430419921875,1,1.0,1.0,1.0,1.0,10.00
2024-10-11 20:46:42.962,1.3300353,0.5392057,0.59756076,1.1018637,1.0205768,0.036318928,0.39013147,0.81443167,1.056452,-0.22861056,0.387701,0.80785847,0.70539796,-0.19615257,0.43245256,0.5822404,0.29162988,-0.45553523,0.21055444,0.0126275495,782.8938,796.5934,799.011,796.99634,843.3333,-0.04473876953125,0.15606689453125,0.99835205078125,1.622467041015625,-1.4654541015625,-0.022430419921875,1,1.0,1.0,1.0,1.0,10.00
2024-10-11 20:46:42.963,1.3300353,0.5392057,0.59756076,1.1018637,1.0205768,0.036318928,0.39013147,0.81443167,1.056452,-0.22861056,0.387701,0.80785847,0.70539796,-0.19615257,0.43245256,0.5822404,0.29162988,-0.45553523,0.21055444,0.0126275495,784.90845,795.38464,807.47253,803.0403,671.685,-0.04473876953125,0.15606689453125,0.99835205078125,1.622467041015625,-1.4654541015625,-0.022430419921875,1,1.0,1.0,1.0,1.0,10.00
2024-10-11 20:46:42.964,1.3300353,0.5392057,0.59756076,1.1018637,1.0205768,0.036318928,0.39013147,0.81443167,1.056452,-0.22861056,0.387701,0.80785847,0.70539796,-0.19615257,0.43245256,0.5822404,0.29162988,-0.45553523,0.21055444,0.0126275495,788.1319,795.38464,802.6374,799.81683,606.0073,-0.04473876953125,0.15606689453125,0.99835205078125,1.622467041015625,-1.4654541015625,-0.022430419921875,1,1.0,1.0,1.0,1.0,10.00
2024-10-11 20:46:42.964,1.3300353,0.5392057,0.59756076,1.1018637,1.0205768,0.036318928,0.39013147,0.81443167,1.056452,-0.22861056,0.387701,0.80785847,0.70539796,-0.19615257,0.43245256,0.5822404,0.29162988,-0.45553523,0.21055444,0.0126275495,789.7436,792.96704,796.5934,796.5934,893.2967,-0.03082275390625,0.16851806640625,1.0010986328125,2.332763671875,-1.009368896484375,-0.127105712890625,1,1.0,1.0,1.0,1.0,10.00
2024-10-11 20:46:42.965,1.3300353,0.5392057,0.59756076,1.1018637,1.0205768,0.036318928,0.39013147,0.81443167,1.056452,-0.22861056,0.387701,0.80785847,0.70539796,-0.19615257,0.43245256,0.5822404,0.29162988,-0.45553523,0.21055444,0.0126275495,796.99634,793.36993,794.57874,801.4286,1008.93774,-0.03082275390625,0.16851806640625,1.0010986328125,2.332763671875,-1.009368896484375,-0.127105712890625,1,1.0,1.0,1.0,1.0,10.00
2024-10-11 20:46:42.966,1.3300353,0.5392057,0.59756076,1.1018637,1.0205768,0.036318928,0.39013147,0.81443167,1.056452,-0.22861056,0.387701,0.80785847,0.70539796,-0.19615257,0.43245256,0.5822404,0.29162988,-0.45553523,0.21055444,0.0126275495,803.44324,795.38464,803.8461,801.8315,793.36993,-0.03082275390625,0.16851806640625,1.0010986328125,2.332763671875,-1.009368896484375,-0.127105712890625,1,1.0,1.0,1.0,1.0,10.00
2024-10-11 20:46:42.966,1.3300353,0.5080146,0.59756076,1.1018637,1.0205768,0.044862326,0.39013147,0.81443167,1.056452,-0.2310459,0.387701,0.80785847,0.70539796,-0.202762,0.43245256,0.5822404,0.29162988,-0.46023127,0.21055444,0.0126275495,799.41394,797.8022,799.41394,799.81683,652.74725,-0.03082275390625,0.16851806640625,1.0010986328125,2.332763671875,-1.009368896484375,-0.127105712890625,1,1.0,1.0,1.0,1.0,10.00
2024-10-11 20:46:42.971,1.3300353,0.5080146,0.59756076,1.1018637,1.0205768,0.044862326,0.39013147,0.81443167,1.056452,-0.2310459,0.387701,0.80785847,0.70539796,-0.202762,0.43245256,0.5822404,0.29162988,-0.46023127,0.21055444,0.0126275495,801.8315,799.81683,794.17584,805.8608,900.14655,-0.03082275390625,0.16851806640625,1.0010986328125,2.332763671875,-1.009368896484375,-0.127105712890625,1,1.0,1.0,1.0,1.0,10.00
2024-10-11 20:46:42.971,1.3300353,0.5080146,0.59756076,1.1018637,1.0205768,0.044862326,0.39013147,0.81443167,1.056452,-0.2310459,0.387701,0.80785847,0.70539796,-0.202762,0.43245256,0.5822404,0.29162988,-0.46023127,0.21055444,0.0126275495,806.26373,798.20514,803.44324,808.2784,1218.4615,-0.03082275390625,0.16851806640625,1.0010986328125,2.332763671875,-1.009368896484375,-0.127105712890625,1,1.0,1.0,1.0,1.0,10.00
2024-10-11 20:46:42.972,1.3300353,0.5080146,0.59756076,1.1018637,1.0205768,0.044862326,0.39013147,0.81443167,1.056452,-0.2310459,0.387701,0.80785847,0.70539796,-0.202762,0.43245256,0.5822404,0.29162988,-0.46023127,0.21055444,0.0126275495,804.2491,801.8315,811.50183,799.41394,841.7216,-0.03082275390625,0.16851806640625,1.0010986328125,2.332763671875,-1.009368896484375,-0.127105712890625,1,1.0,1.0,1.0,1.0,10.00
2024-10-11 20:46:42.973,1.3300353,0.5080146,0.59756076,1.1018637,1.0205768,0.044862326,0.39013147,0.81443167,1.056452,-0.2310459,0.387701,0.80785847,0.70539796,-0.202762,0.43245256,0.5822404,0.29162988,-0.46023127,0.21055444,0.0126275495,805.4579,804.2491,812.3077,799.011,656.3736,-0.03082275390625,0.16851806640625,1.0010986328125,2.332763671875,-1.009368896484375,-0.127105712890625,1,1.0,1.0,1.0,1.0,10.00
2024-10-11 20:46:42.973,1.3300353,0.5080146,0.59756076,1.1018637,1.0205768,0.044862326,0.39013147,0.81443167,1.056452,-0.2310459,0.387701,0.80785847,0.70539796,-0.202762,0.43245256,0.5822404,0.29162988,-0.46023127,0.21055444,0.0126275495,803.0403,803.44324,798.20514,801.02563,890.07324,-0.03082275390625,0.16851806640625,1.0010986328125,2.332763671875,-1.009368896484375,-0.127105712890625,1,1.0,1.0,1.0,1.0,10.00
2024-10-11 20:46:42.974,1.3300353,0.5080146,0.59756076,1.1018637,1.0205768,0.044862326,0.39013147,0.81443167,1.056452,-0.2310459,0.387701,0.80785847,0.70539796,-0.202762,0.43245256,0.5822404,0.29162988,-0.46023127,0.21055444,0.0126275495,802.23444,801.8315,790.9524,800.6227,829.2308,-0.03082275390625,0.16851806640625,1.0010986328125,2.332763671875,-1.009368896484375,-0.127105712890625,1,1.0,1.0,1.0,1.0,10.00
2024-10-11 20:46:42.974,1.3300353,0.5080146,0.59756076,1.1018637,1.0205768,0.044862326,0.39013147,0.81443167,1.056452,-0.2310459,0.387701,0.80785847,0.70539796,-0.202762,0.43245256,0.5822404,0.29162988,-0.46023127,0.21055444,0.0126275495,805.4579,803.8461,798.60803,801.02563,691.02563,-0.03082275390625,0.16851806640625,1.0010986328125,2.332763671875,-1.009368896484375,-0.127105712890625,1,1.0,1.0,1.0,1.0,10.00
2024-10-11 20:46:42.975,1.3300353,0.5080146,0.59756076,1.1018637,1.0205768,0.044862326,0.39013147,0.81443167,1.056452,-0.2310459,0.387701,0.80785847,0.70539796,-0.202762,0.43245256,0.5822404,0.29162988,-0.46023127,0.21055444,0.0126275495,797.8022,801.02563,804.2491,796.1905,780.07324,-0.03082275390625,0.16851806640625,1.0010986328125,2.332763671875,-1.009368896484375,-0.127105712890625,1,1.0,1.0,1.0,1.0,10.00
2024-10-11 20:46:43.000,1.3300353,0.5080146,0.59756076,1.1018637,1.0205768,0.044862326,0.39013147,0.81443167,1.056452,-0.2310459,0.387701,0.80785847,0.70539796,-0.202762,0.43245256,0.5822404,0.29162988,-0.46023127,0.21055444,0.0126275495,790.54944,794.17584,805.05493,792.5641,817.5458,-0.03082275390625,0.16851806640625,1.0010986328125,2.332763671875,-1.009368896484375,-0.127105712890625,1,1.0,1.0,1.0,1.0,10.00
2024-10-11 20:46:43.000,1.3300353,0.5080146,0.59756076,1.1018637,1.0205768,0.044862326,0.39013147,0.81443167,1.056452,-0.2310459,0.387701,0.80785847,0.70539796,-0.202762,0.43245256,0.5822404,0.29162988,-0.46023127,0.21055444,0.0126275495,803.44324,793.36993,806.26373,794.57874,731.31866,-0.03082275390625,0.16851806640625,1.0010986328125,2.332763671875,-1.009368896484375,-0.127105712890625,1,1.0,1.0,1.0,1.0,10.00
2024-10-11 20:46:43.001,1.3300353,0.5080146,0.59756076,1.1018637,1.0205768,0.044862326,0.39013147,0.81443167,1.056452,-0.2310459,0.387701,0.80785847,0.70539796,-0.202762,0.43245256,0.5822404,0.29162988,-0.46023127,0.21055444,0.0126275495,806.6667,794.57874,807.0696,793.7729,664.0293,-0.03082275390625,0.16851806640625,1.0010986328125,2.332763671875,-1.009368896484375,-0.127105712890625,1,1.0,1.0,1.0,1.0,10.00
2024-10-11 20:46:43.002,1.3300353,0.5080146,0.59756076,1.1018637,1.0205768,0.044862326,0.39013147,0.81443167,1.056452,-0.2310459,0.387701,0.80785847,0.70539796,-0.202762,0.43245256,0.5822404,0.29162988,-0.46023127,0.21055444,0.0126275495,805.4579,796.99634,806.26373,799.011,866.30035,-0.03082275390625,0.16851806640625,1.0010986328125,2.332763671875,-1.009368896484375,-0.127105712890625,1,1.0,1.0,1.0,1.0,10.00
2024-10-11 20:46:43.003,1.3300353,0.5080146,0.59756076,1.1018637,1.0205768,0.044862326,0.39013147,0.81443167,1.056452,-0.2310459,0.387701,0.80785847,0.70539796,-0.202762,0.43245256,0.5822404,0.29162988,-0.46023127,0.21055444,0.0126275495,803.8461,799.41394,798.20514,803.8461,1019.011,-0.03082275390625,0.16851806640625,1.0010986328125,2.332763671875,-1.009368896484375,-0.127105712890625,1,1.0,1.0,1.0,1.0,10.00
2024-10-11 20:46:43.003,1.3300353,0.5080146,0.59756076,1.1018637,1.0205768,0.044862326,0.39013147,0.81443167,1.056452,-0.2310459,0.387701,0.80785847,0.70539796,-0.202762,0.43245256,0.5822404,0.29162988,-0.46023127,0.21055444,0.0126275495,796.99634,801.02563,800.2198,797.8022,833.663,-0.03082275390625,0.16851806640625,1.0010986328125,2.332763671875,-1.009368896484375,-0.127105712890625,1,1.0,1.0,1.0,1.0,10.00
2024-10-11 20:46:43.004,1.3300353,0.5080146,0.59756076,1.1018637,1.0205768,0.044862326,0.39013147,0.81443167,1.056452,-0.2310459,0.387701,0.80785847,0.70539796,-0.202762,0.43245256,0.5822404,0.29162988,-0.46023127,0.21055444,0.0126275495,804.2491,797.3993,804.2491,794.9817,660.80585,-0.03082275390625,0.16851806640625,1.0010986328125,2.332763671875,-1.009368896484375,-0.127105712890625,1,1.0,1.0,1.0,1.0,10.00
2024-10-11 20:46:43.004,1.3300353,0.5080146,0.59756076,1.1018637,1.0205768,0.044862326,0.39013147,0.81443167,1.056452,-0.2310459,0.387701,0.80785847,0.70539796,-0.202762,0.43245256,0.5822404,0.29162988,-0.46023127,0.21055444,0.0126275495,808.68134,794.17584,804.2491,800.6227,771.2088,-0.03082275390625,0.16851806640625,1.0010986328125,2.332763671875,-1.009368896484375,-0.127105712890625,1,1.0,1.0,1.0,1.0,10.00
2024-10-11 20:46:43.005,1.3300353,0.5080146,0.59756076,1.1018637,1.0205768,0.044862326,0.39013147,0.81443167,1.056452,-0.2310459,0.387701,0.80785847,0.70539796,-0.202762,0.43245256,0.5822404,0.29162988,-0.46023127,0.21055444,0.0126275495,795.78754,788.1319,810.293,812.3077,1207.5824,-0.03082275390625,0.16851806640625,1.0010986328125,2.332763671875,-1.009368896484375,-0.127105712890625,1,1.0,1.0,1.0,1.0,10.00
2024-10-11 20:46:43.005,1.3300353,0.5080146,0.59756076,1.1018637,1.0205768,0.044862326,0.39013147,0.81443167,1.056452,-0.2310459,0.387701,0.80785847,0.70539796,-0.202762,0.43245256,0.5822404,0.29162988,-0.46023127,0.21055444,0.0126275495,794.9817,792.5641,808.2784,807.0696,1250.6959,-0.03082275390625,0.16851806640625,1.0010986328125,2.332763671875,-1.009368896484375,-0.127105712890625,1,1.0,1.0,1.0,1.0,10.00
2024-10-11 20:46:43.006,1.3300353,0.5080146,0.59756076,1.1018637,1.0205768,0.044862326,0.39013147,0.81443167,1.056452,-0.2310459,0.387701,0.80785847,0.70539796,-0.202762,0.43245256,0.5822404,0.29162988,-0.46023127,0.21055444,0.0126275495,793.36993,798.60803,804.65204,796.1905,837.28937,-0.03082275390625,0.16851806640625,1.0010986328125,2.332763671875,-1.009368896484375,-0.127105712890625,1,1.0,1.0,1.0,1.0,10.00
2024-10-11 20:46:43.007,1.3300353,0.5080146,0.59756076,1.1018637,1.0205768,0.044862326,0.39013147,0.81443167,1.056452,-0.2310459,0.387701,0.80785847,0.70539796,-0.202762,0.43245256,0.5822404,0.29162988,-0.46023127,0.21055444,0.0126275495,795.38464,794.57874,813.91943,805.05493,799.81683,-0.03082275390625,0.16851806640625,1.0010986328125,2.332763671875,-1.009368896484375,-0.127105712890625,1,1.0,1.0,1.0,1.0,10.00
2024-10-11 20:46:43.070,1.3300353,0.5080146,0.59756076,1.1018637,1.0205768,0.044862326,0.39013147,0.81443167,1.056452,-0.2310459,0.387701,0.80785847,0.70539796,-0.202762,0.43245256,0.5822404,0.29162988,-0.46023127,0.21055444,0.0126275495,804.65204,800.6227,817.5458,807.0696,903.7729,-0.02728271484375,0.18280029296875,0.997802734375,1.861724853515625,1.51031494140625,0.9271240234375,1,1.0,1.0,1.0,1.0,10.00
2024-10-11 20:46:43.071,1.3300353,0.5080146,0.59756076,1.1018637,1.0205768,0.044862326,0.39013147,0.81443167,1.056452,-0.2310459,0.387701,0.80785847,0.70539796,-0.202762,0.43245256,0.5822404,0.29162988,-0.46023127,0.21055444,0.0126275495,804.65204,807.0696,811.9048,801.8315,808.2784,-0.02728271484375,0.18280029296875,0.997802734375,1.861724853515625,1.51031494140625,0.9271240234375,1,1.0,1.0,1.0,1.0,10.00
2024-10-11 20:46:43.072,1.3300353,0.5080146,0.59756076,1.1018637,1.0205768,0.044862326,0.39013147,0.81443167,1.056452,-0.2310459,0.387701,0.80785847,0.70539796,-0.202762,0.43245256,0.5822404,0.29162988,-0.46023127,0.21055444,0.0126275495,804.2491,804.2491,811.0989,799.81683,699.89014,-0.02728271484375,0.18280029296875,0.997802734375,1.861724853515625,1.51031494140625,0.9271240234375,1,1.0,1.0,1.0,1.0,10.00
2024-10-11 20:46:43.072,1.3300353,0.5080146,0.59756076,1.1018637,1.0205768,0.044862326,0.39013147,0.81443167,1.056452,-0.2310459,0.387701,0.80785847,0.70539796,-0.202762,0.43245256,0.5822404,0.29162988,-0.46023127,0.21055444,0.0126275495,805.05493,801.8315,806.26373,803.44324,872.3443,-0.02728271484375,0.18280029296875,0.997802734375,1.861724853515625,1.51031494140625,0.9271240234375,1,1.0,1.0,1.0,1.0,10.00
2024-10-11 20:46:43.073,1.3300353,0.5080146,0.59756076,1.1018637,1.0205768,0.044862326,0.39013147,0.81443167,1.056452,-0.2310459,0.387701,0.80785847,0.70539796,-0.202762,0.43245256,0.5822404,0.29162988,-0.46023127,0.21055444,0.0126275495,799.41394,800.2198,797.8022,817.9487,1394.5421,-0.02728271484375,0.18280029296875,0.997802734375,1.861724853515625,1.51031494140625,0.9271240234375,1,1.0,1.0,1.0,1.0,10.00
2024-10-11 20:46:43.074,1.3300353,0.53301877,0.59756076,1.1018637,1.0205768,0.06662314,0.39013147,0.81443167,1.056452,-0.2439209,0.387701,0.80785847,0.70539796,-0.20500518,0.43245256,0.5822404,0.29162988,-0.45433325,0.21055444,0.0126275495,800.2198,801.4286,788.1319,803.0403,1193.8828,-0.02728271484375,0.18280029296875,0.997802734375,1.861724853515625,1.51031494140625,0.9271240234375,1,1.0,1.0,1.0,1.0,10.00
2024-10-11 20:46:43.078,1.3300353,0.53301877,0.59756076,1.1018637,1.0205768,0.06662314,0.39013147,0.81443167,1.056452,-0.2439209,0.387701,0.80785847,0.70539796,-0.20500518,0.43245256,0.5822404,0.29162988,-0.45433325,0.21055444,0.0126275495,799.81683,798.60803,795.38464,788.5348,790.54944,-0.02728271484375,0.18280029296875,0.997802734375,1.861724853515625,1.51031494140625,0.9271240234375,1,1.0,1.0,1.0,1.0,10.00
2024-10-11 20:46:43.079,1.3300353,0.53301877,0.59756076,1.1018637,1.0205768,0.06662314,0.39013147,0.81443167,1.056452,-0.2439209,0.387701,0.80785847,0.70539796,-0.20500518,0.43245256,0.5822404,0.29162988,-0.45433325,0.21055444,0.0126275495,787.72894,794.57874,805.05493,789.7436,851.79486,-0.02728271484375,0.18280029296875,0.997802734375,1.861724853515625,1.51031494140625,0.9271240234375,1,1.0,1.0,1.0,1.0,10.00
2024-10-11 20:46:43.080,1.3300353,0.53301877,0.59756076,1.1018637,1.0205768,0.06662314,0.39013147,0.81443167,1.056452,-0.2439209,0.387701,0.80785847,0.70539796,-0.20500518,0.43245256,0.5822404,0.29162988,-0.45433325,0.21055444,0.0126275495,790.54944,794.9817,798.60803,783.69965,756.30035,-0.02728271484375,0.18280029296875,0.997802734375,1.861724853515625,1.51031494140625,0.9271240234375,1,1.0,1.0,1.0,1.0,10.00
2024-10-11 20:46:43.080,1.3300353,0.53301877,0.59756076,1.1018637,1.0205768,0.06662314,0.39013147,0.81443167,1.056452,-0.2439209,0.387701,0.80785847,0.70539796,-0.20500518,0.43245256,0.5822404,0.29162988,-0.45433325,0.21055444,0.0126275495,802.6374,801.02563,792.5641,790.9524,631.79486,-0.02728271484375,0.18280029296875,0.997802734375,1.861724853515625,1.51031494140625,0.9271240234375,1,1.0,1.0,1.0,1.0,10.00
2024-10-11 20:46:43.080,1.3300353,0.53301877,0.59756076,1.1018637,1.0205768,0.06662314,0.39013147,0.81443167,1.056452,-0.2439209,0.387701,0.80785847,0.70539796,-0.20500518,0.43245256,0.5822404,0.29162988,-0.45433325,0.21055444,0.0126275495,800.2198,804.2491,793.7729,802.23444,715.2015,-0.02728271484375,0.18280029296875,0.997802734375,1.861724853515625,1.51031494140625,0.9271240234375,1,1.0,1.0,1.0,1.0,10.00
2024-10-11 20:46:43.081,1.3300353,0.53301877,0.59756076,1.1018637,1.0205768,0.06662314,0.39013147,0.81443167,1.056452,-0.2439209,0.387701,0.80785847,0.70539796,-0.20500518,0.43245256,0.5822404,0.29162988,-0.45433325,0.21055444,0.0126275495,794.9817,800.6227,805.4579,799.81683,817.1429,-0.02728271484375,0.18280029296875,0.997802734375,1.861724853515625,1.51031494140625,0.9271240234375,1,1.0,1.0,1.0,1.0,10.00
2024-10-11 20:46:43.103,1.3300353,0.53301877,0.59756076,1.1018637,1.0205768,0.06662314,0.39013147,0.81443167,1.056452,-0.2439209,0.387701,0.80785847,0.70539796,-0.20500518,0.43245256,0.5822404,0.29162988,-0.45433325,0.21055444,0.0126275495,791.3553,797.3993,811.50183,794.9817,767.5824,-0.052001953125,0.19537353515625,0.9979248046875,0.142059326171875,4.88983154296875,-0.112152099609375,1,1.0,1.0,1.0,1.0,10.00
2024-10-11 20:46:43.103,1.3300353,0.53301877,0.59756076,1.1018637,1.0205768,0.06662314,0.39013147,0.81443167,1.056452,-0.2439209,0.387701,0.80785847,0.70539796,-0.20500518,0.43245256,0.5822404,0.29162988,-0.45433325,0.21055444,0.0126275495,791.75824,798.20514,807.47253,791.3553,614.87177,-0.052001953125,0.19537353515625,0.9979248046875,0.142059326171875,4.88983154296875,-0.112152099609375,1,1.0,1.0,1.0,1.0,10.00
2024-10-11 20:46:43.104,1.3300353,0.53301877,0.59756076,1.1018637,1.0205768,0.06662314,0.39013147,0.81443167,1.056452,-0.2439209,0.387701,0.80785847,0.70539796,-0.20500518,0.43245256,0.5822404,0.29162988,-0.45433325,0.21055444,0.0126275495,802.6374,799.81683,813.91943,797.3993,720.4396,-0.052001953125,0.19537353515625,0.9979248046875,0.142059326171875,4.88983154296875,-0.112152099609375,1,1.0,1.0,1.0,1.0,10.00
2024-10-11 20:46:43.105,1.3300353,0.53301877,0.59756076,1.1018637,1.0205768,0.06662314,0.39013147,0.81443167,1.056452,-0.2439209,0.387701,0.80785847,0.70539796,-0.20500518,0.43245256,0.5822404,0.29162988,-0.45433325,0.21055444,0.0126275495,798.60803,797.8022,811.0989,805.4579,949.304,-0.052001953125,0.19537353515625,0.9979248046875,0.142059326171875,4.88983154296875,-0.112152099609375,1,1.0,1.0,1.0,1.0,10.00
2024-10-11 20:46:43.105,1.3300353,0.53301877,0.59756076,1.1018637,1.0205768,0.06662314,0.39013147,0.81443167,1.056452,-0.2439209,0.387701,0.80785847,0.70539796,-0.20500518,0.43245256,0.5822404,0.29162988,-0.45433325,0.21055444,0.0126275495,803.44324,798.20514,806.26373,803.44324,805.8608,-0.052001953125,0.19537353515625,0.9979248046875,0.142059326171875,4.88983154296875,-0.112152099609375,1,1.0,1.0,1.0,1.0,10.00
2024-10-11 20:46:43.105,1.3300353,0.53301877,0.59756076,1.1018637,1.0205768,0.06662314,0.39013147,0.81443167,1.056452,-0.2439209,0.387701,0.80785847,0.70539796,-0.20500518,0.43245256,0.5822404,0.29162988,-0.45433325,0.21055444,0.0126275495,805.8608,796.5934,796.99634,803.8461,799.011,-0.052001953125,0.19537353515625,0.9979248046875,0.142059326171875,4.88983154296875,-0.112152099609375,1,1.0,1.0,1.0,1.0,10.00
2024-10-11 20:46:43.106,1.3300353,0.53301877,0.59756076,1.1018637,1.0205768,0.06662314,0.39013147,0.81443167,1.056452,-0.2439209,0.387701,0.80785847,0.70539796,-0.20500518,0.43245256,0.5822404,0.29162988,-0.45433325,0.21055444,0.0126275495,806.26373,793.36993,790.14655,800.2198,1043.1868,-0.052001953125,0.19537353515625,0.9979248046875,0.142059326171875,4.88983154296875,-0.112152099609375,1,1.0,1.0,1.0,1.0,10.00
2024-10-11 20:46:43.106,1.3300353,0.53301877,0.59756076,1.1018637,1.0205768,0.06662314,0.39013147,0.81443167,1.056452,-0.2439209,0.387701,0.80785847,0.70539796,-0.20500518,0.43245256,0.5822404,0.29162988,-0.45433325,0.21055444,0.0126275495,808.68134,799.81683,801.8315,791.75824,975.89746,-0.052001953125,0.19537353515625,0.9979248046875,0.142059326171875,4.88983154296875,-0.112152099609375,1,1.0,1.0,1.0,1.0,10.00
2024-10-11 20:46:43.107,1.3300353,0.53301877,0.59756076,1.1018637,1.0205768,0.06662314,0.39013147,0.81443167,1.056452,-0.2439209,0.387701,0.80785847,0.70539796,-0.20500518,0.43245256,0.5822404,0.29162988,-0.45433325,0.21055444,0.0126275495,792.5641,803.44324,798.20514,793.36993,686.1905,-0.052001953125,0.19537353515625,0.9979248046875,0.142059326171875,4.88983154296875,-0.112152099609375,1,1.0,1.0,1.0,1.0,10.00
2024-10-11 20:46:43.108,1.3300353,0.53301877,0.59756076,1.1018637,1.0205768,0.06662314,0.39013147,0.81443167,1.056452,-0.2439209,0.387701,0.80785847,0.70539796,-0.20500518,0.43245256,0.5822404,0.29162988,-0.45433325,0.21055444,0.0126275495,789.7436,797.3993,791.75824,795.38464,684.17584,-0.052001953125,0.19537353515625,0.9979248046875,0.142059326171875,4.88983154296875,-0.112152099609375,1,1.0,1.0,1.0,1.0,10.00
2024-10-11 20:46:43.108,1.3300353,0.53301877,0.59756076,1.1018637,1.0205768,0.06662314,0.39013147,0.81443167,1.056452,-0.2439209,0.387701,0.80785847,0.70539796,-0.20500518,0.43245256,0.5822404,0.29162988,-0.45433325,0.21055444,0.0126275495,799.81683,793.7729,805.8608,790.54944,861.8681,-0.052001953125,0.19537353515625,0.9979248046875,0.142059326171875,4.88983154296875,-0.112152099609375,1,1.0,1.0,1.0,1.0,10.00
2024-10-11 20:46:43.109,1.3300353,0.53301877,0.59756076,1.1018637,1.0205768,0.06662314,0.39013147,0.81443167,1.056452,-0.2439209,0.387701,0.80785847,0.70539796,-0.20500518,0.43245256,0.5822404,0.29162988,-0.45433325,0.21055444,0.0126275495,799.41394,796.5934,811.50183,784.90845,836.8865,-0.052001953125,0.19537353515625,0.9979248046875,0.142059326171875,4.88983154296875,-0.112152099609375,1,1.0,1.0,1.0,1.0,10.00
2024-10-11 20:46:43.110,1.3300353,0.53301877,0.59756076,1.1018637,1.0205768,0.06662314,0.39013147,0.81443167,1.056452,-0.2439209,0.387701,0.80785847,0.70539796,-0.20500518,0.43245256,0.5822404,0.29162988,-0.45433325,0.21055444,0.0126275495,792.96704,797.3993,807.0696,785.7143,608.8278,-0.0555419921875,0.19580078125,1.00933837890625,-2.61688232421875,5.779571533203125,-1.712188720703125,1,1.0,1.0,1.0,1.0,10.00
2024-10-11 20:46:43.111,1.3300353,0.53301877,0.59756076,1.1018637,1.0205768,0.06662314,0.39013147,0.81443167,1.056452,-0.2439209,0.387701,0.80785847,0.70539796,-0.20500518,0.43245256,0.5822404,0.29162988,-0.45433325,0.21055444,0.0126275495,797.3993,796.1905,796.99634,793.7729,618.49817,-0.0555419921875,0.19580078125,1.00933837890625,-2.61688232421875,5.779571533203125,-1.712188720703125,1,1.0,1.0,1.0,1.0,10.00
2024-10-11 20:46:43.112,1.3300353,0.53301877,0.59756076,1.1018637,1.0205768,0.06662314,0.39013147,0.81443167,1.056452,-0.2439209,0.387701,0.80785847,0.70539796,-0.20500518,0.43245256,0.5822404,0.29162988,-0.45433325,0.21055444,0.0126275495,806.6667,799.41394,786.52014,794.57874,822.381,-0.0555419921875,0.19580078125,1.00933837890625,-2.61688232421875,5.779571533203125,-1.712188720703125,1,1.0,1.0,1.0,1.0,10.00
2024-10-11 20:46:43.112,1.3300353,0.53301877,0.59756076,1.1018637,1.0205768,0.06662314,0.39013147,0.81443167,1.056452,-0.2439209,0.387701,0.80785847,0.70539796,-0.20500518,0.43245256,0.5822404,0.29162988,-0.45433325,0.21055444,0.0126275495,799.81683,801.02563,805.05493,794.17584,815.12823,-0.0555419921875,0.19580078125,1.00933837890625,-2.61688232421875,5.779571533203125,-1.712188720703125,1,1.0,1.0,1.0,1.0,10.00
2024-10-11 20:46:43.113,1.3300353,0.53301877,0.59756076,1.1018637,1.0205768,0.06662314,0.39013147,0.81443167,1.056452,-0.2439209,0.387701,0.80785847,0.70539796,-0.20500518,0.43245256,0.5822404,0.29162988,-0.45433325,0.21055444,0.0126275495,800.6227,796.99634,816.7399,792.96704,548.7912,-0.0555419921875,0.19580078125,1.00933837890625,-2.61688232421875,5.779571533203125,-1.712188720703125,1,1.0,1.0,1.0,1.0,10.00
2024-10-11 20:46:43.114,1.3300353,0.53301877,0.59756076,1.1018637,1.0205768,0.06662314,0.39013147,0.81443167,1.056452,-0.2439209,0.387701,0.80785847,0.70539796,-0.20500518,0.43245256,0.5822404,0.29162988,-0.45433325,0.21055444,0.0126275495,801.4286,795.78754,811.0989,801.8315,634.61536,-0.0555419921875,0.19580078125,1.00933837890625,-2.61688232421875,5.779571533203125,-1.712188720703125,1,1.0,1.0,1.0,1.0,10.00
2024-10-11 20:46:43.115,1.3300353,0.53301877,0.59756076,1.1018637,1.0205768,0.06662314,0.39013147,0.81443167,1.056452,-0.2439209,0.387701,0.80785847,0.70539796,-0.20500518,0.43245256,0.5822404,0.29162988,-0.45433325,0.21055444,0.0126275495,797.8022,801.02563,805.8608,808.68134,915.4579,-0.0555419921875,0.19580078125,1.00933837890625,-2.61688232421875,5.779571533203125,-1.712188720703125,1,1.0,1.0,1.0,1.0,10.00
2024-10-11 20:46:43.115,1.3300353,0.5821406,0.59756076,1.1018637,1.0205768,0.074746504,0.39013147,0.81443167,1.056452,-0.25761217,0.387701,0.80785847,0.70539796,-0.19577518,0.43245256,0.5822404,0.29162988,-0.44089556,0.21055444,0.0126275495,807.47253,804.2491,797.3993,804.65204,868.71796,-0.0555419921875,0.19580078125,1.00933837890625,-2.61688232421875,5.779571533203125,-1.712188720703125,1,1.0,1.0,1.0,1.0,10.00
2024-10-11 20:46:43.121,1.3300353,0.5821406,0.59756076,1.1018637,1.0205768,0.074746504,0.39013147,0.81443167,1.056452,-0.25761217,0.387701,0.80785847,0.70539796,-0.19577518,0.43245256,0.5822404,0.29162988,-0.44089556,0.21055444,0.0126275495,816.337,801.8315,792.96704,795.78754,552.01465,-0.0555419921875,0.19580078125,1.00933837890625,-2.61688232421875,5.779571533203125,-1.712188720703125,1,1.0,1.0,1.0,1.0,10.00
2024-10-11 20:46:43.122,1.3300353,0.5821406,0.59756076,1.1018637,1.0205768,0.074746504,0.39013147,0.81443167,1.056452,-0.25761217,0.387701,0.80785847,0.70539796,-0.19577518,0.43245256,0.5822404,0.29162988,-0.44089556,0.21055444,0.0126275495,813.1135,799.81683,796.99634,798.60803,576.99634,-0.0555419921875,0.19580078125,1.00933837890625,-2.61688232421875,5.779571533203125,-1.712188720703125,1,1.0,1.0,1.0,1.0,10.00
2024-10-11 20:46:43.123,1.3300353,0.5821406,0.59756076,1.1018637,1.0205768,0.074746504,0.39013147,0.81443167,1.056452,-0.25761217,0.387701,0.80785847,0.70539796,-0.19577518,0.43245256,0.5822404,0.29162988,-0.44089556,0.21055444,0.0126275495,800.6227,798.60803,809.89014,805.4579,794.9817,-0.0555419921875,0.19580078125,1.00933837890625,-2.61688232421875,5.779571533203125,-1.712188720703125,1,1.0,1.0,1.0,1.0,10.00
2024-10-11 20:46:43.124,1.3300353,0.5821406,0.59756076,1.1018637,1.0205768,0.074746504,0.39013147,0.81443167,1.056452,-0.25761217,0.387701,0.80785847,0.70539796,-0.19577518,0.43245256,0.5822404,0.29162988,-0.44089556,0.21055444,0.0126275495,798.60803,796.1905,811.0989,789.34064,763.95605,-0.0555419921875,0.19580078125,1.00933837890625,-2.61688232421875,5.779571533203125,-1.712188720703125,1,1.0,1.0,1.0,1.0,10.00
2024-10-11 20:46:43.192,1.3300353,0.5821406,0.59756076,1.1018637,1.0205768,0.074746504,0.39013147,0.81443167,1.056452,-0.25761217,0.387701,0.80785847,0.70539796,-0.19577518,0.43245256,0.5822404,0.29162988,-0.44089556,0.21055444,0.0126275495,807.0696,794.17584,803.0403,775.2381,654.7619,-0.06854248046875,0.18756103515625,1.00848388671875,-7.67120361328125,6.018829345703125,-1.5252685546875,1,1.0,1.0,1.0,1.0,10.00
2024-10-11 20:46:43.194,1.3300353,0.5821406,0.59756076,1.1018637,1.0205768,0.074746504,0.39013147,0.81443167,1.056452,-0.25761217,0.387701,0.80785847,0.70539796,-0.19577518,0.43245256,0.5822404,0.29162988,-0.44089556,0.21055444,0.0126275495,805.4579,794.57874,806.26373,788.5348,637.8388,-0.06854248046875,0.18756103515625,1.00848388671875,-7.67120361328125,6.018829345703125,-1.5252685546875,1,1.0,1.0,1.0,1.0,10.00
2024-10-11 20:46:43.194,1.3300353,0.5821406,0.59756076,1.1018637,1.0205768,0.074746504,0.39013147,0.81443167,1.056452,-0.25761217,0.387701,0.80785847,0.70539796,-0.19577518,0.43245256,0.5822404,0.29162988,-0.44089556,0.21055444,0.0126275495,807.8755,796.1905,808.68134,803.0403,984.35895,-0.06854248046875,0.18756103515625,1.00848388671875,-7.67120361328125,6.018829345703125,-1.5252685546875,1,1.0,1.0,1.0,1.0,10.00
2024-10-11 20:46:43.195,1.3300353,0.5821406,0.59756076,1.1018637,1.0205768,0.074746504,0.39013147,0.81443167,1.056452,-0.25761217,0.387701,0.80785847,0.70539796,-0.19577518,0.43245256,0.5822404,0.29162988,-0.44089556,0.21055444,0.0126275495,812.3077,799.011,803.44324,794.9817,894.90845,-0.06854248046875,0.18756103515625,1.00848388671875,-7.67120361328125,6.018829345703125,-1.5252685546875,1,1.0,1.0,1.0,1.0,10.00
2024-10-11 20:46:43.196,1.3300353,0.5821406,0.59756076,1.1018637,1.0205768,0.074746504,0.39013147,0.81443167,1.056452,-0.25761217,0.387701,0.80785847,0.70539796,-0.19577518,0.43245256,0.5822404,0.29162988,-0.44089556,0.21055444,0.0126275495,807.8755,801.4286,791.3553,790.54944,503.26007,-0.06854248046875,0.18756103515625,1.00848388671875,-7.67120361328125,6.018829345703125,-1.5252685546875,1,1.0,1.0,1.0,1.0,10.00
2024-10-11 20:46:43.196,1.3300353,0.5821406,0.59756076,1.1018637,1.0205768,0.074746504,0.39013147,0.81443167,1.056452,-0.25761217,0.387701,0.80785847,0.70539796,-0.19577518,0.43245256,0.5822404,0.29162988,-0.44089556,0.21055444,0.0126275495,805.4579,800.2198,795.78754,799.81683,717.2161,-0.06854248046875,0.18756103515625,1.00848388671875,-7.67120361328125,6.018829345703125,-1.5252685546875,1,1.0,1.0,1.0,1.0,10.00
2024-10-11 20:46:43.197,1.3300353,0.5821406,0.59756076,1.1018637,1.0205768,0.074746504,0.39013147,0.81443167,1.056452,-0.25761217,0.387701,0.80785847,0.70539796,-0.19577518,0.43245256,0.5822404,0.29162988,-0.44089556,0.21055444,0.0126275495,806.26373,793.7729,804.2491,810.696,1172.9304,-0.06854248046875,0.18756103515625,1.00848388671875,-7.67120361328125,6.018829345703125,-1.5252685546875,1,1.0,1.0,1.0,1.0,10.00
2024-10-11 20:46:43.198,1.3300353,0.5821406,0.59756076,1.1018637,1.0205768,0.074746504,0.39013147,0.81443167,1.056452,-0.25761217,0.387701,0.80785847,0.70539796,-0.19577518,0.43245256,0.5822404,0.29162988,-0.44089556,0.21055444,0.0126275495,805.05493,792.96704,793.7729,812.3077,1154.7986,-0.06854248046875,0.18756103515625,1.00848388671875,-7.67120361328125,6.018829345703125,-1.5252685546875,1,1.0,1.0,1.0,1.0,10.00
2024-10-11 20:46:43.199,1.3300353,0.5821406,0.59756076,1.1018637,1.0205768,0.074746504,0.39013147,0.81443167,1.056452,-0.25761217,0.387701,0.80785847,0.70539796,-0.19577518,0.43245256,0.5822404,0.29162988,-0.44089556,0.21055444,0.0126275495,807.8755,796.5934,787.72894,801.8315,666.8498,-0.06854248046875,0.18756103515625,1.00848388671875,-7.67120361328125,6.018829345703125,-1.5252685546875,1,1.0,1.0,1.0,1.0,10.00
2024-10-11 20:46:43.199,1.3300353,0.5821406,0.59756076,1.1018637,1.0205768,0.074746504,0.39013147,0.81443167,1.056452,-0.25761217,0.387701,0.80785847,0.70539796,-0.19577518,0.43245256,0.5822404,0.29162988,-0.44089556,0.21055444,0.0126275495,807.8755,796.1905,790.9524,792.96704,496.8132,-0.06854248046875,0.18756103515625,1.00848388671875,-7.67120361328125,6.018829345703125,-1.5252685546875,1,1.0,1.0,1.0,1.0,10.00
2024-10-11 20:46:43.200,1.3300353,0.5821406,0.59756076,1.1018637,1.0205768,0.074746504,0.39013147,0.81443167,1.056452,-0.25761217,0.387701,0.80785847,0.70539796,-0.19577518,0.43245256,0.5822404,0.29162988,-0.44089556,0.21055444,0.0126275495,798.20514,794.9817,805.8608,799.011,570.9524,-0.06854248046875,0.18756103515625,1.00848388671875,-7.67120361328125,6.018829345703125,-1.5252685546875,1,1.0,1.0,1.0,1.0,10.00
2024-10-11 20:46:43.201,1.3300353,0.5821406,0.59756076,1.1018637,1.0205768,0.074746504,0.39013147,0.81443167,1.056452,-0.25761217,0.387701,0.80785847,0.70539796,-0.19577518,0.43245256,0.5822404,0.29162988,-0.44089556,0.21055444,0.0126275495,795.78754,794.57874,816.7399,802.23444,535.09155,-0.06854248046875,0.18756103515625,1.00848388671875,-7.67120361328125,6.018829345703125,-1.5252685546875,1,1.0,1.0,1.0,1.0,10.00
2024-10-11 20:46:43.230,1.3300353,0.5821406,0.59756076,1.1018637,1.0205768,0.074746504,0.39013147,0.81443167,1.056452,-0.25761217,0.387701,0.80785847,0.70539796,-0.19577518,0.43245256,0.5822404,0.29162988,-0.44089556,0.21055444,0.0126275495,797.3993,796.1905,815.5311,798.60803,539.5238,-0.06854248046875,0.18756103515625,1.00848388671875,-7.67120361328125,6.018829345703125,-1.5252685546875,1,1.0,1.0,1.0,1.0,10.00
2024-10-11 20:46:43.232,1.3300353,0.5821406,0.59756076,1.1018637,1.0205768,0.074746504,0.39013147,0.81443167,1.056452,-0.25761217,0.387701,0.80785847,0.70539796,-0.19577518,0.43245256,0.5822404,0.29162988,-0.44089556,0.21055444,0.0126275495,794.9817,796.99634,813.91943,807.0696,597.1429,-0.06854248046875,0.18756103515625,1.00848388671875,-7.67120361328125,6.018829345703125,-1.5252685546875,1,1.0,1.0,1.0,1.0,10.00
2024-10-11 20:46:43.232,1.3300353,0.5821406,0.59756076,1.1018637,1.0205768,0.074746504,0.39013147,0.81443167,1.056452,-0.25761217,0.387701,0.80785847,0.70539796,-0.19577518,0.43245256,0.5822404,0.29162988,-0.44089556,0.21055444,0.0126275495,795.38464,796.5934,811.50183,810.696,681.75824,-0.06854248046875,0.18756103515625,1.00848388671875,-7.67120361328125,6.018829345703125,-1.5252685546875,1,1.0,1.0,1.0,1.0,10.00
2024-10-11 20:46:43.233,1.3300353,0.5821406,0.59756076,1.1018637,1.0205768,0.074746504,0.39013147,0.81443167,1.056452,-0.25761217,0.387701,0.80785847,0.70539796,-0.19577518,0.43245256,0.5822404,0.29162988,-0.44089556,0.21055444,0.0126275495,795.38464,796.99634,809.4872,806.26373,674.10254,-0.06854248046875,0.18756103515625,1.00848388671875,-7.67120361328125,6.018829345703125,-1.5252685546875,1,1.0,1.0,1.0,1.0,10.00
2024-10-11 20:46:43.234,1.3300353,0.5821406,0.59756076,1.1018637,1.0205768,0.074746504,0.39013147,0.81443167,1.056452,-0.25761217,0.387701,0.80785847,0.70539796,-0.19577518,0.43245256,0.5822404,0.29162988,-0.44089556,0.21055444,0.0126275495,792.96704,800.6227,805.8608,803.0403,572.5641,-0.06854248046875,0.18756103515625,1.00848388671875,-7.67120361328125,6.018829345703125,-1.5252685546875,1,1.0,1.0,1.0,1.0,10.00
2024-10-11 20:46:43.234,1.3300353,0.5821406,0.59756076,1.1018637,1.0205768,0.074746504,0.39013147,0.81443167,1.056452,-0.25761217,0.387701,0.80785847,0.70539796,-0.19577518,0.43245256,0.5822404,0.29162988,-0.44089556,0.21055444,0.0126275495,789.7436,799.41394,803.8461,805.8608,875.56775,-0.06854248046875,0.18756103515625,1.00848388671875,-7.67120361328125,6.018829345703125,-1.5252685546875,1,1.0,1.0,1.0,1.0,10.00
2024-10-11 20:46:43.235,1.3300353,0.5821406,0.59756076,1.1018637,1.0205768,0.074746504,0.39013147,0.81443167,1.056452,-0.25761217,0.387701,0.80785847,0.70539796,-0.19577518,0.43245256,0.5822404,0.29162988,-0.44089556,0.21055444,0.0126275495,799.41394,797.8022,800.6227,807.8755,833.2601,-0.06854248046875,0.18756103515625,1.00848388671875,-7.67120361328125,6.018829345703125,-1.5252685546875,1,1.0,1.0,1.0,1.0,10.00
2024-10-11 20:46:43.236,1.3300353,0.5821406,0.59756076,1.1018637,1.0205768,0.074746504,0.39013147,0.81443167,1.056452,-0.25761217,0.387701,0.80785847,0.70539796,-0.19577518,0.43245256,0.5822404,0.29162988,-0.44089556,0.21055444,0.0126275495,803.0403,800.6227,794.57874,804.65204,464.9817,-0.06854248046875,0.18756103515625,1.00848388671875,-7.67120361328125,6.018829345703125,-1.5252685546875,1,1.0,1.0,1.0,1.0,10.00
2024-10-11 20:46:43.237,1.3300353,0.5821406,0.59756076,1.1018637,1.0205768,0.074746504,0.39013147,0.81443167,1.056452,-0.25761217,0.387701,0.80785847,0.70539796,-0.19577518,0.43245256,0.5822404,0.29162988,-0.44089556,0.21055444,0.0126275495,796.1905,797.3993,792.1612,801.4286,480.69598,-0.06854248046875,0.18756103515625,1.00848388671875,-7.67120361328125,6.018829345703125,-1.5252685546875,1,1.0,1.0,1.0,1.0,10.00
2024-10-11 20:46:43.238,1.3632559,0.6162244,0.5849579,1.1125798,1.0455033,0.05327575,0.37814108,0.7596193,1.0442863,-0.25235507,0.375662,0.76582193,0.7075505,-0.17181945,0.4195989,0.5966876,0.31063038,-0.42557037,0.20709015,0.03749153,796.99634,796.99634,782.8938,790.9524,602.381,-0.06854248046875,0.18756103515625,1.00848388671875,-7.67120361328125,6.018829345703125,-1.5252685546875,1,1.0,1.0,1.0,1.0,10.00
2024-10-11 20:46:43.244,1.3632559,0.6162244,0.5849579,1.1125798,1.0455033,0.05327575,0.37814108,0.7596193,1.0442863,-0.25235507,0.375662,0.76582193,0.7075505,-0.17181945,0.4195989,0.5966876,0.31063038,-0.42557037,0.20709015,0.03749153,794.9817,801.8315,783.69965,789.7436,588.2784,-0.06854248046875,0.18756103515625,1.00848388671875,-7.67120361328125,6.018829345703125,-1.5252685546875,1,1.0,1.0,1.0,1.0,10.00
2024-10-11 20:46:43.244,1.3632559,0.6162244,0.5849579,1.1125798,1.0455033,0.05327575,0.37814108,0.7596193,1.0442863,-0.25235507,0.375662,0.76582193,0.7075505,-0.17181945,0.4195989,0.5966876,0.31063038,-0.42557037,0.20709015,0.03749153,795.38464,800.2198,805.8608,790.54944,466.99634,-0.06854248046875,0.18756103515625,1.00848388671875,-7.67120361328125,6.018829345703125,-1.5252685546875,1,1.0,1.0,1.0,1.0,10.00
2024-10-11 20:46:43.309,1.3632559,0.6162244,0.5849579,1.1125798,1.0455033,0.05327575,0.37814108,0.7596193,1.0442863,-0.25235507,0.375662,0.76582193,0.7075505,-0.17181945,0.4195989,0.5966876,0.31063038,-0.42557037,0.20709015,0.03749153,807.0696,795.78754,812.71063,798.20514,603.9927,-0.08392333984375,0.1663818359375,1.00518798828125,-13.218994140625,7.8955078125,-1.24114990234375,1,1.0,1.0,1.0,1.0,10.00
2024-10-11 20:46:43.311,1.3632559,0.6162244,0.5849579,1.1125798,1.0455033,0.05327575,0.37814108,0.7596193,1.0442863,-0.25235507,0.375662,0.76582193,0.7075505,-0.17181945,0.4195989,0.5966876,0.31063038,-0.42557037,0.20709015,0.03749153,822.7839,799.81683,807.8755,815.12823,795.78754,-0.08392333984375,0.1663818359375,1.00518798828125,-13.218994140625,7.8955078125,-1.24114990234375,1,1.0,1.0,1.0,1.0,10.00
2024-10-11 20:46:43.311,1.3632559,0.6162244,0.5849579,1.1125798,1.0455033,0.05327575,0.37814108,0.7596193,1.0442863,-0.25235507,0.375662,0.76582193,0.7075505,-0.17181945,0.4195989,0.5966876,0.31063038,-0.42557037,0.20709015,0.03749153,818.3516,805.8608,809.89014,803.0403,569.7436,-0.08392333984375,0.1663818359375,1.00518798828125,-13.218994140625,7.8955078125,-1.24114990234375,1,1.0,1.0,1.0,1.0,10.00
2024-10-11 20:46:43.312,1.3632559,0.6162244,0.5849579,1.1125798,1.0455033,0.05327575,0.37814108,0.7596193,1.0442863,-0.25235507,0.375662,0.76582193,0.7075505,-0.17181945,0.4195989,0.5966876,0.31063038,-0.42557037,0.20709015,0.03749153,796.5934,802.23444,807.8755,788.5348,520.989,-0.08392333984375,0.1663818359375,1.00518798828125,-13.218994140625,7.8955078125,-1.24114990234375,1,1.0,1.0,1.0,1.0,10.00
2024-10-11 20:46:43.313,1.3632559,0.6162244,0.5849579,1.1125798,1.0455033,0.05327575,0.37814108,0.7596193,1.0442863,-0.25235507,0.375662,0.76582193,0.7075505,-0.17181945,0.4195989,0.5966876,0.31063038,-0.42557037,0.20709015,0.03749153,799.41394,791.75824,806.26373,805.4579,729.707,-0.08392333984375,0.1663818359375,1.00518798828125,-13.218994140625,7.8955078125,-1.24114990234375,1,1.0,1.0,1.0,1.0,10.00
2024-10-11 20:46:43.314,1.3632559,0.6162244,0.5849579,1.1125798,1.0455033,0.05327575,0.37814108,0.7596193,1.0442863,-0.25235507,0.375662,0.76582193,0.7075505,-0.17181945,0.4195989,0.5966876,0.31063038,-0.42557037,0.20709015,0.03749153,804.2491,791.3553,802.6374,811.0989,783.2967,-0.08392333984375,0.1663818359375,1.00518798828125,-13.218994140625,7.8955078125,-1.24114990234375,1,1.0,1.0,1.0,1.0,10.00
2024-10-11 20:46:43.314,1.3632559,0.6162244,0.5849579,1.1125798,1.0455033,0.05327575,0.37814108,0.7596193,1.0442863,-0.25235507,0.375662,0.76582193,0.7075505,-0.17181945,0.4195989,0.5966876,0.31063038,-0.42557037,0.20709015,0.03749153,793.7729,796.99634,797.8022,792.1612,758.71796,-0.08392333984375,0.1663818359375,1.00518798828125,-13.218994140625,7.8955078125,-1.24114990234375,1,1.0,1.0,1.0,1.0,10.00
2024-10-11 20:46:43.315,1.3632559,0.6162244,0.5849579,1.1125798,1.0455033,0.05327575,0.37814108,0.7596193,1.0442863,-0.25235507,0.375662,0.76582193,0.7075505,-0.17181945,0.4195989,0.5966876,0.31063038,-0.42557037,0.20709015,0.03749153,792.5641,793.36993,803.0403,794.17584,763.1502,-0.08392333984375,0.1663818359375,1.00518798828125,-13.218994140625,7.8955078125,-1.24114990234375,1,1.0,1.0,1.0,1.0,10.00
2024-10-11 20:46:43.316,1.3632559,0.6162244,0.5849579,1.1125798,1.0455033,0.05327575,0.37814108,0.7596193,1.0442863,-0.25235507,0.375662,0.76582193,0.7075505,-0.17181945,0.4195989,0.5966876,0.31063038,-0.42557037,0.20709015,0.03749153,804.2491,794.17584,802.6374,809.0842,945.6777,-0.08392333984375,0.1663818359375,1.00518798828125,-13.218994140625,7.8955078125,-1.24114990234375,1,1.0,1.0,1.0,1.0,10.00
2024-10-11 20:46:43.317,1.3632559,0.6162244,0.5849579,1.1125798,1.0455033,0.05327575,0.37814108,0.7596193,1.0442863,-0.25235507,0.375662,0.76582193,0.7075505,-0.17181945,0.4195989,0.5966876,0.31063038,-0.42557037,0.20709015,0.03749153,799.011,800.6227,799.011,809.0842,1028.2784,-0.08392333984375,0.1663818359375,1.00518798828125,-13.218994140625,7.8955078125,-1.24114990234375,1,1.0,1.0,1.0,1.0,10.00
2024-10-11 20:46:43.318,1.3632559,0.6162244,0.5849579,1.1125798,1.0455033,0.05327575,0.37814108,0.7596193,1.0442863,-0.25235507,0.375662,0.76582193,0.7075505,-0.17181945,0.4195989,0.5966876,0.31063038,-0.42557037,0.20709015,0.03749153,792.1612,805.4579,800.6227,790.54944,796.5934,-0.08392333984375,0.1663818359375,1.00518798828125,-13.218994140625,7.8955078125,-1.24114990234375,1,1.0,1.0,1.0,1.0,10.00
2024-10-11 20:46:43.318,1.3632559,0.6162244,0.5849579,1.1125798,1.0455033,0.05327575,0.37814108,0.7596193,1.0442863,-0.25235507,0.375662,0.76582193,0.7075505,-0.17181945,0.4195989,0.5966876,0.31063038,-0.42557037,0.20709015,0.03749153,791.75824,805.05493,786.1172,786.9231,707.9487,-0.08392333984375,0.1663818359375,1.00518798828125,-13.218994140625,7.8955078125,-1.24114990234375,1,1.0,1.0,1.0,1.0,10.00
2024-10-11 20:46:43.349,1.3632559,0.6162244,0.5849579,1.1125798,1.0455033,0.05327575,0.37814108,0.7596193,1.0442863,-0.25235507,0.375662,0.76582193,0.7075505,-0.17181945,0.4195989,0.5966876,0.31063038,-0.42557037,0.20709015,0.03749153,787.326,800.2198,780.4762,794.17584,933.5897,-0.108154296875,0.1337890625,0.99560546875,-15.50689697265625,7.94036865234375,-1.45050048828125,1,1.0,1.0,1.0,1.0,10.00
2024-10-11 20:46:43.350,1.3632559,0.6162244,0.5849579,1.1125798,1.0455033,0.05327575,0.37814108,0.7596193,1.0442863,-0.25235507,0.375662,0.76582193,0.7075505,-0.17181945,0.4195989,0.5966876,0.31063038,-0.42557037,0.20709015,0.03749153,789.7436,794.9817,801.02563,794.57874,1019.81683,-0.108154296875,0.1337890625,0.99560546875,-15.50689697265625,7.94036865234375,-1.45050048828125,1,1.0,1.0,1.0,1.0,10.00
2024-10-11 20:46:43.351,1.3632559,0.6162244,0.5849579,1.1125798,1.0455033,0.05327575,0.37814108,0.7596193,1.0442863,-0.25235507,0.375662,0.76582193,0.7075505,-0.17181945,0.4195989,0.5966876,0.31063038,-0.42557037,0.20709015,0.03749153,799.41394,797.8022,811.0989,789.7436,684.17584,-0.108154296875,0.1337890625,0.99560546875,-15.50689697265625,7.94036865234375,-1.45050048828125,1,1.0,1.0,1.0,1.0,10.00
2024-10-11 20:46:43.351,1.3632559,0.6162244,0.5849579,1.1125798,1.0455033,0.05327575,0.37814108,0.7596193,1.0442863,-0.25235507,0.375662,0.76582193,0.7075505,-0.17181945,0.4195989,0.5966876,0.31063038,-0.42557037,0.20709015,0.03749153,803.44324,800.2198,819.15753,792.96704,630.58606,-0.108154296875,0.1337890625,0.99560546875,-15.50689697265625,7.94036865234375,-1.45050048828125,1,1.0,1.0,1.0,1.0,10.00
2024-10-11 20:46:43.352,1.3632559,0.6162244,0.5849579,1.1125798,1.0455033,0.05327575,0.37814108,0.7596193,1.0442863,-0.25235507,0.375662,0.76582193,0.7075505,-0.17181945,0.4195989,0.5966876,0.31063038,-0.42557037,0.20709015,0.03749153,795.38464,802.23444,815.9341,801.02563,708.3516,-0.108154296875,0.1337890625,0.99560546875,-15.50689697265625,7.94036865234375,-1.45050048828125,1,1.0,1.0,1.0,1.0,10.00
2024-10-11 20:46:43.353,1.3632559,0.6162244,0.5849579,1.1125798,1.0455033,0.05327575,0.37814108,0.7596193,1.0442863,-0.25235507,0.375662,0.76582193,0.7075505,-0.17181945,0.4195989,0.5966876,0.31063038,-0.42557037,0.20709015,0.03749153,795.78754,802.6374,809.4872,797.8022,857.4359,-0.108154296875,0.1337890625,0.99560546875,-15.50689697265625,7.94036865234375,-1.45050048828125,1,1.0,1.0,1.0,1.0,10.00
2024-10-11 20:46:43.354,1.3632559,0.6162244,0.5849579,1.1125798,1.0455033,0.05327575,0.37814108,0.7596193,1.0442863,-0.25235507,0.375662,0.76582193,0.7075505,-0.17181945,0.4195989,0.5966876,0.31063038,-0.42557037,0.20709015,0.03749153,792.5641,795.38464,811.0989,795.78754,872.74725,-0.108154296875,0.1337890625,0.99560546875,-15.50689697265625,7.94036865234375,-1.45050048828125,1,1.0,1.0,1.0,1.0,10.00
2024-10-11 20:46:43.355,1.3632559,0.6162244,0.5849579,1.1125798,1.0455033,0.05327575,0.37814108,0.7596193,1.0442863,-0.25235507,0.375662,0.76582193,0.7075505,-0.17181945,0.4195989,0.5966876,0.31063038,-0.42557037,0.20709015,0.03749153,790.9524,792.96704,807.8755,797.3993,680.14655,-0.108154296875,0.1337890625,0.99560546875,-15.50689697265625,7.94036865234375,-1.45050048828125,1,1.0,1.0,1.0,1.0,10.00
2024-10-11 20:46:43.356,1.3632559,0.6162244,0.5849579,1.1125798,1.0455033,0.05327575,0.37814108,0.7596193,1.0442863,-0.25235507,0.375662,0.76582193,0.7075505,-0.17181945,0.4195989,0.5966876,0.31063038,-0.42557037,0.20709015,0.03749153,799.011,792.1612,803.8461,799.81683,737.3626,-0.108154296875,0.1337890625,0.99560546875,-15.50689697265625,7.94036865234375,-1.45050048828125,1,1.0,1.0,1.0,1.0,10.00
2024-10-11 20:46:43.357,1.3632559,0.6162244,0.5849579,1.1125798,1.0455033,0.05327575,0.37814108,0.7596193,1.0442863,-0.25235507,0.375662,0.76582193,0.7075505,-0.17181945,0.4195989,0.5966876,0.31063038,-0.42557037,0.20709015,0.03749153,803.44324,795.78754,804.2491,802.23444,668.46155,-0.108154296875,0.1337890625,0.99560546875,-15.50689697265625,7.94036865234375,-1.45050048828125,1,1.0,1.0,1.0,1.0,10.00
2024-10-11 20:46:43.357,1.3632559,0.6162244,0.5849579,1.1125798,1.0455033,0.05327575,0.37814108,0.7596193,1.0442863,-0.25235507,0.375662,0.76582193,0.7075505,-0.17181945,0.4195989,0.5966876,0.31063038,-0.42557037,0.20709015,0.03749153,800.6227,796.99634,800.6227,795.78754,490.3663,-0.108154296875,0.1337890625,0.99560546875,-15.50689697265625,7.94036865234375,-1.45050048828125,1,1.0,1.0,1.0,1.0,10.00
2024-10-11 20:46:43.358,1.4030192,0.62477255,0.5609548,1.1125798,1.087881,0.0063591595,0.34616578,0.7596193,1.0414593,-0.23549145,0.28310028,0.76582193,0.71412915,-0.1405942,0.41236523,0.5966876,0.33012056,-0.41453433,0.19663243,0.03749153,800.6227,797.3993,801.8315,790.54944,609.6337,-0.108154296875,0.1337890625,0.99560546875,-15.50689697265625,7.94036865234375,-1.45050048828125,1,1.0,1.0,1.0,1.0,10.00
2024-10-11 20:46:43.364,1.4030192,0.62477255,0.5609548,1.1125798,1.087881,0.0063591595,0.34616578,0.7596193,1.0414593,-0.23549145,0.28310028,0.76582193,0.71412915,-0.1405942,0.41236523,0.5966876,0.33012056,-0.41453433,0.19663243,0.03749153,805.8608,798.20514,803.44324,800.6227,754.2857,-0.12139892578125,0.10302734375,0.988525390625,-15.305023193359375,5.854339599609375,-3.536529541015625,1,1.0,1.0,1.0,1.0,10.00
2024-10-11 20:46:43.365,1.4030192,0.62477255,0.5609548,1.1125798,1.087881,0.0063591595,0.34616578,0.7596193,1.0414593,-0.23549145,0.28310028,0.76582193,0.71412915,-0.1405942,0.41236523,0.5966876,0.33012056,-0.41453433,0.19663243,0.03749153,815.5311,796.99634,801.4286,805.8608,708.3516,-0.12139892578125,0.10302734375,0.988525390625,-15.305023193359375,5.854339599609375,-3.536529541015625,1,1.0,1.0,1.0,1.0,10.00
2024-10-11 20:46:43.366,1.4030192,0.62477255,0.5609548,1.1125798,1.087881,0.0063591595,0.34616578,0.7596193,1.0414593,-0.23549145,0.28310028,0.76582193,0.71412915,-0.1405942,0.41236523,0.5966876,0.33012056,-0.41453433,0.19663243,0.03749153,817.1429,796.5934,801.4286,803.8461,603.5897,-0.12139892578125,0.10302734375,0.988525390625,-15.305023193359375,5.854339599609375,-3.536529541015625,1,1.0,1.0,1.0,1.0,10.00
2024-10-11 20:46:43.366,1.4030192,0.62477255,0.5609548,1.1125798,1.087881,0.0063591595,0.34616578,0.7596193,1.0414593,-0.23549145,0.28310028,0.76582193,0.71412915,-0.1405942,0.41236523,0.5966876,0.33012056,-0.41453433,0.19663243,0.03749153,811.0989,796.1905,806.26373,807.8755,699.89014,-0.12139892578125,0.10302734375,0.988525390625,-15.305023193359375,5.854339599609375,-3.536529541015625,1,1.0,1.0,1.0,1.0,10.00
2024-10-11 20:46:43.367,1.4030192,0.62477255,0.5609548,1.1125798,1.087881,0.0063591595,0.34616578,0.7596193,1.0414593,-0.23549145,0.28310028,0.76582193,0.71412915,-0.1405942,0.41236523,0.5966876,0.33012056,-0.41453433,0.19663243,0.03749153,811.9048,795.38464,806.6667,816.337,782.49084,-0.12139892578125,0.10302734375,0.988525390625,-15.305023193359375,5.854339599609375,-3.536529541015625,1,1.0,1.0,1.0,1.0,10.00
2024-10-11 20:46:43.368,1.4030192,0.62477255,0.5609548,1.1125798,1.087881,0.0063591595,0.34616578,0.7596193,1.0414593,-0.23549145,0.28310028,0.76582193,0.71412915,-0.1405942,0.41236523,0.5966876,0.33012056,-0.41453433,0.19663243,0.03749153,815.12823,795.78754,809.0842,811.9048,708.3516,-0.12139892578125,0.10302734375,0.988525390625,-15.305023193359375,5.854339599609375,-3.536529541015625,1,1.0,1.0,1.0,1.0,10.00
2024-10-11 20:46:43.369,1.4030192,0.62477255,0.5609548,1.1125798,1.087881,0.0063591595,0.34616578,0.7596193,1.0414593,-0.23549145,0.28310028,0.76582193,0.71412915,-0.1405942,0.41236523,0.5966876,0.33012056,-0.41453433,0.19663243,0.03749153,813.1135,797.3993,809.0842,806.6667,774.83514,-0.12139892578125,0.10302734375,0.988525390625,-15.305023193359375,5.854339599609375,-3.536529541015625,1,1.0,1.0,1.0,1.0,10.00
2024-10-11 20:46:43.369,1.4030192,0.62477255,0.5609548,1.1125798,1.087881,0.0063591595,0.34616578,0.7596193,1.0414593,-0.23549145,0.28310028,0.76582193,0.71412915,-0.1405942,0.41236523,0.5966876,0.33012056,-0.41453433,0.19663243,0.03749153,812.71063,796.5934,807.47253,817.9487,865.09155,-0.12139892578125,0.10302734375,0.988525390625,-15.305023193359375,5.854339599609375,-3.536529541015625,1,1.0,1.0,1.0,1.0,10.00
2024-10-11 20:46:43.370,1.4030192,0.62477255,0.5609548,1.1125798,1.087881,0.0063591595,0.34616578,0.7596193,1.0414593,-0.23549145,0.28310028,0.76582193,0.71412915,-0.1405942,0.41236523,0.5966876,0.33012056,-0.41453433,0.19663243,0.03749153,809.89014,796.5934,799.41394,817.1429,1011.3553,-0.12139892578125,0.10302734375,0.988525390625,-15.305023193359375,5.854339599609375,-3.536529541015625,1,1.0,1.0,1.0,1.0,10.00
2024-10-11 20:46:43.371,1.4030192,0.62477255,0.5609548,1.1125798,1.087881,0.0063591595,0.34616578,0.7596193,1.0414593,-0.23549145,0.28310028,0.76582193,0.71412915,-0.1405942,0.41236523,0.5966876,0.33012056,-0.41453433,0.19663243,0.03749153,810.696,798.20514,796.5934,803.8461,810.293,-0.12139892578125,0.10302734375,0.988525390625,-15.305023193359375,5.854339599609375,-3.536529541015625,1,1.0,1.0,1.0,1.0,10.00
2024-10-11 20:46:43.371,1.4030192,0.62477255,0.5609548,1.1125798,1.087881,0.0063591595,0.34616578,0.7596193,1.0414593,-0.23549145,0.28310028,0.76582193,0.71412915,-0.1405942,0.41236523,0.5966876,0.33012056,-0.41453433,0.19663243,0.03749153,808.2784,795.38464,796.99634,801.02563,601.978,-0.12139892578125,0.10302734375,0.988525390625,-15.305023193359375,5.854339599609375,-3.536529541015625,1,1.0,1.0,1.0,1.0,10.00
2024-10-11 20:46:43.372,1.4030192,0.62477255,0.5609548,1.1125798,1.087881,0.0063591595,0.34616578,0.7596193,1.0414593,-0.23549145,0.28310028,0.76582193,0.71412915,-0.1405942,0.41236523,0.5966876,0.33012056,-0.41453433,0.19663243,0.03749153,804.65204,793.7729,802.6374,808.68134,794.17584,-0.12139892578125,0.10302734375,0.988525390625,-15.305023193359375,5.854339599609375,-3.536529541015625,1,1.0,1.0,1.0,1.0,10.00
2024-10-11 20:46:43.404,1.4030192,0.62477255,0.5609548,1.1125798,1.087881,0.0063591595,0.34616578,0.7596193,1.0414593,-0.23549145,0.28310028,0.76582193,0.71412915,-0.1405942,0.41236523,0.5966876,0.33012056,-0.41453433,0.19663243,0.03749153,811.9048,795.78754,803.0403,816.337,776.4469,-0.12591552734375,0.068603515625,0.99578857421875,-15.08819580078125,3.416900634765625,-6.467437744140625,1,1.0,1.0,1.0,1.0,10.00
2024-10-11 20:46:43.405,1.4030192,0.62477255,0.5609548,1.1125798,1.087881,0.0063591595,0.34616578,0.7596193,1.0414593,-0.23549145,0.28310028,0.76582193,0.71412915,-0.1405942,0.41236523,0.5966876,0.33012056,-0.41453433,0.19663243,0.03749153,803.8461,795.78754,798.20514,813.5165,595.12823,-0.12591552734375,0.068603515625,0.99578857421875,-15.08819580078125,3.416900634765625,-6.467437744140625,1,1.0,1.0,1.0,1.0,10.00
2024-10-11 20:46:43.406,1.4030192,0.62477255,0.5609548,1.1125798,1.087881,0.0063591595,0.34616578,0.7596193,1.0414593,-0.23549145,0.28310028,0.76582193,0.71412915,-0.1405942,0.41236523,0.5966876,0.33012056,-0.41453433,0.19663243,0.03749153,797.8022,792.1612,812.3077,801.8315,618.49817,-0.12591552734375,0.068603515625,0.99578857421875,-15.08819580078125,3.416900634765625,-6.467437744140625,1,1.0,1.0,1.0,1.0,10.00
2024-10-11 20:46:43.406,1.4030192,0.62477255,0.5609548,1.1125798,1.087881,0.0063591595,0.34616578,0.7596193,1.0414593,-0.23549145,0.28310028,0.76582193,0.71412915,-0.1405942,0.41236523,0.5966876,0.33012056,-0.41453433,0.19663243,0.03749153,799.81683,793.36993,808.68134,804.65204,679.34064,-0.12591552734375,0.068603515625,0.99578857421875,-15.08819580078125,3.416900634765625,-6.467437744140625,1,1.0,1.0,1.0,1.0,10.00
2024-10-11 20:46:43.407,1.4030192,0.62477255,0.5609548,1.1125798,1.087881,0.0063591595,0.34616578,0.7596193,1.0414593,-0.23549145,0.28310028,0.76582193,0.71412915,-0.1405942,0.41236523,0.5966876,0.33012056,-0.41453433,0.19663243,0.03749153,793.7729,797.3993,804.2491,808.68134,628.1685,-0.12591552734375,0.068603515625,0.99578857421875,-15.08819580078125,3.416900634765625,-6.467437744140625,1,1.0,1.0,1.0,1.0,10.00
2024-10-11 20:46:43.408,1.4030192,0.62477255,0.5609548,1.1125798,1.087881,0.0063591595,0.34616578,0.7596193,1.0414593,-0.23549145,0.28310028,0.76582193,0.71412915,-0.1405942,0.41236523,0.5966876,0.33012056,-0.41453433,0.19663243,0.03749153,794.57874,799.41394,808.68134,801.4286,633.4066,-0.12591552734375,0.068603515625,0.99578857421875,-15.08819580078125,3.416900634765625,-6.467437744140625,1,1.0,1.0,1.0,1.0,10.00
2024-10-11 20:46:43.408,1.4030192,0.62477255,0.5609548,1.1125798,1.087881,0.0063591595,0.34616578,0.7596193,1.0414593,-0.23549145,0.28310028,0.76582193,0.71412915,-0.1405942,0.41236523,0.5966876,0.33012056,-0.41453433,0.19663243,0.03749153,809.89014,796.5934,801.02563,797.3993,732.9304,-0.12591552734375,0.068603515625,0.99578857421875,-15.08819580078125,3.416900634765625,-6.467437744140625,1,1.0,1.0,1.0,1.0,10.00
2024-10-11 20:46:43.409,1.4030192,0.62477255,0.5609548,1.1125798,1.087881,0.0063591595,0.34616578,0.7596193,1.0414593,-0.23549145,0.28310028,0.76582193,0.71412915,-0.1405942,0.41236523,0.5966876,0.33012056,-0.41453433,0.19663243,0.03749153,815.12823,792.5641,798.20514,797.3993,968.6447,-0.12591552734375,0.068603515625,0.99578857421875,-15.08819580078125,3.416900634765625,-6.467437744140625,1,1.0,1.0,1.0,1.0,10.00
2024-10-11 20:46:43.410,1.4030192,0.62477255,0.5609548,1.1125798,1.087881,0.0063591595,0.34616578,0.7596193,1.0414593,-0.23549145,0.28310028,0.76582193,0.71412915,-0.1405942,0.41236523,0.5966876,0.33012056,-0.41453433,0.19663243,0.03749153,800.6227,795.78754,803.8461,796.99634,887.6557,-0.12591552734375,0.068603515625,0.99578857421875,-15.08819580078125,3.416900634765625,-6.467437744140625,1,1.0,1.0,1.0,1.0,10.00
2024-10-11 20:46:43.411,1.4030192,0.62477255,0.5609548,1.1125798,1.087881,0.0063591595,0.34616578,0.7596193,1.0414593,-0.23549145,0.28310028,0.76582193,0.71412915,-0.1405942,0.41236523,0.5966876,0.33012056,-0.41453433,0.19663243,0.03749153,803.44324,799.011,805.8608,797.3993,548.3883,-0.12591552734375,0.068603515625,0.99578857421875,-15.08819580078125,3.416900634765625,-6.467437744140625,1,1.0,1.0,1.0,1.0,10.00
2024-10-11 20:46:43.411,1.4030192,0.62477255,0.5609548,1.1125798,1.087881,0.0063591595,0.34616578,0.7596193,1.0414593,-0.23549145,0.28310028,0.76582193,0.71412915,-0.1405942,0.41236523,0.5966876,0.33012056,-0.41453433,0.19663243,0.03749153,808.2784,801.02563,794.57874,799.41394,514.5421,-0.12591552734375,0.068603515625,0.99578857421875,-15.08819580078125,3.416900634765625,-6.467437744140625,1,1.0,1.0,1.0,1.0,10.00
2024-10-11 20:46:43.412,1.4030192,0.62477255,0.5609548,1.1125798,1.087881,0.0063591595,0.34616578,0.7596193,1.0414593,-0.23549145,0.28310028,0.76582193,0.71412915,-0.1405942,0.41236523,0.5966876,0.33012056,-0.41453433,0.19663243,0.03749153,799.41394,798.20514,794.57874,802.6374,868.71796,-0.12591552734375,0.068603515625,0.99578857421875,-15.08819580078125,3.416900634765625,-6.467437744140625,1,1.0,1.0,1.0,1.0,10.00
2024-10-11 20:46:43.448,1.4030192,0.62477255,0.5609548,1.1125798,1.087881,0.0063591595,0.34616578,0.7596193,1.0414593,-0.23549145,0.28310028,0.76582193,0.71412915,-0.1405942,0.41236523,0.5966876,0.33012056,-0.41453433,0.19663243,0.03749153,802.23444,795.78754,808.2784,799.41394,846.55676,-0.1285400390625,0.04217529296875,0.99505615234375,-14.916229248046875,1.637420654296875,-7.813262939453125,1,1.0,1.0,1.0,1.0,10.00
2024-10-11 20:46:43.449,1.4526882,0.617796,0.5482283,1.1125798,1.1456218,-0.04363125,0.3158089,0.7596193,1.0414593,-0.2263306,0.09910209,0.76582193,0.7328577,-0.11304152,0.4173803,0.5966876,0.35825488,-0.4119979,0.18000552,0.03749153,807.8755,799.011,799.41394,803.44324,510.1099,-0.1285400390625,0.04217529296875,0.99505615234375,-14.916229248046875,1.637420654296875,-7.813262939453125,1,1.0,1.0,1.0,1.0,10.00
2024-10-11 20:46:43.455,1.4526882,0.617796,0.5482283,1.1125798,1.1456218,-0.04363125,0.3158089,0.7596193,1.0414593,-0.2263306,0.09910209,0.76582193,0.7328577,-0.11304152,0.4173803,0.5966876,0.35825488,-0.4119979,0.18000552,0.03749153,807.8755,795.38464,790.54944,807.0696,683.36993,-0.1285400390625,0.04217529296875,0.99505615234375,-14.916229248046875,1.637420654296875,-7.813262939453125,1,1.0,1.0,1.0,1.0,10.00
2024-10-11 20:46:43.455,1.4526882,0.617796,0.5482283,1.1125798,1.1456218,-0.04363125,0.3158089,0.7596193,1.0414593,-0.2263306,0.09910209,0.76582193,0.7328577,-0.11304152,0.4173803,0.5966876,0.35825488,-0.4119979,0.18000552,0.03749153,811.0989,792.5641,799.81683,793.36993,734.1392,-0.1285400390625,0.04217529296875,0.99505615234375,-14.916229248046875,1.637420654296875,-7.813262939453125,1,1.0,1.0,1.0,1.0,10.00
2024-10-11 20:46:43.456,1.4526882,0.617796,0.5482283,1.1125798,1.1456218,-0.04363125,0.3158089,0.7596193,1.0414593,-0.2263306,0.09910209,0.76582193,0.7328577,-0.11304152,0.4173803,0.5966876,0.35825488,-0.4119979,0.18000552,0.03749153,818.7546,798.60803,803.44324,800.2198,563.69965,-0.1285400390625,0.04217529296875,0.99505615234375,-14.916229248046875,1.637420654296875,-7.813262939453125,1,1.0,1.0,1.0,1.0,10.00
2024-10-11 20:46:43.457,1.4526882,0.617796,0.5482283,1.1125798,1.1456218,-0.04363125,0.3158089,0.7596193,1.0414593,-0.2263306,0.09910209,0.76582193,0.7328577,-0.11304152,0.4173803,0.5966876,0.35825488,-0.4119979,0.18000552,0.03749153,815.9341,799.41394,797.3993,806.6667,543.95605,-0.1285400390625,0.04217529296875,0.99505615234375,-14.916229248046875,1.637420654296875,-7.813262939453125,1,1.0,1.0,1.0,1.0,10.00
2024-10-11 20:46:43.458,1.4526882,0.617796,0.5482283,1.1125798,1.1456218,-0.04363125,0.3158089,0.7596193,1.0414593,-0.2263306,0.09910209,0.76582193,0.7328577,-0.11304152,0.4173803,0.5966876,0.35825488,-0.4119979,0.18000552,0.03749153,819.5604,797.3993,785.31134,799.81683,785.31134,-0.1285400390625,0.04217529296875,0.99505615234375,-14.916229248046875,1.637420654296875,-7.813262939453125,1,1.0,1.0,1.0,1.0,10.00
2024-10-11 20:46:43.458,1.4526882,0.617796,0.5482283,1.1125798,1.1456218,-0.04363125,0.3158089,0.7596193,1.0414593,-0.2263306,0.09910209,0.76582193,0.7328577,-0.11304152,0.4173803,0.5966876,0.35825488,-0.4119979,0.18000552,0.03749153,823.5897,801.02563,786.52014,802.6374,774.0293,-0.1285400390625,0.04217529296875,0.99505615234375,-14.916229248046875,1.637420654296875,-7.813262939453125,1,1.0,1.0,1.0,1.0,10.00
2024-10-11 20:46:43.459,1.4526882,0.617796,0.5482283,1.1125798,1.1456218,-0.04363125,0.3158089,0.7596193,1.0414593,-0.2263306,0.09910209,0.76582193,0.7328577,-0.11304152,0.4173803,0.5966876,0.35825488,-0.4119979,0.18000552,0.03749153,823.5897,805.05493,805.8608,807.8755,544.35895,-0.1285400390625,0.04217529296875,0.99505615234375,-14.916229248046875,1.637420654296875,-7.813262939453125,1,1.0,1.0,1.0,1.0,10.00
2024-10-11 20:46:43.460,1.4526882,0.617796,0.5482283,1.1125798,1.1456218,-0.04363125,0.3158089,0.7596193,1.0414593,-0.2263306,0.09910209,0.76582193,0.7328577,-0.11304152,0.4173803,0.5966876,0.35825488,-0.4119979,0.18000552,0.03749153,823.9927,805.8608,805.4579,807.0696,542.74725,-0.1285400390625,0.04217529296875,0.99505615234375,-14.916229248046875,1.637420654296875,-7.813262939453125,1,1.0,1.0,1.0,1.0,10.00
2024-10-11 20:46:43.461,1.4526882,0.617796,0.5482283,1.1125798,1.1456218,-0.04363125,0.3158089,0.7596193,1.0414593,-0.2263306,0.09910209,0.76582193,0.7328577,-0.11304152,0.4173803,0.5966876,0.35825488,-0.4119979,0.18000552,0.03749153,822.381,804.65204,801.4286,812.71063,734.5421,-0.1285400390625,0.04217529296875,0.99505615234375,-14.916229248046875,1.637420654296875,-7.813262939453125,1,1.0,1.0,1.0,1.0,10.00
2024-10-11 20:46:43.461,1.4526882,0.617796,0.5482283,1.1125798,1.1456218,-0.04363125,0.3158089,0.7596193,1.0414593,-0.2263306,0.09910209,0.76582193,0.7328577,-0.11304152,0.4173803,0.5966876,0.35825488,-0.4119979,0.18000552,0.03749153,815.12823,804.2491,796.99634,810.293,732.9304,-0.1285400390625,0.04217529296875,0.99505615234375,-14.916229248046875,1.637420654296875,-7.813262939453125,1,1.0,1.0,1.0,1.0,10.00
2024-10-11 20:46:43.490,1.4526882,0.617796,0.5482283,1.1125798,1.1456218,-0.04363125,0.3158089,0.7596193,1.0414593,-0.2263306,0.09910209,0.76582193,0.7328577,-0.11304152,0.4173803,0.5966876,0.35825488,-0.4119979,0.18000552,0.03749153,805.4579,800.6227,792.96704,805.8608,566.9231,-0.1285400390625,0.04217529296875,0.99505615234375,-14.916229248046875,1.637420654296875,-7.813262939453125,1,1.0,1.0,1.0,1.0,10.00
2024-10-11 20:46:43.492,1.4526882,0.617796,0.5482283,1.1125798,1.1456218,-0.04363125,0.3158089,0.7596193,1.0414593,-0.2263306,0.09910209,0.76582193,0.7328577,-0.11304152,0.4173803,0.5966876,0.35825488,-0.4119979,0.18000552,0.03749153,809.89014,801.4286,803.8461,817.1429,493.58975,-0.1285400390625,0.04217529296875,0.99505615234375,-14.916229248046875,1.637420654296875,-7.813262939453125,1,1.0,1.0,1.0,1.0,10.00
2024-10-11 20:46:43.492,1.4526882,0.617796,0.5482283,1.1125798,1.1456218,-0.04363125,0.3158089,0.7596193,1.0414593,-0.2263306,0.09910209,0.76582193,0.7328577,-0.11304152,0.4173803,0.5966876,0.35825488,-0.4119979,0.18000552,0.03749153,818.7546,800.2198,814.7253,824.3956,724.87177,-0.1285400390625,0.04217529296875,0.99505615234375,-14.916229248046875,1.637420654296875,-7.813262939453125,1,1.0,1.0,1.0,1.0,10.00
2024-10-11 20:46:43.493,1.4526882,0.617796,0.5482283,1.1125798,1.1456218,-0.04363125,0.3158089,0.7596193,1.0414593,-0.2263306,0.09910209,0.76582193,0.7328577,-0.11304152,0.4173803,0.5966876,0.35825488,-0.4119979,0.18000552,0.03749153,809.4872,794.17584,809.4872,823.1868,823.9927,-0.1285400390625,0.04217529296875,0.99505615234375,-14.916229248046875,1.637420654296875,-7.813262939453125,1,1.0,1.0,1.0,1.0,10.00
2024-10-11 20:46:43.494,1.4526882,0.617796,0.5482283,1.1125798,1.1456218,-0.04363125,0.3158089,0.7596193,1.0414593,-0.2263306,0.09910209,0.76582193,0.7328577,-0.11304152,0.4173803,0.5966876,0.35825488,-0.4119979,0.18000552,0.03749153,808.68134,792.96704,805.4579,819.5604,502.45422,-0.1285400390625,0.04217529296875,0.99505615234375,-14.916229248046875,1.637420654296875,-7.813262939453125,1,1.0,1.0,1.0,1.0,10.00
2024-10-11 20:46:43.494,1.4526882,0.617796,0.5482283,1.1125798,1.1456218,-0.04363125,0.3158089,0.7596193,1.0414593,-0.2263306,0.09910209,0.76582193,0.7328577,-0.11304152,0.4173803,0.5966876,0.35825488,-0.4119979,0.18000552,0.03749153,823.9927,793.36993,802.6374,817.9487,636.2271,-0.1285400390625,0.04217529296875,0.99505615234375,-14.916229248046875,1.637420654296875,-7.813262939453125,1,1.0,1.0,1.0,1.0,10.00
2024-10-11 20:46:43.495,1.4526882,0.617796,0.5482283,1.1125798,1.1456218,-0.04363125,0.3158089,0.7596193,1.0414593,-0.2263306,0.09910209,0.76582193,0.7328577,-0.11304152,0.4173803,0.5966876,0.35825488,-0.4119979,0.18000552,0.03749153,823.9927,798.20514,794.57874,816.7399,807.0696,-0.1285400390625,0.04217529296875,0.99505615234375,-14.916229248046875,1.637420654296875,-7.813262939453125,1,1.0,1.0,1.0,1.0,10.00
2024-10-11 20:46:43.496,1.4526882,0.617796,0.5482283,1.1125798,1.1456218,-0.04363125,0.3158089,0.7596193,1.0414593,-0.2263306,0.09910209,0.76582193,0.7328577,-0.11304152,0.4173803,0.5966876,0.35825488,-0.4119979,0.18000552,0.03749153,813.91943,800.6227,789.7436,807.8755,737.76556,-0.1285400390625,0.04217529296875,0.99505615234375,-14.916229248046875,1.637420654296875,-7.813262939453125,1,1.0,1.0,1.0,1.0,10.00
2024-10-11 20:46:43.496,1.4526882,0.617796,0.5482283,1.1125798,1.1456218,-0.04363125,0.3158089,0.7596193,1.0414593,-0.2263306,0.09910209,0.76582193,0.7328577,-0.11304152,0.4173803,0.5966876,0.35825488,-0.4119979,0.18000552,0.03749153,808.68134,798.60803,785.7143,804.2491,628.1685,-0.1285400390625,0.04217529296875,0.99505615234375,-14.916229248046875,1.637420654296875,-7.813262939453125,1,1.0,1.0,1.0,1.0,10.00
2024-10-11 20:46:43.497,1.4526882,0.617796,0.5482283,1.1125798,1.1456218,-0.04363125,0.3158089,0.7596193,1.0414593,-0.2263306,0.09910209,0.76582193,0.7328577,-0.11304152,0.4173803,0.5966876,0.35825488,-0.4119979,0.18000552,0.03749153,799.41394,800.6227,792.5641,792.1612,512.9304,-0.1285400390625,0.04217529296875,0.99505615234375,-14.916229248046875,1.637420654296875,-7.813262939453125,1,1.0,1.0,1.0,1.0,10.00
2024-10-11 20:46:43.498,1.4526882,0.617796,0.5482283,1.1125798,1.1456218,-0.04363125,0.3158089,0.7596193,1.0414593,-0.2263306,0.09910209,0.76582193,0.7328577,-0.11304152,0.4173803,0.5966876,0.35825488,-0.4119979,0.18000552,0.03749153,788.93774,801.02563,797.8022,788.93774,810.293,-0.1285400390625,0.04217529296875,0.99505615234375,-14.916229248046875,1.637420654296875,-7.813262939453125,1,1.0,1.0,1.0,1.0,10.00
2024-10-11 20:46:43.499,1.4526882,0.617796,0.5482283,1.1125798,1.1456218,-0.04363125,0.3158089,0.7596193,1.0414593,-0.2263306,0.09910209,0.76582193,0.7328577,-0.11304152,0.4173803,0.5966876,0.35825488,-0.4119979,0.18000552,0.03749153,787.326,800.6227,781.28204,793.7729,900.54944,-0.1285400390625,0.04217529296875,0.99505615234375,-14.916229248046875,1.637420654296875,-7.813262939453125,1,1.0,1.0,1.0,1.0,10.00
2024-10-11 20:46:43.559,1.4526882,0.617796,0.5482283,1.1125798,1.1456218,-0.04363125,0.3158089,0.7596193,1.0414593,-0.2263306,0.09910209,0.76582193,0.7328577,-0.11304152,0.4173803,0.5966876,0.35825488,-0.4119979,0.18000552,0.03749153,794.17584,802.23444,775.2381,793.36993,552.8205,-0.12451171875,0.01092529296875,0.99969482421875,-14.019012451171875,-0.179443359375,-6.646881103515625,1,1.0,1.0,1.0,1.0,10.00
2024-10-11 20:46:43.560,1.4526882,0.617796,0.5482283,1.1125798,1.1456218,-0.04363125,0.3158089,0.7596193,1.0414593,-0.2263306,0.09910209,0.76582193,0.7328577,-0.11304152,0.4173803,0.5966876,0.35825488,-0.4119979,0.18000552,0.03749153,797.8022,793.36993,800.6227,803.44324,577.3993,-0.12451171875,0.01092529296875,0.99969482421875,-14.019012451171875,-0.179443359375,-6.646881103515625,1,1.0,1.0,1.0,1.0,10.00
2024-10-11 20:46:43.561,1.4526882,0.617796,0.5482283,1.1125798,1.1456218,-0.04363125,0.3158089,0.7596193,1.0414593,-0.2263306,0.09910209,0.76582193,0.7328577,-0.11304152,0.4173803,0.5966876,0.35825488,-0.4119979,0.18000552,0.03749153,800.6227,793.36993,809.4872,801.02563,601.5751,-0.12451171875,0.01092529296875,0.99969482421875,-14.019012451171875,-0.179443359375,-6.646881103515625,1,1.0,1.0,1.0,1.0,10.00
2024-10-11 20:46:43.562,1.4506954,0.60770273,0.54851145,1.1125798,1.1439178,-0.072493255,0.27419344,0.7596193,1.0414593,-0.22895254,0.061135035,0.76582193,0.72290844,-0.096646406,0.4704391,0.5966876,0.36880746,-0.41537204,0.22021373,0.03749153,798.20514,797.3993,804.2491,793.36993,448.86447,-0.12451171875,0.01092529296875,0.99969482421875,-14.019012451171875,-0.179443359375,-6.646881103515625,1,1.0,1.0,1.0,1.0,10.00
2024-10-11 20:46:43.567,1.4506954,0.60770273,0.54851145,1.1125798,1.1439178,-0.072493255,0.27419344,0.7596193,1.0414593,-0.22895254,0.061135035,0.76582193,0.72290844,-0.096646406,0.4704391,0.5966876,0.36880746,-0.41537204,0.22021373,0.03749153,792.96704,792.1612,799.81683,795.38464,398.49817,-0.12451171875,0.01092529296875,0.99969482421875,-14.019012451171875,-0.179443359375,-6.646881103515625,1,1.0,1.0,1.0,1.0,10.00
2024-10-11 20:46:43.568,1.4506954,0.60770273,0.54851145,1.1125798,1.1439178,-0.072493255,0.27419344,0.7596193,1.0414593,-0.22895254,0.061135035,0.76582193,0.72290844,-0.096646406,0.4704391,0.5966876,0.36880746,-0.41537204,0.22021373,0.03749153,792.5641,788.93774,794.57874,806.26373,752.27106,-0.12451171875,0.01092529296875,0.99969482421875,-14.019012451171875,-0.179443359375,-6.646881103515625,1,1.0,1.0,1.0,1.0,10.00
2024-10-11 20:46:43.569,1.4506954,0.60770273,0.54851145,1.1125798,1.1439178,-0.072493255,0.27419344,0.7596193,1.0414593,-0.22895254,0.061135035,0.76582193,0.72290844,-0.096646406,0.4704391,0.5966876,0.36880746,-0.41537204,0.22021373,0.03749153,792.96704,790.54944,792.5641,803.44324,926.337,-0.12451171875,0.01092529296875,0.99969482421875,-14.019012451171875,-0.179443359375,-6.646881103515625,1,1.0,1.0,1.0,1.0,10.00
2024-10-11 20:46:43.569,1.4506954,0.60770273,0.54851145,1.1125798,1.1439178,-0.072493255,0.27419344,0.7596193,1.0414593,-0.22895254,0.061135035,0.76582193,0.72290844,-0.096646406,0.4704391,0.5966876,0.36880746,-0.41537204,0.22021373,0.03749153,803.0403,792.96704,796.5934,788.5348,769.59705,-0.12451171875,0.01092529296875,0.99969482421875,-14.019012451171875,-0.179443359375,-6.646881103515625,1,1.0,1.0,1.0,1.0,10.00
2024-10-11 20:46:43.570,1.4506954,0.60770273,0.54851145,1.1125798,1.1439178,-0.072493255,0.27419344,0.7596193,1.0414593,-0.22895254,0.061135035,0.76582193,0.72290844,-0.096646406,0.4704391,0.5966876,0.36880746,-0.41537204,0.22021373,0.03749153,803.8461,796.5934,800.2198,788.1319,666.4469,-0.12451171875,0.01092529296875,0.99969482421875,-14.019012451171875,-0.179443359375,-6.646881103515625,1,1.0,1.0,1.0,1.0,10.00
2024-10-11 20:46:43.571,1.4506954,0.60770273,0.54851145,1.1125798,1.1439178,-0.072493255,0.27419344,0.7596193,1.0414593,-0.22895254,0.061135035,0.76582193,0.72290844,-0.096646406,0.4704391,0.5966876,0.36880746,-0.41537204,0.22021373,0.03749153,797.3993,797.3993,792.96704,798.60803,694.2491,-0.12451171875,0.01092529296875,0.99969482421875,-14.019012451171875,-0.179443359375,-6.646881103515625,1,1.0,1.0,1.0,1.0,10.00
2024-10-11 20:46:43.571,1.4506954,0.60770273,0.54851145,1.1125798,1.1439178,-0.072493255,0.27419344,0.7596193,1.0414593,-0.22895254,0.061135035,0.76582193,0.72290844,-0.096646406,0.4704391,0.5966876,0.36880746,-0.41537204,0.22021373,0.03749153,804.2491,797.3993,793.7729,799.81683,764.7619,-0.12451171875,0.01092529296875,0.99969482421875,-14.019012451171875,-0.179443359375,-6.646881103515625,1,1.0,1.0,1.0,1.0,10.00
2024-10-11 20:46:43.572,1.4506954,0.60770273,0.54851145,1.1125798,1.1439178,-0.072493255,0.27419344,0.7596193,1.0414593,-0.22895254,0.061135035,0.76582193,0.72290844,-0.096646406,0.4704391,0.5966876,0.36880746,-0.41537204,0.22021373,0.03749153,805.05493,800.6227,793.36993,793.7729,511.3187,-0.12451171875,0.01092529296875,0.99969482421875,-14.019012451171875,-0.179443359375,-6.646881103515625,1,1.0,1.0,1.0,1.0,10.00
2024-10-11 20:46:43.643,1.4506954,0.60770273,0.54851145,1.1125798,1.1439178,-0.072493255,0.27419344,0.7596193,1.0414593,-0.22895254,0.061135035,0.76582193,0.72290844,-0.096646406,0.4704391,0.5966876,0.36880746,-0.41537204,0.22021373,0.03749153,799.81683,800.2198,780.07324,795.78754,455.31134,-0.122802734375,-0.01007080078125,0.9990234375,-11.476898193359375,0.64300537109375,-4.725341796875,1,1.0,1.0,1.0,1.0,10.00
