TimeStamp,Delta_TP9,Delta_AF7,Delta_AF8,Delta_TP10,Theta_TP9,Theta_AF7,Theta_AF8,Theta_TP10,Alpha_TP9,Alpha_AF7,Alpha_AF8,Alpha_TP10,Beta_TP9,Beta_AF7,Beta_AF8,Beta_TP10,Gamma_TP9,Gamma_AF7,Gamma_AF8,Gamma_TP10,RAW_TP9,RAW_AF7,RAW_AF8,RAW_TP10,AUX_RIGHT,Accelerometer_X,Accelerometer_Y,Accelerometer_Z,Gyro_X,Gyro_Y,Gyro_Z,HeadBandOn,HSI_TP9,HSI_AF7,HSI_AF8,HSI_TP10,Battery,Elements
2024-10-11 20:46:51.487,0.62931514,-0.076285705,-0.15549536,0.3703554,0.14838697,-0.2533353,-0.41635123,0.22563691,0.62047887,0.22855715,0.1902834,0.5146509,0.6982961,-0.038538966,0.6516639,0.52156734,0.24894908,-0.4795067,0.3534001,-0.015647752,774.83514,795.78754,815.5311,778.86444,666.4469,0.125,0.1181640625,0.980224609375,3.850555419921875,-1.368255615234375,1.532745361328125,1,1.0,1.0,1.0,1.0,10.00
2024-10-11 20:46:51.488,0.62931514,-0.076285705,-0.15549536,0.3703554,0.14838697,-0.2533353,-0.41635123,0.22563691,0.62047887,0.22855715,0.1902834,0.5146509,0.6982961,-0.038538966,0.6516639,0.52156734,0.24894908,-0.4795067,0.3534001,-0.015647752,778.0586,795.38464,807.47253,778.86444,800.6227,0.125,0.1181640625,0.980224609375,3.850555419921875,-1.368255615234375,1.532745361328125,1,1.0,1.0,1.0,1.0,10.00
2024-10-11 20:46:51.490,0.62931514,-0.076285705,-0.15549536,0.3703554,0.14838697,-0.2533353,-0.41635123,0.22563691,0.62047887,0.22855715,0.1902834,0.5146509,0.6982961,-0.038538966,0.6516639,0.52156734,0.24894908,-0.4795067,0.3534001,-0.015647752,766.3736,796.99634,809.89014,776.04395,739.7802,0.125,0.1181640625,0.980224609375,3.850555419921875,-1.368255615234375,1.532745361328125,1,1.0,1.0,1.0,1.0,10.00
2024-10-11 20:46:51.491,0.62931514,-0.14191395,-0.15696684,0.3703554,0.14838697,-0.25794494,-0.42748597,0.22563691,0.62047887,0.2559418,0.25635523,0.5146509,0.6982961,-0.04013069,0.6496552,0.52156734,0.24894908,-0.45531875,0.33509076,-0.015647752,773.6264,798.20514,807.47253,785.31134,718.022,0.125,0.1181640625,0.980224609375,3.850555419921875,-1.368255615234375,1.532745361328125,1,1.0,1.0,1.0,1.0,10.00
2024-10-11 20:46:51.496,0.62931514,-0.14191395,-0.15696684,0.3703554,0.14838697,-0.25794494,-0.42748597,0.22563691,0.62047887,0.2559418,0.25635523,0.5146509,0.6982961,-0.04013069,0.6496552,0.52156734,0.24894908,-0.45531875,0.33509076,-0.015647752,782.8938,797.3993,804.2491,784.10254,785.31134,0.125,0.1181640625,0.980224609375,3.850555419921875,-1.368255615234375,1.532745361328125,1,1.0,1.0,1.0,1.0,10.00
2024-10-11 20:46:51.496,0.62931514,-0.14191395,-0.15696684,0.3703554,0.14838697,-0.25794494,-0.42748597,0.22563691,0.62047887,0.2559418,0.25635523,0.5146509,0.6982961,-0.04013069,0.6496552,0.52156734,0.24894908,-0.45531875,0.33509076,-0.015647752,774.0293,796.5934,814.7253,788.1319,1054.0659,0.125,0.1181640625,0.980224609375,3.850555419921875,-1.368255615234375,1.532745361328125,1,1.0,1.0,1.0,1.0,10.00
2024-10-11 20:46:51.497,0.62931514,-0.14191395,-0.15696684,0.3703554,0.14838697,-0.25794494,-0.42748597,0.22563691,0.62047887,0.2559418,0.25635523,0.5146509,0.6982961,-0.04013069,0.6496552,0.52156734,0.24894908,-0.45531875,0.33509076,-0.015647752,769.59705,795.38464,828.022,798.20514,1230.1465,0.125,0.1181640625,0.980224609375,3.850555419921875,-1.368255615234375,1.532745361328125,1,1.0,1.0,1.0,1.0,10.00
2024-10-11 20:46:51.499,0.62931514,-0.14191395,-0.15696684,0.3703554,0.14838697,-0.25794494,-0.42748597,0.22563691,0.62047887,0.2559418,0.25635523,0.5146509,0.6982961,-0.04013069,0.6496552,0.52156734,0.24894908,-0.45531875,0.33509076,-0.015647752,780.4762,797.3993,815.12823,790.9524,842.9304,0.125,0.1181640625,0.980224609375,3.850555419921875,-1.368255615234375,1.532745361328125,1,1.0,1.0,1.0,1.0,10.00
2024-10-11 20:46:51.499,0.62931514,-0.14191395,-0.15696684,0.3703554,0.14838697,-0.25794494,-0.42748597,0.22563691,0.62047887,0.2559418,0.25635523,0.5146509,0.6982961,-0.04013069,0.6496552,0.52156734,0.24894908,-0.45531875,0.33509076,-0.015647752,782.0879,793.7729,800.6227,789.7436,674.10254,0.125,0.1181640625,0.980224609375,3.850555419921875,-1.368255615234375,1.532745361328125,1,1.0,1.0,1.0,1.0,10.00
2024-10-11 20:46:51.500,0.62931514,-0.14191395,-0.15696684,0.3703554,0.14838697,-0.25794494,-0.42748597,0.22563691,0.62047887,0.2559418,0.25635523,0.5146509,0.6982961,-0.04013069,0.6496552,0.52156734,0.24894908,-0.45531875,0.33509076,-0.015647752,780.07324,793.7729,804.2491,796.99634,787.326,0.125,0.1181640625,0.980224609375,3.850555419921875,-1.368255615234375,1.532745361328125,1,1.0,1.0,1.0,1.0,10.00
2024-10-11 20:46:51.501,0.62931514,-0.14191395,-0.15696684,0.3703554,0.14838697,-0.25794494,-0.42748597,0.22563691,0.62047887,0.2559418,0.25635523,0.5146509,0.6982961,-0.04013069,0.6496552,0.52156734,0.24894908,-0.45531875,0.33509076,-0.015647752,778.46155,801.02563,811.9048,792.5641,773.6264,0.125,0.1181640625,0.980224609375,3.850555419921875,-1.368255615234375,1.532745361328125,1,1.0,1.0,1.0,1.0,10.00
2024-10-11 20:46:51.501,0.62931514,-0.14191395,-0.15696684,0.3703554,0.14838697,-0.25794494,-0.42748597,0.22563691,0.62047887,0.2559418,0.25635523,0.5146509,0.6982961,-0.04013069,0.6496552,0.52156734,0.24894908,-0.45531875,0.33509076,-0.015647752,783.69965,804.65204,818.3516,788.5348,705.12823,0.125,0.1181640625,0.980224609375,3.850555419921875,-1.368255615234375,1.532745361328125,1,1.0,1.0,1.0,1.0,10.00
2024-10-11 20:46:51.542,0.62931514,-0.14191395,-0.15696684,0.3703554,0.14838697,-0.25794494,-0.42748597,0.22563691,0.62047887,0.2559418,0.25635523,0.5146509,0.6982961,-0.04013069,0.6496552,0.52156734,0.24894908,-0.45531875,0.33509076,-0.015647752,788.1319,806.26373,818.3516,795.38464,780.4762,0.12841796875,0.14208984375,0.99853515625,5.375823974609375,0.097198486328125,2.4224853515625,1,1.0,1.0,1.0,1.0,10.00
2024-10-11 20:46:51.543,0.62931514,-0.14191395,-0.15696684,0.3703554,0.14838697,-0.25794494,-0.42748597,0.22563691,0.62047887,0.2559418,0.25635523,0.5146509,0.6982961,-0.04013069,0.6496552,0.52156734,0.24894908,-0.45531875,0.33509076,-0.015647752,784.10254,805.05493,807.0696,798.60803,820.3663,0.12841796875,0.14208984375,0.99853515625,5.375823974609375,0.097198486328125,2.4224853515625,1,1.0,1.0,1.0,1.0,10.00
2024-10-11 20:46:51.544,0.62931514,-0.14191395,-0.15696684,0.3703554,0.14838697,-0.25794494,-0.42748597,0.22563691,0.62047887,0.2559418,0.25635523,0.5146509,0.6982961,-0.04013069,0.6496552,0.52156734,0.24894908,-0.45531875,0.33509076,-0.015647752,782.0879,802.6374,803.0403,793.36993,728.49817,0.12841796875,0.14208984375,0.99853515625,5.375823974609375,0.097198486328125,2.4224853515625,1,1.0,1.0,1.0,1.0,10.00
2024-10-11 20:46:51.545,0.62931514,-0.14191395,-0.15696684,0.3703554,0.14838697,-0.25794494,-0.42748597,0.22563691,0.62047887,0.2559418,0.25635523,0.5146509,0.6982961,-0.04013069,0.6496552,0.52156734,0.24894908,-0.45531875,0.33509076,-0.015647752,784.10254,803.0403,812.3077,790.9524,608.4249,0.12841796875,0.14208984375,0.99853515625,5.375823974609375,0.097198486328125,2.4224853515625,1,1.0,1.0,1.0,1.0,10.00
2024-10-11 20:46:51.545,0.62931514,-0.14191395,-0.15696684,0.3703554,0.14838697,-0.25794494,-0.42748597,0.22563691,0.62047887,0.2559418,0.25635523,0.5146509,0.6982961,-0.04013069,0.6496552,0.52156734,0.24894908,-0.45531875,0.33509076,-0.015647752,784.5055,800.2198,815.9341,794.9817,692.23444,0.12841796875,0.14208984375,0.99853515625,5.375823974609375,0.097198486328125,2.4224853515625,1,1.0,1.0,1.0,1.0,10.00
2024-10-11 20:46:51.546,0.62931514,-0.14191395,-0.15696684,0.3703554,0.14838697,-0.25794494,-0.42748597,0.22563691,0.62047887,0.2559418,0.25635523,0.5146509,0.6982961,-0.04013069,0.6496552,0.52156734,0.24894908,-0.45531875,0.33509076,-0.015647752,789.34064,794.57874,803.8461,793.7729,979.5238,0.12841796875,0.14208984375,0.99853515625,5.375823974609375,0.097198486328125,2.4224853515625,1,1.0,1.0,1.0,1.0,10.00
2024-10-11 20:46:51.547,0.62931514,-0.14191395,-0.15696684,0.3703554,0.14838697,-0.25794494,-0.42748597,0.22563691,0.62047887,0.2559418,0.25635523,0.5146509,0.6982961,-0.04013069,0.6496552,0.52156734,0.24894908,-0.45531875,0.33509076,-0.015647752,791.75824,799.41394,803.8461,793.7729,899.7436,0.12841796875,0.14208984375,0.99853515625,5.375823974609375,0.097198486328125,2.4224853515625,1,1.0,1.0,1.0,1.0,10.00
2024-10-11 20:46:51.547,0.62931514,-0.14191395,-0.15696684,0.3703554,0.14838697,-0.25794494,-0.42748597,0.22563691,0.62047887,0.2559418,0.25635523,0.5146509,0.6982961,-0.04013069,0.6496552,0.52156734,0.24894908,-0.45531875,0.33509076,-0.015647752,783.2967,803.0403,810.293,795.78754,726.08057,0.12841796875,0.14208984375,0.99853515625,5.375823974609375,0.097198486328125,2.4224853515625,1,1.0,1.0,1.0,1.0,10.00
2024-10-11 20:46:51.548,0.62931514,-0.14191395,-0.15696684,0.3703554,0.14838697,-0.25794494,-0.42748597,0.22563691,0.62047887,0.2559418,0.25635523,0.5146509,0.6982961,-0.04013069,0.6496552,0.52156734,0.24894908,-0.45531875,0.33509076,-0.015647752,785.7143,798.20514,811.0989,801.4286,776.8498,0.12841796875,0.14208984375,0.99853515625,5.375823974609375,0.097198486328125,2.4224853515625,1,1.0,1.0,1.0,1.0,10.00
2024-10-11 20:46:51.549,0.62931514,-0.14191395,-0.15696684,0.3703554,0.14838697,-0.25794494,-0.42748597,0.22563691,0.62047887,0.2559418,0.25635523,0.5146509,0.6982961,-0.04013069,0.6496552,0.52156734,0.24894908,-0.45531875,0.33509076,-0.015647752,791.75824,794.57874,813.1135,812.3077,1098.3883,0.12841796875,0.14208984375,0.99853515625,5.375823974609375,0.097198486328125,2.4224853515625,1,1.0,1.0,1.0,1.0,10.00
2024-10-11 20:46:51.550,0.62931514,-0.14191395,-0.15696684,0.3703554,0.14838697,-0.25794494,-0.42748597,0.22563691,0.62047887,0.2559418,0.25635523,0.5146509,0.6982961,-0.04013069,0.6496552,0.52156734,0.24894908,-0.45531875,0.33509076,-0.015647752,795.78754,797.8022,806.6667,809.89014,1008.93774,0.12841796875,0.14208984375,0.99853515625,5.375823974609375,0.097198486328125,2.4224853515625,1,1.0,1.0,1.0,1.0,10.00
2024-10-11 20:46:51.550,0.62931514,-0.14191395,-0.15696684,0.3703554,0.14838697,-0.25794494,-0.42748597,0.22563691,0.62047887,0.2559418,0.25635523,0.5146509,0.6982961,-0.04013069,0.6496552,0.52156734,0.24894908,-0.45531875,0.33509076,-0.015647752,797.8022,803.44324,805.4579,802.23444,595.9341,0.12841796875,0.14208984375,0.99853515625,5.375823974609375,0.097198486328125,2.4224853515625,1,1.0,1.0,1.0,1.0,10.00
2024-10-11 20:46:51.551,0.62931514,-0.14191395,-0.15696684,0.3703554,0.14838697,-0.25794494,-0.42748597,0.22563691,0.62047887,0.2559418,0.25635523,0.5146509,0.6982961,-0.04013069,0.6496552,0.52156734,0.24894908,-0.45531875,0.33509076,-0.015647752,791.3553,803.0403,802.6374,802.23444,666.04395,0.14105224609375,0.17095947265625,1.0062255859375,4.433746337890625,1.218719482421875,4.418792724609375,1,1.0,1.0,1.0,1.0,10.00
2024-10-11 20:46:51.551,0.62931514,-0.14191395,-0.15696684,0.3703554,0.14838697,-0.25794494,-0.42748597,0.22563691,0.62047887,0.2559418,0.25635523,0.5146509,0.6982961,-0.04013069,0.6496552,0.52156734,0.24894908,-0.45531875,0.33509076,-0.015647752,794.57874,803.8461,804.2491,802.6374,687.3993,0.14105224609375,0.17095947265625,1.0062255859375,4.433746337890625,1.218719482421875,4.418792724609375,1,1.0,1.0,1.0,1.0,10.00
2024-10-11 20:46:51.552,0.62931514,-0.14191395,-0.15696684,0.3703554,0.14838697,-0.25794494,-0.42748597,0.22563691,0.62047887,0.2559418,0.25635523,0.5146509,0.6982961,-0.04013069,0.6496552,0.52156734,0.24894908,-0.45531875,0.33509076,-0.015647752,801.8315,806.6667,801.02563,805.05493,632.1978,0.14105224609375,0.17095947265625,1.0062255859375,4.433746337890625,1.218719482421875,4.418792724609375,1,1.0,1.0,1.0,1.0,10.00
2024-10-11 20:46:51.552,0.62931514,-0.14191395,-0.15696684,0.3703554,0.14838697,-0.25794494,-0.42748597,0.22563691,0.62047887,0.2559418,0.25635523,0.5146509,0.6982961,-0.04013069,0.6496552,0.52156734,0.24894908,-0.45531875,0.33509076,-0.015647752,796.5934,804.2491,790.9524,802.23444,641.4652,0.14105224609375,0.17095947265625,1.0062255859375,4.433746337890625,1.218719482421875,4.418792724609375,1,1.0,1.0,1.0,1.0,10.00
2024-10-11 20:46:51.553,0.62931514,-0.14191395,-0.15696684,0.3703554,0.14838697,-0.25794494,-0.42748597,0.22563691,0.62047887,0.2559418,0.25635523,0.5146509,0.6982961,-0.04013069,0.6496552,0.52156734,0.24894908,-0.45531875,0.33509076,-0.015647752,790.54944,798.60803,792.5641,796.99634,663.22345,0.14105224609375,0.17095947265625,1.0062255859375,4.433746337890625,1.218719482421875,4.418792724609375,1,1.0,1.0,1.0,1.0,10.00
2024-10-11 20:46:51,,,,,,,,,,,,,,,,,,,,,,,,,,,,,,,,,,,,,,/muse/elements/blink
2024-10-11 20:46:51.553,0.62931514,-0.17745997,-0.12829988,0.3703554,0.14838697,-0.26750186,-0.41593835,0.22563691,0.62047887,0.2461156,0.2962519,0.5146509,0.6982961,-0.04860288,0.6401142,0.52156734,0.24894908,-0.4399676,0.31718642,-0.015647752,796.99634,794.9817,792.5641,801.4286,888.0586,0.14105224609375,0.17095947265625,1.0062255859375,4.433746337890625,1.218719482421875,4.418792724609375,1,1.0,1.0,1.0,1.0,10.00
2024-10-11 20:46:51.558,0.62931514,-0.17745997,-0.12829988,0.3703554,0.14838697,-0.26750186,-0.41593835,0.22563691,0.62047887,0.2461156,0.2962519,0.5146509,0.6982961,-0.04860288,0.6401142,0.52156734,0.24894908,-0.4399676,0.31718642,-0.015647752,806.26373,796.5934,797.3993,801.8315,933.9927,0.14105224609375,0.17095947265625,1.0062255859375,4.433746337890625,1.218719482421875,4.418792724609375,1,1.0,1.0,1.0,1.0,10.00
2024-10-11 20:46:51.558,0.62931514,-0.17745997,-0.12829988,0.3703554,0.14838697,-0.26750186,-0.41593835,0.22563691,0.62047887,0.2461156,0.2962519,0.5146509,0.6982961,-0.04860288,0.6401142,0.52156734,0.24894908,-0.4399676,0.31718642,-0.015647752,807.47253,797.8022,807.8755,801.8315,697.8755,0.14105224609375,0.17095947265625,1.0062255859375,4.433746337890625,1.218719482421875,4.418792724609375,1,1.0,1.0,1.0,1.0,10.00
2024-10-11 20:46:51.559,0.62931514,-0.17745997,-0.12829988,0.3703554,0.14838697,-0.26750186,-0.41593835,0.22563691,0.62047887,0.2461156,0.2962519,0.5146509,0.6982961,-0.04860288,0.6401142,0.52156734,0.24894908,-0.4399676,0.31718642,-0.015647752,801.4286,792.96704,811.9048,805.4579,857.8388,0.14105224609375,0.17095947265625,1.0062255859375,4.433746337890625,1.218719482421875,4.418792724609375,1,1.0,1.0,1.0,1.0,10.00
2024-10-11 20:46:51.559,0.62931514,-0.17745997,-0.12829988,0.3703554,0.14838697,-0.26750186,-0.41593835,0.22563691,0.62047887,0.2461156,0.2962519,0.5146509,0.6982961,-0.04860288,0.6401142,0.52156734,0.24894908,-0.4399676,0.31718642,-0.015647752,797.8022,796.1905,814.3223,812.71063,1121.3553,0.14105224609375,0.17095947265625,1.0062255859375,4.433746337890625,1.218719482421875,4.418792724609375,1,1.0,1.0,1.0,1.0,10.00
2024-10-11 20:46:51.560,0.62931514,-0.17745997,-0.12829988,0.3703554,0.14838697,-0.26750186,-0.41593835,0.22563691,0.62047887,0.2461156,0.2962519,0.5146509,0.6982961,-0.04860288,0.6401142,0.52156734,0.24894908,-0.4399676,0.31718642,-0.015647752,797.8022,800.2198,817.9487,815.12823,826.8132,0.14105224609375,0.17095947265625,1.0062255859375,4.433746337890625,1.218719482421875,4.418792724609375,1,1.0,1.0,1.0,1.0,10.00
2024-10-11 20:46:51.561,0.62931514,-0.17745997,-0.12829988,0.3703554,0.14838697,-0.26750186,-0.41593835,0.22563691,0.62047887,0.2461156,0.2962519,0.5146509,0.6982961,-0.04860288,0.6401142,0.52156734,0.24894908,-0.4399676,0.31718642,-0.015647752,800.6227,802.23444,807.8755,810.696,690.6227,0.14105224609375,0.17095947265625,1.0062255859375,4.433746337890625,1.218719482421875,4.418792724609375,1,1.0,1.0,1.0,1.0,10.00
2024-10-11 20:46:51.646,0.62931514,-0.17745997,-0.12829988,0.3703554,0.14838697,-0.26750186,-0.41593835,0.22563691,0.62047887,0.2461156,0.2962519,0.5146509,0.6982961,-0.04860288,0.6401142,0.52156734,0.24894908,-0.4399676,0.31718642,-0.015647752,792.96704,801.8315,798.60803,812.71063,846.1539,0.13818359375,0.18359375,1.010009765625,-1.83929443359375,2.5421142578125,4.74029541015625,1,1.0,1.0,1.0,1.0,10.00
2024-10-11 20:46:51.647,0.62931514,-0.17745997,-0.12829988,0.3703554,0.14838697,-0.26750186,-0.41593835,0.22563691,0.62047887,0.2461156,0.2962519,0.5146509,0.6982961,-0.04860288,0.6401142,0.52156734,0.24894908,-0.4399676,0.31718642,-0.015647752,789.7436,799.41394,800.2198,811.9048,784.90845,0.13818359375,0.18359375,1.010009765625,-1.83929443359375,2.5421142578125,4.74029541015625,1,1.0,1.0,1.0,1.0,10.00
2024-10-11 20:46:51.648,0.62931514,-0.17745997,-0.12829988,0.3703554,0.14838697,-0.26750186,-0.41593835,0.22563691,0.62047887,0.2461156,0.2962519,0.5146509,0.6982961,-0.04860288,0.6401142,0.52156734,0.24894908,-0.4399676,0.31718642,-0.015647752,799.41394,800.2198,804.2491,804.2491,646.30035,0.13818359375,0.18359375,1.010009765625,-1.83929443359375,2.5421142578125,4.74029541015625,1,1.0,1.0,1.0,1.0,10.00
2024-10-11 20:46:51.649,0.62931514,-0.17745997,-0.12829988,0.3703554,0.14838697,-0.26750186,-0.41593835,0.22563691,0.62047887,0.2461156,0.2962519,0.5146509,0.6982961,-0.04860288,0.6401142,0.52156734,0.24894908,-0.4399676,0.31718642,-0.015647752,799.011,798.20514,815.5311,801.8315,738.1685,0.13818359375,0.18359375,1.010009765625,-1.83929443359375,2.5421142578125,4.74029541015625,1,1.0,1.0,1.0,1.0,10.00
2024-10-11 20:46:51.650,0.62931514,-0.17745997,-0.12829988,0.3703554,0.14838697,-0.26750186,-0.41593835,0.22563691,0.62047887,0.2461156,0.2962519,0.5146509,0.6982961,-0.04860288,0.6401142,0.52156734,0.24894908,-0.4399676,0.31718642,-0.015647752,799.81683,798.20514,817.5458,798.20514,740.18317,0.13818359375,0.18359375,1.010009765625,-1.83929443359375,2.5421142578125,4.74029541015625,1,1.0,1.0,1.0,1.0,10.00
2024-10-11 20:46:51.650,0.62931514,-0.17745997,-0.12829988,0.3703554,0.14838697,-0.26750186,-0.41593835,0.22563691,0.62047887,0.2461156,0.2962519,0.5146509,0.6982961,-0.04860288,0.6401142,0.52156734,0.24894908,-0.4399676,0.31718642,-0.015647752,813.5165,796.1905,812.3077,800.6227,767.5824,0.13818359375,0.18359375,1.010009765625,-1.83929443359375,2.5421142578125,4.74029541015625,1,1.0,1.0,1.0,1.0,10.00
2024-10-11 20:46:51.651,0.62931514,-0.17745997,-0.12829988,0.3703554,0.14838697,-0.26750186,-0.41593835,0.22563691,0.62047887,0.2461156,0.2962519,0.5146509,0.6982961,-0.04860288,0.6401142,0.52156734,0.24894908,-0.4399676,0.31718642,-0.015647752,808.2784,795.78754,804.65204,816.337,858.6447,0.13818359375,0.18359375,1.010009765625,-1.83929443359375,2.5421142578125,4.74029541015625,1,1.0,1.0,1.0,1.0,10.00
2024-10-11 20:46:51.651,0.62931514,-0.17745997,-0.12829988,0.3703554,0.14838697,-0.26750186,-0.41593835,0.22563691,0.62047887,0.2461156,0.2962519,0.5146509,0.6982961,-0.04860288,0.6401142,0.52156734,0.24894908,-0.4399676,0.31718642,-0.015647752,800.6227,794.57874,809.89014,815.12823,794.9817,0.13818359375,0.18359375,1.010009765625,-1.83929443359375,2.5421142578125,4.74029541015625,1,1.0,1.0,1.0,1.0,10.00
2024-10-11 20:46:51.652,0.62931514,-0.17745997,-0.12829988,0.3703554,0.14838697,-0.26750186,-0.41593835,0.22563691,0.62047887,0.2461156,0.2962519,0.5146509,0.6982961,-0.04860288,0.6401142,0.52156734,0.24894908,-0.4399676,0.31718642,-0.015647752,800.6227,792.1612,813.91943,801.4286,1006.52014,0.13818359375,0.18359375,1.010009765625,-1.83929443359375,2.5421142578125,4.74029541015625,1,1.0,1.0,1.0,1.0,10.00
2024-10-11 20:46:51.653,0.62931514,-0.17745997,-0.12829988,0.3703554,0.14838697,-0.26750186,-0.41593835,0.22563691,0.62047887,0.2461156,0.2962519,0.5146509,0.6982961,-0.04860288,0.6401142,0.52156734,0.24894908,-0.4399676,0.31718642,-0.015647752,804.2491,799.81683,809.89014,804.65204,842.9304,0.13818359375,0.18359375,1.010009765625,-1.83929443359375,2.5421142578125,4.74029541015625,1,1.0,1.0,1.0,1.0,10.00
2024-10-11 20:46:51.653,0.62931514,-0.17745997,-0.12829988,0.3703554,0.14838697,-0.26750186,-0.41593835,0.22563691,0.62047887,0.2461156,0.2962519,0.5146509,0.6982961,-0.04860288,0.6401142,0.52156734,0.24894908,-0.4399676,0.31718642,-0.015647752,810.696,794.17584,814.3223,801.8315,598.3516,0.13818359375,0.18359375,1.010009765625,-1.83929443359375,2.5421142578125,4.74029541015625,1,1.0,1.0,1.0,1.0,10.00
2024-10-11 20:46:51.654,0.62931514,-0.17745997,-0.12829988,0.3703554,0.14838697,-0.26750186,-0.41593835,0.22563691,0.62047887,0.2461156,0.2962519,0.5146509,0.6982961,-0.04860288,0.6401142,0.52156734,0.24894908,-0.4399676,0.31718642,-0.015647752,798.20514,786.52014,812.3077,794.57874,716.4103,0.13818359375,0.18359375,1.010009765625,-1.83929443359375,2.5421142578125,4.74029541015625,1,1.0,1.0,1.0,1.0,10.00
2024-10-11 20:46:51.654,0.62931514,-0.17745997,-0.12829988,0.3703554,0.14838697,-0.26750186,-0.41593835,0.22563691,0.62047887,0.2461156,0.2962519,0.5146509,0.6982961,-0.04860288,0.6401142,0.52156734,0.24894908,-0.4399676,0.31718642,-0.015647752,787.326,794.57874,819.9634,788.93774,779.2674,0.1168212890625,0.16424560546875,0.9927978515625,-6.160888671875,6.542205810546875,2.878570556640625,1,1.0,1.0,1.0,1.0,10.00
2024-10-11 20:46:51.655,0.62931514,-0.17745997,-0.12829988,0.3703554,0.14838697,-0.26750186,-0.41593835,0.22563691,0.62047887,0.2461156,0.2962519,0.5146509,0.6982961,-0.04860288,0.6401142,0.52156734,0.24894908,-0.4399676,0.31718642,-0.015647752,789.34064,797.8022,827.619,792.5641,700.293,0.1168212890625,0.16424560546875,0.9927978515625,-6.160888671875,6.542205810546875,2.878570556640625,1,1.0,1.0,1.0,1.0,10.00
2024-10-11 20:46:51.655,0.62931514,-0.17745997,-0.12829988,0.3703554,0.14838697,-0.26750186,-0.41593835,0.22563691,0.62047887,0.2461156,0.2962519,0.5146509,0.6982961,-0.04860288,0.6401142,0.52156734,0.24894908,-0.4399676,0.31718642,-0.015647752,789.7436,796.99634,824.7985,803.0403,662.8205,0.1168212890625,0.16424560546875,0.9927978515625,-6.160888671875,6.542205810546875,2.878570556640625,1,1.0,1.0,1.0,1.0,10.00
2024-10-11 20:46:51.656,0.62931514,-0.17745997,-0.12829988,0.3703554,0.14838697,-0.26750186,-0.41593835,0.22563691,0.62047887,0.2461156,0.2962519,0.5146509,0.6982961,-0.04860288,0.6401142,0.52156734,0.24894908,-0.4399676,0.31718642,-0.015647752,788.93774,796.1905,831.2454,802.6374,856.63007,0.1168212890625,0.16424560546875,0.9927978515625,-6.160888671875,6.542205810546875,2.878570556640625,1,1.0,1.0,1.0,1.0,10.00
2024-10-11 20:46:51.656,0.62931514,-0.17745997,-0.12829988,0.3703554,0.14838697,-0.26750186,-0.41593835,0.22563691,0.62047887,0.2461156,0.2962519,0.5146509,0.6982961,-0.04860288,0.6401142,0.52156734,0.24894908,-0.4399676,0.31718642,-0.015647752,783.69965,790.54944,830.84247,793.7729,778.86444,0.1168212890625,0.16424560546875,0.9927978515625,-6.160888671875,6.542205810546875,2.878570556640625,1,1.0,1.0,1.0,1.0,10.00
2024-10-11 20:46:51.657,0.62931514,-0.17745997,-0.12829988,0.3703554,0.14838697,-0.26750186,-0.41593835,0.22563691,0.62047887,0.2461156,0.2962519,0.5146509,0.6982961,-0.04860288,0.6401142,0.52156734,0.24894908,-0.4399676,0.31718642,-0.015647752,784.90845,790.14655,819.15753,788.1319,637.8388,0.1168212890625,0.16424560546875,0.9927978515625,-6.160888671875,6.542205810546875,2.878570556640625,1,1.0,1.0,1.0,1.0,10.00
2024-10-11 20:46:51.657,0.62931514,-0.17745997,-0.12829988,0.3703554,0.14838697,-0.26750186,-0.41593835,0.22563691,0.62047887,0.2461156,0.2962519,0.5146509,0.6982961,-0.04860288,0.6401142,0.52156734,0.24894908,-0.4399676,0.31718642,-0.015647752,784.5055,790.14655,820.7692,792.5641,705.9341,0.1168212890625,0.16424560546875,0.9927978515625,-6.160888671875,6.542205810546875,2.878570556640625,1,1.0,1.0,1.0,1.0,10.00
2024-10-11 20:46:51.658,0.62931514,-0.19277292,-0.03529256,0.3703554,0.14838697,-0.29322207,-0.3649953,0.22563691,0.62047887,0.23818569,0.3182358,0.5146509,0.6982961,-0.062303513,0.62471724,0.52156734,0.24894908,-0.43044904,0.29682773,-0.015647752,786.9231,788.5348,831.6484,805.05493,755.09155,0.1168212890625,0.16424560546875,0.9927978515625,-6.160888671875,6.542205810546875,2.878570556640625,1,1.0,1.0,1.0,1.0,10.00
2024-10-11 20:46:51.662,0.62931514,-0.19277292,-0.03529256,0.3703554,0.14838697,-0.29322207,-0.3649953,0.22563691,0.62047887,0.23818569,0.3182358,0.5146509,0.6982961,-0.062303513,0.62471724,0.52156734,0.24894908,-0.43044904,0.29682773,-0.015647752,792.96704,788.1319,836.8865,813.1135,805.4579,0.1168212890625,0.16424560546875,0.9927978515625,-6.160888671875,6.542205810546875,2.878570556640625,1,1.0,1.0,1.0,1.0,10.00
2024-10-11 20:46:51.663,0.62931514,-0.19277292,-0.03529256,0.3703554,0.14838697,-0.29322207,-0.3649953,0.22563691,0.62047887,0.23818569,0.3182358,0.5146509,0.6982961,-0.062303513,0.62471724,0.52156734,0.24894908,-0.43044904,0.29682773,-0.015647752,790.14655,787.72894,833.663,800.6227,701.0989,0.1168212890625,0.16424560546875,0.9927978515625,-6.160888671875,6.542205810546875,2.878570556640625,1,1.0,1.0,1.0,1.0,10.00
2024-10-11 20:46:51.663,0.62931514,-0.19277292,-0.03529256,0.3703554,0.14838697,-0.29322207,-0.3649953,0.22563691,0.62047887,0.23818569,0.3182358,0.5146509,0.6982961,-0.062303513,0.62471724,0.52156734,0.24894908,-0.43044904,0.29682773,-0.015647752,792.1612,790.14655,828.8278,794.17584,598.7546,0.1168212890625,0.16424560546875,0.9927978515625,-6.160888671875,6.542205810546875,2.878570556640625,1,1.0,1.0,1.0,1.0,10.00
2024-10-11 20:46:51.664,0.62931514,-0.19277292,-0.03529256,0.3703554,0.14838697,-0.29322207,-0.3649953,0.22563691,0.62047887,0.23818569,0.3182358,0.5146509,0.6982961,-0.062303513,0.62471724,0.52156734,0.24894908,-0.43044904,0.29682773,-0.015647752,793.7729,787.72894,836.8865,812.3077,896.9231,0.1168212890625,0.16424560546875,0.9927978515625,-6.160888671875,6.542205810546875,2.878570556640625,1,1.0,1.0,1.0,1.0,10.00
2024-10-11 20:46:51.746,0.62931514,-0.19277292,-0.03529256,0.3703554,0.14838697,-0.29322207,-0.3649953,0.22563691,0.62047887,0.23818569,0.3182358,0.5146509,0.6982961,-0.062303513,0.62471724,0.52156734,0.24894908,-0.43044904,0.29682773,-0.015647752,801.8315,783.69965,846.55676,820.3663,913.44324,0.1168212890625,0.16424560546875,0.9927978515625,-6.160888671875,6.542205810546875,2.878570556640625,1,1.0,1.0,1.0,1.0,10.00
2024-10-11 20:46:51.747,0.62931514,-0.19277292,-0.03529256,0.3703554,0.14838697,-0.29322207,-0.3649953,0.22563691,0.62047887,0.23818569,0.3182358,0.5146509,0.6982961,-0.062303513,0.62471724,0.52156734,0.24894908,-0.43044904,0.29682773,-0.015647752,807.47253,782.0879,860.65936,811.9048,562.49084,0.1168212890625,0.16424560546875,0.9927978515625,-6.160888671875,6.542205810546875,2.878570556640625,1,1.0,1.0,1.0,1.0,10.00
2024-10-11 20:46:51.747,0.62931514,-0.19277292,-0.03529256,0.3703554,0.14838697,-0.29322207,-0.3649953,0.22563691,0.62047887,0.23818569,0.3182358,0.5146509,0.6982961,-0.062303513,0.62471724,0.52156734,0.24894908,-0.43044904,0.29682773,-0.015647752,793.7729,782.0879,854.21246,806.6667,663.22345,0.1168212890625,0.16424560546875,0.9927978515625,-6.160888671875,6.542205810546875,2.878570556640625,1,1.0,1.0,1.0,1.0,10.00
2024-10-11 20:46:51.748,0.62931514,-0.19277292,-0.03529256,0.3703554,0.14838697,-0.29322207,-0.3649953,0.22563691,0.62047887,0.23818569,0.3182358,0.5146509,0.6982961,-0.062303513,0.62471724,0.52156734,0.24894908,-0.43044904,0.29682773,-0.015647752,792.5641,782.8938,839.707,807.8755,857.8388,0.1168212890625,0.16424560546875,0.9927978515625,-6.160888671875,6.542205810546875,2.878570556640625,1,1.0,1.0,1.0,1.0,10.00
2024-10-11 20:46:51.749,0.62931514,-0.19277292,-0.03529256,0.3703554,0.14838697,-0.29322207,-0.3649953,0.22563691,0.62047887,0.23818569,0.3182358,0.5146509,0.6982961,-0.062303513,0.62471724,0.52156734,0.24894908,-0.43044904,0.29682773,-0.015647752,804.65204,779.67035,836.08057,807.0696,772.01465,0.1168212890625,0.16424560546875,0.9927978515625,-6.160888671875,6.542205810546875,2.878570556640625,1,1.0,1.0,1.0,1.0,10.00
2024-10-11 20:46:51.750,0.62931514,-0.19277292,-0.03529256,0.3703554,0.14838697,-0.29322207,-0.3649953,0.22563691,0.62047887,0.23818569,0.3182358,0.5146509,0.6982961,-0.062303513,0.62471724,0.52156734,0.24894908,-0.43044904,0.29682773,-0.015647752,808.68134,776.8498,823.1868,813.1135,705.9341,0.1168212890625,0.16424560546875,0.9927978515625,-6.160888671875,6.542205810546875,2.878570556640625,1,1.0,1.0,1.0,1.0,10.00
2024-10-11 20:46:51.750,0.62931514,-0.19277292,-0.03529256,0.3703554,0.14838697,-0.29322207,-0.3649953,0.22563691,0.62047887,0.23818569,0.3182358,0.5146509,0.6982961,-0.062303513,0.62471724,0.52156734,0.24894908,-0.43044904,0.29682773,-0.015647752,803.0403,780.4762,809.0842,826.8132,866.7033,0.1168212890625,0.16424560546875,0.9927978515625,-6.160888671875,6.542205810546875,2.878570556640625,1,1.0,1.0,1.0,1.0,10.00
2024-10-11 20:46:51.751,0.62931514,-0.19277292,-0.03529256,0.3703554,0.14838697,-0.29322207,-0.3649953,0.22563691,0.62047887,0.23818569,0.3182358,0.5146509,0.6982961,-0.062303513,0.62471724,0.52156734,0.24894908,-0.43044904,0.29682773,-0.015647752,799.011,784.10254,829.2308,827.2161,1000.87915,0.1168212890625,0.16424560546875,0.9927978515625,-6.160888671875,6.542205810546875,2.878570556640625,1,1.0,1.0,1.0,1.0,10.00
2024-10-11 20:46:51.751,0.62931514,-0.19277292,-0.03529256,0.3703554,0.14838697,-0.29322207,-0.3649953,0.22563691,0.62047887,0.23818569,0.3182358,0.5146509,0.6982961,-0.062303513,0.62471724,0.52156734,0.24894908,-0.43044904,0.29682773,-0.015647752,803.0403,782.8938,846.1539,811.9048,810.696,0.1168212890625,0.16424560546875,0.9927978515625,-6.160888671875,6.542205810546875,2.878570556640625,1,1.0,1.0,1.0,1.0,10.00
2024-10-11 20:46:51.751,0.62931514,-0.19277292,-0.03529256,0.3703554,0.14838697,-0.29322207,-0.3649953,0.22563691,0.62047887,0.23818569,0.3182358,0.5146509,0.6982961,-0.062303513,0.62471724,0.52156734,0.24894908,-0.43044904,0.29682773,-0.015647752,807.8755,784.90845,845.34796,816.337,684.57874,0.1168212890625,0.16424560546875,0.9927978515625,-6.160888671875,6.542205810546875,2.878570556640625,1,1.0,1.0,1.0,1.0,10.00
2024-10-11 20:46:51.752,0.62931514,-0.19277292,-0.03529256,0.3703554,0.14838697,-0.29322207,-0.3649953,0.22563691,0.62047887,0.23818569,0.3182358,0.5146509,0.6982961,-0.062303513,0.62471724,0.52156734,0.24894908,-0.43044904,0.29682773,-0.015647752,805.4579,784.5055,836.08057,826.0073,724.0659,0.1168212890625,0.16424560546875,0.9927978515625,-6.160888671875,6.542205810546875,2.878570556640625,1,1.0,1.0,1.0,1.0,10.00
2024-10-11 20:46:51.753,0.62931514,-0.19277292,-0.03529256,0.3703554,0.14838697,-0.29322207,-0.3649953,0.22563691,0.62047887,0.23818569,0.3182358,0.5146509,0.6982961,-0.062303513,0.62471724,0.52156734,0.24894908,-0.43044904,0.29682773,-0.015647752,793.7729,780.4762,830.0366,823.9927,1026.6666,0.1168212890625,0.16424560546875,0.9927978515625,-6.160888671875,6.542205810546875,2.878570556640625,1,1.0,1.0,1.0,1.0,10.00
2024-10-11 20:46:51.779,0.62931514,-0.19277292,-0.03529256,0.3703554,0.14838697,-0.29322207,-0.3649953,0.22563691,0.62047887,0.23818569,0.3182358,0.5146509,0.6982961,-0.062303513,0.62471724,0.52156734,0.24894908,-0.43044904,0.29682773,-0.015647752,788.5348,781.28204,824.3956,815.5311,1040.7693,0.1121826171875,0.1500244140625,1.00244140625,-8.755340576171875,7.58148193359375,2.758941650390625,1,1.0,1.0,1.0,1.0,10.00
2024-10-11 20:46:51.780,0.62931514,-0.19277292,-0.03529256,0.3703554,0.14838697,-0.29322207,-0.3649953,0.22563691,0.62047887,0.23818569,0.3182358,0.5146509,0.6982961,-0.062303513,0.62471724,0.52156734,0.24894908,-0.43044904,0.29682773,-0.015647752,792.5641,778.86444,828.4249,808.68134,691.02563,0.1121826171875,0.1500244140625,1.00244140625,-8.755340576171875,7.58148193359375,2.758941650390625,1,1.0,1.0,1.0,1.0,10.00
2024-10-11 20:46:51.780,0.62931514,-0.19277292,-0.03529256,0.3703554,0.14838697,-0.29322207,-0.3649953,0.22563691,0.62047887,0.23818569,0.3182358,0.5146509,0.6982961,-0.062303513,0.62471724,0.52156734,0.24894908,-0.43044904,0.29682773,-0.015647752,797.3993,779.67035,838.49817,811.0989,550.40295,0.1121826171875,0.1500244140625,1.00244140625,-8.755340576171875,7.58148193359375,2.758941650390625,1,1.0,1.0,1.0,1.0,10.00
2024-10-11 20:46:51.781,0.62931514,-0.19277292,-0.03529256,0.3703554,0.14838697,-0.29322207,-0.3649953,0.22563691,0.62047887,0.23818569,0.3182358,0.5146509,0.6982961,-0.062303513,0.62471724,0.52156734,0.24894908,-0.43044904,0.29682773,-0.015647752,795.38464,788.93774,817.9487,810.696,547.5824,0.1121826171875,0.1500244140625,1.00244140625,-8.755340576171875,7.58148193359375,2.758941650390625,1,1.0,1.0,1.0,1.0,10.00
2024-10-11 20:46:51.782,0.62931514,-0.19277292,-0.03529256,0.3703554,0.14838697,-0.29322207,-0.3649953,0.22563691,0.62047887,0.23818569,0.3182358,0.5146509,0.6982961,-0.062303513,0.62471724,0.52156734,0.24894908,-0.43044904,0.29682773,-0.015647752,790.14655,787.72894,814.7253,809.4872,563.69965,0.1121826171875,0.1500244140625,1.00244140625,-8.755340576171875,7.58148193359375,2.758941650390625,1,1.0,1.0,1.0,1.0,10.00
2024-10-11 20:46:51.782,0.62931514,-0.19277292,-0.03529256,0.3703554,0.14838697,-0.29322207,-0.3649953,0.22563691,0.62047887,0.23818569,0.3182358,0.5146509,0.6982961,-0.062303513,0.62471724,0.52156734,0.24894908,-0.43044904,0.29682773,-0.015647752,795.78754,781.28204,836.08057,814.7253,637.03296,0.1121826171875,0.1500244140625,1.00244140625,-8.755340576171875,7.58148193359375,2.758941650390625,1,1.0,1.0,1.0,1.0,10.00
2024-10-11 20:46:51.783,0.62931514,-0.19277292,-0.03529256,0.3703554,0.14838697,-0.29322207,-0.3649953,0.22563691,0.62047887,0.23818569,0.3182358,0.5146509,0.6982961,-0.062303513,0.62471724,0.52156734,0.24894908,-0.43044904,0.29682773,-0.015647752,799.011,781.28204,837.6923,812.71063,776.8498,0.1121826171875,0.1500244140625,1.00244140625,-8.755340576171875,7.58148193359375,2.758941650390625,1,1.0,1.0,1.0,1.0,10.00
2024-10-11 20:46:51.784,0.62931514,-0.19277292,-0.03529256,0.3703554,0.14838697,-0.29322207,-0.3649953,0.22563691,0.62047887,0.23818569,0.3182358,0.5146509,0.6982961,-0.062303513,0.62471724,0.52156734,0.24894908,-0.43044904,0.29682773,-0.015647752,791.3553,778.86444,829.6337,815.12823,757.9121,0.1121826171875,0.1500244140625,1.00244140625,-8.755340576171875,7.58148193359375,2.758941650390625,1,1.0,1.0,1.0,1.0,10.00
2024-10-11 20:46:51.784,0.62931514,-0.19277292,-0.03529256,0.3703554,0.14838697,-0.29322207,-0.3649953,0.22563691,0.62047887,0.23818569,0.3182358,0.5146509,0.6982961,-0.062303513,0.62471724,0.52156734,0.24894908,-0.43044904,0.29682773,-0.015647752,793.36993,782.49084,828.022,825.6044,598.7546,0.1121826171875,0.1500244140625,1.00244140625,-8.755340576171875,7.58148193359375,2.758941650390625,1,1.0,1.0,1.0,1.0,10.00
2024-10-11 20:46:51.785,0.62931514,-0.18714449,0.094708286,0.3703554,0.14838697,-0.33604142,-0.28238866,0.22563691,0.62047887,0.24342471,0.32796615,0.5146509,0.6982961,-0.07515628,0.6049981,0.52156734,0.24894908,-0.4237507,0.2751988,-0.015647752,799.011,784.10254,825.2015,816.7399,581.8315,0.1121826171875,0.1500244140625,1.00244140625,-8.755340576171875,7.58148193359375,2.758941650390625,1,1.0,1.0,1.0,1.0,10.00
2024-10-11 20:46:51.789,0.62931514,-0.18714449,0.094708286,0.3703554,0.14838697,-0.33604142,-0.28238866,0.22563691,0.62047887,0.24342471,0.32796615,0.5146509,0.6982961,-0.07515628,0.6049981,0.52156734,0.24894908,-0.4237507,0.2751988,-0.015647752,800.6227,784.90845,817.1429,815.5311,694.65204,0.1121826171875,0.1500244140625,1.00244140625,-8.755340576171875,7.58148193359375,2.758941650390625,1,1.0,1.0,1.0,1.0,10.00
2024-10-11 20:46:51.789,0.62931514,-0.18714449,0.094708286,0.3703554,0.14838697,-0.33604142,-0.28238866,0.22563691,0.62047887,0.24342471,0.32796615,0.5146509,0.6982961,-0.07515628,0.6049981,0.52156734,0.24894908,-0.4237507,0.2751988,-0.015647752,795.78754,787.326,816.337,823.1868,698.2784,0.1121826171875,0.1500244140625,1.00244140625,-8.755340576171875,7.58148193359375,2.758941650390625,1,1.0,1.0,1.0,1.0,10.00
2024-10-11 20:46:51.888,0.62931514,-0.18714449,0.094708286,0.3703554,0.14838697,-0.33604142,-0.28238866,0.22563691,0.62047887,0.24342471,0.32796615,0.5146509,0.6982961,-0.07515628,0.6049981,0.52156734,0.24894908,-0.4237507,0.2751988,-0.015647752,798.20514,784.10254,818.7546,817.1429,535.4945,0.095947265625,0.12567138671875,1.0086669921875,-12.089996337890625,8.29925537109375,3.536529541015625,1,1.0,1.0,1.0,1.0,10.00
2024-10-11 20:46:51.889,0.62931514,-0.18714449,0.094708286,0.3703554,0.14838697,-0.33604142,-0.28238866,0.22563691,0.62047887,0.24342471,0.32796615,0.5146509,0.6982961,-0.07515628,0.6049981,0.52156734,0.24894908,-0.4237507,0.2751988,-0.015647752,808.2784,788.93774,811.50183,805.8608,615.2747,0.095947265625,0.12567138671875,1.0086669921875,-12.089996337890625,8.29925537109375,3.536529541015625,1,1.0,1.0,1.0,1.0,10.00
2024-10-11 20:46:51.890,0.62931514,-0.18714449,0.094708286,0.3703554,0.14838697,-0.33604142,-0.28238866,0.22563691,0.62047887,0.24342471,0.32796615,0.5146509,0.6982961,-0.07515628,0.6049981,0.52156734,0.24894908,-0.4237507,0.2751988,-0.015647752,808.68134,790.54944,799.41394,805.4579,794.57874,0.095947265625,0.12567138671875,1.0086669921875,-12.089996337890625,8.29925537109375,3.536529541015625,1,1.0,1.0,1.0,1.0,10.00
2024-10-11 20:46:51.890,0.62931514,-0.18714449,0.094708286,0.3703554,0.14838697,-0.33604142,-0.28238866,0.22563691,0.62047887,0.24342471,0.32796615,0.5146509,0.6982961,-0.07515628,0.6049981,0.52156734,0.24894908,-0.4237507,0.2751988,-0.015647752,802.23444,789.34064,804.2491,802.6374,710.7692,0.095947265625,0.12567138671875,1.0086669921875,-12.089996337890625,8.29925537109375,3.536529541015625,1,1.0,1.0,1.0,1.0,10.00
2024-10-11 20:46:51.891,0.62931514,-0.18714449,0.094708286,0.3703554,0.14838697,-0.33604142,-0.28238866,0.22563691,0.62047887,0.24342471,0.32796615,0.5146509,0.6982961,-0.07515628,0.6049981,0.52156734,0.24894908,-0.4237507,0.2751988,-0.015647752,798.20514,790.9524,818.7546,799.81683,581.4286,0.095947265625,0.12567138671875,1.0086669921875,-12.089996337890625,8.29925537109375,3.536529541015625,1,1.0,1.0,1.0,1.0,10.00
2024-10-11 20:46:51.892,0.62931514,-0.18714449,0.094708286,0.3703554,0.14838697,-0.33604142,-0.28238866,0.22563691,0.62047887,0.24342471,0.32796615,0.5146509,0.6982961,-0.07515628,0.6049981,0.52156734,0.24894908,-0.4237507,0.2751988,-0.015647752,799.41394,789.7436,817.9487,803.44324,766.77655,0.095947265625,0.12567138671875,1.0086669921875,-12.089996337890625,8.29925537109375,3.536529541015625,1,1.0,1.0,1.0,1.0,10.00
2024-10-11 20:46:51.893,0.62931514,-0.18714449,0.094708286,0.3703554,0.14838697,-0.33604142,-0.28238866,0.22563691,0.62047887,0.24342471,0.32796615,0.5146509,0.6982961,-0.07515628,0.6049981,0.52156734,0.24894908,-0.4237507,0.2751988,-0.015647752,797.3993,786.52014,811.0989,801.8315,907.3993,0.095947265625,0.12567138671875,1.0086669921875,-12.089996337890625,8.29925537109375,3.536529541015625,1,1.0,1.0,1.0,1.0,10.00
2024-10-11 20:46:51.893,0.62931514,-0.18714449,0.094708286,0.3703554,0.14838697,-0.33604142,-0.28238866,0.22563691,0.62047887,0.24342471,0.32796615,0.5146509,0.6982961,-0.07515628,0.6049981,0.52156734,0.24894908,-0.4237507,0.2751988,-0.015647752,796.5934,786.9231,807.8755,804.65204,670.07324,0.095947265625,0.12567138671875,1.0086669921875,-12.089996337890625,8.29925537109375,3.536529541015625,1,1.0,1.0,1.0,1.0,10.00
2024-10-11 20:46:51.894,0.62931514,-0.18714449,0.094708286,0.3703554,0.14838697,-0.33604142,-0.28238866,0.22563691,0.62047887,0.24342471,0.32796615,0.5146509,0.6982961,-0.07515628,0.6049981,0.52156734,0.24894908,-0.4237507,0.2751988,-0.015647752,800.6227,789.7436,811.50183,810.696,603.5897,0.095947265625,0.12567138671875,1.0086669921875,-12.089996337890625,8.29925537109375,3.536529541015625,1,1.0,1.0,1.0,1.0,10.00
2024-10-11 20:46:51.895,0.62931514,-0.18714449,0.094708286,0.3703554,0.14838697,-0.33604142,-0.28238866,0.22563691,0.62047887,0.24342471,0.32796615,0.5146509,0.6982961,-0.07515628,0.6049981,0.52156734,0.24894908,-0.4237507,0.2751988,-0.015647752,807.0696,789.34064,804.2491,822.381,757.1062,0.095947265625,0.12567138671875,1.0086669921875,-12.089996337890625,8.29925537109375,3.536529541015625,1,1.0,1.0,1.0,1.0,10.00
2024-10-11 20:46:51.896,0.62931514,-0.18714449,0.094708286,0.3703554,0.14838697,-0.33604142,-0.28238866,0.22563691,0.62047887,0.24342471,0.32796615,0.5146509,0.6982961,-0.07515628,0.6049981,0.52156734,0.24894908,-0.4237507,0.2751988,-0.015647752,804.65204,787.72894,799.011,822.381,815.5311,0.095947265625,0.12567138671875,1.0086669921875,-12.089996337890625,8.29925537109375,3.536529541015625,1,1.0,1.0,1.0,1.0,10.00
2024-10-11 20:46:51.897,0.62931514,-0.18714449,0.094708286,0.3703554,0.14838697,-0.33604142,-0.28238866,0.22563691,0.62047887,0.24342471,0.32796615,0.5146509,0.6982961,-0.07515628,0.6049981,0.52156734,0.24894908,-0.4237507,0.2751988,-0.015647752,805.8608,789.34064,816.7399,809.0842,617.28937,0.095947265625,0.12567138671875,1.0086669921875,-12.089996337890625,8.29925537109375,3.536529541015625,1,1.0,1.0,1.0,1.0,10.00
2024-10-11 20:46:51.924,0.62931514,-0.18714449,0.094708286,0.3703554,0.14838697,-0.33604142,-0.28238866,0.22563691,0.62047887,0.24342471,0.32796615,0.5146509,0.6982961,-0.07515628,0.6049981,0.52156734,0.24894908,-0.4237507,0.2751988,-0.015647752,805.4579,786.9231,816.337,795.78754,553.6264,0.08135986328125,0.09490966796875,1.00128173828125,-15.484466552734375,8.845062255859375,3.521575927734375,1,1.0,1.0,1.0,1.0,10.00
2024-10-11 20:46:51.925,0.62931514,-0.18714449,0.094708286,0.3703554,0.14838697,-0.33604142,-0.28238866,0.22563691,0.62047887,0.24342471,0.32796615,0.5146509,0.6982961,-0.07515628,0.6049981,0.52156734,0.24894908,-0.4237507,0.2751988,-0.015647752,802.23444,786.52014,805.4579,804.65204,755.4945,0.08135986328125,0.09490966796875,1.00128173828125,-15.484466552734375,8.845062255859375,3.521575927734375,1,1.0,1.0,1.0,1.0,10.00
2024-10-11 20:46:51.926,0.62931514,-0.18714449,0.094708286,0.3703554,0.14838697,-0.33604142,-0.28238866,0.22563691,0.62047887,0.24342471,0.32796615,0.5146509,0.6982961,-0.07515628,0.6049981,0.52156734,0.24894908,-0.4237507,0.2751988,-0.015647752,797.8022,789.7436,800.6227,819.9634,815.12823,0.08135986328125,0.09490966796875,1.00128173828125,-15.484466552734375,8.845062255859375,3.521575927734375,1,1.0,1.0,1.0,1.0,10.00
2024-10-11 20:46:51.926,0.62931514,-0.18714449,0.094708286,0.3703554,0.14838697,-0.33604142,-0.28238866,0.22563691,0.62047887,0.24342471,0.32796615,0.5146509,0.6982961,-0.07515628,0.6049981,0.52156734,0.24894908,-0.4237507,0.2751988,-0.015647752,801.8315,794.17584,803.8461,811.50183,620.10986,0.08135986328125,0.09490966796875,1.00128173828125,-15.484466552734375,8.845062255859375,3.521575927734375,1,1.0,1.0,1.0,1.0,10.00
2024-10-11 20:46:51.927,0.62931514,-0.18714449,0.094708286,0.3703554,0.14838697,-0.33604142,-0.28238866,0.22563691,0.62047887,0.24342471,0.32796615,0.5146509,0.6982961,-0.07515628,0.6049981,0.52156734,0.24894908,-0.4237507,0.2751988,-0.015647752,818.7546,792.5641,813.91943,803.0403,497.21613,0.08135986328125,0.09490966796875,1.00128173828125,-15.484466552734375,8.845062255859375,3.521575927734375,1,1.0,1.0,1.0,1.0,10.00
2024-10-11 20:46:51.928,0.62931514,-0.18714449,0.094708286,0.3703554,0.14838697,-0.33604142,-0.28238866,0.22563691,0.62047887,0.24342471,0.32796615,0.5146509,0.6982961,-0.07515628,0.6049981,0.52156734,0.24894908,-0.4237507,0.2751988,-0.015647752,814.7253,786.52014,816.337,801.4286,780.4762,0.08135986328125,0.09490966796875,1.00128173828125,-15.484466552734375,8.845062255859375,3.521575927734375,1,1.0,1.0,1.0,1.0,10.00
2024-10-11 20:46:51.929,0.62931514,-0.18714449,0.094708286,0.3703554,0.14838697,-0.33604142,-0.28238866,0.22563691,0.62047887,0.24342471,0.32796615,0.5146509,0.6982961,-0.07515628,0.6049981,0.52156734,0.24894908,-0.4237507,0.2751988,-0.015647752,802.23444,790.54944,814.7253,800.6227,885.2381,0.08135986328125,0.09490966796875,1.00128173828125,-15.484466552734375,8.845062255859375,3.521575927734375,1,1.0,1.0,1.0,1.0,10.00
2024-10-11 20:46:51.930,0.62931514,-0.18714449,0.094708286,0.3703554,0.14838697,-0.33604142,-0.28238866,0.22563691,0.62047887,0.24342471,0.32796615,0.5146509,0.6982961,-0.07515628,0.6049981,0.52156734,0.24894908,-0.4237507,0.2751988,-0.015647752,803.8461,794.9817,810.293,801.4286,618.0952,0.08135986328125,0.09490966796875,1.00128173828125,-15.484466552734375,8.845062255859375,3.521575927734375,1,1.0,1.0,1.0,1.0,10.00
2024-10-11 20:46:51.931,0.62931514,-0.18714449,0.094708286,0.3703554,0.14838697,-0.33604142,-0.28238866,0.22563691,0.62047887,0.24342471,0.32796615,0.5146509,0.6982961,-0.07515628,0.6049981,0.52156734,0.24894908,-0.4237507,0.2751988,-0.015647752,803.0403,793.7729,797.8022,800.2198,593.5165,0.08135986328125,0.09490966796875,1.00128173828125,-15.484466552734375,8.845062255859375,3.521575927734375,1,1.0,1.0,1.0,1.0,10.00
2024-10-11 20:46:51.932,0.62931514,-0.18714449,0.094708286,0.3703554,0.14838697,-0.33604142,-0.28238866,0.22563691,0.62047887,0.24342471,0.32796615,0.5146509,0.6982961,-0.07515628,0.6049981,0.52156734,0.24894908,-0.4237507,0.2751988,-0.015647752,794.17584,790.9524,796.1905,802.6374,780.87915,0.08135986328125,0.09490966796875,1.00128173828125,-15.484466552734375,8.845062255859375,3.521575927734375,1,1.0,1.0,1.0,1.0,10.00
2024-10-11 20:46:51.932,0.62931514,-0.18714449,0.094708286,0.3703554,0.14838697,-0.33604142,-0.28238866,0.22563691,0.62047887,0.24342471,0.32796615,0.5146509,0.6982961,-0.07515628,0.6049981,0.52156734,0.24894908,-0.4237507,0.2751988,-0.015647752,796.5934,792.5641,799.81683,806.6667,778.0586,0.08135986328125,0.09490966796875,1.00128173828125,-15.484466552734375,8.845062255859375,3.521575927734375,1,1.0,1.0,1.0,1.0,10.00
2024-10-11 20:46:51.933,0.62931514,-0.13886221,0.22007605,0.3703554,0.14838697,-0.38809305,-0.17627104,0.22563691,0.62047887,0.26074797,0.31820458,0.5146509,0.6982961,-0.083057895,0.58475024,0.52156734,0.24894908,-0.41785407,0.2533023,-0.015647752,802.6374,794.17584,796.1905,803.44324,693.44324,0.08135986328125,0.09490966796875,1.00128173828125,-15.484466552734375,8.845062255859375,3.521575927734375,1,1.0,1.0,1.0,1.0,10.00
2024-10-11 20:46:52.005,0.62931514,-0.13886221,0.22007605,0.3703554,0.14838697,-0.38809305,-0.17627104,0.22563691,0.62047887,0.26074797,0.31820458,0.5146509,0.6982961,-0.083057895,0.58475024,0.52156734,0.24894908,-0.41785407,0.2533023,-0.015647752,805.4579,795.78754,796.1905,806.6667,672.8938,0.064208984375,0.05950927734375,1.0067138671875,-18.400421142578125,10.63201904296875,2.564544677734375,1,1.0,1.0,1.0,1.0,10.00
2024-10-11 20:46:52.006,0.62931514,-0.13886221,0.22007605,0.3703554,0.14838697,-0.38809305,-0.17627104,0.22563691,0.62047887,0.26074797,0.31820458,0.5146509,0.6982961,-0.083057895,0.58475024,0.52156734,0.24894908,-0.41785407,0.2533023,-0.015647752,812.3077,792.5641,789.7436,814.7253,689.41394,0.064208984375,0.05950927734375,1.0067138671875,-18.400421142578125,10.63201904296875,2.564544677734375,1,1.0,1.0,1.0,1.0,10.00
2024-10-11 20:46:52.006,0.62931514,-0.13886221,0.22007605,0.3703554,0.14838697,-0.38809305,-0.17627104,0.22563691,0.62047887,0.26074797,0.31820458,0.5146509,0.6982961,-0.083057895,0.58475024,0.52156734,0.24894908,-0.41785407,0.2533023,-0.015647752,819.15753,790.9524,794.57874,807.47253,645.4945,0.064208984375,0.05950927734375,1.0067138671875,-18.400421142578125,10.63201904296875,2.564544677734375,1,1.0,1.0,1.0,1.0,10.00
2024-10-11 20:46:52.007,0.62931514,-0.13886221,0.22007605,0.3703554,0.14838697,-0.38809305,-0.17627104,0.22563691,0.62047887,0.26074797,0.31820458,0.5146509,0.6982961,-0.083057895,0.58475024,0.52156734,0.24894908,-0.41785407,0.2533023,-0.015647752,818.3516,793.7729,814.3223,796.99634,532.674,0.064208984375,0.05950927734375,1.0067138671875,-18.400421142578125,10.63201904296875,2.564544677734375,1,1.0,1.0,1.0,1.0,10.00
2024-10-11 20:46:52.008,0.62931514,-0.13886221,0.22007605,0.3703554,0.14838697,-0.38809305,-0.17627104,0.22563691,0.62047887,0.26074797,0.31820458,0.5146509,0.6982961,-0.083057895,0.58475024,0.52156734,0.24894908,-0.41785407,0.2533023,-0.015647752,814.7253,789.7436,810.293,804.2491,663.6264,0.064208984375,0.05950927734375,1.0067138671875,-18.400421142578125,10.63201904296875,2.564544677734375,1,1.0,1.0,1.0,1.0,10.00
2024-10-11 20:46:52.009,0.62931514,-0.13886221,0.22007605,0.3703554,0.14838697,-0.38809305,-0.17627104,0.22563691,0.62047887,0.26074797,0.31820458,0.5146509,0.6982961,-0.083057895,0.58475024,0.52156734,0.24894908,-0.41785407,0.2533023,-0.015647752,809.4872,786.52014,803.44324,809.4872,819.9634,0.064208984375,0.05950927734375,1.0067138671875,-18.400421142578125,10.63201904296875,2.564544677734375,1,1.0,1.0,1.0,1.0,10.00
2024-10-11 20:46:52.009,0.62931514,-0.13886221,0.22007605,0.3703554,0.14838697,-0.38809305,-0.17627104,0.22563691,0.62047887,0.26074797,0.31820458,0.5146509,0.6982961,-0.083057895,0.58475024,0.52156734,0.24894908,-0.41785407,0.2533023,-0.015647752,819.15753,792.5641,799.011,803.44324,911.02563,0.064208984375,0.05950927734375,1.0067138671875,-18.400421142578125,10.63201904296875,2.564544677734375,1,1.0,1.0,1.0,1.0,10.00
2024-10-11 20:46:52.010,0.62931514,-0.13886221,0.22007605,0.3703554,0.14838697,-0.38809305,-0.17627104,0.22563691,0.62047887,0.26074797,0.31820458,0.5146509,0.6982961,-0.083057895,0.58475024,0.52156734,0.24894908,-0.41785407,0.2533023,-0.015647752,826.4103,795.38464,801.8315,809.89014,739.3773,0.064208984375,0.05950927734375,1.0067138671875,-18.400421142578125,10.63201904296875,2.564544677734375,1,1.0,1.0,1.0,1.0,10.00
2024-10-11 20:46:52.011,0.62931514,-0.13886221,0.22007605,0.3703554,0.14838697,-0.38809305,-0.17627104,0.22563691,0.62047887,0.26074797,0.31820458,0.5146509,0.6982961,-0.083057895,0.58475024,0.52156734,0.24894908,-0.41785407,0.2533023,-0.015647752,829.2308,794.9817,799.81683,828.4249,678.93774,0.064208984375,0.05950927734375,1.0067138671875,-18.400421142578125,10.63201904296875,2.564544677734375,1,1.0,1.0,1.0,1.0,10.00
2024-10-11 20:46:52.011,0.62931514,-0.13886221,0.22007605,0.3703554,0.14838697,-0.38809305,-0.17627104,0.22563691,0.62047887,0.26074797,0.31820458,0.5146509,0.6982961,-0.083057895,0.58475024,0.52156734,0.24894908,-0.41785407,0.2533023,-0.015647752,833.663,795.78754,792.96704,832.8571,849.3773,0.064208984375,0.05950927734375,1.0067138671875,-18.400421142578125,10.63201904296875,2.564544677734375,1,1.0,1.0,1.0,1.0,10.00
2024-10-11 20:46:52.012,0.62931514,-0.13886221,0.22007605,0.3703554,0.14838697,-0.38809305,-0.17627104,0.22563691,0.62047887,0.26074797,0.31820458,0.5146509,0.6982961,-0.083057895,0.58475024,0.52156734,0.24894908,-0.41785407,0.2533023,-0.015647752,828.4249,801.4286,788.1319,825.6044,730.9158,0.064208984375,0.05950927734375,1.0067138671875,-18.400421142578125,10.63201904296875,2.564544677734375,1,1.0,1.0,1.0,1.0,10.00
2024-10-11 20:46:52.013,0.62931514,-0.13886221,0.22007605,0.3703554,0.14838697,-0.38809305,-0.17627104,0.22563691,0.62047887,0.26074797,0.31820458,0.5146509,0.6982961,-0.083057895,0.58475024,0.52156734,0.24894908,-0.41785407,0.2533023,-0.015647752,820.7692,803.0403,788.5348,821.978,692.6374,0.064208984375,0.05950927734375,1.0067138671875,-18.400421142578125,10.63201904296875,2.564544677734375,1,1.0,1.0,1.0,1.0,10.00
2024-10-11 20:46:52.105,0.62931514,-0.13886221,0.22007605,0.3703554,0.14838697,-0.38809305,-0.17627104,0.22563691,0.62047887,0.26074797,0.31820458,0.5146509,0.6982961,-0.083057895,0.58475024,0.52156734,0.24894908,-0.41785407,0.2533023,-0.015647752,826.4103,798.60803,798.20514,823.9927,838.0952,0.05078125,0.0167236328125,0.9949951171875,-18.9013671875,10.609588623046875,0.97198486328125,1,1.0,1.0,1.0,1.0,10.00
2024-10-11 20:46:52.106,0.62931514,-0.13886221,0.22007605,0.3703554,0.14838697,-0.38809305,-0.17627104,0.22563691,0.62047887,0.26074797,0.31820458,0.5146509,0.6982961,-0.083057895,0.58475024,0.52156734,0.24894908,-0.41785407,0.2533023,-0.015647752,828.022,796.5934,805.05493,827.619,843.3333,0.05078125,0.0167236328125,0.9949951171875,-18.9013671875,10.609588623046875,0.97198486328125,1,1.0,1.0,1.0,1.0,10.00
2024-10-11 20:46:52.107,0.62931514,-0.13886221,0.22007605,0.3703554,0.14838697,-0.38809305,-0.17627104,0.22563691,0.62047887,0.26074797,0.31820458,0.5146509,0.6982961,-0.083057895,0.58475024,0.52156734,0.24894908,-0.41785407,0.2533023,-0.015647752,819.15753,799.011,803.44324,829.2308,688.20514,0.05078125,0.0167236328125,0.9949951171875,-18.9013671875,10.609588623046875,0.97198486328125,1,1.0,1.0,1.0,1.0,10.00
2024-10-11 20:46:52.108,0.62931514,-0.13886221,0.22007605,0.3703554,0.14838697,-0.38809305,-0.17627104,0.22563691,0.62047887,0.26074797,0.31820458,0.5146509,0.6982961,-0.083057895,0.58475024,0.52156734,0.24894908,-0.41785407,0.2533023,-0.015647752,815.9341,800.6227,803.44324,822.381,581.8315,0.05078125,0.0167236328125,0.9949951171875,-18.9013671875,10.609588623046875,0.97198486328125,1,1.0,1.0,1.0,1.0,10.00
2024-10-11 20:46:52.109,0.62931514,-0.13886221,0.22007605,0.3703554,0.14838697,-0.38809305,-0.17627104,0.22563691,0.62047887,0.26074797,0.31820458,0.5146509,0.6982961,-0.083057895,0.58475024,0.52156734,0.24894908,-0.41785407,0.2533023,-0.015647752,806.6667,800.2198,810.293,817.5458,753.47986,0.05078125,0.0167236328125,0.9949951171875,-18.9013671875,10.609588623046875,0.97198486328125,1,1.0,1.0,1.0,1.0,10.00
2024-10-11 20:46:52.109,0.62931514,-0.13886221,0.22007605,0.3703554,0.14838697,-0.38809305,-0.17627104,0.22563691,0.62047887,0.26074797,0.31820458,0.5146509,0.6982961,-0.083057895,0.58475024,0.52156734,0.24894908,-0.41785407,0.2533023,-0.015647752,809.0842,800.6227,808.2784,808.2784,875.9707,0.05078125,0.0167236328125,0.9949951171875,-18.9013671875,10.609588623046875,0.97198486328125,1,1.0,1.0,1.0,1.0,10.00
2024-10-11 20:46:52.110,0.62931514,-0.13886221,0.22007605,0.3703554,0.14838697,-0.38809305,-0.17627104,0.22563691,0.62047887,0.26074797,0.31820458,0.5146509,0.6982961,-0.083057895,0.58475024,0.52156734,0.24894908,-0.41785407,0.2533023,-0.015647752,815.12823,797.3993,800.2198,804.65204,736.1539,0.05078125,0.0167236328125,0.9949951171875,-18.9013671875,10.609588623046875,0.97198486328125,1,1.0,1.0,1.0,1.0,10.00
2024-10-11 20:46:52.111,0.62931514,-0.13886221,0.22007605,0.3703554,0.14838697,-0.38809305,-0.17627104,0.22563691,0.62047887,0.26074797,0.31820458,0.5146509,0.6982961,-0.083057895,0.58475024,0.52156734,0.24894908,-0.41785407,0.2533023,-0.015647752,814.7253,792.96704,796.99634,815.5311,664.0293,0.05078125,0.0167236328125,0.9949951171875,-18.9013671875,10.609588623046875,0.97198486328125,1,1.0,1.0,1.0,1.0,10.00
2024-10-11 20:46:52.111,0.62931514,-0.13886221,0.22007605,0.3703554,0.14838697,-0.38809305,-0.17627104,0.22563691,0.62047887,0.26074797,0.31820458,0.5146509,0.6982961,-0.083057895,0.58475024,0.52156734,0.24894908,-0.41785407,0.2533023,-0.015647752,808.68134,793.36993,792.96704,824.3956,730.9158,0.05078125,0.0167236328125,0.9949951171875,-18.9013671875,10.609588623046875,0.97198486328125,1,1.0,1.0,1.0,1.0,10.00
2024-10-11 20:46:52.112,0.62931514,-0.13886221,0.22007605,0.3703554,0.14838697,-0.38809305,-0.17627104,0.22563691,0.62047887,0.26074797,0.31820458,0.5146509,0.6982961,-0.083057895,0.58475024,0.52156734,0.24894908,-0.41785407,0.2533023,-0.015647752,809.4872,791.75824,791.3553,823.9927,639.45056,0.05078125,0.0167236328125,0.9949951171875,-18.9013671875,10.609588623046875,0.97198486328125,1,1.0,1.0,1.0,1.0,10.00
2024-10-11 20:46:52.113,0.62931514,-0.13886221,0.22007605,0.3703554,0.14838697,-0.38809305,-0.17627104,0.22563691,0.62047887,0.26074797,0.31820458,0.5146509,0.6982961,-0.083057895,0.58475024,0.52156734,0.24894908,-0.41785407,0.2533023,-0.015647752,818.7546,791.3553,794.9817,819.9634,483.11356,0.05078125,0.0167236328125,0.9949951171875,-18.9013671875,10.609588623046875,0.97198486328125,1,1.0,1.0,1.0,1.0,10.00
2024-10-11 20:46:52.114,0.62931514,-0.13886221,0.22007605,0.3703554,0.14838697,-0.38809305,-0.17627104,0.22563691,0.62047887,0.26074797,0.31820458,0.5146509,0.6982961,-0.083057895,0.58475024,0.52156734,0.24894908,-0.41785407,0.2533023,-0.015647752,812.3077,792.96704,792.1612,816.337,558.46155,0.05078125,0.0167236328125,0.9949951171875,-18.9013671875,10.609588623046875,0.97198486328125,1,1.0,1.0,1.0,1.0,10.00
2024-10-11 20:46:52.115,0.62931514,-0.13886221,0.22007605,0.3703554,0.14838697,-0.38809305,-0.17627104,0.22563691,0.62047887,0.26074797,0.31820458,0.5146509,0.6982961,-0.083057895,0.58475024,0.52156734,0.24894908,-0.41785407,0.2533023,-0.015647752,806.26373,791.3553,800.6227,809.4872,726.4835,0.05078125,0.0167236328125,0.9949951171875,-18.9013671875,10.609588623046875,0.97198486328125,1,1.0,1.0,1.0,1.0,10.00
2024-10-11 20:46:52.115,0.5862545,-0.02008563,0.38612807,0.325953,0.13602574,-0.427196,-0.050404344,0.24490643,0.54723066,0.26224136,0.3053693,0.49169207,0.7108674,-0.08706811,0.5681152,0.49746135,0.24416992,-0.4113142,0.23325676,-0.017894812,811.50183,792.1612,801.4286,812.3077,696.26373,0.05078125,0.0167236328125,0.9949951171875,-18.9013671875,10.609588623046875,0.97198486328125,1,1.0,1.0,1.0,1.0,10.00
2024-10-11 20:46:52.121,0.5862545,-0.02008563,0.38612807,0.325953,0.13602574,-0.427196,-0.050404344,0.24490643,0.54723066,0.26224136,0.3053693,0.49169207,0.7108674,-0.08706811,0.5681152,0.49746135,0.24416992,-0.4113142,0.23325676,-0.017894812,818.7546,794.9817,786.52014,820.7692,539.12085,0.05078125,0.0167236328125,0.9949951171875,-18.9013671875,10.609588623046875,0.97198486328125,1,1.0,1.0,1.0,1.0,10.00
2024-10-11 20:46:52.122,0.5862545,-0.02008563,0.38612807,0.325953,0.13602574,-0.427196,-0.050404344,0.24490643,0.54723066,0.26224136,0.3053693,0.49169207,0.7108674,-0.08706811,0.5681152,0.49746135,0.24416992,-0.4113142,0.23325676,-0.017894812,822.7839,798.20514,789.7436,815.12823,579.81683,0.05078125,0.0167236328125,0.9949951171875,-18.9013671875,10.609588623046875,0.97198486328125,1,1.0,1.0,1.0,1.0,10.00
2024-10-11 20:46:52.123,0.5862545,-0.02008563,0.38612807,0.325953,0.13602574,-0.427196,-0.050404344,0.24490643,0.54723066,0.26224136,0.3053693,0.49169207,0.7108674,-0.08706811,0.5681152,0.49746135,0.24416992,-0.4113142,0.23325676,-0.017894812,817.9487,800.6227,812.71063,816.337,765.16486,0.05078125,0.0167236328125,0.9949951171875,-18.9013671875,10.609588623046875,0.97198486328125,1,1.0,1.0,1.0,1.0,10.00
2024-10-11 20:46:52.124,0.5862545,-0.02008563,0.38612807,0.325953,0.13602574,-0.427196,-0.050404344,0.24490643,0.54723066,0.26224136,0.3053693,0.49169207,0.7108674,-0.08706811,0.5681152,0.49746135,0.24416992,-0.4113142,0.23325676,-0.017894812,819.9634,800.2198,815.9341,817.1429,770.0,0.05078125,0.0167236328125,0.9949951171875,-18.9013671875,10.609588623046875,0.97198486328125,1,1.0,1.0,1.0,1.0,10.00
2024-10-11 20:46:52.125,0.5862545,-0.02008563,0.38612807,0.325953,0.13602574,-0.427196,-0.050404344,0.24490643,0.54723066,0.26224136,0.3053693,0.49169207,0.7108674,-0.08706811,0.5681152,0.49746135,0.24416992,-0.4113142,0.23325676,-0.017894812,819.5604,799.81683,809.0842,804.2491,630.989,0.05078125,0.0167236328125,0.9949951171875,-18.9013671875,10.609588623046875,0.97198486328125,1,1.0,1.0,1.0,1.0,10.00
2024-10-11 20:46:52.125,0.5862545,-0.02008563,0.38612807,0.325953,0.13602574,-0.427196,-0.050404344,0.24490643,0.54723066,0.26224136,0.3053693,0.49169207,0.7108674,-0.08706811,0.5681152,0.49746135,0.24416992,-0.4113142,0.23325676,-0.017894812,821.978,801.02563,806.26373,805.05493,640.65936,0.05078125,0.0167236328125,0.9949951171875,-18.9013671875,10.609588623046875,0.97198486328125,1,1.0,1.0,1.0,1.0,10.00
2024-10-11 20:46:52.126,0.5862545,-0.02008563,0.38612807,0.325953,0.13602574,-0.427196,-0.050404344,0.24490643,0.54723066,0.26224136,0.3053693,0.49169207,0.7108674,-0.08706811,0.5681152,0.49746135,0.24416992,-0.4113142,0.23325676,-0.017894812,819.5604,795.38464,796.99634,819.15753,706.7399,0.05078125,0.0167236328125,0.9949951171875,-18.9013671875,10.609588623046875,0.97198486328125,1,1.0,1.0,1.0,1.0,10.00
2024-10-11 20:46:52.127,0.5862545,-0.02008563,0.38612807,0.325953,0.13602574,-0.427196,-0.050404344,0.24490643,0.54723066,0.26224136,0.3053693,0.49169207,0.7108674,-0.08706811,0.5681152,0.49746135,0.24416992,-0.4113142,0.23325676,-0.017894812,819.5604,791.75824,789.7436,820.3663,629.7802,0.05078125,0.0167236328125,0.9949951171875,-18.9013671875,10.609588623046875,0.97198486328125,1,1.0,1.0,1.0,1.0,10.00
2024-10-11 20:46:52.127,0.5862545,-0.02008563,0.38612807,0.325953,0.13602574,-0.427196,-0.050404344,0.24490643,0.54723066,0.26224136,0.3053693,0.49169207,0.7108674,-0.08706811,0.5681152,0.49746135,0.24416992,-0.4113142,0.23325676,-0.017894812,826.8132,797.3993,793.7729,816.7399,503.663,0.05078125,0.0167236328125,0.9949951171875,-18.9013671875,10.609588623046875,0.97198486328125,1,1.0,1.0,1.0,1.0,10.00
2024-10-11 20:46:52.128,0.5862545,-0.02008563,0.38612807,0.325953,0.13602574,-0.427196,-0.050404344,0.24490643,0.54723066,0.26224136,0.3053693,0.49169207,0.7108674,-0.08706811,0.5681152,0.49746135,0.24416992,-0.4113142,0.23325676,-0.017894812,819.15753,798.20514,801.02563,814.7253,695.05493,0.05078125,0.0167236328125,0.9949951171875,-18.9013671875,10.609588623046875,0.97198486328125,1,1.0,1.0,1.0,1.0,10.00
2024-10-11 20:46:52.129,0.5862545,-0.02008563,0.38612807,0.325953,0.13602574,-0.427196,-0.050404344,0.24490643,0.54723066,0.26224136,0.3053693,0.49169207,0.7108674,-0.08706811,0.5681152,0.49746135,0.24416992,-0.4113142,0.23325676,-0.017894812,807.0696,795.38464,802.23444,808.2784,872.74725,0.033447265625,-0.00177001953125,0.99969482421875,-16.291961669921875,10.460052490234375,0.2392578125,1,1.0,1.0,1.0,1.0,10.00
2024-10-11 20:46:52.130,0.5862545,-0.02008563,0.38612807,0.325953,0.13602574,-0.427196,-0.050404344,0.24490643,0.54723066,0.26224136,0.3053693,0.49169207,0.7108674,-0.08706811,0.5681152,0.49746135,0.24416992,-0.4113142,0.23325676,-0.017894812,806.26373,796.1905,803.44324,810.696,635.0183,0.033447265625,-0.00177001953125,0.99969482421875,-16.291961669921875,10.460052490234375,0.2392578125,1,1.0,1.0,1.0,1.0,10.00
2024-10-11 20:46:52.131,0.5862545,-0.02008563,0.38612807,0.325953,0.13602574,-0.427196,-0.050404344,0.24490643,0.54723066,0.26224136,0.3053693,0.49169207,0.7108674,-0.08706811,0.5681152,0.49746135,0.24416992,-0.4113142,0.23325676,-0.017894812,815.12823,800.2198,793.7729,813.1135,492.38095,0.033447265625,-0.00177001953125,0.99969482421875,-16.291961669921875,10.460052490234375,0.2392578125,1,1.0,1.0,1.0,1.0,10.00
2024-10-11 20:46:52.132,0.5862545,-0.02008563,0.38612807,0.325953,0.13602574,-0.427196,-0.050404344,0.24490643,0.54723066,0.26224136,0.3053693,0.49169207,0.7108674,-0.08706811,0.5681152,0.49746135,0.24416992,-0.4113142,0.23325676,-0.017894812,813.91943,801.8315,793.36993,818.7546,673.2967,0.033447265625,-0.00177001953125,0.99969482421875,-16.291961669921875,10.460052490234375,0.2392578125,1,1.0,1.0,1.0,1.0,10.00
2024-10-11 20:46:52.133,0.5862545,-0.02008563,0.38612807,0.325953,0.13602574,-0.427196,-0.050404344,0.24490643,0.54723066,0.26224136,0.3053693,0.49169207,0.7108674,-0.08706811,0.5681152,0.49746135,0.24416992,-0.4113142,0.23325676,-0.017894812,821.5751,796.99634,796.99634,819.5604,752.27106,0.033447265625,-0.00177001953125,0.99969482421875,-16.291961669921875,10.460052490234375,0.2392578125,1,1.0,1.0,1.0,1.0,10.00
2024-10-11 20:46:52.133,0.5862545,-0.02008563,0.38612807,0.325953,0.13602574,-0.427196,-0.050404344,0.24490643,0.54723066,0.26224136,0.3053693,0.49169207,0.7108674,-0.08706811,0.5681152,0.49746135,0.24416992,-0.4113142,0.23325676,-0.017894812,817.1429,797.3993,797.8022,809.0842,662.8205,0.033447265625,-0.00177001953125,0.99969482421875,-16.291961669921875,10.460052490234375,0.2392578125,1,1.0,1.0,1.0,1.0,10.00
2024-10-11 20:46:52.134,0.5862545,-0.02008563,0.38612807,0.325953,0.13602574,-0.427196,-0.050404344,0.24490643,0.54723066,0.26224136,0.3053693,0.49169207,0.7108674,-0.08706811,0.5681152,0.49746135,0.24416992,-0.4113142,0.23325676,-0.017894812,806.26373,797.3993,807.8755,813.5165,759.5238,0.033447265625,-0.00177001953125,0.99969482421875,-16.291961669921875,10.460052490234375,0.2392578125,1,1.0,1.0,1.0,1.0,10.00
2024-10-11 20:46:52.135,0.5862545,-0.02008563,0.38612807,0.325953,0.13602574,-0.427196,-0.050404344,0.24490643,0.54723066,0.26224136,0.3053693,0.49169207,0.7108674,-0.08706811,0.5681152,0.49746135,0.24416992,-0.4113142,0.23325676,-0.017894812,810.293,798.20514,810.696,814.3223,933.9927,0.033447265625,-0.00177001953125,0.99969482421875,-16.291961669921875,10.460052490234375,0.2392578125,1,1.0,1.0,1.0,1.0,10.00
2024-10-11 20:46:52.136,0.5862545,-0.02008563,0.38612807,0.325953,0.13602574,-0.427196,-0.050404344,0.24490643,0.54723066,0.26224136,0.3053693,0.49169207,0.7108674,-0.08706811,0.5681152,0.49746135,0.24416992,-0.4113142,0.23325676,-0.017894812,810.293,800.6227,808.2784,805.8608,814.3223,0.033447265625,-0.00177001953125,0.99969482421875,-16.291961669921875,10.460052490234375,0.2392578125,1,1.0,1.0,1.0,1.0,10.00
2024-10-11 20:46:52.137,0.5862545,-0.02008563,0.38612807,0.325953,0.13602574,-0.427196,-0.050404344,0.24490643,0.54723066,0.26224136,0.3053693,0.49169207,0.7108674,-0.08706811,0.5681152,0.49746135,0.24416992,-0.4113142,0.23325676,-0.017894812,815.12823,799.81683,804.2491,806.26373,620.9158,0.033447265625,-0.00177001953125,0.99969482421875,-16.291961669921875,10.460052490234375,0.2392578125,1,1.0,1.0,1.0,1.0,10.00
2024-10-11 20:46:52.138,0.5862545,-0.02008563,0.38612807,0.325953,0.13602574,-0.427196,-0.050404344,0.24490643,0.54723066,0.26224136,0.3053693,0.49169207,0.7108674,-0.08706811,0.5681152,0.49746135,0.24416992,-0.4113142,0.23325676,-0.017894812,815.12823,802.23444,792.96704,808.68134,730.9158,0.033447265625,-0.00177001953125,0.99969482421875,-16.291961669921875,10.460052490234375,0.2392578125,1,1.0,1.0,1.0,1.0,10.00
2024-10-11 20:46:52.139,0.5862545,-0.02008563,0.38612807,0.325953,0.13602574,-0.427196,-0.050404344,0.24490643,0.54723066,0.26224136,0.3053693,0.49169207,0.7108674,-0.08706811,0.5681152,0.49746135,0.24416992,-0.4113142,0.23325676,-0.017894812,820.7692,800.2198,794.9817,805.05493,802.23444,0.033447265625,-0.00177001953125,0.99969482421875,-16.291961669921875,10.460052490234375,0.2392578125,1,1.0,1.0,1.0,1.0,10.00
2024-10-11 20:46:52.171,0.5862545,-0.02008563,0.38612807,0.325953,0.13602574,-0.427196,-0.050404344,0.24490643,0.54723066,0.26224136,0.3053693,0.49169207,0.7108674,-0.08706811,0.5681152,0.49746135,0.24416992,-0.4113142,0.23325676,-0.017894812,818.3516,796.99634,803.0403,810.293,758.315,0.01495361328125,-0.02362060546875,1.0052490234375,-14.318084716796875,11.686248779296875,-1.1962890625,1,1.0,1.0,1.0,1.0,10.00
2024-10-11 20:46:52.172,0.5862545,-0.02008563,0.38612807,0.325953,0.13602574,-0.427196,-0.050404344,0.24490643,0.54723066,0.26224136,0.3053693,0.49169207,0.7108674,-0.08706811,0.5681152,0.49746135,0.24416992,-0.4113142,0.23325676,-0.017894812,811.0989,800.2198,806.6667,812.3077,668.46155,0.01495361328125,-0.02362060546875,1.0052490234375,-14.318084716796875,11.686248779296875,-1.1962890625,1,1.0,1.0,1.0,1.0,10.00
2024-10-11 20:46:52.173,0.5862545,-0.02008563,0.38612807,0.325953,0.13602574,-0.427196,-0.050404344,0.24490643,0.54723066,0.26224136,0.3053693,0.49169207,0.7108674,-0.08706811,0.5681152,0.49746135,0.24416992,-0.4113142,0.23325676,-0.017894812,817.5458,799.41394,798.60803,807.0696,695.8608,0.01495361328125,-0.02362060546875,1.0052490234375,-14.318084716796875,11.686248779296875,-1.1962890625,1,1.0,1.0,1.0,1.0,10.00
2024-10-11 20:46:52.174,0.57254714,0.13496602,0.40154144,0.31527737,0.1120972,-0.43375733,-0.034931168,0.26978952,0.52250534,0.26224136,0.30204362,0.48161486,0.7182162,-0.09131389,0.55798274,0.48346683,0.2434484,-0.40446207,0.21810126,-0.004528316,811.9048,797.8022,792.1612,808.2784,778.0586,0.01495361328125,-0.02362060546875,1.0052490234375,-14.318084716796875,11.686248779296875,-1.1962890625,1,1.0,1.0,1.0,1.0,10.00
2024-10-11 20:46:52.180,0.57254714,0.13496602,0.40154144,0.31527737,0.1120972,-0.43375733,-0.034931168,0.26978952,0.52250534,0.26224136,0.30204362,0.48161486,0.7182162,-0.09131389,0.55798274,0.48346683,0.2434484,-0.40446207,0.21810126,-0.004528316,815.9341,798.60803,792.1612,812.3077,692.23444,0.01495361328125,-0.02362060546875,1.0052490234375,-14.318084716796875,11.686248779296875,-1.1962890625,1,1.0,1.0,1.0,1.0,10.00
2024-10-11 20:46:52.181,0.57254714,0.13496602,0.40154144,0.31527737,0.1120972,-0.43375733,-0.034931168,0.26978952,0.52250534,0.26224136,0.30204362,0.48161486,0.7182162,-0.09131389,0.55798274,0.48346683,0.2434484,-0.40446207,0.21810126,-0.004528316,815.9341,798.20514,796.99634,815.5311,675.7143,0.01495361328125,-0.02362060546875,1.0052490234375,-14.318084716796875,11.686248779296875,-1.1962890625,1,1.0,1.0,1.0,1.0,10.00
2024-10-11 20:46:52.182,0.57254714,0.13496602,0.40154144,0.31527737,0.1120972,-0.43375733,-0.034931168,0.26978952,0.52250534,0.26224136,0.30204362,0.48161486,0.7182162,-0.09131389,0.55798274,0.48346683,0.2434484,-0.40446207,0.21810126,-0.004528316,810.293,794.57874,807.8755,819.5604,899.7436,0.01495361328125,-0.02362060546875,1.0052490234375,-14.318084716796875,11.686248779296875,-1.1962890625,1,1.0,1.0,1.0,1.0,10.00
2024-10-11 20:46:52.182,0.57254714,0.13496602,0.40154144,0.31527737,0.1120972,-0.43375733,-0.034931168,0.26978952,0.52250534,0.26224136,0.30204362,0.48161486,0.7182162,-0.09131389,0.55798274,0.48346683,0.2434484,-0.40446207,0.21810126,-0.004528316,802.6374,793.36993,804.65204,814.3223,906.99634,0.01495361328125,-0.02362060546875,1.0052490234375,-14.318084716796875,11.686248779296875,-1.1962890625,1,1.0,1.0,1.0,1.0,10.00
2024-10-11 20:46:52.183,0.57254714,0.13496602,0.40154144,0.31527737,0.1120972,-0.43375733,-0.034931168,0.26978952,0.52250534,0.26224136,0.30204362,0.48161486,0.7182162,-0.09131389,0.55798274,0.48346683,0.2434484,-0.40446207,0.21810126,-0.004528316,798.60803,798.20514,801.8315,794.9817,588.2784,0.01495361328125,-0.02362060546875,1.0052490234375,-14.318084716796875,11.686248779296875,-1.1962890625,1,1.0,1.0,1.0,1.0,10.00
2024-10-11 20:46:52.184,0.57254714,0.13496602,0.40154144,0.31527737,0.1120972,-0.43375733,-0.034931168,0.26978952,0.52250534,0.26224136,0.30204362,0.48161486,0.7182162,-0.09131389,0.55798274,0.48346683,0.2434484,-0.40446207,0.21810126,-0.004528316,810.696,795.38464,803.8461,799.41394,496.8132,0.01495361328125,-0.02362060546875,1.0052490234375,-14.318084716796875,11.686248779296875,-1.1962890625,1,1.0,1.0,1.0,1.0,10.00
2024-10-11 20:46:52.185,0.57254714,0.13496602,0.40154144,0.31527737,0.1120972,-0.43375733,-0.034931168,0.26978952,0.52250534,0.26224136,0.30204362,0.48161486,0.7182162,-0.09131389,0.55798274,0.48346683,0.2434484,-0.40446207,0.21810126,-0.004528316,811.0989,794.57874,796.5934,813.5165,788.93774,0.01495361328125,-0.02362060546875,1.0052490234375,-14.318084716796875,11.686248779296875,-1.1962890625,1,1.0,1.0,1.0,1.0,10.00
2024-10-11 20:46:52.186,0.57254714,0.13496602,0.40154144,0.31527737,0.1120972,-0.43375733,-0.034931168,0.26978952,0.52250534,0.26224136,0.30204362,0.48161486,0.7182162,-0.09131389,0.55798274,0.48346683,0.2434484,-0.40446207,0.21810126,-0.004528316,803.0403,797.8022,794.17584,806.26373,888.0586,0.01495361328125,-0.02362060546875,1.0052490234375,-14.318084716796875,11.686248779296875,-1.1962890625,1,1.0,1.0,1.0,1.0,10.00
2024-10-11 20:46:52.187,0.57254714,0.13496602,0.40154144,0.31527737,0.1120972,-0.43375733,-0.034931168,0.26978952,0.52250534,0.26224136,0.30204362,0.48161486,0.7182162,-0.09131389,0.55798274,0.48346683,0.2434484,-0.40446207,0.21810126,-0.004528316,814.7253,798.20514,796.99634,805.05493,617.6923,-0.00628662109375,-0.04034423828125,1.0084228515625,-13.0096435546875,11.14044189453125,-2.026214599609375,1,1.0,1.0,1.0,1.0,10.00
2024-10-11 20:46:52.188,0.57254714,0.13496602,0.40154144,0.31527737,0.1120972,-0.43375733,-0.034931168,0.26978952,0.52250534,0.26224136,0.30204362,0.48161486,0.7182162,-0.09131389,0.55798274,0.48346683,0.2434484,-0.40446207,0.21810126,-0.004528316,819.15753,793.7729,802.23444,812.71063,627.3626,-0.00628662109375,-0.04034423828125,1.0084228515625,-13.0096435546875,11.14044189453125,-2.026214599609375,1,1.0,1.0,1.0,1.0,10.00
2024-10-11 20:46:52.189,0.57254714,0.13496602,0.40154144,0.31527737,0.1120972,-0.43375733,-0.034931168,0.26978952,0.52250534,0.26224136,0.30204362,0.48161486,0.7182162,-0.09131389,0.55798274,0.48346683,0.2434484,-0.40446207,0.21810126,-0.004528316,809.4872,780.87915,805.4579,823.1868,902.5641,-0.00628662109375,-0.04034423828125,1.0084228515625,-13.0096435546875,11.14044189453125,-2.026214599609375,1,1.0,1.0,1.0,1.0,10.00
2024-10-11 20:46:52.190,0.57254714,0.13496602,0.40154144,0.31527737,0.1120972,-0.43375733,-0.034931168,0.26978952,0.52250534,0.26224136,0.30204362,0.48161486,0.7182162,-0.09131389,0.55798274,0.48346683,0.2434484,-0.40446207,0.21810126,-0.004528316,817.9487,782.49084,802.23444,834.0659,965.42126,-0.00628662109375,-0.04034423828125,1.0084228515625,-13.0096435546875,11.14044189453125,-2.026214599609375,1,1.0,1.0,1.0,1.0,10.00
2024-10-11 20:46:52.190,0.57254714,0.13496602,0.40154144,0.31527737,0.1120972,-0.43375733,-0.034931168,0.26978952,0.52250534,0.26224136,0.30204362,0.48161486,0.7182162,-0.09131389,0.55798274,0.48346683,0.2434484,-0.40446207,0.21810126,-0.004528316,814.7253,802.23444,802.6374,823.5897,724.87177,-0.00628662109375,-0.04034423828125,1.0084228515625,-13.0096435546875,11.14044189453125,-2.026214599609375,1,1.0,1.0,1.0,1.0,10.00
2024-10-11 20:46:52.191,0.57254714,0.13496602,0.40154144,0.31527737,0.1120972,-0.43375733,-0.034931168,0.26978952,0.52250534,0.26224136,0.30204362,0.48161486,0.7182162,-0.09131389,0.55798274,0.48346683,0.2434484,-0.40446207,0.21810126,-0.004528316,809.4872,806.26373,805.8608,809.0842,832.8571,-0.00628662109375,-0.04034423828125,1.0084228515625,-13.0096435546875,11.14044189453125,-2.026214599609375,1,1.0,1.0,1.0,1.0,10.00
2024-10-11 20:46:52.192,0.57254714,0.13496602,0.40154144,0.31527737,0.1120972,-0.43375733,-0.034931168,0.26978952,0.52250534,0.26224136,0.30204362,0.48161486,0.7182162,-0.09131389,0.55798274,0.48346683,0.2434484,-0.40446207,0.21810126,-0.004528316,808.68134,801.02563,807.8755,801.8315,1041.5751,-0.00628662109375,-0.04034423828125,1.0084228515625,-13.0096435546875,11.14044189453125,-2.026214599609375,1,1.0,1.0,1.0,1.0,10.00
2024-10-11 20:46:52.193,0.57254714,0.13496602,0.40154144,0.31527737,0.1120972,-0.43375733,-0.034931168,0.26978952,0.52250534,0.26224136,0.30204362,0.48161486,0.7182162,-0.09131389,0.55798274,0.48346683,0.2434484,-0.40446207,0.21810126,-0.004528316,794.9817,805.4579,802.6374,796.5934,909.011,-0.00628662109375,-0.04034423828125,1.0084228515625,-13.0096435546875,11.14044189453125,-2.026214599609375,1,1.0,1.0,1.0,1.0,10.00
2024-10-11 20:46:52.194,0.57254714,0.13496602,0.40154144,0.31527737,0.1120972,-0.43375733,-0.034931168,0.26978952,0.52250534,0.26224136,0.30204362,0.48161486,0.7182162,-0.09131389,0.55798274,0.48346683,0.2434484,-0.40446207,0.21810126,-0.004528316,797.8022,813.1135,800.2198,795.78754,622.9304,-0.00628662109375,-0.04034423828125,1.0084228515625,-13.0096435546875,11.14044189453125,-2.026214599609375,1,1.0,1.0,1.0,1.0,10.00
2024-10-11 20:46:52.194,0.57254714,0.13496602,0.40154144,0.31527737,0.1120972,-0.43375733,-0.034931168,0.26978952,0.52250534,0.26224136,0.30204362,0.48161486,0.7182162,-0.09131389,0.55798274,0.48346683,0.2434484,-0.40446207,0.21810126,-0.004528316,808.68134,815.12823,791.75824,793.7729,516.9597,-0.00628662109375,-0.04034423828125,1.0084228515625,-13.0096435546875,11.14044189453125,-2.026214599609375,1,1.0,1.0,1.0,1.0,10.00
2024-10-11 20:46:52.195,0.57254714,0.13496602,0.40154144,0.31527737,0.1120972,-0.43375733,-0.034931168,0.26978952,0.52250534,0.26224136,0.30204362,0.48161486,0.7182162,-0.09131389,0.55798274,0.48346683,0.2434484,-0.40446207,0.21810126,-0.004528316,796.5934,811.9048,783.69965,783.69965,780.87915,-0.00628662109375,-0.04034423828125,1.0084228515625,-13.0096435546875,11.14044189453125,-2.026214599609375,1,1.0,1.0,1.0,1.0,10.00
2024-10-11 20:46:52.196,0.57254714,0.13496602,0.40154144,0.31527737,0.1120972,-0.43375733,-0.034931168,0.26978952,0.52250534,0.26224136,0.30204362,0.48161486,0.7182162,-0.09131389,0.55798274,0.48346683,0.2434484,-0.40446207,0.21810126,-0.004528316,788.1319,814.3223,782.0879,785.7143,880.40295,-0.00628662109375,-0.04034423828125,1.0084228515625,-13.0096435546875,11.14044189453125,-2.026214599609375,1,1.0,1.0,1.0,1.0,10.00
2024-10-11 20:46:52.227,0.57254714,0.13496602,0.40154144,0.31527737,0.1120972,-0.43375733,-0.034931168,0.26978952,0.52250534,0.26224136,0.30204362,0.48161486,0.7182162,-0.09131389,0.55798274,0.48346683,0.2434484,-0.40446207,0.21810126,-0.004528316,795.78754,821.1722,775.2381,788.93774,649.5238,-0.0159912109375,-0.0528564453125,1.0042724609375,-11.222686767578125,9.772186279296875,-2.549591064453125,1,1.0,1.0,1.0,1.0,10.00
2024-10-11 20:46:52.228,0.57254714,0.13496602,0.40154144,0.31527737,0.1120972,-0.43375733,-0.034931168,0.26978952,0.52250534,0.26224136,0.30204362,0.48161486,0.7182162,-0.09131389,0.55798274,0.48346683,0.2434484,-0.40446207,0.21810126,-0.004528316,786.9231,819.15753,774.83514,781.28204,696.26373,-0.0159912109375,-0.0528564453125,1.0042724609375,-11.222686767578125,9.772186279296875,-2.549591064453125,1,1.0,1.0,1.0,1.0,10.00
2024-10-11 20:46:52.229,0.57254714,0.13496602,0.40154144,0.31527737,0.1120972,-0.43375733,-0.034931168,0.26978952,0.52250534,0.26224136,0.30204362,0.48161486,0.7182162,-0.09131389,0.55798274,0.48346683,0.2434484,-0.40446207,0.21810126,-0.004528316,782.8938,813.91943,788.1319,788.1319,811.9048,-0.0159912109375,-0.0528564453125,1.0042724609375,-11.222686767578125,9.772186279296875,-2.549591064453125,1,1.0,1.0,1.0,1.0,10.00
2024-10-11 20:46:52.229,0.57254714,0.13496602,0.40154144,0.31527737,0.1120972,-0.43375733,-0.034931168,0.26978952,0.52250534,0.26224136,0.30204362,0.48161486,0.7182162,-0.09131389,0.55798274,0.48346683,0.2434484,-0.40446207,0.21810126,-0.004528316,784.5055,811.0989,792.96704,797.8022,741.79486,-0.0159912109375,-0.0528564453125,1.0042724609375,-11.222686767578125,9.772186279296875,-2.549591064453125,1,1.0,1.0,1.0,1.0,10.00
2024-10-11 20:46:52.230,0.57254714,0.13496602,0.40154144,0.31527737,0.1120972,-0.43375733,-0.034931168,0.26978952,0.52250534,0.26224136,0.30204362,0.48161486,0.7182162,-0.09131389,0.55798274,0.48346683,0.2434484,-0.40446207,0.21810126,-0.004528316,791.75824,811.9048,780.07324,794.17584,597.1429,-0.0159912109375,-0.0528564453125,1.0042724609375,-11.222686767578125,9.772186279296875,-2.549591064453125,1,1.0,1.0,1.0,1.0,10.00
2024-10-11 20:46:52.231,0.58581275,0.2795096,0.41988948,0.32139722,0.07076271,-0.41246954,-0.021650124,0.29211494,0.49023318,0.2527942,0.30063537,0.4724801,0.72486395,-0.09635051,0.5450938,0.47296497,0.24015498,-0.39916602,0.20219803,0.02149828,804.2491,817.1429,771.6117,788.1319,625.34796,-0.0159912109375,-0.0528564453125,1.0042724609375,-11.222686767578125,9.772186279296875,-2.549591064453125,1,1.0,1.0,1.0,1.0,10.00
2024-10-11 20:46:52.238,0.58581275,0.2795096,0.41988948,0.32139722,0.07076271,-0.41246954,-0.021650124,0.29211494,0.49023318,0.2527942,0.30063537,0.4724801,0.72486395,-0.09635051,0.5450938,0.47296497,0.24015498,-0.39916602,0.20219803,0.02149828,806.26373,817.5458,780.87915,797.3993,1070.989,-0.0159912109375,-0.0528564453125,1.0042724609375,-11.222686767578125,9.772186279296875,-2.549591064453125,1,1.0,1.0,1.0,1.0,10.00
2024-10-11 20:46:52.239,0.58581275,0.2795096,0.41988948,0.32139722,0.07076271,-0.41246954,-0.021650124,0.29211494,0.49023318,0.2527942,0.30063537,0.4724801,0.72486395,-0.09635051,0.5450938,0.47296497,0.24015498,-0.39916602,0.20219803,0.02149828,797.8022,815.12823,776.4469,801.8315,1310.3297,-0.0159912109375,-0.0528564453125,1.0042724609375,-11.222686767578125,9.772186279296875,-2.549591064453125,1,1.0,1.0,1.0,1.0,10.00
2024-10-11 20:46:52.239,0.58581275,0.2795096,0.41988948,0.32139722,0.07076271,-0.41246954,-0.021650124,0.29211494,0.49023318,0.2527942,0.30063537,0.4724801,0.72486395,-0.09635051,0.5450938,0.47296497,0.24015498,-0.39916602,0.20219803,0.02149828,791.3553,812.3077,780.07324,797.8022,1143.5165,-0.0159912109375,-0.0528564453125,1.0042724609375,-11.222686767578125,9.772186279296875,-2.549591064453125,1,1.0,1.0,1.0,1.0,10.00
2024-10-11 20:46:52.240,0.58581275,0.2795096,0.41988948,0.32139722,0.07076271,-0.41246954,-0.021650124,0.29211494,0.49023318,0.2527942,0.30063537,0.4724801,0.72486395,-0.09635051,0.5450938,0.47296497,0.24015498,-0.39916602,0.20219803,0.02149828,793.36993,810.696,781.685,798.20514,961.79486,-0.0159912109375,-0.0528564453125,1.0042724609375,-11.222686767578125,9.772186279296875,-2.549591064453125,1,1.0,1.0,1.0,1.0,10.00
2024-10-11 20:46:52.241,0.58581275,0.2795096,0.41988948,0.32139722,0.07076271,-0.41246954,-0.021650124,0.29211494,0.49023318,0.2527942,0.30063537,0.4724801,0.72486395,-0.09635051,0.5450938,0.47296497,0.24015498,-0.39916602,0.20219803,0.02149828,801.8315,813.5165,779.2674,790.9524,813.5165,-0.0159912109375,-0.0528564453125,1.0042724609375,-11.222686767578125,9.772186279296875,-2.549591064453125,1,1.0,1.0,1.0,1.0,10.00
2024-10-11 20:46:52.242,0.58581275,0.2795096,0.41988948,0.32139722,0.07076271,-0.41246954,-0.021650124,0.29211494,0.49023318,0.2527942,0.30063537,0.4724801,0.72486395,-0.09635051,0.5450938,0.47296497,0.24015498,-0.39916602,0.20219803,0.02149828,811.0989,815.12823,788.5348,789.7436,638.6447,-0.0159912109375,-0.0528564453125,1.0042724609375,-11.222686767578125,9.772186279296875,-2.549591064453125,1,1.0,1.0,1.0,1.0,10.00
2024-10-11 20:46:52.243,0.58581275,0.2795096,0.41988948,0.32139722,0.07076271,-0.41246954,-0.021650124,0.29211494,0.49023318,0.2527942,0.30063537,0.4724801,0.72486395,-0.09635051,0.5450938,0.47296497,0.24015498,-0.39916602,0.20219803,0.02149828,813.1135,818.3516,784.90845,796.5934,493.99268,-0.0159912109375,-0.0528564453125,1.0042724609375,-11.222686767578125,9.772186279296875,-2.549591064453125,1,1.0,1.0,1.0,1.0,10.00
2024-10-11 20:46:52.243,0.58581275,0.2795096,0.41988948,0.32139722,0.07076271,-0.41246954,-0.021650124,0.29211494,0.49023318,0.2527942,0.30063537,0.4724801,0.72486395,-0.09635051,0.5450938,0.47296497,0.24015498,-0.39916602,0.20219803,0.02149828,813.1135,816.337,790.9524,796.1905,614.0659,-0.0159912109375,-0.0528564453125,1.0042724609375,-11.222686767578125,9.772186279296875,-2.549591064453125,1,1.0,1.0,1.0,1.0,10.00
2024-10-11 20:46:52.244,0.58581275,0.2795096,0.41988948,0.32139722,0.07076271,-0.41246954,-0.021650124,0.29211494,0.49023318,0.2527942,0.30063537,0.4724801,0.72486395,-0.09635051,0.5450938,0.47296497,0.24015498,-0.39916602,0.20219803,0.02149828,809.0842,805.05493,800.2198,802.6374,971.4652,-0.0159912109375,-0.0528564453125,1.0042724609375,-11.222686767578125,9.772186279296875,-2.549591064453125,1,1.0,1.0,1.0,1.0,10.00
2024-10-11 20:46:52.245,0.58581275,0.2795096,0.41988948,0.32139722,0.07076271,-0.41246954,-0.021650124,0.29211494,0.49023318,0.2527942,0.30063537,0.4724801,0.72486395,-0.09635051,0.5450938,0.47296497,0.24015498,-0.39916602,0.20219803,0.02149828,808.68134,806.26373,798.60803,811.50183,956.55676,-0.0159912109375,-0.0528564453125,1.0042724609375,-11.222686767578125,9.772186279296875,-2.549591064453125,1,1.0,1.0,1.0,1.0,10.00
2024-10-11 20:46:52.245,0.58581275,0.2795096,0.41988948,0.32139722,0.07076271,-0.41246954,-0.021650124,0.29211494,0.49023318,0.2527942,0.30063537,0.4724801,0.72486395,-0.09635051,0.5450938,0.47296497,0.24015498,-0.39916602,0.20219803,0.02149828,808.68134,807.8755,784.5055,805.4579,581.8315,-0.0159912109375,-0.0528564453125,1.0042724609375,-11.222686767578125,9.772186279296875,-2.549591064453125,1,1.0,1.0,1.0,1.0,10.00
2024-10-11 20:46:52.246,0.58581275,0.2795096,0.41988948,0.32139722,0.07076271,-0.41246954,-0.021650124,0.29211494,0.49023318,0.2527942,0.30063537,0.4724801,0.72486395,-0.09635051,0.5450938,0.47296497,0.24015498,-0.39916602,0.20219803,0.02149828,811.0989,800.2198,783.2967,799.41394,760.7326,-0.0159912109375,-0.0528564453125,1.0042724609375,-11.222686767578125,9.772186279296875,-2.549591064453125,1,1.0,1.0,1.0,1.0,10.00
2024-10-11 20:46:52.247,0.58581275,0.2795096,0.41988948,0.32139722,0.07076271,-0.41246954,-0.021650124,0.29211494,0.49023318,0.2527942,0.30063537,0.4724801,0.72486395,-0.09635051,0.5450938,0.47296497,0.24015498,-0.39916602,0.20219803,0.02149828,809.89014,801.02563,786.52014,792.96704,907.3993,-0.0159912109375,-0.0528564453125,1.0042724609375,-11.222686767578125,9.772186279296875,-2.549591064453125,1,1.0,1.0,1.0,1.0,10.00
2024-10-11 20:46:52.248,0.58581275,0.2795096,0.41988948,0.32139722,0.07076271,-0.41246954,-0.021650124,0.29211494,0.49023318,0.2527942,0.30063537,0.4724801,0.72486395,-0.09635051,0.5450938,0.47296497,0.24015498,-0.39916602,0.20219803,0.02149828,813.1135,805.4579,783.2967,794.17584,625.7509,-0.0159912109375,-0.0528564453125,1.0042724609375,-11.222686767578125,9.772186279296875,-2.549591064453125,1,1.0,1.0,1.0,1.0,10.00
2024-10-11 20:46:52.249,0.58581275,0.2795096,0.41988948,0.32139722,0.07076271,-0.41246954,-0.021650124,0.29211494,0.49023318,0.2527942,0.30063537,0.4724801,0.72486395,-0.09635051,0.5450938,0.47296497,0.24015498,-0.39916602,0.20219803,0.02149828,812.3077,803.0403,796.1905,797.8022,594.3223,-0.0159912109375,-0.0528564453125,1.0042724609375,-11.222686767578125,9.772186279296875,-2.549591064453125,1,1.0,1.0,1.0,1.0,10.00
2024-10-11 20:46:52.249,0.58581275,0.2795096,0.41988948,0.32139722,0.07076271,-0.41246954,-0.021650124,0.29211494,0.49023318,0.2527942,0.30063537,0.4724801,0.72486395,-0.09635051,0.5450938,0.47296497,0.24015498,-0.39916602,0.20219803,0.02149828,808.68134,803.0403,796.5934,802.6374,913.0403,-0.0159912109375,-0.0528564453125,1.0042724609375,-11.222686767578125,9.772186279296875,-2.549591064453125,1,1.0,1.0,1.0,1.0,10.00
2024-10-11 20:46:52.250,0.58581275,0.2795096,0.41988948,0.32139722,0.07076271,-0.41246954,-0.021650124,0.29211494,0.49023318,0.2527942,0.30063537,0.4724801,0.72486395,-0.09635051,0.5450938,0.47296497,0.24015498,-0.39916602,0.20219803,0.02149828,808.2784,804.2491,792.1612,802.6374,971.06226,-0.0159912109375,-0.0528564453125,1.0042724609375,-11.222686767578125,9.772186279296875,-2.549591064453125,1,1.0,1.0,1.0,1.0,10.00
2024-10-11 20:46:52.251,0.58581275,0.2795096,0.41988948,0.32139722,0.07076271,-0.41246954,-0.021650124,0.29211494,0.49023318,0.2527942,0.30063537,0.4724801,0.72486395,-0.09635051,0.5450938,0.47296497,0.24015498,-0.39916602,0.20219803,0.02149828,813.1135,803.0403,792.1612,798.20514,604.3956,-0.0159912109375,-0.0528564453125,1.0042724609375,-11.222686767578125,9.772186279296875,-2.549591064453125,1,1.0,1.0,1.0,1.0,10.00
2024-10-11 20:46:52.282,0.58581275,0.2795096,0.41988948,0.32139722,0.07076271,-0.41246954,-0.021650124,0.29211494,0.49023318,0.2527942,0.30063537,0.4724801,0.72486395,-0.09635051,0.5450938,0.47296497,0.24015498,-0.39916602,0.20219803,0.02149828,808.2784,797.8022,787.326,802.6374,561.685,-0.02752685546875,-0.07275390625,1.00360107421875,-9.562835693359375,7.962799072265625,-2.28790283203125,1,1.0,1.0,1.0,1.0,10.00
2024-10-11 20:46:52.283,0.58581275,0.2795096,0.41988948,0.32139722,0.07076271,-0.41246954,-0.021650124,0.29211494,0.49023318,0.2527942,0.30063537,0.4724801,0.72486395,-0.09635051,0.5450938,0.47296497,0.24015498,-0.39916602,0.20219803,0.02149828,805.8608,798.20514,792.1612,805.05493,707.1429,-0.02752685546875,-0.07275390625,1.00360107421875,-9.562835693359375,7.962799072265625,-2.28790283203125,1,1.0,1.0,1.0,1.0,10.00
2024-10-11 20:46:52.284,0.58581275,0.2795096,0.41988948,0.32139722,0.07076271,-0.41246954,-0.021650124,0.29211494,0.49023318,0.2527942,0.30063537,0.4724801,0.72486395,-0.09635051,0.5450938,0.47296497,0.24015498,-0.39916602,0.20219803,0.02149828,814.3223,803.8461,800.6227,811.9048,642.27106,-0.02752685546875,-0.07275390625,1.00360107421875,-9.562835693359375,7.962799072265625,-2.28790283203125,1,1.0,1.0,1.0,1.0,10.00
2024-10-11 20:46:52.285,0.58581275,0.2795096,0.41988948,0.32139722,0.07076271,-0.41246954,-0.021650124,0.29211494,0.49023318,0.2527942,0.30063537,0.4724801,0.72486395,-0.09635051,0.5450938,0.47296497,0.24015498,-0.39916602,0.20219803,0.02149828,810.293,802.6374,794.17584,814.3223,441.61172,-0.02752685546875,-0.07275390625,1.00360107421875,-9.562835693359375,7.962799072265625,-2.28790283203125,1,1.0,1.0,1.0,1.0,10.00
2024-10-11 20:46:52.286,0.58581275,0.2795096,0.41988948,0.32139722,0.07076271,-0.41246954,-0.021650124,0.29211494,0.49023318,0.2527942,0.30063537,0.4724801,0.72486395,-0.09635051,0.5450938,0.47296497,0.24015498,-0.39916602,0.20219803,0.02149828,820.7692,797.8022,782.49084,813.91943,597.9487,-0.02752685546875,-0.07275390625,1.00360107421875,-9.562835693359375,7.962799072265625,-2.28790283203125,1,1.0,1.0,1.0,1.0,10.00
2024-10-11 20:46:52.287,0.58581275,0.2795096,0.41988948,0.32139722,0.07076271,-0.41246954,-0.021650124,0.29211494,0.49023318,0.2527942,0.30063537,0.4724801,0.72486395,-0.09635051,0.5450938,0.47296497,0.24015498,-0.39916602,0.20219803,0.02149828,819.5604,797.8022,779.2674,819.15753,779.67035,-0.02752685546875,-0.07275390625,1.00360107421875,-9.562835693359375,7.962799072265625,-2.28790283203125,1,1.0,1.0,1.0,1.0,10.00
2024-10-11 20:46:52.288,0.58581275,0.2795096,0.41988948,0.32139722,0.07076271,-0.41246954,-0.021650124,0.29211494,0.49023318,0.2527942,0.30063537,0.4724801,0.72486395,-0.09635051,0.5450938,0.47296497,0.24015498,-0.39916602,0.20219803,0.02149828,799.81683,800.6227,790.54944,807.47253,649.5238,-0.02752685546875,-0.07275390625,1.00360107421875,-9.562835693359375,7.962799072265625,-2.28790283203125,1,1.0,1.0,1.0,1.0,10.00
2024-10-11 20:46:52.289,0.624644,0.3984426,0.44406512,0.3328818,0.027986808,-0.38056466,-0.0074512106,0.3077987,0.45544907,0.24044903,0.30063537,0.4194264,0.736249,-0.0983407,0.53458405,0.46465307,0.2244169,-0.3959196,0.18571338,0.05585315,807.47253,803.44324,810.696,795.78754,535.4945,-0.02752685546875,-0.07275390625,1.00360107421875,-9.562835693359375,7.962799072265625,-2.28790283203125,1,1.0,1.0,1.0,1.0,10.00
2024-10-11 20:46:52.295,0.624644,0.3984426,0.44406512,0.3328818,0.027986808,-0.38056466,-0.0074512106,0.3077987,0.45544907,0.24044903,0.30063537,0.4194264,0.736249,-0.0983407,0.53458405,0.46465307,0.2244169,-0.3959196,0.18571338,0.05585315,821.1722,804.65204,813.1135,802.23444,639.0476,-0.02752685546875,-0.07275390625,1.00360107421875,-9.562835693359375,7.962799072265625,-2.28790283203125,1,1.0,1.0,1.0,1.0,10.00
2024-10-11 20:46:52.296,0.624644,0.3984426,0.44406512,0.3328818,0.027986808,-0.38056466,-0.0074512106,0.3077987,0.45544907,0.24044903,0.30063537,0.4194264,0.736249,-0.0983407,0.53458405,0.46465307,0.2244169,-0.3959196,0.18571338,0.05585315,814.3223,799.011,809.0842,815.9341,911.02563,-0.02752685546875,-0.07275390625,1.00360107421875,-9.562835693359375,7.962799072265625,-2.28790283203125,1,1.0,1.0,1.0,1.0,10.00
2024-10-11 20:46:52.296,0.624644,0.3984426,0.44406512,0.3328818,0.027986808,-0.38056466,-0.0074512106,0.3077987,0.45544907,0.24044903,0.30063537,0.4194264,0.736249,-0.0983407,0.53458405,0.46465307,0.2244169,-0.3959196,0.18571338,0.05585315,812.71063,793.7729,805.8608,815.9341,751.8681,-0.02752685546875,-0.07275390625,1.00360107421875,-9.562835693359375,7.962799072265625,-2.28790283203125,1,1.0,1.0,1.0,1.0,10.00
2024-10-11 20:46:52.297,0.624644,0.3984426,0.44406512,0.3328818,0.027986808,-0.38056466,-0.0074512106,0.3077987,0.45544907,0.24044903,0.30063537,0.4194264,0.736249,-0.0983407,0.53458405,0.46465307,0.2244169,-0.3959196,0.18571338,0.05585315,813.5165,792.96704,803.0403,800.6227,472.63736,-0.02752685546875,-0.07275390625,1.00360107421875,-9.562835693359375,7.962799072265625,-2.28790283203125,1,1.0,1.0,1.0,1.0,10.00
2024-10-11 20:46:52.331,0.624644,0.3984426,0.44406512,0.3328818,0.027986808,-0.38056466,-0.0074512106,0.3077987,0.45544907,0.24044903,0.30063537,0.4194264,0.736249,-0.0983407,0.53458405,0.46465307,0.2244169,-0.3959196,0.18571338,0.05585315,818.7546,796.1905,790.54944,800.6227,723.2601,-0.03729248046875,-0.08856201171875,1.0047607421875,-6.95343017578125,7.237548828125,-1.876678466796875,1,1.0,1.0,1.0,1.0,10.00
2024-10-11 20:46:52.332,0.624644,0.3984426,0.44406512,0.3328818,0.027986808,-0.38056466,-0.0074512106,0.3077987,0.45544907,0.24044903,0.30063537,0.4194264,0.736249,-0.0983407,0.53458405,0.46465307,0.2244169,-0.3959196,0.18571338,0.05585315,817.1429,798.60803,787.72894,803.8461,919.89014,-0.03729248046875,-0.08856201171875,1.0047607421875,-6.95343017578125,7.237548828125,-1.876678466796875,1,1.0,1.0,1.0,1.0,10.00
2024-10-11 20:46:52.333,0.624644,0.3984426,0.44406512,0.3328818,0.027986808,-0.38056466,-0.0074512106,0.3077987,0.45544907,0.24044903,0.30063537,0.4194264,0.736249,-0.0983407,0.53458405,0.46465307,0.2244169,-0.3959196,0.18571338,0.05585315,808.68134,802.6374,790.9524,792.96704,677.72894,-0.03729248046875,-0.08856201171875,1.0047607421875,-6.95343017578125,7.237548828125,-1.876678466796875,1,1.0,1.0,1.0,1.0,10.00
2024-10-11 20:46:52.334,0.624644,0.3984426,0.44406512,0.3328818,0.027986808,-0.38056466,-0.0074512106,0.3077987,0.45544907,0.24044903,0.30063537,0.4194264,0.736249,-0.0983407,0.53458405,0.46465307,0.2244169,-0.3959196,0.18571338,0.05585315,806.6667,805.05493,787.72894,794.17584,527.4359,-0.03729248046875,-0.08856201171875,1.0047607421875,-6.95343017578125,7.237548828125,-1.876678466796875,1,1.0,1.0,1.0,1.0,10.00
2024-10-11 20:46:52.335,0.624644,0.3984426,0.44406512,0.3328818,0.027986808,-0.38056466,-0.0074512106,0.3077987,0.45544907,0.24044903,0.30063537,0.4194264,0.736249,-0.0983407,0.53458405,0.46465307,0.2244169,-0.3959196,0.18571338,0.05585315,799.41394,800.6227,794.9817,804.65204,784.90845,-0.03729248046875,-0.08856201171875,1.0047607421875,-6.95343017578125,7.237548828125,-1.876678466796875,1,1.0,1.0,1.0,1.0,10.00
2024-10-11 20:46:52.336,0.624644,0.3984426,0.44406512,0.3328818,0.027986808,-0.38056466,-0.0074512106,0.3077987,0.45544907,0.24044903,0.30063537,0.4194264,0.736249,-0.0983407,0.53458405,0.46465307,0.2244169,-0.3959196,0.18571338,0.05585315,797.3993,799.011,789.7436,804.65204,1066.9597,-0.03729248046875,-0.08856201171875,1.0047607421875,-6.95343017578125,7.237548828125,-1.876678466796875,1,1.0,1.0,1.0,1.0,10.00
2024-10-11 20:46:52.338,0.624644,0.3984426,0.44406512,0.3328818,0.027986808,-0.38056466,-0.0074512106,0.3077987,0.45544907,0.24044903,0.30063537,0.4194264,0.736249,-0.0983407,0.53458405,0.46465307,0.2244169,-0.3959196,0.18571338,0.05585315,802.6374,797.8022,789.34064,801.02563,861.8681,-0.03729248046875,-0.08856201171875,1.0047607421875,-6.95343017578125,7.237548828125,-1.876678466796875,1,1.0,1.0,1.0,1.0,10.00
2024-10-11 20:46:52.339,0.624644,0.3984426,0.44406512,0.3328818,0.027986808,-0.38056466,-0.0074512106,0.3077987,0.45544907,0.24044903,0.30063537,0.4194264,0.736249,-0.0983407,0.53458405,0.46465307,0.2244169,-0.3959196,0.18571338,0.05585315,813.5165,797.3993,788.5348,808.2784,591.9048,-0.03729248046875,-0.08856201171875,1.0047607421875,-6.95343017578125,7.237548828125,-1.876678466796875,1,1.0,1.0,1.0,1.0,10.00
2024-10-11 20:46:52.340,0.624644,0.3984426,0.44406512,0.3328818,0.027986808,-0.38056466,-0.0074512106,0.3077987,0.45544907,0.24044903,0.30063537,0.4194264,0.736249,-0.0983407,0.53458405,0.46465307,0.2244169,-0.3959196,0.18571338,0.05585315,816.7399,802.6374,786.1172,807.47253,637.4359,-0.03729248046875,-0.08856201171875,1.0047607421875,-6.95343017578125,7.237548828125,-1.876678466796875,1,1.0,1.0,1.0,1.0,10.00
2024-10-11 20:46:52.341,0.624644,0.3984426,0.44406512,0.3328818,0.027986808,-0.38056466,-0.0074512106,0.3077987,0.45544907,0.24044903,0.30063537,0.4194264,0.736249,-0.0983407,0.53458405,0.46465307,0.2244169,-0.3959196,0.18571338,0.05585315,805.8608,801.02563,809.89014,798.60803,761.53845,-0.03729248046875,-0.08856201171875,1.0047607421875,-6.95343017578125,7.237548828125,-1.876678466796875,1,1.0,1.0,1.0,1.0,10.00
2024-10-11 20:46:52.342,0.624644,0.3984426,0.44406512,0.3328818,0.027986808,-0.38056466,-0.0074512106,0.3077987,0.45544907,0.24044903,0.30063537,0.4194264,0.736249,-0.0983407,0.53458405,0.46465307,0.2244169,-0.3959196,0.18571338,0.05585315,797.8022,799.011,815.5311,799.81683,624.1392,-0.03729248046875,-0.08856201171875,1.0047607421875,-6.95343017578125,7.237548828125,-1.876678466796875,1,1.0,1.0,1.0,1.0,10.00
2024-10-11 20:46:52.342,0.624644,0.3984426,0.44406512,0.3328818,0.027986808,-0.38056466,-0.0074512106,0.3077987,0.45544907,0.24044903,0.30063537,0.4194264,0.736249,-0.0983407,0.53458405,0.46465307,0.2244169,-0.3959196,0.18571338,0.05585315,801.02563,798.60803,797.3993,803.0403,588.2784,-0.03729248046875,-0.08856201171875,1.0047607421875,-6.95343017578125,7.237548828125,-1.876678466796875,1,1.0,1.0,1.0,1.0,10.00
2024-10-11 20:46:52.408,0.624644,0.3984426,0.44406512,0.3328818,0.027986808,-0.38056466,-0.0074512106,0.3077987,0.45544907,0.24044903,0.30063537,0.4194264,0.736249,-0.0983407,0.53458405,0.46465307,0.2244169,-0.3959196,0.18571338,0.05585315,799.81683,800.6227,788.5348,803.44324,672.0879,-0.044189453125,-0.0980224609375,0.99267578125,-4.269256591796875,5.5029296875,-2.145843505859375,1,1.0,1.0,1.0,1.0,10.00
2024-10-11 20:46:52.409,0.624644,0.3984426,0.44406512,0.3328818,0.027986808,-0.38056466,-0.0074512106,0.3077987,0.45544907,0.24044903,0.30063537,0.4194264,0.736249,-0.0983407,0.53458405,0.46465307,0.2244169,-0.3959196,0.18571338,0.05585315,802.6374,802.23444,794.17584,792.1612,687.8022,-0.044189453125,-0.0980224609375,0.99267578125,-4.269256591796875,5.5029296875,-2.145843505859375,1,1.0,1.0,1.0,1.0,10.00
2024-10-11 20:46:52.410,0.624644,0.3984426,0.44406512,0.3328818,0.027986808,-0.38056466,-0.0074512106,0.3077987,0.45544907,0.24044903,0.30063537,0.4194264,0.736249,-0.0983407,0.53458405,0.46465307,0.2244169,-0.3959196,0.18571338,0.05585315,809.4872,796.1905,800.2198,793.36993,572.96704,-0.044189453125,-0.0980224609375,0.99267578125,-4.269256591796875,5.5029296875,-2.145843505859375,1,1.0,1.0,1.0,1.0,10.00
2024-10-11 20:46:52.411,0.624644,0.3984426,0.44406512,0.3328818,0.027986808,-0.38056466,-0.0074512106,0.3077987,0.45544907,0.24044903,0.30063537,0.4194264,0.736249,-0.0983407,0.53458405,0.46465307,0.2244169,-0.3959196,0.18571338,0.05585315,803.0403,794.57874,792.1612,800.2198,543.95605,-0.044189453125,-0.0980224609375,0.99267578125,-4.269256591796875,5.5029296875,-2.145843505859375,1,1.0,1.0,1.0,1.0,10.00
2024-10-11 20:46:52.412,0.624644,0.3984426,0.44406512,0.3328818,0.027986808,-0.38056466,-0.0074512106,0.3077987,0.45544907,0.24044903,0.30063537,0.4194264,0.736249,-0.0983407,0.53458405,0.46465307,0.2244169,-0.3959196,0.18571338,0.05585315,795.78754,796.5934,788.5348,804.65204,775.64105,-0.044189453125,-0.0980224609375,0.99267578125,-4.269256591796875,5.5029296875,-2.145843505859375,1,1.0,1.0,1.0,1.0,10.00
2024-10-11 20:46:52.412,0.624644,0.3984426,0.44406512,0.3328818,0.027986808,-0.38056466,-0.0074512106,0.3077987,0.45544907,0.24044903,0.30063537,0.4194264,0.736249,-0.0983407,0.53458405,0.46465307,0.2244169,-0.3959196,0.18571338,0.05585315,799.41394,794.9817,804.65204,803.44324,838.49817,-0.044189453125,-0.0980224609375,0.99267578125,-4.269256591796875,5.5029296875,-2.145843505859375,1,1.0,1.0,1.0,1.0,10.00
2024-10-11 20:46:52.413,0.624644,0.3984426,0.44406512,0.3328818,0.027986808,-0.38056466,-0.0074512106,0.3077987,0.45544907,0.24044903,0.30063537,0.4194264,0.736249,-0.0983407,0.53458405,0.46465307,0.2244169,-0.3959196,0.18571338,0.05585315,792.5641,792.5641,810.696,796.1905,607.2161,-0.044189453125,-0.0980224609375,0.99267578125,-4.269256591796875,5.5029296875,-2.145843505859375,1,1.0,1.0,1.0,1.0,10.00
2024-10-11 20:46:52.414,0.624644,0.3984426,0.44406512,0.3328818,0.027986808,-0.38056466,-0.0074512106,0.3077987,0.45544907,0.24044903,0.30063537,0.4194264,0.736249,-0.0983407,0.53458405,0.46465307,0.2244169,-0.3959196,0.18571338,0.05585315,786.9231,792.5641,801.8315,796.1905,696.6667,-0.044189453125,-0.0980224609375,0.99267578125,-4.269256591796875,5.5029296875,-2.145843505859375,1,1.0,1.0,1.0,1.0,10.00
2024-10-11 20:46:52.415,0.624644,0.3984426,0.44406512,0.3328818,0.027986808,-0.38056466,-0.0074512106,0.3077987,0.45544907,0.24044903,0.30063537,0.4194264,0.736249,-0.0983407,0.53458405,0.46465307,0.2244169,-0.3959196,0.18571338,0.05585315,803.8461,797.8022,786.52014,795.38464,772.4176,-0.044189453125,-0.0980224609375,0.99267578125,-4.269256591796875,5.5029296875,-2.145843505859375,1,1.0,1.0,1.0,1.0,10.00
2024-10-11 20:46:52.416,0.67934155,0.48352537,0.47506607,0.33468443,-0.0045192586,-0.32777834,0.012087964,0.31144097,0.43778813,0.2566281,0.30063537,0.2675585,0.7543976,-0.094001815,0.53218365,0.4601972,0.19280593,-0.3912933,0.16439754,0.095229775,814.3223,803.44324,784.90845,801.02563,623.3333,-0.044189453125,-0.0980224609375,0.99267578125,-4.269256591796875,5.5029296875,-2.145843505859375,1,1.0,1.0,1.0,1.0,10.00
2024-10-11 20:46:52.423,0.67934155,0.48352537,0.47506607,0.33468443,-0.0045192586,-0.32777834,0.012087964,0.31144097,0.43778813,0.2566281,0.30063537,0.2675585,0.7543976,-0.094001815,0.53218365,0.4601972,0.19280593,-0.3912933,0.16439754,0.095229775,812.3077,803.0403,801.02563,799.81683,518.97437,-0.044189453125,-0.0980224609375,0.99267578125,-4.269256591796875,5.5029296875,-2.145843505859375,1,1.0,1.0,1.0,1.0,10.00
2024-10-11 20:46:52.424,0.67934155,0.48352537,0.47506607,0.33468443,-0.0045192586,-0.32777834,0.012087964,0.31144097,0.43778813,0.2566281,0.30063537,0.2675585,0.7543976,-0.094001815,0.53218365,0.4601972,0.19280593,-0.3912933,0.16439754,0.095229775,822.7839,800.6227,812.3077,805.8608,629.7802,-0.044189453125,-0.0980224609375,0.99267578125,-4.269256591796875,5.5029296875,-2.145843505859375,1,1.0,1.0,1.0,1.0,10.00
2024-10-11 20:46:52.494,0.67934155,0.48352537,0.47506607,0.33468443,-0.0045192586,-0.32777834,0.012087964,0.31144097,0.43778813,0.2566281,0.30063537,0.2675585,0.7543976,-0.094001815,0.53218365,0.4601972,0.19280593,-0.3912933,0.16439754,0.095229775,819.15753,798.60803,801.4286,809.4872,844.1392,-0.060546875,-0.1014404296875,0.9915771484375,-0.007476806640625,6.153411865234375,-2.669219970703125,1,1.0,1.0,1.0,1.0,10.00
2024-10-11 20:46:52.495,0.67934155,0.48352537,0.47506607,0.33468443,-0.0045192586,-0.32777834,0.012087964,0.31144097,0.43778813,0.2566281,0.30063537,0.2675585,0.7543976,-0.094001815,0.53218365,0.4601972,0.19280593,-0.3912933,0.16439754,0.095229775,802.23444,799.81683,800.6227,796.99634,599.9634,-0.060546875,-0.1014404296875,0.9915771484375,-0.007476806640625,6.153411865234375,-2.669219970703125,1,1.0,1.0,1.0,1.0,10.00
2024-10-11 20:46:52.496,0.67934155,0.48352537,0.47506607,0.33468443,-0.0045192586,-0.32777834,0.012087964,0.31144097,0.43778813,0.2566281,0.30063537,0.2675585,0.7543976,-0.094001815,0.53218365,0.4601972,0.19280593,-0.3912933,0.16439754,0.095229775,809.4872,799.81683,800.6227,797.8022,462.16116,-0.060546875,-0.1014404296875,0.9915771484375,-0.007476806640625,6.153411865234375,-2.669219970703125,1,1.0,1.0,1.0,1.0,10.00
2024-10-11 20:46:52.497,0.67934155,0.48352537,0.47506607,0.33468443,-0.0045192586,-0.32777834,0.012087964,0.31144097,0.43778813,0.2566281,0.30063537,0.2675585,0.7543976,-0.094001815,0.53218365,0.4601972,0.19280593,-0.3912933,0.16439754,0.095229775,809.4872,795.78754,792.1612,797.8022,743.4066,-0.060546875,-0.1014404296875,0.9915771484375,-0.007476806640625,6.153411865234375,-2.669219970703125,1,1.0,1.0,1.0,1.0,10.00
2024-10-11 20:46:52.497,0.67934155,0.48352537,0.47506607,0.33468443,-0.0045192586,-0.32777834,0.012087964,0.31144097,0.43778813,0.2566281,0.30063537,0.2675585,0.7543976,-0.094001815,0.53218365,0.4601972,0.19280593,-0.3912933,0.16439754,0.095229775,794.9817,791.3553,806.26373,796.99634,750.2564,-0.060546875,-0.1014404296875,0.9915771484375,-0.007476806640625,6.153411865234375,-2.669219970703125,1,1.0,1.0,1.0,1.0,10.00
2024-10-11 20:46:52.498,0.67934155,0.48352537,0.47506607,0.33468443,-0.0045192586,-0.32777834,0.012087964,0.31144097,0.43778813,0.2566281,0.30063537,0.2675585,0.7543976,-0.094001815,0.53218365,0.4601972,0.19280593,-0.3912933,0.16439754,0.095229775,798.60803,784.5055,812.71063,811.0989,534.2857,-0.060546875,-0.1014404296875,0.9915771484375,-0.007476806640625,6.153411865234375,-2.669219970703125,1,1.0,1.0,1.0,1.0,10.00
2024-10-11 20:46:52.499,0.67934155,0.48352537,0.47506607,0.33468443,-0.0045192586,-0.32777834,0.012087964,0.31144097,0.43778813,0.2566281,0.30063537,0.2675585,0.7543976,-0.094001815,0.53218365,0.4601972,0.19280593,-0.3912933,0.16439754,0.095229775,819.9634,793.7729,804.2491,835.6777,695.4579,-0.060546875,-0.1014404296875,0.9915771484375,-0.007476806640625,6.153411865234375,-2.669219970703125,1,1.0,1.0,1.0,1.0,10.00
2024-10-11 20:46:52.500,0.67934155,0.48352537,0.47506607,0.33468443,-0.0045192586,-0.32777834,0.012087964,0.31144097,0.43778813,0.2566281,0.30063537,0.2675585,0.7543976,-0.094001815,0.53218365,0.4601972,0.19280593,-0.3912933,0.16439754,0.095229775,817.1429,811.50183,795.38464,822.7839,811.50183,-0.060546875,-0.1014404296875,0.9915771484375,-0.007476806640625,6.153411865234375,-2.669219970703125,1,1.0,1.0,1.0,1.0,10.00
2024-10-11 20:46:52.501,0.67934155,0.48352537,0.47506607,0.33468443,-0.0045192586,-0.32777834,0.012087964,0.31144097,0.43778813,0.2566281,0.30063537,0.2675585,0.7543976,-0.094001815,0.53218365,0.4601972,0.19280593,-0.3912933,0.16439754,0.095229775,799.81683,807.47253,796.1905,788.1319,669.67035,-0.060546875,-0.1014404296875,0.9915771484375,-0.007476806640625,6.153411865234375,-2.669219970703125,1,1.0,1.0,1.0,1.0,10.00
2024-10-11 20:46:52.502,0.67934155,0.48352537,0.47506607,0.33468443,-0.0045192586,-0.32777834,0.012087964,0.31144097,0.43778813,0.2566281,0.30063537,0.2675585,0.7543976,-0.094001815,0.53218365,0.4601972,0.19280593,-0.3912933,0.16439754,0.095229775,796.1905,804.65204,804.2491,783.69965,648.71796,-0.060546875,-0.1014404296875,0.9915771484375,-0.007476806640625,6.153411865234375,-2.669219970703125,1,1.0,1.0,1.0,1.0,10.00
2024-10-11 20:46:52.503,0.67934155,0.48352537,0.47506607,0.33468443,-0.0045192586,-0.32777834,0.012087964,0.31144097,0.43778813,0.2566281,0.30063537,0.2675585,0.7543976,-0.094001815,0.53218365,0.4601972,0.19280593,-0.3912933,0.16439754,0.095229775,792.1612,807.0696,786.1172,784.10254,716.8132,-0.060546875,-0.1014404296875,0.9915771484375,-0.007476806640625,6.153411865234375,-2.669219970703125,1,1.0,1.0,1.0,1.0,10.00
2024-10-11 20:46:52.504,0.67934155,0.48352537,0.47506607,0.33468443,-0.0045192586,-0.32777834,0.012087964,0.31144097,0.43778813,0.2566281,0.30063537,0.2675585,0.7543976,-0.094001815,0.53218365,0.4601972,0.19280593,-0.3912933,0.16439754,0.095229775,794.17584,802.6374,772.8205,785.31134,863.8828,-0.060546875,-0.1014404296875,0.9915771484375,-0.007476806640625,6.153411865234375,-2.669219970703125,1,1.0,1.0,1.0,1.0,10.00
2024-10-11 20:46:52.505,0.67934155,0.48352537,0.47506607,0.33468443,-0.0045192586,-0.32777834,0.012087964,0.31144097,0.43778813,0.2566281,0.30063537,0.2675585,0.7543976,-0.094001815,0.53218365,0.4601972,0.19280593,-0.3912933,0.16439754,0.095229775,786.9231,805.8608,771.2088,782.8938,918.68134,-0.060546875,-0.1014404296875,0.9915771484375,-0.007476806640625,6.153411865234375,-2.669219970703125,1,1.0,1.0,1.0,1.0,10.00
2024-10-11 20:46:52.506,0.67934155,0.48352537,0.47506607,0.33468443,-0.0045192586,-0.32777834,0.012087964,0.31144097,0.43778813,0.2566281,0.30063537,0.2675585,0.7543976,-0.094001815,0.53218365,0.4601972,0.19280593,-0.3912933,0.16439754,0.095229775,791.75824,807.8755,774.43225,781.28204,723.663,-0.060546875,-0.1014404296875,0.9915771484375,-0.007476806640625,6.153411865234375,-2.669219970703125,1,1.0,1.0,1.0,1.0,10.00
2024-10-11 20:46:52.506,0.67934155,0.48352537,0.47506607,0.33468443,-0.0045192586,-0.32777834,0.012087964,0.31144097,0.43778813,0.2566281,0.30063537,0.2675585,0.7543976,-0.094001815,0.53218365,0.4601972,0.19280593,-0.3912933,0.16439754,0.095229775,803.8461,802.23444,787.326,788.5348,787.72894,-0.060546875,-0.1014404296875,0.9915771484375,-0.007476806640625,6.153411865234375,-2.669219970703125,1,1.0,1.0,1.0,1.0,10.00
2024-10-11 20:46:52.507,0.67934155,0.48352537,0.47506607,0.33468443,-0.0045192586,-0.32777834,0.012087964,0.31144097,0.43778813,0.2566281,0.30063537,0.2675585,0.7543976,-0.094001815,0.53218365,0.4601972,0.19280593,-0.3912933,0.16439754,0.095229775,808.68134,801.8315,782.8938,789.34064,940.84247,-0.060546875,-0.1014404296875,0.9915771484375,-0.007476806640625,6.153411865234375,-2.669219970703125,1,1.0,1.0,1.0,1.0,10.00
2024-10-11 20:46:52.508,0.67934155,0.48352537,0.47506607,0.33468443,-0.0045192586,-0.32777834,0.012087964,0.31144097,0.43778813,0.2566281,0.30063537,0.2675585,0.7543976,-0.094001815,0.53218365,0.4601972,0.19280593,-0.3912933,0.16439754,0.095229775,798.60803,803.44324,788.1319,790.14655,834.4689,-0.060546875,-0.1014404296875,0.9915771484375,-0.007476806640625,6.153411865234375,-2.669219970703125,1,1.0,1.0,1.0,1.0,10.00
2024-10-11 20:46:52.509,0.67934155,0.48352537,0.47506607,0.33468443,-0.0045192586,-0.32777834,0.012087964,0.31144097,0.43778813,0.2566281,0.30063537,0.2675585,0.7543976,-0.094001815,0.53218365,0.4601972,0.19280593,-0.3912933,0.16439754,0.095229775,787.72894,801.8315,790.54944,791.75824,805.4579,-0.060546875,-0.1014404296875,0.9915771484375,-0.007476806640625,6.153411865234375,-2.669219970703125,1,1.0,1.0,1.0,1.0,10.00
2024-10-11 20:46:52.510,0.67934155,0.48352537,0.47506607,0.33468443,-0.0045192586,-0.32777834,0.012087964,0.31144097,0.43778813,0.2566281,0.30063537,0.2675585,0.7543976,-0.094001815,0.53218365,0.4601972,0.19280593,-0.3912933,0.16439754,0.095229775,799.41394,801.02563,774.83514,790.14655,835.2747,-0.060546875,-0.1014404296875,0.9915771484375,-0.007476806640625,6.153411865234375,-2.669219970703125,1,1.0,1.0,1.0,1.0,10.00
2024-10-11 20:46:52.511,0.67934155,0.48352537,0.47506607,0.33468443,-0.0045192586,-0.32777834,0.012087964,0.31144097,0.43778813,0.2566281,0.30063537,0.2675585,0.7543976,-0.094001815,0.53218365,0.4601972,0.19280593,-0.3912933,0.16439754,0.095229775,792.96704,797.8022,785.31134,789.34064,839.304,-0.060546875,-0.1014404296875,0.9915771484375,-0.007476806640625,6.153411865234375,-2.669219970703125,1,1.0,1.0,1.0,1.0,10.00
2024-10-11 20:46:52.511,0.67934155,0.48352537,0.47506607,0.33468443,-0.0045192586,-0.32777834,0.012087964,0.31144097,0.43778813,0.2566281,0.30063537,0.2675585,0.7543976,-0.094001815,0.53218365,0.4601972,0.19280593,-0.3912933,0.16439754,0.095229775,782.8938,801.4286,789.34064,790.9524,729.304,-0.060546875,-0.1014404296875,0.9915771484375,-0.007476806640625,6.153411865234375,-2.669219970703125,1,1.0,1.0,1.0,1.0,10.00
2024-10-11 20:46:52.512,0.67934155,0.48352537,0.47506607,0.33468443,-0.0045192586,-0.32777834,0.012087964,0.31144097,0.43778813,0.2566281,0.30063537,0.2675585,0.7543976,-0.094001815,0.53218365,0.4601972,0.19280593,-0.3912933,0.16439754,0.095229775,793.36993,804.65204,783.2967,791.75824,613.663,-0.060546875,-0.1014404296875,0.9915771484375,-0.007476806640625,6.153411865234375,-2.669219970703125,1,1.0,1.0,1.0,1.0,10.00
2024-10-11 20:46:52.513,0.67934155,0.48352537,0.47506607,0.33468443,-0.0045192586,-0.32777834,0.012087964,0.31144097,0.43778813,0.2566281,0.30063537,0.2675585,0.7543976,-0.094001815,0.53218365,0.4601972,0.19280593,-0.3912933,0.16439754,0.095229775,805.8608,803.44324,785.31134,794.17584,708.3516,-0.060546875,-0.1014404296875,0.9915771484375,-0.007476806640625,6.153411865234375,-2.669219970703125,1,1.0,1.0,1.0,1.0,10.00
2024-10-11 20:46:52.513,0.67934155,0.54668105,0.5108101,0.33468443,-0.0045192586,-0.23089555,0.038143914,0.31144097,0.43778813,0.30848038,0.30063537,0.2675585,0.7543976,-0.08410372,0.535434,0.4601972,0.19280593,-0.38180852,0.13209125,0.095229775,800.6227,805.4579,780.87915,794.17584,811.0989,-0.060546875,-0.1014404296875,0.9915771484375,-0.007476806640625,6.153411865234375,-2.669219970703125,1,1.0,1.0,1.0,1.0,10.00
2024-10-11 20:46:52.519,0.67934155,0.54668105,0.5108101,0.33468443,-0.0045192586,-0.23089555,0.038143914,0.31144097,0.43778813,0.30848038,0.30063537,0.2675585,0.7543976,-0.08410372,0.535434,0.4601972,0.19280593,-0.38180852,0.13209125,0.095229775,793.7729,805.05493,771.6117,798.20514,677.326,-0.0567626953125,-0.08953857421875,0.99383544921875,3.416900634765625,4.0673828125,-1.562652587890625,1,1.0,1.0,1.0,1.0,10.00
2024-10-11 20:46:52.520,0.67934155,0.54668105,0.5108101,0.33468443,-0.0045192586,-0.23089555,0.038143914,0.31144097,0.43778813,0.30848038,0.30063537,0.2675585,0.7543976,-0.08410372,0.535434,0.4601972,0.19280593,-0.38180852,0.13209125,0.095229775,803.0403,803.8461,774.43225,800.6227,628.97437,-0.0567626953125,-0.08953857421875,0.99383544921875,3.416900634765625,4.0673828125,-1.562652587890625,1,1.0,1.0,1.0,1.0,10.00
2024-10-11 20:46:52.521,0.67934155,0.54668105,0.5108101,0.33468443,-0.0045192586,-0.23089555,0.038143914,0.31144097,0.43778813,0.30848038,0.30063537,0.2675585,0.7543976,-0.08410372,0.535434,0.4601972,0.19280593,-0.38180852,0.13209125,0.095229775,811.50183,802.6374,786.9231,802.23444,841.7216,-0.0567626953125,-0.08953857421875,0.99383544921875,3.416900634765625,4.0673828125,-1.562652587890625,1,1.0,1.0,1.0,1.0,10.00
2024-10-11 20:46:52.522,0.67934155,0.54668105,0.5108101,0.33468443,-0.0045192586,-0.23089555,0.038143914,0.31144097,0.43778813,0.30848038,0.30063537,0.2675585,0.7543976,-0.08410372,0.535434,0.4601972,0.19280593,-0.38180852,0.13209125,0.095229775,809.0842,801.8315,795.78754,795.38464,858.24176,-0.0567626953125,-0.08953857421875,0.99383544921875,3.416900634765625,4.0673828125,-1.562652587890625,1,1.0,1.0,1.0,1.0,10.00
2024-10-11 20:46:52.523,0.67934155,0.54668105,0.5108101,0.33468443,-0.0045192586,-0.23089555,0.038143914,0.31144097,0.43778813,0.30848038,0.30063537,0.2675585,0.7543976,-0.08410372,0.535434,0.4601972,0.19280593,-0.38180852,0.13209125,0.095229775,803.44324,800.6227,798.60803,781.28204,648.315,-0.0567626953125,-0.08953857421875,0.99383544921875,3.416900634765625,4.0673828125,-1.562652587890625,1,1.0,1.0,1.0,1.0,10.00
2024-10-11 20:46:52.524,0.67934155,0.54668105,0.5108101,0.33468443,-0.0045192586,-0.23089555,0.038143914,0.31144097,0.43778813,0.30848038,0.30063537,0.2675585,0.7543976,-0.08410372,0.535434,0.4601972,0.19280593,-0.38180852,0.13209125,0.095229775,803.0403,803.0403,788.93774,784.90845,802.6374,-0.0567626953125,-0.08953857421875,0.99383544921875,3.416900634765625,4.0673828125,-1.562652587890625,1,1.0,1.0,1.0,1.0,10.00
2024-10-11 20:46:52.525,0.67934155,0.54668105,0.5108101,0.33468443,-0.0045192586,-0.23089555,0.038143914,0.31144097,0.43778813,0.30848038,0.30063537,0.2675585,0.7543976,-0.08410372,0.535434,0.4601972,0.19280593,-0.38180852,0.13209125,0.095229775,805.8608,804.65204,790.54944,797.3993,963.4066,-0.0567626953125,-0.08953857421875,0.99383544921875,3.416900634765625,4.0673828125,-1.562652587890625,1,1.0,1.0,1.0,1.0,10.00
2024-10-11 20:46:52.526,0.67934155,0.54668105,0.5108101,0.33468443,-0.0045192586,-0.23089555,0.038143914,0.31144097,0.43778813,0.30848038,0.30063537,0.2675585,0.7543976,-0.08410372,0.535434,0.4601972,0.19280593,-0.38180852,0.13209125,0.095229775,802.6374,804.2491,794.9817,798.20514,964.21246,-0.0567626953125,-0.08953857421875,0.99383544921875,3.416900634765625,4.0673828125,-1.562652587890625,1,1.0,1.0,1.0,1.0,10.00
2024-10-11 20:46:52.526,0.67934155,0.54668105,0.5108101,0.33468443,-0.0045192586,-0.23089555,0.038143914,0.31144097,0.43778813,0.30848038,0.30063537,0.2675585,0.7543976,-0.08410372,0.535434,0.4601972,0.19280593,-0.38180852,0.13209125,0.095229775,798.60803,807.8755,801.8315,788.1319,737.76556,-0.0567626953125,-0.08953857421875,0.99383544921875,3.416900634765625,4.0673828125,-1.562652587890625,1,1.0,1.0,1.0,1.0,10.00
2024-10-11 20:46:52.527,0.67934155,0.54668105,0.5108101,0.33468443,-0.0045192586,-0.23089555,0.038143914,0.31144097,0.43778813,0.30848038,0.30063537,0.2675585,0.7543976,-0.08410372,0.535434,0.4601972,0.19280593,-0.38180852,0.13209125,0.095229775,801.4286,803.0403,798.60803,789.7436,502.85715,-0.0567626953125,-0.08953857421875,0.99383544921875,3.416900634765625,4.0673828125,-1.562652587890625,1,1.0,1.0,1.0,1.0,10.00
2024-10-11 20:46:52.528,0.67934155,0.54668105,0.5108101,0.33468443,-0.0045192586,-0.23089555,0.038143914,0.31144097,0.43778813,0.30848038,0.30063537,0.2675585,0.7543976,-0.08410372,0.535434,0.4601972,0.19280593,-0.38180852,0.13209125,0.095229775,799.81683,794.57874,787.326,789.34064,669.2674,-0.0567626953125,-0.08953857421875,0.99383544921875,3.416900634765625,4.0673828125,-1.562652587890625,1,1.0,1.0,1.0,1.0,10.00
2024-10-11 20:46:52.528,0.67934155,0.54668105,0.5108101,0.33468443,-0.0045192586,-0.23089555,0.038143914,0.31144097,0.43778813,0.30848038,0.30063537,0.2675585,0.7543976,-0.08410372,0.535434,0.4601972,0.19280593,-0.38180852,0.13209125,0.095229775,792.1612,797.8022,780.07324,786.9231,742.1978,-0.0567626953125,-0.08953857421875,0.99383544921875,3.416900634765625,4.0673828125,-1.562652587890625,1,1.0,1.0,1.0,1.0,10.00
2024-10-11 20:46:52.561,0.67934155,0.54668105,0.5108101,0.33468443,-0.0045192586,-0.23089555,0.038143914,0.31144097,0.43778813,0.30848038,0.30063537,0.2675585,0.7543976,-0.08410372,0.535434,0.4601972,0.19280593,-0.38180852,0.13209125,0.095229775,801.4286,799.41394,782.49084,794.9817,577.3993,-0.064208984375,-0.07135009765625,1.01043701171875,4.18701171875,1.936492919921875,0.6878662109375,1,1.0,1.0,1.0,1.0,10.00
2024-10-11 20:46:52.562,0.67934155,0.54668105,0.5108101,0.33468443,-0.0045192586,-0.23089555,0.038143914,0.31144097,0.43778813,0.30848038,0.30063537,0.2675585,0.7543976,-0.08410372,0.535434,0.4601972,0.19280593,-0.38180852,0.13209125,0.095229775,798.60803,798.60803,791.75824,799.011,528.24176,-0.064208984375,-0.07135009765625,1.01043701171875,4.18701171875,1.936492919921875,0.6878662109375,1,1.0,1.0,1.0,1.0,10.00
2024-10-11 20:46:52.563,0.67934155,0.54668105,0.5108101,0.33468443,-0.0045192586,-0.23089555,0.038143914,0.31144097,0.43778813,0.30848038,0.30063537,0.2675585,0.7543976,-0.08410372,0.535434,0.4601972,0.19280593,-0.38180852,0.13209125,0.095229775,803.44324,795.78754,801.02563,806.26373,807.8755,-0.064208984375,-0.07135009765625,1.01043701171875,4.18701171875,1.936492919921875,0.6878662109375,1,1.0,1.0,1.0,1.0,10.00
2024-10-11 20:46:52.564,0.67934155,0.54668105,0.5108101,0.33468443,-0.0045192586,-0.23089555,0.038143914,0.31144097,0.43778813,0.30848038,0.30063537,0.2675585,0.7543976,-0.08410372,0.535434,0.4601972,0.19280593,-0.38180852,0.13209125,0.095229775,814.3223,796.1905,821.5751,813.1135,934.7985,-0.064208984375,-0.07135009765625,1.01043701171875,4.18701171875,1.936492919921875,0.6878662109375,1,1.0,1.0,1.0,1.0,10.00
2024-10-11 20:46:52.564,0.67934155,0.54668105,0.5108101,0.33468443,-0.0045192586,-0.23089555,0.038143914,0.31144097,0.43778813,0.30848038,0.30063537,0.2675585,0.7543976,-0.08410372,0.535434,0.4601972,0.19280593,-0.38180852,0.13209125,0.095229775,799.81683,802.23444,821.1722,804.65204,750.65936,-0.064208984375,-0.07135009765625,1.01043701171875,4.18701171875,1.936492919921875,0.6878662109375,1,1.0,1.0,1.0,1.0,10.00
2024-10-11 20:46:52.565,0.67934155,0.54668105,0.5108101,0.33468443,-0.0045192586,-0.23089555,0.038143914,0.31144097,0.43778813,0.30848038,0.30063537,0.2675585,0.7543976,-0.08410372,0.535434,0.4601972,0.19280593,-0.38180852,0.13209125,0.095229775,799.011,795.78754,813.91943,801.8315,875.16486,-0.064208984375,-0.07135009765625,1.01043701171875,4.18701171875,1.936492919921875,0.6878662109375,1,1.0,1.0,1.0,1.0,10.00
2024-10-11 20:46:52.566,0.67934155,0.54668105,0.5108101,0.33468443,-0.0045192586,-0.23089555,0.038143914,0.31144097,0.43778813,0.30848038,0.30063537,0.2675585,0.7543976,-0.08410372,0.535434,0.4601972,0.19280593,-0.38180852,0.13209125,0.095229775,799.011,791.3553,806.6667,811.0989,1147.1428,-0.064208984375,-0.07135009765625,1.01043701171875,4.18701171875,1.936492919921875,0.6878662109375,1,1.0,1.0,1.0,1.0,10.00
2024-10-11 20:46:52.567,0.67934155,0.54668105,0.5108101,0.33468443,-0.0045192586,-0.23089555,0.038143914,0.31144097,0.43778813,0.30848038,0.30063537,0.2675585,0.7543976,-0.08410372,0.535434,0.4601972,0.19280593,-0.38180852,0.13209125,0.095229775,799.011,794.17584,799.41394,809.89014,1305.8975,-0.064208984375,-0.07135009765625,1.01043701171875,4.18701171875,1.936492919921875,0.6878662109375,1,1.0,1.0,1.0,1.0,10.00
2024-10-11 20:46:52.568,0.67934155,0.54668105,0.5108101,0.33468443,-0.0045192586,-0.23089555,0.038143914,0.31144097,0.43778813,0.30848038,0.30063537,0.2675585,0.7543976,-0.08410372,0.535434,0.4601972,0.19280593,-0.38180852,0.13209125,0.095229775,799.011,794.9817,799.011,796.5934,1090.7325,-0.064208984375,-0.07135009765625,1.01043701171875,4.18701171875,1.936492919921875,0.6878662109375,1,1.0,1.0,1.0,1.0,10.00
2024-10-11 20:46:52.569,0.67934155,0.54668105,0.5108101,0.33468443,-0.0045192586,-0.23089555,0.038143914,0.31144097,0.43778813,0.30848038,0.30063537,0.2675585,0.7543976,-0.08410372,0.535434,0.4601972,0.19280593,-0.38180852,0.13209125,0.095229775,808.2784,802.6374,785.7143,799.41394,906.1905,-0.064208984375,-0.07135009765625,1.01043701171875,4.18701171875,1.936492919921875,0.6878662109375,1,1.0,1.0,1.0,1.0,10.00
