TimeStamp,Delta_TP9,Delta_AF7,Delta_AF8,Delta_TP10,Theta_TP9,Theta_AF7,Theta_AF8,Theta_TP10,Alpha_TP9,Alpha_AF7,Alpha_AF8,Alpha_TP10,Beta_TP9,Beta_AF7,Beta_AF8,Beta_TP10,Gamma_TP9,Gamma_AF7,Gamma_AF8,Gamma_TP10,RAW_TP9,RAW_AF7,RAW_AF8,RAW_TP10,AUX_RIGHT,Accelerometer_X,Accelerometer_Y,Accelerometer_Z,Gyro_X,Gyro_Y,Gyro_Z,HeadBandOn,HSI_TP9,HSI_AF7,HSI_AF8,HSI_TP10,Battery,Elements
2024-10-11 20:45:21.304,0.44380048,0.2678437,0.30294874,0.31463662,0.52056783,0.03415657,0.027253857,0.49114633,0.9243427,0.24559191,0.44279376,0.7788609,0.55530536,-0.1200936,0.38843027,0.40620837,0.14489265,-0.64363176,0.14834744,0.04780049,794.57874,795.38464,799.41394,796.5934,620.5128,0.19842529296875,0.10858154296875,0.9937744140625,-0.5682373046875,14.063873291015625,12.80029296875,1,1.0,1.0,1.0,1.0,10.00
2024-10-11 20:45:21.306,0.65475017,0.17607656,0.22251469,0.46683386,0.682347,-0.05443572,-0.061409418,0.62613016,1.077492,0.16685894,0.43825388,0.9960746,0.5879751,-0.13614343,0.38978013,0.4772116,0.15393183,-0.6254706,0.21464892,0.045294143,796.5934,800.6227,798.20514,798.20514,643.0769,0.19842529296875,0.10858154296875,0.9937744140625,-0.5682373046875,14.063873291015625,12.80029296875,1,1.0,1.0,1.0,1.0,10.00
2024-10-11 20:45:21.310,0.65475017,0.17607656,0.22251469,0.46683386,0.682347,-0.05443572,-0.061409418,0.62613016,1.077492,0.16685894,0.43825388,0.9960746,0.5879751,-0.13614343,0.38978013,0.4772116,0.15393183,-0.6254706,0.21464892,0.045294143,800.6227,805.05493,796.99634,801.02563,724.4689,0.19842529296875,0.10858154296875,0.9937744140625,-0.5682373046875,14.063873291015625,12.80029296875,1,1.0,1.0,1.0,1.0,10.00
2024-10-11 20:45:21.311,0.65475017,0.17607656,0.22251469,0.46683386,0.682347,-0.05443572,-0.061409418,0.62613016,1.077492,0.16685894,0.43825388,0.9960746,0.5879751,-0.13614343,0.38978013,0.4772116,0.15393183,-0.6254706,0.21464892,0.045294143,803.8461,800.6227,790.54944,796.5934,706.7399,0.19842529296875,0.10858154296875,0.9937744140625,-0.5682373046875,14.063873291015625,12.80029296875,1,1.0,1.0,1.0,1.0,10.00
2024-10-11 20:45:21.313,0.65475017,0.17607656,0.22251469,0.46683386,0.682347,-0.05443572,-0.061409418,0.62613016,1.077492,0.16685894,0.43825388,0.9960746,0.5879751,-0.13614343,0.38978013,0.4772116,0.15393183,-0.6254706,0.21464892,0.045294143,800.6227,793.7729,791.3553,795.78754,674.10254,0.19842529296875,0.10858154296875,0.9937744140625,-0.5682373046875,14.063873291015625,12.80029296875,1,1.0,1.0,1.0,1.0,10.00
2024-10-11 20:45:21.314,0.65475017,0.17607656,0.22251469,0.46683386,0.682347,-0.05443572,-0.061409418,0.62613016,1.077492,0.16685894,0.43825388,0.9960746,0.5879751,-0.13614343,0.38978013,0.4772116,0.15393183,-0.6254706,0.21464892,0.045294143,790.14655,794.57874,807.47253,798.60803,710.7692,0.19842529296875,0.10858154296875,0.9937744140625,-0.5682373046875,14.063873291015625,12.80029296875,1,1.0,1.0,1.0,1.0,10.00
2024-10-11 20:45:21.316,0.65475017,0.17607656,0.22251469,0.46683386,0.682347,-0.05443572,-0.061409418,0.62613016,1.077492,0.16685894,0.43825388,0.9960746,0.5879751,-0.13614343,0.38978013,0.4772116,0.15393183,-0.6254706,0.21464892,0.045294143,793.36993,796.5934,811.50183,803.44324,769.59705,0.19842529296875,0.10858154296875,0.9937744140625,-0.5682373046875,14.063873291015625,12.80029296875,1,1.0,1.0,1.0,1.0,10.00
2024-10-11 20:45:21.317,0.65475017,0.17607656,0.22251469,0.46683386,0.682347,-0.05443572,-0.061409418,0.62613016,1.077492,0.16685894,0.43825388,0.9960746,0.5879751,-0.13614343,0.38978013,0.4772116,0.15393183,-0.6254706,0.21464892,0.045294143,809.4872,794.17584,809.0842,813.91943,837.6923,0.19842529296875,0.10858154296875,0.9937744140625,-0.5682373046875,14.063873291015625,12.80029296875,1,1.0,1.0,1.0,1.0,10.00
2024-10-11 20:45:21.319,0.65475017,0.17607656,0.22251469,0.46683386,0.682347,-0.05443572,-0.061409418,0.62613016,1.077492,0.16685894,0.43825388,0.9960746,0.5879751,-0.13614343,0.38978013,0.4772116,0.15393183,-0.6254706,0.21464892,0.045294143,801.4286,795.38464,808.68134,808.68134,1137.0696,0.19842529296875,0.10858154296875,0.9937744140625,-0.5682373046875,14.063873291015625,12.80029296875,1,1.0,1.0,1.0,1.0,10.00
2024-10-11 20:45:21.320,0.65475017,0.17607656,0.22251469,0.46683386,0.682347,-0.05443572,-0.061409418,0.62613016,1.077492,0.16685894,0.43825388,0.9960746,0.5879751,-0.13614343,0.38978013,0.4772116,0.15393183,-0.6254706,0.21464892,0.045294143,784.10254,792.96704,806.6667,796.5934,998.86444,0.19842529296875,0.10858154296875,0.9937744140625,-0.5682373046875,14.063873291015625,12.80029296875,1,1.0,1.0,1.0,1.0,10.00
2024-10-11 20:45:21.321,0.65475017,0.17607656,0.22251469,0.46683386,0.682347,-0.05443572,-0.061409418,0.62613016,1.077492,0.16685894,0.43825388,0.9960746,0.5879751,-0.13614343,0.38978013,0.4772116,0.15393183,-0.6254706,0.21464892,0.045294143,794.57874,790.54944,807.47253,804.2491,656.3736,0.19842529296875,0.10858154296875,0.9937744140625,-0.5682373046875,14.063873291015625,12.80029296875,1,1.0,1.0,1.0,1.0,10.00
2024-10-11 20:45:21.322,0.65475017,0.17607656,0.22251469,0.46683386,0.682347,-0.05443572,-0.061409418,0.62613016,1.077492,0.16685894,0.43825388,0.9960746,0.5879751,-0.13614343,0.38978013,0.4772116,0.15393183,-0.6254706,0.21464892,0.045294143,807.0696,791.75824,806.6667,813.5165,691.4286,0.19842529296875,0.10858154296875,0.9937744140625,-0.5682373046875,14.063873291015625,12.80029296875,1,1.0,1.0,1.0,1.0,10.00
2024-10-11 20:45:21.323,0.65475017,0.17607656,0.22251469,0.46683386,0.682347,-0.05443572,-0.061409418,0.62613016,1.077492,0.16685894,0.43825388,0.9960746,0.5879751,-0.13614343,0.38978013,0.4772116,0.15393183,-0.6254706,0.21464892,0.045294143,811.50183,791.3553,808.2784,815.9341,651.53845,0.1624755859375,0.09503173828125,0.99468994140625,-3.312225341796875,16.321868896484375,16.934967041015625,1,1.0,1.0,1.0,1.0,10.00
2024-10-11 20:45:21.324,0.65475017,0.17607656,0.22251469,0.46683386,0.682347,-0.05443572,-0.061409418,0.62613016,1.077492,0.16685894,0.43825388,0.9960746,0.5879751,-0.13614343,0.38978013,0.4772116,0.15393183,-0.6254706,0.21464892,0.045294143,815.9341,790.14655,807.8755,809.0842,612.4542,0.1624755859375,0.09503173828125,0.99468994140625,-3.312225341796875,16.321868896484375,16.934967041015625,1,1.0,1.0,1.0,1.0,10.00
2024-10-11 20:45:21.325,0.65475017,0.17607656,0.22251469,0.46683386,0.682347,-0.05443572,-0.061409418,0.62613016,1.077492,0.16685894,0.43825388,0.9960746,0.5879751,-0.13614343,0.38978013,0.4772116,0.15393183,-0.6254706,0.21464892,0.045294143,811.50183,787.326,803.8461,806.6667,688.60803,0.1624755859375,0.09503173828125,0.99468994140625,-3.312225341796875,16.321868896484375,16.934967041015625,1,1.0,1.0,1.0,1.0,10.00
2024-10-11 20:45:21.326,0.65475017,0.17607656,0.22251469,0.46683386,0.682347,-0.05443572,-0.061409418,0.62613016,1.077492,0.16685894,0.43825388,0.9960746,0.5879751,-0.13614343,0.38978013,0.4772116,0.15393183,-0.6254706,0.21464892,0.045294143,815.12823,791.3553,810.293,815.5311,804.65204,0.1624755859375,0.09503173828125,0.99468994140625,-3.312225341796875,16.321868896484375,16.934967041015625,1,1.0,1.0,1.0,1.0,10.00
2024-10-11 20:45:21.326,0.65475017,0.17607656,0.22251469,0.46683386,0.682347,-0.05443572,-0.061409418,0.62613016,1.077492,0.16685894,0.43825388,0.9960746,0.5879751,-0.13614343,0.38978013,0.4772116,0.15393183,-0.6254706,0.21464892,0.045294143,827.2161,795.78754,816.337,813.1135,800.2198,0.1624755859375,0.09503173828125,0.99468994140625,-3.312225341796875,16.321868896484375,16.934967041015625,1,1.0,1.0,1.0,1.0,10.00
2024-10-11 20:45:21.327,0.65475017,0.17607656,0.22251469,0.46683386,0.682347,-0.05443572,-0.061409418,0.62613016,1.077492,0.16685894,0.43825388,0.9960746,0.5879751,-0.13614343,0.38978013,0.4772116,0.15393183,-0.6254706,0.21464892,0.045294143,825.2015,788.5348,811.0989,815.12823,777.25275,0.1624755859375,0.09503173828125,0.99468994140625,-3.312225341796875,16.321868896484375,16.934967041015625,1,1.0,1.0,1.0,1.0,10.00
2024-10-11 20:45:21.328,0.65475017,0.17607656,0.22251469,0.46683386,0.682347,-0.05443572,-0.061409418,0.62613016,1.077492,0.16685894,0.43825388,0.9960746,0.5879751,-0.13614343,0.38978013,0.4772116,0.15393183,-0.6254706,0.21464892,0.045294143,816.337,786.9231,813.5165,817.9487,818.3516,0.1624755859375,0.09503173828125,0.99468994140625,-3.312225341796875,16.321868896484375,16.934967041015625,1,1.0,1.0,1.0,1.0,10.00
2024-10-11 20:45:21.329,0.65475017,0.17607656,0.22251469,0.46683386,0.682347,-0.05443572,-0.061409418,0.62613016,1.077492,0.16685894,0.43825388,0.9960746,0.5879751,-0.13614343,0.38978013,0.4772116,0.15393183,-0.6254706,0.21464892,0.045294143,817.1429,786.52014,817.9487,815.12823,887.25275,0.1624755859375,0.09503173828125,0.99468994140625,-3.312225341796875,16.321868896484375,16.934967041015625,1,1.0,1.0,1.0,1.0,10.00
2024-10-11 20:45:21.330,0.65475017,0.17607656,0.22251469,0.46683386,0.682347,-0.05443572,-0.061409418,0.62613016,1.077492,0.16685894,0.43825388,0.9960746,0.5879751,-0.13614343,0.38978013,0.4772116,0.15393183,-0.6254706,0.21464892,0.045294143,817.5458,782.0879,811.50183,813.5165,751.4652,0.1624755859375,0.09503173828125,0.99468994140625,-3.312225341796875,16.321868896484375,16.934967041015625,1,1.0,1.0,1.0,1.0,10.00
2024-10-11 20:45:21.331,0.65475017,0.17607656,0.22251469,0.46683386,0.682347,-0.05443572,-0.061409418,0.62613016,1.077492,0.16685894,0.43825388,0.9960746,0.5879751,-0.13614343,0.38978013,0.4772116,0.15393183,-0.6254706,0.21464892,0.045294143,819.5604,781.685,811.50183,816.337,548.3883,0.1624755859375,0.09503173828125,0.99468994140625,-3.312225341796875,16.321868896484375,16.934967041015625,1,1.0,1.0,1.0,1.0,10.00
2024-10-11 20:45:21.332,0.65475017,0.17607656,0.22251469,0.46683386,0.682347,-0.05443572,-0.061409418,0.62613016,1.077492,0.16685894,0.43825388,0.9960746,0.5879751,-0.13614343,0.38978013,0.4772116,0.15393183,-0.6254706,0.21464892,0.045294143,813.1135,788.93774,807.0696,818.3516,634.21246,0.1624755859375,0.09503173828125,0.99468994140625,-3.312225341796875,16.321868896484375,16.934967041015625,1,1.0,1.0,1.0,1.0,10.00
2024-10-11 20:45:21.333,0.65475017,0.17607656,0.22251469,0.46683386,0.682347,-0.05443572,-0.061409418,0.62613016,1.077492,0.16685894,0.43825388,0.9960746,0.5879751,-0.13614343,0.38978013,0.4772116,0.15393183,-0.6254706,0.21464892,0.045294143,810.696,785.31134,806.6667,823.1868,707.9487,0.1624755859375,0.09503173828125,0.99468994140625,-3.312225341796875,16.321868896484375,16.934967041015625,1,1.0,1.0,1.0,1.0,10.00
2024-10-11 20:45:21.355,0.65475017,0.17607656,0.22251469,0.46683386,0.682347,-0.05443572,-0.061409418,0.62613016,1.077492,0.16685894,0.43825388,0.9960746,0.5879751,-0.13614343,0.38978013,0.4772116,0.15393183,-0.6254706,0.21464892,0.045294143,811.50183,780.07324,815.9341,832.0513,682.1612,0.1246337890625,0.0789794921875,0.99652099609375,-4.26177978515625,18.086395263671875,16.6583251953125,1,1.0,1.0,1.0,1.0,10.00
2024-10-11 20:45:21.356,0.65475017,0.17607656,0.22251469,0.46683386,0.682347,-0.05443572,-0.061409418,0.62613016,1.077492,0.16685894,0.43825388,0.9960746,0.5879751,-0.13614343,0.38978013,0.4772116,0.15393183,-0.6254706,0.21464892,0.045294143,818.3516,782.8938,808.68134,836.08057,610.0366,0.1246337890625,0.0789794921875,0.99652099609375,-4.26177978515625,18.086395263671875,16.6583251953125,1,1.0,1.0,1.0,1.0,10.00
2024-10-11 20:45:21.357,0.65475017,0.17607656,0.22251469,0.46683386,0.682347,-0.05443572,-0.061409418,0.62613016,1.077492,0.16685894,0.43825388,0.9960746,0.5879751,-0.13614343,0.38978013,0.4772116,0.15393183,-0.6254706,0.21464892,0.045294143,825.6044,784.10254,810.696,837.6923,621.7216,0.1246337890625,0.0789794921875,0.99652099609375,-4.26177978515625,18.086395263671875,16.6583251953125,1,1.0,1.0,1.0,1.0,10.00
2024-10-11 20:45:21.358,0.80526966,0.10823323,0.16093418,0.58730423,0.8087284,-0.11436888,-0.14126626,0.7314768,1.186256,0.09314597,0.37698916,1.092465,0.61209285,-0.1370481,0.39557233,0.52282304,0.16205923,-0.6063759,0.28535002,0.051625963,823.5897,786.52014,819.9634,842.1245,758.315,0.1246337890625,0.0789794921875,0.99652099609375,-4.26177978515625,18.086395263671875,16.6583251953125,1,1.0,1.0,1.0,1.0,10.00
2024-10-11 20:45:21.362,0.80526966,0.10823323,0.16093418,0.58730423,0.8087284,-0.11436888,-0.14126626,0.7314768,1.186256,0.09314597,0.37698916,1.092465,0.61209285,-0.1370481,0.39557233,0.52282304,0.16205923,-0.6063759,0.28535002,0.051625963,826.0073,787.326,811.50183,845.34796,723.2601,0.1246337890625,0.0789794921875,0.99652099609375,-4.26177978515625,18.086395263671875,16.6583251953125,1,1.0,1.0,1.0,1.0,10.00
2024-10-11 20:45:21.363,0.80526966,0.10823323,0.16093418,0.58730423,0.8087284,-0.11436888,-0.14126626,0.7314768,1.186256,0.09314597,0.37698916,1.092465,0.61209285,-0.1370481,0.39557233,0.52282304,0.16205923,-0.6063759,0.28535002,0.051625963,826.8132,786.52014,801.4286,834.87177,684.17584,0.1246337890625,0.0789794921875,0.99652099609375,-4.26177978515625,18.086395263671875,16.6583251953125,1,1.0,1.0,1.0,1.0,10.00
2024-10-11 20:45:21.364,0.80526966,0.10823323,0.16093418,0.58730423,0.8087284,-0.11436888,-0.14126626,0.7314768,1.186256,0.09314597,0.37698916,1.092465,0.61209285,-0.1370481,0.39557233,0.52282304,0.16205923,-0.6063759,0.28535002,0.051625963,825.6044,782.49084,803.8461,824.7985,864.2857,0.1246337890625,0.0789794921875,0.99652099609375,-4.26177978515625,18.086395263671875,16.6583251953125,1,1.0,1.0,1.0,1.0,10.00
2024-10-11 20:45:21.365,0.80526966,0.10823323,0.16093418,0.58730423,0.8087284,-0.11436888,-0.14126626,0.7314768,1.186256,0.09314597,0.37698916,1.092465,0.61209285,-0.1370481,0.39557233,0.52282304,0.16205923,-0.6063759,0.28535002,0.051625963,827.2161,780.07324,815.5311,838.0952,1261.978,0.1246337890625,0.0789794921875,0.99652099609375,-4.26177978515625,18.086395263671875,16.6583251953125,1,1.0,1.0,1.0,1.0,10.00
2024-10-11 20:45:21.366,0.80526966,0.10823323,0.16093418,0.58730423,0.8087284,-0.11436888,-0.14126626,0.7314768,1.186256,0.09314597,0.37698916,1.092465,0.61209285,-0.1370481,0.39557233,0.52282304,0.16205923,-0.6063759,0.28535002,0.051625963,822.7839,787.326,821.1722,842.52747,1171.7216,0.1246337890625,0.0789794921875,0.99652099609375,-4.26177978515625,18.086395263671875,16.6583251953125,1,1.0,1.0,1.0,1.0,10.00
2024-10-11 20:45:21.367,0.80526966,0.10823323,0.16093418,0.58730423,0.8087284,-0.11436888,-0.14126626,0.7314768,1.186256,0.09314597,0.37698916,1.092465,0.61209285,-0.1370481,0.39557233,0.52282304,0.16205923,-0.6063759,0.28535002,0.051625963,819.9634,794.9817,810.293,826.8132,685.78754,0.1246337890625,0.0789794921875,0.99652099609375,-4.26177978515625,18.086395263671875,16.6583251953125,1,1.0,1.0,1.0,1.0,10.00
2024-10-11 20:45:21.368,0.80526966,0.10823323,0.16093418,0.58730423,0.8087284,-0.11436888,-0.14126626,0.7314768,1.186256,0.09314597,0.37698916,1.092465,0.61209285,-0.1370481,0.39557233,0.52282304,0.16205923,-0.6063759,0.28535002,0.051625963,819.15753,793.36993,805.4579,820.7692,858.6447,0.1246337890625,0.0789794921875,0.99652099609375,-4.26177978515625,18.086395263671875,16.6583251953125,1,1.0,1.0,1.0,1.0,10.00
2024-10-11 20:45:21.369,0.80526966,0.10823323,0.16093418,0.58730423,0.8087284,-0.11436888,-0.14126626,0.7314768,1.186256,0.09314597,0.37698916,1.092465,0.61209285,-0.1370481,0.39557233,0.52282304,0.16205923,-0.6063759,0.28535002,0.051625963,817.9487,790.9524,797.8022,819.5604,1001.28204,0.1246337890625,0.0789794921875,0.99652099609375,-4.26177978515625,18.086395263671875,16.6583251953125,1,1.0,1.0,1.0,1.0,10.00
2024-10-11 20:45:21.370,0.80526966,0.10823323,0.16093418,0.58730423,0.8087284,-0.11436888,-0.14126626,0.7314768,1.186256,0.09314597,0.37698916,1.092465,0.61209285,-0.1370481,0.39557233,0.52282304,0.16205923,-0.6063759,0.28535002,0.051625963,815.12823,796.5934,796.99634,819.5604,751.4652,0.08624267578125,0.072998046875,1.00048828125,-4.074859619140625,19.357452392578125,13.0694580078125,1,1.0,1.0,1.0,1.0,10.00
2024-10-11 20:45:21.371,0.80526966,0.10823323,0.16093418,0.58730423,0.8087284,-0.11436888,-0.14126626,0.7314768,1.186256,0.09314597,0.37698916,1.092465,0.61209285,-0.1370481,0.39557233,0.52282304,0.16205923,-0.6063759,0.28535002,0.051625963,817.5458,796.5934,811.50183,823.5897,662.4176,0.08624267578125,0.072998046875,1.00048828125,-4.074859619140625,19.357452392578125,13.0694580078125,1,1.0,1.0,1.0,1.0,10.00
2024-10-11 20:45:21.372,0.80526966,0.10823323,0.16093418,0.58730423,0.8087284,-0.11436888,-0.14126626,0.7314768,1.186256,0.09314597,0.37698916,1.092465,0.61209285,-0.1370481,0.39557233,0.52282304,0.16205923,-0.6063759,0.28535002,0.051625963,814.3223,788.93774,806.26373,823.1868,865.09155,0.08624267578125,0.072998046875,1.00048828125,-4.074859619140625,19.357452392578125,13.0694580078125,1,1.0,1.0,1.0,1.0,10.00
2024-10-11 20:45:21.373,0.80526966,0.10823323,0.16093418,0.58730423,0.8087284,-0.11436888,-0.14126626,0.7314768,1.186256,0.09314597,0.37698916,1.092465,0.61209285,-0.1370481,0.39557233,0.52282304,0.16205923,-0.6063759,0.28535002,0.051625963,809.0842,793.36993,802.6374,819.9634,1009.34064,0.08624267578125,0.072998046875,1.00048828125,-4.074859619140625,19.357452392578125,13.0694580078125,1,1.0,1.0,1.0,1.0,10.00
2024-10-11 20:45:21.374,0.80526966,0.10823323,0.16093418,0.58730423,0.8087284,-0.11436888,-0.14126626,0.7314768,1.186256,0.09314597,0.37698916,1.092465,0.61209285,-0.1370481,0.39557233,0.52282304,0.16205923,-0.6063759,0.28535002,0.051625963,811.9048,793.36993,806.6667,810.696,683.36993,0.08624267578125,0.072998046875,1.00048828125,-4.074859619140625,19.357452392578125,13.0694580078125,1,1.0,1.0,1.0,1.0,10.00
2024-10-11 20:45:21.375,0.80526966,0.10823323,0.16093418,0.58730423,0.8087284,-0.11436888,-0.14126626,0.7314768,1.186256,0.09314597,0.37698916,1.092465,0.61209285,-0.1370481,0.39557233,0.52282304,0.16205923,-0.6063759,0.28535002,0.051625963,813.91943,790.9524,796.99634,805.8608,556.8498,0.08624267578125,0.072998046875,1.00048828125,-4.074859619140625,19.357452392578125,13.0694580078125,1,1.0,1.0,1.0,1.0,10.00
2024-10-11 20:45:21.375,0.80526966,0.10823323,0.16093418,0.58730423,0.8087284,-0.11436888,-0.14126626,0.7314768,1.186256,0.09314597,0.37698916,1.092465,0.61209285,-0.1370481,0.39557233,0.52282304,0.16205923,-0.6063759,0.28535002,0.051625963,811.9048,793.36993,794.57874,809.89014,955.7509,0.08624267578125,0.072998046875,1.00048828125,-4.074859619140625,19.357452392578125,13.0694580078125,1,1.0,1.0,1.0,1.0,10.00
2024-10-11 20:45:21.376,0.80526966,0.10823323,0.16093418,0.58730423,0.8087284,-0.11436888,-0.14126626,0.7314768,1.186256,0.09314597,0.37698916,1.092465,0.61209285,-0.1370481,0.39557233,0.52282304,0.16205923,-0.6063759,0.28535002,0.051625963,817.5458,796.5934,809.4872,812.71063,999.2674,0.08624267578125,0.072998046875,1.00048828125,-4.074859619140625,19.357452392578125,13.0694580078125,1,1.0,1.0,1.0,1.0,10.00
2024-10-11 20:45:21.377,0.80526966,0.10823323,0.16093418,0.58730423,0.8087284,-0.11436888,-0.14126626,0.7314768,1.186256,0.09314597,0.37698916,1.092465,0.61209285,-0.1370481,0.39557233,0.52282304,0.16205923,-0.6063759,0.28535002,0.051625963,821.5751,795.38464,807.47253,807.0696,609.6337,0.08624267578125,0.072998046875,1.00048828125,-4.074859619140625,19.357452392578125,13.0694580078125,1,1.0,1.0,1.0,1.0,10.00
2024-10-11 20:45:21.378,0.80526966,0.10823323,0.16093418,0.58730423,0.8087284,-0.11436888,-0.14126626,0.7314768,1.186256,0.09314597,0.37698916,1.092465,0.61209285,-0.1370481,0.39557233,0.52282304,0.16205923,-0.6063759,0.28535002,0.051625963,819.15753,794.17584,796.99634,807.8755,573.7729,0.08624267578125,0.072998046875,1.00048828125,-4.074859619140625,19.357452392578125,13.0694580078125,1,1.0,1.0,1.0,1.0,10.00
2024-10-11 20:45:21.379,0.80526966,0.10823323,0.16093418,0.58730423,0.8087284,-0.11436888,-0.14126626,0.7314768,1.186256,0.09314597,0.37698916,1.092465,0.61209285,-0.1370481,0.39557233,0.52282304,0.16205923,-0.6063759,0.28535002,0.051625963,817.5458,794.17584,801.4286,810.293,617.6923,0.08624267578125,0.072998046875,1.00048828125,-4.074859619140625,19.357452392578125,13.0694580078125,1,1.0,1.0,1.0,1.0,10.00
2024-10-11 20:45:21.380,0.80526966,0.10823323,0.16093418,0.58730423,0.8087284,-0.11436888,-0.14126626,0.7314768,1.186256,0.09314597,0.37698916,1.092465,0.61209285,-0.1370481,0.39557233,0.52282304,0.16205923,-0.6063759,0.28535002,0.051625963,813.91943,792.96704,801.8315,816.7399,614.0659,0.08624267578125,0.072998046875,1.00048828125,-4.074859619140625,19.357452392578125,13.0694580078125,1,1.0,1.0,1.0,1.0,10.00
2024-10-11 20:45:21.381,0.80526966,0.10823323,0.16093418,0.58730423,0.8087284,-0.11436888,-0.14126626,0.7314768,1.186256,0.09314597,0.37698916,1.092465,0.61209285,-0.1370481,0.39557233,0.52282304,0.16205923,-0.6063759,0.28535002,0.051625963,813.5165,792.96704,792.5641,818.3516,612.0513,0.08624267578125,0.072998046875,1.00048828125,-4.074859619140625,19.357452392578125,13.0694580078125,1,1.0,1.0,1.0,1.0,10.00
2024-10-11 20:45:21.382,0.80526966,0.10823323,0.16093418,0.58730423,0.8087284,-0.11436888,-0.14126626,0.7314768,1.186256,0.09314597,0.37698916,1.092465,0.61209285,-0.1370481,0.39557233,0.52282304,0.16205923,-0.6063759,0.28535002,0.051625963,812.71063,795.38464,793.7729,809.0842,732.1245,0.08624267578125,0.072998046875,1.00048828125,-4.074859619140625,19.357452392578125,13.0694580078125,1,1.0,1.0,1.0,1.0,10.00
2024-10-11 20:45:21.383,0.80526966,0.10823323,0.16093418,0.58730423,0.8087284,-0.11436888,-0.14126626,0.7314768,1.186256,0.09314597,0.37698916,1.092465,0.61209285,-0.1370481,0.39557233,0.52282304,0.16205923,-0.6063759,0.28535002,0.051625963,809.89014,791.3553,801.02563,807.8755,745.42126,0.08624267578125,0.072998046875,1.00048828125,-4.074859619140625,19.357452392578125,13.0694580078125,1,1.0,1.0,1.0,1.0,10.00
2024-10-11 20:45:21.385,0.80526966,0.10823323,0.16093418,0.58730423,0.8087284,-0.11436888,-0.14126626,0.7314768,1.186256,0.09314597,0.37698916,1.092465,0.61209285,-0.1370481,0.39557233,0.52282304,0.16205923,-0.6063759,0.28535002,0.051625963,808.2784,788.93774,800.6227,809.89014,709.5604,0.08624267578125,0.072998046875,1.00048828125,-4.074859619140625,19.357452392578125,13.0694580078125,1,1.0,1.0,1.0,1.0,10.00
2024-10-11 20:45:21.386,0.80526966,0.10823323,0.16093418,0.58730423,0.8087284,-0.11436888,-0.14126626,0.7314768,1.186256,0.09314597,0.37698916,1.092465,0.61209285,-0.1370481,0.39557233,0.52282304,0.16205923,-0.6063759,0.28535002,0.051625963,817.9487,791.75824,797.8022,808.2784,658.7912,0.08624267578125,0.072998046875,1.00048828125,-4.074859619140625,19.357452392578125,13.0694580078125,1,1.0,1.0,1.0,1.0,10.00
2024-10-11 20:45:21.387,0.9229257,0.061740506,0.10594197,0.6977495,0.90702283,-0.13770293,-0.21083614,0.80431193,1.2282096,0.03260258,0.27572623,1.0999457,0.6204786,-0.13115624,0.39939624,0.5392964,0.16105534,-0.58183557,0.34753776,0.069458805,815.5311,790.14655,792.96704,806.26373,766.77655,0.08624267578125,0.072998046875,1.00048828125,-4.074859619140625,19.357452392578125,13.0694580078125,1,1.0,1.0,1.0,1.0,10.00
2024-10-11 20:45:21.392,0.9229257,0.061740506,0.10594197,0.6977495,0.90702283,-0.13770293,-0.21083614,0.80431193,1.2282096,0.03260258,0.27572623,1.0999457,0.6204786,-0.13115624,0.39939624,0.5392964,0.16105534,-0.58183557,0.34753776,0.069458805,798.60803,788.5348,804.65204,820.7692,1196.3004,0.08624267578125,0.072998046875,1.00048828125,-4.074859619140625,19.357452392578125,13.0694580078125,1,1.0,1.0,1.0,1.0,10.00
2024-10-11 20:45:21.393,0.9229257,0.061740506,0.10594197,0.6977495,0.90702283,-0.13770293,-0.21083614,0.80431193,1.2282096,0.03260258,0.27572623,1.0999457,0.6204786,-0.13115624,0.39939624,0.5392964,0.16105534,-0.58183557,0.34753776,0.069458805,785.31134,792.5641,816.7399,821.5751,1076.227,0.08624267578125,0.072998046875,1.00048828125,-4.074859619140625,19.357452392578125,13.0694580078125,1,1.0,1.0,1.0,1.0,10.00
2024-10-11 20:45:21.394,0.9229257,0.061740506,0.10594197,0.6977495,0.90702283,-0.13770293,-0.21083614,0.80431193,1.2282096,0.03260258,0.27572623,1.0999457,0.6204786,-0.13115624,0.39939624,0.5392964,0.16105534,-0.58183557,0.34753776,0.069458805,784.10254,793.7729,814.7253,805.4579,563.2967,0.08624267578125,0.072998046875,1.00048828125,-4.074859619140625,19.357452392578125,13.0694580078125,1,1.0,1.0,1.0,1.0,10.00
2024-10-11 20:45:21.395,0.9229257,0.061740506,0.10594197,0.6977495,0.90702283,-0.13770293,-0.21083614,0.80431193,1.2282096,0.03260258,0.27572623,1.0999457,0.6204786,-0.13115624,0.39939624,0.5392964,0.16105534,-0.58183557,0.34753776,0.069458805,798.20514,794.57874,807.47253,810.696,570.14655,0.08624267578125,0.072998046875,1.00048828125,-4.074859619140625,19.357452392578125,13.0694580078125,1,1.0,1.0,1.0,1.0,10.00
2024-10-11 20:45:21.396,0.9229257,0.061740506,0.10594197,0.6977495,0.90702283,-0.13770293,-0.21083614,0.80431193,1.2282096,0.03260258,0.27572623,1.0999457,0.6204786,-0.13115624,0.39939624,0.5392964,0.16105534,-0.58183557,0.34753776,0.069458805,800.6227,795.38464,797.3993,807.8755,617.28937,0.08624267578125,0.072998046875,1.00048828125,-4.074859619140625,19.357452392578125,13.0694580078125,1,1.0,1.0,1.0,1.0,10.00
2024-10-11 20:45:21.398,0.9229257,0.061740506,0.10594197,0.6977495,0.90702283,-0.13770293,-0.21083614,0.80431193,1.2282096,0.03260258,0.27572623,1.0999457,0.6204786,-0.13115624,0.39939624,0.5392964,0.16105534,-0.58183557,0.34753776,0.069458805,796.99634,795.38464,804.2491,799.41394,537.50916,0.08624267578125,0.072998046875,1.00048828125,-4.074859619140625,19.357452392578125,13.0694580078125,1,1.0,1.0,1.0,1.0,10.00
2024-10-11 20:45:21.485,0.9229257,0.061740506,0.10594197,0.6977495,0.90702283,-0.13770293,-0.21083614,0.80431193,1.2282096,0.03260258,0.27572623,1.0999457,0.6204786,-0.13115624,0.39939624,0.5392964,0.16105534,-0.58183557,0.34753776,0.069458805,805.8608,801.02563,802.6374,800.6227,508.9011,0.0555419921875,0.05621337890625,1.00726318359375,-4.32159423828125,20.643463134765625,8.8226318359375,1,1.0,1.0,1.0,1.0,10.00
2024-10-11 20:45:21.486,0.9229257,0.061740506,0.10594197,0.6977495,0.90702283,-0.13770293,-0.21083614,0.80431193,1.2282096,0.03260258,0.27572623,1.0999457,0.6204786,-0.13115624,0.39939624,0.5392964,0.16105534,-0.58183557,0.34753776,0.069458805,805.8608,798.20514,802.23444,800.2198,590.293,0.0555419921875,0.05621337890625,1.00726318359375,-4.32159423828125,20.643463134765625,8.8226318359375,1,1.0,1.0,1.0,1.0,10.00
2024-10-11 20:45:21.487,0.9229257,0.061740506,0.10594197,0.6977495,0.90702283,-0.13770293,-0.21083614,0.80431193,1.2282096,0.03260258,0.27572623,1.0999457,0.6204786,-0.13115624,0.39939624,0.5392964,0.16105534,-0.58183557,0.34753776,0.069458805,803.0403,796.1905,806.6667,802.23444,642.674,0.0555419921875,0.05621337890625,1.00726318359375,-4.32159423828125,20.643463134765625,8.8226318359375,1,1.0,1.0,1.0,1.0,10.00
2024-10-11 20:45:21.488,0.9229257,0.061740506,0.10594197,0.6977495,0.90702283,-0.13770293,-0.21083614,0.80431193,1.2282096,0.03260258,0.27572623,1.0999457,0.6204786,-0.13115624,0.39939624,0.5392964,0.16105534,-0.58183557,0.34753776,0.069458805,805.8608,798.60803,806.26373,797.8022,623.3333,0.0555419921875,0.05621337890625,1.00726318359375,-4.32159423828125,20.643463134765625,8.8226318359375,1,1.0,1.0,1.0,1.0,10.00
2024-10-11 20:45:21.489,0.9229257,0.061740506,0.10594197,0.6977495,0.90702283,-0.13770293,-0.21083614,0.80431193,1.2282096,0.03260258,0.27572623,1.0999457,0.6204786,-0.13115624,0.39939624,0.5392964,0.16105534,-0.58183557,0.34753776,0.069458805,804.2491,800.2198,801.8315,801.4286,668.46155,0.0555419921875,0.05621337890625,1.00726318359375,-4.32159423828125,20.643463134765625,8.8226318359375,1,1.0,1.0,1.0,1.0,10.00
2024-10-11 20:45:21.490,0.9229257,0.061740506,0.10594197,0.6977495,0.90702283,-0.13770293,-0.21083614,0.80431193,1.2282096,0.03260258,0.27572623,1.0999457,0.6204786,-0.13115624,0.39939624,0.5392964,0.16105534,-0.58183557,0.34753776,0.069458805,815.5311,804.2491,795.38464,810.293,727.6923,0.0555419921875,0.05621337890625,1.00726318359375,-4.32159423828125,20.643463134765625,8.8226318359375,1,1.0,1.0,1.0,1.0,10.00
2024-10-11 20:45:21.490,0.9229257,0.061740506,0.10594197,0.6977495,0.90702283,-0.13770293,-0.21083614,0.80431193,1.2282096,0.03260258,0.27572623,1.0999457,0.6204786,-0.13115624,0.39939624,0.5392964,0.16105534,-0.58183557,0.34753776,0.069458805,819.15753,801.8315,798.20514,797.8022,753.47986,0.0555419921875,0.05621337890625,1.00726318359375,-4.32159423828125,20.643463134765625,8.8226318359375,1,1.0,1.0,1.0,1.0,10.00
2024-10-11 20:45:21.491,0.9229257,0.061740506,0.10594197,0.6977495,0.90702283,-0.13770293,-0.21083614,0.80431193,1.2282096,0.03260258,0.27572623,1.0999457,0.6204786,-0.13115624,0.39939624,0.5392964,0.16105534,-0.58183557,0.34753776,0.069458805,803.8461,795.78754,804.2491,791.75824,754.2857,0.0555419921875,0.05621337890625,1.00726318359375,-4.32159423828125,20.643463134765625,8.8226318359375,1,1.0,1.0,1.0,1.0,10.00
2024-10-11 20:45:21.492,0.9229257,0.061740506,0.10594197,0.6977495,0.90702283,-0.13770293,-0.21083614,0.80431193,1.2282096,0.03260258,0.27572623,1.0999457,0.6204786,-0.13115624,0.39939624,0.5392964,0.16105534,-0.58183557,0.34753776,0.069458805,799.011,796.99634,804.2491,794.57874,544.7619,0.0555419921875,0.05621337890625,1.00726318359375,-4.32159423828125,20.643463134765625,8.8226318359375,1,1.0,1.0,1.0,1.0,10.00
2024-10-11 20:45:21.493,0.9229257,0.061740506,0.10594197,0.6977495,0.90702283,-0.13770293,-0.21083614,0.80431193,1.2282096,0.03260258,0.27572623,1.0999457,0.6204786,-0.13115624,0.39939624,0.5392964,0.16105534,-0.58183557,0.34753776,0.069458805,802.6374,799.011,788.1319,805.8608,775.64105,0.0555419921875,0.05621337890625,1.00726318359375,-4.32159423828125,20.643463134765625,8.8226318359375,1,1.0,1.0,1.0,1.0,10.00
2024-10-11 20:45:21.494,0.9229257,0.061740506,0.10594197,0.6977495,0.90702283,-0.13770293,-0.21083614,0.80431193,1.2282096,0.03260258,0.27572623,1.0999457,0.6204786,-0.13115624,0.39939624,0.5392964,0.16105534,-0.58183557,0.34753776,0.069458805,810.696,796.5934,787.326,811.0989,960.18317,0.0555419921875,0.05621337890625,1.00726318359375,-4.32159423828125,20.643463134765625,8.8226318359375,1,1.0,1.0,1.0,1.0,10.00
2024-10-11 20:45:21.495,0.9229257,0.061740506,0.10594197,0.6977495,0.90702283,-0.13770293,-0.21083614,0.80431193,1.2282096,0.03260258,0.27572623,1.0999457,0.6204786,-0.13115624,0.39939624,0.5392964,0.16105534,-0.58183557,0.34753776,0.069458805,813.1135,797.8022,810.293,799.81683,594.7253,0.0555419921875,0.05621337890625,1.00726318359375,-4.32159423828125,20.643463134765625,8.8226318359375,1,1.0,1.0,1.0,1.0,10.00
2024-10-11 20:45:21.496,0.9229257,0.061740506,0.10594197,0.6977495,0.90702283,-0.13770293,-0.21083614,0.80431193,1.2282096,0.03260258,0.27572623,1.0999457,0.6204786,-0.13115624,0.39939624,0.5392964,0.16105534,-0.58183557,0.34753776,0.069458805,803.0403,797.8022,809.4872,795.78754,648.315,0.0264892578125,0.04791259765625,1.00677490234375,-4.3365478515625,20.030364990234375,5.914154052734375,1,1.0,1.0,1.0,1.0,10.00
2024-10-11 20:45:21.497,0.9229257,0.061740506,0.10594197,0.6977495,0.90702283,-0.13770293,-0.21083614,0.80431193,1.2282096,0.03260258,0.27572623,1.0999457,0.6204786,-0.13115624,0.39939624,0.5392964,0.16105534,-0.58183557,0.34753776,0.069458805,790.9524,797.8022,799.81683,797.8022,718.8278,0.0264892578125,0.04791259765625,1.00677490234375,-4.3365478515625,20.030364990234375,5.914154052734375,1,1.0,1.0,1.0,1.0,10.00
2024-10-11 20:45:21.497,0.9229257,0.061740506,0.10594197,0.6977495,0.90702283,-0.13770293,-0.21083614,0.80431193,1.2282096,0.03260258,0.27572623,1.0999457,0.6204786,-0.13115624,0.39939624,0.5392964,0.16105534,-0.58183557,0.34753776,0.069458805,796.99634,802.23444,798.20514,798.60803,704.3223,0.0264892578125,0.04791259765625,1.00677490234375,-4.3365478515625,20.030364990234375,5.914154052734375,1,1.0,1.0,1.0,1.0,10.00
2024-10-11 20:45:21.498,0.9229257,0.061740506,0.10594197,0.6977495,0.90702283,-0.13770293,-0.21083614,0.80431193,1.2282096,0.03260258,0.27572623,1.0999457,0.6204786,-0.13115624,0.39939624,0.5392964,0.16105534,-0.58183557,0.34753776,0.069458805,804.65204,802.23444,790.9524,796.99634,660.0,0.0264892578125,0.04791259765625,1.00677490234375,-4.3365478515625,20.030364990234375,5.914154052734375,1,1.0,1.0,1.0,1.0,10.00
2024-10-11 20:45:21.498,0.9229257,0.061740506,0.10594197,0.6977495,0.90702283,-0.13770293,-0.21083614,0.80431193,1.2282096,0.03260258,0.27572623,1.0999457,0.6204786,-0.13115624,0.39939624,0.5392964,0.16105534,-0.58183557,0.34753776,0.069458805,800.2198,800.2198,801.8315,799.011,697.8755,0.0264892578125,0.04791259765625,1.00677490234375,-4.3365478515625,20.030364990234375,5.914154052734375,1,1.0,1.0,1.0,1.0,10.00
2024-10-11 20:45:21.499,0.9229257,0.061740506,0.10594197,0.6977495,0.90702283,-0.13770293,-0.21083614,0.80431193,1.2282096,0.03260258,0.27572623,1.0999457,0.6204786,-0.13115624,0.39939624,0.5392964,0.16105534,-0.58183557,0.34753776,0.069458805,810.696,799.41394,806.6667,800.6227,872.74725,0.0264892578125,0.04791259765625,1.00677490234375,-4.3365478515625,20.030364990234375,5.914154052734375,1,1.0,1.0,1.0,1.0,10.00
2024-10-11 20:45:21.500,0.9229257,0.061740506,0.10594197,0.6977495,0.90702283,-0.13770293,-0.21083614,0.80431193,1.2282096,0.03260258,0.27572623,1.0999457,0.6204786,-0.13115624,0.39939624,0.5392964,0.16105534,-0.58183557,0.34753776,0.069458805,820.3663,799.011,801.8315,796.1905,772.4176,0.0264892578125,0.04791259765625,1.00677490234375,-4.3365478515625,20.030364990234375,5.914154052734375,1,1.0,1.0,1.0,1.0,10.00
2024-10-11 20:45:21.500,1.0050654,0.022238875,0.061124217,0.78480947,0.96702975,-0.13028772,-0.2636369,0.8521172,1.2419817,0.029365864,0.21220873,1.0999457,0.6167017,-0.12734756,0.39843354,0.5374039,0.15249988,-0.55209315,0.39137137,0.08644091,822.381,799.81683,793.7729,794.9817,612.4542,0.0264892578125,0.04791259765625,1.00677490234375,-4.3365478515625,20.030364990234375,5.914154052734375,1,1.0,1.0,1.0,1.0,10.00
2024-10-11 20:45:21.505,1.0050654,0.022238875,0.061124217,0.78480947,0.96702975,-0.13028772,-0.2636369,0.8521172,1.2419817,0.029365864,0.21220873,1.0999457,0.6167017,-0.12734756,0.39843354,0.5374039,0.15249988,-0.55209315,0.39137137,0.08644091,818.7546,796.99634,789.34064,802.6374,693.8461,0.0264892578125,0.04791259765625,1.00677490234375,-4.3365478515625,20.030364990234375,5.914154052734375,1,1.0,1.0,1.0,1.0,10.00
2024-10-11 20:45:21.505,1.0050654,0.022238875,0.061124217,0.78480947,0.96702975,-0.13028772,-0.2636369,0.8521172,1.2419817,0.029365864,0.21220873,1.0999457,0.6167017,-0.12734756,0.39843354,0.5374039,0.15249988,-0.55209315,0.39137137,0.08644091,798.20514,790.14655,800.2198,809.89014,891.28204,0.0264892578125,0.04791259765625,1.00677490234375,-4.3365478515625,20.030364990234375,5.914154052734375,1,1.0,1.0,1.0,1.0,10.00
2024-10-11 20:45:21.506,1.0050654,0.022238875,0.061124217,0.78480947,0.96702975,-0.13028772,-0.2636369,0.8521172,1.2419817,0.029365864,0.21220873,1.0999457,0.6167017,-0.12734756,0.39843354,0.5374039,0.15249988,-0.55209315,0.39137137,0.08644091,801.8315,792.1612,808.2784,815.12823,777.25275,0.0264892578125,0.04791259765625,1.00677490234375,-4.3365478515625,20.030364990234375,5.914154052734375,1,1.0,1.0,1.0,1.0,10.00
2024-10-11 20:45:21.506,1.0050654,0.022238875,0.061124217,0.78480947,0.96702975,-0.13028772,-0.2636369,0.8521172,1.2419817,0.029365864,0.21220873,1.0999457,0.6167017,-0.12734756,0.39843354,0.5374039,0.15249988,-0.55209315,0.39137137,0.08644091,806.6667,792.96704,811.0989,808.68134,622.9304,0.0264892578125,0.04791259765625,1.00677490234375,-4.3365478515625,20.030364990234375,5.914154052734375,1,1.0,1.0,1.0,1.0,10.00
2024-10-11 20:45:21.530,1.0050654,0.022238875,0.061124217,0.78480947,0.96702975,-0.13028772,-0.2636369,0.8521172,1.2419817,0.029365864,0.21220873,1.0999457,0.6167017,-0.12734756,0.39843354,0.5374039,0.15249988,-0.55209315,0.39137137,0.08644091,804.2491,790.54944,797.8022,802.6374,803.0403,0.00616455078125,0.03778076171875,0.99993896484375,-3.69354248046875,19.731292724609375,5.72723388671875,1,1.0,1.0,1.0,1.0,10.00
2024-10-11 20:45:21.530,1.0050654,0.022238875,0.061124217,0.78480947,0.96702975,-0.13028772,-0.2636369,0.8521172,1.2419817,0.029365864,0.21220873,1.0999457,0.6167017,-0.12734756,0.39843354,0.5374039,0.15249988,-0.55209315,0.39137137,0.08644091,807.0696,790.54944,796.1905,802.23444,844.5421,0.00616455078125,0.03778076171875,0.99993896484375,-3.69354248046875,19.731292724609375,5.72723388671875,1,1.0,1.0,1.0,1.0,10.00
2024-10-11 20:45:21.531,1.0050654,0.022238875,0.061124217,0.78480947,0.96702975,-0.13028772,-0.2636369,0.8521172,1.2419817,0.029365864,0.21220873,1.0999457,0.6167017,-0.12734756,0.39843354,0.5374039,0.15249988,-0.55209315,0.39137137,0.08644091,803.0403,796.1905,805.4579,801.4286,501.24542,0.00616455078125,0.03778076171875,0.99993896484375,-3.69354248046875,19.731292724609375,5.72723388671875,1,1.0,1.0,1.0,1.0,10.00
2024-10-11 20:45:21.532,1.0050654,0.022238875,0.061124217,0.78480947,0.96702975,-0.13028772,-0.2636369,0.8521172,1.2419817,0.029365864,0.21220873,1.0999457,0.6167017,-0.12734756,0.39843354,0.5374039,0.15249988,-0.55209315,0.39137137,0.08644091,813.91943,800.2198,800.2198,809.0842,456.92307,0.00616455078125,0.03778076171875,0.99993896484375,-3.69354248046875,19.731292724609375,5.72723388671875,1,1.0,1.0,1.0,1.0,10.00
2024-10-11 20:45:21.533,1.0050654,0.022238875,0.061124217,0.78480947,0.96702975,-0.13028772,-0.2636369,0.8521172,1.2419817,0.029365864,0.21220873,1.0999457,0.6167017,-0.12734756,0.39843354,0.5374039,0.15249988,-0.55209315,0.39137137,0.08644091,815.5311,796.5934,801.4286,811.0989,704.7253,0.00616455078125,0.03778076171875,0.99993896484375,-3.69354248046875,19.731292724609375,5.72723388671875,1,1.0,1.0,1.0,1.0,10.00
2024-10-11 20:45:21.534,1.0050654,0.022238875,0.061124217,0.78480947,0.96702975,-0.13028772,-0.2636369,0.8521172,1.2419817,0.029365864,0.21220873,1.0999457,0.6167017,-0.12734756,0.39843354,0.5374039,0.15249988,-0.55209315,0.39137137,0.08644091,807.0696,794.9817,809.4872,810.293,812.3077,0.00616455078125,0.03778076171875,0.99993896484375,-3.69354248046875,19.731292724609375,5.72723388671875,1,1.0,1.0,1.0,1.0,10.00
2024-10-11 20:45:21.535,1.0050654,0.022238875,0.061124217,0.78480947,0.96702975,-0.13028772,-0.2636369,0.8521172,1.2419817,0.029365864,0.21220873,1.0999457,0.6167017,-0.12734756,0.39843354,0.5374039,0.15249988,-0.55209315,0.39137137,0.08644091,816.337,797.3993,813.5165,807.0696,636.63007,0.00616455078125,0.03778076171875,0.99993896484375,-3.69354248046875,19.731292724609375,5.72723388671875,1,1.0,1.0,1.0,1.0,10.00
2024-10-11 20:45:21.536,1.0050654,0.022238875,0.061124217,0.78480947,0.96702975,-0.13028772,-0.2636369,0.8521172,1.2419817,0.029365864,0.21220873,1.0999457,0.6167017,-0.12734756,0.39843354,0.5374039,0.15249988,-0.55209315,0.39137137,0.08644091,821.978,800.2198,805.05493,801.8315,509.70697,0.00616455078125,0.03778076171875,0.99993896484375,-3.69354248046875,19.731292724609375,5.72723388671875,1,1.0,1.0,1.0,1.0,10.00
2024-10-11 20:45:21.536,1.0050654,0.022238875,0.061124217,0.78480947,0.96702975,-0.13028772,-0.2636369,0.8521172,1.2419817,0.029365864,0.21220873,1.0999457,0.6167017,-0.12734756,0.39843354,0.5374039,0.15249988,-0.55209315,0.39137137,0.08644091,813.5165,798.20514,803.0403,811.50183,684.17584,0.00616455078125,0.03778076171875,0.99993896484375,-3.69354248046875,19.731292724609375,5.72723388671875,1,1.0,1.0,1.0,1.0,10.00
2024-10-11 20:45:21.537,1.0050654,0.022238875,0.061124217,0.78480947,0.96702975,-0.13028772,-0.2636369,0.8521172,1.2419817,0.029365864,0.21220873,1.0999457,0.6167017,-0.12734756,0.39843354,0.5374039,0.15249988,-0.55209315,0.39137137,0.08644091,811.50183,797.8022,813.5165,821.1722,1069.3773,0.00616455078125,0.03778076171875,0.99993896484375,-3.69354248046875,19.731292724609375,5.72723388671875,1,1.0,1.0,1.0,1.0,10.00
2024-10-11 20:45:21.538,1.0050654,0.022238875,0.061124217,0.78480947,0.96702975,-0.13028772,-0.2636369,0.8521172,1.2419817,0.029365864,0.21220873,1.0999457,0.6167017,-0.12734756,0.39843354,0.5374039,0.15249988,-0.55209315,0.39137137,0.08644091,810.293,801.02563,809.4872,816.7399,793.36993,0.00616455078125,0.03778076171875,0.99993896484375,-3.69354248046875,19.731292724609375,5.72723388671875,1,1.0,1.0,1.0,1.0,10.00
2024-10-11 20:45:21.538,1.0050654,0.022238875,0.061124217,0.78480947,0.96702975,-0.13028772,-0.2636369,0.8521172,1.2419817,0.029365864,0.21220873,1.0999457,0.6167017,-0.12734756,0.39843354,0.5374039,0.15249988,-0.55209315,0.39137137,0.08644091,816.337,800.6227,798.60803,812.3077,533.0769,0.00616455078125,0.03778076171875,0.99993896484375,-3.69354248046875,19.731292724609375,5.72723388671875,1,1.0,1.0,1.0,1.0,10.00
2024-10-11 20:45:21.565,1.0050654,0.022238875,0.061124217,0.78480947,0.96702975,-0.13028772,-0.2636369,0.8521172,1.2419817,0.029365864,0.21220873,1.0999457,0.6167017,-0.12734756,0.39843354,0.5374039,0.15249988,-0.55209315,0.39137137,0.08644091,813.1135,796.5934,808.68134,813.91943,691.4286,-0.0166015625,0.03076171875,1.000244140625,-3.87298583984375,20.314483642578125,5.99639892578125,1,1.0,1.0,1.0,1.0,10.00
2024-10-11 20:45:21.566,1.0050654,0.022238875,0.061124217,0.78480947,0.96702975,-0.13028772,-0.2636369,0.8521172,1.2419817,0.029365864,0.21220873,1.0999457,0.6167017,-0.12734756,0.39843354,0.5374039,0.15249988,-0.55209315,0.39137137,0.08644091,801.8315,796.5934,817.9487,815.9341,619.304,-0.0166015625,0.03076171875,1.000244140625,-3.87298583984375,20.314483642578125,5.99639892578125,1,1.0,1.0,1.0,1.0,10.00
2024-10-11 20:45:21.566,1.0050654,0.022238875,0.061124217,0.78480947,0.96702975,-0.13028772,-0.2636369,0.8521172,1.2419817,0.029365864,0.21220873,1.0999457,0.6167017,-0.12734756,0.39843354,0.5374039,0.15249988,-0.55209315,0.39137137,0.08644091,801.4286,796.99634,813.1135,807.8755,503.663,-0.0166015625,0.03076171875,1.000244140625,-3.87298583984375,20.314483642578125,5.99639892578125,1,1.0,1.0,1.0,1.0,10.00
2024-10-11 20:45:21.567,1.0050654,0.022238875,0.061124217,0.78480947,0.96702975,-0.13028772,-0.2636369,0.8521172,1.2419817,0.029365864,0.21220873,1.0999457,0.6167017,-0.12734756,0.39843354,0.5374039,0.15249988,-0.55209315,0.39137137,0.08644091,804.2491,793.7729,809.4872,804.65204,529.85345,-0.0166015625,0.03076171875,1.000244140625,-3.87298583984375,20.314483642578125,5.99639892578125,1,1.0,1.0,1.0,1.0,10.00
2024-10-11 20:45:21.567,1.0050654,0.022238875,0.061124217,0.78480947,0.96702975,-0.13028772,-0.2636369,0.8521172,1.2419817,0.029365864,0.21220873,1.0999457,0.6167017,-0.12734756,0.39843354,0.5374039,0.15249988,-0.55209315,0.39137137,0.08644091,811.0989,794.17584,808.2784,809.0842,642.27106,-0.0166015625,0.03076171875,1.000244140625,-3.87298583984375,20.314483642578125,5.99639892578125,1,1.0,1.0,1.0,1.0,10.00
2024-10-11 20:45:21.568,1.0050654,0.022238875,0.061124217,0.78480947,0.96702975,-0.13028772,-0.2636369,0.8521172,1.2419817,0.029365864,0.21220873,1.0999457,0.6167017,-0.12734756,0.39843354,0.5374039,0.15249988,-0.55209315,0.39137137,0.08644091,813.5165,795.78754,803.0403,807.47253,625.7509,-0.0166015625,0.03076171875,1.000244140625,-3.87298583984375,20.314483642578125,5.99639892578125,1,1.0,1.0,1.0,1.0,10.00
2024-10-11 20:45:21.569,1.0050654,0.022238875,0.061124217,0.78480947,0.96702975,-0.13028772,-0.2636369,0.8521172,1.2419817,0.029365864,0.21220873,1.0999457,0.6167017,-0.12734756,0.39843354,0.5374039,0.15249988,-0.55209315,0.39137137,0.08644091,811.9048,798.60803,804.2491,814.7253,631.39197,-0.0166015625,0.03076171875,1.000244140625,-3.87298583984375,20.314483642578125,5.99639892578125,1,1.0,1.0,1.0,1.0,10.00
2024-10-11 20:45:21.569,1.0050654,0.022238875,0.061124217,0.78480947,0.96702975,-0.13028772,-0.2636369,0.8521172,1.2419817,0.029365864,0.21220873,1.0999457,0.6167017,-0.12734756,0.39843354,0.5374039,0.15249988,-0.55209315,0.39137137,0.08644091,811.0989,795.78754,794.57874,815.9341,732.9304,-0.0166015625,0.03076171875,1.000244140625,-3.87298583984375,20.314483642578125,5.99639892578125,1,1.0,1.0,1.0,1.0,10.00
2024-10-11 20:45:21.569,1.0050654,0.022238875,0.061124217,0.78480947,0.96702975,-0.13028772,-0.2636369,0.8521172,1.2419817,0.029365864,0.21220873,1.0999457,0.6167017,-0.12734756,0.39843354,0.5374039,0.15249988,-0.55209315,0.39137137,0.08644091,806.26373,792.1612,793.7729,815.5311,798.20514,-0.0166015625,0.03076171875,1.000244140625,-3.87298583984375,20.314483642578125,5.99639892578125,1,1.0,1.0,1.0,1.0,10.00
2024-10-11 20:45:21.570,1.0321572,-0.0037444257,0.039938893,0.8161608,0.99167347,-0.09405349,-0.2756463,0.87700176,1.2414871,0.03839548,0.21921267,1.0999457,0.61939406,-0.12916362,0.3910742,0.5521365,0.14520527,-0.5240918,0.4156594,0.09293215,807.8755,796.1905,797.8022,813.1135,637.03296,-0.0166015625,0.03076171875,1.000244140625,-3.87298583984375,20.314483642578125,5.99639892578125,1,1.0,1.0,1.0,1.0,10.00
2024-10-11 20:45:21.574,1.0321572,-0.0037444257,0.039938893,0.8161608,0.99167347,-0.09405349,-0.2756463,0.87700176,1.2414871,0.03839548,0.21921267,1.0999457,0.61939406,-0.12916362,0.3910742,0.5521365,0.14520527,-0.5240918,0.4156594,0.09293215,805.4579,795.38464,800.6227,809.4872,521.39197,-0.0166015625,0.03076171875,1.000244140625,-3.87298583984375,20.314483642578125,5.99639892578125,1,1.0,1.0,1.0,1.0,10.00
2024-10-11 20:45:21.574,1.0321572,-0.0037444257,0.039938893,0.8161608,0.99167347,-0.09405349,-0.2756463,0.87700176,1.2414871,0.03839548,0.21921267,1.0999457,0.61939406,-0.12916362,0.3910742,0.5521365,0.14520527,-0.5240918,0.4156594,0.09293215,801.4286,793.36993,812.71063,811.9048,736.55676,-0.0166015625,0.03076171875,1.000244140625,-3.87298583984375,20.314483642578125,5.99639892578125,1,1.0,1.0,1.0,1.0,10.00
2024-10-11 20:45:21.665,1.0321572,-0.0037444257,0.039938893,0.8161608,0.99167347,-0.09405349,-0.2756463,0.87700176,1.2414871,0.03839548,0.21921267,1.0999457,0.61939406,-0.12916362,0.3910742,0.5521365,0.14520527,-0.5240918,0.4156594,0.09293215,815.5311,796.99634,803.8461,822.381,877.98535,-0.0166015625,0.03076171875,1.000244140625,-3.87298583984375,20.314483642578125,5.99639892578125,1,1.0,1.0,1.0,1.0,10.00
2024-10-11 20:45:21.666,1.0321572,-0.0037444257,0.039938893,0.8161608,0.99167347,-0.09405349,-0.2756463,0.87700176,1.2414871,0.03839548,0.21921267,1.0999457,0.61939406,-0.12916362,0.3910742,0.5521365,0.14520527,-0.5240918,0.4156594,0.09293215,820.3663,799.81683,800.6227,828.022,631.79486,-0.0166015625,0.03076171875,1.000244140625,-3.87298583984375,20.314483642578125,5.99639892578125,1,1.0,1.0,1.0,1.0,10.00
2024-10-11 20:45:21.666,1.0321572,-0.0037444257,0.039938893,0.8161608,0.99167347,-0.09405349,-0.2756463,0.87700176,1.2414871,0.03839548,0.21921267,1.0999457,0.61939406,-0.12916362,0.3910742,0.5521365,0.14520527,-0.5240918,0.4156594,0.09293215,806.6667,798.20514,809.4872,817.1429,564.90845,-0.0166015625,0.03076171875,1.000244140625,-3.87298583984375,20.314483642578125,5.99639892578125,1,1.0,1.0,1.0,1.0,10.00
2024-10-11 20:45:21.667,1.0321572,-0.0037444257,0.039938893,0.8161608,0.99167347,-0.09405349,-0.2756463,0.87700176,1.2414871,0.03839548,0.21921267,1.0999457,0.61939406,-0.12916362,0.3910742,0.5521365,0.14520527,-0.5240918,0.4156594,0.09293215,808.68134,794.9817,803.0403,809.89014,725.2747,-0.0166015625,0.03076171875,1.000244140625,-3.87298583984375,20.314483642578125,5.99639892578125,1,1.0,1.0,1.0,1.0,10.00
2024-10-11 20:45:21.668,1.0321572,-0.0037444257,0.039938893,0.8161608,0.99167347,-0.09405349,-0.2756463,0.87700176,1.2414871,0.03839548,0.21921267,1.0999457,0.61939406,-0.12916362,0.3910742,0.5521365,0.14520527,-0.5240918,0.4156594,0.09293215,815.5311,797.3993,790.9524,806.6667,719.2308,-0.0166015625,0.03076171875,1.000244140625,-3.87298583984375,20.314483642578125,5.99639892578125,1,1.0,1.0,1.0,1.0,10.00
2024-10-11 20:45:21.668,1.0321572,-0.0037444257,0.039938893,0.8161608,0.99167347,-0.09405349,-0.2756463,0.87700176,1.2414871,0.03839548,0.21921267,1.0999457,0.61939406,-0.12916362,0.3910742,0.5521365,0.14520527,-0.5240918,0.4156594,0.09293215,808.2784,802.23444,797.8022,804.2491,753.8828,-0.0166015625,0.03076171875,1.000244140625,-3.87298583984375,20.314483642578125,5.99639892578125,1,1.0,1.0,1.0,1.0,10.00
2024-10-11 20:45:21.669,1.0321572,-0.0037444257,0.039938893,0.8161608,0.99167347,-0.09405349,-0.2756463,0.87700176,1.2414871,0.03839548,0.21921267,1.0999457,0.61939406,-0.12916362,0.3910742,0.5521365,0.14520527,-0.5240918,0.4156594,0.09293215,813.91943,803.0403,811.50183,813.91943,892.0879,-0.0166015625,0.03076171875,1.000244140625,-3.87298583984375,20.314483642578125,5.99639892578125,1,1.0,1.0,1.0,1.0,10.00
2024-10-11 20:45:21.669,1.0321572,-0.0037444257,0.039938893,0.8161608,0.99167347,-0.09405349,-0.2756463,0.87700176,1.2414871,0.03839548,0.21921267,1.0999457,0.61939406,-0.12916362,0.3910742,0.5521365,0.14520527,-0.5240918,0.4156594,0.09293215,818.3516,798.60803,797.3993,813.91943,862.674,-0.0166015625,0.03076171875,1.000244140625,-3.87298583984375,20.314483642578125,5.99639892578125,1,1.0,1.0,1.0,1.0,10.00
2024-10-11 20:45:21.670,1.0321572,-0.0037444257,0.039938893,0.8161608,0.99167347,-0.09405349,-0.2756463,0.87700176,1.2414871,0.03839548,0.21921267,1.0999457,0.61939406,-0.12916362,0.3910742,0.5521365,0.14520527,-0.5240918,0.4156594,0.09293215,817.9487,797.3993,791.3553,805.4579,760.7326,-0.0166015625,0.03076171875,1.000244140625,-3.87298583984375,20.314483642578125,5.99639892578125,1,1.0,1.0,1.0,1.0,10.00
2024-10-11 20:45:21.670,1.0321572,-0.0037444257,0.039938893,0.8161608,0.99167347,-0.09405349,-0.2756463,0.87700176,1.2414871,0.03839548,0.21921267,1.0999457,0.61939406,-0.12916362,0.3910742,0.5521365,0.14520527,-0.5240918,0.4156594,0.09293215,832.0513,800.2198,803.44324,806.6667,688.20514,-0.0166015625,0.03076171875,1.000244140625,-3.87298583984375,20.314483642578125,5.99639892578125,1,1.0,1.0,1.0,1.0,10.00
2024-10-11 20:45:21.671,1.0321572,-0.0037444257,0.039938893,0.8161608,0.99167347,-0.09405349,-0.2756463,0.87700176,1.2414871,0.03839548,0.21921267,1.0999457,0.61939406,-0.12916362,0.3910742,0.5521365,0.14520527,-0.5240918,0.4156594,0.09293215,830.84247,796.5934,798.60803,805.4579,678.93774,-0.0166015625,0.03076171875,1.000244140625,-3.87298583984375,20.314483642578125,5.99639892578125,1,1.0,1.0,1.0,1.0,10.00
2024-10-11 20:45:21.671,1.0321572,-0.0037444257,0.039938893,0.8161608,0.99167347,-0.09405349,-0.2756463,0.87700176,1.2414871,0.03839548,0.21921267,1.0999457,0.61939406,-0.12916362,0.3910742,0.5521365,0.14520527,-0.5240918,0.4156594,0.09293215,818.3516,788.5348,796.1905,807.0696,906.1905,-0.0166015625,0.03076171875,1.000244140625,-3.87298583984375,20.314483642578125,5.99639892578125,1,1.0,1.0,1.0,1.0,10.00
2024-10-11 20:45:21.733,1.0321572,-0.0037444257,0.039938893,0.8161608,0.99167347,-0.09405349,-0.2756463,0.87700176,1.2414871,0.03839548,0.21921267,1.0999457,0.61939406,-0.12916362,0.3910742,0.5521365,0.14520527,-0.5240918,0.4156594,0.09293215,813.5165,790.54944,797.3993,809.4872,826.8132,-0.04931640625,0.02252197265625,1.005859375,-3.54400634765625,21.764984130859375,6.08612060546875,1,1.0,1.0,1.0,1.0,10.00
2024-10-11 20:45:21.734,1.0321572,-0.0037444257,0.039938893,0.8161608,0.99167347,-0.09405349,-0.2756463,0.87700176,1.2414871,0.03839548,0.21921267,1.0999457,0.61939406,-0.12916362,0.3910742,0.5521365,0.14520527,-0.5240918,0.4156594,0.09293215,812.3077,794.57874,799.81683,805.4579,542.74725,-0.04931640625,0.02252197265625,1.005859375,-3.54400634765625,21.764984130859375,6.08612060546875,1,1.0,1.0,1.0,1.0,10.00
2024-10-11 20:45:21.735,1.0321572,-0.0037444257,0.039938893,0.8161608,0.99167347,-0.09405349,-0.2756463,0.87700176,1.2414871,0.03839548,0.21921267,1.0999457,0.61939406,-0.12916362,0.3910742,0.5521365,0.14520527,-0.5240918,0.4156594,0.09293215,811.9048,791.3553,801.8315,806.26373,634.61536,-0.04931640625,0.02252197265625,1.005859375,-3.54400634765625,21.764984130859375,6.08612060546875,1,1.0,1.0,1.0,1.0,10.00
2024-10-11 20:45:21.736,1.0321572,-0.0037444257,0.039938893,0.8161608,0.99167347,-0.09405349,-0.2756463,0.87700176,1.2414871,0.03839548,0.21921267,1.0999457,0.61939406,-0.12916362,0.3910742,0.5521365,0.14520527,-0.5240918,0.4156594,0.09293215,816.7399,796.5934,794.9817,811.9048,752.27106,-0.04931640625,0.02252197265625,1.005859375,-3.54400634765625,21.764984130859375,6.08612060546875,1,1.0,1.0,1.0,1.0,10.00
2024-10-11 20:45:21.736,1.0321572,-0.0037444257,0.039938893,0.8161608,0.99167347,-0.09405349,-0.2756463,0.87700176,1.2414871,0.03839548,0.21921267,1.0999457,0.61939406,-0.12916362,0.3910742,0.5521365,0.14520527,-0.5240918,0.4156594,0.09293215,816.337,800.6227,795.38464,806.26373,729.707,-0.04931640625,0.02252197265625,1.005859375,-3.54400634765625,21.764984130859375,6.08612060546875,1,1.0,1.0,1.0,1.0,10.00
2024-10-11 20:45:21.737,1.0321572,-0.0037444257,0.039938893,0.8161608,0.99167347,-0.09405349,-0.2756463,0.87700176,1.2414871,0.03839548,0.21921267,1.0999457,0.61939406,-0.12916362,0.3910742,0.5521365,0.14520527,-0.5240918,0.4156594,0.09293215,809.89014,792.96704,800.2198,797.3993,722.4542,-0.04931640625,0.02252197265625,1.005859375,-3.54400634765625,21.764984130859375,6.08612060546875,1,1.0,1.0,1.0,1.0,10.00
2024-10-11 20:45:21.738,1.0321572,-0.0037444257,0.039938893,0.8161608,0.99167347,-0.09405349,-0.2756463,0.87700176,1.2414871,0.03839548,0.21921267,1.0999457,0.61939406,-0.12916362,0.3910742,0.5521365,0.14520527,-0.5240918,0.4156594,0.09293215,807.0696,792.96704,803.0403,803.0403,965.42126,-0.04931640625,0.02252197265625,1.005859375,-3.54400634765625,21.764984130859375,6.08612060546875,1,1.0,1.0,1.0,1.0,10.00
2024-10-11 20:45:21.738,1.0321572,-0.0037444257,0.039938893,0.8161608,0.99167347,-0.09405349,-0.2756463,0.87700176,1.2414871,0.03839548,0.21921267,1.0999457,0.61939406,-0.12916362,0.3910742,0.5521365,0.14520527,-0.5240918,0.4156594,0.09293215,809.89014,794.17584,811.50183,805.05493,1074.6154,-0.04931640625,0.02252197265625,1.005859375,-3.54400634765625,21.764984130859375,6.08612060546875,1,1.0,1.0,1.0,1.0,10.00
2024-10-11 20:45:21.739,1.0321572,-0.0037444257,0.039938893,0.8161608,0.99167347,-0.09405349,-0.2756463,0.87700176,1.2414871,0.03839548,0.21921267,1.0999457,0.61939406,-0.12916362,0.3910742,0.5521365,0.14520527,-0.5240918,0.4156594,0.09293215,816.337,796.5934,795.38464,800.2198,771.2088,-0.04931640625,0.02252197265625,1.005859375,-3.54400634765625,21.764984130859375,6.08612060546875,1,1.0,1.0,1.0,1.0,10.00
2024-10-11 20:45:21.739,1.0321572,-0.0037444257,0.039938893,0.8161608,0.99167347,-0.09405349,-0.2756463,0.87700176,1.2414871,0.03839548,0.21921267,1.0999457,0.61939406,-0.12916362,0.3910742,0.5521365,0.14520527,-0.5240918,0.4156594,0.09293215,815.5311,799.41394,789.7436,809.0842,566.9231,-0.04931640625,0.02252197265625,1.005859375,-3.54400634765625,21.764984130859375,6.08612060546875,1,1.0,1.0,1.0,1.0,10.00
2024-10-11 20:45:21.739,1.0321572,-0.0037444257,0.039938893,0.8161608,0.99167347,-0.09405349,-0.2756463,0.87700176,1.2414871,0.03839548,0.21921267,1.0999457,0.61939406,-0.12916362,0.3910742,0.5521365,0.14520527,-0.5240918,0.4156594,0.09293215,803.0403,796.1905,813.5165,811.0989,765.56775,-0.04931640625,0.02252197265625,1.005859375,-3.54400634765625,21.764984130859375,6.08612060546875,1,1.0,1.0,1.0,1.0,10.00
2024-10-11 20:45:21.740,1.0627015,0.009904543,0.059178345,0.8454559,1.0204898,-0.045942787,-0.24180953,0.9096656,1.2414871,0.041939132,0.21847282,1.0999457,0.6227559,-0.13333234,0.37541872,0.57424,0.14056759,-0.50335497,0.42623875,0.102207854,802.23444,794.57874,805.8608,807.8755,906.99634,-0.04931640625,0.02252197265625,1.005859375,-3.54400634765625,21.764984130859375,6.08612060546875,1,1.0,1.0,1.0,1.0,10.00
2024-10-11 20:45:21.744,1.0627015,0.009904543,0.059178345,0.8454559,1.0204898,-0.045942787,-0.24180953,0.9096656,1.2414871,0.041939132,0.21847282,1.0999457,0.6227559,-0.13333234,0.37541872,0.57424,0.14056759,-0.50335497,0.42623875,0.102207854,808.2784,792.96704,801.4286,813.91943,632.1978,-0.07513427734375,0.015869140625,0.9962158203125,-3.42437744140625,21.36871337890625,5.480499267578125,1,1.0,1.0,1.0,1.0,10.00
2024-10-11 20:45:21.745,1.0627015,0.009904543,0.059178345,0.8454559,1.0204898,-0.045942787,-0.24180953,0.9096656,1.2414871,0.041939132,0.21847282,1.0999457,0.6227559,-0.13333234,0.37541872,0.57424,0.14056759,-0.50335497,0.42623875,0.102207854,805.4579,792.1612,801.02563,816.7399,494.3956,-0.07513427734375,0.015869140625,0.9962158203125,-3.42437744140625,21.36871337890625,5.480499267578125,1,1.0,1.0,1.0,1.0,10.00
2024-10-11 20:45:21.745,1.0627015,0.009904543,0.059178345,0.8454559,1.0204898,-0.045942787,-0.24180953,0.9096656,1.2414871,0.041939132,0.21847282,1.0999457,0.6227559,-0.13333234,0.37541872,0.57424,0.14056759,-0.50335497,0.42623875,0.102207854,808.2784,791.75824,798.20514,816.337,662.01465,-0.07513427734375,0.015869140625,0.9962158203125,-3.42437744140625,21.36871337890625,5.480499267578125,1,1.0,1.0,1.0,1.0,10.00
2024-10-11 20:45:21.746,1.0627015,0.009904543,0.059178345,0.8454559,1.0204898,-0.045942787,-0.24180953,0.9096656,1.2414871,0.041939132,0.21847282,1.0999457,0.6227559,-0.13333234,0.37541872,0.57424,0.14056759,-0.50335497,0.42623875,0.102207854,806.6667,794.57874,808.68134,819.9634,730.9158,-0.07513427734375,0.015869140625,0.9962158203125,-3.42437744140625,21.36871337890625,5.480499267578125,1,1.0,1.0,1.0,1.0,10.00
2024-10-11 20:45:21.746,1.0627015,0.009904543,0.059178345,0.8454559,1.0204898,-0.045942787,-0.24180953,0.9096656,1.2414871,0.041939132,0.21847282,1.0999457,0.6227559,-0.13333234,0.37541872,0.57424,0.14056759,-0.50335497,0.42623875,0.102207854,801.4286,795.78754,803.8461,811.9048,566.52014,-0.07513427734375,0.015869140625,0.9962158203125,-3.42437744140625,21.36871337890625,5.480499267578125,1,1.0,1.0,1.0,1.0,10.00
2024-10-11 20:45:21.747,1.0627015,0.009904543,0.059178345,0.8454559,1.0204898,-0.045942787,-0.24180953,0.9096656,1.2414871,0.041939132,0.21847282,1.0999457,0.6227559,-0.13333234,0.37541872,0.57424,0.14056759,-0.50335497,0.42623875,0.102207854,809.89014,794.17584,792.96704,813.5165,668.86444,-0.07513427734375,0.015869140625,0.9962158203125,-3.42437744140625,21.36871337890625,5.480499267578125,1,1.0,1.0,1.0,1.0,10.00
2024-10-11 20:45:21.748,1.0627015,0.009904543,0.059178345,0.8454559,1.0204898,-0.045942787,-0.24180953,0.9096656,1.2414871,0.041939132,0.21847282,1.0999457,0.6227559,-0.13333234,0.37541872,0.57424,0.14056759,-0.50335497,0.42623875,0.102207854,816.7399,797.3993,794.9817,815.9341,880.40295,-0.07513427734375,0.015869140625,0.9962158203125,-3.42437744140625,21.36871337890625,5.480499267578125,1,1.0,1.0,1.0,1.0,10.00
2024-10-11 20:45:21.748,1.0627015,0.009904543,0.059178345,0.8454559,1.0204898,-0.045942787,-0.24180953,0.9096656,1.2414871,0.041939132,0.21847282,1.0999457,0.6227559,-0.13333234,0.37541872,0.57424,0.14056759,-0.50335497,0.42623875,0.102207854,808.2784,796.99634,799.011,801.4286,764.7619,-0.07513427734375,0.015869140625,0.9962158203125,-3.42437744140625,21.36871337890625,5.480499267578125,1,1.0,1.0,1.0,1.0,10.00
2024-10-11 20:45:21.749,1.0627015,0.009904543,0.059178345,0.8454559,1.0204898,-0.045942787,-0.24180953,0.9096656,1.2414871,0.041939132,0.21847282,1.0999457,0.6227559,-0.13333234,0.37541872,0.57424,0.14056759,-0.50335497,0.42623875,0.102207854,805.8608,798.60803,800.6227,797.8022,647.50916,-0.07513427734375,0.015869140625,0.9962158203125,-3.42437744140625,21.36871337890625,5.480499267578125,1,1.0,1.0,1.0,1.0,10.00
2024-10-11 20:45:21.750,1.0627015,0.009904543,0.059178345,0.8454559,1.0204898,-0.045942787,-0.24180953,0.9096656,1.2414871,0.041939132,0.21847282,1.0999457,0.6227559,-0.13333234,0.37541872,0.57424,0.14056759,-0.50335497,0.42623875,0.102207854,805.05493,799.81683,806.6667,805.8608,653.1502,-0.07513427734375,0.015869140625,0.9962158203125,-3.42437744140625,21.36871337890625,5.480499267578125,1,1.0,1.0,1.0,1.0,10.00
2024-10-11 20:45:21.750,1.0627015,0.009904543,0.059178345,0.8454559,1.0204898,-0.045942787,-0.24180953,0.9096656,1.2414871,0.041939132,0.21847282,1.0999457,0.6227559,-0.13333234,0.37541872,0.57424,0.14056759,-0.50335497,0.42623875,0.102207854,801.02563,799.011,807.8755,806.6667,708.7546,-0.07513427734375,0.015869140625,0.9962158203125,-3.42437744140625,21.36871337890625,5.480499267578125,1,1.0,1.0,1.0,1.0,10.00
2024-10-11 20:45:21.751,1.0627015,0.009904543,0.059178345,0.8454559,1.0204898,-0.045942787,-0.24180953,0.9096656,1.2414871,0.041939132,0.21847282,1.0999457,0.6227559,-0.13333234,0.37541872,0.57424,0.14056759,-0.50335497,0.42623875,0.102207854,805.05493,799.41394,805.4579,800.6227,747.4359,-0.07513427734375,0.015869140625,0.9962158203125,-3.42437744140625,21.36871337890625,5.480499267578125,1,1.0,1.0,1.0,1.0,10.00
2024-10-11 20:45:21.777,1.0627015,0.009904543,0.059178345,0.8454559,1.0204898,-0.045942787,-0.24180953,0.9096656,1.2414871,0.041939132,0.21847282,1.0999457,0.6227559,-0.13333234,0.37541872,0.57424,0.14056759,-0.50335497,0.42623875,0.102207854,799.41394,794.9817,801.02563,804.2491,605.2015,-0.08465576171875,0.01629638671875,0.99163818359375,-2.145843505859375,24.172515869140625,6.2506103515625,1,1.0,1.0,1.0,1.0,10.00
2024-10-11 20:45:21.778,1.0627015,0.009904543,0.059178345,0.8454559,1.0204898,-0.045942787,-0.24180953,0.9096656,1.2414871,0.041939132,0.21847282,1.0999457,0.6227559,-0.13333234,0.37541872,0.57424,0.14056759,-0.50335497,0.42623875,0.102207854,798.60803,797.3993,789.7436,809.0842,543.1502,-0.08465576171875,0.01629638671875,0.99163818359375,-2.145843505859375,24.172515869140625,6.2506103515625,1,1.0,1.0,1.0,1.0,10.00
2024-10-11 20:45:21.779,1.0627015,0.009904543,0.059178345,0.8454559,1.0204898,-0.045942787,-0.24180953,0.9096656,1.2414871,0.041939132,0.21847282,1.0999457,0.6227559,-0.13333234,0.37541872,0.57424,0.14056759,-0.50335497,0.42623875,0.102207854,807.47253,800.2198,786.9231,805.4579,657.5824,-0.08465576171875,0.01629638671875,0.99163818359375,-2.145843505859375,24.172515869140625,6.2506103515625,1,1.0,1.0,1.0,1.0,10.00
2024-10-11 20:45:21.779,1.0627015,0.009904543,0.059178345,0.8454559,1.0204898,-0.045942787,-0.24180953,0.9096656,1.2414871,0.041939132,0.21847282,1.0999457,0.6227559,-0.13333234,0.37541872,0.57424,0.14056759,-0.50335497,0.42623875,0.102207854,809.89014,797.3993,793.36993,805.05493,653.95605,-0.08465576171875,0.01629638671875,0.99163818359375,-2.145843505859375,24.172515869140625,6.2506103515625,1,1.0,1.0,1.0,1.0,10.00
2024-10-11 20:45:21.780,1.0627015,0.009904543,0.059178345,0.8454559,1.0204898,-0.045942787,-0.24180953,0.9096656,1.2414871,0.041939132,0.21847282,1.0999457,0.6227559,-0.13333234,0.37541872,0.57424,0.14056759,-0.50335497,0.42623875,0.102207854,807.47253,799.011,803.8461,815.9341,536.30035,-0.08465576171875,0.01629638671875,0.99163818359375,-2.145843505859375,24.172515869140625,6.2506103515625,1,1.0,1.0,1.0,1.0,10.00
2024-10-11 20:45:21.781,1.0627015,0.009904543,0.059178345,0.8454559,1.0204898,-0.045942787,-0.24180953,0.9096656,1.2414871,0.041939132,0.21847282,1.0999457,0.6227559,-0.13333234,0.37541872,0.57424,0.14056759,-0.50335497,0.42623875,0.102207854,807.0696,799.41394,801.8315,801.02563,785.31134,-0.08465576171875,0.01629638671875,0.99163818359375,-2.145843505859375,24.172515869140625,6.2506103515625,1,1.0,1.0,1.0,1.0,10.00
2024-10-11 20:45:21.782,1.0627015,0.009904543,0.059178345,0.8454559,1.0204898,-0.045942787,-0.24180953,0.9096656,1.2414871,0.041939132,0.21847282,1.0999457,0.6227559,-0.13333234,0.37541872,0.57424,0.14056759,-0.50335497,0.42623875,0.102207854,800.6227,794.17584,793.36993,775.64105,905.78754,-0.08465576171875,0.01629638671875,0.99163818359375,-2.145843505859375,24.172515869140625,6.2506103515625,1,1.0,1.0,1.0,1.0,10.00
2024-10-11 20:45:21.782,1.0627015,0.009904543,0.059178345,0.8454559,1.0204898,-0.045942787,-0.24180953,0.9096656,1.2414871,0.041939132,0.21847282,1.0999457,0.6227559,-0.13333234,0.37541872,0.57424,0.14056759,-0.50335497,0.42623875,0.102207854,796.99634,790.54944,793.7729,773.6264,695.8608,-0.08465576171875,0.01629638671875,0.99163818359375,-2.145843505859375,24.172515869140625,6.2506103515625,1,1.0,1.0,1.0,1.0,10.00
2024-10-11 20:45:21.783,1.0627015,0.009904543,0.059178345,0.8454559,1.0204898,-0.045942787,-0.24180953,0.9096656,1.2414871,0.041939132,0.21847282,1.0999457,0.6227559,-0.13333234,0.37541872,0.57424,0.14056759,-0.50335497,0.42623875,0.102207854,807.8755,796.1905,798.20514,788.93774,607.2161,-0.08465576171875,0.01629638671875,0.99163818359375,-2.145843505859375,24.172515869140625,6.2506103515625,1,1.0,1.0,1.0,1.0,10.00
2024-10-11 20:45:21.784,1.0627015,0.009904543,0.059178345,0.8454559,1.0204898,-0.045942787,-0.24180953,0.9096656,1.2414871,0.041939132,0.21847282,1.0999457,0.6227559,-0.13333234,0.37541872,0.57424,0.14056759,-0.50335497,0.42623875,0.102207854,805.8608,799.41394,793.36993,796.99634,696.26373,-0.08465576171875,0.01629638671875,0.99163818359375,-2.145843505859375,24.172515869140625,6.2506103515625,1,1.0,1.0,1.0,1.0,10.00
2024-10-11 20:45:21.784,1.0627015,0.009904543,0.059178345,0.8454559,1.0204898,-0.045942787,-0.24180953,0.9096656,1.2414871,0.041939132,0.21847282,1.0999457,0.6227559,-0.13333234,0.37541872,0.57424,0.14056759,-0.50335497,0.42623875,0.102207854,805.4579,798.20514,788.5348,804.2491,721.2454,-0.08465576171875,0.01629638671875,0.99163818359375,-2.145843505859375,24.172515869140625,6.2506103515625,1,1.0,1.0,1.0,1.0,10.00
2024-10-11 20:45:21.785,1.0627015,0.009904543,0.059178345,0.8454559,1.0204898,-0.045942787,-0.24180953,0.9096656,1.2414871,0.041939132,0.21847282,1.0999457,0.6227559,-0.13333234,0.37541872,0.57424,0.14056759,-0.50335497,0.42623875,0.102207854,819.9634,801.02563,804.65204,800.6227,740.18317,-0.08465576171875,0.01629638671875,0.99163818359375,-2.145843505859375,24.172515869140625,6.2506103515625,1,1.0,1.0,1.0,1.0,10.00
2024-10-11 20:45:21.813,1.0627015,0.009904543,0.059178345,0.8454559,1.0204898,-0.045942787,-0.24180953,0.9096656,1.2414871,0.041939132,0.21847282,1.0999457,0.6227559,-0.13333234,0.37541872,0.57424,0.14056759,-0.50335497,0.42623875,0.102207854,816.7399,801.4286,810.696,794.9817,700.696,-0.12286376953125,0.018310546875,0.994140625,-1.7047119140625,27.63427734375,8.755340576171875,1,1.0,1.0,1.0,1.0,10.00
2024-10-11 20:45:21.814,1.0963581,0.05006072,0.0905229,0.87758607,1.0528095,-0.011349061,-0.191338,0.9470838,1.2414871,0.026978249,0.21877949,1.0999457,0.6292925,-0.1365575,0.3522024,0.6017787,0.13786978,-0.4908033,0.42991117,0.11105805,814.3223,800.6227,813.5165,810.696,768.7912,-0.12286376953125,0.018310546875,0.994140625,-1.7047119140625,27.63427734375,8.755340576171875,1,1.0,1.0,1.0,1.0,10.00
2024-10-11 20:45:21.820,1.0963581,0.05006072,0.0905229,0.87758607,1.0528095,-0.011349061,-0.191338,0.9470838,1.2414871,0.026978249,0.21877949,1.0999457,0.6292925,-0.1365575,0.3522024,0.6017787,0.13786978,-0.4908033,0.42991117,0.11105805,807.0696,800.6227,815.12823,812.71063,779.67035,-0.12286376953125,0.018310546875,0.994140625,-1.7047119140625,27.63427734375,8.755340576171875,1,1.0,1.0,1.0,1.0,10.00
2024-10-11 20:45:21.821,1.0963581,0.05006072,0.0905229,0.87758607,1.0528095,-0.011349061,-0.191338,0.9470838,1.2414871,0.026978249,0.21877949,1.0999457,0.6292925,-0.1365575,0.3522024,0.6017787,0.13786978,-0.4908033,0.42991117,0.11105805,797.8022,803.0403,802.6374,807.8755,565.31134,-0.12286376953125,0.018310546875,0.994140625,-1.7047119140625,27.63427734375,8.755340576171875,1,1.0,1.0,1.0,1.0,10.00
2024-10-11 20:45:21.822,1.0963581,0.05006072,0.0905229,0.87758607,1.0528095,-0.011349061,-0.191338,0.9470838,1.2414871,0.026978249,0.21877949,1.0999457,0.6292925,-0.1365575,0.3522024,0.6017787,0.13786978,-0.4908033,0.42991117,0.11105805,796.1905,802.23444,797.8022,796.1905,595.5311,-0.12286376953125,0.018310546875,0.994140625,-1.7047119140625,27.63427734375,8.755340576171875,1,1.0,1.0,1.0,1.0,10.00
2024-10-11 20:45:21.822,1.0963581,0.05006072,0.0905229,0.87758607,1.0528095,-0.011349061,-0.191338,0.9470838,1.2414871,0.026978249,0.21877949,1.0999457,0.6292925,-0.1365575,0.3522024,0.6017787,0.13786978,-0.4908033,0.42991117,0.11105805,797.3993,799.81683,792.96704,792.96704,1028.2784,-0.12286376953125,0.018310546875,0.994140625,-1.7047119140625,27.63427734375,8.755340576171875,1,1.0,1.0,1.0,1.0,10.00
2024-10-11 20:45:21.823,1.0963581,0.05006072,0.0905229,0.87758607,1.0528095,-0.011349061,-0.191338,0.9470838,1.2414871,0.026978249,0.21877949,1.0999457,0.6292925,-0.1365575,0.3522024,0.6017787,0.13786978,-0.4908033,0.42991117,0.11105805,799.81683,798.20514,786.52014,801.02563,1060.1099,-0.12286376953125,0.018310546875,0.994140625,-1.7047119140625,27.63427734375,8.755340576171875,1,1.0,1.0,1.0,1.0,10.00
2024-10-11 20:45:21.824,1.0963581,0.05006072,0.0905229,0.87758607,1.0528095,-0.011349061,-0.191338,0.9470838,1.2414871,0.026978249,0.21877949,1.0999457,0.6292925,-0.1365575,0.3522024,0.6017787,0.13786978,-0.4908033,0.42991117,0.11105805,800.6227,797.8022,797.8022,794.57874,570.54944,-0.12286376953125,0.018310546875,0.994140625,-1.7047119140625,27.63427734375,8.755340576171875,1,1.0,1.0,1.0,1.0,10.00
2024-10-11 20:45:21.824,1.0963581,0.05006072,0.0905229,0.87758607,1.0528095,-0.011349061,-0.191338,0.9470838,1.2414871,0.026978249,0.21877949,1.0999457,0.6292925,-0.1365575,0.3522024,0.6017787,0.13786978,-0.4908033,0.42991117,0.11105805,796.99634,801.4286,797.8022,792.1612,473.44324,-0.12286376953125,0.018310546875,0.994140625,-1.7047119140625,27.63427734375,8.755340576171875,1,1.0,1.0,1.0,1.0,10.00
2024-10-11 20:45:21.825,1.0963581,0.05006072,0.0905229,0.87758607,1.0528095,-0.011349061,-0.191338,0.9470838,1.2414871,0.026978249,0.21877949,1.0999457,0.6292925,-0.1365575,0.3522024,0.6017787,0.13786978,-0.4908033,0.42991117,0.11105805,799.41394,804.65204,780.87915,797.3993,722.8571,-0.12286376953125,0.018310546875,0.994140625,-1.7047119140625,27.63427734375,8.755340576171875,1,1.0,1.0,1.0,1.0,10.00
2024-10-11 20:45:21.826,1.0963581,0.05006072,0.0905229,0.87758607,1.0528095,-0.011349061,-0.191338,0.9470838,1.2414871,0.026978249,0.21877949,1.0999457,0.6292925,-0.1365575,0.3522024,0.6017787,0.13786978,-0.4908033,0.42991117,0.11105805,800.6227,799.41394,798.60803,809.89014,1130.6227,-0.12286376953125,0.018310546875,0.994140625,-1.7047119140625,27.63427734375,8.755340576171875,1,1.0,1.0,1.0,1.0,10.00
2024-10-11 20:45:21.826,1.0963581,0.05006072,0.0905229,0.87758607,1.0528095,-0.011349061,-0.191338,0.9470838,1.2414871,0.026978249,0.21877949,1.0999457,0.6292925,-0.1365575,0.3522024,0.6017787,0.13786978,-0.4908033,0.42991117,0.11105805,795.38464,795.78754,811.0989,815.5311,1073.0037,-0.12286376953125,0.018310546875,0.994140625,-1.7047119140625,27.63427734375,8.755340576171875,1,1.0,1.0,1.0,1.0,10.00
2024-10-11 20:45:21.887,1.0963581,0.05006072,0.0905229,0.87758607,1.0528095,-0.011349061,-0.191338,0.9470838,1.2414871,0.026978249,0.21877949,1.0999457,0.6292925,-0.1365575,0.3522024,0.6017787,0.13786978,-0.4908033,0.42991117,0.11105805,794.9817,800.2198,802.6374,805.05493,698.68134,-0.171875,0.011962890625,0.99359130859375,-2.041168212890625,25.48095703125,9.473114013671875,1,1.0,1.0,1.0,1.0,10.00
2024-10-11 20:45:21.888,1.0963581,0.05006072,0.0905229,0.87758607,1.0528095,-0.011349061,-0.191338,0.9470838,1.2414871,0.026978249,0.21877949,1.0999457,0.6292925,-0.1365575,0.3522024,0.6017787,0.13786978,-0.4908033,0.42991117,0.11105805,796.99634,801.4286,798.20514,796.1905,598.7546,-0.171875,0.011962890625,0.99359130859375,-2.041168212890625,25.48095703125,9.473114013671875,1,1.0,1.0,1.0,1.0,10.00
2024-10-11 20:45:21.889,1.0963581,0.05006072,0.0905229,0.87758607,1.0528095,-0.011349061,-0.191338,0.9470838,1.2414871,0.026978249,0.21877949,1.0999457,0.6292925,-0.1365575,0.3522024,0.6017787,0.13786978,-0.4908033,0.42991117,0.11105805,799.011,799.011,796.99634,796.5934,694.65204,-0.171875,0.011962890625,0.99359130859375,-2.041168212890625,25.48095703125,9.473114013671875,1,1.0,1.0,1.0,1.0,10.00
2024-10-11 20:45:21.889,1.0963581,0.05006072,0.0905229,0.87758607,1.0528095,-0.011349061,-0.191338,0.9470838,1.2414871,0.026978249,0.21877949,1.0999457,0.6292925,-0.1365575,0.3522024,0.6017787,0.13786978,-0.4908033,0.42991117,0.11105805,805.4579,801.02563,802.23444,799.41394,583.44324,-0.171875,0.011962890625,0.99359130859375,-2.041168212890625,25.48095703125,9.473114013671875,1,1.0,1.0,1.0,1.0,10.00
2024-10-11 20:45:21.890,1.0963581,0.05006072,0.0905229,0.87758607,1.0528095,-0.011349061,-0.191338,0.9470838,1.2414871,0.026978249,0.21877949,1.0999457,0.6292925,-0.1365575,0.3522024,0.6017787,0.13786978,-0.4908033,0.42991117,0.11105805,803.44324,799.011,790.14655,804.2491,570.9524,-0.171875,0.011962890625,0.99359130859375,-2.041168212890625,25.48095703125,9.473114013671875,1,1.0,1.0,1.0,1.0,10.00
2024-10-11 20:45:21.890,1.0963581,0.05006072,0.0905229,0.87758607,1.0528095,-0.011349061,-0.191338,0.9470838,1.2414871,0.026978249,0.21877949,1.0999457,0.6292925,-0.1365575,0.3522024,0.6017787,0.13786978,-0.4908033,0.42991117,0.11105805,800.2198,798.20514,780.07324,806.6667,786.1172,-0.171875,0.011962890625,0.99359130859375,-2.041168212890625,25.48095703125,9.473114013671875,1,1.0,1.0,1.0,1.0,10.00
2024-10-11 20:45:21.891,1.0963581,0.05006072,0.0905229,0.87758607,1.0528095,-0.011349061,-0.191338,0.9470838,1.2414871,0.026978249,0.21877949,1.0999457,0.6292925,-0.1365575,0.3522024,0.6017787,0.13786978,-0.4908033,0.42991117,0.11105805,802.6374,799.81683,802.6374,796.5934,745.82416,-0.171875,0.011962890625,0.99359130859375,-2.041168212890625,25.48095703125,9.473114013671875,1,1.0,1.0,1.0,1.0,10.00
2024-10-11 20:45:21.891,1.0963581,0.05006072,0.0905229,0.87758607,1.0528095,-0.011349061,-0.191338,0.9470838,1.2414871,0.026978249,0.21877949,1.0999457,0.6292925,-0.1365575,0.3522024,0.6017787,0.13786978,-0.4908033,0.42991117,0.11105805,796.99634,798.60803,805.05493,791.3553,550.40295,-0.171875,0.011962890625,0.99359130859375,-2.041168212890625,25.48095703125,9.473114013671875,1,1.0,1.0,1.0,1.0,10.00
2024-10-11 20:45:21.892,1.0963581,0.05006072,0.0905229,0.87758607,1.0528095,-0.011349061,-0.191338,0.9470838,1.2414871,0.026978249,0.21877949,1.0999457,0.6292925,-0.1365575,0.3522024,0.6017787,0.13786978,-0.4908033,0.42991117,0.11105805,791.75824,799.011,801.8315,803.0403,701.0989,-0.171875,0.011962890625,0.99359130859375,-2.041168212890625,25.48095703125,9.473114013671875,1,1.0,1.0,1.0,1.0,10.00
2024-10-11 20:45:21.892,1.0963581,0.05006072,0.0905229,0.87758607,1.0528095,-0.011349061,-0.191338,0.9470838,1.2414871,0.026978249,0.21877949,1.0999457,0.6292925,-0.1365575,0.3522024,0.6017787,0.13786978,-0.4908033,0.42991117,0.11105805,789.7436,799.011,802.6374,797.3993,847.3626,-0.171875,0.011962890625,0.99359130859375,-2.041168212890625,25.48095703125,9.473114013671875,1,1.0,1.0,1.0,1.0,10.00
2024-10-11 20:45:21.893,1.0963581,0.05006072,0.0905229,0.87758607,1.0528095,-0.011349061,-0.191338,0.9470838,1.2414871,0.026978249,0.21877949,1.0999457,0.6292925,-0.1365575,0.3522024,0.6017787,0.13786978,-0.4908033,0.42991117,0.11105805,785.7143,796.1905,805.4579,782.8938,691.4286,-0.171875,0.011962890625,0.99359130859375,-2.041168212890625,25.48095703125,9.473114013671875,1,1.0,1.0,1.0,1.0,10.00
2024-10-11 20:45:21.893,1.0963581,0.05006072,0.0905229,0.87758607,1.0528095,-0.011349061,-0.191338,0.9470838,1.2414871,0.026978249,0.21877949,1.0999457,0.6292925,-0.1365575,0.3522024,0.6017787,0.13786978,-0.4908033,0.42991117,0.11105805,790.54944,795.38464,805.4579,784.10254,616.08057,-0.171875,0.011962890625,0.99359130859375,-2.041168212890625,25.48095703125,9.473114013671875,1,1.0,1.0,1.0,1.0,10.00
2024-10-11 20:45:21.918,1.0963581,0.05006072,0.0905229,0.87758607,1.0528095,-0.011349061,-0.191338,0.9470838,1.2414871,0.026978249,0.21877949,1.0999457,0.6292925,-0.1365575,0.3522024,0.6017787,0.13786978,-0.4908033,0.42991117,0.11105805,798.60803,795.38464,788.93774,794.17584,774.43225,-0.171875,0.011962890625,0.99359130859375,-2.041168212890625,25.48095703125,9.473114013671875,1,1.0,1.0,1.0,1.0,10.00
2024-10-11 20:45:21.919,1.0963581,0.05006072,0.0905229,0.87758607,1.0528095,-0.011349061,-0.191338,0.9470838,1.2414871,0.026978249,0.21877949,1.0999457,0.6292925,-0.1365575,0.3522024,0.6017787,0.13786978,-0.4908033,0.42991117,0.11105805,798.60803,798.20514,783.69965,806.26373,891.685,-0.171875,0.011962890625,0.99359130859375,-2.041168212890625,25.48095703125,9.473114013671875,1,1.0,1.0,1.0,1.0,10.00
2024-10-11 20:45:21.919,1.0963581,0.05006072,0.0905229,0.87758607,1.0528095,-0.011349061,-0.191338,0.9470838,1.2414871,0.026978249,0.21877949,1.0999457,0.6292925,-0.1365575,0.3522024,0.6017787,0.13786978,-0.4908033,0.42991117,0.11105805,788.93774,797.3993,805.8608,796.5934,660.0,-0.171875,0.011962890625,0.99359130859375,-2.041168212890625,25.48095703125,9.473114013671875,1,1.0,1.0,1.0,1.0,10.00
2024-10-11 20:45:21.920,1.133442,0.081603326,0.10106761,0.9155788,1.0879338,-0.005934603,-0.14914188,0.9886819,1.2414871,-9.112345E-4,0.2207345,1.0999457,0.6395736,-0.1383161,0.3271279,0.6335352,0.1381225,-0.48484936,0.4305881,0.11381419,788.1319,793.7729,810.293,787.326,664.0293,-0.171875,0.011962890625,0.99359130859375,-2.041168212890625,25.48095703125,9.473114013671875,1,1.0,1.0,1.0,1.0,10.00
2024-10-11 20:45:21.924,1.133442,0.081603326,0.10106761,0.9155788,1.0879338,-0.005934603,-0.14914188,0.9886819,1.2414871,-9.112345E-4,0.2207345,1.0999457,0.6395736,-0.1383161,0.3271279,0.6335352,0.1381225,-0.48484936,0.4305881,0.11381419,788.1319,794.17584,797.8022,792.5641,830.84247,-0.171875,0.011962890625,0.99359130859375,-2.041168212890625,25.48095703125,9.473114013671875,1,1.0,1.0,1.0,1.0,10.00
2024-10-11 20:45:21.925,1.133442,0.081603326,0.10106761,0.9155788,1.0879338,-0.005934603,-0.14914188,0.9886819,1.2414871,-9.112345E-4,0.2207345,1.0999457,0.6395736,-0.1383161,0.3271279,0.6335352,0.1381225,-0.48484936,0.4305881,0.11381419,785.31134,794.57874,802.6374,786.9231,888.46155,-0.171875,0.011962890625,0.99359130859375,-2.041168212890625,25.48095703125,9.473114013671875,1,1.0,1.0,1.0,1.0,10.00
2024-10-11 20:45:21.926,1.133442,0.081603326,0.10106761,0.9155788,1.0879338,-0.005934603,-0.14914188,0.9886819,1.2414871,-9.112345E-4,0.2207345,1.0999457,0.6395736,-0.1383161,0.3271279,0.6335352,0.1381225,-0.48484936,0.4305881,0.11381419,782.0879,792.5641,808.2784,780.07324,866.7033,-0.171875,0.011962890625,0.99359130859375,-2.041168212890625,25.48095703125,9.473114013671875,1,1.0,1.0,1.0,1.0,10.00
2024-10-11 20:45:21.926,1.133442,0.081603326,0.10106761,0.9155788,1.0879338,-0.005934603,-0.14914188,0.9886819,1.2414871,-9.112345E-4,0.2207345,1.0999457,0.6395736,-0.1383161,0.3271279,0.6335352,0.1381225,-0.48484936,0.4305881,0.11381419,785.31134,794.57874,801.8315,779.67035,846.9597,-0.171875,0.011962890625,0.99359130859375,-2.041168212890625,25.48095703125,9.473114013671875,1,1.0,1.0,1.0,1.0,10.00
2024-10-11 20:45:21.927,1.133442,0.081603326,0.10106761,0.9155788,1.0879338,-0.005934603,-0.14914188,0.9886819,1.2414871,-9.112345E-4,0.2207345,1.0999457,0.6395736,-0.1383161,0.3271279,0.6335352,0.1381225,-0.48484936,0.4305881,0.11381419,788.5348,794.57874,794.57874,779.67035,834.4689,-0.171875,0.011962890625,0.99359130859375,-2.041168212890625,25.48095703125,9.473114013671875,1,1.0,1.0,1.0,1.0,10.00
2024-10-11 20:45:21.927,1.133442,0.081603326,0.10106761,0.9155788,1.0879338,-0.005934603,-0.14914188,0.9886819,1.2414871,-9.112345E-4,0.2207345,1.0999457,0.6395736,-0.1383161,0.3271279,0.6335352,0.1381225,-0.48484936,0.4305881,0.11381419,778.86444,791.75824,785.31134,779.67035,805.8608,-0.171875,0.011962890625,0.99359130859375,-2.041168212890625,25.48095703125,9.473114013671875,1,1.0,1.0,1.0,1.0,10.00
2024-10-11 20:45:21.928,1.133442,0.081603326,0.10106761,0.9155788,1.0879338,-0.005934603,-0.14914188,0.9886819,1.2414871,-9.112345E-4,0.2207345,1.0999457,0.6395736,-0.1383161,0.3271279,0.6335352,0.1381225,-0.48484936,0.4305881,0.11381419,778.86444,793.36993,799.011,784.5055,725.2747,-0.171875,0.011962890625,0.99359130859375,-2.041168212890625,25.48095703125,9.473114013671875,1,1.0,1.0,1.0,1.0,10.00
2024-10-11 20:45:21.928,1.133442,0.081603326,0.10106761,0.9155788,1.0879338,-0.005934603,-0.14914188,0.9886819,1.2414871,-9.112345E-4,0.2207345,1.0999457,0.6395736,-0.1383161,0.3271279,0.6335352,0.1381225,-0.48484936,0.4305881,0.11381419,788.5348,799.011,806.26373,782.8938,682.1612,-0.171875,0.011962890625,0.99359130859375,-2.041168212890625,25.48095703125,9.473114013671875,1,1.0,1.0,1.0,1.0,10.00
2024-10-11 20:45:21.955,1.133442,0.081603326,0.10106761,0.9155788,1.0879338,-0.005934603,-0.14914188,0.9886819,1.2414871,-9.112345E-4,0.2207345,1.0999457,0.6395736,-0.1383161,0.3271279,0.6335352,0.1381225,-0.48484936,0.4305881,0.11381419,790.14655,799.41394,789.34064,778.0586,703.5165,-0.2003173828125,0.009033203125,0.98486328125,-1.89910888671875,21.69769287109375,7.177734375,1,1.0,1.0,1.0,1.0,10.00
2024-10-11 20:45:21.956,1.133442,0.081603326,0.10106761,0.9155788,1.0879338,-0.005934603,-0.14914188,0.9886819,1.2414871,-9.112345E-4,0.2207345,1.0999457,0.6395736,-0.1383161,0.3271279,0.6335352,0.1381225,-0.48484936,0.4305881,0.11381419,788.1319,797.3993,776.4469,779.2674,682.5641,-0.2003173828125,0.009033203125,0.98486328125,-1.89910888671875,21.69769287109375,7.177734375,1,1.0,1.0,1.0,1.0,10.00
2024-10-11 20:45:21.957,1.133442,0.081603326,0.10106761,0.9155788,1.0879338,-0.005934603,-0.14914188,0.9886819,1.2414871,-9.112345E-4,0.2207345,1.0999457,0.6395736,-0.1383161,0.3271279,0.6335352,0.1381225,-0.48484936,0.4305881,0.11381419,794.57874,798.20514,789.7436,794.17584,554.0293,-0.2003173828125,0.009033203125,0.98486328125,-1.89910888671875,21.69769287109375,7.177734375,1,1.0,1.0,1.0,1.0,10.00
2024-10-11 20:45:21.958,1.133442,0.081603326,0.10106761,0.9155788,1.0879338,-0.005934603,-0.14914188,0.9886819,1.2414871,-9.112345E-4,0.2207345,1.0999457,0.6395736,-0.1383161,0.3271279,0.6335352,0.1381225,-0.48484936,0.4305881,0.11381419,811.50183,799.81683,810.293,818.3516,589.0842,-0.2003173828125,0.009033203125,0.98486328125,-1.89910888671875,21.69769287109375,7.177734375,1,1.0,1.0,1.0,1.0,10.00
2024-10-11 20:45:21.959,1.133442,0.081603326,0.10106761,0.9155788,1.0879338,-0.005934603,-0.14914188,0.9886819,1.2414871,-9.112345E-4,0.2207345,1.0999457,0.6395736,-0.1383161,0.3271279,0.6335352,0.1381225,-0.48484936,0.4305881,0.11381419,793.7729,805.8608,805.4579,814.3223,786.52014,-0.2003173828125,0.009033203125,0.98486328125,-1.89910888671875,21.69769287109375,7.177734375,1,1.0,1.0,1.0,1.0,10.00
2024-10-11 20:45:21.959,1.133442,0.081603326,0.10106761,0.9155788,1.0879338,-0.005934603,-0.14914188,0.9886819,1.2414871,-9.112345E-4,0.2207345,1.0999457,0.6395736,-0.1383161,0.3271279,0.6335352,0.1381225,-0.48484936,0.4305881,0.11381419,788.1319,805.8608,810.293,791.3553,842.52747,-0.2003173828125,0.009033203125,0.98486328125,-1.89910888671875,21.69769287109375,7.177734375,1,1.0,1.0,1.0,1.0,10.00
2024-10-11 20:45:21.960,1.133442,0.081603326,0.10106761,0.9155788,1.0879338,-0.005934603,-0.14914188,0.9886819,1.2414871,-9.112345E-4,0.2207345,1.0999457,0.6395736,-0.1383161,0.3271279,0.6335352,0.1381225,-0.48484936,0.4305881,0.11381419,794.9817,801.8315,815.9341,776.8498,756.30035,-0.2003173828125,0.009033203125,0.98486328125,-1.89910888671875,21.69769287109375,7.177734375,1,1.0,1.0,1.0,1.0,10.00
2024-10-11 20:45:21.961,1.133442,0.081603326,0.10106761,0.9155788,1.0879338,-0.005934603,-0.14914188,0.9886819,1.2414871,-9.112345E-4,0.2207345,1.0999457,0.6395736,-0.1383161,0.3271279,0.6335352,0.1381225,-0.48484936,0.4305881,0.11381419,788.93774,799.81683,805.05493,782.0879,701.0989,-0.2003173828125,0.009033203125,0.98486328125,-1.89910888671875,21.69769287109375,7.177734375,1,1.0,1.0,1.0,1.0,10.00
2024-10-11 20:45:21.962,1.133442,0.081603326,0.10106761,0.9155788,1.0879338,-0.005934603,-0.14914188,0.9886819,1.2414871,-9.112345E-4,0.2207345,1.0999457,0.6395736,-0.1383161,0.3271279,0.6335352,0.1381225,-0.48484936,0.4305881,0.11381419,788.93774,796.1905,807.8755,788.93774,752.27106,-0.2003173828125,0.009033203125,0.98486328125,-1.89910888671875,21.69769287109375,7.177734375,1,1.0,1.0,1.0,1.0,10.00
2024-10-11 20:45:21.962,1.133442,0.081603326,0.10106761,0.9155788,1.0879338,-0.005934603,-0.14914188,0.9886819,1.2414871,-9.112345E-4,0.2207345,1.0999457,0.6395736,-0.1383161,0.3271279,0.6335352,0.1381225,-0.48484936,0.4305881,0.11381419,780.4762,799.011,803.0403,784.10254,578.60803,-0.2003173828125,0.009033203125,0.98486328125,-1.89910888671875,21.69769287109375,7.177734375,1,1.0,1.0,1.0,1.0,10.00
2024-10-11 20:45:21.963,1.133442,0.081603326,0.10106761,0.9155788,1.0879338,-0.005934603,-0.14914188,0.9886819,1.2414871,-9.112345E-4,0.2207345,1.0999457,0.6395736,-0.1383161,0.3271279,0.6335352,0.1381225,-0.48484936,0.4305881,0.11381419,779.2674,796.99634,797.3993,783.69965,455.31134,-0.2003173828125,0.009033203125,0.98486328125,-1.89910888671875,21.69769287109375,7.177734375,1,1.0,1.0,1.0,1.0,10.00
2024-10-11 20:45:21.964,1.133442,0.081603326,0.10106761,0.9155788,1.0879338,-0.005934603,-0.14914188,0.9886819,1.2414871,-9.112345E-4,0.2207345,1.0999457,0.6395736,-0.1383161,0.3271279,0.6335352,0.1381225,-0.48484936,0.4305881,0.11381419,783.69965,795.38464,791.3553,783.2967,685.78754,-0.2003173828125,0.009033203125,0.98486328125,-1.89910888671875,21.69769287109375,7.177734375,1,1.0,1.0,1.0,1.0,10.00
2024-10-11 20:45:22.025,1.133442,0.081603326,0.10106761,0.9155788,1.0879338,-0.005934603,-0.14914188,0.9886819,1.2414871,-9.112345E-4,0.2207345,1.0999457,0.6395736,-0.1383161,0.3271279,0.6335352,0.1381225,-0.48484936,0.4305881,0.11381419,785.31134,793.36993,792.1612,778.0586,750.65936,-0.23370361328125,0.01153564453125,0.97796630859375,-0.2691650390625,18.52752685546875,4.837493896484375,1,1.0,1.0,1.0,1.0,10.00
2024-10-11 20:45:22.026,1.133442,0.081603326,0.10106761,0.9155788,1.0879338,-0.005934603,-0.14914188,0.9886819,1.2414871,-9.112345E-4,0.2207345,1.0999457,0.6395736,-0.1383161,0.3271279,0.6335352,0.1381225,-0.48484936,0.4305881,0.11381419,784.5055,794.17584,781.28204,781.685,525.0183,-0.23370361328125,0.01153564453125,0.97796630859375,-0.2691650390625,18.52752685546875,4.837493896484375,1,1.0,1.0,1.0,1.0,10.00
2024-10-11 20:45:22.026,1.133442,0.081603326,0.10106761,0.9155788,1.0879338,-0.005934603,-0.14914188,0.9886819,1.2414871,-9.112345E-4,0.2207345,1.0999457,0.6395736,-0.1383161,0.3271279,0.6335352,0.1381225,-0.48484936,0.4305881,0.11381419,791.75824,799.011,773.22345,783.69965,523.8095,-0.23370361328125,0.01153564453125,0.97796630859375,-0.2691650390625,18.52752685546875,4.837493896484375,1,1.0,1.0,1.0,1.0,10.00
2024-10-11 20:45:22.027,1.133442,0.081603326,0.10106761,0.9155788,1.0879338,-0.005934603,-0.14914188,0.9886819,1.2414871,-9.112345E-4,0.2207345,1.0999457,0.6395736,-0.1383161,0.3271279,0.6335352,0.1381225,-0.48484936,0.4305881,0.11381419,791.75824,799.011,792.5641,788.5348,767.98535,-0.23370361328125,0.01153564453125,0.97796630859375,-0.2691650390625,18.52752685546875,4.837493896484375,1,1.0,1.0,1.0,1.0,10.00
2024-10-11 20:45:22.028,1.133442,0.081603326,0.10106761,0.9155788,1.0879338,-0.005934603,-0.14914188,0.9886819,1.2414871,-9.112345E-4,0.2207345,1.0999457,0.6395736,-0.1383161,0.3271279,0.6335352,0.1381225,-0.48484936,0.4305881,0.11381419,790.54944,799.81683,796.1905,794.57874,1007.326,-0.23370361328125,0.01153564453125,0.97796630859375,-0.2691650390625,18.52752685546875,4.837493896484375,1,1.0,1.0,1.0,1.0,10.00
2024-10-11 20:45:22.029,1.1742681,0.09038334,0.0899639,0.96186376,1.1258261,-0.02917719,-0.117531165,1.0364962,1.2414871,-0.036582854,0.20810454,1.0999457,0.6527789,-0.14083433,0.30829227,0.66864675,0.14262559,-0.48333064,0.42988116,0.108577624,792.5641,801.02563,799.81683,786.1172,833.2601,-0.23370361328125,0.01153564453125,0.97796630859375,-0.2691650390625,18.52752685546875,4.837493896484375,1,1.0,1.0,1.0,1.0,10.00
2024-10-11 20:45:22.035,1.1742681,0.09038334,0.0899639,0.96186376,1.1258261,-0.02917719,-0.117531165,1.0364962,1.2414871,-0.036582854,0.20810454,1.0999457,0.6527789,-0.14083433,0.30829227,0.66864675,0.14262559,-0.48333064,0.42988116,0.108577624,785.7143,796.1905,809.4872,786.52014,703.5165,-0.23370361328125,0.01153564453125,0.97796630859375,-0.2691650390625,18.52752685546875,4.837493896484375,1,1.0,1.0,1.0,1.0,10.00
2024-10-11 20:45:22.035,1.1742681,0.09038334,0.0899639,0.96186376,1.1258261,-0.02917719,-0.117531165,1.0364962,1.2414871,-0.036582854,0.20810454,1.0999457,0.6527789,-0.14083433,0.30829227,0.66864675,0.14262559,-0.48333064,0.42988116,0.108577624,780.87915,792.5641,799.011,792.5641,865.4945,-0.23370361328125,0.01153564453125,0.97796630859375,-0.2691650390625,18.52752685546875,4.837493896484375,1,1.0,1.0,1.0,1.0,10.00
2024-10-11 20:45:22.036,1.1742681,0.09038334,0.0899639,0.96186376,1.1258261,-0.02917719,-0.117531165,1.0364962,1.2414871,-0.036582854,0.20810454,1.0999457,0.6527789,-0.14083433,0.30829227,0.66864675,0.14262559,-0.48333064,0.42988116,0.108577624,782.0879,796.1905,799.41394,797.3993,950.10986,-0.23370361328125,0.01153564453125,0.97796630859375,-0.2691650390625,18.52752685546875,4.837493896484375,1,1.0,1.0,1.0,1.0,10.00
2024-10-11 20:45:22.037,1.1742681,0.09038334,0.0899639,0.96186376,1.1258261,-0.02917719,-0.117531165,1.0364962,1.2414871,-0.036582854,0.20810454,1.0999457,0.6527789,-0.14083433,0.30829227,0.66864675,0.14262559,-0.48333064,0.42988116,0.108577624,783.69965,804.65204,799.81683,794.17584,678.1319,-0.23370361328125,0.01153564453125,0.97796630859375,-0.2691650390625,18.52752685546875,4.837493896484375,1,1.0,1.0,1.0,1.0,10.00
2024-10-11 20:45:22.038,1.1742681,0.09038334,0.0899639,0.96186376,1.1258261,-0.02917719,-0.117531165,1.0364962,1.2414871,-0.036582854,0.20810454,1.0999457,0.6527789,-0.14083433,0.30829227,0.66864675,0.14262559,-0.48333064,0.42988116,0.108577624,790.54944,806.6667,791.3553,787.72894,687.3993,-0.23370361328125,0.01153564453125,0.97796630859375,-0.2691650390625,18.52752685546875,4.837493896484375,1,1.0,1.0,1.0,1.0,10.00
2024-10-11 20:45:22.038,1.1742681,0.09038334,0.0899639,0.96186376,1.1258261,-0.02917719,-0.117531165,1.0364962,1.2414871,-0.036582854,0.20810454,1.0999457,0.6527789,-0.14083433,0.30829227,0.66864675,0.14262559,-0.48333064,0.42988116,0.108577624,794.17584,803.44324,805.8608,790.14655,940.0366,-0.23370361328125,0.01153564453125,0.97796630859375,-0.2691650390625,18.52752685546875,4.837493896484375,1,1.0,1.0,1.0,1.0,10.00
2024-10-11 20:45:22.039,1.1742681,0.09038334,0.0899639,0.96186376,1.1258261,-0.02917719,-0.117531165,1.0364962,1.2414871,-0.036582854,0.20810454,1.0999457,0.6527789,-0.14083433,0.30829227,0.66864675,0.14262559,-0.48333064,0.42988116,0.108577624,791.75824,806.26373,813.91943,798.60803,788.1319,-0.24560546875,0.01171875,0.9808349609375,1.00189208984375,14.35546875,2.67669677734375,1,1.0,1.0,1.0,1.0,10.00
2024-10-11 20:45:22.040,1.1742681,0.09038334,0.0899639,0.96186376,1.1258261,-0.02917719,-0.117531165,1.0364962,1.2414871,-0.036582854,0.20810454,1.0999457,0.6527789,-0.14083433,0.30829227,0.66864675,0.14262559,-0.48333064,0.42988116,0.108577624,795.38464,807.8755,787.72894,794.17584,521.39197,-0.24560546875,0.01171875,0.9808349609375,1.00189208984375,14.35546875,2.67669677734375,1,1.0,1.0,1.0,1.0,10.00
2024-10-11 20:45:22.041,1.1742681,0.09038334,0.0899639,0.96186376,1.1258261,-0.02917719,-0.117531165,1.0364962,1.2414871,-0.036582854,0.20810454,1.0999457,0.6527789,-0.14083433,0.30829227,0.66864675,0.14262559,-0.48333064,0.42988116,0.108577624,799.011,803.44324,792.1612,786.1172,586.26373,-0.24560546875,0.01171875,0.9808349609375,1.00189208984375,14.35546875,2.67669677734375,1,1.0,1.0,1.0,1.0,10.00
2024-10-11 20:45:22.042,1.1742681,0.09038334,0.0899639,0.96186376,1.1258261,-0.02917719,-0.117531165,1.0364962,1.2414871,-0.036582854,0.20810454,1.0999457,0.6527789,-0.14083433,0.30829227,0.66864675,0.14262559,-0.48333064,0.42988116,0.108577624,801.02563,801.02563,819.5604,788.5348,814.7253,-0.24560546875,0.01171875,0.9808349609375,1.00189208984375,14.35546875,2.67669677734375,1,1.0,1.0,1.0,1.0,10.00
2024-10-11 20:45:22.042,1.1742681,0.09038334,0.0899639,0.96186376,1.1258261,-0.02917719,-0.117531165,1.0364962,1.2414871,-0.036582854,0.20810454,1.0999457,0.6527789,-0.14083433,0.30829227,0.66864675,0.14262559,-0.48333064,0.42988116,0.108577624,801.4286,802.6374,816.337,786.1172,816.337,-0.24560546875,0.01171875,0.9808349609375,1.00189208984375,14.35546875,2.67669677734375,1,1.0,1.0,1.0,1.0,10.00
2024-10-11 20:45:22.043,1.1742681,0.09038334,0.0899639,0.96186376,1.1258261,-0.02917719,-0.117531165,1.0364962,1.2414871,-0.036582854,0.20810454,1.0999457,0.6527789,-0.14083433,0.30829227,0.66864675,0.14262559,-0.48333064,0.42988116,0.108577624,798.60803,801.4286,803.0403,780.87915,709.9634,-0.24560546875,0.01171875,0.9808349609375,1.00189208984375,14.35546875,2.67669677734375,1,1.0,1.0,1.0,1.0,10.00
2024-10-11 20:45:22.044,1.1742681,0.09038334,0.0899639,0.96186376,1.1258261,-0.02917719,-0.117531165,1.0364962,1.2414871,-0.036582854,0.20810454,1.0999457,0.6527789,-0.14083433,0.30829227,0.66864675,0.14262559,-0.48333064,0.42988116,0.108577624,791.75824,798.60803,802.23444,780.4762,852.1978,-0.24560546875,0.01171875,0.9808349609375,1.00189208984375,14.35546875,2.67669677734375,1,1.0,1.0,1.0,1.0,10.00
2024-10-11 20:45:22.044,1.1742681,0.09038334,0.0899639,0.96186376,1.1258261,-0.02917719,-0.117531165,1.0364962,1.2414871,-0.036582854,0.20810454,1.0999457,0.6527789,-0.14083433,0.30829227,0.66864675,0.14262559,-0.48333064,0.42988116,0.108577624,791.3553,800.2198,803.44324,783.69965,873.5531,-0.24560546875,0.01171875,0.9808349609375,1.00189208984375,14.35546875,2.67669677734375,1,1.0,1.0,1.0,1.0,10.00
2024-10-11 20:45:22.045,1.1742681,0.09038334,0.0899639,0.96186376,1.1258261,-0.02917719,-0.117531165,1.0364962,1.2414871,-0.036582854,0.20810454,1.0999457,0.6527789,-0.14083433,0.30829227,0.66864675,0.14262559,-0.48333064,0.42988116,0.108577624,786.1172,803.44324,791.75824,784.10254,693.8461,-0.24560546875,0.01171875,0.9808349609375,1.00189208984375,14.35546875,2.67669677734375,1,1.0,1.0,1.0,1.0,10.00
2024-10-11 20:45:22.046,1.1742681,0.09038334,0.0899639,0.96186376,1.1258261,-0.02917719,-0.117531165,1.0364962,1.2414871,-0.036582854,0.20810454,1.0999457,0.6527789,-0.14083433,0.30829227,0.66864675,0.14262559,-0.48333064,0.42988116,0.108577624,781.685,801.02563,788.93774,784.90845,650.7326,-0.24560546875,0.01171875,0.9808349609375,1.00189208984375,14.35546875,2.67669677734375,1,1.0,1.0,1.0,1.0,10.00
2024-10-11 20:45:22.046,1.1742681,0.09038334,0.0899639,0.96186376,1.1258261,-0.02917719,-0.117531165,1.0364962,1.2414871,-0.036582854,0.20810454,1.0999457,0.6527789,-0.14083433,0.30829227,0.66864675,0.14262559,-0.48333064,0.42988116,0.108577624,784.90845,796.5934,803.44324,788.93774,770.80585,-0.24560546875,0.01171875,0.9808349609375,1.00189208984375,14.35546875,2.67669677734375,1,1.0,1.0,1.0,1.0,10.00
2024-10-11 20:45:22.047,1.1742681,0.09038334,0.0899639,0.96186376,1.1258261,-0.02917719,-0.117531165,1.0364962,1.2414871,-0.036582854,0.20810454,1.0999457,0.6527789,-0.14083433,0.30829227,0.66864675,0.14262559,-0.48333064,0.42988116,0.108577624,791.75824,799.41394,799.81683,791.75824,815.5311,-0.24560546875,0.01171875,0.9808349609375,1.00189208984375,14.35546875,2.67669677734375,1,1.0,1.0,1.0,1.0,10.00
2024-10-11 20:45:22.079,1.1742681,0.09038334,0.0899639,0.96186376,1.1258261,-0.02917719,-0.117531165,1.0364962,1.2414871,-0.036582854,0.20810454,1.0999457,0.6527789,-0.14083433,0.30829227,0.66864675,0.14262559,-0.48333064,0.42988116,0.108577624,793.7729,802.6374,783.69965,790.14655,694.65204,-0.25103759765625,0.01739501953125,0.97259521484375,1.951446533203125,12.523651123046875,0.82244873046875,1,1.0,1.0,1.0,1.0,10.00
2024-10-11 20:45:22.080,1.1742681,0.09038334,0.0899639,0.96186376,1.1258261,-0.02917719,-0.117531165,1.0364962,1.2414871,-0.036582854,0.20810454,1.0999457,0.6527789,-0.14083433,0.30829227,0.66864675,0.14262559,-0.48333064,0.42988116,0.108577624,786.52014,799.41394,795.38464,789.7436,677.72894,-0.25103759765625,0.01739501953125,0.97259521484375,1.951446533203125,12.523651123046875,0.82244873046875,1,1.0,1.0,1.0,1.0,10.00
2024-10-11 20:45:22.080,1.1742681,0.09038334,0.0899639,0.96186376,1.1258261,-0.02917719,-0.117531165,1.0364962,1.2414871,-0.036582854,0.20810454,1.0999457,0.6527789,-0.14083433,0.30829227,0.66864675,0.14262559,-0.48333064,0.42988116,0.108577624,785.31134,796.5934,811.50183,793.7729,850.989,-0.25103759765625,0.01739501953125,0.97259521484375,1.951446533203125,12.523651123046875,0.82244873046875,1,1.0,1.0,1.0,1.0,10.00
2024-10-11 20:45:22.081,1.1742681,0.09038334,0.0899639,0.96186376,1.1258261,-0.02917719,-0.117531165,1.0364962,1.2414871,-0.036582854,0.20810454,1.0999457,0.6527789,-0.14083433,0.30829227,0.66864675,0.14262559,-0.48333064,0.42988116,0.108577624,790.14655,797.3993,808.68134,795.78754,852.6007,-0.25103759765625,0.01739501953125,0.97259521484375,1.951446533203125,12.523651123046875,0.82244873046875,1,1.0,1.0,1.0,1.0,10.00
2024-10-11 20:45:22.082,1.1742681,0.09038334,0.0899639,0.96186376,1.1258261,-0.02917719,-0.117531165,1.0364962,1.2414871,-0.036582854,0.20810454,1.0999457,0.6527789,-0.14083433,0.30829227,0.66864675,0.14262559,-0.48333064,0.42988116,0.108577624,784.10254,800.2198,802.23444,787.72894,634.21246,-0.25103759765625,0.01739501953125,0.97259521484375,1.951446533203125,12.523651123046875,0.82244873046875,1,1.0,1.0,1.0,1.0,10.00
2024-10-11 20:45:22.082,1.1742681,0.09038334,0.0899639,0.96186376,1.1258261,-0.02917719,-0.117531165,1.0364962,1.2414871,-0.036582854,0.20810454,1.0999457,0.6527789,-0.14083433,0.30829227,0.66864675,0.14262559,-0.48333064,0.42988116,0.108577624,784.90845,802.23444,789.7436,782.8938,734.1392,-0.25103759765625,0.01739501953125,0.97259521484375,1.951446533203125,12.523651123046875,0.82244873046875,1,1.0,1.0,1.0,1.0,10.00
2024-10-11 20:45:22.083,1.1742681,0.09038334,0.0899639,0.96186376,1.1258261,-0.02917719,-0.117531165,1.0364962,1.2414871,-0.036582854,0.20810454,1.0999457,0.6527789,-0.14083433,0.30829227,0.66864675,0.14262559,-0.48333064,0.42988116,0.108577624,790.14655,796.1905,785.7143,787.72894,971.8681,-0.25103759765625,0.01739501953125,0.97259521484375,1.951446533203125,12.523651123046875,0.82244873046875,1,1.0,1.0,1.0,1.0,10.00
2024-10-11 20:45:22.084,1.2194744,0.08014098,0.06536638,1.0183866,1.1669706,-0.06750331,-0.09336979,1.0935234,1.2414871,-0.07015142,0.17390406,1.0999457,0.6690007,-0.14668019,0.30245066,0.70751166,0.15174213,-0.48446465,0.42926458,0.10097954,780.87915,791.3553,792.5641,790.14655,1321.2087,-0.25103759765625,0.01739501953125,0.97259521484375,1.951446533203125,12.523651123046875,0.82244873046875,1,1.0,1.0,1.0,1.0,10.00
2024-10-11 20:45:22.090,1.2194744,0.08014098,0.06536638,1.0183866,1.1669706,-0.06750331,-0.09336979,1.0935234,1.2414871,-0.07015142,0.17390406,1.0999457,0.6690007,-0.14668019,0.30245066,0.70751166,0.15174213,-0.48446465,0.42926458,0.10097954,780.4762,792.5641,788.5348,788.1319,1031.5018,-0.25103759765625,0.01739501953125,0.97259521484375,1.951446533203125,12.523651123046875,0.82244873046875,1,1.0,1.0,1.0,1.0,10.00
2024-10-11 20:45:22.091,1.2194744,0.08014098,0.06536638,1.0183866,1.1669706,-0.06750331,-0.09336979,1.0935234,1.2414871,-0.07015142,0.17390406,1.0999457,0.6690007,-0.14668019,0.30245066,0.70751166,0.15174213,-0.48446465,0.42926458,0.10097954,778.86444,794.57874,791.75824,782.49084,558.86444,-0.25103759765625,0.01739501953125,0.97259521484375,1.951446533203125,12.523651123046875,0.82244873046875,1,1.0,1.0,1.0,1.0,10.00
2024-10-11 20:45:22.091,1.2194744,0.08014098,0.06536638,1.0183866,1.1669706,-0.06750331,-0.09336979,1.0935234,1.2414871,-0.07015142,0.17390406,1.0999457,0.6690007,-0.14668019,0.30245066,0.70751166,0.15174213,-0.48446465,0.42926458,0.10097954,784.90845,796.1905,792.5641,784.5055,605.2015,-0.25103759765625,0.01739501953125,0.97259521484375,1.951446533203125,12.523651123046875,0.82244873046875,1,1.0,1.0,1.0,1.0,10.00
2024-10-11 20:45:22.092,1.2194744,0.08014098,0.06536638,1.0183866,1.1669706,-0.06750331,-0.09336979,1.0935234,1.2414871,-0.07015142,0.17390406,1.0999457,0.6690007,-0.14668019,0.30245066,0.70751166,0.15174213,-0.48446465,0.42926458,0.10097954,789.7436,799.81683,788.93774,782.8938,573.36993,-0.25103759765625,0.01739501953125,0.97259521484375,1.951446533203125,12.523651123046875,0.82244873046875,1,1.0,1.0,1.0,1.0,10.00
2024-10-11 20:45:22.120,1.2194744,0.08014098,0.06536638,1.0183866,1.1669706,-0.06750331,-0.09336979,1.0935234,1.2414871,-0.07015142,0.17390406,1.0999457,0.6690007,-0.14668019,0.30245066,0.70751166,0.15174213,-0.48446465,0.42926458,0.10097954,790.14655,802.6374,793.7729,777.6557,528.24176,-0.25103759765625,0.01739501953125,0.97259521484375,1.951446533203125,12.523651123046875,0.82244873046875,1,1.0,1.0,1.0,1.0,10.00
2024-10-11 20:45:22.121,1.2194744,0.08014098,0.06536638,1.0183866,1.1669706,-0.06750331,-0.09336979,1.0935234,1.2414871,-0.07015142,0.17390406,1.0999457,0.6690007,-0.14668019,0.30245066,0.70751166,0.15174213,-0.48446465,0.42926458,0.10097954,799.011,798.20514,797.8022,781.28204,559.67035,-0.25103759765625,0.01739501953125,0.97259521484375,1.951446533203125,12.523651123046875,0.82244873046875,1,1.0,1.0,1.0,1.0,10.00
2024-10-11 20:45:22.122,1.2194744,0.08014098,0.06536638,1.0183866,1.1669706,-0.06750331,-0.09336979,1.0935234,1.2414871,-0.07015142,0.17390406,1.0999457,0.6690007,-0.14668019,0.30245066,0.70751166,0.15174213,-0.48446465,0.42926458,0.10097954,791.3553,798.20514,795.38464,786.52014,620.10986,-0.25103759765625,0.01739501953125,0.97259521484375,1.951446533203125,12.523651123046875,0.82244873046875,1,1.0,1.0,1.0,1.0,10.00
2024-10-11 20:45:22.123,1.2194744,0.08014098,0.06536638,1.0183866,1.1669706,-0.06750331,-0.09336979,1.0935234,1.2414871,-0.07015142,0.17390406,1.0999457,0.6690007,-0.14668019,0.30245066,0.70751166,0.15174213,-0.48446465,0.42926458,0.10097954,787.72894,801.4286,789.7436,790.14655,591.50183,-0.25103759765625,0.01739501953125,0.97259521484375,1.951446533203125,12.523651123046875,0.82244873046875,1,1.0,1.0,1.0,1.0,10.00
2024-10-11 20:45:22.123,1.2194744,0.08014098,0.06536638,1.0183866,1.1669706,-0.06750331,-0.09336979,1.0935234,1.2414871,-0.07015142,0.17390406,1.0999457,0.6690007,-0.14668019,0.30245066,0.70751166,0.15174213,-0.48446465,0.42926458,0.10097954,801.02563,801.02563,796.1905,788.93774,648.71796,-0.25103759765625,0.01739501953125,0.97259521484375,1.951446533203125,12.523651123046875,0.82244873046875,1,1.0,1.0,1.0,1.0,10.00
2024-10-11 20:45:22.124,1.2194744,0.08014098,0.06536638,1.0183866,1.1669706,-0.06750331,-0.09336979,1.0935234,1.2414871,-0.07015142,0.17390406,1.0999457,0.6690007,-0.14668019,0.30245066,0.70751166,0.15174213,-0.48446465,0.42926458,0.10097954,796.99634,799.41394,798.20514,792.1612,796.5934,-0.25103759765625,0.01739501953125,0.97259521484375,1.951446533203125,12.523651123046875,0.82244873046875,1,1.0,1.0,1.0,1.0,10.00
2024-10-11 20:45:22.125,1.2194744,0.08014098,0.06536638,1.0183866,1.1669706,-0.06750331,-0.09336979,1.0935234,1.2414871,-0.07015142,0.17390406,1.0999457,0.6690007,-0.14668019,0.30245066,0.70751166,0.15174213,-0.48446465,0.42926458,0.10097954,795.78754,800.2198,790.9524,798.20514,1007.326,-0.25103759765625,0.01739501953125,0.97259521484375,1.951446533203125,12.523651123046875,0.82244873046875,1,1.0,1.0,1.0,1.0,10.00
2024-10-11 20:45:22.126,1.2194744,0.08014098,0.06536638,1.0183866,1.1669706,-0.06750331,-0.09336979,1.0935234,1.2414871,-0.07015142,0.17390406,1.0999457,0.6690007,-0.14668019,0.30245066,0.70751166,0.15174213,-0.48446465,0.42926458,0.10097954,804.2491,801.8315,794.9817,798.20514,765.9707,-0.25103759765625,0.01739501953125,0.97259521484375,1.951446533203125,12.523651123046875,0.82244873046875,1,1.0,1.0,1.0,1.0,10.00
2024-10-11 20:45:22.126,1.2194744,0.08014098,0.06536638,1.0183866,1.1669706,-0.06750331,-0.09336979,1.0935234,1.2414871,-0.07015142,0.17390406,1.0999457,0.6690007,-0.14668019,0.30245066,0.70751166,0.15174213,-0.48446465,0.42926458,0.10097954,804.65204,804.2491,795.38464,792.5641,448.46155,-0.25103759765625,0.01739501953125,0.97259521484375,1.951446533203125,12.523651123046875,0.82244873046875,1,1.0,1.0,1.0,1.0,10.00
2024-10-11 20:45:22.127,1.2194744,0.08014098,0.06536638,1.0183866,1.1669706,-0.06750331,-0.09336979,1.0935234,1.2414871,-0.07015142,0.17390406,1.0999457,0.6690007,-0.14668019,0.30245066,0.70751166,0.15174213,-0.48446465,0.42926458,0.10097954,801.02563,801.02563,792.96704,787.326,601.978,-0.25103759765625,0.01739501953125,0.97259521484375,1.951446533203125,12.523651123046875,0.82244873046875,1,1.0,1.0,1.0,1.0,10.00
2024-10-11 20:45:22.128,1.2194744,0.08014098,0.06536638,1.0183866,1.1669706,-0.06750331,-0.09336979,1.0935234,1.2414871,-0.07015142,0.17390406,1.0999457,0.6690007,-0.14668019,0.30245066,0.70751166,0.15174213,-0.48446465,0.42926458,0.10097954,798.60803,793.36993,802.23444,792.5641,913.8461,-0.25103759765625,0.01739501953125,0.97259521484375,1.951446533203125,12.523651123046875,0.82244873046875,1,1.0,1.0,1.0,1.0,10.00
2024-10-11 20:45:22.128,1.2194744,0.08014098,0.06536638,1.0183866,1.1669706,-0.06750331,-0.09336979,1.0935234,1.2414871,-0.07015142,0.17390406,1.0999457,0.6690007,-0.14668019,0.30245066,0.70751166,0.15174213,-0.48446465,0.42926458,0.10097954,786.1172,797.3993,803.44324,792.96704,702.3077,-0.25103759765625,0.01739501953125,0.97259521484375,1.951446533203125,12.523651123046875,0.82244873046875,1,1.0,1.0,1.0,1.0,10.00
2024-10-11 20:45:22.193,1.2194744,0.08014098,0.06536638,1.0183866,1.1669706,-0.06750331,-0.09336979,1.0935234,1.2414871,-0.07015142,0.17390406,1.0999457,0.6690007,-0.14668019,0.30245066,0.70751166,0.15174213,-0.48446465,0.42926458,0.10097954,784.5055,800.2198,802.6374,789.7436,465.3846,-0.264892578125,0.02337646484375,0.979248046875,2.7813720703125,10.00396728515625,0.73272705078125,1,1.0,1.0,1.0,1.0,10.00
2024-10-11 20:45:22.194,1.2194744,0.08014098,0.06536638,1.0183866,1.1669706,-0.06750331,-0.09336979,1.0935234,1.2414871,-0.07015142,0.17390406,1.0999457,0.6690007,-0.14668019,0.30245066,0.70751166,0.15174213,-0.48446465,0.42926458,0.10097954,784.10254,798.20514,804.65204,790.14655,576.1905,-0.264892578125,0.02337646484375,0.979248046875,2.7813720703125,10.00396728515625,0.73272705078125,1,1.0,1.0,1.0,1.0,10.00
2024-10-11 20:45:22.196,1.2194744,0.08014098,0.06536638,1.0183866,1.1669706,-0.06750331,-0.09336979,1.0935234,1.2414871,-0.07015142,0.17390406,1.0999457,0.6690007,-0.14668019,0.30245066,0.70751166,0.15174213,-0.48446465,0.42926458,0.10097954,784.5055,801.8315,794.57874,798.60803,572.5641,-0.264892578125,0.02337646484375,0.979248046875,2.7813720703125,10.00396728515625,0.73272705078125,1,1.0,1.0,1.0,1.0,10.00
2024-10-11 20:45:22.197,1.2194744,0.08014098,0.06536638,1.0183866,1.1669706,-0.06750331,-0.09336979,1.0935234,1.2414871,-0.07015142,0.17390406,1.0999457,0.6690007,-0.14668019,0.30245066,0.70751166,0.15174213,-0.48446465,0.42926458,0.10097954,794.57874,805.8608,785.31134,799.81683,562.49084,-0.264892578125,0.02337646484375,0.979248046875,2.7813720703125,10.00396728515625,0.73272705078125,1,1.0,1.0,1.0,1.0,10.00
2024-10-11 20:45:22.198,1.2194744,0.08014098,0.06536638,1.0183866,1.1669706,-0.06750331,-0.09336979,1.0935234,1.2414871,-0.07015142,0.17390406,1.0999457,0.6690007,-0.14668019,0.30245066,0.70751166,0.15174213,-0.48446465,0.42926458,0.10097954,799.011,806.6667,799.41394,791.75824,608.022,-0.264892578125,0.02337646484375,0.979248046875,2.7813720703125,10.00396728515625,0.73272705078125,1,1.0,1.0,1.0,1.0,10.00
2024-10-11 20:45:22.199,1.2194744,0.08014098,0.06536638,1.0183866,1.1669706,-0.06750331,-0.09336979,1.0935234,1.2414871,-0.07015142,0.17390406,1.0999457,0.6690007,-0.14668019,0.30245066,0.70751166,0.15174213,-0.48446465,0.42926458,0.10097954,794.57874,799.41394,811.9048,798.20514,732.1245,-0.264892578125,0.02337646484375,0.979248046875,2.7813720703125,10.00396728515625,0.73272705078125,1,1.0,1.0,1.0,1.0,10.00
2024-10-11 20:45:22.200,1.2194744,0.08014098,0.06536638,1.0183866,1.1669706,-0.06750331,-0.09336979,1.0935234,1.2414871,-0.07015142,0.17390406,1.0999457,0.6690007,-0.14668019,0.30245066,0.70751166,0.15174213,-0.48446465,0.42926458,0.10097954,788.5348,799.41394,809.0842,792.96704,859.45056,-0.264892578125,0.02337646484375,0.979248046875,2.7813720703125,10.00396728515625,0.73272705078125,1,1.0,1.0,1.0,1.0,10.00
2024-10-11 20:45:22.201,1.2194744,0.08014098,0.06536638,1.0183866,1.1669706,-0.06750331,-0.09336979,1.0935234,1.2414871,-0.07015142,0.17390406,1.0999457,0.6690007,-0.14668019,0.30245066,0.70751166,0.15174213,-0.48446465,0.42926458,0.10097954,802.6374,802.23444,811.50183,788.93774,737.76556,-0.264892578125,0.02337646484375,0.979248046875,2.7813720703125,10.00396728515625,0.73272705078125,1,1.0,1.0,1.0,1.0,10.00
2024-10-11 20:45:22.201,1.2194744,0.08014098,0.06536638,1.0183866,1.1669706,-0.06750331,-0.09336979,1.0935234,1.2414871,-0.07015142,0.17390406,1.0999457,0.6690007,-0.14668019,0.30245066,0.70751166,0.15174213,-0.48446465,0.42926458,0.10097954,805.05493,799.41394,807.47253,795.78754,614.0659,-0.264892578125,0.02337646484375,0.979248046875,2.7813720703125,10.00396728515625,0.73272705078125,1,1.0,1.0,1.0,1.0,10.00
2024-10-11 20:45:22.202,1.26938,0.06352802,0.043658745,1.0881207,1.212296,-0.10414939,-0.075733736,1.1633976,1.2414871,-0.094480224,0.20241407,1.0999457,0.6900048,-0.15516734,0.3148571,0.75080025,0.1645325,-0.48728454,0.4301075,0.10211194,782.8938,796.5934,791.75824,799.011,760.7326,-0.264892578125,0.02337646484375,0.979248046875,2.7813720703125,10.00396728515625,0.73272705078125,1,1.0,1.0,1.0,1.0,10.00
2024-10-11 20:45:22.208,1.26938,0.06352802,0.043658745,1.0881207,1.212296,-0.10414939,-0.075733736,1.1633976,1.2414871,-0.094480224,0.20241407,1.0999457,0.6900048,-0.15516734,0.3148571,0.75080025,0.1645325,-0.48728454,0.4301075,0.10211194,781.28204,787.326,810.293,806.6667,713.1868,-0.264892578125,0.02337646484375,0.979248046875,2.7813720703125,10.00396728515625,0.73272705078125,1,1.0,1.0,1.0,1.0,10.00
2024-10-11 20:45:22.209,1.26938,0.06352802,0.043658745,1.0881207,1.212296,-0.10414939,-0.075733736,1.1633976,1.2414871,-0.094480224,0.20241407,1.0999457,0.6900048,-0.15516734,0.3148571,0.75080025,0.1645325,-0.48728454,0.4301075,0.10211194,804.2491,791.75824,820.7692,820.3663,589.0842,-0.264892578125,0.02337646484375,0.979248046875,2.7813720703125,10.00396728515625,0.73272705078125,1,1.0,1.0,1.0,1.0,10.00
2024-10-11 20:45:22.238,1.26938,0.06352802,0.043658745,1.0881207,1.212296,-0.10414939,-0.075733736,1.1633976,1.2414871,-0.094480224,0.20241407,1.0999457,0.6900048,-0.15516734,0.3148571,0.75080025,0.1645325,-0.48728454,0.4301075,0.10211194,805.05493,811.50183,798.20514,808.2784,595.12823,-0.28375244140625,0.023193359375,0.97186279296875,2.52716064453125,7.3870849609375,-0.545806884765625,1,1.0,1.0,1.0,1.0,10.00
2024-10-11 20:45:22.240,1.26938,0.06352802,0.043658745,1.0881207,1.212296,-0.10414939,-0.075733736,1.1633976,1.2414871,-0.094480224,0.20241407,1.0999457,0.6900048,-0.15516734,0.3148571,0.75080025,0.1645325,-0.48728454,0.4301075,0.10211194,792.1612,809.4872,786.9231,795.78754,852.6007,-0.28375244140625,0.023193359375,0.97186279296875,2.52716064453125,7.3870849609375,-0.545806884765625,1,1.0,1.0,1.0,1.0,10.00
2024-10-11 20:45:22.240,1.26938,0.06352802,0.043658745,1.0881207,1.212296,-0.10414939,-0.075733736,1.1633976,1.2414871,-0.094480224,0.20241407,1.0999457,0.6900048,-0.15516734,0.3148571,0.75080025,0.1645325,-0.48728454,0.4301075,0.10211194,796.5934,804.65204,785.31134,801.02563,888.46155,-0.28375244140625,0.023193359375,0.97186279296875,2.52716064453125,7.3870849609375,-0.545806884765625,1,1.0,1.0,1.0,1.0,10.00
2024-10-11 20:45:22.241,1.26938,0.06352802,0.043658745,1.0881207,1.212296,-0.10414939,-0.075733736,1.1633976,1.2414871,-0.094480224,0.20241407,1.0999457,0.6900048,-0.15516734,0.3148571,0.75080025,0.1645325,-0.48728454,0.4301075,0.10211194,797.3993,816.7399,784.5055,783.2967,615.6777,-0.28375244140625,0.023193359375,0.97186279296875,2.52716064453125,7.3870849609375,-0.545806884765625,1,1.0,1.0,1.0,1.0,10.00
2024-10-11 20:45:22.242,1.26938,0.06352802,0.043658745,1.0881207,1.212296,-0.10414939,-0.075733736,1.1633976,1.2414871,-0.094480224,0.20241407,1.0999457,0.6900048,-0.15516734,0.3148571,0.75080025,0.1645325,-0.48728454,0.4301075,0.10211194,790.9524,817.5458,776.4469,770.80585,686.99634,-0.28375244140625,0.023193359375,0.97186279296875,2.52716064453125,7.3870849609375,-0.545806884765625,1,1.0,1.0,1.0,1.0,10.00
2024-10-11 20:45:22.242,1.26938,0.06352802,0.043658745,1.0881207,1.212296,-0.10414939,-0.075733736,1.1633976,1.2414871,-0.094480224,0.20241407,1.0999457,0.6900048,-0.15516734,0.3148571,0.75080025,0.1645325,-0.48728454,0.4301075,0.10211194,790.14655,809.0842,774.83514,772.01465,853.00366,-0.28375244140625,0.023193359375,0.97186279296875,2.52716064453125,7.3870849609375,-0.545806884765625,1,1.0,1.0,1.0,1.0,10.00
2024-10-11 20:45:22.243,1.26938,0.06352802,0.043658745,1.0881207,1.212296,-0.10414939,-0.075733736,1.1633976,1.2414871,-0.094480224,0.20241407,1.0999457,0.6900048,-0.15516734,0.3148571,0.75080025,0.1645325,-0.48728454,0.4301075,0.10211194,789.7436,816.337,782.0879,770.0,821.5751,-0.28375244140625,0.023193359375,0.97186279296875,2.52716064453125,7.3870849609375,-0.545806884765625,1,1.0,1.0,1.0,1.0,10.00
2024-10-11 20:45:22.244,1.26938,0.06352802,0.043658745,1.0881207,1.212296,-0.10414939,-0.075733736,1.1633976,1.2414871,-0.094480224,0.20241407,1.0999457,0.6900048,-0.15516734,0.3148571,0.75080025,0.1645325,-0.48728454,0.4301075,0.10211194,790.9524,823.5897,767.5824,770.40295,658.3883,-0.28375244140625,0.023193359375,0.97186279296875,2.52716064453125,7.3870849609375,-0.545806884765625,1,1.0,1.0,1.0,1.0,10.00
2024-10-11 20:45:22.244,1.26938,0.06352802,0.043658745,1.0881207,1.212296,-0.10414939,-0.075733736,1.1633976,1.2414871,-0.094480224,0.20241407,1.0999457,0.6900048,-0.15516734,0.3148571,0.75080025,0.1645325,-0.48728454,0.4301075,0.10211194,793.7729,822.381,768.3883,780.07324,725.6777,-0.28375244140625,0.023193359375,0.97186279296875,2.52716064453125,7.3870849609375,-0.545806884765625,1,1.0,1.0,1.0,1.0,10.00
2024-10-11 20:45:22.245,1.26938,0.06352802,0.043658745,1.0881207,1.212296,-0.10414939,-0.075733736,1.1633976,1.2414871,-0.094480224,0.20241407,1.0999457,0.6900048,-0.15516734,0.3148571,0.75080025,0.1645325,-0.48728454,0.4301075,0.10211194,793.36993,814.7253,788.93774,778.0586,951.7216,-0.28375244140625,0.023193359375,0.97186279296875,2.52716064453125,7.3870849609375,-0.545806884765625,1,1.0,1.0,1.0,1.0,10.00
2024-10-11 20:45:22.246,1.26938,0.06352802,0.043658745,1.0881207,1.212296,-0.10414939,-0.075733736,1.1633976,1.2414871,-0.094480224,0.20241407,1.0999457,0.6900048,-0.15516734,0.3148571,0.75080025,0.1645325,-0.48728454,0.4301075,0.10211194,796.5934,815.12823,784.10254,774.83514,764.7619,-0.28375244140625,0.023193359375,0.97186279296875,2.52716064453125,7.3870849609375,-0.545806884765625,1,1.0,1.0,1.0,1.0,10.00
2024-10-11 20:45:22.247,1.26938,0.06352802,0.043658745,1.0881207,1.212296,-0.10414939,-0.075733736,1.1633976,1.2414871,-0.094480224,0.20241407,1.0999457,0.6900048,-0.15516734,0.3148571,0.75080025,0.1645325,-0.48728454,0.4301075,0.10211194,795.78754,820.3663,780.4762,787.72894,512.1245,-0.28375244140625,0.023193359375,0.97186279296875,2.52716064453125,7.3870849609375,-0.545806884765625,1,1.0,1.0,1.0,1.0,10.00
2024-10-11 20:45:22.311,1.26938,0.06352802,0.043658745,1.0881207,1.212296,-0.10414939,-0.075733736,1.1633976,1.2414871,-0.094480224,0.20241407,1.0999457,0.6900048,-0.15516734,0.3148571,0.75080025,0.1645325,-0.48728454,0.4301075,0.10211194,797.8022,815.5311,788.5348,797.3993,824.3956,-0.2828369140625,0.0218505859375,0.97119140625,1.428070068359375,3.880462646484375,-2.370147705078125,1,1.0,1.0,1.0,1.0,10.00
2024-10-11 20:45:22.312,1.26938,0.06352802,0.043658745,1.0881207,1.212296,-0.10414939,-0.075733736,1.1633976,1.2414871,-0.094480224,0.20241407,1.0999457,0.6900048,-0.15516734,0.3148571,0.75080025,0.1645325,-0.48728454,0.4301075,0.10211194,803.8461,813.5165,789.7436,799.81683,1034.3224,-0.2828369140625,0.0218505859375,0.97119140625,1.428070068359375,3.880462646484375,-2.370147705078125,1,1.0,1.0,1.0,1.0,10.00
2024-10-11 20:45:22.313,1.26938,0.06352802,0.043658745,1.0881207,1.212296,-0.10414939,-0.075733736,1.1633976,1.2414871,-0.094480224,0.20241407,1.0999457,0.6900048,-0.15516734,0.3148571,0.75080025,0.1645325,-0.48728454,0.4301075,0.10211194,794.57874,811.50183,787.326,784.5055,754.2857,-0.2828369140625,0.0218505859375,0.97119140625,1.428070068359375,3.880462646484375,-2.370147705078125,1,1.0,1.0,1.0,1.0,10.00
2024-10-11 20:45:22.313,1.26938,0.06352802,0.043658745,1.0881207,1.212296,-0.10414939,-0.075733736,1.1633976,1.2414871,-0.094480224,0.20241407,1.0999457,0.6900048,-0.15516734,0.3148571,0.75080025,0.1645325,-0.48728454,0.4301075,0.10211194,789.34064,810.696,778.46155,776.4469,538.71796,-0.2828369140625,0.0218505859375,0.97119140625,1.428070068359375,3.880462646484375,-2.370147705078125,1,1.0,1.0,1.0,1.0,10.00
2024-10-11 20:45:22.314,1.26938,0.06352802,0.043658745,1.0881207,1.212296,-0.10414939,-0.075733736,1.1633976,1.2414871,-0.094480224,0.20241407,1.0999457,0.6900048,-0.15516734,0.3148571,0.75080025,0.1645325,-0.48728454,0.4301075,0.10211194,795.78754,809.4872,781.685,785.7143,780.4762,-0.2828369140625,0.0218505859375,0.97119140625,1.428070068359375,3.880462646484375,-2.370147705078125,1,1.0,1.0,1.0,1.0,10.00
2024-10-11 20:45:22.315,1.26938,0.06352802,0.043658745,1.0881207,1.212296,-0.10414939,-0.075733736,1.1633976,1.2414871,-0.094480224,0.20241407,1.0999457,0.6900048,-0.15516734,0.3148571,0.75080025,0.1645325,-0.48728454,0.4301075,0.10211194,797.8022,811.0989,787.72894,794.9817,1135.4579,-0.2828369140625,0.0218505859375,0.97119140625,1.428070068359375,3.880462646484375,-2.370147705078125,1,1.0,1.0,1.0,1.0,10.00
2024-10-11 20:45:22.315,1.26938,0.06352802,0.043658745,1.0881207,1.212296,-0.10414939,-0.075733736,1.1633976,1.2414871,-0.094480224,0.20241407,1.0999457,0.6900048,-0.15516734,0.3148571,0.75080025,0.1645325,-0.48728454,0.4301075,0.10211194,797.8022,813.1135,787.72894,793.7729,923.5165,-0.2828369140625,0.0218505859375,0.97119140625,1.428070068359375,3.880462646484375,-2.370147705078125,1,1.0,1.0,1.0,1.0,10.00
2024-10-11 20:45:22.316,1.26938,0.06352802,0.043658745,1.0881207,1.212296,-0.10414939,-0.075733736,1.1633976,1.2414871,-0.094480224,0.20241407,1.0999457,0.6900048,-0.15516734,0.3148571,0.75080025,0.1645325,-0.48728454,0.4301075,0.10211194,793.36993,808.2784,793.7729,796.5934,686.99634,-0.2828369140625,0.0218505859375,0.97119140625,1.428070068359375,3.880462646484375,-2.370147705078125,1,1.0,1.0,1.0,1.0,10.00
2024-10-11 20:45:22.317,1.26938,0.06352802,0.043658745,1.0881207,1.212296,-0.10414939,-0.075733736,1.1633976,1.2414871,-0.094480224,0.20241407,1.0999457,0.6900048,-0.15516734,0.3148571,0.75080025,0.1645325,-0.48728454,0.4301075,0.10211194,792.96704,811.9048,792.1612,799.81683,668.86444,-0.2828369140625,0.0218505859375,0.97119140625,1.428070068359375,3.880462646484375,-2.370147705078125,1,1.0,1.0,1.0,1.0,10.00
2024-10-11 20:45:22.318,1.26938,0.06352802,0.043658745,1.0881207,1.212296,-0.10414939,-0.075733736,1.1633976,1.2414871,-0.094480224,0.20241407,1.0999457,0.6900048,-0.15516734,0.3148571,0.75080025,0.1645325,-0.48728454,0.4301075,0.10211194,795.78754,813.5165,787.326,794.57874,713.1868,-0.2828369140625,0.0218505859375,0.97119140625,1.428070068359375,3.880462646484375,-2.370147705078125,1,1.0,1.0,1.0,1.0,10.00
2024-10-11 20:45:22.318,1.26938,0.06352802,0.043658745,1.0881207,1.212296,-0.10414939,-0.075733736,1.1633976,1.2414871,-0.094480224,0.20241407,1.0999457,0.6900048,-0.15516734,0.3148571,0.75080025,0.1645325,-0.48728454,0.4301075,0.10211194,796.99634,810.293,780.07324,794.9817,690.2198,-0.2828369140625,0.0218505859375,0.97119140625,1.428070068359375,3.880462646484375,-2.370147705078125,1,1.0,1.0,1.0,1.0,10.00
2024-10-11 20:45:22.319,1.3023708,0.05183331,0.028045133,1.0881207,1.207848,-0.12639362,-0.05950347,1.1633976,1.2414871,-0.11848527,0.26730582,1.0999457,0.6891901,-0.1626716,0.34679672,0.75080025,0.16863564,-0.49017388,0.43106008,0.10211194,799.81683,809.89014,788.1319,797.8022,644.68866,-0.2828369140625,0.0218505859375,0.97119140625,1.428070068359375,3.880462646484375,-2.370147705078125,1,1.0,1.0,1.0,1.0,10.00
2024-10-11 20:45:22.325,1.3023708,0.05183331,0.028045133,1.0881207,1.207848,-0.12639362,-0.05950347,1.1633976,1.2414871,-0.11848527,0.26730582,1.0999457,0.6891901,-0.1626716,0.34679672,0.75080025,0.16863564,-0.49017388,0.43106008,0.10211194,801.4286,808.68134,807.8755,805.8608,1003.2967,-0.27996826171875,0.01849365234375,0.96240234375,2.534637451171875,0.85235595703125,-3.357086181640625,1,1.0,1.0,1.0,1.0,10.00
