TimeStamp,Delta_TP9,Delta_AF7,Delta_AF8,Delta_TP10,Theta_TP9,Theta_AF7,Theta_AF8,Theta_TP10,Alpha_TP9,Alpha_AF7,Alpha_AF8,Alpha_TP10,Beta_TP9,Beta_AF7,Beta_AF8,Beta_TP10,Gamma_TP9,Gamma_AF7,Gamma_AF8,Gamma_TP10,RAW_TP9,RAW_AF7,RAW_AF8,RAW_TP10,AUX_RIGHT,Accelerometer_X,Accelerometer_Y,Accelerometer_Z,Gyro_X,Gyro_Y,Gyro_Z,HeadBandOn,HSI_TP9,HSI_AF7,HSI_AF8,HSI_TP10,Battery,Elements
2024-10-11 20:38:19.985,1.2274251,1.0413383,1.1483067,1.1934056,0.9390752,0.41407475,0.716649,1.3197876,0.7603626,0.34430784,0.75277406,1.04071,0.74259734,-0.0016990799,0.14981489,0.70061505,0.33002758,-0.0822241,-0.15984313,0.12923005,805.8608,792.96704,786.1172,806.6667,778.46155,-0.17767333984375,0.09173583984375,0.9869384765625,-1.57012939453125,1.577606201171875,3.237457275390625,1,1.0,1.0,1.0,1.0,10.00
2024-10-11 20:38:19.986,1.2274251,1.0413383,1.1483067,1.1934056,0.9390752,0.41407475,0.716649,1.3197876,0.7603626,0.34430784,0.75277406,1.04071,0.74259734,-0.0016990799,0.14981489,0.70061505,0.33002758,-0.0822241,-0.15984313,0.12923005,806.6667,791.75824,790.9524,809.0842,697.47253,-0.17767333984375,0.09173583984375,0.9869384765625,-1.57012939453125,1.577606201171875,3.237457275390625,1,1.0,1.0,1.0,1.0,10.00
2024-10-11 20:38:19.987,1.2274251,1.0413383,1.1483067,1.1934056,0.9390752,0.41407475,0.716649,1.3197876,0.7603626,0.34430784,0.75277406,1.04071,0.74259734,-0.0016990799,0.14981489,0.70061505,0.33002758,-0.0822241,-0.15984313,0.12923005,809.0842,796.1905,792.96704,806.6667,614.87177,-0.17767333984375,0.09173583984375,0.9869384765625,-1.57012939453125,1.577606201171875,3.237457275390625,1,1.0,1.0,1.0,1.0,10.00
2024-10-11 20:38:19.988,1.2274251,1.0413383,1.1483067,1.1934056,0.9390752,0.41407475,0.716649,1.3197876,0.7603626,0.34430784,0.75277406,1.04071,0.74259734,-0.0016990799,0.14981489,0.70061505,0.33002758,-0.0822241,-0.15984313,0.12923005,812.71063,794.57874,794.17584,812.71063,624.94507,-0.17767333984375,0.09173583984375,0.9869384765625,-1.57012939453125,1.577606201171875,3.237457275390625,1,1.0,1.0,1.0,1.0,10.00
2024-10-11 20:38:19.989,1.2274251,1.0413383,1.1483067,1.1934056,0.9390752,0.41407475,0.716649,1.3197876,0.7603626,0.34430784,0.75277406,1.04071,0.74259734,-0.0016990799,0.14981489,0.70061505,0.33002758,-0.0822241,-0.15984313,0.12923005,817.5458,793.36993,791.3553,822.7839,845.7509,-0.17767333984375,0.09173583984375,0.9869384765625,-1.57012939453125,1.577606201171875,3.237457275390625,1,1.0,1.0,1.0,1.0,10.00
2024-10-11 20:38:19.990,1.2274251,1.0413383,1.1483067,1.1934056,0.9390752,0.41407475,0.716649,1.3197876,0.7603626,0.34430784,0.75277406,1.04071,0.74259734,-0.0016990799,0.14981489,0.70061505,0.33002758,-0.0822241,-0.15984313,0.12923005,819.5604,796.1905,788.1319,817.9487,944.87177,-0.17767333984375,0.09173583984375,0.9869384765625,-1.57012939453125,1.577606201171875,3.237457275390625,1,1.0,1.0,1.0,1.0,10.00
2024-10-11 20:38:19.991,1.2274251,1.0413383,1.1483067,1.1934056,0.9390752,0.41407475,0.716649,1.3197876,0.7603626,0.34430784,0.75277406,1.04071,0.74259734,-0.0016990799,0.14981489,0.70061505,0.33002758,-0.0822241,-0.15984313,0.12923005,818.7546,799.81683,794.9817,812.3077,811.9048,-0.17767333984375,0.09173583984375,0.9869384765625,-1.57012939453125,1.577606201171875,3.237457275390625,1,1.0,1.0,1.0,1.0,10.00
2024-10-11 20:38:19.993,1.2274251,1.0413383,1.1483067,1.1934056,0.9390752,0.41407475,0.716649,1.3197876,0.7603626,0.34430784,0.75277406,1.04071,0.74259734,-0.0016990799,0.14981489,0.70061505,0.33002758,-0.0822241,-0.15984313,0.12923005,820.7692,798.60803,795.78754,814.3223,870.32965,-0.17767333984375,0.09173583984375,0.9869384765625,-1.57012939453125,1.577606201171875,3.237457275390625,1,1.0,1.0,1.0,1.0,10.00
2024-10-11 20:38:19.994,1.2274251,1.0413383,1.1483067,1.1934056,0.9390752,0.41407475,0.716649,1.3197876,0.7603626,0.34430784,0.75277406,1.04071,0.74259734,-0.0016990799,0.14981489,0.70061505,0.33002758,-0.0822241,-0.15984313,0.12923005,820.7692,795.78754,795.38464,819.15753,789.34064,-0.17767333984375,0.09173583984375,0.9869384765625,-1.57012939453125,1.577606201171875,3.237457275390625,1,1.0,1.0,1.0,1.0,10.00
2024-10-11 20:38:19.995,1.2274251,1.0413383,1.1483067,1.1934056,0.9390752,0.41407475,0.716649,1.3197876,0.7603626,0.34430784,0.75277406,1.04071,0.74259734,-0.0016990799,0.14981489,0.70061505,0.33002758,-0.0822241,-0.15984313,0.12923005,810.696,798.60803,796.5934,818.7546,624.94507,-0.17767333984375,0.09173583984375,0.9869384765625,-1.57012939453125,1.577606201171875,3.237457275390625,1,1.0,1.0,1.0,1.0,10.00
2024-10-11 20:38:19.997,1.2274251,1.0413383,1.1483067,1.1934056,0.9390752,0.41407475,0.716649,1.3197876,0.7603626,0.34430784,0.75277406,1.04071,0.74259734,-0.0016990799,0.14981489,0.70061505,0.33002758,-0.0822241,-0.15984313,0.12923005,809.4872,794.17584,794.17584,815.9341,603.1868,-0.17767333984375,0.09173583984375,0.9869384765625,-1.57012939453125,1.577606201171875,3.237457275390625,1,1.0,1.0,1.0,1.0,10.00
2024-10-11 20:38:19.998,1.2274251,1.0413383,1.1483067,1.1934056,0.9390752,0.41407475,0.716649,1.3197876,0.7603626,0.34430784,0.75277406,1.04071,0.74259734,-0.0016990799,0.14981489,0.70061505,0.33002758,-0.0822241,-0.15984313,0.12923005,809.89014,790.54944,794.9817,819.5604,726.4835,-0.17767333984375,0.09173583984375,0.9869384765625,-1.57012939453125,1.577606201171875,3.237457275390625,1,1.0,1.0,1.0,1.0,10.00
2024-10-11 20:38:20.038,1.2274251,1.0413383,1.1483067,1.1934056,0.9390752,0.41407475,0.716649,1.3197876,0.7603626,0.34430784,0.75277406,1.04071,0.74259734,-0.0016990799,0.14981489,0.70061505,0.33002758,-0.0822241,-0.15984313,0.12923005,800.6227,791.3553,794.57874,823.1868,1035.1282,-0.1832275390625,0.09747314453125,0.98614501953125,-1.89910888671875,-0.31402587890625,1.5850830078125,1,1.0,1.0,1.0,1.0,10.00
2024-10-11 20:38:20.039,1.2274251,1.0413383,1.1483067,1.1934056,0.9390752,0.41407475,0.716649,1.3197876,0.7603626,0.34430784,0.75277406,1.04071,0.74259734,-0.0016990799,0.14981489,0.70061505,0.33002758,-0.0822241,-0.15984313,0.12923005,801.4286,794.9817,789.7436,827.2161,1203.956,-0.1832275390625,0.09747314453125,0.98614501953125,-1.89910888671875,-0.31402587890625,1.5850830078125,1,1.0,1.0,1.0,1.0,10.00
2024-10-11 20:38:20.040,1.2274251,1.0413383,1.1483067,1.1934056,0.9390752,0.41407475,0.716649,1.3197876,0.7603626,0.34430784,0.75277406,1.04071,0.74259734,-0.0016990799,0.14981489,0.70061505,0.33002758,-0.0822241,-0.15984313,0.12923005,803.8461,794.17584,790.54944,818.3516,964.61536,-0.1832275390625,0.09747314453125,0.98614501953125,-1.89910888671875,-0.31402587890625,1.5850830078125,1,1.0,1.0,1.0,1.0,10.00
2024-10-11 20:38:20.041,1.2274251,1.0413383,1.1483067,1.1934056,0.9390752,0.41407475,0.716649,1.3197876,0.7603626,0.34430784,0.75277406,1.04071,0.74259734,-0.0016990799,0.14981489,0.70061505,0.33002758,-0.0822241,-0.15984313,0.12923005,801.4286,793.36993,781.685,803.44324,708.3516,-0.1832275390625,0.09747314453125,0.98614501953125,-1.89910888671875,-0.31402587890625,1.5850830078125,1,1.0,1.0,1.0,1.0,10.00
2024-10-11 20:38:20.042,1.2274251,1.0413383,1.1483067,1.1934056,0.9390752,0.41407475,0.716649,1.3197876,0.7603626,0.34430784,0.75277406,1.04071,0.74259734,-0.0016990799,0.14981489,0.70061505,0.33002758,-0.0822241,-0.15984313,0.12923005,809.0842,798.60803,784.90845,810.293,695.05493,-0.1832275390625,0.09747314453125,0.98614501953125,-1.89910888671875,-0.31402587890625,1.5850830078125,1,1.0,1.0,1.0,1.0,10.00
2024-10-11 20:38:20.043,1.2274251,1.0413383,1.1483067,1.1934056,0.9390752,0.41407475,0.716649,1.3197876,0.7603626,0.34430784,0.75277406,1.04071,0.74259734,-0.0016990799,0.14981489,0.70061505,0.33002758,-0.0822241,-0.15984313,0.12923005,811.50183,794.17584,798.20514,809.0842,631.39197,-0.1832275390625,0.09747314453125,0.98614501953125,-1.89910888671875,-0.31402587890625,1.5850830078125,1,1.0,1.0,1.0,1.0,10.00
2024-10-11 20:38:20.044,1.2274251,1.0413383,1.1483067,1.1934056,0.9390752,0.41407475,0.716649,1.3197876,0.7603626,0.34430784,0.75277406,1.04071,0.74259734,-0.0016990799,0.14981489,0.70061505,0.33002758,-0.0822241,-0.15984313,0.12923005,806.6667,789.34064,793.7729,803.8461,693.0403,-0.1832275390625,0.09747314453125,0.98614501953125,-1.89910888671875,-0.31402587890625,1.5850830078125,1,1.0,1.0,1.0,1.0,10.00
2024-10-11 20:38:20.045,1.2274251,1.0413383,1.1483067,1.1934056,0.9390752,0.41407475,0.716649,1.3197876,0.7603626,0.34430784,0.75277406,1.04071,0.74259734,-0.0016990799,0.14981489,0.70061505,0.33002758,-0.0822241,-0.15984313,0.12923005,808.2784,790.9524,791.3553,803.8461,749.85345,-0.1832275390625,0.09747314453125,0.98614501953125,-1.89910888671875,-0.31402587890625,1.5850830078125,1,1.0,1.0,1.0,1.0,10.00
2024-10-11 20:38:20.046,1.2274251,1.0413383,1.1483067,1.1934056,0.9390752,0.41407475,0.716649,1.3197876,0.7603626,0.34430784,0.75277406,1.04071,0.74259734,-0.0016990799,0.14981489,0.70061505,0.33002758,-0.0822241,-0.15984313,0.12923005,805.4579,790.14655,797.3993,803.8461,766.77655,-0.1832275390625,0.09747314453125,0.98614501953125,-1.89910888671875,-0.31402587890625,1.5850830078125,1,1.0,1.0,1.0,1.0,10.00
2024-10-11 20:38:20.047,1.2274251,1.0413383,1.1483067,1.1934056,0.9390752,0.41407475,0.716649,1.3197876,0.7603626,0.34430784,0.75277406,1.04071,0.74259734,-0.0016990799,0.14981489,0.70061505,0.33002758,-0.0822241,-0.15984313,0.12923005,803.8461,793.36993,803.8461,803.8461,745.0183,-0.1832275390625,0.09747314453125,0.98614501953125,-1.89910888671875,-0.31402587890625,1.5850830078125,1,1.0,1.0,1.0,1.0,10.00
2024-10-11 20:38:20.048,1.2274251,1.0413383,1.1483067,1.1934056,0.9390752,0.41407475,0.716649,1.3197876,0.7603626,0.34430784,0.75277406,1.04071,0.74259734,-0.0016990799,0.14981489,0.70061505,0.33002758,-0.0822241,-0.15984313,0.12923005,796.5934,794.9817,805.05493,804.2491,724.4689,-0.1832275390625,0.09747314453125,0.98614501953125,-1.89910888671875,-0.31402587890625,1.5850830078125,1,1.0,1.0,1.0,1.0,10.00
2024-10-11 20:38:20.049,1.2274251,1.0366081,1.1057925,1.1934056,0.9390752,0.36703995,0.6816799,1.3197876,0.7603626,0.31534094,0.82101995,1.04071,0.74259734,-0.018646762,0.20442909,0.70061505,0.33002758,-0.094689414,-0.03819885,0.12923005,791.3553,790.54944,803.0403,805.8608,873.1502,-0.1832275390625,0.09747314453125,0.98614501953125,-1.89910888671875,-0.31402587890625,1.5850830078125,1,1.0,1.0,1.0,1.0,10.00
2024-10-11 20:38:20.055,1.2274251,1.0366081,1.1057925,1.1934056,0.9390752,0.36703995,0.6816799,1.3197876,0.7603626,0.31534094,0.82101995,1.04071,0.74259734,-0.018646762,0.20442909,0.70061505,0.33002758,-0.094689414,-0.03819885,0.12923005,796.5934,789.7436,796.5934,808.2784,774.0293,-0.19329833984375,0.09515380859375,0.9959716796875,-1.9140625,0.381317138671875,-0.829925537109375,1,1.0,1.0,1.0,1.0,10.00
2024-10-11 20:38:20.056,1.2274251,1.0366081,1.1057925,1.1934056,0.9390752,0.36703995,0.6816799,1.3197876,0.7603626,0.31534094,0.82101995,1.04071,0.74259734,-0.018646762,0.20442909,0.70061505,0.33002758,-0.094689414,-0.03819885,0.12923005,797.3993,789.34064,792.5641,806.6667,526.63007,-0.19329833984375,0.09515380859375,0.9959716796875,-1.9140625,0.381317138671875,-0.829925537109375,1,1.0,1.0,1.0,1.0,10.00
2024-10-11 20:38:20.057,1.2274251,1.0366081,1.1057925,1.1934056,0.9390752,0.36703995,0.6816799,1.3197876,0.7603626,0.31534094,0.82101995,1.04071,0.74259734,-0.018646762,0.20442909,0.70061505,0.33002758,-0.094689414,-0.03819885,0.12923005,801.8315,789.7436,797.8022,804.2491,558.46155,-0.19329833984375,0.09515380859375,0.9959716796875,-1.9140625,0.381317138671875,-0.829925537109375,1,1.0,1.0,1.0,1.0,10.00
2024-10-11 20:38:20.058,1.2274251,1.0366081,1.1057925,1.1934056,0.9390752,0.36703995,0.6816799,1.3197876,0.7603626,0.31534094,0.82101995,1.04071,0.74259734,-0.018646762,0.20442909,0.70061505,0.33002758,-0.094689414,-0.03819885,0.12923005,812.71063,794.17584,797.8022,809.0842,729.707,-0.19329833984375,0.09515380859375,0.9959716796875,-1.9140625,0.381317138671875,-0.829925537109375,1,1.0,1.0,1.0,1.0,10.00
2024-10-11 20:38:20.060,1.2274251,1.0366081,1.1057925,1.1934056,0.9390752,0.36703995,0.6816799,1.3197876,0.7603626,0.31534094,0.82101995,1.04071,0.74259734,-0.018646762,0.20442909,0.70061505,0.33002758,-0.094689414,-0.03819885,0.12923005,813.1135,795.38464,790.9524,805.05493,718.022,-0.19329833984375,0.09515380859375,0.9959716796875,-1.9140625,0.381317138671875,-0.829925537109375,1,1.0,1.0,1.0,1.0,10.00
2024-10-11 20:38:20.061,1.2274251,1.0366081,1.1057925,1.1934056,0.9390752,0.36703995,0.6816799,1.3197876,0.7603626,0.31534094,0.82101995,1.04071,0.74259734,-0.018646762,0.20442909,0.70061505,0.33002758,-0.094689414,-0.03819885,0.12923005,803.8461,792.96704,786.52014,796.99634,660.40295,-0.19329833984375,0.09515380859375,0.9959716796875,-1.9140625,0.381317138671875,-0.829925537109375,1,1.0,1.0,1.0,1.0,10.00
2024-10-11 20:38:20.062,1.2274251,1.0366081,1.1057925,1.1934056,0.9390752,0.36703995,0.6816799,1.3197876,0.7603626,0.31534094,0.82101995,1.04071,0.74259734,-0.018646762,0.20442909,0.70061505,0.33002758,-0.094689414,-0.03819885,0.12923005,800.2198,793.7729,789.34064,799.41394,825.2015,-0.19329833984375,0.09515380859375,0.9959716796875,-1.9140625,0.381317138671875,-0.829925537109375,1,1.0,1.0,1.0,1.0,10.00
2024-10-11 20:38:20.063,1.2274251,1.0366081,1.1057925,1.1934056,0.9390752,0.36703995,0.6816799,1.3197876,0.7603626,0.31534094,0.82101995,1.04071,0.74259734,-0.018646762,0.20442909,0.70061505,0.33002758,-0.094689414,-0.03819885,0.12923005,793.7729,794.9817,794.9817,804.2491,966.2271,-0.19329833984375,0.09515380859375,0.9959716796875,-1.9140625,0.381317138671875,-0.829925537109375,1,1.0,1.0,1.0,1.0,10.00
2024-10-11 20:38:20.064,1.2274251,1.0366081,1.1057925,1.1934056,0.9390752,0.36703995,0.6816799,1.3197876,0.7603626,0.31534094,0.82101995,1.04071,0.74259734,-0.018646762,0.20442909,0.70061505,0.33002758,-0.094689414,-0.03819885,0.12923005,790.54944,796.99634,790.9524,802.6374,782.0879,-0.19329833984375,0.09515380859375,0.9959716796875,-1.9140625,0.381317138671875,-0.829925537109375,1,1.0,1.0,1.0,1.0,10.00
2024-10-11 20:38:20.065,1.2274251,1.0366081,1.1057925,1.1934056,0.9390752,0.36703995,0.6816799,1.3197876,0.7603626,0.31534094,0.82101995,1.04071,0.74259734,-0.018646762,0.20442909,0.70061505,0.33002758,-0.094689414,-0.03819885,0.12923005,792.96704,799.011,793.36993,799.011,593.91943,-0.19329833984375,0.09515380859375,0.9959716796875,-1.9140625,0.381317138671875,-0.829925537109375,1,1.0,1.0,1.0,1.0,10.00
2024-10-11 20:38:20.066,1.2274251,1.0366081,1.1057925,1.1934056,0.9390752,0.36703995,0.6816799,1.3197876,0.7603626,0.31534094,0.82101995,1.04071,0.74259734,-0.018646762,0.20442909,0.70061505,0.33002758,-0.094689414,-0.03819885,0.12923005,796.5934,793.7729,801.8315,794.9817,731.31866,-0.19329833984375,0.09515380859375,0.9959716796875,-1.9140625,0.381317138671875,-0.829925537109375,1,1.0,1.0,1.0,1.0,10.00
2024-10-11 20:38:20.067,1.2274251,1.0366081,1.1057925,1.1934056,0.9390752,0.36703995,0.6816799,1.3197876,0.7603626,0.31534094,0.82101995,1.04071,0.74259734,-0.018646762,0.20442909,0.70061505,0.33002758,-0.094689414,-0.03819885,0.12923005,797.8022,792.1612,794.17584,802.23444,1051.6483,-0.19329833984375,0.09515380859375,0.9959716796875,-1.9140625,0.381317138671875,-0.829925537109375,1,1.0,1.0,1.0,1.0,10.00
2024-10-11 20:38:20.068,1.2274251,1.0366081,1.1057925,1.1934056,0.9390752,0.36703995,0.6816799,1.3197876,0.7603626,0.31534094,0.82101995,1.04071,0.74259734,-0.018646762,0.20442909,0.70061505,0.33002758,-0.094689414,-0.03819885,0.12923005,786.1172,796.99634,786.9231,792.5641,864.68866,-0.19891357421875,0.0811767578125,0.98602294921875,-2.145843505859375,-0.007476806640625,-1.727142333984375,1,1.0,1.0,1.0,1.0,10.00
2024-10-11 20:38:20.069,1.2274251,1.0366081,1.1057925,1.1934056,0.9390752,0.36703995,0.6816799,1.3197876,0.7603626,0.31534094,0.82101995,1.04071,0.74259734,-0.018646762,0.20442909,0.70061505,0.33002758,-0.094689414,-0.03819885,0.12923005,790.14655,796.99634,794.17584,784.5055,591.0989,-0.19891357421875,0.0811767578125,0.98602294921875,-2.145843505859375,-0.007476806640625,-1.727142333984375,1,1.0,1.0,1.0,1.0,10.00
2024-10-11 20:38:20.070,1.2274251,1.0366081,1.1057925,1.1934056,0.9390752,0.36703995,0.6816799,1.3197876,0.7603626,0.31534094,0.82101995,1.04071,0.74259734,-0.018646762,0.20442909,0.70061505,0.33002758,-0.094689414,-0.03819885,0.12923005,801.4286,794.57874,800.2198,790.54944,699.89014,-0.19891357421875,0.0811767578125,0.98602294921875,-2.145843505859375,-0.007476806640625,-1.727142333984375,1,1.0,1.0,1.0,1.0,10.00
2024-10-11 20:38:20.071,1.2274251,1.0366081,1.1057925,1.1934056,0.9390752,0.36703995,0.6816799,1.3197876,0.7603626,0.31534094,0.82101995,1.04071,0.74259734,-0.018646762,0.20442909,0.70061505,0.33002758,-0.094689414,-0.03819885,0.12923005,794.9817,796.1905,801.4286,789.34064,724.87177,-0.19891357421875,0.0811767578125,0.98602294921875,-2.145843505859375,-0.007476806640625,-1.727142333984375,1,1.0,1.0,1.0,1.0,10.00
2024-10-11 20:38:20.072,1.2274251,1.0366081,1.1057925,1.1934056,0.9390752,0.36703995,0.6816799,1.3197876,0.7603626,0.31534094,0.82101995,1.04071,0.74259734,-0.018646762,0.20442909,0.70061505,0.33002758,-0.094689414,-0.03819885,0.12923005,794.17584,794.9817,802.6374,786.9231,548.3883,-0.19891357421875,0.0811767578125,0.98602294921875,-2.145843505859375,-0.007476806640625,-1.727142333984375,1,1.0,1.0,1.0,1.0,10.00
2024-10-11 20:38:20.073,1.2274251,1.0366081,1.1057925,1.1934056,0.9390752,0.36703995,0.6816799,1.3197876,0.7603626,0.31534094,0.82101995,1.04071,0.74259734,-0.018646762,0.20442909,0.70061505,0.33002758,-0.094689414,-0.03819885,0.12923005,802.23444,788.1319,800.6227,783.69965,592.71063,-0.19891357421875,0.0811767578125,0.98602294921875,-2.145843505859375,-0.007476806640625,-1.727142333984375,1,1.0,1.0,1.0,1.0,10.00
2024-10-11 20:38:20.074,1.2274251,1.0366081,1.1057925,1.1934056,0.9390752,0.36703995,0.6816799,1.3197876,0.7603626,0.31534094,0.82101995,1.04071,0.74259734,-0.018646762,0.20442909,0.70061505,0.33002758,-0.094689414,-0.03819885,0.12923005,803.8461,787.326,795.78754,790.9524,780.07324,-0.19891357421875,0.0811767578125,0.98602294921875,-2.145843505859375,-0.007476806640625,-1.727142333984375,1,1.0,1.0,1.0,1.0,10.00
2024-10-11 20:38:20.076,1.2274251,1.0366081,1.1057925,1.1934056,0.9390752,0.36703995,0.6816799,1.3197876,0.7603626,0.31534094,0.82101995,1.04071,0.74259734,-0.018646762,0.20442909,0.70061505,0.33002758,-0.094689414,-0.03819885,0.12923005,800.6227,788.1319,796.1905,799.011,740.18317,-0.19891357421875,0.0811767578125,0.98602294921875,-2.145843505859375,-0.007476806640625,-1.727142333984375,1,1.0,1.0,1.0,1.0,10.00
2024-10-11 20:38:20.077,1.2274251,1.0366081,1.1057925,1.1934056,0.9390752,0.36703995,0.6816799,1.3197876,0.7603626,0.31534094,0.82101995,1.04071,0.74259734,-0.018646762,0.20442909,0.70061505,0.33002758,-0.094689414,-0.03819885,0.12923005,794.57874,798.20514,797.8022,801.8315,598.7546,-0.19891357421875,0.0811767578125,0.98602294921875,-2.145843505859375,-0.007476806640625,-1.727142333984375,1,1.0,1.0,1.0,1.0,10.00
2024-10-11 20:38:20.078,1.2274251,1.0366081,1.1057925,1.1934056,0.9390752,0.36703995,0.6816799,1.3197876,0.7603626,0.31534094,0.82101995,1.04071,0.74259734,-0.018646762,0.20442909,0.70061505,0.33002758,-0.094689414,-0.03819885,0.12923005,796.99634,801.8315,791.75824,805.05493,605.2015,-0.19891357421875,0.0811767578125,0.98602294921875,-2.145843505859375,-0.007476806640625,-1.727142333984375,1,1.0,1.0,1.0,1.0,10.00
2024-10-11 20:38:20.079,1.2274251,1.0366081,1.1057925,1.1934056,0.9390752,0.36703995,0.6816799,1.3197876,0.7603626,0.31534094,0.82101995,1.04071,0.74259734,-0.018646762,0.20442909,0.70061505,0.33002758,-0.094689414,-0.03819885,0.12923005,797.3993,796.5934,793.36993,805.8608,820.7692,-0.19891357421875,0.0811767578125,0.98602294921875,-2.145843505859375,-0.007476806640625,-1.727142333984375,1,1.0,1.0,1.0,1.0,10.00
2024-10-11 20:38:20.080,1.2274251,1.0366081,1.1057925,1.1934056,0.9390752,0.36703995,0.6816799,1.3197876,0.7603626,0.31534094,0.82101995,1.04071,0.74259734,-0.018646762,0.20442909,0.70061505,0.33002758,-0.094689414,-0.03819885,0.12923005,796.1905,793.7729,795.38464,809.89014,1076.63,-0.19891357421875,0.0811767578125,0.98602294921875,-2.145843505859375,-0.007476806640625,-1.727142333984375,1,1.0,1.0,1.0,1.0,10.00
2024-10-11 20:38:20.127,1.2274251,1.0366081,1.1057925,1.1934056,0.9390752,0.36703995,0.6816799,1.3197876,0.7603626,0.31534094,0.82101995,1.04071,0.74259734,-0.018646762,0.20442909,0.70061505,0.33002758,-0.094689414,-0.03819885,0.12923005,801.8315,797.3993,790.14655,801.8315,729.707,-0.19891357421875,0.0811767578125,0.98602294921875,-2.145843505859375,-0.007476806640625,-1.727142333984375,1,1.0,1.0,1.0,1.0,10.00
2024-10-11 20:38:20.128,1.2274251,1.046246,1.0727241,1.1934056,0.9390752,0.35156175,0.66784185,1.3197876,0.7603626,0.26609862,0.8213703,1.04071,0.74259734,-0.03438774,0.25579694,0.70061505,0.33002758,-0.10132973,0.049382653,0.12923005,800.2198,799.81683,790.54944,799.41394,523.8095,-0.19891357421875,0.0811767578125,0.98602294921875,-2.145843505859375,-0.007476806640625,-1.727142333984375,1,1.0,1.0,1.0,1.0,10.00
2024-10-11 20:38:20.134,1.2274251,1.046246,1.0727241,1.1934056,0.9390752,0.35156175,0.66784185,1.3197876,0.7603626,0.26609862,0.8213703,1.04071,0.74259734,-0.03438774,0.25579694,0.70061505,0.33002758,-0.10132973,0.049382653,0.12923005,801.4286,792.5641,793.7729,808.2784,748.24176,-0.19891357421875,0.0811767578125,0.98602294921875,-2.145843505859375,-0.007476806640625,-1.727142333984375,1,1.0,1.0,1.0,1.0,10.00
2024-10-11 20:38:20.135,1.2274251,1.046246,1.0727241,1.1934056,0.9390752,0.35156175,0.66784185,1.3197876,0.7603626,0.26609862,0.8213703,1.04071,0.74259734,-0.03438774,0.25579694,0.70061505,0.33002758,-0.10132973,0.049382653,0.12923005,805.4579,795.78754,794.9817,803.0403,633.8095,-0.19891357421875,0.0811767578125,0.98602294921875,-2.145843505859375,-0.007476806640625,-1.727142333984375,1,1.0,1.0,1.0,1.0,10.00
2024-10-11 20:38:20.135,1.2274251,1.046246,1.0727241,1.1934056,0.9390752,0.35156175,0.66784185,1.3197876,0.7603626,0.26609862,0.8213703,1.04071,0.74259734,-0.03438774,0.25579694,0.70061505,0.33002758,-0.10132973,0.049382653,0.12923005,799.41394,800.6227,796.99634,798.60803,483.9194,-0.19891357421875,0.0811767578125,0.98602294921875,-2.145843505859375,-0.007476806640625,-1.727142333984375,1,1.0,1.0,1.0,1.0,10.00
2024-10-11 20:38:20.136,1.2274251,1.046246,1.0727241,1.1934056,0.9390752,0.35156175,0.66784185,1.3197876,0.7603626,0.26609862,0.8213703,1.04071,0.74259734,-0.03438774,0.25579694,0.70061505,0.33002758,-0.10132973,0.049382653,0.12923005,804.2491,802.23444,801.8315,805.4579,646.7033,-0.19891357421875,0.0811767578125,0.98602294921875,-2.145843505859375,-0.007476806640625,-1.727142333984375,1,1.0,1.0,1.0,1.0,10.00
2024-10-11 20:38:20.137,1.2274251,1.046246,1.0727241,1.1934056,0.9390752,0.35156175,0.66784185,1.3197876,0.7603626,0.26609862,0.8213703,1.04071,0.74259734,-0.03438774,0.25579694,0.70061505,0.33002758,-0.10132973,0.049382653,0.12923005,805.8608,797.3993,800.6227,807.0696,1062.9304,-0.19891357421875,0.0811767578125,0.98602294921875,-2.145843505859375,-0.007476806640625,-1.727142333984375,1,1.0,1.0,1.0,1.0,10.00
2024-10-11 20:38:20.138,1.2274251,1.046246,1.0727241,1.1934056,0.9390752,0.35156175,0.66784185,1.3197876,0.7603626,0.26609862,0.8213703,1.04071,0.74259734,-0.03438774,0.25579694,0.70061505,0.33002758,-0.10132973,0.049382653,0.12923005,797.3993,792.1612,797.3993,809.0842,1079.8535,-0.19891357421875,0.0811767578125,0.98602294921875,-2.145843505859375,-0.007476806640625,-1.727142333984375,1,1.0,1.0,1.0,1.0,10.00
2024-10-11 20:38:20.139,1.2274251,1.046246,1.0727241,1.1934056,0.9390752,0.35156175,0.66784185,1.3197876,0.7603626,0.26609862,0.8213703,1.04071,0.74259734,-0.03438774,0.25579694,0.70061505,0.33002758,-0.10132973,0.049382653,0.12923005,796.5934,802.6374,802.23444,801.4286,555.2381,-0.19891357421875,0.0811767578125,0.98602294921875,-2.145843505859375,-0.007476806640625,-1.727142333984375,1,1.0,1.0,1.0,1.0,10.00
2024-10-11 20:38:20.139,1.2274251,1.046246,1.0727241,1.1934056,0.9390752,0.35156175,0.66784185,1.3197876,0.7603626,0.26609862,0.8213703,1.04071,0.74259734,-0.03438774,0.25579694,0.70061505,0.33002758,-0.10132973,0.049382653,0.12923005,797.3993,801.4286,804.2491,794.17584,471.8315,-0.19891357421875,0.0811767578125,0.98602294921875,-2.145843505859375,-0.007476806640625,-1.727142333984375,1,1.0,1.0,1.0,1.0,10.00
2024-10-11 20:38:20.140,1.2274251,1.046246,1.0727241,1.1934056,0.9390752,0.35156175,0.66784185,1.3197876,0.7603626,0.26609862,0.8213703,1.04071,0.74259734,-0.03438774,0.25579694,0.70061505,0.33002758,-0.10132973,0.049382653,0.12923005,793.7729,790.54944,802.6374,796.1905,533.8828,-0.19891357421875,0.0811767578125,0.98602294921875,-2.145843505859375,-0.007476806640625,-1.727142333984375,1,1.0,1.0,1.0,1.0,10.00
2024-10-11 20:38:20.141,1.2274251,1.046246,1.0727241,1.1934056,0.9390752,0.35156175,0.66784185,1.3197876,0.7603626,0.26609862,0.8213703,1.04071,0.74259734,-0.03438774,0.25579694,0.70061505,0.33002758,-0.10132973,0.049382653,0.12923005,789.34064,792.96704,794.17584,792.5641,458.13187,-0.19891357421875,0.0811767578125,0.98602294921875,-2.145843505859375,-0.007476806640625,-1.727142333984375,1,1.0,1.0,1.0,1.0,10.00
2024-10-11 20:38:20.166,1.2274251,1.046246,1.0727241,1.1934056,0.9390752,0.35156175,0.66784185,1.3197876,0.7603626,0.26609862,0.8213703,1.04071,0.74259734,-0.03438774,0.25579694,0.70061505,0.33002758,-0.10132973,0.049382653,0.12923005,793.36993,794.57874,794.9817,798.20514,458.93774,-0.19415283203125,0.07794189453125,0.9842529296875,-1.27105712890625,-0.515899658203125,-0.949554443359375,1,1.0,1.0,1.0,1.0,10.00
2024-10-11 20:38:20.167,1.2274251,1.046246,1.0727241,1.1934056,0.9390752,0.35156175,0.66784185,1.3197876,0.7603626,0.26609862,0.8213703,1.04071,0.74259734,-0.03438774,0.25579694,0.70061505,0.33002758,-0.10132973,0.049382653,0.12923005,796.1905,794.17584,798.20514,805.05493,597.1429,-0.19415283203125,0.07794189453125,0.9842529296875,-1.27105712890625,-0.515899658203125,-0.949554443359375,1,1.0,1.0,1.0,1.0,10.00
2024-10-11 20:38:20.168,1.2274251,1.046246,1.0727241,1.1934056,0.9390752,0.35156175,0.66784185,1.3197876,0.7603626,0.26609862,0.8213703,1.04071,0.74259734,-0.03438774,0.25579694,0.70061505,0.33002758,-0.10132973,0.049382653,0.12923005,793.36993,793.36993,794.9817,798.60803,611.2454,-0.19415283203125,0.07794189453125,0.9842529296875,-1.27105712890625,-0.515899658203125,-0.949554443359375,1,1.0,1.0,1.0,1.0,10.00
2024-10-11 20:38:20.168,1.2274251,1.046246,1.0727241,1.1934056,0.9390752,0.35156175,0.66784185,1.3197876,0.7603626,0.26609862,0.8213703,1.04071,0.74259734,-0.03438774,0.25579694,0.70061505,0.33002758,-0.10132973,0.049382653,0.12923005,803.0403,790.54944,791.3553,799.81683,523.4066,-0.19415283203125,0.07794189453125,0.9842529296875,-1.27105712890625,-0.515899658203125,-0.949554443359375,1,1.0,1.0,1.0,1.0,10.00
2024-10-11 20:38:20.169,1.2274251,1.046246,1.0727241,1.1934056,0.9390752,0.35156175,0.66784185,1.3197876,0.7603626,0.26609862,0.8213703,1.04071,0.74259734,-0.03438774,0.25579694,0.70061505,0.33002758,-0.10132973,0.049382653,0.12923005,806.26373,789.34064,792.96704,802.6374,485.53113,-0.19415283203125,0.07794189453125,0.9842529296875,-1.27105712890625,-0.515899658203125,-0.949554443359375,1,1.0,1.0,1.0,1.0,10.00
2024-10-11 20:38:20.169,1.2274251,1.046246,1.0727241,1.1934056,0.9390752,0.35156175,0.66784185,1.3197876,0.7603626,0.26609862,0.8213703,1.04071,0.74259734,-0.03438774,0.25579694,0.70061505,0.33002758,-0.10132973,0.049382653,0.12923005,795.38464,786.52014,796.5934,793.7729,702.71063,-0.19415283203125,0.07794189453125,0.9842529296875,-1.27105712890625,-0.515899658203125,-0.949554443359375,1,1.0,1.0,1.0,1.0,10.00
2024-10-11 20:38:20.170,1.2274251,1.046246,1.0727241,1.1934056,0.9390752,0.35156175,0.66784185,1.3197876,0.7603626,0.26609862,0.8213703,1.04071,0.74259734,-0.03438774,0.25579694,0.70061505,0.33002758,-0.10132973,0.049382653,0.12923005,787.72894,788.5348,795.78754,790.9524,848.1685,-0.19415283203125,0.07794189453125,0.9842529296875,-1.27105712890625,-0.515899658203125,-0.949554443359375,1,1.0,1.0,1.0,1.0,10.00
2024-10-11 20:38:20.170,1.2274251,1.046246,1.0727241,1.1934056,0.9390752,0.35156175,0.66784185,1.3197876,0.7603626,0.26609862,0.8213703,1.04071,0.74259734,-0.03438774,0.25579694,0.70061505,0.33002758,-0.10132973,0.049382653,0.12923005,786.9231,792.5641,797.8022,793.36993,696.6667,-0.19415283203125,0.07794189453125,0.9842529296875,-1.27105712890625,-0.515899658203125,-0.949554443359375,1,1.0,1.0,1.0,1.0,10.00
2024-10-11 20:38:20.171,1.2274251,1.046246,1.0727241,1.1934056,0.9390752,0.35156175,0.66784185,1.3197876,0.7603626,0.26609862,0.8213703,1.04071,0.74259734,-0.03438774,0.25579694,0.70061505,0.33002758,-0.10132973,0.049382653,0.12923005,796.99634,796.5934,798.60803,793.36993,461.75824,-0.19415283203125,0.07794189453125,0.9842529296875,-1.27105712890625,-0.515899658203125,-0.949554443359375,1,1.0,1.0,1.0,1.0,10.00
2024-10-11 20:38:20.171,1.2274251,1.046246,1.0727241,1.1934056,0.9390752,0.35156175,0.66784185,1.3197876,0.7603626,0.26609862,0.8213703,1.04071,0.74259734,-0.03438774,0.25579694,0.70061505,0.33002758,-0.10132973,0.049382653,0.12923005,800.2198,796.5934,792.1612,797.8022,711.5751,-0.19415283203125,0.07794189453125,0.9842529296875,-1.27105712890625,-0.515899658203125,-0.949554443359375,1,1.0,1.0,1.0,1.0,10.00
2024-10-11 20:38:20.172,1.2274251,1.046246,1.0727241,1.1934056,0.9390752,0.35156175,0.66784185,1.3197876,0.7603626,0.26609862,0.8213703,1.04071,0.74259734,-0.03438774,0.25579694,0.70061505,0.33002758,-0.10132973,0.049382653,0.12923005,791.75824,790.54944,794.9817,796.99634,914.2491,-0.19415283203125,0.07794189453125,0.9842529296875,-1.27105712890625,-0.515899658203125,-0.949554443359375,1,1.0,1.0,1.0,1.0,10.00
2024-10-11 20:38:20.172,1.2274251,1.046246,1.0727241,1.1934056,0.9390752,0.35156175,0.66784185,1.3197876,0.7603626,0.26609862,0.8213703,1.04071,0.74259734,-0.03438774,0.25579694,0.70061505,0.33002758,-0.10132973,0.049382653,0.12923005,797.8022,798.60803,799.41394,794.17584,606.0073,-0.19415283203125,0.07794189453125,0.9842529296875,-1.27105712890625,-0.515899658203125,-0.949554443359375,1,1.0,1.0,1.0,1.0,10.00
2024-10-11 20:38:20.260,1.2274251,1.046246,1.0727241,1.1934056,0.9390752,0.35156175,0.66784185,1.3197876,0.7603626,0.26609862,0.8213703,1.04071,0.74259734,-0.03438774,0.25579694,0.70061505,0.33002758,-0.10132973,0.049382653,0.12923005,803.8461,801.4286,793.36993,790.14655,529.45056,-0.20440673828125,0.07244873046875,0.9864501953125,-0.979461669921875,-0.01495361328125,-0.321502685546875,1,1.0,1.0,1.0,1.0,10.00
2024-10-11 20:38:20.261,1.2274251,1.046246,1.0727241,1.1934056,0.9390752,0.35156175,0.66784185,1.3197876,0.7603626,0.26609862,0.8213703,1.04071,0.74259734,-0.03438774,0.25579694,0.70061505,0.33002758,-0.10132973,0.049382653,0.12923005,801.8315,788.1319,796.99634,784.5055,644.2857,-0.20440673828125,0.07244873046875,0.9864501953125,-0.979461669921875,-0.01495361328125,-0.321502685546875,1,1.0,1.0,1.0,1.0,10.00
2024-10-11 20:38:20.261,1.2274251,1.046246,1.0727241,1.1934056,0.9390752,0.35156175,0.66784185,1.3197876,0.7603626,0.26609862,0.8213703,1.04071,0.74259734,-0.03438774,0.25579694,0.70061505,0.33002758,-0.10132973,0.049382653,0.12923005,798.20514,789.34064,799.81683,790.54944,680.54944,-0.20440673828125,0.07244873046875,0.9864501953125,-0.979461669921875,-0.01495361328125,-0.321502685546875,1,1.0,1.0,1.0,1.0,10.00
2024-10-11 20:38:20.262,1.2274251,1.0761635,1.0566199,1.1934056,0.9390752,0.37402603,0.66663134,1.3197876,0.7603626,0.25009298,0.8213703,1.04071,0.74259734,-0.049185175,0.29199168,0.70061505,0.33002758,-0.099932946,0.094008,0.12923005,797.3993,801.8315,795.38464,794.57874,517.76556,-0.20440673828125,0.07244873046875,0.9864501953125,-0.979461669921875,-0.01495361328125,-0.321502685546875,1,1.0,1.0,1.0,1.0,10.00
2024-10-11 20:38:20.266,1.2274251,1.0761635,1.0566199,1.1934056,0.9390752,0.37402603,0.66663134,1.3197876,0.7603626,0.25009298,0.8213703,1.04071,0.74259734,-0.049185175,0.29199168,0.70061505,0.33002758,-0.099932946,0.094008,0.12923005,793.36993,797.8022,791.75824,793.36993,604.7985,-0.20440673828125,0.07244873046875,0.9864501953125,-0.979461669921875,-0.01495361328125,-0.321502685546875,1,1.0,1.0,1.0,1.0,10.00
2024-10-11 20:38:20.266,1.2274251,1.0761635,1.0566199,1.1934056,0.9390752,0.37402603,0.66663134,1.3197876,0.7603626,0.25009298,0.8213703,1.04071,0.74259734,-0.049185175,0.29199168,0.70061505,0.33002758,-0.099932946,0.094008,0.12923005,786.52014,793.36993,794.17584,799.011,863.0769,-0.20440673828125,0.07244873046875,0.9864501953125,-0.979461669921875,-0.01495361328125,-0.321502685546875,1,1.0,1.0,1.0,1.0,10.00
2024-10-11 20:38:20.267,1.2274251,1.0761635,1.0566199,1.1934056,0.9390752,0.37402603,0.66663134,1.3197876,0.7603626,0.25009298,0.8213703,1.04071,0.74259734,-0.049185175,0.29199168,0.70061505,0.33002758,-0.099932946,0.094008,0.12923005,781.28204,793.36993,790.9524,798.20514,802.23444,-0.20440673828125,0.07244873046875,0.9864501953125,-0.979461669921875,-0.01495361328125,-0.321502685546875,1,1.0,1.0,1.0,1.0,10.00
2024-10-11 20:38:20.267,1.2274251,1.0761635,1.0566199,1.1934056,0.9390752,0.37402603,0.66663134,1.3197876,0.7603626,0.25009298,0.8213703,1.04071,0.74259734,-0.049185175,0.29199168,0.70061505,0.33002758,-0.099932946,0.094008,0.12923005,778.46155,786.9231,789.7436,798.60803,705.12823,-0.20440673828125,0.07244873046875,0.9864501953125,-0.979461669921875,-0.01495361328125,-0.321502685546875,1,1.0,1.0,1.0,1.0,10.00
2024-10-11 20:38:20.268,1.2274251,1.0761635,1.0566199,1.1934056,0.9390752,0.37402603,0.66663134,1.3197876,0.7603626,0.25009298,0.8213703,1.04071,0.74259734,-0.049185175,0.29199168,0.70061505,0.33002758,-0.099932946,0.094008,0.12923005,778.86444,782.8938,792.96704,803.8461,736.9597,-0.20440673828125,0.07244873046875,0.9864501953125,-0.979461669921875,-0.01495361328125,-0.321502685546875,1,1.0,1.0,1.0,1.0,10.00
2024-10-11 20:38:20.268,1.2274251,1.0761635,1.0566199,1.1934056,0.9390752,0.37402603,0.66663134,1.3197876,0.7603626,0.25009298,0.8213703,1.04071,0.74259734,-0.049185175,0.29199168,0.70061505,0.33002758,-0.099932946,0.094008,0.12923005,780.87915,788.5348,789.7436,806.26373,676.52014,-0.20440673828125,0.07244873046875,0.9864501953125,-0.979461669921875,-0.01495361328125,-0.321502685546875,1,1.0,1.0,1.0,1.0,10.00
2024-10-11 20:38:20.269,1.2274251,1.0761635,1.0566199,1.1934056,0.9390752,0.37402603,0.66663134,1.3197876,0.7603626,0.25009298,0.8213703,1.04071,0.74259734,-0.049185175,0.29199168,0.70061505,0.33002758,-0.099932946,0.094008,0.12923005,778.86444,792.1612,790.14655,798.20514,590.696,-0.20440673828125,0.07244873046875,0.9864501953125,-0.979461669921875,-0.01495361328125,-0.321502685546875,1,1.0,1.0,1.0,1.0,10.00
2024-10-11 20:38:20.269,1.2274251,1.0761635,1.0566199,1.1934056,0.9390752,0.37402603,0.66663134,1.3197876,0.7603626,0.25009298,0.8213703,1.04071,0.74259734,-0.049185175,0.29199168,0.70061505,0.33002758,-0.099932946,0.094008,0.12923005,779.67035,790.54944,795.38464,784.90845,554.0293,-0.20440673828125,0.07244873046875,0.9864501953125,-0.979461669921875,-0.01495361328125,-0.321502685546875,1,1.0,1.0,1.0,1.0,10.00
2024-10-11 20:38:20.270,1.2274251,1.0761635,1.0566199,1.1934056,0.9390752,0.37402603,0.66663134,1.3197876,0.7603626,0.25009298,0.8213703,1.04071,0.74259734,-0.049185175,0.29199168,0.70061505,0.33002758,-0.099932946,0.094008,0.12923005,789.7436,789.34064,800.6227,788.5348,735.34796,-0.20452880859375,0.07281494140625,0.983642578125,-0.5084228515625,1.09161376953125,-2.310333251953125,1,1.0,1.0,1.0,1.0,10.00
2024-10-11 20:38:20.270,1.2274251,1.0761635,1.0566199,1.1934056,0.9390752,0.37402603,0.66663134,1.3197876,0.7603626,0.25009298,0.8213703,1.04071,0.74259734,-0.049185175,0.29199168,0.70061505,0.33002758,-0.099932946,0.094008,0.12923005,799.81683,793.36993,802.6374,801.02563,770.80585,-0.20452880859375,0.07281494140625,0.983642578125,-0.5084228515625,1.09161376953125,-2.310333251953125,1,1.0,1.0,1.0,1.0,10.00
2024-10-11 20:38:20.271,1.2274251,1.0761635,1.0566199,1.1934056,0.9390752,0.37402603,0.66663134,1.3197876,0.7603626,0.25009298,0.8213703,1.04071,0.74259734,-0.049185175,0.29199168,0.70061505,0.33002758,-0.099932946,0.094008,0.12923005,790.9524,793.7729,799.81683,793.7729,540.32965,-0.20452880859375,0.07281494140625,0.983642578125,-0.5084228515625,1.09161376953125,-2.310333251953125,1,1.0,1.0,1.0,1.0,10.00
2024-10-11 20:38:20.271,1.2274251,1.0761635,1.0566199,1.1934056,0.9390752,0.37402603,0.66663134,1.3197876,0.7603626,0.25009298,0.8213703,1.04071,0.74259734,-0.049185175,0.29199168,0.70061505,0.33002758,-0.099932946,0.094008,0.12923005,793.7729,791.3553,799.011,789.7436,543.95605,-0.20452880859375,0.07281494140625,0.983642578125,-0.5084228515625,1.09161376953125,-2.310333251953125,1,1.0,1.0,1.0,1.0,10.00
2024-10-11 20:38:20.272,1.2274251,1.0761635,1.0566199,1.1934056,0.9390752,0.37402603,0.66663134,1.3197876,0.7603626,0.25009298,0.8213703,1.04071,0.74259734,-0.049185175,0.29199168,0.70061505,0.33002758,-0.099932946,0.094008,0.12923005,809.0842,794.57874,804.65204,797.8022,786.9231,-0.20452880859375,0.07281494140625,0.983642578125,-0.5084228515625,1.09161376953125,-2.310333251953125,1,1.0,1.0,1.0,1.0,10.00
2024-10-11 20:38:20.272,1.2274251,1.0761635,1.0566199,1.1934056,0.9390752,0.37402603,0.66663134,1.3197876,0.7603626,0.25009298,0.8213703,1.04071,0.74259734,-0.049185175,0.29199168,0.70061505,0.33002758,-0.099932946,0.094008,0.12923005,806.26373,794.9817,804.65204,795.78754,1067.7656,-0.20452880859375,0.07281494140625,0.983642578125,-0.5084228515625,1.09161376953125,-2.310333251953125,1,1.0,1.0,1.0,1.0,10.00
2024-10-11 20:38:20.273,1.2274251,1.0761635,1.0566199,1.1934056,0.9390752,0.37402603,0.66663134,1.3197876,0.7603626,0.25009298,0.8213703,1.04071,0.74259734,-0.049185175,0.29199168,0.70061505,0.33002758,-0.099932946,0.094008,0.12923005,799.41394,790.9524,797.8022,788.1319,886.8498,-0.20452880859375,0.07281494140625,0.983642578125,-0.5084228515625,1.09161376953125,-2.310333251953125,1,1.0,1.0,1.0,1.0,10.00
2024-10-11 20:38:20.273,1.2274251,1.0761635,1.0566199,1.1934056,0.9390752,0.37402603,0.66663134,1.3197876,0.7603626,0.25009298,0.8213703,1.04071,0.74259734,-0.049185175,0.29199168,0.70061505,0.33002758,-0.099932946,0.094008,0.12923005,801.8315,788.5348,804.2491,791.75824,648.71796,-0.20452880859375,0.07281494140625,0.983642578125,-0.5084228515625,1.09161376953125,-2.310333251953125,1,1.0,1.0,1.0,1.0,10.00
2024-10-11 20:38:20.274,1.2274251,1.0761635,1.0566199,1.1934056,0.9390752,0.37402603,0.66663134,1.3197876,0.7603626,0.25009298,0.8213703,1.04071,0.74259734,-0.049185175,0.29199168,0.70061505,0.33002758,-0.099932946,0.094008,0.12923005,798.60803,790.54944,804.2491,792.1612,724.4689,-0.20452880859375,0.07281494140625,0.983642578125,-0.5084228515625,1.09161376953125,-2.310333251953125,1,1.0,1.0,1.0,1.0,10.00
2024-10-11 20:38:20.274,1.2274251,1.0761635,1.0566199,1.1934056,0.9390752,0.37402603,0.66663134,1.3197876,0.7603626,0.25009298,0.8213703,1.04071,0.74259734,-0.049185175,0.29199168,0.70061505,0.33002758,-0.099932946,0.094008,0.12923005,797.8022,791.3553,800.6227,794.17584,741.79486,-0.20452880859375,0.07281494140625,0.983642578125,-0.5084228515625,1.09161376953125,-2.310333251953125,1,1.0,1.0,1.0,1.0,10.00
2024-10-11 20:38:20.275,1.2274251,1.0761635,1.0566199,1.1934056,0.9390752,0.37402603,0.66663134,1.3197876,0.7603626,0.25009298,0.8213703,1.04071,0.74259734,-0.049185175,0.29199168,0.70061505,0.33002758,-0.099932946,0.094008,0.12923005,804.2491,796.5934,801.02563,796.5934,644.2857,-0.20452880859375,0.07281494140625,0.983642578125,-0.5084228515625,1.09161376953125,-2.310333251953125,1,1.0,1.0,1.0,1.0,10.00
2024-10-11 20:38:20.275,1.2274251,1.0761635,1.0566199,1.1934056,0.9390752,0.37402603,0.66663134,1.3197876,0.7603626,0.25009298,0.8213703,1.04071,0.74259734,-0.049185175,0.29199168,0.70061505,0.33002758,-0.099932946,0.094008,0.12923005,807.47253,795.78754,796.5934,801.4286,718.022,-0.20452880859375,0.07281494140625,0.983642578125,-0.5084228515625,1.09161376953125,-2.310333251953125,1,1.0,1.0,1.0,1.0,10.00
2024-10-11 20:38:20.296,1.2274251,1.0761635,1.0566199,1.1934056,0.9390752,0.37402603,0.66663134,1.3197876,0.7603626,0.25009298,0.8213703,1.04071,0.74259734,-0.049185175,0.29199168,0.70061505,0.33002758,-0.099932946,0.094008,0.12923005,809.4872,789.34064,800.2198,807.47253,643.0769,-0.201171875,0.067138671875,0.9879150390625,-0.366363525390625,1.42059326171875,-1.682281494140625,1,1.0,1.0,1.0,1.0,10.00
2024-10-11 20:38:20.297,1.2274251,1.0761635,1.0566199,1.1934056,0.9390752,0.37402603,0.66663134,1.3197876,0.7603626,0.25009298,0.8213703,1.04071,0.74259734,-0.049185175,0.29199168,0.70061505,0.33002758,-0.099932946,0.094008,0.12923005,801.8315,792.1612,802.6374,805.05493,534.2857,-0.201171875,0.067138671875,0.9879150390625,-0.366363525390625,1.42059326171875,-1.682281494140625,1,1.0,1.0,1.0,1.0,10.00
2024-10-11 20:38:20.298,1.2274251,1.0761635,1.0566199,1.1934056,0.9390752,0.37402603,0.66663134,1.3197876,0.7603626,0.25009298,0.8213703,1.04071,0.74259734,-0.049185175,0.29199168,0.70061505,0.33002758,-0.099932946,0.094008,0.12923005,811.9048,801.4286,809.0842,801.4286,531.8681,-0.201171875,0.067138671875,0.9879150390625,-0.366363525390625,1.42059326171875,-1.682281494140625,1,1.0,1.0,1.0,1.0,10.00
2024-10-11 20:38:20.298,1.2274251,1.0761635,1.0566199,1.1934056,0.9390752,0.37402603,0.66663134,1.3197876,0.7603626,0.25009298,0.8213703,1.04071,0.74259734,-0.049185175,0.29199168,0.70061505,0.33002758,-0.099932946,0.094008,0.12923005,823.9927,806.6667,811.9048,809.0842,654.7619,-0.201171875,0.067138671875,0.9879150390625,-0.366363525390625,1.42059326171875,-1.682281494140625,1,1.0,1.0,1.0,1.0,10.00
2024-10-11 20:38:20.299,1.2274251,1.0761635,1.0566199,1.1934056,0.9390752,0.37402603,0.66663134,1.3197876,0.7603626,0.25009298,0.8213703,1.04071,0.74259734,-0.049185175,0.29199168,0.70061505,0.33002758,-0.099932946,0.094008,0.12923005,799.41394,796.99634,806.26373,812.71063,764.35895,-0.201171875,0.067138671875,0.9879150390625,-0.366363525390625,1.42059326171875,-1.682281494140625,1,1.0,1.0,1.0,1.0,10.00
2024-10-11 20:38:20.299,1.2274251,1.1150918,1.0484614,1.1934056,0.9390752,0.41302535,0.66258454,1.3197876,0.7603626,0.25009298,0.8213703,1.04071,0.74259734,-0.06708563,0.31388685,0.70061505,0.33002758,-0.08825473,0.10590186,0.12923005,786.1172,789.34064,798.20514,801.02563,745.42126,-0.201171875,0.067138671875,0.9879150390625,-0.366363525390625,1.42059326171875,-1.682281494140625,1,1.0,1.0,1.0,1.0,10.00
2024-10-11 20:38:20.303,1.2274251,1.1150918,1.0484614,1.1934056,0.9390752,0.41302535,0.66258454,1.3197876,0.7603626,0.25009298,0.8213703,1.04071,0.74259734,-0.06708563,0.31388685,0.70061505,0.33002758,-0.08825473,0.10590186,0.12923005,790.54944,788.1319,792.96704,788.93774,629.7802,-0.201171875,0.067138671875,0.9879150390625,-0.366363525390625,1.42059326171875,-1.682281494140625,1,1.0,1.0,1.0,1.0,10.00
2024-10-11 20:38:20.304,1.2274251,1.1150918,1.0484614,1.1934056,0.9390752,0.41302535,0.66258454,1.3197876,0.7603626,0.25009298,0.8213703,1.04071,0.74259734,-0.06708563,0.31388685,0.70061505,0.33002758,-0.08825473,0.10590186,0.12923005,795.38464,789.34064,795.78754,789.7436,664.83514,-0.201171875,0.067138671875,0.9879150390625,-0.366363525390625,1.42059326171875,-1.682281494140625,1,1.0,1.0,1.0,1.0,10.00
2024-10-11 20:38:20.304,1.2274251,1.1150918,1.0484614,1.1934056,0.9390752,0.41302535,0.66258454,1.3197876,0.7603626,0.25009298,0.8213703,1.04071,0.74259734,-0.06708563,0.31388685,0.70061505,0.33002758,-0.08825473,0.10590186,0.12923005,799.81683,795.38464,802.6374,798.60803,878.3883,-0.201171875,0.067138671875,0.9879150390625,-0.366363525390625,1.42059326171875,-1.682281494140625,1,1.0,1.0,1.0,1.0,10.00
2024-10-11 20:38:20.305,1.2274251,1.1150918,1.0484614,1.1934056,0.9390752,0.41302535,0.66258454,1.3197876,0.7603626,0.25009298,0.8213703,1.04071,0.74259734,-0.06708563,0.31388685,0.70061505,0.33002758,-0.08825473,0.10590186,0.12923005,797.8022,795.78754,804.65204,795.38464,666.8498,-0.201171875,0.067138671875,0.9879150390625,-0.366363525390625,1.42059326171875,-1.682281494140625,1,1.0,1.0,1.0,1.0,10.00
2024-10-11 20:38:20.305,1.2274251,1.1150918,1.0484614,1.1934056,0.9390752,0.41302535,0.66258454,1.3197876,0.7603626,0.25009298,0.8213703,1.04071,0.74259734,-0.06708563,0.31388685,0.70061505,0.33002758,-0.08825473,0.10590186,0.12923005,792.5641,796.99634,800.2198,796.1905,460.54944,-0.201171875,0.067138671875,0.9879150390625,-0.366363525390625,1.42059326171875,-1.682281494140625,1,1.0,1.0,1.0,1.0,10.00
2024-10-11 20:38:20.306,1.2274251,1.1150918,1.0484614,1.1934056,0.9390752,0.41302535,0.66258454,1.3197876,0.7603626,0.25009298,0.8213703,1.04071,0.74259734,-0.06708563,0.31388685,0.70061505,0.33002758,-0.08825473,0.10590186,0.12923005,793.36993,795.78754,804.65204,801.8315,600.3663,-0.201171875,0.067138671875,0.9879150390625,-0.366363525390625,1.42059326171875,-1.682281494140625,1,1.0,1.0,1.0,1.0,10.00
2024-10-11 20:38:20.306,1.2274251,1.1150918,1.0484614,1.1934056,0.9390752,0.41302535,0.66258454,1.3197876,0.7603626,0.25009298,0.8213703,1.04071,0.74259734,-0.06708563,0.31388685,0.70061505,0.33002758,-0.08825473,0.10590186,0.12923005,812.3077,799.011,805.4579,805.8608,763.95605,-0.20013427734375,0.06634521484375,0.98333740234375,0.73272705078125,0.231781005859375,0.874786376953125,1,1.0,1.0,1.0,1.0,10.00
2024-10-11 20:38:20.307,1.2274251,1.1150918,1.0484614,1.1934056,0.9390752,0.41302535,0.66258454,1.3197876,0.7603626,0.25009298,0.8213703,1.04071,0.74259734,-0.06708563,0.31388685,0.70061505,0.33002758,-0.08825473,0.10590186,0.12923005,823.1868,805.4579,798.60803,807.8755,657.5824,-0.20013427734375,0.06634521484375,0.98333740234375,0.73272705078125,0.231781005859375,0.874786376953125,1,1.0,1.0,1.0,1.0,10.00
2024-10-11 20:38:20.307,1.2274251,1.1150918,1.0484614,1.1934056,0.9390752,0.41302535,0.66258454,1.3197876,0.7603626,0.25009298,0.8213703,1.04071,0.74259734,-0.06708563,0.31388685,0.70061505,0.33002758,-0.08825473,0.10590186,0.12923005,799.011,802.23444,801.02563,811.9048,516.9597,-0.20013427734375,0.06634521484375,0.98333740234375,0.73272705078125,0.231781005859375,0.874786376953125,1,1.0,1.0,1.0,1.0,10.00
2024-10-11 20:38:20.308,1.2274251,1.1150918,1.0484614,1.1934056,0.9390752,0.41302535,0.66258454,1.3197876,0.7603626,0.25009298,0.8213703,1.04071,0.74259734,-0.06708563,0.31388685,0.70061505,0.33002758,-0.08825473,0.10590186,0.12923005,790.9524,800.2198,803.44324,809.4872,612.4542,-0.20013427734375,0.06634521484375,0.98333740234375,0.73272705078125,0.231781005859375,0.874786376953125,1,1.0,1.0,1.0,1.0,10.00
2024-10-11 20:38:20.308,1.2274251,1.1150918,1.0484614,1.1934056,0.9390752,0.41302535,0.66258454,1.3197876,0.7603626,0.25009298,0.8213703,1.04071,0.74259734,-0.06708563,0.31388685,0.70061505,0.33002758,-0.08825473,0.10590186,0.12923005,799.81683,802.23444,801.4286,799.41394,675.31134,-0.20013427734375,0.06634521484375,0.98333740234375,0.73272705078125,0.231781005859375,0.874786376953125,1,1.0,1.0,1.0,1.0,10.00
2024-10-11 20:38:20.309,1.2274251,1.1150918,1.0484614,1.1934056,0.9390752,0.41302535,0.66258454,1.3197876,0.7603626,0.25009298,0.8213703,1.04071,0.74259734,-0.06708563,0.31388685,0.70061505,0.33002758,-0.08825473,0.10590186,0.12923005,808.2784,804.65204,810.293,800.2198,579.81683,-0.20013427734375,0.06634521484375,0.98333740234375,0.73272705078125,0.231781005859375,0.874786376953125,1,1.0,1.0,1.0,1.0,10.00
2024-10-11 20:38:20.309,1.2274251,1.1150918,1.0484614,1.1934056,0.9390752,0.41302535,0.66258454,1.3197876,0.7603626,0.25009298,0.8213703,1.04071,0.74259734,-0.06708563,0.31388685,0.70061505,0.33002758,-0.08825473,0.10590186,0.12923005,813.91943,805.4579,811.50183,797.3993,700.293,-0.20013427734375,0.06634521484375,0.98333740234375,0.73272705078125,0.231781005859375,0.874786376953125,1,1.0,1.0,1.0,1.0,10.00
2024-10-11 20:38:20.310,1.2274251,1.1150918,1.0484614,1.1934056,0.9390752,0.41302535,0.66258454,1.3197876,0.7603626,0.25009298,0.8213703,1.04071,0.74259734,-0.06708563,0.31388685,0.70061505,0.33002758,-0.08825473,0.10590186,0.12923005,803.44324,803.44324,804.2491,790.9524,849.7802,-0.20013427734375,0.06634521484375,0.98333740234375,0.73272705078125,0.231781005859375,0.874786376953125,1,1.0,1.0,1.0,1.0,10.00
2024-10-11 20:38:20.310,1.2274251,1.1150918,1.0484614,1.1934056,0.9390752,0.41302535,0.66258454,1.3197876,0.7603626,0.25009298,0.8213703,1.04071,0.74259734,-0.06708563,0.31388685,0.70061505,0.33002758,-0.08825473,0.10590186,0.12923005,792.5641,798.60803,794.57874,799.011,1096.7766,-0.20013427734375,0.06634521484375,0.98333740234375,0.73272705078125,0.231781005859375,0.874786376953125,1,1.0,1.0,1.0,1.0,10.00
2024-10-11 20:38:20.311,1.2274251,1.1150918,1.0484614,1.1934056,0.9390752,0.41302535,0.66258454,1.3197876,0.7603626,0.25009298,0.8213703,1.04071,0.74259734,-0.06708563,0.31388685,0.70061505,0.33002758,-0.08825473,0.10590186,0.12923005,800.6227,798.20514,796.99634,806.6667,1154.7986,-0.20013427734375,0.06634521484375,0.98333740234375,0.73272705078125,0.231781005859375,0.874786376953125,1,1.0,1.0,1.0,1.0,10.00
2024-10-11 20:38:20.311,1.2274251,1.1150918,1.0484614,1.1934056,0.9390752,0.41302535,0.66258454,1.3197876,0.7603626,0.25009298,0.8213703,1.04071,0.74259734,-0.06708563,0.31388685,0.70061505,0.33002758,-0.08825473,0.10590186,0.12923005,804.65204,799.41394,800.6227,796.5934,973.0769,-0.20013427734375,0.06634521484375,0.98333740234375,0.73272705078125,0.231781005859375,0.874786376953125,1,1.0,1.0,1.0,1.0,10.00
2024-10-11 20:38:20.312,1.2274251,1.1150918,1.0484614,1.1934056,0.9390752,0.41302535,0.66258454,1.3197876,0.7603626,0.25009298,0.8213703,1.04071,0.74259734,-0.06708563,0.31388685,0.70061505,0.33002758,-0.08825473,0.10590186,0.12923005,791.75824,798.20514,801.8315,788.5348,669.2674,-0.20013427734375,0.06634521484375,0.98333740234375,0.73272705078125,0.231781005859375,0.874786376953125,1,1.0,1.0,1.0,1.0,10.00
2024-10-11 20:38:20.428,1.2274251,1.1150918,1.0484614,1.1934056,0.9390752,0.41302535,0.66258454,1.3197876,0.7603626,0.25009298,0.8213703,1.04071,0.74259734,-0.06708563,0.31388685,0.70061505,0.33002758,-0.08825473,0.10590186,0.12923005,799.011,796.5934,804.65204,793.36993,491.5751,-0.20013427734375,0.06634521484375,0.98333740234375,0.73272705078125,0.231781005859375,0.874786376953125,1,1.0,1.0,1.0,1.0,10.00
2024-10-11 20:38:20.428,1.2274251,1.1150918,1.0484614,1.1934056,0.9390752,0.41302535,0.66258454,1.3197876,0.7603626,0.25009298,0.8213703,1.04071,0.74259734,-0.06708563,0.31388685,0.70061505,0.33002758,-0.08825473,0.10590186,0.12923005,799.41394,796.5934,803.0403,800.2198,469.011,-0.20013427734375,0.06634521484375,0.98333740234375,0.73272705078125,0.231781005859375,0.874786376953125,1,1.0,1.0,1.0,1.0,10.00
2024-10-11 20:38:20.429,1.2274251,1.1150918,1.0484614,1.1934056,0.9390752,0.41302535,0.66258454,1.3197876,0.7603626,0.25009298,0.8213703,1.04071,0.74259734,-0.06708563,0.31388685,0.70061505,0.33002758,-0.08825473,0.10590186,0.12923005,801.8315,790.9524,803.8461,807.0696,516.9597,-0.20013427734375,0.06634521484375,0.98333740234375,0.73272705078125,0.231781005859375,0.874786376953125,1,1.0,1.0,1.0,1.0,10.00
2024-10-11 20:38:20.430,1.2274251,1.1150918,1.0484614,1.1934056,0.9390752,0.41302535,0.66258454,1.3197876,0.7603626,0.25009298,0.8213703,1.04071,0.74259734,-0.06708563,0.31388685,0.70061505,0.33002758,-0.08825473,0.10590186,0.12923005,810.293,796.99634,802.23444,809.0842,534.2857,-0.20013427734375,0.06634521484375,0.98333740234375,0.73272705078125,0.231781005859375,0.874786376953125,1,1.0,1.0,1.0,1.0,10.00
2024-10-11 20:38:20.430,1.2274251,1.1150918,1.0484614,1.1934056,0.9390752,0.41302535,0.66258454,1.3197876,0.7603626,0.25009298,0.8213703,1.04071,0.74259734,-0.06708563,0.31388685,0.70061505,0.33002758,-0.08825473,0.10590186,0.12923005,790.9524,801.4286,796.1905,808.68134,647.9121,-0.20013427734375,0.06634521484375,0.98333740234375,0.73272705078125,0.231781005859375,0.874786376953125,1,1.0,1.0,1.0,1.0,10.00
2024-10-11 20:38:20.431,1.2274251,1.1150918,1.0484614,1.1934056,0.9390752,0.41302535,0.66258454,1.3197876,0.7603626,0.25009298,0.8213703,1.04071,0.74259734,-0.06708563,0.31388685,0.70061505,0.33002758,-0.08825473,0.10590186,0.12923005,784.90845,792.5641,803.8461,810.696,637.8388,-0.20013427734375,0.06634521484375,0.98333740234375,0.73272705078125,0.231781005859375,0.874786376953125,1,1.0,1.0,1.0,1.0,10.00
2024-10-11 20:38:20.431,1.2274251,1.1150918,1.0484614,1.1934056,0.9390752,0.41302535,0.66258454,1.3197876,0.7603626,0.25009298,0.8213703,1.04071,0.74259734,-0.06708563,0.31388685,0.70061505,0.33002758,-0.08825473,0.10590186,0.12923005,786.9231,789.34064,800.2198,812.71063,700.696,-0.20013427734375,0.06634521484375,0.98333740234375,0.73272705078125,0.231781005859375,0.874786376953125,1,1.0,1.0,1.0,1.0,10.00
2024-10-11 20:38:20.432,1.2274251,1.1436411,1.0306579,1.1934056,0.9390752,0.45132932,0.646374,1.3197876,0.7603626,0.25009298,0.8213703,1.04071,0.74259734,-0.09021469,0.3286287,0.70061505,0.33002758,-0.071659744,0.10258997,0.12923005,781.28204,790.9524,793.7729,814.3223,779.67035,-0.20013427734375,0.06634521484375,0.98333740234375,0.73272705078125,0.231781005859375,0.874786376953125,1,1.0,1.0,1.0,1.0,10.00
2024-10-11 20:38:20.436,1.2274251,1.1436411,1.0306579,1.1934056,0.9390752,0.45132932,0.646374,1.3197876,0.7603626,0.25009298,0.8213703,1.04071,0.74259734,-0.09021469,0.3286287,0.70061505,0.33002758,-0.071659744,0.10258997,0.12923005,790.14655,793.36993,801.02563,808.2784,514.1392,-0.20013427734375,0.06634521484375,0.98333740234375,0.73272705078125,0.231781005859375,0.874786376953125,1,1.0,1.0,1.0,1.0,10.00
2024-10-11 20:38:20.437,1.2274251,1.1436411,1.0306579,1.1934056,0.9390752,0.45132932,0.646374,1.3197876,0.7603626,0.25009298,0.8213703,1.04071,0.74259734,-0.09021469,0.3286287,0.70061505,0.33002758,-0.071659744,0.10258997,0.12923005,786.9231,797.8022,804.2491,807.47253,328.7912,-0.20013427734375,0.06634521484375,0.98333740234375,0.73272705078125,0.231781005859375,0.874786376953125,1,1.0,1.0,1.0,1.0,10.00
2024-10-11 20:38:20.438,1.2274251,1.1436411,1.0306579,1.1934056,0.9390752,0.45132932,0.646374,1.3197876,0.7603626,0.25009298,0.8213703,1.04071,0.74259734,-0.09021469,0.3286287,0.70061505,0.33002758,-0.071659744,0.10258997,0.12923005,779.67035,796.5934,796.1905,809.0842,490.76923,-0.20013427734375,0.06634521484375,0.98333740234375,0.73272705078125,0.231781005859375,0.874786376953125,1,1.0,1.0,1.0,1.0,10.00
2024-10-11 20:38:20.439,1.2274251,1.1436411,1.0306579,1.1934056,0.9390752,0.45132932,0.646374,1.3197876,0.7603626,0.25009298,0.8213703,1.04071,0.74259734,-0.09021469,0.3286287,0.70061505,0.33002758,-0.071659744,0.10258997,0.12923005,788.93774,792.1612,794.17584,803.8461,729.304,-0.20013427734375,0.06634521484375,0.98333740234375,0.73272705078125,0.231781005859375,0.874786376953125,1,1.0,1.0,1.0,1.0,10.00
2024-10-11 20:38:20.499,1.2274251,1.1436411,1.0306579,1.1934056,0.9390752,0.45132932,0.646374,1.3197876,0.7603626,0.25009298,0.8213703,1.04071,0.74259734,-0.09021469,0.3286287,0.70061505,0.33002758,-0.071659744,0.10258997,0.12923005,784.10254,794.9817,800.6227,796.99634,518.1685,-0.20330810546875,0.08251953125,0.98846435546875,1.4654541015625,-0.127105712890625,1.89910888671875,1,1.0,1.0,1.0,1.0,10.00
2024-10-11 20:38:20.500,1.2274251,1.1436411,1.0306579,1.1934056,0.9390752,0.45132932,0.646374,1.3197876,0.7603626,0.25009298,0.8213703,1.04071,0.74259734,-0.09021469,0.3286287,0.70061505,0.33002758,-0.071659744,0.10258997,0.12923005,776.4469,791.3553,799.81683,798.20514,401.3187,-0.20330810546875,0.08251953125,0.98846435546875,1.4654541015625,-0.127105712890625,1.89910888671875,1,1.0,1.0,1.0,1.0,10.00
2024-10-11 20:38:20.501,1.2274251,1.1436411,1.0306579,1.1934056,0.9390752,0.45132932,0.646374,1.3197876,0.7603626,0.25009298,0.8213703,1.04071,0.74259734,-0.09021469,0.3286287,0.70061505,0.33002758,-0.071659744,0.10258997,0.12923005,785.7143,787.72894,794.9817,798.20514,655.16486,-0.20330810546875,0.08251953125,0.98846435546875,1.4654541015625,-0.127105712890625,1.89910888671875,1,1.0,1.0,1.0,1.0,10.00
2024-10-11 20:38:20.501,1.2274251,1.1436411,1.0306579,1.1934056,0.9390752,0.45132932,0.646374,1.3197876,0.7603626,0.25009298,0.8213703,1.04071,0.74259734,-0.09021469,0.3286287,0.70061505,0.33002758,-0.071659744,0.10258997,0.12923005,792.1612,793.36993,799.81683,805.8608,966.2271,-0.20330810546875,0.08251953125,0.98846435546875,1.4654541015625,-0.127105712890625,1.89910888671875,1,1.0,1.0,1.0,1.0,10.00
2024-10-11 20:38:20.502,1.2274251,1.1436411,1.0306579,1.1934056,0.9390752,0.45132932,0.646374,1.3197876,0.7603626,0.25009298,0.8213703,1.04071,0.74259734,-0.09021469,0.3286287,0.70061505,0.33002758,-0.071659744,0.10258997,0.12923005,789.7436,797.8022,800.6227,807.47253,656.77655,-0.20330810546875,0.08251953125,0.98846435546875,1.4654541015625,-0.127105712890625,1.89910888671875,1,1.0,1.0,1.0,1.0,10.00
2024-10-11 20:38:20.502,1.2274251,1.1436411,1.0306579,1.1934056,0.9390752,0.45132932,0.646374,1.3197876,0.7603626,0.25009298,0.8213703,1.04071,0.74259734,-0.09021469,0.3286287,0.70061505,0.33002758,-0.071659744,0.10258997,0.12923005,796.1905,798.20514,799.011,797.3993,472.23444,-0.20330810546875,0.08251953125,0.98846435546875,1.4654541015625,-0.127105712890625,1.89910888671875,1,1.0,1.0,1.0,1.0,10.00
2024-10-11 20:38:20.503,1.2274251,1.1436411,1.0306579,1.1934056,0.9390752,0.45132932,0.646374,1.3197876,0.7603626,0.25009298,0.8213703,1.04071,0.74259734,-0.09021469,0.3286287,0.70061505,0.33002758,-0.071659744,0.10258997,0.12923005,801.4286,794.17584,796.99634,792.96704,633.4066,-0.20330810546875,0.08251953125,0.98846435546875,1.4654541015625,-0.127105712890625,1.89910888671875,1,1.0,1.0,1.0,1.0,10.00
2024-10-11 20:38:20.504,1.2274251,1.1436411,1.0306579,1.1934056,0.9390752,0.45132932,0.646374,1.3197876,0.7603626,0.25009298,0.8213703,1.04071,0.74259734,-0.09021469,0.3286287,0.70061505,0.33002758,-0.071659744,0.10258997,0.12923005,793.7729,795.78754,794.57874,796.99634,638.24176,-0.20330810546875,0.08251953125,0.98846435546875,1.4654541015625,-0.127105712890625,1.89910888671875,1,1.0,1.0,1.0,1.0,10.00
2024-10-11 20:38:20.504,1.2274251,1.1436411,1.0306579,1.1934056,0.9390752,0.45132932,0.646374,1.3197876,0.7603626,0.25009298,0.8213703,1.04071,0.74259734,-0.09021469,0.3286287,0.70061505,0.33002758,-0.071659744,0.10258997,0.12923005,788.1319,798.60803,800.2198,793.7729,403.73627,-0.20330810546875,0.08251953125,0.98846435546875,1.4654541015625,-0.127105712890625,1.89910888671875,1,1.0,1.0,1.0,1.0,10.00
2024-10-11 20:38:20.505,1.2274251,1.1436411,1.0306579,1.1934056,0.9390752,0.45132932,0.646374,1.3197876,0.7603626,0.25009298,0.8213703,1.04071,0.74259734,-0.09021469,0.3286287,0.70061505,0.33002758,-0.071659744,0.10258997,0.12923005,795.38464,803.0403,805.05493,795.78754,330.40292,-0.20330810546875,0.08251953125,0.98846435546875,1.4654541015625,-0.127105712890625,1.89910888671875,1,1.0,1.0,1.0,1.0,10.00
2024-10-11 20:38:20.506,1.2274251,1.1436411,1.0306579,1.1934056,0.9390752,0.45132932,0.646374,1.3197876,0.7603626,0.25009298,0.8213703,1.04071,0.74259734,-0.09021469,0.3286287,0.70061505,0.33002758,-0.071659744,0.10258997,0.12923005,805.05493,803.8461,803.0403,807.8755,602.7839,-0.20330810546875,0.08251953125,0.98846435546875,1.4654541015625,-0.127105712890625,1.89910888671875,1,1.0,1.0,1.0,1.0,10.00
2024-10-11 20:38:20.507,1.2274251,1.1436411,1.0306579,1.1934056,0.9390752,0.45132932,0.646374,1.3197876,0.7603626,0.25009298,0.8213703,1.04071,0.74259734,-0.09021469,0.3286287,0.70061505,0.33002758,-0.071659744,0.10258997,0.12923005,813.91943,800.2198,800.2198,803.8461,645.89746,-0.20330810546875,0.08251953125,0.98846435546875,1.4654541015625,-0.127105712890625,1.89910888671875,1,1.0,1.0,1.0,1.0,10.00
2024-10-11 20:38:20.634,1.2274251,1.1436411,1.0306579,1.1934056,0.9390752,0.45132932,0.646374,1.3197876,0.7603626,0.25009298,0.8213703,1.04071,0.74259734,-0.09021469,0.3286287,0.70061505,0.33002758,-0.071659744,0.10258997,0.12923005,811.50183,801.4286,803.0403,803.8461,464.1758,-0.20635986328125,0.08465576171875,0.99072265625,0.31402587890625,0.560760498046875,1.2261962890625,1,1.0,1.0,1.0,1.0,10.00
2024-10-11 20:38:20.635,1.2274251,1.1436411,1.0306579,1.1934056,0.9390752,0.45132932,0.646374,1.3197876,0.7603626,0.25009298,0.8213703,1.04071,0.74259734,-0.09021469,0.3286287,0.70061505,0.33002758,-0.071659744,0.10258997,0.12923005,790.9524,800.2198,805.4579,801.02563,409.7802,-0.20635986328125,0.08465576171875,0.99072265625,0.31402587890625,0.560760498046875,1.2261962890625,1,1.0,1.0,1.0,1.0,10.00
2024-10-11 20:38:20.636,1.2274251,1.1436411,1.0306579,1.1934056,0.9390752,0.45132932,0.646374,1.3197876,0.7603626,0.25009298,0.8213703,1.04071,0.74259734,-0.09021469,0.3286287,0.70061505,0.33002758,-0.071659744,0.10258997,0.12923005,789.34064,799.011,792.5641,791.75824,582.23444,-0.20635986328125,0.08465576171875,0.99072265625,0.31402587890625,0.560760498046875,1.2261962890625,1,1.0,1.0,1.0,1.0,10.00
2024-10-11 20:38:20.636,1.2274251,1.1436411,1.0306579,1.1934056,0.9390752,0.45132932,0.646374,1.3197876,0.7603626,0.25009298,0.8213703,1.04071,0.74259734,-0.09021469,0.3286287,0.70061505,0.33002758,-0.071659744,0.10258997,0.12923005,794.57874,799.011,790.14655,788.93774,547.98535,-0.20635986328125,0.08465576171875,0.99072265625,0.31402587890625,0.560760498046875,1.2261962890625,1,1.0,1.0,1.0,1.0,10.00
2024-10-11 20:38:20.637,1.2274251,1.1436411,1.0306579,1.1934056,0.9390752,0.45132932,0.646374,1.3197876,0.7603626,0.25009298,0.8213703,1.04071,0.74259734,-0.09021469,0.3286287,0.70061505,0.33002758,-0.071659744,0.10258997,0.12923005,789.34064,796.99634,795.38464,788.5348,372.71063,-0.20635986328125,0.08465576171875,0.99072265625,0.31402587890625,0.560760498046875,1.2261962890625,1,1.0,1.0,1.0,1.0,10.00
2024-10-11 20:38:20.638,1.2274251,1.1436411,1.0306579,1.1934056,0.9390752,0.45132932,0.646374,1.3197876,0.7603626,0.25009298,0.8213703,1.04071,0.74259734,-0.09021469,0.3286287,0.70061505,0.33002758,-0.071659744,0.10258997,0.12923005,794.17584,796.1905,790.14655,797.3993,519.3773,-0.20635986328125,0.08465576171875,0.99072265625,0.31402587890625,0.560760498046875,1.2261962890625,1,1.0,1.0,1.0,1.0,10.00
2024-10-11 20:38:20.638,1.2274251,1.1436411,1.0306579,1.1934056,0.9390752,0.45132932,0.646374,1.3197876,0.7603626,0.25009298,0.8213703,1.04071,0.74259734,-0.09021469,0.3286287,0.70061505,0.33002758,-0.071659744,0.10258997,0.12923005,796.5934,792.5641,796.1905,797.3993,784.5055,-0.20635986328125,0.08465576171875,0.99072265625,0.31402587890625,0.560760498046875,1.2261962890625,1,1.0,1.0,1.0,1.0,10.00
2024-10-11 20:38:20.639,1.2274251,1.1436411,1.0306579,1.1934056,0.9390752,0.45132932,0.646374,1.3197876,0.7603626,0.25009298,0.8213703,1.04071,0.74259734,-0.09021469,0.3286287,0.70061505,0.33002758,-0.071659744,0.10258997,0.12923005,805.8608,799.81683,805.4579,802.23444,610.4396,-0.20635986328125,0.08465576171875,0.99072265625,0.31402587890625,0.560760498046875,1.2261962890625,1,1.0,1.0,1.0,1.0,10.00
2024-10-11 20:38:20.639,1.2274251,1.1436411,1.0306579,1.1934056,0.9390752,0.45132932,0.646374,1.3197876,0.7603626,0.25009298,0.8213703,1.04071,0.74259734,-0.09021469,0.3286287,0.70061505,0.33002758,-0.071659744,0.10258997,0.12923005,808.2784,799.81683,802.6374,804.65204,370.29303,-0.20635986328125,0.08465576171875,0.99072265625,0.31402587890625,0.560760498046875,1.2261962890625,1,1.0,1.0,1.0,1.0,10.00
2024-10-11 20:38:20.640,1.3037764,1.1653696,1.0005563,1.1934056,0.97988075,0.48647484,0.6138123,1.3197876,0.7249275,0.25009298,0.8213703,1.04071,0.7250918,-0.115188755,0.34124893,0.70061505,0.31969947,-0.06474446,0.096972585,0.12923005,791.75824,797.8022,799.011,796.5934,558.0586,-0.20635986328125,0.08465576171875,0.99072265625,0.31402587890625,0.560760498046875,1.2261962890625,1,1.0,1.0,1.0,1.0,10.00
2024-10-11 20:38:20.645,1.3037764,1.1653696,1.0005563,1.1934056,0.97988075,0.48647484,0.6138123,1.3197876,0.7249275,0.25009298,0.8213703,1.04071,0.7250918,-0.115188755,0.34124893,0.70061505,0.31969947,-0.06474446,0.096972585,0.12923005,784.10254,802.23444,795.78754,796.5934,660.80585,-0.20635986328125,0.08465576171875,0.99072265625,0.31402587890625,0.560760498046875,1.2261962890625,1,1.0,1.0,1.0,1.0,10.00
2024-10-11 20:38:20.645,1.3037764,1.1653696,1.0005563,1.1934056,0.97988075,0.48647484,0.6138123,1.3197876,0.7249275,0.25009298,0.8213703,1.04071,0.7250918,-0.115188755,0.34124893,0.70061505,0.31969947,-0.06474446,0.096972585,0.12923005,785.31134,799.41394,796.5934,805.05493,437.98535,-0.20635986328125,0.08465576171875,0.99072265625,0.31402587890625,0.560760498046875,1.2261962890625,1,1.0,1.0,1.0,1.0,10.00
2024-10-11 20:38:20.768,1.3037764,1.1653696,1.0005563,1.1934056,0.97988075,0.48647484,0.6138123,1.3197876,0.7249275,0.25009298,0.8213703,1.04071,0.7250918,-0.115188755,0.34124893,0.70061505,0.31969947,-0.06474446,0.096972585,0.12923005,794.17584,794.17584,794.17584,804.65204,324.35898,-0.181396484375,0.09625244140625,0.98468017578125,1.83929443359375,-0.276641845703125,2.10845947265625,1,1.0,1.0,1.0,1.0,10.00
2024-10-11 20:38:20.769,1.3037764,1.1653696,1.0005563,1.1934056,0.97988075,0.48647484,0.6138123,1.3197876,0.7249275,0.25009298,0.8213703,1.04071,0.7250918,-0.115188755,0.34124893,0.70061505,0.31969947,-0.06474446,0.096972585,0.12923005,797.3993,793.36993,793.7729,808.2784,498.4249,-0.181396484375,0.09625244140625,0.98468017578125,1.83929443359375,-0.276641845703125,2.10845947265625,1,1.0,1.0,1.0,1.0,10.00
2024-10-11 20:38:20.770,1.3037764,1.1653696,1.0005563,1.1934056,0.97988075,0.48647484,0.6138123,1.3197876,0.7249275,0.25009298,0.8213703,1.04071,0.7250918,-0.115188755,0.34124893,0.70061505,0.31969947,-0.06474446,0.096972585,0.12923005,795.78754,802.23444,797.8022,811.9048,612.8571,-0.181396484375,0.09625244140625,0.98468017578125,1.83929443359375,-0.276641845703125,2.10845947265625,1,1.0,1.0,1.0,1.0,10.00
2024-10-11 20:38:20.771,1.3037764,1.1653696,1.0005563,1.1934056,0.97988075,0.48647484,0.6138123,1.3197876,0.7249275,0.25009298,0.8213703,1.04071,0.7250918,-0.115188755,0.34124893,0.70061505,0.31969947,-0.06474446,0.096972585,0.12923005,809.0842,800.2198,799.41394,801.02563,489.56042,-0.181396484375,0.09625244140625,0.98468017578125,1.83929443359375,-0.276641845703125,2.10845947265625,1,1.0,1.0,1.0,1.0,10.00
2024-10-11 20:38:20.771,1.3037764,1.1653696,1.0005563,1.1934056,0.97988075,0.48647484,0.6138123,1.3197876,0.7249275,0.25009298,0.8213703,1.04071,0.7250918,-0.115188755,0.34124893,0.70061505,0.31969947,-0.06474446,0.096972585,0.12923005,810.293,797.3993,797.8022,803.44324,427.10623,-0.181396484375,0.09625244140625,0.98468017578125,1.83929443359375,-0.276641845703125,2.10845947265625,1,1.0,1.0,1.0,1.0,10.00
2024-10-11 20:38:20.772,1.3037764,1.1653696,1.0005563,1.1934056,0.97988075,0.48647484,0.6138123,1.3197876,0.7249275,0.25009298,0.8213703,1.04071,0.7250918,-0.115188755,0.34124893,0.70061505,0.31969947,-0.06474446,0.096972585,0.12923005,801.02563,801.8315,796.99634,807.47253,665.2381,-0.181396484375,0.09625244140625,0.98468017578125,1.83929443359375,-0.276641845703125,2.10845947265625,1,1.0,1.0,1.0,1.0,10.00
2024-10-11 20:38:20.772,1.3037764,1.1653696,1.0005563,1.1934056,0.97988075,0.48647484,0.6138123,1.3197876,0.7249275,0.25009298,0.8213703,1.04071,0.7250918,-0.115188755,0.34124893,0.70061505,0.31969947,-0.06474446,0.096972585,0.12923005,794.9817,800.2198,802.6374,800.2198,675.7143,-0.181396484375,0.09625244140625,0.98468017578125,1.83929443359375,-0.276641845703125,2.10845947265625,1,1.0,1.0,1.0,1.0,10.00
2024-10-11 20:38:20.773,1.3037764,1.1653696,1.0005563,1.1934056,0.97988075,0.48647484,0.6138123,1.3197876,0.7249275,0.25009298,0.8213703,1.04071,0.7250918,-0.115188755,0.34124893,0.70061505,0.31969947,-0.06474446,0.096972585,0.12923005,799.011,801.4286,799.81683,798.60803,433.15018,-0.181396484375,0.09625244140625,0.98468017578125,1.83929443359375,-0.276641845703125,2.10845947265625,1,1.0,1.0,1.0,1.0,10.00
2024-10-11 20:38:20.773,1.3037764,1.1653696,1.0005563,1.1934056,0.97988075,0.48647484,0.6138123,1.3197876,0.7249275,0.25009298,0.8213703,1.04071,0.7250918,-0.115188755,0.34124893,0.70061505,0.31969947,-0.06474446,0.096972585,0.12923005,806.6667,801.02563,798.60803,800.6227,438.7912,-0.181396484375,0.09625244140625,0.98468017578125,1.83929443359375,-0.276641845703125,2.10845947265625,1,1.0,1.0,1.0,1.0,10.00
2024-10-11 20:38:20.774,1.3037764,1.1653696,1.0005563,1.1934056,0.97988075,0.48647484,0.6138123,1.3197876,0.7249275,0.25009298,0.8213703,1.04071,0.7250918,-0.115188755,0.34124893,0.70061505,0.31969947,-0.06474446,0.096972585,0.12923005,801.02563,796.5934,801.02563,804.65204,584.2491,-0.181396484375,0.09625244140625,0.98468017578125,1.83929443359375,-0.276641845703125,2.10845947265625,1,1.0,1.0,1.0,1.0,10.00
2024-10-11 20:38:20.774,1.3037764,1.1653696,1.0005563,1.1934056,0.97988075,0.48647484,0.6138123,1.3197876,0.7249275,0.25009298,0.8213703,1.04071,0.7250918,-0.115188755,0.34124893,0.70061505,0.31969947,-0.06474446,0.096972585,0.12923005,801.02563,793.36993,797.3993,805.4579,597.5458,-0.181396484375,0.09625244140625,0.98468017578125,1.83929443359375,-0.276641845703125,2.10845947265625,1,1.0,1.0,1.0,1.0,10.00
2024-10-11 20:38:20.775,1.3037764,1.1653696,1.0005563,1.1934056,0.97988075,0.48647484,0.6138123,1.3197876,0.7249275,0.25009298,0.8213703,1.04071,0.7250918,-0.115188755,0.34124893,0.70061505,0.31969947,-0.06474446,0.096972585,0.12923005,809.89014,791.75824,787.72894,802.23444,489.1575,-0.181396484375,0.09625244140625,0.98468017578125,1.83929443359375,-0.276641845703125,2.10845947265625,1,1.0,1.0,1.0,1.0,10.00
2024-10-11 20:38:20.838,1.3037764,1.1653696,1.0005563,1.1934056,0.97988075,0.48647484,0.6138123,1.3197876,0.7249275,0.25009298,0.8213703,1.04071,0.7250918,-0.115188755,0.34124893,0.70061505,0.31969947,-0.06474446,0.096972585,0.12923005,807.47253,795.38464,794.57874,810.293,605.6044,-0.19366455078125,0.1015625,0.98974609375,-0.1495361328125,0.97198486328125,2.49725341796875,1,1.0,1.0,1.0,1.0,10.00
2024-10-11 20:38:20.839,1.3037764,1.1653696,1.0005563,1.1934056,0.97988075,0.48647484,0.6138123,1.3197876,0.7249275,0.25009298,0.8213703,1.04071,0.7250918,-0.115188755,0.34124893,0.70061505,0.31969947,-0.06474446,0.096972585,0.12923005,810.293,789.7436,796.1905,809.4872,718.022,-0.19366455078125,0.1015625,0.98974609375,-0.1495361328125,0.97198486328125,2.49725341796875,1,1.0,1.0,1.0,1.0,10.00
2024-10-11 20:38:20.840,1.3037764,1.1653696,1.0005563,1.1934056,0.97988075,0.48647484,0.6138123,1.3197876,0.7249275,0.25009298,0.8213703,1.04071,0.7250918,-0.115188755,0.34124893,0.70061505,0.31969947,-0.06474446,0.096972585,0.12923005,823.1868,788.5348,790.14655,803.0403,575.38464,-0.19366455078125,0.1015625,0.98974609375,-0.1495361328125,0.97198486328125,2.49725341796875,1,1.0,1.0,1.0,1.0,10.00
2024-10-11 20:38:20.840,1.3037764,1.1653696,1.0005563,1.1934056,0.97988075,0.48647484,0.6138123,1.3197876,0.7249275,0.25009298,0.8213703,1.04071,0.7250918,-0.115188755,0.34124893,0.70061505,0.31969947,-0.06474446,0.096972585,0.12923005,811.0989,791.3553,793.36993,805.4579,383.99268,-0.19366455078125,0.1015625,0.98974609375,-0.1495361328125,0.97198486328125,2.49725341796875,1,1.0,1.0,1.0,1.0,10.00
2024-10-11 20:38:20.841,1.3037764,1.1653696,1.0005563,1.1934056,0.97988075,0.48647484,0.6138123,1.3197876,0.7249275,0.25009298,0.8213703,1.04071,0.7250918,-0.115188755,0.34124893,0.70061505,0.31969947,-0.06474446,0.096972585,0.12923005,799.41394,789.7436,799.011,804.2491,527.03296,-0.19366455078125,0.1015625,0.98974609375,-0.1495361328125,0.97198486328125,2.49725341796875,1,1.0,1.0,1.0,1.0,10.00
2024-10-11 20:38:20.841,1.3037764,1.1653696,1.0005563,1.1934056,0.97988075,0.48647484,0.6138123,1.3197876,0.7249275,0.25009298,0.8213703,1.04071,0.7250918,-0.115188755,0.34124893,0.70061505,0.31969947,-0.06474446,0.096972585,0.12923005,807.0696,791.75824,797.8022,804.2491,815.5311,-0.19366455078125,0.1015625,0.98974609375,-0.1495361328125,0.97198486328125,2.49725341796875,1,1.0,1.0,1.0,1.0,10.00
2024-10-11 20:38:20.842,1.3037764,1.1653696,1.0005563,1.1934056,0.97988075,0.48647484,0.6138123,1.3197876,0.7249275,0.25009298,0.8213703,1.04071,0.7250918,-0.115188755,0.34124893,0.70061505,0.31969947,-0.06474446,0.096972585,0.12923005,803.44324,795.38464,798.60803,801.4286,714.3956,-0.19366455078125,0.1015625,0.98974609375,-0.1495361328125,0.97198486328125,2.49725341796875,1,1.0,1.0,1.0,1.0,10.00
2024-10-11 20:38:20.842,1.3037764,1.1653696,1.0005563,1.1934056,0.97988075,0.48647484,0.6138123,1.3197876,0.7249275,0.25009298,0.8213703,1.04071,0.7250918,-0.115188755,0.34124893,0.70061505,0.31969947,-0.06474446,0.096972585,0.12923005,803.44324,794.17584,803.0403,793.7729,518.1685,-0.19366455078125,0.1015625,0.98974609375,-0.1495361328125,0.97198486328125,2.49725341796875,1,1.0,1.0,1.0,1.0,10.00
2024-10-11 20:38:20.843,1.3037764,1.1653696,1.0005563,1.1934056,0.97988075,0.48647484,0.6138123,1.3197876,0.7249275,0.25009298,0.8213703,1.04071,0.7250918,-0.115188755,0.34124893,0.70061505,0.31969947,-0.06474446,0.096972585,0.12923005,796.5934,787.72894,799.011,792.1612,621.7216,-0.19366455078125,0.1015625,0.98974609375,-0.1495361328125,0.97198486328125,2.49725341796875,1,1.0,1.0,1.0,1.0,10.00
2024-10-11 20:38:20.843,1.3037764,1.1653696,1.0005563,1.1934056,0.97988075,0.48647484,0.6138123,1.3197876,0.7249275,0.25009298,0.8213703,1.04071,0.7250918,-0.115188755,0.34124893,0.70061505,0.31969947,-0.06474446,0.096972585,0.12923005,788.1319,787.326,793.7729,796.1905,639.85345,-0.19366455078125,0.1015625,0.98974609375,-0.1495361328125,0.97198486328125,2.49725341796875,1,1.0,1.0,1.0,1.0,10.00
2024-10-11 20:38:20.844,1.3037764,1.1653696,1.0005563,1.1934056,0.97988075,0.48647484,0.6138123,1.3197876,0.7249275,0.25009298,0.8213703,1.04071,0.7250918,-0.115188755,0.34124893,0.70061505,0.31969947,-0.06474446,0.096972585,0.12923005,793.36993,790.9524,791.3553,796.1905,469.81686,-0.19366455078125,0.1015625,0.98974609375,-0.1495361328125,0.97198486328125,2.49725341796875,1,1.0,1.0,1.0,1.0,10.00
2024-10-11 20:38:20.844,1.3037764,1.1816214,0.9517054,1.1934056,0.97988075,0.5117083,0.55285937,1.3197876,0.7249275,0.24525109,0.8213703,1.04071,0.7250918,-0.13823861,0.3505113,0.70061505,0.31969947,-0.080453634,0.09498856,0.12923005,790.54944,793.7729,793.36993,796.1905,438.38828,-0.19366455078125,0.1015625,0.98974609375,-0.1495361328125,0.97198486328125,2.49725341796875,1,1.0,1.0,1.0,1.0,10.00
2024-10-11 20:38:20.850,1.3037764,1.1816214,0.9517054,1.1934056,0.97988075,0.5117083,0.55285937,1.3197876,0.7249275,0.24525109,0.8213703,1.04071,0.7250918,-0.13823861,0.3505113,0.70061505,0.31969947,-0.080453634,0.09498856,0.12923005,794.57874,791.3553,788.1319,805.05493,654.35895,-0.19366455078125,0.1015625,0.98974609375,-0.1495361328125,0.97198486328125,2.49725341796875,1,1.0,1.0,1.0,1.0,10.00
2024-10-11 20:38:20.850,1.3037764,1.1816214,0.9517054,1.1934056,0.97988075,0.5117083,0.55285937,1.3197876,0.7249275,0.24525109,0.8213703,1.04071,0.7250918,-0.13823861,0.3505113,0.70061505,0.31969947,-0.080453634,0.09498856,0.12923005,801.8315,788.93774,788.5348,806.6667,750.65936,-0.19366455078125,0.1015625,0.98974609375,-0.1495361328125,0.97198486328125,2.49725341796875,1,1.0,1.0,1.0,1.0,10.00
2024-10-11 20:38:20.851,1.3037764,1.1816214,0.9517054,1.1934056,0.97988075,0.5117083,0.55285937,1.3197876,0.7249275,0.24525109,0.8213703,1.04071,0.7250918,-0.13823861,0.3505113,0.70061505,0.31969947,-0.080453634,0.09498856,0.12923005,799.41394,793.7729,792.1612,796.99634,559.67035,-0.19366455078125,0.1015625,0.98974609375,-0.1495361328125,0.97198486328125,2.49725341796875,1,1.0,1.0,1.0,1.0,10.00
2024-10-11 20:38:20.851,1.3037764,1.1816214,0.9517054,1.1934056,0.97988075,0.5117083,0.55285937,1.3197876,0.7249275,0.24525109,0.8213703,1.04071,0.7250918,-0.13823861,0.3505113,0.70061505,0.31969947,-0.080453634,0.09498856,0.12923005,803.8461,796.5934,800.2198,802.6374,577.8022,-0.19366455078125,0.1015625,0.98974609375,-0.1495361328125,0.97198486328125,2.49725341796875,1,1.0,1.0,1.0,1.0,10.00
2024-10-11 20:38:20.852,1.3037764,1.1816214,0.9517054,1.1934056,0.97988075,0.5117083,0.55285937,1.3197876,0.7249275,0.24525109,0.8213703,1.04071,0.7250918,-0.13823861,0.3505113,0.70061505,0.31969947,-0.080453634,0.09498856,0.12923005,812.3077,799.011,802.6374,807.8755,729.304,-0.19366455078125,0.1015625,0.98974609375,-0.1495361328125,0.97198486328125,2.49725341796875,1,1.0,1.0,1.0,1.0,10.00
2024-10-11 20:38:20.852,1.3037764,1.1816214,0.9517054,1.1934056,0.97988075,0.5117083,0.55285937,1.3197876,0.7249275,0.24525109,0.8213703,1.04071,0.7250918,-0.13823861,0.3505113,0.70061505,0.31969947,-0.080453634,0.09498856,0.12923005,807.0696,799.011,794.9817,802.6374,770.0,-0.19366455078125,0.1015625,0.98974609375,-0.1495361328125,0.97198486328125,2.49725341796875,1,1.0,1.0,1.0,1.0,10.00
2024-10-11 20:38:20.853,1.3037764,1.1816214,0.9517054,1.1934056,0.97988075,0.5117083,0.55285937,1.3197876,0.7249275,0.24525109,0.8213703,1.04071,0.7250918,-0.13823861,0.3505113,0.70061505,0.31969947,-0.080453634,0.09498856,0.12923005,811.50183,794.9817,799.81683,799.41394,674.10254,-0.19366455078125,0.1015625,0.98974609375,-0.1495361328125,0.97198486328125,2.49725341796875,1,1.0,1.0,1.0,1.0,10.00
2024-10-11 20:38:20.854,1.3037764,1.1816214,0.9517054,1.1934056,0.97988075,0.5117083,0.55285937,1.3197876,0.7249275,0.24525109,0.8213703,1.04071,0.7250918,-0.13823861,0.3505113,0.70061505,0.31969947,-0.080453634,0.09498856,0.12923005,811.50183,793.36993,799.41394,797.8022,655.56775,-0.19366455078125,0.1015625,0.98974609375,-0.1495361328125,0.97198486328125,2.49725341796875,1,1.0,1.0,1.0,1.0,10.00
2024-10-11 20:38:20.854,1.3037764,1.1816214,0.9517054,1.1934056,0.97988075,0.5117083,0.55285937,1.3197876,0.7249275,0.24525109,0.8213703,1.04071,0.7250918,-0.13823861,0.3505113,0.70061505,0.31969947,-0.080453634,0.09498856,0.12923005,798.60803,790.54944,789.34064,802.6374,812.3077,-0.19366455078125,0.1015625,0.98974609375,-0.1495361328125,0.97198486328125,2.49725341796875,1,1.0,1.0,1.0,1.0,10.00
2024-10-11 20:38:20.855,1.3037764,1.1816214,0.9517054,1.1934056,0.97988075,0.5117083,0.55285937,1.3197876,0.7249275,0.24525109,0.8213703,1.04071,0.7250918,-0.13823861,0.3505113,0.70061505,0.31969947,-0.080453634,0.09498856,0.12923005,810.696,794.57874,790.9524,803.8461,840.5128,-0.19366455078125,0.1015625,0.98974609375,-0.1495361328125,0.97198486328125,2.49725341796875,1,1.0,1.0,1.0,1.0,10.00
2024-10-11 20:38:20.855,1.3037764,1.1816214,0.9517054,1.1934056,0.97988075,0.5117083,0.55285937,1.3197876,0.7249275,0.24525109,0.8213703,1.04071,0.7250918,-0.13823861,0.3505113,0.70061505,0.31969947,-0.080453634,0.09498856,0.12923005,821.1722,800.2198,795.38464,801.8315,674.90845,-0.19366455078125,0.1015625,0.98974609375,-0.1495361328125,0.97198486328125,2.49725341796875,1,1.0,1.0,1.0,1.0,10.00
2024-10-11 20:38:20.856,1.3037764,1.1816214,0.9517054,1.1934056,0.97988075,0.5117083,0.55285937,1.3197876,0.7249275,0.24525109,0.8213703,1.04071,0.7250918,-0.13823861,0.3505113,0.70061505,0.31969947,-0.080453634,0.09498856,0.12923005,818.3516,799.81683,798.20514,803.0403,625.7509,-0.19366455078125,0.1015625,0.98974609375,-0.1495361328125,0.97198486328125,2.49725341796875,1,1.0,1.0,1.0,1.0,10.00
2024-10-11 20:38:20.885,1.3037764,1.1816214,0.9517054,1.1934056,0.97988075,0.5117083,0.55285937,1.3197876,0.7249275,0.24525109,0.8213703,1.04071,0.7250918,-0.13823861,0.3505113,0.70061505,0.31969947,-0.080453634,0.09498856,0.12923005,813.1135,797.3993,800.2198,798.60803,745.42126,-0.19342041015625,0.0906982421875,0.98480224609375,-0.844879150390625,-0.10467529296875,1.5850830078125,1,1.0,1.0,1.0,1.0,10.00
2024-10-11 20:38:20.886,1.3037764,1.1816214,0.9517054,1.1934056,0.97988075,0.5117083,0.55285937,1.3197876,0.7249275,0.24525109,0.8213703,1.04071,0.7250918,-0.13823861,0.3505113,0.70061505,0.31969947,-0.080453634,0.09498856,0.12923005,811.0989,803.0403,795.78754,800.6227,786.52014,-0.19342041015625,0.0906982421875,0.98480224609375,-0.844879150390625,-0.10467529296875,1.5850830078125,1,1.0,1.0,1.0,1.0,10.00
2024-10-11 20:38:20.887,1.3037764,1.1816214,0.9517054,1.1934056,0.97988075,0.5117083,0.55285937,1.3197876,0.7249275,0.24525109,0.8213703,1.04071,0.7250918,-0.13823861,0.3505113,0.70061505,0.31969947,-0.080453634,0.09498856,0.12923005,817.5458,803.0403,793.7729,803.0403,672.8938,-0.19342041015625,0.0906982421875,0.98480224609375,-0.844879150390625,-0.10467529296875,1.5850830078125,1,1.0,1.0,1.0,1.0,10.00
2024-10-11 20:38:20.888,1.3037764,1.1816214,0.9517054,1.1934056,0.97988075,0.5117083,0.55285937,1.3197876,0.7249275,0.24525109,0.8213703,1.04071,0.7250918,-0.13823861,0.3505113,0.70061505,0.31969947,-0.080453634,0.09498856,0.12923005,817.9487,794.9817,794.57874,796.99634,680.54944,-0.19342041015625,0.0906982421875,0.98480224609375,-0.844879150390625,-0.10467529296875,1.5850830078125,1,1.0,1.0,1.0,1.0,10.00
2024-10-11 20:38:20.888,1.3037764,1.1816214,0.9517054,1.1934056,0.97988075,0.5117083,0.55285937,1.3197876,0.7249275,0.24525109,0.8213703,1.04071,0.7250918,-0.13823861,0.3505113,0.70061505,0.31969947,-0.080453634,0.09498856,0.12923005,804.65204,793.36993,797.8022,796.5934,882.01465,-0.19342041015625,0.0906982421875,0.98480224609375,-0.844879150390625,-0.10467529296875,1.5850830078125,1,1.0,1.0,1.0,1.0,10.00
2024-10-11 20:38:20.889,1.3037764,1.1816214,0.9517054,1.1934056,0.97988075,0.5117083,0.55285937,1.3197876,0.7249275,0.24525109,0.8213703,1.04071,0.7250918,-0.13823861,0.3505113,0.70061505,0.31969947,-0.080453634,0.09498856,0.12923005,800.2198,793.36993,800.6227,800.6227,1033.5165,-0.19342041015625,0.0906982421875,0.98480224609375,-0.844879150390625,-0.10467529296875,1.5850830078125,1,1.0,1.0,1.0,1.0,10.00
2024-10-11 20:38:20.889,1.3037764,1.1816214,0.9517054,1.1934056,0.97988075,0.5117083,0.55285937,1.3197876,0.7249275,0.24525109,0.8213703,1.04071,0.7250918,-0.13823861,0.3505113,0.70061505,0.31969947,-0.080453634,0.09498856,0.12923005,800.2198,794.9817,798.20514,798.60803,921.0989,-0.19342041015625,0.0906982421875,0.98480224609375,-0.844879150390625,-0.10467529296875,1.5850830078125,1,1.0,1.0,1.0,1.0,10.00
2024-10-11 20:38:20.890,1.3037764,1.1816214,0.9517054,1.1934056,0.97988075,0.5117083,0.55285937,1.3197876,0.7249275,0.24525109,0.8213703,1.04071,0.7250918,-0.13823861,0.3505113,0.70061505,0.31969947,-0.080453634,0.09498856,0.12923005,797.8022,796.99634,792.5641,803.0403,914.65204,-0.19342041015625,0.0906982421875,0.98480224609375,-0.844879150390625,-0.10467529296875,1.5850830078125,1,1.0,1.0,1.0,1.0,10.00
2024-10-11 20:38:20.891,1.3037764,1.1816214,0.9517054,1.1934056,0.97988075,0.5117083,0.55285937,1.3197876,0.7249275,0.24525109,0.8213703,1.04071,0.7250918,-0.13823861,0.3505113,0.70061505,0.31969947,-0.080453634,0.09498856,0.12923005,803.0403,796.5934,791.3553,806.6667,900.14655,-0.19342041015625,0.0906982421875,0.98480224609375,-0.844879150390625,-0.10467529296875,1.5850830078125,1,1.0,1.0,1.0,1.0,10.00
2024-10-11 20:38:20.891,1.3037764,1.1816214,0.9517054,1.1934056,0.97988075,0.5117083,0.55285937,1.3197876,0.7249275,0.24525109,0.8213703,1.04071,0.7250918,-0.13823861,0.3505113,0.70061505,0.31969947,-0.080453634,0.09498856,0.12923005,803.44324,796.1905,798.20514,807.47253,720.4396,-0.19342041015625,0.0906982421875,0.98480224609375,-0.844879150390625,-0.10467529296875,1.5850830078125,1,1.0,1.0,1.0,1.0,10.00
2024-10-11 20:38:20.892,1.3037764,1.1816214,0.9517054,1.1934056,0.97988075,0.5117083,0.55285937,1.3197876,0.7249275,0.24525109,0.8213703,1.04071,0.7250918,-0.13823861,0.3505113,0.70061505,0.31969947,-0.080453634,0.09498856,0.12923005,802.6374,800.2198,809.0842,813.91943,749.45056,-0.19342041015625,0.0906982421875,0.98480224609375,-0.844879150390625,-0.10467529296875,1.5850830078125,1,1.0,1.0,1.0,1.0,10.00
2024-10-11 20:38:20.892,1.3037764,1.1816214,0.9517054,1.1934056,0.97988075,0.5117083,0.55285937,1.3197876,0.7249275,0.24525109,0.8213703,1.04071,0.7250918,-0.13823861,0.3505113,0.70061505,0.31969947,-0.080453634,0.09498856,0.12923005,798.60803,809.0842,804.65204,813.5165,899.7436,-0.19342041015625,0.0906982421875,0.98480224609375,-0.844879150390625,-0.10467529296875,1.5850830078125,1,1.0,1.0,1.0,1.0,10.00
2024-10-11 20:38:20.893,1.3037764,1.1816214,0.9517054,1.1934056,0.97988075,0.5117083,0.55285937,1.3197876,0.7249275,0.24525109,0.8213703,1.04071,0.7250918,-0.13823861,0.3505113,0.70061505,0.31969947,-0.080453634,0.09498856,0.12923005,795.78754,803.0403,794.9817,807.47253,847.3626,-0.201416015625,0.08282470703125,0.98822021484375,-0.396270751953125,-0.665435791015625,1.12152099609375,1,1.0,1.0,1.0,1.0,10.00
2024-10-11 20:38:20.894,1.3037764,1.1816214,0.8688354,1.1934056,0.97988075,0.5117083,0.45102218,1.3197876,0.7249275,0.24525109,0.8213703,1.04071,0.7250918,-0.13823861,0.3525045,0.70061505,0.31969947,-0.080453634,0.09970529,0.12923005,806.26373,796.99634,798.60803,801.4286,707.5458,-0.201416015625,0.08282470703125,0.98822021484375,-0.396270751953125,-0.665435791015625,1.12152099609375,1,1.0,1.0,1.0,1.0,10.00
2024-10-11 20:38:20.898,1.3037764,1.1816214,0.8688354,1.1934056,0.97988075,0.5117083,0.45102218,1.3197876,0.7249275,0.24525109,0.8213703,1.04071,0.7250918,-0.13823861,0.3525045,0.70061505,0.31969947,-0.080453634,0.09970529,0.12923005,806.26373,803.44324,802.23444,805.4579,807.0696,-0.201416015625,0.08282470703125,0.98822021484375,-0.396270751953125,-0.665435791015625,1.12152099609375,1,1.0,1.0,1.0,1.0,10.00
2024-10-11 20:38:20.899,1.3037764,1.1816214,0.8688354,1.1934056,0.97988075,0.5117083,0.45102218,1.3197876,0.7249275,0.24525109,0.8213703,1.04071,0.7250918,-0.13823861,0.3525045,0.70061505,0.31969947,-0.080453634,0.09970529,0.12923005,809.89014,802.23444,803.8461,817.1429,975.09155,-0.201416015625,0.08282470703125,0.98822021484375,-0.396270751953125,-0.665435791015625,1.12152099609375,1,1.0,1.0,1.0,1.0,10.00
2024-10-11 20:38:20.899,1.3037764,1.1816214,0.8688354,1.1934056,0.97988075,0.5117083,0.45102218,1.3197876,0.7249275,0.24525109,0.8213703,1.04071,0.7250918,-0.13823861,0.3525045,0.70061505,0.31969947,-0.080453634,0.09970529,0.12923005,816.337,797.8022,803.44324,813.91943,977.1062,-0.201416015625,0.08282470703125,0.98822021484375,-0.396270751953125,-0.665435791015625,1.12152099609375,1,1.0,1.0,1.0,1.0,10.00
2024-10-11 20:38:20.900,1.3037764,1.1816214,0.8688354,1.1934056,0.97988075,0.5117083,0.45102218,1.3197876,0.7249275,0.24525109,0.8213703,1.04071,0.7250918,-0.13823861,0.3525045,0.70061505,0.31969947,-0.080453634,0.09970529,0.12923005,806.26373,803.0403,802.6374,809.4872,900.9524,-0.201416015625,0.08282470703125,0.98822021484375,-0.396270751953125,-0.665435791015625,1.12152099609375,1,1.0,1.0,1.0,1.0,10.00
2024-10-11 20:38:20.900,1.3037764,1.1816214,0.8688354,1.1934056,0.97988075,0.5117083,0.45102218,1.3197876,0.7249275,0.24525109,0.8213703,1.04071,0.7250918,-0.13823861,0.3525045,0.70061505,0.31969947,-0.080453634,0.09970529,0.12923005,801.8315,806.26373,793.36993,812.3077,977.50916,-0.201416015625,0.08282470703125,0.98822021484375,-0.396270751953125,-0.665435791015625,1.12152099609375,1,1.0,1.0,1.0,1.0,10.00
2024-10-11 20:38:20.901,1.3037764,1.1816214,0.8688354,1.1934056,0.97988075,0.5117083,0.45102218,1.3197876,0.7249275,0.24525109,0.8213703,1.04071,0.7250918,-0.13823861,0.3525045,0.70061505,0.31969947,-0.080453634,0.09970529,0.12923005,801.4286,799.41394,791.3553,815.12823,1150.3663,-0.201416015625,0.08282470703125,0.98822021484375,-0.396270751953125,-0.665435791015625,1.12152099609375,1,1.0,1.0,1.0,1.0,10.00
2024-10-11 20:38:20.902,1.3037764,1.1816214,0.8688354,1.1934056,0.97988075,0.5117083,0.45102218,1.3197876,0.7249275,0.24525109,0.8213703,1.04071,0.7250918,-0.13823861,0.3525045,0.70061505,0.31969947,-0.080453634,0.09970529,0.12923005,804.65204,792.5641,799.41394,814.7253,1042.7839,-0.201416015625,0.08282470703125,0.98822021484375,-0.396270751953125,-0.665435791015625,1.12152099609375,1,1.0,1.0,1.0,1.0,10.00
2024-10-11 20:38:20.902,1.3037764,1.1816214,0.8688354,1.1934056,0.97988075,0.5117083,0.45102218,1.3197876,0.7249275,0.24525109,0.8213703,1.04071,0.7250918,-0.13823861,0.3525045,0.70061505,0.31969947,-0.080453634,0.09970529,0.12923005,815.9341,797.3993,802.23444,813.1135,856.2271,-0.201416015625,0.08282470703125,0.98822021484375,-0.396270751953125,-0.665435791015625,1.12152099609375,1,1.0,1.0,1.0,1.0,10.00
2024-10-11 20:38:20.903,1.3037764,1.1816214,0.8688354,1.1934056,0.97988075,0.5117083,0.45102218,1.3197876,0.7249275,0.24525109,0.8213703,1.04071,0.7250918,-0.13823861,0.3525045,0.70061505,0.31969947,-0.080453634,0.09970529,0.12923005,823.5897,806.6667,796.1905,797.3993,912.23444,-0.201416015625,0.08282470703125,0.98822021484375,-0.396270751953125,-0.665435791015625,1.12152099609375,1,1.0,1.0,1.0,1.0,10.00
2024-10-11 20:38:20.903,1.3037764,1.1816214,0.8688354,1.1934056,0.97988075,0.5117083,0.45102218,1.3197876,0.7249275,0.24525109,0.8213703,1.04071,0.7250918,-0.13823861,0.3525045,0.70061505,0.31969947,-0.080453634,0.09970529,0.12923005,819.15753,803.0403,791.75824,786.1172,1022.23444,-0.201416015625,0.08282470703125,0.98822021484375,-0.396270751953125,-0.665435791015625,1.12152099609375,1,1.0,1.0,1.0,1.0,10.00
2024-10-11 20:38:20.928,1.3037764,1.1816214,0.8688354,1.1934056,0.97988075,0.5117083,0.45102218,1.3197876,0.7249275,0.24525109,0.8213703,1.04071,0.7250918,-0.13823861,0.3525045,0.70061505,0.31969947,-0.080453634,0.09970529,0.12923005,809.0842,801.02563,788.93774,800.2198,1003.2967,-0.21148681640625,0.08526611328125,0.98724365234375,0.7476806640625,-1.413116455078125,0.897216796875,1,1.0,1.0,1.0,1.0,10.00
2024-10-11 20:38:20.929,1.3037764,1.1816214,0.8688354,1.1934056,0.97988075,0.5117083,0.45102218,1.3197876,0.7249275,0.24525109,0.8213703,1.04071,0.7250918,-0.13823861,0.3525045,0.70061505,0.31969947,-0.080453634,0.09970529,0.12923005,803.44324,801.4286,785.31134,795.38464,846.1539,-0.21148681640625,0.08526611328125,0.98724365234375,0.7476806640625,-1.413116455078125,0.897216796875,1,1.0,1.0,1.0,1.0,10.00
2024-10-11 20:38:20.930,1.3037764,1.1816214,0.8688354,1.1934056,0.97988075,0.5117083,0.45102218,1.3197876,0.7249275,0.24525109,0.8213703,1.04071,0.7250918,-0.13823861,0.3525045,0.70061505,0.31969947,-0.080453634,0.09970529,0.12923005,793.7729,796.99634,780.07324,786.1172,824.3956,-0.21148681640625,0.08526611328125,0.98724365234375,0.7476806640625,-1.413116455078125,0.897216796875,1,1.0,1.0,1.0,1.0,10.00
2024-10-11 20:38:20.930,1.3037764,1.1816214,0.8688354,1.1934056,0.97988075,0.5117083,0.45102218,1.3197876,0.7249275,0.24525109,0.8213703,1.04071,0.7250918,-0.13823861,0.3525045,0.70061505,0.31969947,-0.080453634,0.09970529,0.12923005,796.99634,798.60803,776.04395,794.57874,937.2161,-0.21148681640625,0.08526611328125,0.98724365234375,0.7476806640625,-1.413116455078125,0.897216796875,1,1.0,1.0,1.0,1.0,10.00
2024-10-11 20:38:20.931,1.3037764,1.1816214,0.8688354,1.1934056,0.97988075,0.5117083,0.45102218,1.3197876,0.7249275,0.24525109,0.8213703,1.04071,0.7250918,-0.13823861,0.3525045,0.70061505,0.31969947,-0.080453634,0.09970529,0.12923005,815.12823,799.41394,779.67035,801.02563,883.22345,-0.21148681640625,0.08526611328125,0.98724365234375,0.7476806640625,-1.413116455078125,0.897216796875,1,1.0,1.0,1.0,1.0,10.00
2024-10-11 20:38:20.932,1.3037764,1.1816214,0.8688354,1.1934056,0.97988075,0.5117083,0.45102218,1.3197876,0.7249275,0.24525109,0.8213703,1.04071,0.7250918,-0.13823861,0.3525045,0.70061505,0.31969947,-0.080453634,0.09970529,0.12923005,822.381,801.02563,779.2674,805.4579,844.5421,-0.21148681640625,0.08526611328125,0.98724365234375,0.7476806640625,-1.413116455078125,0.897216796875,1,1.0,1.0,1.0,1.0,10.00
2024-10-11 20:38:20.932,1.3037764,1.1816214,0.8688354,1.1934056,0.97988075,0.5117083,0.45102218,1.3197876,0.7249275,0.24525109,0.8213703,1.04071,0.7250918,-0.13823861,0.3525045,0.70061505,0.31969947,-0.080453634,0.09970529,0.12923005,828.8278,802.6374,772.4176,809.4872,1073.8096,-0.21148681640625,0.08526611328125,0.98724365234375,0.7476806640625,-1.413116455078125,0.897216796875,1,1.0,1.0,1.0,1.0,10.00
2024-10-11 20:38:20.933,1.3037764,1.1816214,0.8688354,1.1934056,0.97988075,0.5117083,0.45102218,1.3197876,0.7249275,0.24525109,0.8213703,1.04071,0.7250918,-0.13823861,0.3525045,0.70061505,0.31969947,-0.080453634,0.09970529,0.12923005,834.4689,801.02563,772.01465,817.9487,977.1062,-0.21148681640625,0.08526611328125,0.98724365234375,0.7476806640625,-1.413116455078125,0.897216796875,1,1.0,1.0,1.0,1.0,10.00
2024-10-11 20:38:20.933,1.3037764,1.1816214,0.8688354,1.1934056,0.97988075,0.5117083,0.45102218,1.3197876,0.7249275,0.24525109,0.8213703,1.04071,0.7250918,-0.13823861,0.3525045,0.70061505,0.31969947,-0.080453634,0.09970529,0.12923005,840.5128,804.2491,774.83514,830.0366,770.0,-0.21148681640625,0.08526611328125,0.98724365234375,0.7476806640625,-1.413116455078125,0.897216796875,1,1.0,1.0,1.0,1.0,10.00
2024-10-11 20:38:20.934,1.3037764,1.1816214,0.8688354,1.1934056,0.97988075,0.5117083,0.45102218,1.3197876,0.7249275,0.24525109,0.8213703,1.04071,0.7250918,-0.13823861,0.3525045,0.70061505,0.31969947,-0.080453634,0.09970529,0.12923005,841.31866,801.4286,773.22345,823.9927,713.5897,-0.21148681640625,0.08526611328125,0.98724365234375,0.7476806640625,-1.413116455078125,0.897216796875,1,1.0,1.0,1.0,1.0,10.00
2024-10-11 20:38:20.934,1.3037764,1.1816214,0.8688354,1.1934056,0.97988075,0.5117083,0.45102218,1.3197876,0.7249275,0.24525109,0.8213703,1.04071,0.7250918,-0.13823861,0.3525045,0.70061505,0.31969947,-0.080453634,0.09970529,0.12923005,842.1245,796.1905,768.7912,818.3516,855.0183,-0.21148681640625,0.08526611328125,0.98724365234375,0.7476806640625,-1.413116455078125,0.897216796875,1,1.0,1.0,1.0,1.0,10.00
2024-10-11 20:38:20.935,1.3037764,1.1816214,0.8688354,1.1934056,0.97988075,0.5117083,0.45102218,1.3197876,0.7249275,0.24525109,0.8213703,1.04071,0.7250918,-0.13823861,0.3525045,0.70061505,0.31969947,-0.080453634,0.09970529,0.12923005,845.34796,796.1905,769.19415,824.3956,1096.3737,-0.21148681640625,0.08526611328125,0.98724365234375,0.7476806640625,-1.413116455078125,0.897216796875,1,1.0,1.0,1.0,1.0,10.00
2024-10-11 20:38:20.960,1.3037764,1.1816214,0.8688354,1.1934056,0.97988075,0.5117083,0.45102218,1.3197876,0.7249275,0.24525109,0.8213703,1.04071,0.7250918,-0.13823861,0.3525045,0.70061505,0.31969947,-0.080453634,0.09970529,0.12923005,843.73627,796.1905,762.3443,820.3663,958.97437,-0.2169189453125,0.07550048828125,0.982421875,-0.2392578125,-0.336456298828125,-1.375732421875,1,1.0,1.0,1.0,1.0,10.00
2024-10-11 20:38:20.961,1.3037764,1.1816214,0.8688354,1.1934056,0.97988075,0.5117083,0.45102218,1.3197876,0.7249275,0.24525109,0.8213703,1.04071,0.7250918,-0.13823861,0.3525045,0.70061505,0.31969947,-0.080453634,0.09970529,0.12923005,858.24176,797.8022,757.9121,823.1868,766.77655,-0.2169189453125,0.07550048828125,0.982421875,-0.2392578125,-0.336456298828125,-1.375732421875,1,1.0,1.0,1.0,1.0,10.00
2024-10-11 20:38:20.962,1.3037764,1.1816214,0.8688354,1.1934056,0.97988075,0.5117083,0.45102218,1.3197876,0.7249275,0.24525109,0.8213703,1.04071,0.7250918,-0.13823861,0.3525045,0.70061505,0.31969947,-0.080453634,0.09970529,0.12923005,857.8388,801.4286,763.1502,827.2161,921.0989,-0.2169189453125,0.07550048828125,0.982421875,-0.2392578125,-0.336456298828125,-1.375732421875,1,1.0,1.0,1.0,1.0,10.00
2024-10-11 20:38:20.962,1.3037764,1.1816214,0.7347321,1.1934056,0.97988075,0.5117083,0.30667406,1.3197876,0.7249275,0.24525109,0.8199789,1.04071,0.7250918,-0.13823861,0.34411836,0.70061505,0.31969947,-0.080453634,0.11030544,0.12923005,850.58606,803.0403,771.6117,834.4689,1139.4872,-0.2169189453125,0.07550048828125,0.982421875,-0.2392578125,-0.336456298828125,-1.375732421875,1,1.0,1.0,1.0,1.0,10.00
2024-10-11 20:38:20.967,1.3037764,1.1816214,0.7347321,1.1934056,0.97988075,0.5117083,0.30667406,1.3197876,0.7249275,0.24525109,0.8199789,1.04071,0.7250918,-0.13823861,0.34411836,0.70061505,0.31969947,-0.080453634,0.11030544,0.12923005,858.24176,803.8461,777.25275,841.7216,826.4103,-0.2169189453125,0.07550048828125,0.982421875,-0.2392578125,-0.336456298828125,-1.375732421875,1,1.0,1.0,1.0,1.0,10.00
2024-10-11 20:38:20.968,1.3037764,1.1816214,0.7347321,1.1934056,0.97988075,0.5117083,0.30667406,1.3197876,0.7249275,0.24525109,0.8199789,1.04071,0.7250918,-0.13823861,0.34411836,0.70061505,0.31969947,-0.080453634,0.11030544,0.12923005,846.1539,801.02563,770.40295,836.4835,686.5934,-0.2169189453125,0.07550048828125,0.982421875,-0.2392578125,-0.336456298828125,-1.375732421875,1,1.0,1.0,1.0,1.0,10.00
2024-10-11 20:38:20.968,1.3037764,1.1816214,0.7347321,1.1934056,0.97988075,0.5117083,0.30667406,1.3197876,0.7249275,0.24525109,0.8199789,1.04071,0.7250918,-0.13823861,0.34411836,0.70061505,0.31969947,-0.080453634,0.11030544,0.12923005,840.9158,802.6374,773.6264,830.84247,980.7326,-0.2169189453125,0.07550048828125,0.982421875,-0.2392578125,-0.336456298828125,-1.375732421875,1,1.0,1.0,1.0,1.0,10.00
2024-10-11 20:38:20.969,1.3037764,1.1816214,0.7347321,1.1934056,0.97988075,0.5117083,0.30667406,1.3197876,0.7249275,0.24525109,0.8199789,1.04071,0.7250918,-0.13823861,0.34411836,0.70061505,0.31969947,-0.080453634,0.11030544,0.12923005,846.9597,806.26373,780.87915,826.0073,966.63007,-0.2169189453125,0.07550048828125,0.982421875,-0.2392578125,-0.336456298828125,-1.375732421875,1,1.0,1.0,1.0,1.0,10.00
2024-10-11 20:38:20.969,1.3037764,1.1816214,0.7347321,1.1934056,0.97988075,0.5117083,0.30667406,1.3197876,0.7249275,0.24525109,0.8199789,1.04071,0.7250918,-0.13823861,0.34411836,0.70061505,0.31969947,-0.080453634,0.11030544,0.12923005,842.52747,800.2198,776.04395,819.5604,764.7619,-0.2169189453125,0.07550048828125,0.982421875,-0.2392578125,-0.336456298828125,-1.375732421875,1,1.0,1.0,1.0,1.0,10.00
2024-10-11 20:38:20.970,1.3037764,1.1816214,0.7347321,1.1934056,0.97988075,0.5117083,0.30667406,1.3197876,0.7249275,0.24525109,0.8199789,1.04071,0.7250918,-0.13823861,0.34411836,0.70061505,0.31969947,-0.080453634,0.11030544,0.12923005,846.1539,796.99634,772.01465,822.7839,804.2491,-0.2169189453125,0.07550048828125,0.982421875,-0.2392578125,-0.336456298828125,-1.375732421875,1,1.0,1.0,1.0,1.0,10.00
2024-10-11 20:38:20.971,1.3037764,1.1816214,0.7347321,1.1934056,0.97988075,0.5117083,0.30667406,1.3197876,0.7249275,0.24525109,0.8199789,1.04071,0.7250918,-0.13823861,0.34411836,0.70061505,0.31969947,-0.080453634,0.11030544,0.12923005,847.3626,799.41394,779.2674,828.4249,969.0476,-0.2169189453125,0.07550048828125,0.982421875,-0.2392578125,-0.336456298828125,-1.375732421875,1,1.0,1.0,1.0,1.0,10.00
2024-10-11 20:38:20.971,1.3037764,1.1816214,0.7347321,1.1934056,0.97988075,0.5117083,0.30667406,1.3197876,0.7249275,0.24525109,0.8199789,1.04071,0.7250918,-0.13823861,0.34411836,0.70061505,0.31969947,-0.080453634,0.11030544,0.12923005,842.52747,799.81683,781.28204,828.4249,981.53845,-0.2169189453125,0.07550048828125,0.982421875,-0.2392578125,-0.336456298828125,-1.375732421875,1,1.0,1.0,1.0,1.0,10.00
2024-10-11 20:38:20.972,1.3037764,1.1816214,0.7347321,1.1934056,0.97988075,0.5117083,0.30667406,1.3197876,0.7249275,0.24525109,0.8199789,1.04071,0.7250918,-0.13823861,0.34411836,0.70061505,0.31969947,-0.080453634,0.11030544,0.12923005,840.5128,800.6227,778.0586,826.0073,884.43225,-0.2169189453125,0.07550048828125,0.982421875,-0.2392578125,-0.336456298828125,-1.375732421875,1,1.0,1.0,1.0,1.0,10.00
2024-10-11 20:38:20.972,1.3037764,1.1816214,0.7347321,1.1934056,0.97988075,0.5117083,0.30667406,1.3197876,0.7249275,0.24525109,0.8199789,1.04071,0.7250918,-0.13823861,0.34411836,0.70061505,0.31969947,-0.080453634,0.11030544,0.12923005,840.10986,801.02563,777.6557,818.3516,938.8278,-0.2169189453125,0.07550048828125,0.982421875,-0.2392578125,-0.336456298828125,-1.375732421875,1,1.0,1.0,1.0,1.0,10.00
2024-10-11 20:38:20.973,1.3037764,1.1816214,0.7347321,1.1934056,0.97988075,0.5117083,0.30667406,1.3197876,0.7249275,0.24525109,0.8199789,1.04071,0.7250918,-0.13823861,0.34411836,0.70061505,0.31969947,-0.080453634,0.11030544,0.12923005,841.31866,799.81683,779.2674,814.7253,975.4945,-0.2169189453125,0.07550048828125,0.982421875,-0.2392578125,-0.336456298828125,-1.375732421875,1,1.0,1.0,1.0,1.0,10.00
2024-10-11 20:38:20.974,1.3037764,1.1816214,0.7347321,1.1934056,0.97988075,0.5117083,0.30667406,1.3197876,0.7249275,0.24525109,0.8199789,1.04071,0.7250918,-0.13823861,0.34411836,0.70061505,0.31969947,-0.080453634,0.11030544,0.12923005,835.6777,801.02563,785.31134,815.12823,749.85345,-0.2169189453125,0.07550048828125,0.982421875,-0.2392578125,-0.336456298828125,-1.375732421875,1,1.0,1.0,1.0,1.0,10.00
2024-10-11 20:38:20.974,1.3037764,1.1816214,0.7347321,1.1934056,0.97988075,0.5117083,0.30667406,1.3197876,0.7249275,0.24525109,0.8199789,1.04071,0.7250918,-0.13823861,0.34411836,0.70061505,0.31969947,-0.080453634,0.11030544,0.12923005,838.49817,800.2198,788.93774,821.5751,581.02563,-0.2169189453125,0.07550048828125,0.982421875,-0.2392578125,-0.336456298828125,-1.375732421875,1,1.0,1.0,1.0,1.0,10.00
2024-10-11 20:38:20.975,1.3037764,1.1816214,0.7347321,1.1934056,0.97988075,0.5117083,0.30667406,1.3197876,0.7249275,0.24525109,0.8199789,1.04071,0.7250918,-0.13823861,0.34411836,0.70061505,0.31969947,-0.080453634,0.11030544,0.12923005,837.6923,799.011,782.49084,827.2161,832.0513,-0.2169189453125,0.07550048828125,0.982421875,-0.2392578125,-0.336456298828125,-1.375732421875,1,1.0,1.0,1.0,1.0,10.00
2024-10-11 20:38:20.975,1.3037764,1.1816214,0.7347321,1.1934056,0.97988075,0.5117083,0.30667406,1.3197876,0.7249275,0.24525109,0.8199789,1.04071,0.7250918,-0.13823861,0.34411836,0.70061505,0.31969947,-0.080453634,0.11030544,0.12923005,829.6337,798.60803,788.1319,828.8278,992.4176,-0.2169189453125,0.07550048828125,0.982421875,-0.2392578125,-0.336456298828125,-1.375732421875,1,1.0,1.0,1.0,1.0,10.00
2024-10-11 20:38:20.976,1.3037764,1.1816214,0.7347321,1.1934056,0.97988075,0.5117083,0.30667406,1.3197876,0.7249275,0.24525109,0.8199789,1.04071,0.7250918,-0.13823861,0.34411836,0.70061505,0.31969947,-0.080453634,0.11030544,0.12923005,827.619,796.99634,799.81683,830.84247,766.3736,-0.2169189453125,0.07550048828125,0.982421875,-0.2392578125,-0.336456298828125,-1.375732421875,1,1.0,1.0,1.0,1.0,10.00
2024-10-11 20:38:20.976,1.3037764,1.1816214,0.7347321,1.1934056,0.97988075,0.5117083,0.30667406,1.3197876,0.7249275,0.24525109,0.8199789,1.04071,0.7250918,-0.13823861,0.34411836,0.70061505,0.31969947,-0.080453634,0.11030544,0.12923005,838.0952,801.02563,797.8022,832.0513,707.5458,-0.2169189453125,0.07550048828125,0.982421875,-0.2392578125,-0.336456298828125,-1.375732421875,1,1.0,1.0,1.0,1.0,10.00
2024-10-11 20:38:20.977,1.3037764,1.1816214,0.7347321,1.1934056,0.97988075,0.5117083,0.30667406,1.3197876,0.7249275,0.24525109,0.8199789,1.04071,0.7250918,-0.13823861,0.34411836,0.70061505,0.31969947,-0.080453634,0.11030544,0.12923005,836.8865,801.02563,794.57874,834.0659,920.696,-0.2169189453125,0.07550048828125,0.982421875,-0.2392578125,-0.336456298828125,-1.375732421875,1,1.0,1.0,1.0,1.0,10.00
2024-10-11 20:38:20.978,1.3037764,1.1816214,0.7347321,1.1934056,0.97988075,0.5117083,0.30667406,1.3197876,0.7249275,0.24525109,0.8199789,1.04071,0.7250918,-0.13823861,0.34411836,0.70061505,0.31969947,-0.080453634,0.11030544,0.12923005,829.6337,796.5934,797.3993,829.6337,1016.99634,-0.2169189453125,0.07550048828125,0.982421875,-0.2392578125,-0.336456298828125,-1.375732421875,1,1.0,1.0,1.0,1.0,10.00
2024-10-11 20:38:20.978,1.3037764,1.1816214,0.7347321,1.1934056,0.97988075,0.5117083,0.30667406,1.3197876,0.7249275,0.24525109,0.8199789,1.04071,0.7250918,-0.13823861,0.34411836,0.70061505,0.31969947,-0.080453634,0.11030544,0.12923005,827.619,803.8461,799.81683,825.2015,851.79486,-0.2169189453125,0.07550048828125,0.982421875,-0.2392578125,-0.336456298828125,-1.375732421875,1,1.0,1.0,1.0,1.0,10.00
2024-10-11 20:38:20.979,1.3037764,1.1816214,0.7347321,1.1934056,0.97988075,0.5117083,0.30667406,1.3197876,0.7249275,0.24525109,0.8199789,1.04071,0.7250918,-0.13823861,0.34411836,0.70061505,0.31969947,-0.080453634,0.11030544,0.12923005,828.8278,810.293,796.99634,824.7985,787.326,-0.2115478515625,0.07763671875,0.98046875,1.054229736328125,-2.25799560546875,-2.691650390625,1,1.0,1.0,1.0,1.0,10.00
2024-10-11 20:38:20.980,1.3037764,1.1816214,0.7347321,1.1934056,0.97988075,0.5117083,0.30667406,1.3197876,0.7249275,0.24525109,0.8199789,1.04071,0.7250918,-0.13823861,0.34411836,0.70061505,0.31969947,-0.080453634,0.11030544,0.12923005,827.2161,808.2784,794.57874,821.978,913.0403,-0.2115478515625,0.07763671875,0.98046875,1.054229736328125,-2.25799560546875,-2.691650390625,1,1.0,1.0,1.0,1.0,10.00
2024-10-11 20:38:20.980,1.3037764,1.1816214,0.7347321,1.1934056,0.97988075,0.5117083,0.30667406,1.3197876,0.7249275,0.24525109,0.8199789,1.04071,0.7250918,-0.13823861,0.34411836,0.70061505,0.31969947,-0.080453634,0.11030544,0.12923005,821.1722,799.41394,793.7729,813.5165,946.08057,-0.2115478515625,0.07763671875,0.98046875,1.054229736328125,-2.25799560546875,-2.691650390625,1,1.0,1.0,1.0,1.0,10.00
2024-10-11 20:38:20.981,1.3037764,1.1816214,0.7347321,1.1934056,0.97988075,0.5117083,0.30667406,1.3197876,0.7249275,0.24525109,0.8199789,1.04071,0.7250918,-0.13823861,0.34411836,0.70061505,0.31969947,-0.080453634,0.11030544,0.12923005,827.619,800.2198,798.60803,819.9634,857.03296,-0.2115478515625,0.07763671875,0.98046875,1.054229736328125,-2.25799560546875,-2.691650390625,1,1.0,1.0,1.0,1.0,10.00
2024-10-11 20:38:20.981,1.3037764,1.1816214,0.7347321,1.1934056,0.97988075,0.5117083,0.30667406,1.3197876,0.7249275,0.24525109,0.8199789,1.04071,0.7250918,-0.13823861,0.34411836,0.70061505,0.31969947,-0.080453634,0.11030544,0.12923005,838.49817,809.89014,801.4286,824.3956,794.17584,-0.2115478515625,0.07763671875,0.98046875,1.054229736328125,-2.25799560546875,-2.691650390625,1,1.0,1.0,1.0,1.0,10.00
2024-10-11 20:38:20.982,1.3037764,1.1816214,0.54905343,1.1934056,0.97988075,0.5117083,0.1513477,1.3197876,0.7249275,0.24525109,0.8199789,1.04071,0.7250918,-0.13823861,0.32733184,0.70061505,0.31969947,-0.080453634,0.12248525,0.12923005,826.4103,806.6667,794.9817,811.50183,1079.4506,-0.2115478515625,0.07763671875,0.98046875,1.054229736328125,-2.25799560546875,-2.691650390625,1,1.0,1.0,1.0,1.0,10.00
2024-10-11 20:38:20.986,1.3037764,1.1816214,0.54905343,1.1934056,0.97988075,0.5117083,0.1513477,1.3197876,0.7249275,0.24525109,0.8199789,1.04071,0.7250918,-0.13823861,0.32733184,0.70061505,0.31969947,-0.080453634,0.12248525,0.12923005,811.0989,799.81683,796.5934,808.2784,1270.8425,-0.2115478515625,0.07763671875,0.98046875,1.054229736328125,-2.25799560546875,-2.691650390625,1,1.0,1.0,1.0,1.0,10.00
2024-10-11 20:38:20.987,1.3037764,1.1816214,0.54905343,1.1934056,0.97988075,0.5117083,0.1513477,1.3197876,0.7249275,0.24525109,0.8199789,1.04071,0.7250918,-0.13823861,0.32733184,0.70061505,0.31969947,-0.080453634,0.12248525,0.12923005,814.3223,797.8022,800.2198,807.0696,888.46155,-0.2115478515625,0.07763671875,0.98046875,1.054229736328125,-2.25799560546875,-2.691650390625,1,1.0,1.0,1.0,1.0,10.00
2024-10-11 20:38:20.987,1.3037764,1.1816214,0.54905343,1.1934056,0.97988075,0.5117083,0.1513477,1.3197876,0.7249275,0.24525109,0.8199789,1.04071,0.7250918,-0.13823861,0.32733184,0.70061505,0.31969947,-0.080453634,0.12248525,0.12923005,814.3223,797.8022,798.20514,809.4872,714.7985,-0.2115478515625,0.07763671875,0.98046875,1.054229736328125,-2.25799560546875,-2.691650390625,1,1.0,1.0,1.0,1.0,10.00
2024-10-11 20:38:20.988,1.3037764,1.1816214,0.54905343,1.1934056,0.97988075,0.5117083,0.1513477,1.3197876,0.7249275,0.24525109,0.8199789,1.04071,0.7250918,-0.13823861,0.32733184,0.70061505,0.31969947,-0.080453634,0.12248525,0.12923005,816.337,800.2198,795.78754,811.0989,869.5238,-0.2115478515625,0.07763671875,0.98046875,1.054229736328125,-2.25799560546875,-2.691650390625,1,1.0,1.0,1.0,1.0,10.00
2024-10-11 20:38:20.989,1.3037764,1.1816214,0.54905343,1.1934056,0.97988075,0.5117083,0.1513477,1.3197876,0.7249275,0.24525109,0.8199789,1.04071,0.7250918,-0.13823861,0.32733184,0.70061505,0.31969947,-0.080453634,0.12248525,0.12923005,811.50183,799.81683,796.5934,805.4579,871.53845,-0.2115478515625,0.07763671875,0.98046875,1.054229736328125,-2.25799560546875,-2.691650390625,1,1.0,1.0,1.0,1.0,10.00
2024-10-11 20:38:20.989,1.3037764,1.1816214,0.54905343,1.1934056,0.97988075,0.5117083,0.1513477,1.3197876,0.7249275,0.24525109,0.8199789,1.04071,0.7250918,-0.13823861,0.32733184,0.70061505,0.31969947,-0.080453634,0.12248525,0.12923005,809.89014,799.81683,796.99634,811.9048,799.41394,-0.2115478515625,0.07763671875,0.98046875,1.054229736328125,-2.25799560546875,-2.691650390625,1,1.0,1.0,1.0,1.0,10.00
2024-10-11 20:38:20.990,1.3037764,1.1816214,0.54905343,1.1934056,0.97988075,0.5117083,0.1513477,1.3197876,0.7249275,0.24525109,0.8199789,1.04071,0.7250918,-0.13823861,0.32733184,0.70061505,0.31969947,-0.080453634,0.12248525,0.12923005,805.4579,801.02563,794.57874,812.3077,852.1978,-0.20263671875,0.08148193359375,0.9783935546875,0.94207763671875,0.471038818359375,-3.072967529296875,1,1.0,1.0,1.0,1.0,10.00
2024-10-11 20:38:20.991,1.3037764,1.1816214,0.54905343,1.1934056,0.97988075,0.5117083,0.1513477,1.3197876,0.7249275,0.24525109,0.8199789,1.04071,0.7250918,-0.13823861,0.32733184,0.70061505,0.31969947,-0.080453634,0.12248525,0.12923005,800.6227,792.96704,792.1612,811.50183,1134.249,-0.20263671875,0.08148193359375,0.9783935546875,0.94207763671875,0.471038818359375,-3.072967529296875,1,1.0,1.0,1.0,1.0,10.00
2024-10-11 20:38:20.991,1.3037764,1.1816214,0.54905343,1.1934056,0.97988075,0.5117083,0.1513477,1.3197876,0.7249275,0.24525109,0.8199789,1.04071,0.7250918,-0.13823861,0.32733184,0.70061505,0.31969947,-0.080453634,0.12248525,0.12923005,797.8022,788.1319,795.38464,809.4872,1315.5677,-0.20263671875,0.08148193359375,0.9783935546875,0.94207763671875,0.471038818359375,-3.072967529296875,1,1.0,1.0,1.0,1.0,10.00
2024-10-11 20:38:20.992,1.3037764,1.1816214,0.54905343,1.1934056,0.97988075,0.5117083,0.1513477,1.3197876,0.7249275,0.24525109,0.8199789,1.04071,0.7250918,-0.13823861,0.32733184,0.70061505,0.31969947,-0.080453634,0.12248525,0.12923005,784.90845,790.9524,801.02563,794.9817,919.89014,-0.20263671875,0.08148193359375,0.9783935546875,0.94207763671875,0.471038818359375,-3.072967529296875,1,1.0,1.0,1.0,1.0,10.00
2024-10-11 20:38:20.992,1.3037764,1.1816214,0.54905343,1.1934056,0.97988075,0.5117083,0.1513477,1.3197876,0.7249275,0.24525109,0.8199789,1.04071,0.7250918,-0.13823861,0.32733184,0.70061505,0.31969947,-0.080453634,0.12248525,0.12923005,790.54944,793.36993,799.41394,792.96704,826.4103,-0.20263671875,0.08148193359375,0.9783935546875,0.94207763671875,0.471038818359375,-3.072967529296875,1,1.0,1.0,1.0,1.0,10.00
2024-10-11 20:38:20.993,1.3037764,1.1816214,0.54905343,1.1934056,0.97988075,0.5117083,0.1513477,1.3197876,0.7249275,0.24525109,0.8199789,1.04071,0.7250918,-0.13823861,0.32733184,0.70061505,0.31969947,-0.080453634,0.12248525,0.12923005,805.8608,794.57874,795.78754,801.02563,1006.9231,-0.20263671875,0.08148193359375,0.9783935546875,0.94207763671875,0.471038818359375,-3.072967529296875,1,1.0,1.0,1.0,1.0,10.00
2024-10-11 20:38:20.993,1.3037764,1.1816214,0.54905343,1.1934056,0.97988075,0.5117083,0.1513477,1.3197876,0.7249275,0.24525109,0.8199789,1.04071,0.7250918,-0.13823861,0.32733184,0.70061505,0.31969947,-0.080453634,0.12248525,0.12923005,804.2491,798.60803,795.78754,799.81683,970.2564,-0.20263671875,0.08148193359375,0.9783935546875,0.94207763671875,0.471038818359375,-3.072967529296875,1,1.0,1.0,1.0,1.0,10.00
2024-10-11 20:38:20.994,1.3037764,1.1816214,0.54905343,1.1934056,0.97988075,0.5117083,0.1513477,1.3197876,0.7249275,0.24525109,0.8199789,1.04071,0.7250918,-0.13823861,0.32733184,0.70061505,0.31969947,-0.080453634,0.12248525,0.12923005,803.0403,794.9817,797.8022,801.02563,807.8755,-0.20263671875,0.08148193359375,0.9783935546875,0.94207763671875,0.471038818359375,-3.072967529296875,1,1.0,1.0,1.0,1.0,10.00
2024-10-11 20:38:20.995,1.3037764,1.1816214,0.54905343,1.1934056,0.97988075,0.5117083,0.1513477,1.3197876,0.7249275,0.24525109,0.8199789,1.04071,0.7250918,-0.13823861,0.32733184,0.70061505,0.31969947,-0.080453634,0.12248525,0.12923005,799.81683,790.54944,800.6227,803.0403,965.42126,-0.20263671875,0.08148193359375,0.9783935546875,0.94207763671875,0.471038818359375,-3.072967529296875,1,1.0,1.0,1.0,1.0,10.00
2024-10-11 20:38:20.995,1.3037764,1.1816214,0.54905343,1.1934056,0.97988075,0.5117083,0.1513477,1.3197876,0.7249275,0.24525109,0.8199789,1.04071,0.7250918,-0.13823861,0.32733184,0.70061505,0.31969947,-0.080453634,0.12248525,0.12923005,799.41394,796.5934,802.6374,799.011,988.7912,-0.20263671875,0.08148193359375,0.9783935546875,0.94207763671875,0.471038818359375,-3.072967529296875,1,1.0,1.0,1.0,1.0,10.00
2024-10-11 20:38:20.996,1.3037764,1.1816214,0.54905343,1.1934056,0.97988075,0.5117083,0.1513477,1.3197876,0.7249275,0.24525109,0.8199789,1.04071,0.7250918,-0.13823861,0.32733184,0.70061505,0.31969947,-0.080453634,0.12248525,0.12923005,811.9048,799.41394,805.4579,802.23444,794.17584,-0.20263671875,0.08148193359375,0.9783935546875,0.94207763671875,0.471038818359375,-3.072967529296875,1,1.0,1.0,1.0,1.0,10.00
2024-10-11 20:38:20.996,1.3037764,1.1816214,0.54905343,1.1934056,0.97988075,0.5117083,0.1513477,1.3197876,0.7249275,0.24525109,0.8199789,1.04071,0.7250918,-0.13823861,0.32733184,0.70061505,0.31969947,-0.080453634,0.12248525,0.12923005,803.0403,802.6374,801.4286,806.26373,838.49817,-0.20263671875,0.08148193359375,0.9783935546875,0.94207763671875,0.471038818359375,-3.072967529296875,1,1.0,1.0,1.0,1.0,10.00
2024-10-11 20:38:20.997,1.3037764,1.1816214,0.54905343,1.1934056,0.97988075,0.5117083,0.1513477,1.3197876,0.7249275,0.24525109,0.8199789,1.04071,0.7250918,-0.13823861,0.32733184,0.70061505,0.31969947,-0.080453634,0.12248525,0.12923005,798.20514,796.5934,792.5641,802.23444,931.5751,-0.23016357421875,0.07440185546875,0.97589111328125,1.742095947265625,-0.34393310546875,-1.712188720703125,1,1.0,1.0,1.0,1.0,10.00
2024-10-11 20:38:20.998,1.3037764,1.1816214,0.54905343,1.1934056,0.97988075,0.5117083,0.1513477,1.3197876,0.7249275,0.24525109,0.8199789,1.04071,0.7250918,-0.13823861,0.32733184,0.70061505,0.31969947,-0.080453634,0.12248525,0.12923005,796.1905,791.3553,792.96704,800.6227,932.381,-0.23016357421875,0.07440185546875,0.97589111328125,1.742095947265625,-0.34393310546875,-1.712188720703125,1,1.0,1.0,1.0,1.0,10.00
2024-10-11 20:38:20.998,1.3037764,1.1816214,0.54905343,1.1934056,0.97988075,0.5117083,0.1513477,1.3197876,0.7249275,0.24525109,0.8199789,1.04071,0.7250918,-0.13823861,0.32733184,0.70061505,0.31969947,-0.080453634,0.12248525,0.12923005,794.9817,796.1905,798.60803,804.2491,857.8388,-0.23016357421875,0.07440185546875,0.97589111328125,1.742095947265625,-0.34393310546875,-1.712188720703125,1,1.0,1.0,1.0,1.0,10.00
2024-10-11 20:38:20.999,1.3037764,1.1816214,0.54905343,1.1934056,0.97988075,0.5117083,0.1513477,1.3197876,0.7249275,0.24525109,0.8199789,1.04071,0.7250918,-0.13823861,0.32733184,0.70061505,0.31969947,-0.080453634,0.12248525,0.12923005,795.38464,800.6227,800.2198,802.23444,753.47986,-0.23016357421875,0.07440185546875,0.97589111328125,1.742095947265625,-0.34393310546875,-1.712188720703125,1,1.0,1.0,1.0,1.0,10.00
2024-10-11 20:38:21.000,1.3037764,1.1816214,0.54905343,1.1934056,0.97988075,0.5117083,0.1513477,1.3197876,0.7249275,0.24525109,0.8199789,1.04071,0.7250918,-0.13823861,0.32733184,0.70061505,0.31969947,-0.080453634,0.12248525,0.12923005,797.3993,800.2198,801.02563,808.68134,959.7802,-0.23016357421875,0.07440185546875,0.97589111328125,1.742095947265625,-0.34393310546875,-1.712188720703125,1,1.0,1.0,1.0,1.0,10.00
2024-10-11 20:38:21.000,1.3037764,1.1816214,0.54905343,1.1934056,0.97988075,0.5117083,0.1513477,1.3197876,0.7249275,0.24525109,0.8199789,1.04071,0.7250918,-0.13823861,0.32733184,0.70061505,0.31969947,-0.080453634,0.12248525,0.12923005,795.38464,792.1612,803.0403,813.5165,1486.8132,-0.23016357421875,0.07440185546875,0.97589111328125,1.742095947265625,-0.34393310546875,-1.712188720703125,1,1.0,1.0,1.0,1.0,10.00
2024-10-11 20:38:21.001,1.3037764,1.1816214,0.54905343,1.1934056,0.97988075,0.5117083,0.1513477,1.3197876,0.7249275,0.24525109,0.8199789,1.04071,0.7250918,-0.13823861,0.32733184,0.70061505,0.31969947,-0.080453634,0.12248525,0.12923005,794.17584,790.54944,798.20514,816.7399,1606.4835,-0.23016357421875,0.07440185546875,0.97589111328125,1.742095947265625,-0.34393310546875,-1.712188720703125,1,1.0,1.0,1.0,1.0,10.00
2024-10-11 20:38:21.001,1.3037764,1.1816214,0.36384714,1.1934056,0.97988075,0.5117083,0.08109041,1.3197876,0.7249275,0.24525109,0.8199789,1.04071,0.7250918,-0.13823861,0.31009087,0.70061505,0.31969947,-0.080453634,0.13350306,0.12923005,818.7546,800.6227,801.8315,839.304,1329.6703,-0.23016357421875,0.07440185546875,0.97589111328125,1.742095947265625,-0.34393310546875,-1.712188720703125,1,1.0,1.0,1.0,1.0,10.00
2024-10-11 20:38:21.006,1.3037764,1.1816214,0.36384714,1.1934056,0.97988075,0.5117083,0.08109041,1.3197876,0.7249275,0.24525109,0.8199789,1.04071,0.7250918,-0.13823861,0.31009087,0.70061505,0.31969947,-0.080453634,0.13350306,0.12923005,817.5458,807.8755,801.8315,815.5311,1037.1428,-0.23016357421875,0.07440185546875,0.97589111328125,1.742095947265625,-0.34393310546875,-1.712188720703125,1,1.0,1.0,1.0,1.0,10.00
2024-10-11 20:38:21.006,1.3037764,1.1816214,0.36384714,1.1934056,0.97988075,0.5117083,0.08109041,1.3197876,0.7249275,0.24525109,0.8199789,1.04071,0.7250918,-0.13823861,0.31009087,0.70061505,0.31969947,-0.080453634,0.13350306,0.12923005,792.5641,803.0403,793.36993,782.8938,896.52014,-0.23016357421875,0.07440185546875,0.97589111328125,1.742095947265625,-0.34393310546875,-1.712188720703125,1,1.0,1.0,1.0,1.0,10.00
2024-10-11 20:38:21.007,1.3037764,1.1816214,0.36384714,1.1934056,0.97988075,0.5117083,0.08109041,1.3197876,0.7249275,0.24525109,0.8199789,1.04071,0.7250918,-0.13823861,0.31009087,0.70061505,0.31969947,-0.080453634,0.13350306,0.12923005,800.6227,802.23444,790.54944,792.96704,864.2857,-0.23016357421875,0.07440185546875,0.97589111328125,1.742095947265625,-0.34393310546875,-1.712188720703125,1,1.0,1.0,1.0,1.0,10.00
2024-10-11 20:38:21.008,1.3037764,1.1816214,0.36384714,1.1934056,0.97988075,0.5117083,0.08109041,1.3197876,0.7249275,0.24525109,0.8199789,1.04071,0.7250918,-0.13823861,0.31009087,0.70061505,0.31969947,-0.080453634,0.13350306,0.12923005,799.81683,799.81683,786.1172,786.9231,990.80585,-0.23016357421875,0.07440185546875,0.97589111328125,1.742095947265625,-0.34393310546875,-1.712188720703125,1,1.0,1.0,1.0,1.0,10.00
2024-10-11 20:38:21.035,1.3037764,1.1816214,0.36384714,1.1934056,0.97988075,0.5117083,0.08109041,1.3197876,0.7249275,0.24525109,0.8199789,1.04071,0.7250918,-0.13823861,0.31009087,0.70061505,0.31969947,-0.080453634,0.13350306,0.12923005,786.1172,797.3993,782.8938,773.6264,1012.5641,-0.228515625,0.08270263671875,0.97967529296875,2.61688232421875,-1.233673095703125,-1.786956787109375,1,1.0,1.0,1.0,1.0,10.00
2024-10-11 20:38:21.036,1.3037764,1.1816214,0.36384714,1.1934056,0.97988075,0.5117083,0.08109041,1.3197876,0.7249275,0.24525109,0.8199789,1.04071,0.7250918,-0.13823861,0.31009087,0.70061505,0.31969947,-0.080453634,0.13350306,0.12923005,782.8938,803.0403,781.28204,775.64105,920.696,-0.228515625,0.08270263671875,0.97967529296875,2.61688232421875,-1.233673095703125,-1.786956787109375,1,1.0,1.0,1.0,1.0,10.00
2024-10-11 20:38:21.037,1.3037764,1.1816214,0.36384714,1.1934056,0.97988075,0.5117083,0.08109041,1.3197876,0.7249275,0.24525109,0.8199789,1.04071,0.7250918,-0.13823861,0.31009087,0.70061505,0.31969947,-0.080453634,0.13350306,0.12923005,782.0879,800.2198,777.25275,770.0,788.5348,-0.228515625,0.08270263671875,0.97967529296875,2.61688232421875,-1.233673095703125,-1.786956787109375,1,1.0,1.0,1.0,1.0,10.00
2024-10-11 20:38:21.038,1.3037764,1.1816214,0.36384714,1.1934056,0.97988075,0.5117083,0.08109041,1.3197876,0.7249275,0.24525109,0.8199789,1.04071,0.7250918,-0.13823861,0.31009087,0.70061505,0.31969947,-0.080453634,0.13350306,0.12923005,780.87915,795.38464,772.4176,772.8205,836.08057,-0.228515625,0.08270263671875,0.97967529296875,2.61688232421875,-1.233673095703125,-1.786956787109375,1,1.0,1.0,1.0,1.0,10.00
2024-10-11 20:38:21.038,1.3037764,1.1816214,0.36384714,1.1934056,0.97988075,0.5117083,0.08109041,1.3197876,0.7249275,0.24525109,0.8199789,1.04071,0.7250918,-0.13823861,0.31009087,0.70061505,0.31969947,-0.080453634,0.13350306,0.12923005,776.4469,800.6227,775.2381,777.25275,940.0366,-0.228515625,0.08270263671875,0.97967529296875,2.61688232421875,-1.233673095703125,-1.786956787109375,1,1.0,1.0,1.0,1.0,10.00
