TimeStamp,Delta_TP9,Delta_AF7,Delta_AF8,Delta_TP10,Theta_TP9,Theta_AF7,Theta_AF8,Theta_TP10,Alpha_TP9,Alpha_AF7,Alpha_AF8,Alpha_TP10,Beta_TP9,Beta_AF7,Beta_AF8,Beta_TP10,Gamma_TP9,Gamma_AF7,Gamma_AF8,Gamma_TP10,RAW_TP9,RAW_AF7,RAW_AF8,RAW_TP10,AUX_RIGHT,Accelerometer_X,Accelerometer_Y,Accelerometer_Z,Gyro_X,Gyro_Y,Gyro_Z,HeadBandOn,HSI_TP9,HSI_AF7,HSI_AF8,HSI_TP10,Battery,Elements
2024-10-11 20:43:52.883,0.20289822,0.9016983,1.1571076,0.9692073,0.026341205,0.27235332,0.6247871,0.60213786,0.82301325,0.07718169,0.50837016,1.1181746,0.5202381,0.009511756,0.145483,0.80807203,0.05260551,-0.4151342,-0.2941996,0.122011214,802.23444,791.75824,790.9524,801.4286,975.4945,0.20074462890625,0.122802734375,0.9779052734375,0.441131591796875,-1.18133544921875,-1.981353759765625,1,2.0,1.0,1.0,2.0,10.00
2024-10-11 20:43:52.884,0.20289822,0.9016983,1.1571076,0.9692073,0.026341205,0.27235332,0.6247871,0.60213786,0.82301325,0.07718169,0.50837016,1.1181746,0.5202381,0.009511756,0.145483,0.80807203,0.05260551,-0.4151342,-0.2941996,0.122011214,803.0403,794.57874,789.34064,798.20514,1209.597,0.20074462890625,0.122802734375,0.9779052734375,0.441131591796875,-1.18133544921875,-1.981353759765625,1,2.0,1.0,1.0,2.0,10.00
2024-10-11 20:43:52.885,0.20289822,0.9016983,1.1571076,0.9692073,0.026341205,0.27235332,0.6247871,0.60213786,0.82301325,0.07718169,0.50837016,1.1181746,0.5202381,0.009511756,0.145483,0.80807203,0.05260551,-0.4151342,-0.2941996,0.122011214,800.2198,796.99634,793.7729,790.54944,780.07324,0.20074462890625,0.122802734375,0.9779052734375,0.441131591796875,-1.18133544921875,-1.981353759765625,1,2.0,1.0,1.0,2.0,10.00
2024-10-11 20:43:52.886,0.20289822,0.9016983,1.1571076,0.9692073,0.026341205,0.27235332,0.6247871,0.60213786,0.82301325,0.07718169,0.50837016,1.1181746,0.5202381,0.009511756,0.145483,0.80807203,0.05260551,-0.4151342,-0.2941996,0.122011214,799.81683,801.4286,791.3553,796.99634,691.8315,0.20074462890625,0.122802734375,0.9779052734375,0.441131591796875,-1.18133544921875,-1.981353759765625,1,2.0,1.0,1.0,2.0,10.00
2024-10-11 20:43:52.887,0.20289822,0.9016983,1.1571076,0.9692073,0.026341205,0.27235332,0.6247871,0.60213786,0.82301325,0.07718169,0.50837016,1.1181746,0.5202381,0.009511756,0.145483,0.80807203,0.05260551,-0.4151342,-0.2941996,0.122011214,794.17584,802.6374,791.3553,796.99634,948.49817,0.20074462890625,0.122802734375,0.9779052734375,0.441131591796875,-1.18133544921875,-1.981353759765625,1,2.0,1.0,1.0,2.0,10.00
2024-10-11 20:43:52.888,0.20289822,0.9016983,1.1571076,0.9692073,0.026341205,0.27235332,0.6247871,0.60213786,0.82301325,0.07718169,0.50837016,1.1181746,0.5202381,0.009511756,0.145483,0.80807203,0.05260551,-0.4151342,-0.2941996,0.122011214,801.02563,803.0403,794.17584,790.54944,883.6264,0.20074462890625,0.122802734375,0.9779052734375,0.441131591796875,-1.18133544921875,-1.981353759765625,1,2.0,1.0,1.0,2.0,10.00
2024-10-11 20:43:52.889,0.20289822,0.9016983,1.1571076,0.9692073,0.026341205,0.27235332,0.6247871,0.60213786,0.82301325,0.07718169,0.50837016,1.1181746,0.5202381,0.009511756,0.145483,0.80807203,0.05260551,-0.4151342,-0.2941996,0.122011214,807.47253,798.20514,793.7729,790.54944,786.1172,0.20074462890625,0.122802734375,0.9779052734375,0.441131591796875,-1.18133544921875,-1.981353759765625,1,2.0,1.0,1.0,2.0,10.00
2024-10-11 20:43:52.890,0.20289822,0.9016983,1.1571076,0.9692073,0.026341205,0.27235332,0.6247871,0.60213786,0.82301325,0.07718169,0.50837016,1.1181746,0.5202381,0.009511756,0.145483,0.80807203,0.05260551,-0.4151342,-0.2941996,0.122011214,798.60803,794.17584,797.8022,792.1612,812.3077,0.20074462890625,0.122802734375,0.9779052734375,0.441131591796875,-1.18133544921875,-1.981353759765625,1,2.0,1.0,1.0,2.0,10.00
2024-10-11 20:43:52.891,0.20289822,0.9016983,1.1571076,0.9692073,0.026341205,0.27235332,0.6247871,0.60213786,0.82301325,0.07718169,0.50837016,1.1181746,0.5202381,0.009511756,0.145483,0.80807203,0.05260551,-0.4151342,-0.2941996,0.122011214,795.38464,795.38464,799.81683,791.75824,848.97437,0.20074462890625,0.122802734375,0.9779052734375,0.441131591796875,-1.18133544921875,-1.981353759765625,1,2.0,1.0,1.0,2.0,10.00
2024-10-11 20:43:52.892,0.20289822,0.9016983,1.1571076,0.9692073,0.026341205,0.27235332,0.6247871,0.60213786,0.82301325,0.07718169,0.50837016,1.1181746,0.5202381,0.009511756,0.145483,0.80807203,0.05260551,-0.4151342,-0.2941996,0.122011214,800.6227,799.011,800.2198,798.60803,707.5458,0.20074462890625,0.122802734375,0.9779052734375,0.441131591796875,-1.18133544921875,-1.981353759765625,1,2.0,1.0,1.0,2.0,10.00
2024-10-11 20:43:52.893,0.20289822,0.9016983,1.1571076,0.9692073,0.026341205,0.27235332,0.6247871,0.60213786,0.82301325,0.07718169,0.50837016,1.1181746,0.5202381,0.009511756,0.145483,0.80807203,0.05260551,-0.4151342,-0.2941996,0.122011214,803.44324,799.81683,800.6227,797.3993,599.15753,0.20074462890625,0.122802734375,0.9779052734375,0.441131591796875,-1.18133544921875,-1.981353759765625,1,2.0,1.0,1.0,2.0,10.00
2024-10-11 20:43:52.894,0.20289822,0.88298357,1.1854875,0.9692073,0.026341205,0.2599936,0.643012,0.60213786,0.82301325,0.07718169,0.50837016,1.1181746,0.5202381,0.034373313,0.14438732,0.80807203,0.05260551,-0.40112677,-0.3100794,0.122011214,806.6667,799.81683,799.81683,802.23444,738.5714,0.20074462890625,0.122802734375,0.9779052734375,0.441131591796875,-1.18133544921875,-1.981353759765625,1,2.0,1.0,1.0,2.0,10.00
2024-10-11 20:43:52.977,0.20289822,0.88298357,1.1854875,0.9692073,0.026341205,0.2599936,0.643012,0.60213786,0.82301325,0.07718169,0.50837016,1.1181746,0.5202381,0.034373313,0.14438732,0.80807203,0.05260551,-0.40112677,-0.3100794,0.122011214,807.47253,799.41394,798.20514,809.4872,845.7509,0.19482421875,0.12457275390625,0.98175048828125,0.530853271484375,-2.093505859375,-2.310333251953125,1,2.0,1.0,1.0,2.0,10.00
2024-10-11 20:43:52.978,0.20289822,0.88298357,1.1854875,0.9692073,0.026341205,0.2599936,0.643012,0.60213786,0.82301325,0.07718169,0.50837016,1.1181746,0.5202381,0.034373313,0.14438732,0.80807203,0.05260551,-0.40112677,-0.3100794,0.122011214,802.23444,800.6227,797.3993,803.0403,780.07324,0.19482421875,0.12457275390625,0.98175048828125,0.530853271484375,-2.093505859375,-2.310333251953125,1,2.0,1.0,1.0,2.0,10.00
2024-10-11 20:43:52.980,0.20289822,0.88298357,1.1854875,0.9692073,0.026341205,0.2599936,0.643012,0.60213786,0.82301325,0.07718169,0.50837016,1.1181746,0.5202381,0.034373313,0.14438732,0.80807203,0.05260551,-0.40112677,-0.3100794,0.122011214,797.3993,801.8315,796.5934,796.1905,754.68866,0.19482421875,0.12457275390625,0.98175048828125,0.530853271484375,-2.093505859375,-2.310333251953125,1,2.0,1.0,1.0,2.0,10.00
2024-10-11 20:43:52.981,0.20289822,0.88298357,1.1854875,0.9692073,0.026341205,0.2599936,0.643012,0.60213786,0.82301325,0.07718169,0.50837016,1.1181746,0.5202381,0.034373313,0.14438732,0.80807203,0.05260551,-0.40112677,-0.3100794,0.122011214,798.20514,800.2198,798.60803,800.2198,808.68134,0.19482421875,0.12457275390625,0.98175048828125,0.530853271484375,-2.093505859375,-2.310333251953125,1,2.0,1.0,1.0,2.0,10.00
2024-10-11 20:43:52.982,0.20289822,0.88298357,1.1854875,0.9692073,0.026341205,0.2599936,0.643012,0.60213786,0.82301325,0.07718169,0.50837016,1.1181746,0.5202381,0.034373313,0.14438732,0.80807203,0.05260551,-0.40112677,-0.3100794,0.122011214,800.6227,797.8022,797.3993,806.6667,841.7216,0.19482421875,0.12457275390625,0.98175048828125,0.530853271484375,-2.093505859375,-2.310333251953125,1,2.0,1.0,1.0,2.0,10.00
2024-10-11 20:43:52.983,0.20289822,0.88298357,1.1854875,0.9692073,0.026341205,0.2599936,0.643012,0.60213786,0.82301325,0.07718169,0.50837016,1.1181746,0.5202381,0.034373313,0.14438732,0.80807203,0.05260551,-0.40112677,-0.3100794,0.122011214,805.05493,799.41394,796.1905,800.6227,800.2198,0.19482421875,0.12457275390625,0.98175048828125,0.530853271484375,-2.093505859375,-2.310333251953125,1,2.0,1.0,1.0,2.0,10.00
2024-10-11 20:43:52.984,0.20289822,0.88298357,1.1854875,0.9692073,0.026341205,0.2599936,0.643012,0.60213786,0.82301325,0.07718169,0.50837016,1.1181746,0.5202381,0.034373313,0.14438732,0.80807203,0.05260551,-0.40112677,-0.3100794,0.122011214,811.9048,804.65204,801.8315,799.81683,794.57874,0.19482421875,0.12457275390625,0.98175048828125,0.530853271484375,-2.093505859375,-2.310333251953125,1,2.0,1.0,1.0,2.0,10.00
2024-10-11 20:43:52.985,0.20289822,0.88298357,1.1854875,0.9692073,0.026341205,0.2599936,0.643012,0.60213786,0.82301325,0.07718169,0.50837016,1.1181746,0.5202381,0.034373313,0.14438732,0.80807203,0.05260551,-0.40112677,-0.3100794,0.122011214,806.6667,804.2491,803.44324,809.0842,756.30035,0.19482421875,0.12457275390625,0.98175048828125,0.530853271484375,-2.093505859375,-2.310333251953125,1,2.0,1.0,1.0,2.0,10.00
2024-10-11 20:43:52.986,0.20289822,0.88298357,1.1854875,0.9692073,0.026341205,0.2599936,0.643012,0.60213786,0.82301325,0.07718169,0.50837016,1.1181746,0.5202381,0.034373313,0.14438732,0.80807203,0.05260551,-0.40112677,-0.3100794,0.122011214,796.99634,799.81683,797.8022,799.81683,687.8022,0.19482421875,0.12457275390625,0.98175048828125,0.530853271484375,-2.093505859375,-2.310333251953125,1,2.0,1.0,1.0,2.0,10.00
2024-10-11 20:43:52.987,0.20289822,0.88298357,1.1854875,0.9692073,0.026341205,0.2599936,0.643012,0.60213786,0.82301325,0.07718169,0.50837016,1.1181746,0.5202381,0.034373313,0.14438732,0.80807203,0.05260551,-0.40112677,-0.3100794,0.122011214,800.2198,800.2198,795.78754,795.78754,615.2747,0.19482421875,0.12457275390625,0.98175048828125,0.530853271484375,-2.093505859375,-2.310333251953125,1,2.0,1.0,1.0,2.0,10.00
2024-10-11 20:43:52.988,0.20289822,0.88298357,1.1854875,0.9692073,0.026341205,0.2599936,0.643012,0.60213786,0.82301325,0.07718169,0.50837016,1.1181746,0.5202381,0.034373313,0.14438732,0.80807203,0.05260551,-0.40112677,-0.3100794,0.122011214,804.2491,803.0403,798.20514,796.5934,637.03296,0.19482421875,0.12457275390625,0.98175048828125,0.530853271484375,-2.093505859375,-2.310333251953125,1,2.0,1.0,1.0,2.0,10.00
2024-10-11 20:43:52.989,0.20289822,0.88298357,1.1854875,0.9692073,0.026341205,0.2599936,0.643012,0.60213786,0.82301325,0.07718169,0.50837016,1.1181746,0.5202381,0.034373313,0.14438732,0.80807203,0.05260551,-0.40112677,-0.3100794,0.122011214,804.65204,802.6374,798.60803,803.44324,817.9487,0.19482421875,0.12457275390625,0.98175048828125,0.530853271484375,-2.093505859375,-2.310333251953125,1,2.0,1.0,1.0,2.0,10.00
2024-10-11 20:43:52.989,0.20289822,0.88298357,1.1854875,0.9692073,0.026341205,0.2599936,0.643012,0.60213786,0.82301325,0.07718169,0.50837016,1.1181746,0.5202381,0.034373313,0.14438732,0.80807203,0.05260551,-0.40112677,-0.3100794,0.122011214,801.8315,803.0403,803.44324,805.8608,733.73627,0.19482421875,0.12457275390625,0.98175048828125,0.530853271484375,-2.093505859375,-2.310333251953125,1,2.0,1.0,1.0,2.0,10.00
2024-10-11 20:43:52.990,0.20289822,0.88298357,1.1854875,0.9692073,0.026341205,0.2599936,0.643012,0.60213786,0.82301325,0.07718169,0.50837016,1.1181746,0.5202381,0.034373313,0.14438732,0.80807203,0.05260551,-0.40112677,-0.3100794,0.122011214,795.78754,804.65204,803.44324,802.6374,613.2601,0.19482421875,0.12457275390625,0.98175048828125,0.530853271484375,-2.093505859375,-2.310333251953125,1,2.0,1.0,1.0,2.0,10.00
2024-10-11 20:43:52.991,0.20289822,0.88298357,1.1854875,0.9692073,0.026341205,0.2599936,0.643012,0.60213786,0.82301325,0.07718169,0.50837016,1.1181746,0.5202381,0.034373313,0.14438732,0.80807203,0.05260551,-0.40112677,-0.3100794,0.122011214,794.17584,799.41394,797.8022,798.20514,716.8132,0.19482421875,0.12457275390625,0.98175048828125,0.530853271484375,-2.093505859375,-2.310333251953125,1,2.0,1.0,1.0,2.0,10.00
2024-10-11 20:43:52.992,0.20289822,0.88298357,1.1854875,0.9692073,0.026341205,0.2599936,0.643012,0.60213786,0.82301325,0.07718169,0.50837016,1.1181746,0.5202381,0.034373313,0.14438732,0.80807203,0.05260551,-0.40112677,-0.3100794,0.122011214,806.26373,798.60803,797.3993,796.99634,857.03296,0.19482421875,0.12457275390625,0.98175048828125,0.530853271484375,-2.093505859375,-2.310333251953125,1,2.0,1.0,1.0,2.0,10.00
2024-10-11 20:43:52.993,0.20289822,0.88298357,1.1854875,0.9692073,0.026341205,0.2599936,0.643012,0.60213786,0.82301325,0.07718169,0.50837016,1.1181746,0.5202381,0.034373313,0.14438732,0.80807203,0.05260551,-0.40112677,-0.3100794,0.122011214,806.26373,803.0403,799.41394,801.4286,810.293,0.19482421875,0.12457275390625,0.98175048828125,0.530853271484375,-2.093505859375,-2.310333251953125,1,2.0,1.0,1.0,2.0,10.00
2024-10-11 20:43:52.994,0.20289822,0.88298357,1.1854875,0.9692073,0.026341205,0.2599936,0.643012,0.60213786,0.82301325,0.07718169,0.50837016,1.1181746,0.5202381,0.034373313,0.14438732,0.80807203,0.05260551,-0.40112677,-0.3100794,0.122011214,801.4286,801.02563,798.60803,797.3993,830.0366,0.19482421875,0.12457275390625,0.98175048828125,0.530853271484375,-2.093505859375,-2.310333251953125,1,2.0,1.0,1.0,2.0,10.00
2024-10-11 20:43:52.995,0.20289822,0.88298357,1.1854875,0.9692073,0.026341205,0.2599936,0.643012,0.60213786,0.82301325,0.07718169,0.50837016,1.1181746,0.5202381,0.034373313,0.14438732,0.80807203,0.05260551,-0.40112677,-0.3100794,0.122011214,800.6227,799.81683,798.60803,792.96704,901.3553,0.19482421875,0.12457275390625,0.98175048828125,0.530853271484375,-2.093505859375,-2.310333251953125,1,2.0,1.0,1.0,2.0,10.00
2024-10-11 20:43:52.995,0.20289822,0.88298357,1.1854875,0.9692073,0.026341205,0.2599936,0.643012,0.60213786,0.82301325,0.07718169,0.50837016,1.1181746,0.5202381,0.034373313,0.14438732,0.80807203,0.05260551,-0.40112677,-0.3100794,0.122011214,799.41394,799.41394,799.81683,792.1612,900.9524,0.19482421875,0.12457275390625,0.98175048828125,0.530853271484375,-2.093505859375,-2.310333251953125,1,2.0,1.0,1.0,2.0,10.00
2024-10-11 20:43:52.996,0.20289822,0.88298357,1.1854875,0.9692073,0.026341205,0.2599936,0.643012,0.60213786,0.82301325,0.07718169,0.50837016,1.1181746,0.5202381,0.034373313,0.14438732,0.80807203,0.05260551,-0.40112677,-0.3100794,0.122011214,801.8315,798.60803,799.011,787.326,709.5604,0.19482421875,0.12457275390625,0.98175048828125,0.530853271484375,-2.093505859375,-2.310333251953125,1,2.0,1.0,1.0,2.0,10.00
2024-10-11 20:43:52.997,0.20289822,0.88298357,1.1854875,0.9692073,0.026341205,0.2599936,0.643012,0.60213786,0.82301325,0.07718169,0.50837016,1.1181746,0.5202381,0.034373313,0.14438732,0.80807203,0.05260551,-0.40112677,-0.3100794,0.122011214,802.6374,796.99634,795.78754,790.9524,698.2784,0.19482421875,0.12457275390625,0.98175048828125,0.530853271484375,-2.093505859375,-2.310333251953125,1,2.0,1.0,1.0,2.0,10.00
2024-10-11 20:43:52.998,0.20289822,0.88298357,1.1854875,0.9692073,0.026341205,0.2599936,0.643012,0.60213786,0.82301325,0.07718169,0.50837016,1.1181746,0.5202381,0.034373313,0.14438732,0.80807203,0.05260551,-0.40112677,-0.3100794,0.122011214,797.3993,794.57874,799.011,796.1905,788.5348,0.19482421875,0.12457275390625,0.98175048828125,0.530853271484375,-2.093505859375,-2.310333251953125,1,2.0,1.0,1.0,2.0,10.00
2024-10-11 20:43:52.999,0.20289822,0.88298357,1.1854875,0.9692073,0.026341205,0.2599936,0.643012,0.60213786,0.82301325,0.07718169,0.50837016,1.1181746,0.5202381,0.034373313,0.14438732,0.80807203,0.05260551,-0.40112677,-0.3100794,0.122011214,795.38464,793.36993,799.81683,787.326,854.61536,0.19482421875,0.12457275390625,0.98175048828125,0.530853271484375,-2.093505859375,-2.310333251953125,1,2.0,1.0,1.0,2.0,10.00
2024-10-11 20:43:53.072,0.20289822,0.88298357,1.1854875,0.9692073,0.026341205,0.2599936,0.643012,0.60213786,0.82301325,0.07718169,0.50837016,1.1181746,0.5202381,0.034373313,0.14438732,0.80807203,0.05260551,-0.40112677,-0.3100794,0.122011214,792.96704,796.99634,793.36993,772.8205,807.47253,0.195556640625,0.125732421875,0.974609375,0.575714111328125,-2.564544677734375,-2.235565185546875,1,2.0,1.0,1.0,2.0,10.00
2024-10-11 20:43:53.073,0.20289822,0.8264097,1.2232959,0.9692073,0.026341205,0.25404617,0.6695744,0.60213786,0.82301325,0.065054454,0.48753643,1.1181746,0.5202381,0.075356744,0.12578276,0.80807203,0.05260551,-0.3628729,-0.3128612,0.122011214,786.52014,797.8022,794.57874,772.8205,808.68134,0.195556640625,0.125732421875,0.974609375,0.575714111328125,-2.564544677734375,-2.235565185546875,1,2.0,1.0,1.0,2.0,10.00
2024-10-11 20:43:53.076,0.20289822,0.8264097,1.2232959,0.9692073,0.026341205,0.25404617,0.6695744,0.60213786,0.82301325,0.065054454,0.48753643,1.1181746,0.5202381,0.075356744,0.12578276,0.80807203,0.05260551,-0.3628729,-0.3128612,0.122011214,794.17584,796.1905,799.41394,779.2674,919.0842,0.195556640625,0.125732421875,0.974609375,0.575714111328125,-2.564544677734375,-2.235565185546875,1,2.0,1.0,1.0,2.0,10.00
2024-10-11 20:43:53.077,0.20289822,0.8264097,1.2232959,0.9692073,0.026341205,0.25404617,0.6695744,0.60213786,0.82301325,0.065054454,0.48753643,1.1181746,0.5202381,0.075356744,0.12578276,0.80807203,0.05260551,-0.3628729,-0.3128612,0.122011214,793.7729,798.60803,804.2491,782.0879,884.83514,0.195556640625,0.125732421875,0.974609375,0.575714111328125,-2.564544677734375,-2.235565185546875,1,2.0,1.0,1.0,2.0,10.00
2024-10-11 20:43:53.078,0.20289822,0.8264097,1.2232959,0.9692073,0.026341205,0.25404617,0.6695744,0.60213786,0.82301325,0.065054454,0.48753643,1.1181746,0.5202381,0.075356744,0.12578276,0.80807203,0.05260551,-0.3628729,-0.3128612,0.122011214,788.93774,797.8022,798.60803,784.5055,751.06226,0.195556640625,0.125732421875,0.974609375,0.575714111328125,-2.564544677734375,-2.235565185546875,1,2.0,1.0,1.0,2.0,10.00
2024-10-11 20:43:53.079,0.20289822,0.8264097,1.2232959,0.9692073,0.026341205,0.25404617,0.6695744,0.60213786,0.82301325,0.065054454,0.48753643,1.1181746,0.5202381,0.075356744,0.12578276,0.80807203,0.05260551,-0.3628729,-0.3128612,0.122011214,792.1612,795.38464,795.78754,788.5348,900.14655,0.195556640625,0.125732421875,0.974609375,0.575714111328125,-2.564544677734375,-2.235565185546875,1,2.0,1.0,1.0,2.0,10.00
2024-10-11 20:43:53.080,0.20289822,0.8264097,1.2232959,0.9692073,0.026341205,0.25404617,0.6695744,0.60213786,0.82301325,0.065054454,0.48753643,1.1181746,0.5202381,0.075356744,0.12578276,0.80807203,0.05260551,-0.3628729,-0.3128612,0.122011214,794.17584,796.1905,800.6227,791.75824,1144.3224,0.195556640625,0.125732421875,0.974609375,0.575714111328125,-2.564544677734375,-2.235565185546875,1,2.0,1.0,1.0,2.0,10.00
2024-10-11 20:43:53.081,0.20289822,0.8264097,1.2232959,0.9692073,0.026341205,0.25404617,0.6695744,0.60213786,0.82301325,0.065054454,0.48753643,1.1181746,0.5202381,0.075356744,0.12578276,0.80807203,0.05260551,-0.3628729,-0.3128612,0.122011214,795.38464,799.011,801.4286,792.96704,1027.8755,0.195556640625,0.125732421875,0.974609375,0.575714111328125,-2.564544677734375,-2.235565185546875,1,2.0,1.0,1.0,2.0,10.00
2024-10-11 20:43:53.082,0.20289822,0.8264097,1.2232959,0.9692073,0.026341205,0.25404617,0.6695744,0.60213786,0.82301325,0.065054454,0.48753643,1.1181746,0.5202381,0.075356744,0.12578276,0.80807203,0.05260551,-0.3628729,-0.3128612,0.122011214,790.14655,799.81683,800.2198,789.7436,695.8608,0.195556640625,0.125732421875,0.974609375,0.575714111328125,-2.564544677734375,-2.235565185546875,1,2.0,1.0,1.0,2.0,10.00
2024-10-11 20:43:53.083,0.20289822,0.8264097,1.2232959,0.9692073,0.026341205,0.25404617,0.6695744,0.60213786,0.82301325,0.065054454,0.48753643,1.1181746,0.5202381,0.075356744,0.12578276,0.80807203,0.05260551,-0.3628729,-0.3128612,0.122011214,791.75824,799.81683,802.6374,792.96704,688.60803,0.195556640625,0.125732421875,0.974609375,0.575714111328125,-2.564544677734375,-2.235565185546875,1,2.0,1.0,1.0,2.0,10.00
2024-10-11 20:43:53.083,0.20289822,0.8264097,1.2232959,0.9692073,0.026341205,0.25404617,0.6695744,0.60213786,0.82301325,0.065054454,0.48753643,1.1181746,0.5202381,0.075356744,0.12578276,0.80807203,0.05260551,-0.3628729,-0.3128612,0.122011214,796.1905,798.60803,803.0403,793.7729,966.63007,0.195556640625,0.125732421875,0.974609375,0.575714111328125,-2.564544677734375,-2.235565185546875,1,2.0,1.0,1.0,2.0,10.00
2024-10-11 20:43:53.084,0.20289822,0.8264097,1.2232959,0.9692073,0.026341205,0.25404617,0.6695744,0.60213786,0.82301325,0.065054454,0.48753643,1.1181746,0.5202381,0.075356744,0.12578276,0.80807203,0.05260551,-0.3628729,-0.3128612,0.122011214,794.9817,800.6227,799.41394,788.93774,897.72894,0.195556640625,0.125732421875,0.974609375,0.575714111328125,-2.564544677734375,-2.235565185546875,1,2.0,1.0,1.0,2.0,10.00
2024-10-11 20:43:53.085,0.20289822,0.8264097,1.2232959,0.9692073,0.026341205,0.25404617,0.6695744,0.60213786,0.82301325,0.065054454,0.48753643,1.1181746,0.5202381,0.075356744,0.12578276,0.80807203,0.05260551,-0.3628729,-0.3128612,0.122011214,795.38464,799.81683,803.0403,794.57874,625.7509,0.1995849609375,0.12652587890625,0.97607421875,0.538330078125,-3.760833740234375,-1.891632080078125,1,2.0,1.0,1.0,2.0,10.00
2024-10-11 20:43:53.086,0.20289822,0.8264097,1.2232959,0.9692073,0.026341205,0.25404617,0.6695744,0.60213786,0.82301325,0.065054454,0.48753643,1.1181746,0.5202381,0.075356744,0.12578276,0.80807203,0.05260551,-0.3628729,-0.3128612,0.122011214,801.02563,802.23444,807.47253,801.8315,711.5751,0.1995849609375,0.12652587890625,0.97607421875,0.538330078125,-3.760833740234375,-1.891632080078125,1,2.0,1.0,1.0,2.0,10.00
2024-10-11 20:43:53.087,0.20289822,0.8264097,1.2232959,0.9692073,0.026341205,0.25404617,0.6695744,0.60213786,0.82301325,0.065054454,0.48753643,1.1181746,0.5202381,0.075356744,0.12578276,0.80807203,0.05260551,-0.3628729,-0.3128612,0.122011214,800.2198,807.0696,807.8755,800.6227,893.2967,0.1995849609375,0.12652587890625,0.97607421875,0.538330078125,-3.760833740234375,-1.891632080078125,1,2.0,1.0,1.0,2.0,10.00
2024-10-11 20:43:53.087,0.20289822,0.8264097,1.2232959,0.9692073,0.026341205,0.25404617,0.6695744,0.60213786,0.82301325,0.065054454,0.48753643,1.1181746,0.5202381,0.075356744,0.12578276,0.80807203,0.05260551,-0.3628729,-0.3128612,0.122011214,799.81683,802.6374,807.0696,793.7729,761.53845,0.1995849609375,0.12652587890625,0.97607421875,0.538330078125,-3.760833740234375,-1.891632080078125,1,2.0,1.0,1.0,2.0,10.00
2024-10-11 20:43:53.088,0.20289822,0.8264097,1.2232959,0.9692073,0.026341205,0.25404617,0.6695744,0.60213786,0.82301325,0.065054454,0.48753643,1.1181746,0.5202381,0.075356744,0.12578276,0.80807203,0.05260551,-0.3628729,-0.3128612,0.122011214,802.23444,798.60803,809.0842,800.2198,628.5714,0.1995849609375,0.12652587890625,0.97607421875,0.538330078125,-3.760833740234375,-1.891632080078125,1,2.0,1.0,1.0,2.0,10.00
2024-10-11 20:43:53.088,0.20289822,0.8264097,1.2232959,0.9692073,0.026341205,0.25404617,0.6695744,0.60213786,0.82301325,0.065054454,0.48753643,1.1181746,0.5202381,0.075356744,0.12578276,0.80807203,0.05260551,-0.3628729,-0.3128612,0.122011214,798.60803,795.78754,811.50183,802.23444,797.3993,0.1995849609375,0.12652587890625,0.97607421875,0.538330078125,-3.760833740234375,-1.891632080078125,1,2.0,1.0,1.0,2.0,10.00
2024-10-11 20:43:53.089,0.20289822,0.8264097,1.2232959,0.9692073,0.026341205,0.25404617,0.6695744,0.60213786,0.82301325,0.065054454,0.48753643,1.1181746,0.5202381,0.075356744,0.12578276,0.80807203,0.05260551,-0.3628729,-0.3128612,0.122011214,796.5934,797.8022,802.6374,790.14655,1052.8572,0.1995849609375,0.12652587890625,0.97607421875,0.538330078125,-3.760833740234375,-1.891632080078125,1,2.0,1.0,1.0,2.0,10.00
2024-10-11 20:43:53.089,0.20289822,0.8264097,1.2232959,0.9692073,0.026341205,0.25404617,0.6695744,0.60213786,0.82301325,0.065054454,0.48753643,1.1181746,0.5202381,0.075356744,0.12578276,0.80807203,0.05260551,-0.3628729,-0.3128612,0.122011214,798.20514,802.6374,802.23444,799.41394,899.34064,0.1995849609375,0.12652587890625,0.97607421875,0.538330078125,-3.760833740234375,-1.891632080078125,1,2.0,1.0,1.0,2.0,10.00
2024-10-11 20:43:53.090,0.20289822,0.8264097,1.2232959,0.9692073,0.026341205,0.25404617,0.6695744,0.60213786,0.82301325,0.065054454,0.48753643,1.1181746,0.5202381,0.075356744,0.12578276,0.80807203,0.05260551,-0.3628729,-0.3128612,0.122011214,792.96704,803.0403,805.4579,802.23444,711.978,0.1995849609375,0.12652587890625,0.97607421875,0.538330078125,-3.760833740234375,-1.891632080078125,1,2.0,1.0,1.0,2.0,10.00
2024-10-11 20:43:53.090,0.20289822,0.8264097,1.2232959,0.9692073,0.026341205,0.25404617,0.6695744,0.60213786,0.82301325,0.065054454,0.48753643,1.1181746,0.5202381,0.075356744,0.12578276,0.80807203,0.05260551,-0.3628729,-0.3128612,0.122011214,799.41394,800.2198,799.81683,801.4286,838.49817,0.1995849609375,0.12652587890625,0.97607421875,0.538330078125,-3.760833740234375,-1.891632080078125,1,2.0,1.0,1.0,2.0,10.00
2024-10-11 20:43:53.091,0.20289822,0.8264097,1.2232959,0.9692073,0.026341205,0.25404617,0.6695744,0.60213786,0.82301325,0.065054454,0.48753643,1.1181746,0.5202381,0.075356744,0.12578276,0.80807203,0.05260551,-0.3628729,-0.3128612,0.122011214,805.8608,796.1905,800.6227,805.05493,1058.4982,0.1995849609375,0.12652587890625,0.97607421875,0.538330078125,-3.760833740234375,-1.891632080078125,1,2.0,1.0,1.0,2.0,10.00
2024-10-11 20:43:53.091,0.20289822,0.8264097,1.2232959,0.9692073,0.026341205,0.25404617,0.6695744,0.60213786,0.82301325,0.065054454,0.48753643,1.1181746,0.5202381,0.075356744,0.12578276,0.80807203,0.05260551,-0.3628729,-0.3128612,0.122011214,805.4579,799.41394,806.26373,803.0403,852.6007,0.1995849609375,0.12652587890625,0.97607421875,0.538330078125,-3.760833740234375,-1.891632080078125,1,2.0,1.0,1.0,2.0,10.00
2024-10-11 20:43:53.092,0.20289822,0.8264097,1.2232959,0.9692073,0.026341205,0.25404617,0.6695744,0.60213786,0.82301325,0.065054454,0.48753643,1.1181746,0.5202381,0.075356744,0.12578276,0.80807203,0.05260551,-0.3628729,-0.3128612,0.122011214,801.8315,803.0403,806.6667,802.6374,693.0403,0.2052001953125,0.12567138671875,0.97052001953125,0.31402587890625,-6.198272705078125,-0.471038818359375,1,2.0,1.0,1.0,2.0,10.00
2024-10-11 20:43:53.092,0.20289822,0.8264097,1.2232959,0.9692073,0.026341205,0.25404617,0.6695744,0.60213786,0.82301325,0.065054454,0.48753643,1.1181746,0.5202381,0.075356744,0.12578276,0.80807203,0.05260551,-0.3628729,-0.3128612,0.122011214,804.65204,800.2198,805.8608,801.02563,836.08057,0.2052001953125,0.12567138671875,0.97052001953125,0.31402587890625,-6.198272705078125,-0.471038818359375,1,2.0,1.0,1.0,2.0,10.00
2024-10-11 20:43:53.093,0.20289822,0.8264097,1.2232959,0.9692073,0.026341205,0.25404617,0.6695744,0.60213786,0.82301325,0.065054454,0.48753643,1.1181746,0.5202381,0.075356744,0.12578276,0.80807203,0.05260551,-0.3628729,-0.3128612,0.122011214,806.6667,799.81683,805.05493,803.44324,894.90845,0.2052001953125,0.12567138671875,0.97052001953125,0.31402587890625,-6.198272705078125,-0.471038818359375,1,2.0,1.0,1.0,2.0,10.00
2024-10-11 20:43:53.094,0.20289822,0.7426606,1.2319331,0.9692073,0.026341205,0.22700891,0.6756482,0.60213786,0.82301325,0.050332647,0.45625678,1.1181746,0.5202381,0.12332311,0.09386231,0.80807203,0.05260551,-0.31541517,-0.31969485,0.122011214,799.011,799.011,805.05493,809.4872,704.3223,0.2052001953125,0.12567138671875,0.97052001953125,0.31402587890625,-6.198272705078125,-0.471038818359375,1,2.0,1.0,1.0,2.0,10.00
2024-10-11 20:43:53.098,0.20289822,0.7426606,1.2319331,0.9692073,0.026341205,0.22700891,0.6756482,0.60213786,0.82301325,0.050332647,0.45625678,1.1181746,0.5202381,0.12332311,0.09386231,0.80807203,0.05260551,-0.31541517,-0.31969485,0.122011214,790.9524,794.17584,803.44324,802.23444,653.95605,0.2052001953125,0.12567138671875,0.97052001953125,0.31402587890625,-6.198272705078125,-0.471038818359375,1,2.0,1.0,1.0,2.0,10.00
2024-10-11 20:43:53.099,0.20289822,0.7426606,1.2319331,0.9692073,0.026341205,0.22700891,0.6756482,0.60213786,0.82301325,0.050332647,0.45625678,1.1181746,0.5202381,0.12332311,0.09386231,0.80807203,0.05260551,-0.31541517,-0.31969485,0.122011214,788.93774,793.36993,804.65204,789.7436,969.45056,0.2052001953125,0.12567138671875,0.97052001953125,0.31402587890625,-6.198272705078125,-0.471038818359375,1,2.0,1.0,1.0,2.0,10.00
2024-10-11 20:43:53.100,0.20289822,0.7426606,1.2319331,0.9692073,0.026341205,0.22700891,0.6756482,0.60213786,0.82301325,0.050332647,0.45625678,1.1181746,0.5202381,0.12332311,0.09386231,0.80807203,0.05260551,-0.31541517,-0.31969485,0.122011214,792.5641,797.3993,805.4579,792.96704,922.3077,0.2052001953125,0.12567138671875,0.97052001953125,0.31402587890625,-6.198272705078125,-0.471038818359375,1,2.0,1.0,1.0,2.0,10.00
2024-10-11 20:43:53.101,0.20289822,0.7426606,1.2319331,0.9692073,0.026341205,0.22700891,0.6756482,0.60213786,0.82301325,0.050332647,0.45625678,1.1181746,0.5202381,0.12332311,0.09386231,0.80807203,0.05260551,-0.31541517,-0.31969485,0.122011214,793.7729,799.81683,801.8315,794.57874,593.1135,0.2052001953125,0.12567138671875,0.97052001953125,0.31402587890625,-6.198272705078125,-0.471038818359375,1,2.0,1.0,1.0,2.0,10.00
2024-10-11 20:43:53.101,0.20289822,0.7426606,1.2319331,0.9692073,0.026341205,0.22700891,0.6756482,0.60213786,0.82301325,0.050332647,0.45625678,1.1181746,0.5202381,0.12332311,0.09386231,0.80807203,0.05260551,-0.31541517,-0.31969485,0.122011214,793.36993,796.99634,799.41394,794.57874,576.1905,0.2052001953125,0.12567138671875,0.97052001953125,0.31402587890625,-6.198272705078125,-0.471038818359375,1,2.0,1.0,1.0,2.0,10.00
2024-10-11 20:43:53.102,0.20289822,0.7426606,1.2319331,0.9692073,0.026341205,0.22700891,0.6756482,0.60213786,0.82301325,0.050332647,0.45625678,1.1181746,0.5202381,0.12332311,0.09386231,0.80807203,0.05260551,-0.31541517,-0.31969485,0.122011214,790.54944,795.38464,799.81683,801.8315,700.293,0.2052001953125,0.12567138671875,0.97052001953125,0.31402587890625,-6.198272705078125,-0.471038818359375,1,2.0,1.0,1.0,2.0,10.00
2024-10-11 20:43:53.102,0.20289822,0.7426606,1.2319331,0.9692073,0.026341205,0.22700891,0.6756482,0.60213786,0.82301325,0.050332647,0.45625678,1.1181746,0.5202381,0.12332311,0.09386231,0.80807203,0.05260551,-0.31541517,-0.31969485,0.122011214,803.44324,794.9817,797.8022,799.011,672.8938,0.2052001953125,0.12567138671875,0.97052001953125,0.31402587890625,-6.198272705078125,-0.471038818359375,1,2.0,1.0,1.0,2.0,10.00
2024-10-11 20:43:53.103,0.20289822,0.7426606,1.2319331,0.9692073,0.026341205,0.22700891,0.6756482,0.60213786,0.82301325,0.050332647,0.45625678,1.1181746,0.5202381,0.12332311,0.09386231,0.80807203,0.05260551,-0.31541517,-0.31969485,0.122011214,821.978,794.9817,797.3993,814.3223,593.5165,0.2052001953125,0.12567138671875,0.97052001953125,0.31402587890625,-6.198272705078125,-0.471038818359375,1,2.0,1.0,1.0,2.0,10.00
2024-10-11 20:43:53.200,0.20289822,0.7426606,1.2319331,0.9692073,0.026341205,0.22700891,0.6756482,0.60213786,0.82301325,0.050332647,0.45625678,1.1181746,0.5202381,0.12332311,0.09386231,0.80807203,0.05260551,-0.31541517,-0.31969485,0.122011214,806.6667,793.7729,807.47253,816.7399,624.1392,0.21075439453125,0.1234130859375,0.96795654296875,0.5084228515625,-11.880645751953125,2.85614013671875,1,2.0,1.0,1.0,2.0,10.00
2024-10-11 20:43:53.201,0.20289822,0.7426606,1.2319331,0.9692073,0.026341205,0.22700891,0.6756482,0.60213786,0.82301325,0.050332647,0.45625678,1.1181746,0.5202381,0.12332311,0.09386231,0.80807203,0.05260551,-0.31541517,-0.31969485,0.122011214,773.6264,790.54944,809.4872,795.38464,904.17584,0.21075439453125,0.1234130859375,0.96795654296875,0.5084228515625,-11.880645751953125,2.85614013671875,1,2.0,1.0,1.0,2.0,10.00
2024-10-11 20:43:53.202,0.20289822,0.7426606,1.2319331,0.9692073,0.026341205,0.22700891,0.6756482,0.60213786,0.82301325,0.050332647,0.45625678,1.1181746,0.5202381,0.12332311,0.09386231,0.80807203,0.05260551,-0.31541517,-0.31969485,0.122011214,783.2967,788.5348,806.6667,803.0403,854.21246,0.21075439453125,0.1234130859375,0.96795654296875,0.5084228515625,-11.880645751953125,2.85614013671875,1,2.0,1.0,1.0,2.0,10.00
2024-10-11 20:43:53.202,0.20289822,0.7426606,1.2319331,0.9692073,0.026341205,0.22700891,0.6756482,0.60213786,0.82301325,0.050332647,0.45625678,1.1181746,0.5202381,0.12332311,0.09386231,0.80807203,0.05260551,-0.31541517,-0.31969485,0.122011214,811.50183,788.5348,809.4872,826.4103,689.011,0.21075439453125,0.1234130859375,0.96795654296875,0.5084228515625,-11.880645751953125,2.85614013671875,1,2.0,1.0,1.0,2.0,10.00
2024-10-11 20:43:53.203,0.20289822,0.7426606,1.2319331,0.9692073,0.026341205,0.22700891,0.6756482,0.60213786,0.82301325,0.050332647,0.45625678,1.1181746,0.5202381,0.12332311,0.09386231,0.80807203,0.05260551,-0.31541517,-0.31969485,0.122011214,808.2784,787.72894,813.91943,833.2601,826.4103,0.21075439453125,0.1234130859375,0.96795654296875,0.5084228515625,-11.880645751953125,2.85614013671875,1,2.0,1.0,1.0,2.0,10.00
2024-10-11 20:43:53.204,0.20289822,0.7426606,1.2319331,0.9692073,0.026341205,0.22700891,0.6756482,0.60213786,0.82301325,0.050332647,0.45625678,1.1181746,0.5202381,0.12332311,0.09386231,0.80807203,0.05260551,-0.31541517,-0.31969485,0.122011214,778.86444,791.3553,810.696,809.0842,984.35895,0.21075439453125,0.1234130859375,0.96795654296875,0.5084228515625,-11.880645751953125,2.85614013671875,1,2.0,1.0,1.0,2.0,10.00
2024-10-11 20:43:53.205,0.20289822,0.7426606,1.2319331,0.9692073,0.026341205,0.22700891,0.6756482,0.60213786,0.82301325,0.050332647,0.45625678,1.1181746,0.5202381,0.12332311,0.09386231,0.80807203,0.05260551,-0.31541517,-0.31969485,0.122011214,777.6557,788.1319,814.7253,797.8022,820.7692,0.21075439453125,0.1234130859375,0.96795654296875,0.5084228515625,-11.880645751953125,2.85614013671875,1,2.0,1.0,1.0,2.0,10.00
2024-10-11 20:43:53.206,0.20289822,0.7426606,1.2319331,0.9692073,0.026341205,0.22700891,0.6756482,0.60213786,0.82301325,0.050332647,0.45625678,1.1181746,0.5202381,0.12332311,0.09386231,0.80807203,0.05260551,-0.31541517,-0.31969485,0.122011214,797.3993,784.90845,815.5311,810.696,666.04395,0.21075439453125,0.1234130859375,0.96795654296875,0.5084228515625,-11.880645751953125,2.85614013671875,1,2.0,1.0,1.0,2.0,10.00
2024-10-11 20:43:53.207,0.20289822,0.7426606,1.2319331,0.9692073,0.026341205,0.22700891,0.6756482,0.60213786,0.82301325,0.050332647,0.45625678,1.1181746,0.5202381,0.12332311,0.09386231,0.80807203,0.05260551,-0.31541517,-0.31969485,0.122011214,803.8461,789.34064,808.68134,813.5165,704.7253,0.21075439453125,0.1234130859375,0.96795654296875,0.5084228515625,-11.880645751953125,2.85614013671875,1,2.0,1.0,1.0,2.0,10.00
2024-10-11 20:43:53.207,0.20289822,0.7426606,1.2319331,0.9692073,0.026341205,0.22700891,0.6756482,0.60213786,0.82301325,0.050332647,0.45625678,1.1181746,0.5202381,0.12332311,0.09386231,0.80807203,0.05260551,-0.31541517,-0.31969485,0.122011214,807.47253,792.1612,811.50183,815.9341,880.40295,0.21075439453125,0.1234130859375,0.96795654296875,0.5084228515625,-11.880645751953125,2.85614013671875,1,2.0,1.0,1.0,2.0,10.00
2024-10-11 20:43:53.208,0.20289822,0.7426606,1.2319331,0.9692073,0.026341205,0.22700891,0.6756482,0.60213786,0.82301325,0.050332647,0.45625678,1.1181746,0.5202381,0.12332311,0.09386231,0.80807203,0.05260551,-0.31541517,-0.31969485,0.122011214,800.2198,789.7436,811.9048,805.05493,740.58606,0.21075439453125,0.1234130859375,0.96795654296875,0.5084228515625,-11.880645751953125,2.85614013671875,1,2.0,1.0,1.0,2.0,10.00
2024-10-11 20:43:53.209,0.20289822,0.7426606,1.2319331,0.9692073,0.026341205,0.22700891,0.6756482,0.60213786,0.82301325,0.050332647,0.45625678,1.1181746,0.5202381,0.12332311,0.09386231,0.80807203,0.05260551,-0.31541517,-0.31969485,0.122011214,791.3553,787.72894,808.68134,795.78754,649.5238,0.21075439453125,0.1234130859375,0.96795654296875,0.5084228515625,-11.880645751953125,2.85614013671875,1,2.0,1.0,1.0,2.0,10.00
2024-10-11 20:43:53.209,0.20289822,0.7426606,1.2319331,0.9692073,0.026341205,0.22700891,0.6756482,0.60213786,0.82301325,0.050332647,0.45625678,1.1181746,0.5202381,0.12332311,0.09386231,0.80807203,0.05260551,-0.31541517,-0.31969485,0.122011214,795.78754,788.93774,810.696,796.99634,794.9817,0.21075439453125,0.1234130859375,0.96795654296875,0.5084228515625,-11.880645751953125,2.85614013671875,1,2.0,1.0,1.0,2.0,10.00
2024-10-11 20:43:53.210,0.20289822,0.7426606,1.2319331,0.9692073,0.026341205,0.22700891,0.6756482,0.60213786,0.82301325,0.050332647,0.45625678,1.1181746,0.5202381,0.12332311,0.09386231,0.80807203,0.05260551,-0.31541517,-0.31969485,0.122011214,796.1905,783.69965,817.5458,799.81683,851.79486,0.21075439453125,0.1234130859375,0.96795654296875,0.5084228515625,-11.880645751953125,2.85614013671875,1,2.0,1.0,1.0,2.0,10.00
2024-10-11 20:43:53.210,0.20289822,0.7426606,1.2319331,0.9692073,0.026341205,0.22700891,0.6756482,0.60213786,0.82301325,0.050332647,0.45625678,1.1181746,0.5202381,0.12332311,0.09386231,0.80807203,0.05260551,-0.31541517,-0.31969485,0.122011214,796.1905,778.46155,816.7399,805.8608,633.00366,0.21075439453125,0.1234130859375,0.96795654296875,0.5084228515625,-11.880645751953125,2.85614013671875,1,2.0,1.0,1.0,2.0,10.00
2024-10-11 20:43:53.211,0.20289822,0.7426606,1.2319331,0.9692073,0.026341205,0.22700891,0.6756482,0.60213786,0.82301325,0.050332647,0.45625678,1.1181746,0.5202381,0.12332311,0.09386231,0.80807203,0.05260551,-0.31541517,-0.31969485,0.122011214,806.26373,780.87915,814.7253,811.50183,647.50916,0.21075439453125,0.1234130859375,0.96795654296875,0.5084228515625,-11.880645751953125,2.85614013671875,1,2.0,1.0,1.0,2.0,10.00
2024-10-11 20:43:53.212,0.20289822,0.7426606,1.2319331,0.9692073,0.026341205,0.22700891,0.6756482,0.60213786,0.82301325,0.050332647,0.45625678,1.1181746,0.5202381,0.12332311,0.09386231,0.80807203,0.05260551,-0.31541517,-0.31969485,0.122011214,803.44324,785.31134,814.7253,816.337,948.49817,0.21075439453125,0.1234130859375,0.96795654296875,0.5084228515625,-11.880645751953125,2.85614013671875,1,2.0,1.0,1.0,2.0,10.00
2024-10-11 20:43:53.212,0.8738519,0.64848995,1.2099041,0.9692073,0.7532528,0.17260078,0.6633839,0.60213786,0.801098,-0.35101402,0.45193353,1.1181746,0.473988,0.16933997,0.06522696,0.80807203,0.20850319,-0.2835429,-0.3359121,0.122011214,788.5348,785.7143,811.9048,806.6667,1037.9487,0.21075439453125,0.1234130859375,0.96795654296875,0.5084228515625,-11.880645751953125,2.85614013671875,1,2.0,1.0,1.0,2.0,10.00
2024-10-11 20:43:53.217,0.8738519,0.64848995,1.2099041,0.9692073,0.7532528,0.17260078,0.6633839,0.60213786,0.801098,-0.35101402,0.45193353,1.1181746,0.473988,0.16933997,0.06522696,0.80807203,0.20850319,-0.2835429,-0.3359121,0.122011214,787.326,777.25275,816.337,803.8461,818.3516,0.21075439453125,0.1234130859375,0.96795654296875,0.5084228515625,-11.880645751953125,2.85614013671875,1,2.0,1.0,1.0,2.0,10.00
2024-10-11 20:43:53.217,0.8738519,0.64848995,1.2099041,0.9692073,0.7532528,0.17260078,0.6633839,0.60213786,0.801098,-0.35101402,0.45193353,1.1181746,0.473988,0.16933997,0.06522696,0.80807203,0.20850319,-0.2835429,-0.3359121,0.122011214,799.81683,773.22345,814.7253,813.91943,672.49084,0.21075439453125,0.1234130859375,0.96795654296875,0.5084228515625,-11.880645751953125,2.85614013671875,1,2.0,1.0,1.0,2.0,10.00
2024-10-11 20:43:53.218,0.8738519,0.64848995,1.2099041,0.9692073,0.7532528,0.17260078,0.6633839,0.60213786,0.801098,-0.35101402,0.45193353,1.1181746,0.473988,0.16933997,0.06522696,0.80807203,0.20850319,-0.2835429,-0.3359121,0.122011214,819.5604,782.0879,811.0989,830.84247,854.61536,0.21075439453125,0.1234130859375,0.96795654296875,0.5084228515625,-11.880645751953125,2.85614013671875,1,2.0,1.0,1.0,2.0,10.00
2024-10-11 20:43:53.219,0.8738519,0.64848995,1.2099041,0.9692073,0.7532528,0.17260078,0.6633839,0.60213786,0.801098,-0.35101402,0.45193353,1.1181746,0.473988,0.16933997,0.06522696,0.80807203,0.20850319,-0.2835429,-0.3359121,0.122011214,828.022,788.5348,813.1135,838.0952,851.39197,0.21075439453125,0.1234130859375,0.96795654296875,0.5084228515625,-11.880645751953125,2.85614013671875,1,2.0,1.0,1.0,2.0,10.00
2024-10-11 20:43:53.220,0.8738519,0.64848995,1.2099041,0.9692073,0.7532528,0.17260078,0.6633839,0.60213786,0.801098,-0.35101402,0.45193353,1.1181746,0.473988,0.16933997,0.06522696,0.80807203,0.20850319,-0.2835429,-0.3359121,0.122011214,809.4872,786.1172,809.89014,814.7253,613.663,0.21075439453125,0.1234130859375,0.96795654296875,0.5084228515625,-11.880645751953125,2.85614013671875,1,2.0,1.0,1.0,2.0,10.00
2024-10-11 20:43:53.221,0.8738519,0.64848995,1.2099041,0.9692073,0.7532528,0.17260078,0.6633839,0.60213786,0.801098,-0.35101402,0.45193353,1.1181746,0.473988,0.16933997,0.06522696,0.80807203,0.20850319,-0.2835429,-0.3359121,0.122011214,798.20514,784.10254,809.0842,805.05493,648.315,0.21075439453125,0.1234130859375,0.96795654296875,0.5084228515625,-11.880645751953125,2.85614013671875,1,2.0,1.0,1.0,2.0,10.00
2024-10-11 20:43:53.248,0.8738519,0.64848995,1.2099041,0.9692073,0.7532528,0.17260078,0.6633839,0.60213786,0.801098,-0.35101402,0.45193353,1.1181746,0.473988,0.16933997,0.06522696,0.80807203,0.20850319,-0.2835429,-0.3359121,0.122011214,794.9817,783.69965,810.696,814.3223,927.5458,0.24053955078125,0.12225341796875,0.97833251953125,0.0299072265625,-14.23583984375,5.001983642578125,1,2.0,1.0,1.0,2.0,10.00
2024-10-11 20:43:53.249,0.8738519,0.64848995,1.2099041,0.9692073,0.7532528,0.17260078,0.6633839,0.60213786,0.801098,-0.35101402,0.45193353,1.1181746,0.473988,0.16933997,0.06522696,0.80807203,0.20850319,-0.2835429,-0.3359121,0.122011214,804.2491,786.1172,814.3223,823.9927,864.68866,0.24053955078125,0.12225341796875,0.97833251953125,0.0299072265625,-14.23583984375,5.001983642578125,1,2.0,1.0,1.0,2.0,10.00
2024-10-11 20:43:53.250,0.8738519,0.64848995,1.2099041,0.9692073,0.7532528,0.17260078,0.6633839,0.60213786,0.801098,-0.35101402,0.45193353,1.1181746,0.473988,0.16933997,0.06522696,0.80807203,0.20850319,-0.2835429,-0.3359121,0.122011214,817.1429,784.10254,820.3663,831.2454,707.5458,0.24053955078125,0.12225341796875,0.97833251953125,0.0299072265625,-14.23583984375,5.001983642578125,1,2.0,1.0,1.0,2.0,10.00
2024-10-11 20:43:53.251,0.8738519,0.64848995,1.2099041,0.9692073,0.7532528,0.17260078,0.6633839,0.60213786,0.801098,-0.35101402,0.45193353,1.1181746,0.473988,0.16933997,0.06522696,0.80807203,0.20850319,-0.2835429,-0.3359121,0.122011214,809.89014,780.07324,823.1868,834.0659,796.1905,0.24053955078125,0.12225341796875,0.97833251953125,0.0299072265625,-14.23583984375,5.001983642578125,1,2.0,1.0,1.0,2.0,10.00
2024-10-11 20:43:53.251,0.8738519,0.64848995,1.2099041,0.9692073,0.7532528,0.17260078,0.6633839,0.60213786,0.801098,-0.35101402,0.45193353,1.1181746,0.473988,0.16933997,0.06522696,0.80807203,0.20850319,-0.2835429,-0.3359121,0.122011214,805.4579,773.6264,821.978,841.7216,989.59705,0.24053955078125,0.12225341796875,0.97833251953125,0.0299072265625,-14.23583984375,5.001983642578125,1,2.0,1.0,1.0,2.0,10.00
2024-10-11 20:43:53.252,0.8738519,0.64848995,1.2099041,0.9692073,0.7532528,0.17260078,0.6633839,0.60213786,0.801098,-0.35101402,0.45193353,1.1181746,0.473988,0.16933997,0.06522696,0.80807203,0.20850319,-0.2835429,-0.3359121,0.122011214,817.9487,773.22345,817.9487,835.6777,905.38464,0.24053955078125,0.12225341796875,0.97833251953125,0.0299072265625,-14.23583984375,5.001983642578125,1,2.0,1.0,1.0,2.0,10.00
2024-10-11 20:43:53.253,0.8738519,0.64848995,1.2099041,0.9692073,0.7532528,0.17260078,0.6633839,0.60213786,0.801098,-0.35101402,0.45193353,1.1181746,0.473988,0.16933997,0.06522696,0.80807203,0.20850319,-0.2835429,-0.3359121,0.122011214,815.12823,780.4762,812.71063,815.9341,792.96704,0.24053955078125,0.12225341796875,0.97833251953125,0.0299072265625,-14.23583984375,5.001983642578125,1,2.0,1.0,1.0,2.0,10.00
2024-10-11 20:43:53.253,0.8738519,0.64848995,1.2099041,0.9692073,0.7532528,0.17260078,0.6633839,0.60213786,0.801098,-0.35101402,0.45193353,1.1181746,0.473988,0.16933997,0.06522696,0.80807203,0.20850319,-0.2835429,-0.3359121,0.122011214,811.0989,783.2967,810.696,815.9341,876.77655,0.24053955078125,0.12225341796875,0.97833251953125,0.0299072265625,-14.23583984375,5.001983642578125,1,2.0,1.0,1.0,2.0,10.00
2024-10-11 20:43:53.254,0.8738519,0.64848995,1.2099041,0.9692073,0.7532528,0.17260078,0.6633839,0.60213786,0.801098,-0.35101402,0.45193353,1.1181746,0.473988,0.16933997,0.06522696,0.80807203,0.20850319,-0.2835429,-0.3359121,0.122011214,813.5165,783.2967,809.89014,817.9487,925.5311,0.24053955078125,0.12225341796875,0.97833251953125,0.0299072265625,-14.23583984375,5.001983642578125,1,2.0,1.0,1.0,2.0,10.00
2024-10-11 20:43:53.254,0.8738519,0.64848995,1.2099041,0.9692073,0.7532528,0.17260078,0.6633839,0.60213786,0.801098,-0.35101402,0.45193353,1.1181746,0.473988,0.16933997,0.06522696,0.80807203,0.20850319,-0.2835429,-0.3359121,0.122011214,817.1429,784.90845,807.47253,818.3516,787.326,0.24053955078125,0.12225341796875,0.97833251953125,0.0299072265625,-14.23583984375,5.001983642578125,1,2.0,1.0,1.0,2.0,10.00
2024-10-11 20:43:53.255,0.8738519,0.64848995,1.2099041,0.9692073,0.7532528,0.17260078,0.6633839,0.60213786,0.801098,-0.35101402,0.45193353,1.1181746,0.473988,0.16933997,0.06522696,0.80807203,0.20850319,-0.2835429,-0.3359121,0.122011214,820.3663,785.7143,809.4872,820.3663,724.87177,0.24053955078125,0.12225341796875,0.97833251953125,0.0299072265625,-14.23583984375,5.001983642578125,1,2.0,1.0,1.0,2.0,10.00
2024-10-11 20:43:53.255,0.8738519,0.64848995,1.2099041,0.9692073,0.7532528,0.17260078,0.6633839,0.60213786,0.801098,-0.35101402,0.45193353,1.1181746,0.473988,0.16933997,0.06522696,0.80807203,0.20850319,-0.2835429,-0.3359121,0.122011214,813.5165,783.2967,807.0696,815.12823,801.02563,0.24053955078125,0.12225341796875,0.97833251953125,0.0299072265625,-14.23583984375,5.001983642578125,1,2.0,1.0,1.0,2.0,10.00
2024-10-11 20:43:53.256,0.8738519,0.64848995,1.2099041,0.9692073,0.7532528,0.17260078,0.6633839,0.60213786,0.801098,-0.35101402,0.45193353,1.1181746,0.473988,0.16933997,0.06522696,0.80807203,0.20850319,-0.2835429,-0.3359121,0.122011214,799.81683,782.0879,804.65204,815.9341,880.40295,0.28204345703125,0.12322998046875,0.96795654296875,1.00189208984375,-7.813262939453125,3.21502685546875,1,2.0,1.0,1.0,2.0,10.00
2024-10-11 20:43:53.256,0.8738519,0.64848995,1.2099041,0.9692073,0.7532528,0.17260078,0.6633839,0.60213786,0.801098,-0.35101402,0.45193353,1.1181746,0.473988,0.16933997,0.06522696,0.80807203,0.20850319,-0.2835429,-0.3359121,0.122011214,810.293,788.5348,806.26373,831.2454,799.011,0.28204345703125,0.12322998046875,0.96795654296875,1.00189208984375,-7.813262939453125,3.21502685546875,1,2.0,1.0,1.0,2.0,10.00
2024-10-11 20:43:53.257,0.8738519,0.64848995,1.2099041,0.9692073,0.7532528,0.17260078,0.6633839,0.60213786,0.801098,-0.35101402,0.45193353,1.1181746,0.473988,0.16933997,0.06522696,0.80807203,0.20850319,-0.2835429,-0.3359121,0.122011214,824.3956,795.78754,803.8461,827.619,736.9597,0.28204345703125,0.12322998046875,0.96795654296875,1.00189208984375,-7.813262939453125,3.21502685546875,1,2.0,1.0,1.0,2.0,10.00
2024-10-11 20:43:53.258,0.8738519,0.64848995,1.2099041,0.9692073,0.7532528,0.17260078,0.6633839,0.60213786,0.801098,-0.35101402,0.45193353,1.1181746,0.473988,0.16933997,0.06522696,0.80807203,0.20850319,-0.2835429,-0.3359121,0.122011214,813.5165,791.75824,802.23444,809.89014,817.5458,0.28204345703125,0.12322998046875,0.96795654296875,1.00189208984375,-7.813262939453125,3.21502685546875,1,2.0,1.0,1.0,2.0,10.00
2024-10-11 20:43:53.258,0.8738519,0.64848995,1.2099041,0.9692073,0.7532528,0.17260078,0.6633839,0.60213786,0.801098,-0.35101402,0.45193353,1.1181746,0.473988,0.16933997,0.06522696,0.80807203,0.20850319,-0.2835429,-0.3359121,0.122011214,813.91943,791.3553,802.6374,809.4872,830.0366,0.28204345703125,0.12322998046875,0.96795654296875,1.00189208984375,-7.813262939453125,3.21502685546875,1,2.0,1.0,1.0,2.0,10.00
2024-10-11 20:43:53.259,0.8738519,0.64848995,1.2099041,0.9692073,0.7532528,0.17260078,0.6633839,0.60213786,0.801098,-0.35101402,0.45193353,1.1181746,0.473988,0.16933997,0.06522696,0.80807203,0.20850319,-0.2835429,-0.3359121,0.122011214,811.0989,795.38464,805.4579,814.3223,867.50916,0.28204345703125,0.12322998046875,0.96795654296875,1.00189208984375,-7.813262939453125,3.21502685546875,1,2.0,1.0,1.0,2.0,10.00
2024-10-11 20:43:53.259,0.8738519,0.64848995,1.2099041,0.9692073,0.7532528,0.17260078,0.6633839,0.60213786,0.801098,-0.35101402,0.45193353,1.1181746,0.473988,0.16933997,0.06522696,0.80807203,0.20850319,-0.2835429,-0.3359121,0.122011214,810.293,799.011,807.47253,813.91943,875.56775,0.28204345703125,0.12322998046875,0.96795654296875,1.00189208984375,-7.813262939453125,3.21502685546875,1,2.0,1.0,1.0,2.0,10.00
2024-10-11 20:43:53.260,0.8486156,0.6191464,1.171523,0.312706,0.7155091,0.14885686,0.631178,0.606458,0.8052046,-0.3279289,0.43935013,0.88210654,0.47103238,0.17418432,0.050091077,0.6766753,0.16486914,-0.27290246,-0.364996,-0.0036820383,813.91943,801.02563,806.6667,819.5604,867.50916,0.28204345703125,0.12322998046875,0.96795654296875,1.00189208984375,-7.813262939453125,3.21502685546875,1,1.0,1.0,1.0,1.0,10.00
2024-10-11 20:43:53.264,0.8486156,0.6191464,1.171523,0.312706,0.7155091,0.14885686,0.631178,0.606458,0.8052046,-0.3279289,0.43935013,0.88210654,0.47103238,0.17418432,0.050091077,0.6766753,0.16486914,-0.27290246,-0.364996,-0.0036820383,808.2784,799.41394,807.47253,814.3223,773.22345,0.28204345703125,0.12322998046875,0.96795654296875,1.00189208984375,-7.813262939453125,3.21502685546875,1,1.0,1.0,1.0,1.0,10.00
2024-10-11 20:43:53.264,0.8486156,0.6191464,1.171523,0.312706,0.7155091,0.14885686,0.631178,0.606458,0.8052046,-0.3279289,0.43935013,0.88210654,0.47103238,0.17418432,0.050091077,0.6766753,0.16486914,-0.27290246,-0.364996,-0.0036820383,801.02563,795.78754,803.44324,802.23444,713.1868,0.28204345703125,0.12322998046875,0.96795654296875,1.00189208984375,-7.813262939453125,3.21502685546875,1,1.0,1.0,1.0,1.0,10.00
2024-10-11 20:43:53.265,0.8486156,0.6191464,1.171523,0.312706,0.7155091,0.14885686,0.631178,0.606458,0.8052046,-0.3279289,0.43935013,0.88210654,0.47103238,0.17418432,0.050091077,0.6766753,0.16486914,-0.27290246,-0.364996,-0.0036820383,805.05493,793.36993,799.011,807.47253,727.28937,0.28204345703125,0.12322998046875,0.96795654296875,1.00189208984375,-7.813262939453125,3.21502685546875,1,1.0,1.0,1.0,1.0,10.00
2024-10-11 20:43:53.265,0.8486156,0.6191464,1.171523,0.312706,0.7155091,0.14885686,0.631178,0.606458,0.8052046,-0.3279289,0.43935013,0.88210654,0.47103238,0.17418432,0.050091077,0.6766753,0.16486914,-0.27290246,-0.364996,-0.0036820383,802.6374,794.9817,801.02563,822.7839,872.74725,0.28204345703125,0.12322998046875,0.96795654296875,1.00189208984375,-7.813262939453125,3.21502685546875,1,1.0,1.0,1.0,1.0,10.00
2024-10-11 20:43:53.266,0.8486156,0.6191464,1.171523,0.312706,0.7155091,0.14885686,0.631178,0.606458,0.8052046,-0.3279289,0.43935013,0.88210654,0.47103238,0.17418432,0.050091077,0.6766753,0.16486914,-0.27290246,-0.364996,-0.0036820383,791.3553,791.75824,803.0403,824.7985,1174.9451,0.28570556640625,0.12408447265625,0.96771240234375,2.19818115234375,2.75146484375,-1.89910888671875,1,1.0,1.0,1.0,1.0,10.00
2024-10-11 20:43:53.266,0.8486156,0.6191464,1.171523,0.312706,0.7155091,0.14885686,0.631178,0.606458,0.8052046,-0.3279289,0.43935013,0.88210654,0.47103238,0.17418432,0.050091077,0.6766753,0.16486914,-0.27290246,-0.364996,-0.0036820383,807.47253,793.7729,801.4286,825.6044,1225.3114,0.28570556640625,0.12408447265625,0.96771240234375,2.19818115234375,2.75146484375,-1.89910888671875,1,1.0,1.0,1.0,1.0,10.00
2024-10-11 20:43:53.267,0.8486156,0.6191464,1.171523,0.312706,0.7155091,0.14885686,0.631178,0.606458,0.8052046,-0.3279289,0.43935013,0.88210654,0.47103238,0.17418432,0.050091077,0.6766753,0.16486914,-0.27290246,-0.364996,-0.0036820383,809.0842,802.23444,796.5934,815.12823,1052.8572,0.28570556640625,0.12408447265625,0.96771240234375,2.19818115234375,2.75146484375,-1.89910888671875,1,1.0,1.0,1.0,1.0,10.00
2024-10-11 20:43:53.268,0.8486156,0.6191464,1.171523,0.312706,0.7155091,0.14885686,0.631178,0.606458,0.8052046,-0.3279289,0.43935013,0.88210654,0.47103238,0.17418432,0.050091077,0.6766753,0.16486914,-0.27290246,-0.364996,-0.0036820383,809.89014,803.44324,791.3553,797.3993,950.9158,0.28570556640625,0.12408447265625,0.96771240234375,2.19818115234375,2.75146484375,-1.89910888671875,1,1.0,1.0,1.0,1.0,10.00
2024-10-11 20:43:53.268,0.8486156,0.6191464,1.171523,0.312706,0.7155091,0.14885686,0.631178,0.606458,0.8052046,-0.3279289,0.43935013,0.88210654,0.47103238,0.17418432,0.050091077,0.6766753,0.16486914,-0.27290246,-0.364996,-0.0036820383,815.5311,801.8315,792.5641,792.1612,735.7509,0.28570556640625,0.12408447265625,0.96771240234375,2.19818115234375,2.75146484375,-1.89910888671875,1,1.0,1.0,1.0,1.0,10.00
2024-10-11 20:43:53.269,0.8486156,0.6191464,1.171523,0.312706,0.7155091,0.14885686,0.631178,0.606458,0.8052046,-0.3279289,0.43935013,0.88210654,0.47103238,0.17418432,0.050091077,0.6766753,0.16486914,-0.27290246,-0.364996,-0.0036820383,808.68134,804.2491,792.1612,792.5641,607.2161,0.28570556640625,0.12408447265625,0.96771240234375,2.19818115234375,2.75146484375,-1.89910888671875,1,1.0,1.0,1.0,1.0,10.00
2024-10-11 20:43:53.269,0.8486156,0.6191464,1.171523,0.312706,0.7155091,0.14885686,0.631178,0.606458,0.8052046,-0.3279289,0.43935013,0.88210654,0.47103238,0.17418432,0.050091077,0.6766753,0.16486914,-0.27290246,-0.364996,-0.0036820383,809.89014,805.4579,790.9524,803.44324,764.35895,0.28570556640625,0.12408447265625,0.96771240234375,2.19818115234375,2.75146484375,-1.89910888671875,1,1.0,1.0,1.0,1.0,10.00
2024-10-11 20:43:53.270,0.8486156,0.6191464,1.171523,0.312706,0.7155091,0.14885686,0.631178,0.606458,0.8052046,-0.3279289,0.43935013,0.88210654,0.47103238,0.17418432,0.050091077,0.6766753,0.16486914,-0.27290246,-0.364996,-0.0036820383,815.9341,805.8608,790.9524,799.81683,803.44324,0.28570556640625,0.12408447265625,0.96771240234375,2.19818115234375,2.75146484375,-1.89910888671875,1,1.0,1.0,1.0,1.0,10.00
2024-10-11 20:43:53.270,0.8486156,0.6191464,1.171523,0.312706,0.7155091,0.14885686,0.631178,0.606458,0.8052046,-0.3279289,0.43935013,0.88210654,0.47103238,0.17418432,0.050091077,0.6766753,0.16486914,-0.27290246,-0.364996,-0.0036820383,821.1722,807.8755,786.9231,799.011,659.19415,0.28570556640625,0.12408447265625,0.96771240234375,2.19818115234375,2.75146484375,-1.89910888671875,1,1.0,1.0,1.0,1.0,10.00
2024-10-11 20:43:53.270,0.8486156,0.6191464,1.171523,0.312706,0.7155091,0.14885686,0.631178,0.606458,0.8052046,-0.3279289,0.43935013,0.88210654,0.47103238,0.17418432,0.050091077,0.6766753,0.16486914,-0.27290246,-0.364996,-0.0036820383,816.337,811.9048,789.34064,800.2198,581.4286,0.28570556640625,0.12408447265625,0.96771240234375,2.19818115234375,2.75146484375,-1.89910888671875,1,1.0,1.0,1.0,1.0,10.00
2024-10-11 20:43:53.271,0.8486156,0.6191464,1.171523,0.312706,0.7155091,0.14885686,0.631178,0.606458,0.8052046,-0.3279289,0.43935013,0.88210654,0.47103238,0.17418432,0.050091077,0.6766753,0.16486914,-0.27290246,-0.364996,-0.0036820383,811.9048,815.12823,788.93774,803.44324,656.3736,0.28570556640625,0.12408447265625,0.96771240234375,2.19818115234375,2.75146484375,-1.89910888671875,1,1.0,1.0,1.0,1.0,10.00
2024-10-11 20:43:53.271,0.8486156,0.6191464,1.171523,0.312706,0.7155091,0.14885686,0.631178,0.606458,0.8052046,-0.3279289,0.43935013,0.88210654,0.47103238,0.17418432,0.050091077,0.6766753,0.16486914,-0.27290246,-0.364996,-0.0036820383,814.3223,807.47253,792.5641,813.1135,739.3773,0.28570556640625,0.12408447265625,0.96771240234375,2.19818115234375,2.75146484375,-1.89910888671875,1,1.0,1.0,1.0,1.0,10.00
2024-10-11 20:43:53.296,0.8486156,0.6191464,1.171523,0.312706,0.7155091,0.14885686,0.631178,0.606458,0.8052046,-0.3279289,0.43935013,0.88210654,0.47103238,0.17418432,0.050091077,0.6766753,0.16486914,-0.27290246,-0.364996,-0.0036820383,809.0842,796.99634,794.17584,804.2491,780.07324,0.27850341796875,0.1263427734375,0.96441650390625,3.955230712890625,10.7965087890625,-4.388885498046875,1,1.0,1.0,1.0,1.0,10.00
2024-10-11 20:43:53.297,0.8486156,0.6191464,1.171523,0.312706,0.7155091,0.14885686,0.631178,0.606458,0.8052046,-0.3279289,0.43935013,0.88210654,0.47103238,0.17418432,0.050091077,0.6766753,0.16486914,-0.27290246,-0.364996,-0.0036820383,806.6667,799.41394,791.75824,809.0842,675.31134,0.27850341796875,0.1263427734375,0.96441650390625,3.955230712890625,10.7965087890625,-4.388885498046875,1,1.0,1.0,1.0,1.0,10.00
2024-10-11 20:43:53.297,0.8486156,0.6191464,1.171523,0.312706,0.7155091,0.14885686,0.631178,0.606458,0.8052046,-0.3279289,0.43935013,0.88210654,0.47103238,0.17418432,0.050091077,0.6766753,0.16486914,-0.27290246,-0.364996,-0.0036820383,815.12823,801.8315,788.1319,813.1135,756.7033,0.27850341796875,0.1263427734375,0.96441650390625,3.955230712890625,10.7965087890625,-4.388885498046875,1,1.0,1.0,1.0,1.0,10.00
2024-10-11 20:43:53.298,0.8486156,0.6191464,1.171523,0.312706,0.7155091,0.14885686,0.631178,0.606458,0.8052046,-0.3279289,0.43935013,0.88210654,0.47103238,0.17418432,0.050091077,0.6766753,0.16486914,-0.27290246,-0.364996,-0.0036820383,821.1722,801.8315,792.5641,815.12823,939.2308,0.27850341796875,0.1263427734375,0.96441650390625,3.955230712890625,10.7965087890625,-4.388885498046875,1,1.0,1.0,1.0,1.0,10.00
2024-10-11 20:43:53.298,0.8486156,0.6191464,1.171523,0.312706,0.7155091,0.14885686,0.631178,0.606458,0.8052046,-0.3279289,0.43935013,0.88210654,0.47103238,0.17418432,0.050091077,0.6766753,0.16486914,-0.27290246,-0.364996,-0.0036820383,816.337,802.23444,801.4286,823.5897,685.78754,0.27850341796875,0.1263427734375,0.96441650390625,3.955230712890625,10.7965087890625,-4.388885498046875,1,1.0,1.0,1.0,1.0,10.00
2024-10-11 20:43:53.299,0.8486156,0.6191464,1.171523,0.312706,0.7155091,0.14885686,0.631178,0.606458,0.8052046,-0.3279289,0.43935013,0.88210654,0.47103238,0.17418432,0.050091077,0.6766753,0.16486914,-0.27290246,-0.364996,-0.0036820383,814.7253,800.6227,797.8022,817.1429,691.8315,0.27850341796875,0.1263427734375,0.96441650390625,3.955230712890625,10.7965087890625,-4.388885498046875,1,1.0,1.0,1.0,1.0,10.00
2024-10-11 20:43:53.299,0.8486156,0.6191464,1.171523,0.312706,0.7155091,0.14885686,0.631178,0.606458,0.8052046,-0.3279289,0.43935013,0.88210654,0.47103238,0.17418432,0.050091077,0.6766753,0.16486914,-0.27290246,-0.364996,-0.0036820383,819.5604,800.6227,793.36993,807.8755,964.61536,0.27850341796875,0.1263427734375,0.96441650390625,3.955230712890625,10.7965087890625,-4.388885498046875,1,1.0,1.0,1.0,1.0,10.00
2024-10-11 20:43:53.300,0.8486156,0.6191464,1.171523,0.312706,0.7155091,0.14885686,0.631178,0.606458,0.8052046,-0.3279289,0.43935013,0.88210654,0.47103238,0.17418432,0.050091077,0.6766753,0.16486914,-0.27290246,-0.364996,-0.0036820383,815.5311,801.8315,792.96704,803.0403,806.26373,0.27850341796875,0.1263427734375,0.96441650390625,3.955230712890625,10.7965087890625,-4.388885498046875,1,1.0,1.0,1.0,1.0,10.00
2024-10-11 20:43:53.300,0.8486156,0.6191464,1.171523,0.312706,0.7155091,0.14885686,0.631178,0.606458,0.8052046,-0.3279289,0.43935013,0.88210654,0.47103238,0.17418432,0.050091077,0.6766753,0.16486914,-0.27290246,-0.364996,-0.0036820383,814.3223,804.2491,796.5934,799.81683,604.7985,0.27850341796875,0.1263427734375,0.96441650390625,3.955230712890625,10.7965087890625,-4.388885498046875,1,1.0,1.0,1.0,1.0,10.00
2024-10-11 20:43:53.301,0.8319702,0.59976923,1.1103808,0.47469774,0.6719088,0.12423816,0.5613217,0.5942855,0.8052046,-0.30829227,0.3737596,0.8840309,0.46067464,0.16131589,0.048651233,0.62868655,0.13856633,-0.28081527,-0.4076721,0.0131487725,821.1722,803.44324,798.20514,806.26373,691.02563,0.27850341796875,0.1263427734375,0.96441650390625,3.955230712890625,10.7965087890625,-4.388885498046875,1,1.0,1.0,1.0,1.0,10.00
2024-10-11 20:43:53.305,0.8319702,0.59976923,1.1103808,0.47469774,0.6719088,0.12423816,0.5613217,0.5942855,0.8052046,-0.30829227,0.3737596,0.8840309,0.46067464,0.16131589,0.048651233,0.62868655,0.13856633,-0.28081527,-0.4076721,0.0131487725,821.1722,805.8608,791.3553,815.9341,799.41394,0.27850341796875,0.1263427734375,0.96441650390625,3.955230712890625,10.7965087890625,-4.388885498046875,1,1.0,1.0,1.0,1.0,10.00
2024-10-11 20:43:53.305,0.8319702,0.59976923,1.1103808,0.47469774,0.6719088,0.12423816,0.5613217,0.5942855,0.8052046,-0.30829227,0.3737596,0.8840309,0.46067464,0.16131589,0.048651233,0.62868655,0.13856633,-0.28081527,-0.4076721,0.0131487725,820.7692,810.293,794.57874,817.5458,791.75824,0.27850341796875,0.1263427734375,0.96441650390625,3.955230712890625,10.7965087890625,-4.388885498046875,1,1.0,1.0,1.0,1.0,10.00
2024-10-11 20:43:53.306,0.8319702,0.59976923,1.1103808,0.47469774,0.6719088,0.12423816,0.5613217,0.5942855,0.8052046,-0.30829227,0.3737596,0.8840309,0.46067464,0.16131589,0.048651233,0.62868655,0.13856633,-0.28081527,-0.4076721,0.0131487725,821.978,811.0989,796.1905,815.5311,668.86444,0.27850341796875,0.1263427734375,0.96441650390625,3.955230712890625,10.7965087890625,-4.388885498046875,1,1.0,1.0,1.0,1.0,10.00
2024-10-11 20:43:53.306,0.8319702,0.59976923,1.1103808,0.47469774,0.6719088,0.12423816,0.5613217,0.5942855,0.8052046,-0.30829227,0.3737596,0.8840309,0.46067464,0.16131589,0.048651233,0.62868655,0.13856633,-0.28081527,-0.4076721,0.0131487725,819.5604,807.47253,794.57874,807.0696,699.4872,0.27850341796875,0.1263427734375,0.96441650390625,3.955230712890625,10.7965087890625,-4.388885498046875,1,1.0,1.0,1.0,1.0,10.00
2024-10-11 20:43:53.307,0.8319702,0.59976923,1.1103808,0.47469774,0.6719088,0.12423816,0.5613217,0.5942855,0.8052046,-0.30829227,0.3737596,0.8840309,0.46067464,0.16131589,0.048651233,0.62868655,0.13856633,-0.28081527,-0.4076721,0.0131487725,816.7399,803.44324,795.38464,803.44324,945.2747,0.27850341796875,0.1263427734375,0.96441650390625,3.955230712890625,10.7965087890625,-4.388885498046875,1,1.0,1.0,1.0,1.0,10.00
2024-10-11 20:43:53.307,0.8319702,0.59976923,1.1103808,0.47469774,0.6719088,0.12423816,0.5613217,0.5942855,0.8052046,-0.30829227,0.3737596,0.8840309,0.46067464,0.16131589,0.048651233,0.62868655,0.13856633,-0.28081527,-0.4076721,0.0131487725,821.978,802.6374,802.23444,803.8461,892.8938,0.27850341796875,0.1263427734375,0.96441650390625,3.955230712890625,10.7965087890625,-4.388885498046875,1,1.0,1.0,1.0,1.0,10.00
2024-10-11 20:43:53.308,0.8319702,0.59976923,1.1103808,0.47469774,0.6719088,0.12423816,0.5613217,0.5942855,0.8052046,-0.30829227,0.3737596,0.8840309,0.46067464,0.16131589,0.048651233,0.62868655,0.13856633,-0.28081527,-0.4076721,0.0131487725,821.978,806.26373,797.8022,810.293,724.0659,0.27850341796875,0.1263427734375,0.96441650390625,3.955230712890625,10.7965087890625,-4.388885498046875,1,1.0,1.0,1.0,1.0,10.00
2024-10-11 20:43:53.308,0.8319702,0.59976923,1.1103808,0.47469774,0.6719088,0.12423816,0.5613217,0.5942855,0.8052046,-0.30829227,0.3737596,0.8840309,0.46067464,0.16131589,0.048651233,0.62868655,0.13856633,-0.28081527,-0.4076721,0.0131487725,815.9341,807.47253,796.99634,815.12823,856.63007,0.27850341796875,0.1263427734375,0.96441650390625,3.955230712890625,10.7965087890625,-4.388885498046875,1,1.0,1.0,1.0,1.0,10.00
2024-10-11 20:43:53.309,0.8319702,0.59976923,1.1103808,0.47469774,0.6719088,0.12423816,0.5613217,0.5942855,0.8052046,-0.30829227,0.3737596,0.8840309,0.46067464,0.16131589,0.048651233,0.62868655,0.13856633,-0.28081527,-0.4076721,0.0131487725,819.9634,804.65204,804.2491,808.68134,938.4249,0.27850341796875,0.1263427734375,0.96441650390625,3.955230712890625,10.7965087890625,-4.388885498046875,1,1.0,1.0,1.0,1.0,10.00
2024-10-11 20:43:53.309,0.8319702,0.59976923,1.1103808,0.47469774,0.6719088,0.12423816,0.5613217,0.5942855,0.8052046,-0.30829227,0.3737596,0.8840309,0.46067464,0.16131589,0.048651233,0.62868655,0.13856633,-0.28081527,-0.4076721,0.0131487725,821.1722,807.0696,801.4286,802.6374,789.34064,0.27850341796875,0.1263427734375,0.96441650390625,3.955230712890625,10.7965087890625,-4.388885498046875,1,1.0,1.0,1.0,1.0,10.00
2024-10-11 20:43:53.309,0.8319702,0.59976923,1.1103808,0.47469774,0.6719088,0.12423816,0.5613217,0.5942855,0.8052046,-0.30829227,0.3737596,0.8840309,0.46067464,0.16131589,0.048651233,0.62868655,0.13856633,-0.28081527,-0.4076721,0.0131487725,812.3077,808.68134,799.81683,794.9817,693.44324,0.27850341796875,0.1263427734375,0.96441650390625,3.955230712890625,10.7965087890625,-4.388885498046875,1,1.0,1.0,1.0,1.0,10.00
2024-10-11 20:43:53.310,0.8319702,0.59976923,1.1103808,0.47469774,0.6719088,0.12423816,0.5613217,0.5942855,0.8052046,-0.30829227,0.3737596,0.8840309,0.46067464,0.16131589,0.048651233,0.62868655,0.13856633,-0.28081527,-0.4076721,0.0131487725,808.68134,803.44324,803.0403,795.78754,680.54944,0.27850341796875,0.1263427734375,0.96441650390625,3.955230712890625,10.7965087890625,-4.388885498046875,1,1.0,1.0,1.0,1.0,10.00
2024-10-11 20:43:53.310,0.8319702,0.59976923,1.1103808,0.47469774,0.6719088,0.12423816,0.5613217,0.5942855,0.8052046,-0.30829227,0.3737596,0.8840309,0.46067464,0.16131589,0.048651233,0.62868655,0.13856633,-0.28081527,-0.4076721,0.0131487725,805.4579,800.2198,802.23444,807.0696,1025.0549,0.27850341796875,0.1263427734375,0.96441650390625,3.955230712890625,10.7965087890625,-4.388885498046875,1,1.0,1.0,1.0,1.0,10.00
2024-10-11 20:43:53.311,0.8319702,0.59976923,1.1103808,0.47469774,0.6719088,0.12423816,0.5613217,0.5942855,0.8052046,-0.30829227,0.3737596,0.8840309,0.46067464,0.16131589,0.048651233,0.62868655,0.13856633,-0.28081527,-0.4076721,0.0131487725,799.81683,804.65204,805.05493,801.4286,936.0073,0.27850341796875,0.1263427734375,0.96441650390625,3.955230712890625,10.7965087890625,-4.388885498046875,1,1.0,1.0,1.0,1.0,10.00
2024-10-11 20:43:53.311,0.8319702,0.59976923,1.1103808,0.47469774,0.6719088,0.12423816,0.5613217,0.5942855,0.8052046,-0.30829227,0.3737596,0.8840309,0.46067464,0.16131589,0.048651233,0.62868655,0.13856633,-0.28081527,-0.4076721,0.0131487725,799.011,806.26373,809.0842,799.81683,547.98535,0.26116943359375,0.13372802734375,0.978759765625,4.912261962890625,18.445281982421875,-4.41131591796875,1,1.0,1.0,1.0,1.0,10.00
2024-10-11 20:43:53.312,0.8319702,0.59976923,1.1103808,0.47469774,0.6719088,0.12423816,0.5613217,0.5942855,0.8052046,-0.30829227,0.3737596,0.8840309,0.46067464,0.16131589,0.048651233,0.62868655,0.13856633,-0.28081527,-0.4076721,0.0131487725,794.9817,797.8022,801.8315,801.4286,714.7985,0.26116943359375,0.13372802734375,0.978759765625,4.912261962890625,18.445281982421875,-4.41131591796875,1,1.0,1.0,1.0,1.0,10.00
2024-10-11 20:43:53.312,0.8319702,0.59976923,1.1103808,0.47469774,0.6719088,0.12423816,0.5613217,0.5942855,0.8052046,-0.30829227,0.3737596,0.8840309,0.46067464,0.16131589,0.048651233,0.62868655,0.13856633,-0.28081527,-0.4076721,0.0131487725,794.9817,795.38464,796.1905,801.8315,1210.8059,0.26116943359375,0.13372802734375,0.978759765625,4.912261962890625,18.445281982421875,-4.41131591796875,1,1.0,1.0,1.0,1.0,10.00
2024-10-11 20:43:53.313,0.8319702,0.59976923,1.1103808,0.47469774,0.6719088,0.12423816,0.5613217,0.5942855,0.8052046,-0.30829227,0.3737596,0.8840309,0.46067464,0.16131589,0.048651233,0.62868655,0.13856633,-0.28081527,-0.4076721,0.0131487725,794.17584,797.3993,796.99634,799.81683,1244.249,0.26116943359375,0.13372802734375,0.978759765625,4.912261962890625,18.445281982421875,-4.41131591796875,1,1.0,1.0,1.0,1.0,10.00
2024-10-11 20:43:53.313,0.8319702,0.59976923,1.1103808,0.47469774,0.6719088,0.12423816,0.5613217,0.5942855,0.8052046,-0.30829227,0.3737596,0.8840309,0.46067464,0.16131589,0.048651233,0.62868655,0.13856633,-0.28081527,-0.4076721,0.0131487725,790.54944,798.20514,798.20514,788.5348,763.5531,0.26116943359375,0.13372802734375,0.978759765625,4.912261962890625,18.445281982421875,-4.41131591796875,1,1.0,1.0,1.0,1.0,10.00
2024-10-11 20:43:53.314,0.8319702,0.59976923,1.1103808,0.47469774,0.6719088,0.12423816,0.5613217,0.5942855,0.8052046,-0.30829227,0.3737596,0.8840309,0.46067464,0.16131589,0.048651233,0.62868655,0.13856633,-0.28081527,-0.4076721,0.0131487725,795.78754,799.011,798.20514,784.10254,827.2161,0.26116943359375,0.13372802734375,0.978759765625,4.912261962890625,18.445281982421875,-4.41131591796875,1,1.0,1.0,1.0,1.0,10.00
2024-10-11 20:43:53.314,0.8319702,0.59976923,1.1103808,0.47469774,0.6719088,0.12423816,0.5613217,0.5942855,0.8052046,-0.30829227,0.3737596,0.8840309,0.46067464,0.16131589,0.048651233,0.62868655,0.13856633,-0.28081527,-0.4076721,0.0131487725,799.011,797.3993,799.41394,782.49084,1007.326,0.26116943359375,0.13372802734375,0.978759765625,4.912261962890625,18.445281982421875,-4.41131591796875,1,1.0,1.0,1.0,1.0,10.00
2024-10-11 20:43:53.315,0.8319702,0.59976923,1.1103808,0.47469774,0.6719088,0.12423816,0.5613217,0.5942855,0.8052046,-0.30829227,0.3737596,0.8840309,0.46067464,0.16131589,0.048651233,0.62868655,0.13856633,-0.28081527,-0.4076721,0.0131487725,797.3993,797.3993,796.5934,784.90845,731.7216,0.26116943359375,0.13372802734375,0.978759765625,4.912261962890625,18.445281982421875,-4.41131591796875,1,1.0,1.0,1.0,1.0,10.00
2024-10-11 20:43:53.315,0.8319702,0.59976923,1.1103808,0.47469774,0.6719088,0.12423816,0.5613217,0.5942855,0.8052046,-0.30829227,0.3737596,0.8840309,0.46067464,0.16131589,0.048651233,0.62868655,0.13856633,-0.28081527,-0.4076721,0.0131487725,797.8022,801.02563,794.57874,794.17584,568.93774,0.26116943359375,0.13372802734375,0.978759765625,4.912261962890625,18.445281982421875,-4.41131591796875,1,1.0,1.0,1.0,1.0,10.00
2024-10-11 20:43:53.316,0.8319702,0.59976923,1.1103808,0.47469774,0.6719088,0.12423816,0.5613217,0.5942855,0.8052046,-0.30829227,0.3737596,0.8840309,0.46067464,0.16131589,0.048651233,0.62868655,0.13856633,-0.28081527,-0.4076721,0.0131487725,792.96704,803.8461,797.3993,790.14655,812.71063,0.26116943359375,0.13372802734375,0.978759765625,4.912261962890625,18.445281982421875,-4.41131591796875,1,1.0,1.0,1.0,1.0,10.00
2024-10-11 20:43:53.316,0.8319702,0.59976923,1.1103808,0.47469774,0.6719088,0.12423816,0.5613217,0.5942855,0.8052046,-0.30829227,0.3737596,0.8840309,0.46067464,0.16131589,0.048651233,0.62868655,0.13856633,-0.28081527,-0.4076721,0.0131487725,790.14655,803.0403,799.81683,799.41394,1203.956,0.26116943359375,0.13372802734375,0.978759765625,4.912261962890625,18.445281982421875,-4.41131591796875,1,1.0,1.0,1.0,1.0,10.00
2024-10-11 20:43:53.317,0.8216384,0.61952466,1.0955497,0.6495389,0.6318185,0.1123574,0.52978396,0.57523155,0.8052046,-0.27393436,0.3737596,0.8840309,0.44694024,0.14025144,0.040685724,0.5928873,0.13832027,-0.2973395,-0.41723529,0.051303037,790.9524,804.2491,802.6374,799.41394,1142.3077,0.26116943359375,0.13372802734375,0.978759765625,4.912261962890625,18.445281982421875,-4.41131591796875,1,1.0,1.0,1.0,1.0,10.00
2024-10-11 20:43:53.391,0.8216384,0.61952466,1.0955497,0.6495389,0.6318185,0.1123574,0.52978396,0.57523155,0.8052046,-0.27393436,0.3737596,0.8840309,0.44694024,0.14025144,0.040685724,0.5928873,0.13832027,-0.2973395,-0.41723529,0.051303037,788.5348,805.8608,801.8315,792.96704,720.84247,0.1976318359375,0.1435546875,0.9820556640625,5.99639892578125,25.787506103515625,-5.8917236328125,1,1.0,1.0,1.0,1.0,10.00
2024-10-11 20:43:53.392,0.8216384,0.61952466,1.0955497,0.6495389,0.6318185,0.1123574,0.52978396,0.57523155,0.8052046,-0.27393436,0.3737596,0.8840309,0.44694024,0.14025144,0.040685724,0.5928873,0.13832027,-0.2973395,-0.41723529,0.051303037,794.17584,803.8461,797.8022,796.1905,734.94507,0.1976318359375,0.1435546875,0.9820556640625,5.99639892578125,25.787506103515625,-5.8917236328125,1,1.0,1.0,1.0,1.0,10.00
2024-10-11 20:43:53.392,0.8216384,0.61952466,1.0955497,0.6495389,0.6318185,0.1123574,0.52978396,0.57523155,0.8052046,-0.27393436,0.3737596,0.8840309,0.44694024,0.14025144,0.040685724,0.5928873,0.13832027,-0.2973395,-0.41723529,0.051303037,798.20514,803.8461,794.17584,790.9524,672.49084,0.1976318359375,0.1435546875,0.9820556640625,5.99639892578125,25.787506103515625,-5.8917236328125,1,1.0,1.0,1.0,1.0,10.00
2024-10-11 20:43:53.393,0.8216384,0.61952466,1.0955497,0.6495389,0.6318185,0.1123574,0.52978396,0.57523155,0.8052046,-0.27393436,0.3737596,0.8840309,0.44694024,0.14025144,0.040685724,0.5928873,0.13832027,-0.2973395,-0.41723529,0.051303037,795.38464,805.4579,801.4286,793.36993,451.68497,0.1976318359375,0.1435546875,0.9820556640625,5.99639892578125,25.787506103515625,-5.8917236328125,1,1.0,1.0,1.0,1.0,10.00
2024-10-11 20:43:53.393,0.8216384,0.61952466,1.0955497,0.6495389,0.6318185,0.1123574,0.52978396,0.57523155,0.8052046,-0.27393436,0.3737596,0.8840309,0.44694024,0.14025144,0.040685724,0.5928873,0.13832027,-0.2973395,-0.41723529,0.051303037,789.7436,801.8315,801.02563,792.5641,448.86447,0.1976318359375,0.1435546875,0.9820556640625,5.99639892578125,25.787506103515625,-5.8917236328125,1,1.0,1.0,1.0,1.0,10.00
2024-10-11 20:43:53.394,0.8216384,0.61952466,1.0955497,0.6495389,0.6318185,0.1123574,0.52978396,0.57523155,0.8052046,-0.27393436,0.3737596,0.8840309,0.44694024,0.14025144,0.040685724,0.5928873,0.13832027,-0.2973395,-0.41723529,0.051303037,788.93774,796.1905,793.7729,800.2198,867.9121,0.1976318359375,0.1435546875,0.9820556640625,5.99639892578125,25.787506103515625,-5.8917236328125,1,1.0,1.0,1.0,1.0,10.00
2024-10-11 20:43:53.395,0.8216384,0.61952466,1.0955497,0.6495389,0.6318185,0.1123574,0.52978396,0.57523155,0.8052046,-0.27393436,0.3737596,0.8840309,0.44694024,0.14025144,0.040685724,0.5928873,0.13832027,-0.2973395,-0.41723529,0.051303037,789.7436,794.9817,793.7729,812.3077,1203.5531,0.1976318359375,0.1435546875,0.9820556640625,5.99639892578125,25.787506103515625,-5.8917236328125,1,1.0,1.0,1.0,1.0,10.00
2024-10-11 20:43:53.396,0.8216384,0.61952466,1.0955497,0.6495389,0.6318185,0.1123574,0.52978396,0.57523155,0.8052046,-0.27393436,0.3737596,0.8840309,0.44694024,0.14025144,0.040685724,0.5928873,0.13832027,-0.2973395,-0.41723529,0.051303037,786.52014,792.96704,791.3553,799.41394,859.45056,0.1976318359375,0.1435546875,0.9820556640625,5.99639892578125,25.787506103515625,-5.8917236328125,1,1.0,1.0,1.0,1.0,10.00
2024-10-11 20:43:53.396,0.8216384,0.61952466,1.0955497,0.6495389,0.6318185,0.1123574,0.52978396,0.57523155,0.8052046,-0.27393436,0.3737596,0.8840309,0.44694024,0.14025144,0.040685724,0.5928873,0.13832027,-0.2973395,-0.41723529,0.051303037,789.34064,798.60803,794.17584,791.75824,535.4945,0.1976318359375,0.1435546875,0.9820556640625,5.99639892578125,25.787506103515625,-5.8917236328125,1,1.0,1.0,1.0,1.0,10.00
2024-10-11 20:43:53.397,0.8216384,0.61952466,1.0955497,0.6495389,0.6318185,0.1123574,0.52978396,0.57523155,0.8052046,-0.27393436,0.3737596,0.8840309,0.44694024,0.14025144,0.040685724,0.5928873,0.13832027,-0.2973395,-0.41723529,0.051303037,788.5348,801.8315,793.36993,798.20514,598.7546,0.1976318359375,0.1435546875,0.9820556640625,5.99639892578125,25.787506103515625,-5.8917236328125,1,1.0,1.0,1.0,1.0,10.00
2024-10-11 20:43:53.397,0.8216384,0.61952466,1.0955497,0.6495389,0.6318185,0.1123574,0.52978396,0.57523155,0.8052046,-0.27393436,0.3737596,0.8840309,0.44694024,0.14025144,0.040685724,0.5928873,0.13832027,-0.2973395,-0.41723529,0.051303037,782.49084,797.3993,793.7729,797.8022,519.3773,0.1976318359375,0.1435546875,0.9820556640625,5.99639892578125,25.787506103515625,-5.8917236328125,1,1.0,1.0,1.0,1.0,10.00
2024-10-11 20:43:53.398,0.8216384,0.61952466,1.0955497,0.6495389,0.6318185,0.1123574,0.52978396,0.57523155,0.8052046,-0.27393436,0.3737596,0.8840309,0.44694024,0.14025144,0.040685724,0.5928873,0.13832027,-0.2973395,-0.41723529,0.051303037,790.54944,795.38464,797.3993,794.9817,307.43588,0.1976318359375,0.1435546875,0.9820556640625,5.99639892578125,25.787506103515625,-5.8917236328125,1,1.0,1.0,1.0,1.0,10.00
2024-10-11 20:43:53.422,0.8216384,0.61952466,1.0955497,0.6495389,0.6318185,0.1123574,0.52978396,0.57523155,0.8052046,-0.27393436,0.3737596,0.8840309,0.44694024,0.14025144,0.040685724,0.5928873,0.13832027,-0.2973395,-0.41723529,0.051303037,792.5641,797.8022,799.011,796.99634,443.62637,0.150390625,0.156005859375,0.98236083984375,6.74407958984375,31.56707763671875,-10.88623046875,1,1.0,1.0,1.0,1.0,10.00
2024-10-11 20:43:53.423,0.8216384,0.61952466,1.0955497,0.6495389,0.6318185,0.1123574,0.52978396,0.57523155,0.8052046,-0.27393436,0.3737596,0.8840309,0.44694024,0.14025144,0.040685724,0.5928873,0.13832027,-0.2973395,-0.41723529,0.051303037,788.5348,799.81683,801.4286,806.6667,845.7509,0.150390625,0.156005859375,0.98236083984375,6.74407958984375,31.56707763671875,-10.88623046875,1,1.0,1.0,1.0,1.0,10.00
2024-10-11 20:43:53.423,0.8216384,0.61952466,1.0955497,0.6495389,0.6318185,0.1123574,0.52978396,0.57523155,0.8052046,-0.27393436,0.3737596,0.8840309,0.44694024,0.14025144,0.040685724,0.5928873,0.13832027,-0.2973395,-0.41723529,0.051303037,790.14655,798.20514,802.6374,798.20514,587.47253,0.150390625,0.156005859375,0.98236083984375,6.74407958984375,31.56707763671875,-10.88623046875,1,1.0,1.0,1.0,1.0,10.00
2024-10-11 20:43:53.424,0.8216384,0.61952466,1.0955497,0.6495389,0.6318185,0.1123574,0.52978396,0.57523155,0.8052046,-0.27393436,0.3737596,0.8840309,0.44694024,0.14025144,0.040685724,0.5928873,0.13832027,-0.2973395,-0.41723529,0.051303037,787.72894,796.5934,802.6374,790.9524,400.1099,0.150390625,0.156005859375,0.98236083984375,6.74407958984375,31.56707763671875,-10.88623046875,1,1.0,1.0,1.0,1.0,10.00
2024-10-11 20:43:53.424,0.8216384,0.61952466,1.0955497,0.6495389,0.6318185,0.1123574,0.52978396,0.57523155,0.8052046,-0.27393436,0.3737596,0.8840309,0.44694024,0.14025144,0.040685724,0.5928873,0.13832027,-0.2973395,-0.41723529,0.051303037,788.93774,795.38464,800.6227,782.8938,540.32965,0.150390625,0.156005859375,0.98236083984375,6.74407958984375,31.56707763671875,-10.88623046875,1,1.0,1.0,1.0,1.0,10.00
2024-10-11 20:43:53.425,0.8216384,0.61952466,1.0955497,0.6495389,0.6318185,0.1123574,0.52978396,0.57523155,0.8052046,-0.27393436,0.3737596,0.8840309,0.44694024,0.14025144,0.040685724,0.5928873,0.13832027,-0.2973395,-0.41723529,0.051303037,799.011,791.3553,802.6374,787.72894,675.31134,0.150390625,0.156005859375,0.98236083984375,6.74407958984375,31.56707763671875,-10.88623046875,1,1.0,1.0,1.0,1.0,10.00
2024-10-11 20:43:53.425,0.8216384,0.61952466,1.0955497,0.6495389,0.6318185,0.1123574,0.52978396,0.57523155,0.8052046,-0.27393436,0.3737596,0.8840309,0.44694024,0.14025144,0.040685724,0.5928873,0.13832027,-0.2973395,-0.41723529,0.051303037,804.65204,794.9817,804.2491,801.8315,697.47253,0.150390625,0.156005859375,0.98236083984375,6.74407958984375,31.56707763671875,-10.88623046875,1,1.0,1.0,1.0,1.0,10.00
2024-10-11 20:43:53.426,0.8216384,0.61952466,1.0955497,0.6495389,0.6318185,0.1123574,0.52978396,0.57523155,0.8052046,-0.27393436,0.3737596,0.8840309,0.44694024,0.14025144,0.040685724,0.5928873,0.13832027,-0.2973395,-0.41723529,0.051303037,795.78754,799.011,798.20514,802.23444,646.30035,0.150390625,0.156005859375,0.98236083984375,6.74407958984375,31.56707763671875,-10.88623046875,1,1.0,1.0,1.0,1.0,10.00
2024-10-11 20:43:53.426,0.8216384,0.61952466,1.0955497,0.6495389,0.6318185,0.1123574,0.52978396,0.57523155,0.8052046,-0.27393436,0.3737596,0.8840309,0.44694024,0.14025144,0.040685724,0.5928873,0.13832027,-0.2973395,-0.41723529,0.051303037,787.326,792.1612,799.011,799.81683,645.09155,0.150390625,0.156005859375,0.98236083984375,6.74407958984375,31.56707763671875,-10.88623046875,1,1.0,1.0,1.0,1.0,10.00
2024-10-11 20:43:53.427,0.8216384,0.61952466,1.0955497,0.6495389,0.6318185,0.1123574,0.52978396,0.57523155,0.8052046,-0.27393436,0.3737596,0.8840309,0.44694024,0.14025144,0.040685724,0.5928873,0.13832027,-0.2973395,-0.41723529,0.051303037,796.99634,794.9817,801.02563,799.81683,515.7509,0.150390625,0.156005859375,0.98236083984375,6.74407958984375,31.56707763671875,-10.88623046875,1,1.0,1.0,1.0,1.0,10.00
2024-10-11 20:43:53.427,0.8216384,0.61952466,1.0955497,0.6495389,0.6318185,0.1123574,0.52978396,0.57523155,0.8052046,-0.27393436,0.3737596,0.8840309,0.44694024,0.14025144,0.040685724,0.5928873,0.13832027,-0.2973395,-0.41723529,0.051303037,800.6227,803.0403,798.20514,792.1612,404.1392,0.150390625,0.156005859375,0.98236083984375,6.74407958984375,31.56707763671875,-10.88623046875,1,1.0,1.0,1.0,1.0,10.00
2024-10-11 20:43:53.428,0.8216384,0.61952466,1.0955497,0.6495389,0.6318185,0.1123574,0.52978396,0.57523155,0.8052046,-0.27393436,0.3737596,0.8840309,0.44694024,0.14025144,0.040685724,0.5928873,0.13832027,-0.2973395,-0.41723529,0.051303037,799.41394,801.4286,800.6227,790.9524,628.5714,0.150390625,0.156005859375,0.98236083984375,6.74407958984375,31.56707763671875,-10.88623046875,1,1.0,1.0,1.0,1.0,10.00
2024-10-11 20:43:53.429,0.8216384,0.61952466,1.0955497,0.6495389,0.6318185,0.1123574,0.52978396,0.57523155,0.8052046,-0.27393436,0.3737596,0.8840309,0.44694024,0.14025144,0.040685724,0.5928873,0.13832027,-0.2973395,-0.41723529,0.051303037,803.44324,798.60803,800.2198,795.78754,847.3626,0.10418701171875,0.16680908203125,0.98016357421875,7.0281982421875,37.107391357421875,-15.065765380859375,1,1.0,1.0,1.0,1.0,10.00
2024-10-11 20:43:53.429,0.81972,0.6758646,1.0875483,0.78794146,0.6031208,0.115946144,0.5056062,0.5579278,0.8052046,-0.2732593,0.3737596,0.8840309,0.4353465,0.123643614,0.037720084,0.5763962,0.1610722,-0.31127557,-0.42187274,0.10898191,806.26373,804.65204,799.011,799.81683,609.2308,0.10418701171875,0.16680908203125,0.98016357421875,7.0281982421875,37.107391357421875,-15.065765380859375,1,1.0,1.0,1.0,1.0,10.00
2024-10-11 20:43:53.434,0.81972,0.6758646,1.0875483,0.78794146,0.6031208,0.115946144,0.5056062,0.5579278,0.8052046,-0.2732593,0.3737596,0.8840309,0.4353465,0.123643614,0.037720084,0.5763962,0.1610722,-0.31127557,-0.42187274,0.10898191,809.0842,807.8755,801.02563,799.81683,462.16116,0.10418701171875,0.16680908203125,0.98016357421875,7.0281982421875,37.107391357421875,-15.065765380859375,1,1.0,1.0,1.0,1.0,10.00
2024-10-11 20:43:53.435,0.81972,0.6758646,1.0875483,0.78794146,0.6031208,0.115946144,0.5056062,0.5579278,0.8052046,-0.2732593,0.3737596,0.8840309,0.4353465,0.123643614,0.037720084,0.5763962,0.1610722,-0.31127557,-0.42187274,0.10898191,804.65204,802.6374,802.23444,799.81683,559.2674,0.10418701171875,0.16680908203125,0.98016357421875,7.0281982421875,37.107391357421875,-15.065765380859375,1,1.0,1.0,1.0,1.0,10.00
2024-10-11 20:43:53.435,0.81972,0.6758646,1.0875483,0.78794146,0.6031208,0.115946144,0.5056062,0.5579278,0.8052046,-0.2732593,0.3737596,0.8840309,0.4353465,0.123643614,0.037720084,0.5763962,0.1610722,-0.31127557,-0.42187274,0.10898191,794.57874,801.4286,799.81683,806.6667,825.6044,0.10418701171875,0.16680908203125,0.98016357421875,7.0281982421875,37.107391357421875,-15.065765380859375,1,1.0,1.0,1.0,1.0,10.00
2024-10-11 20:43:53.436,0.81972,0.6758646,1.0875483,0.78794146,0.6031208,0.115946144,0.5056062,0.5579278,0.8052046,-0.2732593,0.3737596,0.8840309,0.4353465,0.123643614,0.037720084,0.5763962,0.1610722,-0.31127557,-0.42187274,0.10898191,794.9817,805.05493,795.38464,797.8022,843.73627,0.10418701171875,0.16680908203125,0.98016357421875,7.0281982421875,37.107391357421875,-15.065765380859375,1,1.0,1.0,1.0,1.0,10.00
2024-10-11 20:43:53.436,0.81972,0.6758646,1.0875483,0.78794146,0.6031208,0.115946144,0.5056062,0.5579278,0.8052046,-0.2732593,0.3737596,0.8840309,0.4353465,0.123643614,0.037720084,0.5763962,0.1610722,-0.31127557,-0.42187274,0.10898191,791.75824,804.2491,799.011,797.8022,649.92676,0.10418701171875,0.16680908203125,0.98016357421875,7.0281982421875,37.107391357421875,-15.065765380859375,1,1.0,1.0,1.0,1.0,10.00
2024-10-11 20:43:53.437,0.81972,0.6758646,1.0875483,0.78794146,0.6031208,0.115946144,0.5056062,0.5579278,0.8052046,-0.2732593,0.3737596,0.8840309,0.4353465,0.123643614,0.037720084,0.5763962,0.1610722,-0.31127557,-0.42187274,0.10898191,786.1172,799.011,801.02563,805.05493,626.9597,0.10418701171875,0.16680908203125,0.98016357421875,7.0281982421875,37.107391357421875,-15.065765380859375,1,1.0,1.0,1.0,1.0,10.00
2024-10-11 20:43:53.438,0.81972,0.6758646,1.0875483,0.78794146,0.6031208,0.115946144,0.5056062,0.5579278,0.8052046,-0.2732593,0.3737596,0.8840309,0.4353465,0.123643614,0.037720084,0.5763962,0.1610722,-0.31127557,-0.42187274,0.10898191,793.7729,798.60803,796.5934,799.81683,677.326,0.10418701171875,0.16680908203125,0.98016357421875,7.0281982421875,37.107391357421875,-15.065765380859375,1,1.0,1.0,1.0,1.0,10.00
2024-10-11 20:43:53.439,0.81972,0.6758646,1.0875483,0.78794146,0.6031208,0.115946144,0.5056062,0.5579278,0.8052046,-0.2732593,0.3737596,0.8840309,0.4353465,0.123643614,0.037720084,0.5763962,0.1610722,-0.31127557,-0.42187274,0.10898191,803.44324,800.2198,792.1612,788.93774,533.8828,0.10418701171875,0.16680908203125,0.98016357421875,7.0281982421875,37.107391357421875,-15.065765380859375,1,1.0,1.0,1.0,1.0,10.00
2024-10-11 20:43:53.439,0.81972,0.6758646,1.0875483,0.78794146,0.6031208,0.115946144,0.5056062,0.5579278,0.8052046,-0.2732593,0.3737596,0.8840309,0.4353465,0.123643614,0.037720084,0.5763962,0.1610722,-0.31127557,-0.42187274,0.10898191,794.57874,797.3993,796.5934,782.0879,456.92307,0.10418701171875,0.16680908203125,0.98016357421875,7.0281982421875,37.107391357421875,-15.065765380859375,1,1.0,1.0,1.0,1.0,10.00
2024-10-11 20:43:53.439,0.81972,0.6758646,1.0875483,0.78794146,0.6031208,0.115946144,0.5056062,0.5579278,0.8052046,-0.2732593,0.3737596,0.8840309,0.4353465,0.123643614,0.037720084,0.5763962,0.1610722,-0.31127557,-0.42187274,0.10898191,783.2967,793.36993,797.3993,786.52014,612.8571,0.10418701171875,0.16680908203125,0.98016357421875,7.0281982421875,37.107391357421875,-15.065765380859375,1,1.0,1.0,1.0,1.0,10.00
2024-10-11 20:43:53.542,0.81972,0.6758646,1.0875483,0.78794146,0.6031208,0.115946144,0.5056062,0.5579278,0.8052046,-0.2732593,0.3737596,0.8840309,0.4353465,0.123643614,0.037720084,0.5763962,0.1610722,-0.31127557,-0.42187274,0.10898191,781.28204,792.96704,792.5641,796.99634,1038.3517,0.037109375,0.1805419921875,0.98052978515625,7.813262939453125,41.907501220703125,-18.10882568359375,1,1.0,1.0,1.0,1.0,10.00
2024-10-11 20:43:53.543,0.81972,0.6758646,1.0875483,0.78794146,0.6031208,0.115946144,0.5056062,0.5579278,0.8052046,-0.2732593,0.3737596,0.8840309,0.4353465,0.123643614,0.037720084,0.5763962,0.1610722,-0.31127557,-0.42187274,0.10898191,784.90845,796.99634,795.78754,789.34064,894.10254,0.037109375,0.1805419921875,0.98052978515625,7.813262939453125,41.907501220703125,-18.10882568359375,1,1.0,1.0,1.0,1.0,10.00
2024-10-11 20:43:53.544,0.81972,0.6758646,1.0875483,0.78794146,0.6031208,0.115946144,0.5056062,0.5579278,0.8052046,-0.2732593,0.3737596,0.8840309,0.4353465,0.123643614,0.037720084,0.5763962,0.1610722,-0.31127557,-0.42187274,0.10898191,792.5641,799.41394,803.8461,781.685,612.0513,0.037109375,0.1805419921875,0.98052978515625,7.813262939453125,41.907501220703125,-18.10882568359375,1,1.0,1.0,1.0,1.0,10.00
2024-10-11 20:43:53.544,0.81972,0.6758646,1.0875483,0.78794146,0.6031208,0.115946144,0.5056062,0.5579278,0.8052046,-0.2732593,0.3737596,0.8840309,0.4353465,0.123643614,0.037720084,0.5763962,0.1610722,-0.31127557,-0.42187274,0.10898191,790.54944,801.02563,799.011,782.0879,723.663,0.037109375,0.1805419921875,0.98052978515625,7.813262939453125,41.907501220703125,-18.10882568359375,1,1.0,1.0,1.0,1.0,10.00
2024-10-11 20:43:53.545,0.81972,0.6758646,1.0875483,0.78794146,0.6031208,0.115946144,0.5056062,0.5579278,0.8052046,-0.2732593,0.3737596,0.8840309,0.4353465,0.123643614,0.037720084,0.5763962,0.1610722,-0.31127557,-0.42187274,0.10898191,783.69965,804.2491,794.57874,784.5055,717.2161,0.037109375,0.1805419921875,0.98052978515625,7.813262939453125,41.907501220703125,-18.10882568359375,1,1.0,1.0,1.0,1.0,10.00
2024-10-11 20:43:53.545,0.81972,0.6758646,1.0875483,0.78794146,0.6031208,0.115946144,0.5056062,0.5579278,0.8052046,-0.2732593,0.3737596,0.8840309,0.4353465,0.123643614,0.037720084,0.5763962,0.1610722,-0.31127557,-0.42187274,0.10898191,788.5348,802.23444,796.1905,789.7436,624.5421,0.037109375,0.1805419921875,0.98052978515625,7.813262939453125,41.907501220703125,-18.10882568359375,1,1.0,1.0,1.0,1.0,10.00
2024-10-11 20:43:53.546,0.81972,0.6758646,1.0875483,0.78794146,0.6031208,0.115946144,0.5056062,0.5579278,0.8052046,-0.2732593,0.3737596,0.8840309,0.4353465,0.123643614,0.037720084,0.5763962,0.1610722,-0.31127557,-0.42187274,0.10898191,790.54944,798.60803,796.5934,778.0586,665.64105,0.037109375,0.1805419921875,0.98052978515625,7.813262939453125,41.907501220703125,-18.10882568359375,1,1.0,1.0,1.0,1.0,10.00
2024-10-11 20:43:53.546,0.81972,0.6758646,1.0875483,0.78794146,0.6031208,0.115946144,0.5056062,0.5579278,0.8052046,-0.2732593,0.3737596,0.8840309,0.4353465,0.123643614,0.037720084,0.5763962,0.1610722,-0.31127557,-0.42187274,0.10898191,794.9817,794.9817,800.2198,778.86444,890.4762,0.037109375,0.1805419921875,0.98052978515625,7.813262939453125,41.907501220703125,-18.10882568359375,1,1.0,1.0,1.0,1.0,10.00
2024-10-11 20:43:53.547,0.81972,0.6758646,1.0875483,0.78794146,0.6031208,0.115946144,0.5056062,0.5579278,0.8052046,-0.2732593,0.3737596,0.8840309,0.4353465,0.123643614,0.037720084,0.5763962,0.1610722,-0.31127557,-0.42187274,0.10898191,791.75824,793.7729,799.81683,787.326,991.6117,0.037109375,0.1805419921875,0.98052978515625,7.813262939453125,41.907501220703125,-18.10882568359375,1,1.0,1.0,1.0,1.0,10.00
2024-10-11 20:43:53.548,0.81972,0.6758646,1.0875483,0.78794146,0.6031208,0.115946144,0.5056062,0.5579278,0.8052046,-0.2732593,0.3737596,0.8840309,0.4353465,0.123643614,0.037720084,0.5763962,0.1610722,-0.31127557,-0.42187274,0.10898191,788.93774,799.81683,797.8022,780.07324,655.16486,0.037109375,0.1805419921875,0.98052978515625,7.813262939453125,41.907501220703125,-18.10882568359375,1,1.0,1.0,1.0,1.0,10.00
2024-10-11 20:43:53.548,0.81972,0.6758646,1.0875483,0.78794146,0.6031208,0.115946144,0.5056062,0.5579278,0.8052046,-0.2732593,0.3737596,0.8840309,0.4353465,0.123643614,0.037720084,0.5763962,0.1610722,-0.31127557,-0.42187274,0.10898191,790.9524,799.41394,799.81683,784.10254,603.1868,0.037109375,0.1805419921875,0.98052978515625,7.813262939453125,41.907501220703125,-18.10882568359375,1,1.0,1.0,1.0,1.0,10.00
2024-10-11 20:43:53.549,0.81972,0.6758646,1.0875483,0.78794146,0.6031208,0.115946144,0.5056062,0.5579278,0.8052046,-0.2732593,0.3737596,0.8840309,0.4353465,0.123643614,0.037720084,0.5763962,0.1610722,-0.31127557,-0.42187274,0.10898191,796.99634,799.41394,805.05493,790.14655,777.6557,0.037109375,0.1805419921875,0.98052978515625,7.813262939453125,41.907501220703125,-18.10882568359375,1,1.0,1.0,1.0,1.0,10.00
2024-10-11 20:43:53.549,0.81972,0.6758646,1.0875483,0.78794146,0.6031208,0.115946144,0.5056062,0.5579278,0.8052046,-0.2732593,0.3737596,0.8840309,0.4353465,0.123643614,0.037720084,0.5763962,0.1610722,-0.31127557,-0.42187274,0.10898191,800.2198,801.4286,806.26373,790.9524,664.83514,0.037109375,0.1805419921875,0.98052978515625,7.813262939453125,41.907501220703125,-18.10882568359375,1,1.0,1.0,1.0,1.0,10.00
2024-10-11 20:43:53.550,0.81972,0.6758646,1.0875483,0.78794146,0.6031208,0.115946144,0.5056062,0.5579278,0.8052046,-0.2732593,0.3737596,0.8840309,0.4353465,0.123643614,0.037720084,0.5763962,0.1610722,-0.31127557,-0.42187274,0.10898191,793.7729,801.4286,805.8608,790.9524,538.71796,0.037109375,0.1805419921875,0.98052978515625,7.813262939453125,41.907501220703125,-18.10882568359375,1,1.0,1.0,1.0,1.0,10.00
2024-10-11 20:43:53.551,0.81972,0.6758646,1.0875483,0.78794146,0.6031208,0.115946144,0.5056062,0.5579278,0.8052046,-0.2732593,0.3737596,0.8840309,0.4353465,0.123643614,0.037720084,0.5763962,0.1610722,-0.31127557,-0.42187274,0.10898191,792.96704,807.0696,809.0842,796.5934,539.5238,0.037109375,0.1805419921875,0.98052978515625,7.813262939453125,41.907501220703125,-18.10882568359375,1,1.0,1.0,1.0,1.0,10.00
2024-10-11 20:43:53.551,0.8404949,0.7391158,1.0824622,0.8891685,0.5905637,0.12507948,0.4911375,0.5489447,0.8052046,-0.2730589,0.3737596,0.8840309,0.4252076,0.11728883,0.039187793,0.57378733,0.18899015,-0.31761846,-0.42411745,0.16880172,796.99634,818.3516,809.4872,792.96704,599.5604,0.037109375,0.1805419921875,0.98052978515625,7.813262939453125,41.907501220703125,-18.10882568359375,1,1.0,1.0,1.0,1.0,10.00
2024-10-11 20:43:53.556,0.8404949,0.7391158,1.0824622,0.8891685,0.5905637,0.12507948,0.4911375,0.5489447,0.8052046,-0.2730589,0.3737596,0.8840309,0.4252076,0.11728883,0.039187793,0.57378733,0.18899015,-0.31761846,-0.42411745,0.16880172,794.17584,807.47253,805.05493,785.31134,686.5934,0.037109375,0.1805419921875,0.98052978515625,7.813262939453125,41.907501220703125,-18.10882568359375,1,1.0,1.0,1.0,1.0,10.00
2024-10-11 20:43:53.557,0.8404949,0.7391158,1.0824622,0.8891685,0.5905637,0.12507948,0.4911375,0.5489447,0.8052046,-0.2730589,0.3737596,0.8840309,0.4252076,0.11728883,0.039187793,0.57378733,0.18899015,-0.31761846,-0.42411745,0.16880172,782.49084,784.5055,805.4579,788.5348,720.84247,0.037109375,0.1805419921875,0.98052978515625,7.813262939453125,41.907501220703125,-18.10882568359375,1,1.0,1.0,1.0,1.0,10.00
2024-10-11 20:43:53.558,0.8404949,0.7391158,1.0824622,0.8891685,0.5905637,0.12507948,0.4911375,0.5489447,0.8052046,-0.2730589,0.3737596,0.8840309,0.4252076,0.11728883,0.039187793,0.57378733,0.18899015,-0.31761846,-0.42411745,0.16880172,784.10254,784.5055,805.4579,792.1612,800.6227,0.037109375,0.1805419921875,0.98052978515625,7.813262939453125,41.907501220703125,-18.10882568359375,1,1.0,1.0,1.0,1.0,10.00
2024-10-11 20:43:53.559,0.8404949,0.7391158,1.0824622,0.8891685,0.5905637,0.12507948,0.4911375,0.5489447,0.8052046,-0.2730589,0.3737596,0.8840309,0.4252076,0.11728883,0.039187793,0.57378733,0.18899015,-0.31761846,-0.42411745,0.16880172,792.96704,793.36993,805.4579,792.1612,857.03296,0.037109375,0.1805419921875,0.98052978515625,7.813262939453125,41.907501220703125,-18.10882568359375,1,1.0,1.0,1.0,1.0,10.00
2024-10-11 20:43:53.559,0.8404949,0.7391158,1.0824622,0.8891685,0.5905637,0.12507948,0.4911375,0.5489447,0.8052046,-0.2730589,0.3737596,0.8840309,0.4252076,0.11728883,0.039187793,0.57378733,0.18899015,-0.31761846,-0.42411745,0.16880172,804.2491,796.5934,802.23444,781.28204,693.0403,0.037109375,0.1805419921875,0.98052978515625,7.813262939453125,41.907501220703125,-18.10882568359375,1,1.0,1.0,1.0,1.0,10.00
2024-10-11 20:43:53.560,0.8404949,0.7391158,1.0824622,0.8891685,0.5905637,0.12507948,0.4911375,0.5489447,0.8052046,-0.2730589,0.3737596,0.8840309,0.4252076,0.11728883,0.039187793,0.57378733,0.18899015,-0.31761846,-0.42411745,0.16880172,807.0696,798.20514,800.6227,776.04395,562.0879,0.037109375,0.1805419921875,0.98052978515625,7.813262939453125,41.907501220703125,-18.10882568359375,1,1.0,1.0,1.0,1.0,10.00
2024-10-11 20:43:53.560,0.8404949,0.7391158,1.0824622,0.8891685,0.5905637,0.12507948,0.4911375,0.5489447,0.8052046,-0.2730589,0.3737596,0.8840309,0.4252076,0.11728883,0.039187793,0.57378733,0.18899015,-0.31761846,-0.42411745,0.16880172,796.1905,798.20514,805.4579,782.8938,673.2967,0.037109375,0.1805419921875,0.98052978515625,7.813262939453125,41.907501220703125,-18.10882568359375,1,1.0,1.0,1.0,1.0,10.00
2024-10-11 20:43:53.561,0.8404949,0.7391158,1.0824622,0.8891685,0.5905637,0.12507948,0.4911375,0.5489447,0.8052046,-0.2730589,0.3737596,0.8840309,0.4252076,0.11728883,0.039187793,0.57378733,0.18899015,-0.31761846,-0.42411745,0.16880172,799.011,801.02563,798.20514,794.17584,753.47986,0.037109375,0.1805419921875,0.98052978515625,7.813262939453125,41.907501220703125,-18.10882568359375,1,1.0,1.0,1.0,1.0,10.00
2024-10-11 20:43:53.595,0.8404949,0.7391158,1.0824622,0.8891685,0.5905637,0.12507948,0.4911375,0.5489447,0.8052046,-0.2730589,0.3737596,0.8840309,0.4252076,0.11728883,0.039187793,0.57378733,0.18899015,-0.31761846,-0.42411745,0.16880172,797.8022,807.47253,791.75824,794.9817,600.3663,-0.029052734375,0.18316650390625,0.98748779296875,7.469329833984375,44.39727783203125,-21.480865478515625,1,1.0,1.0,1.0,1.0,10.00
2024-10-11 20:43:53.596,0.8404949,0.7391158,1.0824622,0.8891685,0.5905637,0.12507948,0.4911375,0.5489447,0.8052046,-0.2730589,0.3737596,0.8840309,0.4252076,0.11728883,0.039187793,0.57378733,0.18899015,-0.31761846,-0.42411745,0.16880172,781.685,805.8608,808.68134,796.99634,573.36993,-0.029052734375,0.18316650390625,0.98748779296875,7.469329833984375,44.39727783203125,-21.480865478515625,1,1.0,1.0,1.0,1.0,10.00
2024-10-11 20:43:53.597,0.8404949,0.7391158,1.0824622,0.8891685,0.5905637,0.12507948,0.4911375,0.5489447,0.8052046,-0.2730589,0.3737596,0.8840309,0.4252076,0.11728883,0.039187793,0.57378733,0.18899015,-0.31761846,-0.42411745,0.16880172,777.25275,803.0403,811.50183,799.011,730.10986,-0.029052734375,0.18316650390625,0.98748779296875,7.469329833984375,44.39727783203125,-21.480865478515625,1,1.0,1.0,1.0,1.0,10.00
2024-10-11 20:43:53.598,0.8404949,0.7391158,1.0824622,0.8891685,0.5905637,0.12507948,0.4911375,0.5489447,0.8052046,-0.2730589,0.3737596,0.8840309,0.4252076,0.11728883,0.039187793,0.57378733,0.18899015,-0.31761846,-0.42411745,0.16880172,784.10254,805.4579,808.2784,795.78754,731.7216,-0.029052734375,0.18316650390625,0.98748779296875,7.469329833984375,44.39727783203125,-21.480865478515625,1,1.0,1.0,1.0,1.0,10.00
2024-10-11 20:43:53.599,0.8404949,0.7391158,1.0824622,0.8891685,0.5905637,0.12507948,0.4911375,0.5489447,0.8052046,-0.2730589,0.3737596,0.8840309,0.4252076,0.11728883,0.039187793,0.57378733,0.18899015,-0.31761846,-0.42411745,0.16880172,784.90845,807.47253,807.0696,788.1319,597.9487,-0.029052734375,0.18316650390625,0.98748779296875,7.469329833984375,44.39727783203125,-21.480865478515625,1,1.0,1.0,1.0,1.0,10.00
2024-10-11 20:43:53.599,0.8404949,0.7391158,1.0824622,0.8891685,0.5905637,0.12507948,0.4911375,0.5489447,0.8052046,-0.2730589,0.3737596,0.8840309,0.4252076,0.11728883,0.039187793,0.57378733,0.18899015,-0.31761846,-0.42411745,0.16880172,781.685,807.0696,803.0403,790.14655,726.4835,-0.029052734375,0.18316650390625,0.98748779296875,7.469329833984375,44.39727783203125,-21.480865478515625,1,1.0,1.0,1.0,1.0,10.00
2024-10-11 20:43:53.600,0.8404949,0.7391158,1.0824622,0.8891685,0.5905637,0.12507948,0.4911375,0.5489447,0.8052046,-0.2730589,0.3737596,0.8840309,0.4252076,0.11728883,0.039187793,0.57378733,0.18899015,-0.31761846,-0.42411745,0.16880172,774.0293,797.8022,800.6227,793.7729,868.315,-0.029052734375,0.18316650390625,0.98748779296875,7.469329833984375,44.39727783203125,-21.480865478515625,1,1.0,1.0,1.0,1.0,10.00
2024-10-11 20:43:53.601,0.8404949,0.7391158,1.0824622,0.8891685,0.5905637,0.12507948,0.4911375,0.5489447,0.8052046,-0.2730589,0.3737596,0.8840309,0.4252076,0.11728883,0.039187793,0.57378733,0.18899015,-0.31761846,-0.42411745,0.16880172,773.22345,796.1905,798.60803,786.1172,749.45056,-0.029052734375,0.18316650390625,0.98748779296875,7.469329833984375,44.39727783203125,-21.480865478515625,1,1.0,1.0,1.0,1.0,10.00
2024-10-11 20:43:53.601,0.8404949,0.7391158,1.0824622,0.8891685,0.5905637,0.12507948,0.4911375,0.5489447,0.8052046,-0.2730589,0.3737596,0.8840309,0.4252076,0.11728883,0.039187793,0.57378733,0.18899015,-0.31761846,-0.42411745,0.16880172,782.0879,801.02563,800.2198,788.5348,648.315,-0.029052734375,0.18316650390625,0.98748779296875,7.469329833984375,44.39727783203125,-21.480865478515625,1,1.0,1.0,1.0,1.0,10.00
2024-10-11 20:43:53.602,0.8404949,0.7391158,1.0824622,0.8891685,0.5905637,0.12507948,0.4911375,0.5489447,0.8052046,-0.2730589,0.3737596,0.8840309,0.4252076,0.11728883,0.039187793,0.57378733,0.18899015,-0.31761846,-0.42411745,0.16880172,779.67035,801.4286,798.20514,791.3553,606.4103,-0.029052734375,0.18316650390625,0.98748779296875,7.469329833984375,44.39727783203125,-21.480865478515625,1,1.0,1.0,1.0,1.0,10.00
2024-10-11 20:43:53.603,0.8404949,0.7391158,1.0824622,0.8891685,0.5905637,0.12507948,0.4911375,0.5489447,0.8052046,-0.2730589,0.3737596,0.8840309,0.4252076,0.11728883,0.039187793,0.57378733,0.18899015,-0.31761846,-0.42411745,0.16880172,778.0586,797.8022,791.3553,782.0879,891.685,-0.029052734375,0.18316650390625,0.98748779296875,7.469329833984375,44.39727783203125,-21.480865478515625,1,1.0,1.0,1.0,1.0,10.00
2024-10-11 20:43:53.604,0.8404949,0.7391158,1.0824622,0.8891685,0.5905637,0.12507948,0.4911375,0.5489447,0.8052046,-0.2730589,0.3737596,0.8840309,0.4252076,0.11728883,0.039187793,0.57378733,0.18899015,-0.31761846,-0.42411745,0.16880172,789.7436,797.3993,796.5934,774.0293,1044.7986,-0.029052734375,0.18316650390625,0.98748779296875,7.469329833984375,44.39727783203125,-21.480865478515625,1,1.0,1.0,1.0,1.0,10.00
2024-10-11 20:43:53.680,0.8404949,0.7391158,1.0824622,0.8891685,0.5905637,0.12507948,0.4911375,0.5489447,0.8052046,-0.2730589,0.3737596,0.8840309,0.4252076,0.11728883,0.039187793,0.57378733,0.18899015,-0.31761846,-0.42411745,0.16880172,787.72894,800.2198,801.4286,769.59705,664.83514,-0.0897216796875,0.1845703125,0.98004150390625,6.841278076171875,42.251434326171875,-23.559417724609375,1,1.0,1.0,1.0,1.0,10.00
2024-10-11 20:43:53.681,0.8404949,0.7391158,1.0824622,0.8891685,0.5905637,0.12507948,0.4911375,0.5489447,0.8052046,-0.2730589,0.3737596,0.8840309,0.4252076,0.11728883,0.039187793,0.57378733,0.18899015,-0.31761846,-0.42411745,0.16880172,783.2967,798.60803,801.4286,775.64105,633.00366,-0.0897216796875,0.1845703125,0.98004150390625,6.841278076171875,42.251434326171875,-23.559417724609375,1,1.0,1.0,1.0,1.0,10.00
2024-10-11 20:43:53.682,0.8404949,0.7391158,1.0824622,0.8891685,0.5905637,0.12507948,0.4911375,0.5489447,0.8052046,-0.2730589,0.3737596,0.8840309,0.4252076,0.11728883,0.039187793,0.57378733,0.18899015,-0.31761846,-0.42411745,0.16880172,785.7143,799.011,803.0403,779.67035,917.8755,-0.0897216796875,0.1845703125,0.98004150390625,6.841278076171875,42.251434326171875,-23.559417724609375,1,1.0,1.0,1.0,1.0,10.00
2024-10-11 20:43:53.682,0.8404949,0.7391158,1.0824622,0.8891685,0.5905637,0.12507948,0.4911375,0.5489447,0.8052046,-0.2730589,0.3737596,0.8840309,0.4252076,0.11728883,0.039187793,0.57378733,0.18899015,-0.31761846,-0.42411745,0.16880172,779.67035,799.81683,801.8315,782.0879,728.0952,-0.0897216796875,0.1845703125,0.98004150390625,6.841278076171875,42.251434326171875,-23.559417724609375,1,1.0,1.0,1.0,1.0,10.00
2024-10-11 20:43:53.683,0.8404949,0.7391158,1.0824622,0.8891685,0.5905637,0.12507948,0.4911375,0.5489447,0.8052046,-0.2730589,0.3737596,0.8840309,0.4252076,0.11728883,0.039187793,0.57378733,0.18899015,-0.31761846,-0.42411745,0.16880172,772.01465,801.4286,801.4286,787.72894,497.61905,-0.0897216796875,0.1845703125,0.98004150390625,6.841278076171875,42.251434326171875,-23.559417724609375,1,1.0,1.0,1.0,1.0,10.00
2024-10-11 20:43:53.684,0.8888519,0.78344035,1.0739806,0.9549061,0.5940676,0.12758605,0.4826488,0.5466685,0.8052046,-0.21169569,0.3737596,0.88482404,0.41230425,0.11744908,0.040388856,0.5739451,0.20524909,-0.3188709,-0.42866436,0.21782367,774.0293,796.5934,797.3993,789.34064,695.8608,-0.0897216796875,0.1845703125,0.98004150390625,6.841278076171875,42.251434326171875,-23.559417724609375,1,1.0,1.0,1.0,1.0,10.00
2024-10-11 20:43:53.690,0.8888519,0.78344035,1.0739806,0.9549061,0.5940676,0.12758605,0.4826488,0.5466685,0.8052046,-0.21169569,0.3737596,0.88482404,0.41230425,0.11744908,0.040388856,0.5739451,0.20524909,-0.3188709,-0.42866436,0.21782367,780.87915,792.1612,793.36993,791.75824,1196.3004,-0.0897216796875,0.1845703125,0.98004150390625,6.841278076171875,42.251434326171875,-23.559417724609375,1,1.0,1.0,1.0,1.0,10.00
2024-10-11 20:43:53.691,0.8888519,0.78344035,1.0739806,0.9549061,0.5940676,0.12758605,0.4826488,0.5466685,0.8052046,-0.21169569,0.3737596,0.88482404,0.41230425,0.11744908,0.040388856,0.5739451,0.20524909,-0.3188709,-0.42866436,0.21782367,775.2381,794.9817,798.20514,787.72894,1061.7216,-0.0897216796875,0.1845703125,0.98004150390625,6.841278076171875,42.251434326171875,-23.559417724609375,1,1.0,1.0,1.0,1.0,10.00
2024-10-11 20:43:53.692,0.8888519,0.78344035,1.0739806,0.9549061,0.5940676,0.12758605,0.4826488,0.5466685,0.8052046,-0.21169569,0.3737596,0.88482404,0.41230425,0.11744908,0.040388856,0.5739451,0.20524909,-0.3188709,-0.42866436,0.21782367,774.83514,796.5934,794.57874,780.07324,540.7326,-0.0897216796875,0.1845703125,0.98004150390625,6.841278076171875,42.251434326171875,-23.559417724609375,1,1.0,1.0,1.0,1.0,10.00
2024-10-11 20:43:53.692,0.8888519,0.78344035,1.0739806,0.9549061,0.5940676,0.12758605,0.4826488,0.5466685,0.8052046,-0.21169569,0.3737596,0.88482404,0.41230425,0.11744908,0.040388856,0.5739451,0.20524909,-0.3188709,-0.42866436,0.21782367,788.1319,802.6374,794.17584,782.49084,546.77655,-0.0897216796875,0.1845703125,0.98004150390625,6.841278076171875,42.251434326171875,-23.559417724609375,1,1.0,1.0,1.0,1.0,10.00
2024-10-11 20:43:53.693,0.8888519,0.78344035,1.0739806,0.9549061,0.5940676,0.12758605,0.4826488,0.5466685,0.8052046,-0.21169569,0.3737596,0.88482404,0.41230425,0.11744908,0.040388856,0.5739451,0.20524909,-0.3188709,-0.42866436,0.21782367,789.7436,798.20514,804.2491,782.0879,747.03296,-0.0897216796875,0.1845703125,0.98004150390625,6.841278076171875,42.251434326171875,-23.559417724609375,1,1.0,1.0,1.0,1.0,10.00
2024-10-11 20:43:53.694,0.8888519,0.78344035,1.0739806,0.9549061,0.5940676,0.12758605,0.4826488,0.5466685,0.8052046,-0.21169569,0.3737596,0.88482404,0.41230425,0.11744908,0.040388856,0.5739451,0.20524909,-0.3188709,-0.42866436,0.21782367,787.326,796.99634,800.2198,774.43225,682.1612,-0.0897216796875,0.1845703125,0.98004150390625,6.841278076171875,42.251434326171875,-23.559417724609375,1,1.0,1.0,1.0,1.0,10.00
2024-10-11 20:43:53.731,0.8888519,0.78344035,1.0739806,0.9549061,0.5940676,0.12758605,0.4826488,0.5466685,0.8052046,-0.21169569,0.3737596,0.88482404,0.41230425,0.11744908,0.040388856,0.5739451,0.20524909,-0.3188709,-0.42866436,0.21782367,780.87915,799.81683,796.5934,778.0586,563.2967,-0.14703369140625,0.18951416015625,0.98358154296875,5.69732666015625,36.374664306640625,-20.568695068359375,1,1.0,1.0,1.0,1.0,10.00
2024-10-11 20:43:53.732,0.8888519,0.78344035,1.0739806,0.9549061,0.5940676,0.12758605,0.4826488,0.5466685,0.8052046,-0.21169569,0.3737596,0.88482404,0.41230425,0.11744908,0.040388856,0.5739451,0.20524909,-0.3188709,-0.42866436,0.21782367,772.4176,794.17584,792.96704,782.0879,634.21246,-0.14703369140625,0.18951416015625,0.98358154296875,5.69732666015625,36.374664306640625,-20.568695068359375,1,1.0,1.0,1.0,1.0,10.00
2024-10-11 20:43:53.733,0.8888519,0.78344035,1.0739806,0.9549061,0.5940676,0.12758605,0.4826488,0.5466685,0.8052046,-0.21169569,0.3737596,0.88482404,0.41230425,0.11744908,0.040388856,0.5739451,0.20524909,-0.3188709,-0.42866436,0.21782367,778.46155,798.20514,788.5348,780.07324,608.4249,-0.14703369140625,0.18951416015625,0.98358154296875,5.69732666015625,36.374664306640625,-20.568695068359375,1,1.0,1.0,1.0,1.0,10.00
2024-10-11 20:43:53.733,0.8888519,0.78344035,1.0739806,0.9549061,0.5940676,0.12758605,0.4826488,0.5466685,0.8052046,-0.21169569,0.3737596,0.88482404,0.41230425,0.11744908,0.040388856,0.5739451,0.20524909,-0.3188709,-0.42866436,0.21782367,783.69965,802.23444,796.99634,767.98535,513.3333,-0.14703369140625,0.18951416015625,0.98358154296875,5.69732666015625,36.374664306640625,-20.568695068359375,1,1.0,1.0,1.0,1.0,10.00
2024-10-11 20:43:53.734,0.8888519,0.78344035,1.0739806,0.9549061,0.5940676,0.12758605,0.4826488,0.5466685,0.8052046,-0.21169569,0.3737596,0.88482404,0.41230425,0.11744908,0.040388856,0.5739451,0.20524909,-0.3188709,-0.42866436,0.21782367,782.8938,801.02563,800.2198,763.1502,481.90475,-0.14703369140625,0.18951416015625,0.98358154296875,5.69732666015625,36.374664306640625,-20.568695068359375,1,1.0,1.0,1.0,1.0,10.00
2024-10-11 20:43:53.735,0.8888519,0.78344035,1.0739806,0.9549061,0.5940676,0.12758605,0.4826488,0.5466685,0.8052046,-0.21169569,0.3737596,0.88482404,0.41230425,0.11744908,0.040388856,0.5739451,0.20524909,-0.3188709,-0.42866436,0.21782367,791.3553,803.44324,800.2198,782.0879,674.5055,-0.14703369140625,0.18951416015625,0.98358154296875,5.69732666015625,36.374664306640625,-20.568695068359375,1,1.0,1.0,1.0,1.0,10.00
2024-10-11 20:43:53.735,0.8888519,0.78344035,1.0739806,0.9549061,0.5940676,0.12758605,0.4826488,0.5466685,0.8052046,-0.21169569,0.3737596,0.88482404,0.41230425,0.11744908,0.040388856,0.5739451,0.20524909,-0.3188709,-0.42866436,0.21782367,790.14655,802.23444,800.6227,788.5348,807.8755,-0.14703369140625,0.18951416015625,0.98358154296875,5.69732666015625,36.374664306640625,-20.568695068359375,1,1.0,1.0,1.0,1.0,10.00
2024-10-11 20:43:53.736,0.8888519,0.78344035,1.0739806,0.9549061,0.5940676,0.12758605,0.4826488,0.5466685,0.8052046,-0.21169569,0.3737596,0.88482404,0.41230425,0.11744908,0.040388856,0.5739451,0.20524909,-0.3188709,-0.42866436,0.21782367,778.0586,801.4286,798.20514,783.69965,666.8498,-0.14703369140625,0.18951416015625,0.98358154296875,5.69732666015625,36.374664306640625,-20.568695068359375,1,1.0,1.0,1.0,1.0,10.00
2024-10-11 20:43:53.737,0.8888519,0.78344035,1.0739806,0.9549061,0.5940676,0.12758605,0.4826488,0.5466685,0.8052046,-0.21169569,0.3737596,0.88482404,0.41230425,0.11744908,0.040388856,0.5739451,0.20524909,-0.3188709,-0.42866436,0.21782367,783.69965,799.41394,799.011,785.7143,620.5128,-0.14703369140625,0.18951416015625,0.98358154296875,5.69732666015625,36.374664306640625,-20.568695068359375,1,1.0,1.0,1.0,1.0,10.00
2024-10-11 20:43:53.738,0.8888519,0.78344035,1.0739806,0.9549061,0.5940676,0.12758605,0.4826488,0.5466685,0.8052046,-0.21169569,0.3737596,0.88482404,0.41230425,0.11744908,0.040388856,0.5739451,0.20524909,-0.3188709,-0.42866436,0.21782367,791.3553,797.8022,800.2198,782.0879,767.98535,-0.14703369140625,0.18951416015625,0.98358154296875,5.69732666015625,36.374664306640625,-20.568695068359375,1,1.0,1.0,1.0,1.0,10.00
2024-10-11 20:43:53.738,0.8888519,0.78344035,1.0739806,0.9549061,0.5940676,0.12758605,0.4826488,0.5466685,0.8052046,-0.21169569,0.3737596,0.88482404,0.41230425,0.11744908,0.040388856,0.5739451,0.20524909,-0.3188709,-0.42866436,0.21782367,791.3553,799.011,801.8315,770.80585,775.2381,-0.14703369140625,0.18951416015625,0.98358154296875,5.69732666015625,36.374664306640625,-20.568695068359375,1,1.0,1.0,1.0,1.0,10.00
2024-10-11 20:43:53.739,0.8888519,0.78344035,1.0739806,0.9549061,0.5940676,0.12758605,0.4826488,0.5466685,0.8052046,-0.21169569,0.3737596,0.88482404,0.41230425,0.11744908,0.040388856,0.5739451,0.20524909,-0.3188709,-0.42866436,0.21782367,783.69965,798.20514,803.0403,770.80585,585.8608,-0.14703369140625,0.18951416015625,0.98358154296875,5.69732666015625,36.374664306640625,-20.568695068359375,1,1.0,1.0,1.0,1.0,10.00
2024-10-11 20:43:53.781,0.8888519,0.78344035,1.0739806,0.9549061,0.5940676,0.12758605,0.4826488,0.5466685,0.8052046,-0.21169569,0.3737596,0.88482404,0.41230425,0.11744908,0.040388856,0.5739451,0.20524909,-0.3188709,-0.42866436,0.21782367,782.0879,798.20514,803.44324,777.25275,665.64105,-0.17852783203125,0.19195556640625,0.962646484375,3.386993408203125,27.9931640625,-16.351776123046875,1,1.0,1.0,1.0,1.0,10.00
2024-10-11 20:43:53.782,0.8888519,0.78344035,1.0739806,0.9549061,0.5940676,0.12758605,0.4826488,0.5466685,0.8052046,-0.21169569,0.3737596,0.88482404,0.41230425,0.11744908,0.040388856,0.5739451,0.20524909,-0.3188709,-0.42866436,0.21782367,785.7143,798.60803,801.8315,780.87915,956.55676,-0.17852783203125,0.19195556640625,0.962646484375,3.386993408203125,27.9931640625,-16.351776123046875,1,1.0,1.0,1.0,1.0,10.00
2024-10-11 20:43:53.783,0.8888519,0.78344035,1.0739806,0.9549061,0.5940676,0.12758605,0.4826488,0.5466685,0.8052046,-0.21169569,0.3737596,0.88482404,0.41230425,0.11744908,0.040388856,0.5739451,0.20524909,-0.3188709,-0.42866436,0.21782367,786.9231,797.8022,800.6227,786.9231,741.79486,-0.17852783203125,0.19195556640625,0.962646484375,3.386993408203125,27.9931640625,-16.351776123046875,1,1.0,1.0,1.0,1.0,10.00
2024-10-11 20:43:53.783,0.8888519,0.78344035,1.0739806,0.9549061,0.5940676,0.12758605,0.4826488,0.5466685,0.8052046,-0.21169569,0.3737596,0.88482404,0.41230425,0.11744908,0.040388856,0.5739451,0.20524909,-0.3188709,-0.42866436,0.21782367,799.41394,799.41394,805.05493,796.1905,467.8022,-0.17852783203125,0.19195556640625,0.962646484375,3.386993408203125,27.9931640625,-16.351776123046875,1,1.0,1.0,1.0,1.0,10.00
2024-10-11 20:43:53.784,0.8888519,0.78344035,1.0739806,0.9549061,0.5940676,0.12758605,0.4826488,0.5466685,0.8052046,-0.21169569,0.3737596,0.88482404,0.41230425,0.11744908,0.040388856,0.5739451,0.20524909,-0.3188709,-0.42866436,0.21782367,788.1319,811.50183,804.2491,776.04395,602.7839,-0.17852783203125,0.19195556640625,0.962646484375,3.386993408203125,27.9931640625,-16.351776123046875,1,1.0,1.0,1.0,1.0,10.00
2024-10-11 20:43:53.785,0.8888519,0.78344035,1.0739806,0.9549061,0.5940676,0.12758605,0.4826488,0.5466685,0.8052046,-0.21169569,0.3737596,0.88482404,0.41230425,0.11744908,0.040388856,0.5739451,0.20524909,-0.3188709,-0.42866436,0.21782367,770.80585,817.1429,796.5934,761.53845,944.87177,-0.17852783203125,0.19195556640625,0.962646484375,3.386993408203125,27.9931640625,-16.351776123046875,1,1.0,1.0,1.0,1.0,10.00
2024-10-11 20:43:53.785,0.8888519,0.78344035,1.0739806,0.9549061,0.5940676,0.12758605,0.4826488,0.5466685,0.8052046,-0.21169569,0.3737596,0.88482404,0.41230425,0.11744908,0.040388856,0.5739451,0.20524909,-0.3188709,-0.42866436,0.21782367,775.64105,815.9341,788.5348,765.9707,765.56775,-0.17852783203125,0.19195556640625,0.962646484375,3.386993408203125,27.9931640625,-16.351776123046875,1,1.0,1.0,1.0,1.0,10.00
2024-10-11 20:43:53.786,0.94189626,0.7986357,1.0598099,0.9549061,0.6046646,0.1175061,0.47416082,0.5466685,0.8093439,-0.08818077,0.3737596,0.88482404,0.3953167,0.11943354,0.038393512,0.5739451,0.20733845,-0.3193585,-0.4373953,0.21782367,788.93774,809.0842,788.93774,768.7912,542.74725,-0.17852783203125,0.19195556640625,0.962646484375,3.386993408203125,27.9931640625,-16.351776123046875,1,1.0,1.0,1.0,1.0,10.00
2024-10-11 20:43:53.792,0.94189626,0.7986357,1.0598099,0.9549061,0.6046646,0.1175061,0.47416082,0.5466685,0.8093439,-0.08818077,0.3737596,0.88482404,0.3953167,0.11943354,0.038393512,0.5739451,0.20733845,-0.3193585,-0.4373953,0.21782367,790.9524,808.68134,787.72894,764.7619,602.381,-0.17852783203125,0.19195556640625,0.962646484375,3.386993408203125,27.9931640625,-16.351776123046875,1,1.0,1.0,1.0,1.0,10.00
2024-10-11 20:43:53.793,0.94189626,0.7986357,1.0598099,0.9549061,0.6046646,0.1175061,0.47416082,0.5466685,0.8093439,-0.08818077,0.3737596,0.88482404,0.3953167,0.11943354,0.038393512,0.5739451,0.20733845,-0.3193585,-0.4373953,0.21782367,787.326,808.68134,786.52014,755.89746,669.67035,-0.17852783203125,0.19195556640625,0.962646484375,3.386993408203125,27.9931640625,-16.351776123046875,1,1.0,1.0,1.0,1.0,10.00
2024-10-11 20:43:53.794,0.94189626,0.7986357,1.0598099,0.9549061,0.6046646,0.1175061,0.47416082,0.5466685,0.8093439,-0.08818077,0.3737596,0.88482404,0.3953167,0.11943354,0.038393512,0.5739451,0.20733845,-0.3193585,-0.4373953,0.21782367,782.0879,807.8755,791.3553,761.53845,614.87177,-0.17852783203125,0.19195556640625,0.962646484375,3.386993408203125,27.9931640625,-16.351776123046875,1,1.0,1.0,1.0,1.0,10.00
2024-10-11 20:43:53.794,0.94189626,0.7986357,1.0598099,0.9549061,0.6046646,0.1175061,0.47416082,0.5466685,0.8093439,-0.08818077,0.3737596,0.88482404,0.3953167,0.11943354,0.038393512,0.5739451,0.20733845,-0.3193585,-0.4373953,0.21782367,771.2088,817.5458,793.36993,772.4176,527.8388,-0.17852783203125,0.19195556640625,0.962646484375,3.386993408203125,27.9931640625,-16.351776123046875,1,1.0,1.0,1.0,1.0,10.00
2024-10-11 20:43:53.831,0.94189626,0.7986357,1.0598099,0.9549061,0.6046646,0.1175061,0.47416082,0.5466685,0.8093439,-0.08818077,0.3737596,0.88482404,0.3953167,0.11943354,0.038393512,0.5739451,0.20733845,-0.3193585,-0.4373953,0.21782367,774.43225,806.26373,794.57874,777.25275,646.7033,-0.17852783203125,0.19195556640625,0.962646484375,3.386993408203125,27.9931640625,-16.351776123046875,1,1.0,1.0,1.0,1.0,10.00
2024-10-11 20:43:53.832,0.94189626,0.7986357,1.0598099,0.9549061,0.6046646,0.1175061,0.47416082,0.5466685,0.8093439,-0.08818077,0.3737596,0.88482404,0.3953167,0.11943354,0.038393512,0.5739451,0.20733845,-0.3193585,-0.4373953,0.21782367,783.2967,796.5934,798.20514,782.8938,858.6447,-0.17852783203125,0.19195556640625,0.962646484375,3.386993408203125,27.9931640625,-16.351776123046875,1,1.0,1.0,1.0,1.0,10.00
2024-10-11 20:43:53.833,0.94189626,0.7986357,1.0598099,0.9549061,0.6046646,0.1175061,0.47416082,0.5466685,0.8093439,-0.08818077,0.3737596,0.88482404,0.3953167,0.11943354,0.038393512,0.5739451,0.20733845,-0.3193585,-0.4373953,0.21782367,787.72894,802.23444,797.8022,774.83514,681.75824,-0.17852783203125,0.19195556640625,0.962646484375,3.386993408203125,27.9931640625,-16.351776123046875,1,1.0,1.0,1.0,1.0,10.00
2024-10-11 20:43:53.834,0.94189626,0.7986357,1.0598099,0.9549061,0.6046646,0.1175061,0.47416082,0.5466685,0.8093439,-0.08818077,0.3737596,0.88482404,0.3953167,0.11943354,0.038393512,0.5739451,0.20733845,-0.3193585,-0.4373953,0.21782367,783.2967,806.26373,791.75824,765.56775,514.94507,-0.17852783203125,0.19195556640625,0.962646484375,3.386993408203125,27.9931640625,-16.351776123046875,1,1.0,1.0,1.0,1.0,10.00
2024-10-11 20:43:53.834,0.94189626,0.7986357,1.0598099,0.9549061,0.6046646,0.1175061,0.47416082,0.5466685,0.8093439,-0.08818077,0.3737596,0.88482404,0.3953167,0.11943354,0.038393512,0.5739451,0.20733845,-0.3193585,-0.4373953,0.21782367,777.6557,804.65204,789.34064,771.6117,799.81683,-0.17852783203125,0.19195556640625,0.962646484375,3.386993408203125,27.9931640625,-16.351776123046875,1,1.0,1.0,1.0,1.0,10.00
2024-10-11 20:43:53.835,0.94189626,0.7986357,1.0598099,0.9549061,0.6046646,0.1175061,0.47416082,0.5466685,0.8093439,-0.08818077,0.3737596,0.88482404,0.3953167,0.11943354,0.038393512,0.5739451,0.20733845,-0.3193585,-0.4373953,0.21782367,776.04395,794.17584,789.7436,778.86444,1126.1904,-0.17852783203125,0.19195556640625,0.962646484375,3.386993408203125,27.9931640625,-16.351776123046875,1,1.0,1.0,1.0,1.0,10.00
2024-10-11 20:43:53.836,0.94189626,0.7986357,1.0598099,0.9549061,0.6046646,0.1175061,0.47416082,0.5466685,0.8093439,-0.08818077,0.3737596,0.88482404,0.3953167,0.11943354,0.038393512,0.5739451,0.20733845,-0.3193585,-0.4373953,0.21782367,778.86444,792.5641,792.96704,772.4176,673.2967,-0.17852783203125,0.19195556640625,0.962646484375,3.386993408203125,27.9931640625,-16.351776123046875,1,1.0,1.0,1.0,1.0,10.00
2024-10-11 20:43:53.836,0.94189626,0.7986357,1.0598099,0.9549061,0.6046646,0.1175061,0.47416082,0.5466685,0.8093439,-0.08818077,0.3737596,0.88482404,0.3953167,0.11943354,0.038393512,0.5739451,0.20733845,-0.3193585,-0.4373953,0.21782367,771.6117,796.1905,791.3553,764.35895,440.40292,-0.17852783203125,0.19195556640625,0.962646484375,3.386993408203125,27.9931640625,-16.351776123046875,1,1.0,1.0,1.0,1.0,10.00
2024-10-11 20:43:53.837,0.94189626,0.7986357,1.0598099,0.9549061,0.6046646,0.1175061,0.47416082,0.5466685,0.8093439,-0.08818077,0.3737596,0.88482404,0.3953167,0.11943354,0.038393512,0.5739451,0.20733845,-0.3193585,-0.4373953,0.21782367,769.59705,795.78754,790.54944,773.6264,685.78754,-0.17852783203125,0.19195556640625,0.962646484375,3.386993408203125,27.9931640625,-16.351776123046875,1,1.0,1.0,1.0,1.0,10.00
2024-10-11 20:43:53.838,0.94189626,0.7986357,1.0598099,0.9549061,0.6046646,0.1175061,0.47416082,0.5466685,0.8093439,-0.08818077,0.3737596,0.88482404,0.3953167,0.11943354,0.038393512,0.5739451,0.20733845,-0.3193585,-0.4373953,0.21782367,782.0879,796.5934,794.57874,782.49084,566.1172,-0.17852783203125,0.19195556640625,0.962646484375,3.386993408203125,27.9931640625,-16.351776123046875,1,1.0,1.0,1.0,1.0,10.00
2024-10-11 20:43:53.839,0.94189626,0.7986357,1.0598099,0.9549061,0.6046646,0.1175061,0.47416082,0.5466685,0.8093439,-0.08818077,0.3737596,0.88482404,0.3953167,0.11943354,0.038393512,0.5739451,0.20733845,-0.3193585,-0.4373953,0.21782367,783.2967,801.02563,792.96704,770.80585,413.4066,-0.17852783203125,0.19195556640625,0.962646484375,3.386993408203125,27.9931640625,-16.351776123046875,1,1.0,1.0,1.0,1.0,10.00
2024-10-11 20:43:53.839,0.94189626,0.7986357,1.0598099,0.9549061,0.6046646,0.1175061,0.47416082,0.5466685,0.8093439,-0.08818077,0.3737596,0.88482404,0.3953167,0.11943354,0.038393512,0.5739451,0.20733845,-0.3193585,-0.4373953,0.21782367,783.69965,801.8315,795.38464,766.77655,499.23077,-0.17852783203125,0.19195556640625,0.962646484375,3.386993408203125,27.9931640625,-16.351776123046875,1,1.0,1.0,1.0,1.0,10.00
2024-10-11 20:43:53.873,0.94189626,0.7986357,1.0598099,0.9549061,0.6046646,0.1175061,0.47416082,0.5466685,0.8093439,-0.08818077,0.3737596,0.88482404,0.3953167,0.11943354,0.038393512,0.5739451,0.20733845,-0.3193585,-0.4373953,0.21782367,793.36993,800.2198,796.1905,778.86444,672.8938,-0.22357177734375,0.19573974609375,0.96405029296875,2.624359130859375,22.77435302734375,-12.919921875,1,1.0,1.0,1.0,1.0,10.00
2024-10-11 20:43:53.874,0.94189626,0.7986357,1.0598099,0.9549061,0.6046646,0.1175061,0.47416082,0.5466685,0.8093439,-0.08818077,0.3737596,0.88482404,0.3953167,0.11943354,0.038393512,0.5739451,0.20733845,-0.3193585,-0.4373953,0.21782367,792.5641,801.4286,798.60803,779.67035,581.8315,-0.22357177734375,0.19573974609375,0.96405029296875,2.624359130859375,22.77435302734375,-12.919921875,1,1.0,1.0,1.0,1.0,10.00
