TimeStamp,Delta_TP9,Delta_AF7,Delta_AF8,Delta_TP10,Theta_TP9,Theta_AF7,Theta_AF8,Theta_TP10,Alpha_TP9,Alpha_AF7,Alpha_AF8,Alpha_TP10,Beta_TP9,Beta_AF7,Beta_AF8,Beta_TP10,Gamma_TP9,Gamma_AF7,Gamma_AF8,Gamma_TP10,RAW_TP9,RAW_AF7,RAW_AF8,RAW_TP10,AUX_RIGHT,Accelerometer_X,Accelerometer_Y,Accelerometer_Z,Gyro_X,Gyro_Y,Gyro_Z,HeadBandOn,HSI_TP9,HSI_AF7,HSI_AF8,HSI_TP10,Battery,Elements
2024-10-11 20:45:12.598,0.7011713,0.5517109,0.86332893,0.7541077,0.44928414,0.08994812,0.42785782,0.4603819,0.7308779,-0.06401626,0.7567141,0.6752457,0.5723569,0.07314542,0.3586642,0.5914401,0.078214675,-0.382161,0.10264197,-0.01638959,804.65204,789.7436,825.2015,811.0989,730.9158,0.27777099609375,0.181640625,0.96881103515625,1.77947998046875,16.090087890625,45.017852783203125,1,1.0,1.0,1.0,1.0,10.00
2024-10-11 20:45:12.599,0.7011713,0.5517109,0.86332893,0.7541077,0.44928414,0.08994812,0.42785782,0.4603819,0.7308779,-0.06401626,0.7567141,0.6752457,0.5723569,0.07314542,0.3586642,0.5914401,0.078214675,-0.382161,0.10264197,-0.01638959,790.14655,789.7436,815.9341,806.26373,709.15753,0.27777099609375,0.181640625,0.96881103515625,1.77947998046875,16.090087890625,45.017852783203125,1,1.0,1.0,1.0,1.0,10.00
2024-10-11 20:45:12.601,0.7011713,0.5517109,0.86332893,0.7541077,0.44928414,0.08994812,0.42785782,0.4603819,0.7308779,-0.06401626,0.7567141,0.6752457,0.5723569,0.07314542,0.3586642,0.5914401,0.078214675,-0.382161,0.10264197,-0.01638959,785.7143,783.69965,810.696,807.0696,774.83514,0.27777099609375,0.181640625,0.96881103515625,1.77947998046875,16.090087890625,45.017852783203125,1,1.0,1.0,1.0,1.0,10.00
2024-10-11 20:45:12.601,0.7011713,0.5517109,0.86332893,0.7541077,0.44928414,0.08994812,0.42785782,0.4603819,0.7308779,-0.06401626,0.7567141,0.6752457,0.5723569,0.07314542,0.3586642,0.5914401,0.078214675,-0.382161,0.10264197,-0.01638959,791.3553,782.0879,821.5751,811.0989,720.84247,0.27777099609375,0.181640625,0.96881103515625,1.77947998046875,16.090087890625,45.017852783203125,1,1.0,1.0,1.0,1.0,10.00
2024-10-11 20:45:12.603,0.7011713,0.5517109,0.86332893,0.7541077,0.44928414,0.08994812,0.42785782,0.4603819,0.7308779,-0.06401626,0.7567141,0.6752457,0.5723569,0.07314542,0.3586642,0.5914401,0.078214675,-0.382161,0.10264197,-0.01638959,791.3553,786.9231,818.3516,815.12823,685.38464,0.27777099609375,0.181640625,0.96881103515625,1.77947998046875,16.090087890625,45.017852783203125,1,1.0,1.0,1.0,1.0,10.00
2024-10-11 20:45:12.604,0.7011713,0.5517109,0.86332893,0.7541077,0.44928414,0.08994812,0.42785782,0.4603819,0.7308779,-0.06401626,0.7567141,0.6752457,0.5723569,0.07314542,0.3586642,0.5914401,0.078214675,-0.382161,0.10264197,-0.01638959,791.3553,791.3553,801.8315,813.5165,819.15753,0.27777099609375,0.181640625,0.96881103515625,1.77947998046875,16.090087890625,45.017852783203125,1,1.0,1.0,1.0,1.0,10.00
2024-10-11 20:45:12.605,0.7011713,0.5517109,0.86332893,0.7541077,0.44928414,0.08994812,0.42785782,0.4603819,0.7308779,-0.06401626,0.7567141,0.6752457,0.5723569,0.07314542,0.3586642,0.5914401,0.078214675,-0.382161,0.10264197,-0.01638959,793.7729,793.36993,814.7253,811.9048,871.9414,0.27777099609375,0.181640625,0.96881103515625,1.77947998046875,16.090087890625,45.017852783203125,1,1.0,1.0,1.0,1.0,10.00
2024-10-11 20:45:12.606,0.6671574,0.49410713,0.82420623,0.7085262,0.3573012,0.08273482,0.39086297,0.4531459,0.72639865,-0.052950602,0.74489266,0.6720687,0.56048113,0.056367967,0.33619156,0.5892974,0.06627069,-0.37637553,0.10609101,0.0014324336,792.5641,793.7729,820.7692,807.8755,767.98535,0.27777099609375,0.181640625,0.96881103515625,1.77947998046875,16.090087890625,45.017852783203125,1,1.0,1.0,1.0,1.0,10.00
2024-10-11 20:45:12.612,0.6671574,0.49410713,0.82420623,0.7085262,0.3573012,0.08273482,0.39086297,0.4531459,0.72639865,-0.052950602,0.74489266,0.6720687,0.56048113,0.056367967,0.33619156,0.5892974,0.06627069,-0.37637553,0.10609101,0.0014324336,793.36993,790.54944,807.47253,804.2491,662.4176,0.27777099609375,0.181640625,0.96881103515625,1.77947998046875,16.090087890625,45.017852783203125,1,1.0,1.0,1.0,1.0,10.00
2024-10-11 20:45:12.613,0.6671574,0.49410713,0.82420623,0.7085262,0.3573012,0.08273482,0.39086297,0.4531459,0.72639865,-0.052950602,0.74489266,0.6720687,0.56048113,0.056367967,0.33619156,0.5892974,0.06627069,-0.37637553,0.10609101,0.0014324336,802.6374,796.5934,812.71063,810.293,743.8095,0.27777099609375,0.181640625,0.96881103515625,1.77947998046875,16.090087890625,45.017852783203125,1,1.0,1.0,1.0,1.0,10.00
2024-10-11 20:45:12.614,0.6671574,0.49410713,0.82420623,0.7085262,0.3573012,0.08273482,0.39086297,0.4531459,0.72639865,-0.052950602,0.74489266,0.6720687,0.56048113,0.056367967,0.33619156,0.5892974,0.06627069,-0.37637553,0.10609101,0.0014324336,798.60803,797.8022,815.5311,818.7546,861.8681,0.27777099609375,0.181640625,0.96881103515625,1.77947998046875,16.090087890625,45.017852783203125,1,1.0,1.0,1.0,1.0,10.00
2024-10-11 20:45:12.615,0.6671574,0.49410713,0.82420623,0.7085262,0.3573012,0.08273482,0.39086297,0.4531459,0.72639865,-0.052950602,0.74489266,0.6720687,0.56048113,0.056367967,0.33619156,0.5892974,0.06627069,-0.37637553,0.10609101,0.0014324336,793.7729,796.1905,813.5165,819.9634,750.65936,0.27777099609375,0.181640625,0.96881103515625,1.77947998046875,16.090087890625,45.017852783203125,1,1.0,1.0,1.0,1.0,10.00
2024-10-11 20:45:12.658,0.6671574,0.49410713,0.82420623,0.7085262,0.3573012,0.08273482,0.39086297,0.4531459,0.72639865,-0.052950602,0.74489266,0.6720687,0.56048113,0.056367967,0.33619156,0.5892974,0.06627069,-0.37637553,0.10609101,0.0014324336,794.57874,795.38464,805.4579,819.5604,636.63007,0.27777099609375,0.181640625,0.96881103515625,1.77947998046875,16.090087890625,45.017852783203125,1,1.0,1.0,1.0,1.0,10.00
2024-10-11 20:45:12.659,0.6671574,0.49410713,0.82420623,0.7085262,0.3573012,0.08273482,0.39086297,0.4531459,0.72639865,-0.052950602,0.74489266,0.6720687,0.56048113,0.056367967,0.33619156,0.5892974,0.06627069,-0.37637553,0.10609101,0.0014324336,802.23444,791.75824,798.20514,813.1135,814.3223,0.27777099609375,0.181640625,0.96881103515625,1.77947998046875,16.090087890625,45.017852783203125,1,1.0,1.0,1.0,1.0,10.00
2024-10-11 20:45:12.660,0.6671574,0.49410713,0.82420623,0.7085262,0.3573012,0.08273482,0.39086297,0.4531459,0.72639865,-0.052950602,0.74489266,0.6720687,0.56048113,0.056367967,0.33619156,0.5892974,0.06627069,-0.37637553,0.10609101,0.0014324336,806.6667,794.57874,808.2784,806.6667,1000.07324,0.27777099609375,0.181640625,0.96881103515625,1.77947998046875,16.090087890625,45.017852783203125,1,1.0,1.0,1.0,1.0,10.00
2024-10-11 20:45:12.661,0.6671574,0.49410713,0.82420623,0.7085262,0.3573012,0.08273482,0.39086297,0.4531459,0.72639865,-0.052950602,0.74489266,0.6720687,0.56048113,0.056367967,0.33619156,0.5892974,0.06627069,-0.37637553,0.10609101,0.0014324336,805.8608,799.81683,807.0696,806.6667,821.978,0.27777099609375,0.181640625,0.96881103515625,1.77947998046875,16.090087890625,45.017852783203125,1,1.0,1.0,1.0,1.0,10.00
2024-10-11 20:45:12.661,0.6671574,0.49410713,0.82420623,0.7085262,0.3573012,0.08273482,0.39086297,0.4531459,0.72639865,-0.052950602,0.74489266,0.6720687,0.56048113,0.056367967,0.33619156,0.5892974,0.06627069,-0.37637553,0.10609101,0.0014324336,809.89014,798.20514,793.7729,808.2784,665.64105,0.27777099609375,0.181640625,0.96881103515625,1.77947998046875,16.090087890625,45.017852783203125,1,1.0,1.0,1.0,1.0,10.00
2024-10-11 20:45:12.662,0.6671574,0.49410713,0.82420623,0.7085262,0.3573012,0.08273482,0.39086297,0.4531459,0.72639865,-0.052950602,0.74489266,0.6720687,0.56048113,0.056367967,0.33619156,0.5892974,0.06627069,-0.37637553,0.10609101,0.0014324336,807.8755,796.1905,797.3993,817.1429,929.9634,0.27777099609375,0.181640625,0.96881103515625,1.77947998046875,16.090087890625,45.017852783203125,1,1.0,1.0,1.0,1.0,10.00
2024-10-11 20:45:12.663,0.6671574,0.49410713,0.82420623,0.7085262,0.3573012,0.08273482,0.39086297,0.4531459,0.72639865,-0.052950602,0.74489266,0.6720687,0.56048113,0.056367967,0.33619156,0.5892974,0.06627069,-0.37637553,0.10609101,0.0014324336,803.8461,798.20514,807.0696,824.7985,1117.326,0.27777099609375,0.181640625,0.96881103515625,1.77947998046875,16.090087890625,45.017852783203125,1,1.0,1.0,1.0,1.0,10.00
2024-10-11 20:45:12.664,0.6671574,0.49410713,0.82420623,0.7085262,0.3573012,0.08273482,0.39086297,0.4531459,0.72639865,-0.052950602,0.74489266,0.6720687,0.56048113,0.056367967,0.33619156,0.5892974,0.06627069,-0.37637553,0.10609101,0.0014324336,804.2491,800.2198,799.41394,825.2015,841.31866,0.27777099609375,0.181640625,0.96881103515625,1.77947998046875,16.090087890625,45.017852783203125,1,1.0,1.0,1.0,1.0,10.00
2024-10-11 20:45:12.665,0.6671574,0.49410713,0.82420623,0.7085262,0.3573012,0.08273482,0.39086297,0.4531459,0.72639865,-0.052950602,0.74489266,0.6720687,0.56048113,0.056367967,0.33619156,0.5892974,0.06627069,-0.37637553,0.10609101,0.0014324336,814.3223,798.60803,806.26373,818.3516,682.1612,0.27777099609375,0.181640625,0.96881103515625,1.77947998046875,16.090087890625,45.017852783203125,1,1.0,1.0,1.0,1.0,10.00
2024-10-11 20:45:12.666,0.6671574,0.49410713,0.82420623,0.7085262,0.3573012,0.08273482,0.39086297,0.4531459,0.72639865,-0.052950602,0.74489266,0.6720687,0.56048113,0.056367967,0.33619156,0.5892974,0.06627069,-0.37637553,0.10609101,0.0014324336,816.7399,795.38464,814.3223,815.12823,793.7729,0.27777099609375,0.181640625,0.96881103515625,1.77947998046875,16.090087890625,45.017852783203125,1,1.0,1.0,1.0,1.0,10.00
2024-10-11 20:45:12.667,0.6671574,0.49410713,0.82420623,0.7085262,0.3573012,0.08273482,0.39086297,0.4531459,0.72639865,-0.052950602,0.74489266,0.6720687,0.56048113,0.056367967,0.33619156,0.5892974,0.06627069,-0.37637553,0.10609101,0.0014324336,809.0842,795.38464,807.0696,815.12823,785.31134,0.27777099609375,0.181640625,0.96881103515625,1.77947998046875,16.090087890625,45.017852783203125,1,1.0,1.0,1.0,1.0,10.00
2024-10-11 20:45:12.668,0.6671574,0.49410713,0.82420623,0.7085262,0.3573012,0.08273482,0.39086297,0.4531459,0.72639865,-0.052950602,0.74489266,0.6720687,0.56048113,0.056367967,0.33619156,0.5892974,0.06627069,-0.37637553,0.10609101,0.0014324336,806.6667,799.41394,796.99634,815.12823,683.36993,0.27777099609375,0.181640625,0.96881103515625,1.77947998046875,16.090087890625,45.017852783203125,1,1.0,1.0,1.0,1.0,10.00
2024-10-11 20:45:12.670,0.6671574,0.49410713,0.82420623,0.7085262,0.3573012,0.08273482,0.39086297,0.4531459,0.72639865,-0.052950602,0.74489266,0.6720687,0.56048113,0.056367967,0.33619156,0.5892974,0.06627069,-0.37637553,0.10609101,0.0014324336,810.293,799.81683,805.05493,822.7839,662.4176,0.23846435546875,0.1422119140625,0.96905517578125,-5.450592041015625,16.97235107421875,37.4139404296875,1,1.0,1.0,1.0,1.0,10.00
2024-10-11 20:45:12.671,0.6671574,0.49410713,0.82420623,0.7085262,0.3573012,0.08273482,0.39086297,0.4531459,0.72639865,-0.052950602,0.74489266,0.6720687,0.56048113,0.056367967,0.33619156,0.5892974,0.06627069,-0.37637553,0.10609101,0.0014324336,813.91943,797.3993,820.3663,830.84247,787.326,0.23846435546875,0.1422119140625,0.96905517578125,-5.450592041015625,16.97235107421875,37.4139404296875,1,1.0,1.0,1.0,1.0,10.00
2024-10-11 20:45:12.672,0.6671574,0.49410713,0.82420623,0.7085262,0.3573012,0.08273482,0.39086297,0.4531459,0.72639865,-0.052950602,0.74489266,0.6720687,0.56048113,0.056367967,0.33619156,0.5892974,0.06627069,-0.37637553,0.10609101,0.0014324336,810.293,803.0403,809.0842,822.7839,826.4103,0.23846435546875,0.1422119140625,0.96905517578125,-5.450592041015625,16.97235107421875,37.4139404296875,1,1.0,1.0,1.0,1.0,10.00
2024-10-11 20:45:12.673,0.6671574,0.49410713,0.82420623,0.7085262,0.3573012,0.08273482,0.39086297,0.4531459,0.72639865,-0.052950602,0.74489266,0.6720687,0.56048113,0.056367967,0.33619156,0.5892974,0.06627069,-0.37637553,0.10609101,0.0014324336,811.9048,804.2491,800.6227,819.15753,678.93774,0.23846435546875,0.1422119140625,0.96905517578125,-5.450592041015625,16.97235107421875,37.4139404296875,1,1.0,1.0,1.0,1.0,10.00
2024-10-11 20:45:12.674,0.6671574,0.49410713,0.82420623,0.7085262,0.3573012,0.08273482,0.39086297,0.4531459,0.72639865,-0.052950602,0.74489266,0.6720687,0.56048113,0.056367967,0.33619156,0.5892974,0.06627069,-0.37637553,0.10609101,0.0014324336,813.91943,798.60803,801.02563,817.5458,736.9597,0.23846435546875,0.1422119140625,0.96905517578125,-5.450592041015625,16.97235107421875,37.4139404296875,1,1.0,1.0,1.0,1.0,10.00
2024-10-11 20:45:12.675,0.6671574,0.49410713,0.82420623,0.7085262,0.3573012,0.08273482,0.39086297,0.4531459,0.72639865,-0.052950602,0.74489266,0.6720687,0.56048113,0.056367967,0.33619156,0.5892974,0.06627069,-0.37637553,0.10609101,0.0014324336,810.696,798.20514,801.8315,816.337,938.4249,0.23846435546875,0.1422119140625,0.96905517578125,-5.450592041015625,16.97235107421875,37.4139404296875,1,1.0,1.0,1.0,1.0,10.00
2024-10-11 20:45:12.676,0.6671574,0.49410713,0.82420623,0.7085262,0.3573012,0.08273482,0.39086297,0.4531459,0.72639865,-0.052950602,0.74489266,0.6720687,0.56048113,0.056367967,0.33619156,0.5892974,0.06627069,-0.37637553,0.10609101,0.0014324336,809.89014,803.0403,795.38464,814.7253,866.7033,0.23846435546875,0.1422119140625,0.96905517578125,-5.450592041015625,16.97235107421875,37.4139404296875,1,1.0,1.0,1.0,1.0,10.00
2024-10-11 20:45:12.677,0.6671574,0.49410713,0.82420623,0.7085262,0.3573012,0.08273482,0.39086297,0.4531459,0.72639865,-0.052950602,0.74489266,0.6720687,0.56048113,0.056367967,0.33619156,0.5892974,0.06627069,-0.37637553,0.10609101,0.0014324336,805.4579,807.47253,787.72894,806.6667,733.73627,0.23846435546875,0.1422119140625,0.96905517578125,-5.450592041015625,16.97235107421875,37.4139404296875,1,1.0,1.0,1.0,1.0,10.00
2024-10-11 20:45:12.678,0.6671574,0.49410713,0.82420623,0.7085262,0.3573012,0.08273482,0.39086297,0.4531459,0.72639865,-0.052950602,0.74489266,0.6720687,0.56048113,0.056367967,0.33619156,0.5892974,0.06627069,-0.37637553,0.10609101,0.0014324336,806.6667,806.26373,794.17584,803.44324,680.54944,0.23846435546875,0.1422119140625,0.96905517578125,-5.450592041015625,16.97235107421875,37.4139404296875,1,1.0,1.0,1.0,1.0,10.00
2024-10-11 20:45:12.678,0.67027307,0.50692475,0.8169773,0.65962535,0.26191562,0.10441262,0.392169,0.4395528,0.70026815,-0.052950602,0.73847795,0.6600609,0.5646171,0.031676777,0.30676866,0.59028935,0.065808505,-0.37228382,0.103181474,0.024645915,820.3663,801.02563,787.326,803.44324,755.4945,0.23846435546875,0.1422119140625,0.96905517578125,-5.450592041015625,16.97235107421875,37.4139404296875,1,1.0,1.0,1.0,1.0,10.00
2024-10-11 20:45:12.685,0.67027307,0.50692475,0.8169773,0.65962535,0.26191562,0.10441262,0.392169,0.4395528,0.70026815,-0.052950602,0.73847795,0.6600609,0.5646171,0.031676777,0.30676866,0.59028935,0.065808505,-0.37228382,0.103181474,0.024645915,821.5751,802.6374,790.54944,803.0403,733.3333,0.23846435546875,0.1422119140625,0.96905517578125,-5.450592041015625,16.97235107421875,37.4139404296875,1,1.0,1.0,1.0,1.0,10.00
2024-10-11 20:45:12.686,0.67027307,0.50692475,0.8169773,0.65962535,0.26191562,0.10441262,0.392169,0.4395528,0.70026815,-0.052950602,0.73847795,0.6600609,0.5646171,0.031676777,0.30676866,0.59028935,0.065808505,-0.37228382,0.103181474,0.024645915,811.50183,805.4579,791.3553,801.8315,622.1245,0.23846435546875,0.1422119140625,0.96905517578125,-5.450592041015625,16.97235107421875,37.4139404296875,1,1.0,1.0,1.0,1.0,10.00
2024-10-11 20:45:12.688,0.67027307,0.50692475,0.8169773,0.65962535,0.26191562,0.10441262,0.392169,0.4395528,0.70026815,-0.052950602,0.73847795,0.6600609,0.5646171,0.031676777,0.30676866,0.59028935,0.065808505,-0.37228382,0.103181474,0.024645915,813.5165,800.2198,782.8938,798.20514,774.0293,0.2303466796875,0.08843994140625,0.9693603515625,-10.12359619140625,15.873260498046875,27.985687255859375,1,1.0,1.0,1.0,1.0,10.00
2024-10-11 20:45:12.689,0.67027307,0.50692475,0.8169773,0.65962535,0.26191562,0.10441262,0.392169,0.4395528,0.70026815,-0.052950602,0.73847795,0.6600609,0.5646171,0.031676777,0.30676866,0.59028935,0.065808505,-0.37228382,0.103181474,0.024645915,813.5165,795.78754,766.77655,801.8315,863.0769,0.2303466796875,0.08843994140625,0.9693603515625,-10.12359619140625,15.873260498046875,27.985687255859375,1,1.0,1.0,1.0,1.0,10.00
2024-10-11 20:45:12.690,0.67027307,0.50692475,0.8169773,0.65962535,0.26191562,0.10441262,0.392169,0.4395528,0.70026815,-0.052950602,0.73847795,0.6600609,0.5646171,0.031676777,0.30676866,0.59028935,0.065808505,-0.37228382,0.103181474,0.024645915,807.0696,800.6227,774.0293,802.6374,695.05493,0.2303466796875,0.08843994140625,0.9693603515625,-10.12359619140625,15.873260498046875,27.985687255859375,1,1.0,1.0,1.0,1.0,10.00
2024-10-11 20:45:12.691,0.67027307,0.50692475,0.8169773,0.65962535,0.26191562,0.10441262,0.392169,0.4395528,0.70026815,-0.052950602,0.73847795,0.6600609,0.5646171,0.031676777,0.30676866,0.59028935,0.065808505,-0.37228382,0.103181474,0.024645915,813.1135,799.81683,803.8461,796.99634,645.89746,0.2303466796875,0.08843994140625,0.9693603515625,-10.12359619140625,15.873260498046875,27.985687255859375,1,1.0,1.0,1.0,1.0,10.00
2024-10-11 20:45:12.692,0.67027307,0.50692475,0.8169773,0.65962535,0.26191562,0.10441262,0.392169,0.4395528,0.70026815,-0.052950602,0.73847795,0.6600609,0.5646171,0.031676777,0.30676866,0.59028935,0.065808505,-0.37228382,0.103181474,0.024645915,811.9048,794.57874,803.44324,796.99634,769.19415,0.2303466796875,0.08843994140625,0.9693603515625,-10.12359619140625,15.873260498046875,27.985687255859375,1,1.0,1.0,1.0,1.0,10.00
2024-10-11 20:45:12.693,0.67027307,0.50692475,0.8169773,0.65962535,0.26191562,0.10441262,0.392169,0.4395528,0.70026815,-0.052950602,0.73847795,0.6600609,0.5646171,0.031676777,0.30676866,0.59028935,0.065808505,-0.37228382,0.103181474,0.024645915,806.6667,795.78754,808.68134,801.8315,816.337,0.2303466796875,0.08843994140625,0.9693603515625,-10.12359619140625,15.873260498046875,27.985687255859375,1,1.0,1.0,1.0,1.0,10.00
2024-10-11 20:45:12.694,0.67027307,0.50692475,0.8169773,0.65962535,0.26191562,0.10441262,0.392169,0.4395528,0.70026815,-0.052950602,0.73847795,0.6600609,0.5646171,0.031676777,0.30676866,0.59028935,0.065808505,-0.37228382,0.103181474,0.024645915,804.65204,799.81683,797.8022,799.81683,810.696,0.2303466796875,0.08843994140625,0.9693603515625,-10.12359619140625,15.873260498046875,27.985687255859375,1,1.0,1.0,1.0,1.0,10.00
2024-10-11 20:45:12.695,0.67027307,0.50692475,0.8169773,0.65962535,0.26191562,0.10441262,0.392169,0.4395528,0.70026815,-0.052950602,0.73847795,0.6600609,0.5646171,0.031676777,0.30676866,0.59028935,0.065808505,-0.37228382,0.103181474,0.024645915,803.8461,801.02563,787.72894,797.3993,754.68866,0.2303466796875,0.08843994140625,0.9693603515625,-10.12359619140625,15.873260498046875,27.985687255859375,1,1.0,1.0,1.0,1.0,10.00
2024-10-11 20:45:12.695,0.67027307,0.50692475,0.8169773,0.65962535,0.26191562,0.10441262,0.392169,0.4395528,0.70026815,-0.052950602,0.73847795,0.6600609,0.5646171,0.031676777,0.30676866,0.59028935,0.065808505,-0.37228382,0.103181474,0.024645915,804.65204,799.41394,801.02563,800.2198,862.674,0.2303466796875,0.08843994140625,0.9693603515625,-10.12359619140625,15.873260498046875,27.985687255859375,1,1.0,1.0,1.0,1.0,10.00
2024-10-11 20:45:12.696,0.67027307,0.50692475,0.8169773,0.65962535,0.26191562,0.10441262,0.392169,0.4395528,0.70026815,-0.052950602,0.73847795,0.6600609,0.5646171,0.031676777,0.30676866,0.59028935,0.065808505,-0.37228382,0.103181474,0.024645915,819.15753,798.60803,798.60803,809.0842,861.4652,0.2303466796875,0.08843994140625,0.9693603515625,-10.12359619140625,15.873260498046875,27.985687255859375,1,1.0,1.0,1.0,1.0,10.00
2024-10-11 20:45:12.697,0.67027307,0.50692475,0.8169773,0.65962535,0.26191562,0.10441262,0.392169,0.4395528,0.70026815,-0.052950602,0.73847795,0.6600609,0.5646171,0.031676777,0.30676866,0.59028935,0.065808505,-0.37228382,0.103181474,0.024645915,839.707,796.5934,796.1905,823.9927,608.8278,0.2303466796875,0.08843994140625,0.9693603515625,-10.12359619140625,15.873260498046875,27.985687255859375,1,1.0,1.0,1.0,1.0,10.00
2024-10-11 20:45:12.698,0.67027307,0.50692475,0.8169773,0.65962535,0.26191562,0.10441262,0.392169,0.4395528,0.70026815,-0.052950602,0.73847795,0.6600609,0.5646171,0.031676777,0.30676866,0.59028935,0.065808505,-0.37228382,0.103181474,0.024645915,804.2491,794.17584,804.65204,815.12823,602.7839,0.2303466796875,0.08843994140625,0.9693603515625,-10.12359619140625,15.873260498046875,27.985687255859375,1,1.0,1.0,1.0,1.0,10.00
2024-10-11 20:45:12.700,0.67027307,0.50692475,0.8169773,0.65962535,0.26191562,0.10441262,0.392169,0.4395528,0.70026815,-0.052950602,0.73847795,0.6600609,0.5646171,0.031676777,0.30676866,0.59028935,0.065808505,-0.37228382,0.103181474,0.024645915,781.28204,794.57874,800.6227,793.36993,694.65204,0.22137451171875,0.05255126953125,0.98260498046875,-12.747955322265625,15.95550537109375,22.2509765625,1,1.0,1.0,1.0,1.0,10.00
2024-10-11 20:45:12.701,0.67027307,0.50692475,0.8169773,0.65962535,0.26191562,0.10441262,0.392169,0.4395528,0.70026815,-0.052950602,0.73847795,0.6600609,0.5646171,0.031676777,0.30676866,0.59028935,0.065808505,-0.37228382,0.103181474,0.024645915,787.326,792.1612,797.3993,790.54944,680.14655,0.22137451171875,0.05255126953125,0.98260498046875,-12.747955322265625,15.95550537109375,22.2509765625,1,1.0,1.0,1.0,1.0,10.00
2024-10-11 20:45:12.702,0.67027307,0.50692475,0.8169773,0.65962535,0.26191562,0.10441262,0.392169,0.4395528,0.70026815,-0.052950602,0.73847795,0.6600609,0.5646171,0.031676777,0.30676866,0.59028935,0.065808505,-0.37228382,0.103181474,0.024645915,784.5055,796.99634,790.14655,784.5055,630.58606,0.22137451171875,0.05255126953125,0.98260498046875,-12.747955322265625,15.95550537109375,22.2509765625,1,1.0,1.0,1.0,1.0,10.00
2024-10-11 20:45:12.703,0.67027307,0.50692475,0.8169773,0.65962535,0.26191562,0.10441262,0.392169,0.4395528,0.70026815,-0.052950602,0.73847795,0.6600609,0.5646171,0.031676777,0.30676866,0.59028935,0.065808505,-0.37228382,0.103181474,0.024645915,781.685,799.011,790.9524,781.28204,618.9011,0.22137451171875,0.05255126953125,0.98260498046875,-12.747955322265625,15.95550537109375,22.2509765625,1,1.0,1.0,1.0,1.0,10.00
2024-10-11 20:45:12.704,0.67027307,0.50692475,0.8169773,0.65962535,0.26191562,0.10441262,0.392169,0.4395528,0.70026815,-0.052950602,0.73847795,0.6600609,0.5646171,0.031676777,0.30676866,0.59028935,0.065808505,-0.37228382,0.103181474,0.024645915,765.16486,793.7729,808.68134,776.4469,779.2674,0.22137451171875,0.05255126953125,0.98260498046875,-12.747955322265625,15.95550537109375,22.2509765625,1,1.0,1.0,1.0,1.0,10.00
2024-10-11 20:45:12.705,0.67027307,0.50692475,0.8169773,0.65962535,0.26191562,0.10441262,0.392169,0.4395528,0.70026815,-0.052950602,0.73847795,0.6600609,0.5646171,0.031676777,0.30676866,0.59028935,0.065808505,-0.37228382,0.103181474,0.024645915,757.50916,790.9524,809.89014,765.56775,865.4945,0.22137451171875,0.05255126953125,0.98260498046875,-12.747955322265625,15.95550537109375,22.2509765625,1,1.0,1.0,1.0,1.0,10.00
2024-10-11 20:45:12.706,0.67027307,0.50692475,0.8169773,0.65962535,0.26191562,0.10441262,0.392169,0.4395528,0.70026815,-0.052950602,0.73847795,0.6600609,0.5646171,0.031676777,0.30676866,0.59028935,0.065808505,-0.37228382,0.103181474,0.024645915,749.45056,787.72894,805.05493,756.30035,759.5238,0.22137451171875,0.05255126953125,0.98260498046875,-12.747955322265625,15.95550537109375,22.2509765625,1,1.0,1.0,1.0,1.0,10.00
2024-10-11 20:45:12.707,0.67027307,0.50692475,0.8169773,0.65962535,0.26191562,0.10441262,0.392169,0.4395528,0.70026815,-0.052950602,0.73847795,0.6600609,0.5646171,0.031676777,0.30676866,0.59028935,0.065808505,-0.37228382,0.103181474,0.024645915,752.27106,787.72894,799.011,758.71796,752.27106,0.22137451171875,0.05255126953125,0.98260498046875,-12.747955322265625,15.95550537109375,22.2509765625,1,1.0,1.0,1.0,1.0,10.00
2024-10-11 20:45:12.708,0.67027307,0.50692475,0.8169773,0.65962535,0.26191562,0.10441262,0.392169,0.4395528,0.70026815,-0.052950602,0.73847795,0.6600609,0.5646171,0.031676777,0.30676866,0.59028935,0.065808505,-0.37228382,0.103181474,0.024645915,751.06226,792.96704,796.1905,766.77655,804.2491,0.22137451171875,0.05255126953125,0.98260498046875,-12.747955322265625,15.95550537109375,22.2509765625,1,1.0,1.0,1.0,1.0,10.00
2024-10-11 20:45:12.709,0.67027307,0.50692475,0.8169773,0.65962535,0.26191562,0.10441262,0.392169,0.4395528,0.70026815,-0.052950602,0.73847795,0.6600609,0.5646171,0.031676777,0.30676866,0.59028935,0.065808505,-0.37228382,0.103181474,0.024645915,751.06226,794.17584,807.8755,767.1795,715.6044,0.22137451171875,0.05255126953125,0.98260498046875,-12.747955322265625,15.95550537109375,22.2509765625,1,1.0,1.0,1.0,1.0,10.00
2024-10-11 20:45:12.710,0.67027307,0.50692475,0.8169773,0.65962535,0.26191562,0.10441262,0.392169,0.4395528,0.70026815,-0.052950602,0.73847795,0.6600609,0.5646171,0.031676777,0.30676866,0.59028935,0.065808505,-0.37228382,0.103181474,0.024645915,774.0293,794.57874,816.337,771.6117,592.71063,0.22137451171875,0.05255126953125,0.98260498046875,-12.747955322265625,15.95550537109375,22.2509765625,1,1.0,1.0,1.0,1.0,10.00
2024-10-11 20:45:12.710,0.74498606,0.59982,0.83299786,0.63719463,0.19960618,0.15663841,0.41625547,0.4252156,0.62941486,-0.048689265,0.73652154,0.6432575,0.5880268,0.0028433818,0.2848365,0.5961144,0.07848633,-0.37195963,0.09465818,0.045595936,773.22345,796.99634,811.9048,774.43225,756.30035,0.22137451171875,0.05255126953125,0.98260498046875,-12.747955322265625,15.95550537109375,22.2509765625,1,1.0,1.0,1.0,1.0,10.00
2024-10-11 20:45:12.758,0.74498606,0.59982,0.83299786,0.63719463,0.19960618,0.15663841,0.41625547,0.4252156,0.62941486,-0.048689265,0.73652154,0.6432575,0.5880268,0.0028433818,0.2848365,0.5961144,0.07848633,-0.37195963,0.09465818,0.045595936,757.1062,796.99634,800.6227,782.0879,839.707,0.2105712890625,0.01885986328125,0.97332763671875,-13.3984375,17.2564697265625,22.669677734375,1,1.0,1.0,1.0,1.0,10.00
2024-10-11 20:45:12.760,0.74498606,0.59982,0.83299786,0.63719463,0.19960618,0.15663841,0.41625547,0.4252156,0.62941486,-0.048689265,0.73652154,0.6432575,0.5880268,0.0028433818,0.2848365,0.5961144,0.07848633,-0.37195963,0.09465818,0.045595936,761.53845,796.5934,800.6227,780.07324,600.3663,0.2105712890625,0.01885986328125,0.97332763671875,-13.3984375,17.2564697265625,22.669677734375,1,1.0,1.0,1.0,1.0,10.00
2024-10-11 20:45:12.762,0.74498606,0.59982,0.83299786,0.63719463,0.19960618,0.15663841,0.41625547,0.4252156,0.62941486,-0.048689265,0.73652154,0.6432575,0.5880268,0.0028433818,0.2848365,0.5961144,0.07848633,-0.37195963,0.09465818,0.045595936,756.7033,799.011,805.05493,778.0586,396.0806,0.2105712890625,0.01885986328125,0.97332763671875,-13.3984375,17.2564697265625,22.669677734375,1,1.0,1.0,1.0,1.0,10.00
2024-10-11 20:45:12.764,0.74498606,0.59982,0.83299786,0.63719463,0.19960618,0.15663841,0.41625547,0.4252156,0.62941486,-0.048689265,0.73652154,0.6432575,0.5880268,0.0028433818,0.2848365,0.5961144,0.07848633,-0.37195963,0.09465818,0.045595936,757.9121,801.4286,794.9817,774.43225,529.85345,0.2105712890625,0.01885986328125,0.97332763671875,-13.3984375,17.2564697265625,22.669677734375,1,1.0,1.0,1.0,1.0,10.00
2024-10-11 20:45:12.766,0.74498606,0.59982,0.83299786,0.63719463,0.19960618,0.15663841,0.41625547,0.4252156,0.62941486,-0.048689265,0.73652154,0.6432575,0.5880268,0.0028433818,0.2848365,0.5961144,0.07848633,-0.37195963,0.09465818,0.045595936,767.5824,798.60803,801.4286,772.01465,709.15753,0.2105712890625,0.01885986328125,0.97332763671875,-13.3984375,17.2564697265625,22.669677734375,1,1.0,1.0,1.0,1.0,10.00
2024-10-11 20:45:12.767,0.74498606,0.59982,0.83299786,0.63719463,0.19960618,0.15663841,0.41625547,0.4252156,0.62941486,-0.048689265,0.73652154,0.6432575,0.5880268,0.0028433818,0.2848365,0.5961144,0.07848633,-0.37195963,0.09465818,0.045595936,776.04395,800.6227,814.7253,777.25275,769.59705,0.2105712890625,0.01885986328125,0.97332763671875,-13.3984375,17.2564697265625,22.669677734375,1,1.0,1.0,1.0,1.0,10.00
2024-10-11 20:45:12.768,0.74498606,0.59982,0.83299786,0.63719463,0.19960618,0.15663841,0.41625547,0.4252156,0.62941486,-0.048689265,0.73652154,0.6432575,0.5880268,0.0028433818,0.2848365,0.5961144,0.07848633,-0.37195963,0.09465818,0.045595936,790.54944,803.8461,812.71063,783.2967,822.381,0.2105712890625,0.01885986328125,0.97332763671875,-13.3984375,17.2564697265625,22.669677734375,1,1.0,1.0,1.0,1.0,10.00
2024-10-11 20:45:12.769,0.74498606,0.59982,0.83299786,0.63719463,0.19960618,0.15663841,0.41625547,0.4252156,0.62941486,-0.048689265,0.73652154,0.6432575,0.5880268,0.0028433818,0.2848365,0.5961144,0.07848633,-0.37195963,0.09465818,0.045595936,794.57874,805.05493,806.6667,787.326,810.293,0.2105712890625,0.01885986328125,0.97332763671875,-13.3984375,17.2564697265625,22.669677734375,1,1.0,1.0,1.0,1.0,10.00
2024-10-11 20:45:12.770,0.74498606,0.59982,0.83299786,0.63719463,0.19960618,0.15663841,0.41625547,0.4252156,0.62941486,-0.048689265,0.73652154,0.6432575,0.5880268,0.0028433818,0.2848365,0.5961144,0.07848633,-0.37195963,0.09465818,0.045595936,791.75824,803.44324,797.8022,790.9524,788.1319,0.2105712890625,0.01885986328125,0.97332763671875,-13.3984375,17.2564697265625,22.669677734375,1,1.0,1.0,1.0,1.0,10.00
2024-10-11 20:45:12.771,0.74498606,0.59982,0.83299786,0.63719463,0.19960618,0.15663841,0.41625547,0.4252156,0.62941486,-0.048689265,0.73652154,0.6432575,0.5880268,0.0028433818,0.2848365,0.5961144,0.07848633,-0.37195963,0.09465818,0.045595936,782.8938,797.8022,794.57874,789.7436,587.47253,0.2105712890625,0.01885986328125,0.97332763671875,-13.3984375,17.2564697265625,22.669677734375,1,1.0,1.0,1.0,1.0,10.00
2024-10-11 20:45:12.772,0.74498606,0.59982,0.83299786,0.63719463,0.19960618,0.15663841,0.41625547,0.4252156,0.62941486,-0.048689265,0.73652154,0.6432575,0.5880268,0.0028433818,0.2848365,0.5961144,0.07848633,-0.37195963,0.09465818,0.045595936,784.5055,799.011,800.6227,780.4762,489.96338,0.2105712890625,0.01885986328125,0.97332763671875,-13.3984375,17.2564697265625,22.669677734375,1,1.0,1.0,1.0,1.0,10.00
2024-10-11 20:45:12.773,0.74498606,0.59982,0.83299786,0.63719463,0.19960618,0.15663841,0.41625547,0.4252156,0.62941486,-0.048689265,0.73652154,0.6432575,0.5880268,0.0028433818,0.2848365,0.5961144,0.07848633,-0.37195963,0.09465818,0.045595936,796.5934,799.41394,794.57874,781.685,648.315,0.2105712890625,0.01885986328125,0.97332763671875,-13.3984375,17.2564697265625,22.669677734375,1,1.0,1.0,1.0,1.0,10.00
2024-10-11 20:45:12.774,0.74498606,0.59982,0.83299786,0.63719463,0.19960618,0.15663841,0.41625547,0.4252156,0.62941486,-0.048689265,0.73652154,0.6432575,0.5880268,0.0028433818,0.2848365,0.5961144,0.07848633,-0.37195963,0.09465818,0.045595936,790.14655,797.3993,796.5934,784.10254,704.3223,0.19732666015625,-0.00311279296875,0.977294921875,-11.3348388671875,19.267730712890625,24.8828125,1,1.0,1.0,1.0,1.0,10.00
2024-10-11 20:45:12.775,0.74498606,0.59982,0.83299786,0.63719463,0.19960618,0.15663841,0.41625547,0.4252156,0.62941486,-0.048689265,0.73652154,0.6432575,0.5880268,0.0028433818,0.2848365,0.5961144,0.07848633,-0.37195963,0.09465818,0.045595936,790.9524,799.41394,804.65204,788.5348,575.78754,0.19732666015625,-0.00311279296875,0.977294921875,-11.3348388671875,19.267730712890625,24.8828125,1,1.0,1.0,1.0,1.0,10.00
2024-10-11 20:45:12.776,0.74498606,0.59982,0.83299786,0.63719463,0.19960618,0.15663841,0.41625547,0.4252156,0.62941486,-0.048689265,0.73652154,0.6432575,0.5880268,0.0028433818,0.2848365,0.5961144,0.07848633,-0.37195963,0.09465818,0.045595936,801.02563,799.81683,799.81683,796.1905,587.8755,0.19732666015625,-0.00311279296875,0.977294921875,-11.3348388671875,19.267730712890625,24.8828125,1,1.0,1.0,1.0,1.0,10.00
2024-10-11 20:45:12.777,0.74498606,0.59982,0.83299786,0.63719463,0.19960618,0.15663841,0.41625547,0.4252156,0.62941486,-0.048689265,0.73652154,0.6432575,0.5880268,0.0028433818,0.2848365,0.5961144,0.07848633,-0.37195963,0.09465818,0.045595936,796.5934,798.20514,799.011,803.44324,653.1502,0.19732666015625,-0.00311279296875,0.977294921875,-11.3348388671875,19.267730712890625,24.8828125,1,1.0,1.0,1.0,1.0,10.00
2024-10-11 20:45:12.778,0.74498606,0.59982,0.83299786,0.63719463,0.19960618,0.15663841,0.41625547,0.4252156,0.62941486,-0.048689265,0.73652154,0.6432575,0.5880268,0.0028433818,0.2848365,0.5961144,0.07848633,-0.37195963,0.09465818,0.045595936,792.1612,800.2198,799.41394,801.02563,675.7143,0.19732666015625,-0.00311279296875,0.977294921875,-11.3348388671875,19.267730712890625,24.8828125,1,1.0,1.0,1.0,1.0,10.00
2024-10-11 20:45:12.778,0.74498606,0.59982,0.83299786,0.63719463,0.19960618,0.15663841,0.41625547,0.4252156,0.62941486,-0.048689265,0.73652154,0.6432575,0.5880268,0.0028433818,0.2848365,0.5961144,0.07848633,-0.37195963,0.09465818,0.045595936,795.78754,803.8461,784.10254,798.20514,641.8681,0.19732666015625,-0.00311279296875,0.977294921875,-11.3348388671875,19.267730712890625,24.8828125,1,1.0,1.0,1.0,1.0,10.00
2024-10-11 20:45:12.779,0.74498606,0.59982,0.83299786,0.63719463,0.19960618,0.15663841,0.41625547,0.4252156,0.62941486,-0.048689265,0.73652154,0.6432575,0.5880268,0.0028433818,0.2848365,0.5961144,0.07848633,-0.37195963,0.09465818,0.045595936,802.23444,799.011,794.57874,794.9817,757.1062,0.19732666015625,-0.00311279296875,0.977294921875,-11.3348388671875,19.267730712890625,24.8828125,1,1.0,1.0,1.0,1.0,10.00
2024-10-11 20:45:12.780,0.74498606,0.59982,0.83299786,0.63719463,0.19960618,0.15663841,0.41625547,0.4252156,0.62941486,-0.048689265,0.73652154,0.6432575,0.5880268,0.0028433818,0.2848365,0.5961144,0.07848633,-0.37195963,0.09465818,0.045595936,794.57874,793.7729,801.02563,784.90845,767.1795,0.19732666015625,-0.00311279296875,0.977294921875,-11.3348388671875,19.267730712890625,24.8828125,1,1.0,1.0,1.0,1.0,10.00
2024-10-11 20:45:12.781,0.74498606,0.59982,0.83299786,0.63719463,0.19960618,0.15663841,0.41625547,0.4252156,0.62941486,-0.048689265,0.73652154,0.6432575,0.5880268,0.0028433818,0.2848365,0.5961144,0.07848633,-0.37195963,0.09465818,0.045595936,803.44324,798.20514,791.3553,796.99634,558.0586,0.19732666015625,-0.00311279296875,0.977294921875,-11.3348388671875,19.267730712890625,24.8828125,1,1.0,1.0,1.0,1.0,10.00
2024-10-11 20:45:12.782,0.74498606,0.59982,0.83299786,0.63719463,0.19960618,0.15663841,0.41625547,0.4252156,0.62941486,-0.048689265,0.73652154,0.6432575,0.5880268,0.0028433818,0.2848365,0.5961144,0.07848633,-0.37195963,0.09465818,0.045595936,809.89014,798.60803,795.38464,805.4579,516.9597,0.19732666015625,-0.00311279296875,0.977294921875,-11.3348388671875,19.267730712890625,24.8828125,1,1.0,1.0,1.0,1.0,10.00
2024-10-11 20:45:12.783,0.74498606,0.59982,0.83299786,0.63719463,0.19960618,0.15663841,0.41625547,0.4252156,0.62941486,-0.048689265,0.73652154,0.6432575,0.5880268,0.0028433818,0.2848365,0.5961144,0.07848633,-0.37195963,0.09465818,0.045595936,797.8022,801.4286,795.78754,806.26373,655.56775,0.19732666015625,-0.00311279296875,0.977294921875,-11.3348388671875,19.267730712890625,24.8828125,1,1.0,1.0,1.0,1.0,10.00
2024-10-11 20:45:12.784,0.74498606,0.59982,0.83299786,0.63719463,0.19960618,0.15663841,0.41625547,0.4252156,0.62941486,-0.048689265,0.73652154,0.6432575,0.5880268,0.0028433818,0.2848365,0.5961144,0.07848633,-0.37195963,0.09465818,0.045595936,795.38464,802.6374,799.81683,816.337,743.00366,0.19732666015625,-0.00311279296875,0.977294921875,-11.3348388671875,19.267730712890625,24.8828125,1,1.0,1.0,1.0,1.0,10.00
2024-10-11 20:45:12.822,0.74498606,0.59982,0.83299786,0.63719463,0.19960618,0.15663841,0.41625547,0.4252156,0.62941486,-0.048689265,0.73652154,0.6432575,0.5880268,0.0028433818,0.2848365,0.5961144,0.07848633,-0.37195963,0.09465818,0.045595936,813.1135,803.8461,801.4286,804.2491,620.9158,0.19732666015625,-0.00311279296875,0.977294921875,-11.3348388671875,19.267730712890625,24.8828125,1,1.0,1.0,1.0,1.0,10.00
2024-10-11 20:45:12.824,0.8682849,0.7319519,0.85772085,0.6624523,0.20156772,0.2222891,0.4470416,0.414272,0.6176845,-0.046858136,0.7355171,0.6357326,0.6172907,-0.02611056,0.28064406,0.60535866,0.09961011,-0.37478727,0.08654654,0.06396542,819.9634,808.2784,806.26373,789.7436,545.16486,0.19732666015625,-0.00311279296875,0.977294921875,-11.3348388671875,19.267730712890625,24.8828125,1,1.0,1.0,1.0,1.0,10.00
2024-10-11 20:45:12.832,0.8682849,0.7319519,0.85772085,0.6624523,0.20156772,0.2222891,0.4470416,0.414272,0.6176845,-0.046858136,0.7355171,0.6357326,0.6172907,-0.02611056,0.28064406,0.60535866,0.09961011,-0.37478727,0.08654654,0.06396542,811.50183,805.8608,799.41394,799.011,700.293,0.19732666015625,-0.00311279296875,0.977294921875,-11.3348388671875,19.267730712890625,24.8828125,1,1.0,1.0,1.0,1.0,10.00
2024-10-11 20:45:12.833,0.8682849,0.7319519,0.85772085,0.6624523,0.20156772,0.2222891,0.4470416,0.414272,0.6176845,-0.046858136,0.7355171,0.6357326,0.6172907,-0.02611056,0.28064406,0.60535866,0.09961011,-0.37478727,0.08654654,0.06396542,813.1135,800.6227,795.38464,811.50183,1067.3627,0.19732666015625,-0.00311279296875,0.977294921875,-11.3348388671875,19.267730712890625,24.8828125,1,1.0,1.0,1.0,1.0,10.00
2024-10-11 20:45:12.834,0.8682849,0.7319519,0.85772085,0.6624523,0.20156772,0.2222891,0.4470416,0.414272,0.6176845,-0.046858136,0.7355171,0.6357326,0.6172907,-0.02611056,0.28064406,0.60535866,0.09961011,-0.37478727,0.08654654,0.06396542,811.50183,799.81683,794.57874,807.47253,1180.1831,0.19732666015625,-0.00311279296875,0.977294921875,-11.3348388671875,19.267730712890625,24.8828125,1,1.0,1.0,1.0,1.0,10.00
2024-10-11 20:45:12.835,0.8682849,0.7319519,0.85772085,0.6624523,0.20156772,0.2222891,0.4470416,0.414272,0.6176845,-0.046858136,0.7355171,0.6357326,0.6172907,-0.02611056,0.28064406,0.60535866,0.09961011,-0.37478727,0.08654654,0.06396542,807.8755,801.8315,798.60803,799.81683,851.79486,0.19732666015625,-0.00311279296875,0.977294921875,-11.3348388671875,19.267730712890625,24.8828125,1,1.0,1.0,1.0,1.0,10.00
2024-10-11 20:45:12.836,0.8682849,0.7319519,0.85772085,0.6624523,0.20156772,0.2222891,0.4470416,0.414272,0.6176845,-0.046858136,0.7355171,0.6357326,0.6172907,-0.02611056,0.28064406,0.60535866,0.09961011,-0.37478727,0.08654654,0.06396542,808.68134,799.81683,806.26373,804.2491,857.03296,0.19732666015625,-0.00311279296875,0.977294921875,-11.3348388671875,19.267730712890625,24.8828125,1,1.0,1.0,1.0,1.0,10.00
2024-10-11 20:45:12.837,0.8682849,0.7319519,0.85772085,0.6624523,0.20156772,0.2222891,0.4470416,0.414272,0.6176845,-0.046858136,0.7355171,0.6357326,0.6172907,-0.02611056,0.28064406,0.60535866,0.09961011,-0.37478727,0.08654654,0.06396542,809.0842,796.99634,787.326,807.0696,891.28204,0.19732666015625,-0.00311279296875,0.977294921875,-11.3348388671875,19.267730712890625,24.8828125,1,1.0,1.0,1.0,1.0,10.00
2024-10-11 20:45:12.838,0.8682849,0.7319519,0.85772085,0.6624523,0.20156772,0.2222891,0.4470416,0.414272,0.6176845,-0.046858136,0.7355171,0.6357326,0.6172907,-0.02611056,0.28064406,0.60535866,0.09961011,-0.37478727,0.08654654,0.06396542,799.81683,800.2198,787.326,812.71063,489.56042,0.19732666015625,-0.00311279296875,0.977294921875,-11.3348388671875,19.267730712890625,24.8828125,1,1.0,1.0,1.0,1.0,10.00
2024-10-11 20:45:12.839,0.8682849,0.7319519,0.85772085,0.6624523,0.20156772,0.2222891,0.4470416,0.414272,0.6176845,-0.046858136,0.7355171,0.6357326,0.6172907,-0.02611056,0.28064406,0.60535866,0.09961011,-0.37478727,0.08654654,0.06396542,798.20514,796.5934,798.60803,814.3223,408.97437,0.19732666015625,-0.00311279296875,0.977294921875,-11.3348388671875,19.267730712890625,24.8828125,1,1.0,1.0,1.0,1.0,10.00
2024-10-11 20:45:12.840,0.8682849,0.7319519,0.85772085,0.6624523,0.20156772,0.2222891,0.4470416,0.414272,0.6176845,-0.046858136,0.7355171,0.6357326,0.6172907,-0.02611056,0.28064406,0.60535866,0.09961011,-0.37478727,0.08654654,0.06396542,805.4579,794.17584,796.99634,817.9487,623.73627,0.19732666015625,-0.00311279296875,0.977294921875,-11.3348388671875,19.267730712890625,24.8828125,1,1.0,1.0,1.0,1.0,10.00
2024-10-11 20:45:12.840,0.8682849,0.7319519,0.85772085,0.6624523,0.20156772,0.2222891,0.4470416,0.414272,0.6176845,-0.046858136,0.7355171,0.6357326,0.6172907,-0.02611056,0.28064406,0.60535866,0.09961011,-0.37478727,0.08654654,0.06396542,812.3077,801.4286,797.3993,831.2454,1082.2711,0.19732666015625,-0.00311279296875,0.977294921875,-11.3348388671875,19.267730712890625,24.8828125,1,1.0,1.0,1.0,1.0,10.00
2024-10-11 20:45:12.842,0.8682849,0.7319519,0.85772085,0.6624523,0.20156772,0.2222891,0.4470416,0.414272,0.6176845,-0.046858136,0.7355171,0.6357326,0.6172907,-0.02611056,0.28064406,0.60535866,0.09961011,-0.37478727,0.08654654,0.06396542,817.1429,805.8608,784.10254,823.9927,917.8755,0.154052734375,-0.0205078125,0.9898681640625,-9.144134521484375,23.424835205078125,27.223052978515625,1,1.0,1.0,1.0,1.0,10.00
2024-10-11 20:45:12.842,0.8682849,0.7319519,0.85772085,0.6624523,0.20156772,0.2222891,0.4470416,0.414272,0.6176845,-0.046858136,0.7355171,0.6357326,0.6172907,-0.02611056,0.28064406,0.60535866,0.09961011,-0.37478727,0.08654654,0.06396542,815.5311,802.23444,788.93774,816.337,491.5751,0.154052734375,-0.0205078125,0.9898681640625,-9.144134521484375,23.424835205078125,27.223052978515625,1,1.0,1.0,1.0,1.0,10.00
2024-10-11 20:45:12.843,0.8682849,0.7319519,0.85772085,0.6624523,0.20156772,0.2222891,0.4470416,0.414272,0.6176845,-0.046858136,0.7355171,0.6357326,0.6172907,-0.02611056,0.28064406,0.60535866,0.09961011,-0.37478727,0.08654654,0.06396542,810.293,797.8022,803.44324,818.7546,697.8755,0.154052734375,-0.0205078125,0.9898681640625,-9.144134521484375,23.424835205078125,27.223052978515625,1,1.0,1.0,1.0,1.0,10.00
2024-10-11 20:45:12.844,0.8682849,0.7319519,0.85772085,0.6624523,0.20156772,0.2222891,0.4470416,0.414272,0.6176845,-0.046858136,0.7355171,0.6357326,0.6172907,-0.02611056,0.28064406,0.60535866,0.09961011,-0.37478727,0.08654654,0.06396542,809.0842,796.5934,786.9231,804.65204,721.2454,0.154052734375,-0.0205078125,0.9898681640625,-9.144134521484375,23.424835205078125,27.223052978515625,1,1.0,1.0,1.0,1.0,10.00
2024-10-11 20:45:12.845,0.8682849,0.7319519,0.85772085,0.6624523,0.20156772,0.2222891,0.4470416,0.414272,0.6176845,-0.046858136,0.7355171,0.6357326,0.6172907,-0.02611056,0.28064406,0.60535866,0.09961011,-0.37478727,0.08654654,0.06396542,809.4872,799.41394,776.8498,796.5934,564.90845,0.154052734375,-0.0205078125,0.9898681640625,-9.144134521484375,23.424835205078125,27.223052978515625,1,1.0,1.0,1.0,1.0,10.00
2024-10-11 20:45:12.845,0.8682849,0.7319519,0.85772085,0.6624523,0.20156772,0.2222891,0.4470416,0.414272,0.6176845,-0.046858136,0.7355171,0.6357326,0.6172907,-0.02611056,0.28064406,0.60535866,0.09961011,-0.37478727,0.08654654,0.06396542,808.2784,800.2198,793.7729,803.44324,666.4469,0.154052734375,-0.0205078125,0.9898681640625,-9.144134521484375,23.424835205078125,27.223052978515625,1,1.0,1.0,1.0,1.0,10.00
2024-10-11 20:45:12.846,0.8682849,0.7319519,0.85772085,0.6624523,0.20156772,0.2222891,0.4470416,0.414272,0.6176845,-0.046858136,0.7355171,0.6357326,0.6172907,-0.02611056,0.28064406,0.60535866,0.09961011,-0.37478727,0.08654654,0.06396542,803.44324,787.72894,817.9487,813.91943,761.13556,0.154052734375,-0.0205078125,0.9898681640625,-9.144134521484375,23.424835205078125,27.223052978515625,1,1.0,1.0,1.0,1.0,10.00
2024-10-11 20:45:12.847,0.8682849,0.7319519,0.85772085,0.6624523,0.20156772,0.2222891,0.4470416,0.414272,0.6176845,-0.046858136,0.7355171,0.6357326,0.6172907,-0.02611056,0.28064406,0.60535866,0.09961011,-0.37478727,0.08654654,0.06396542,799.81683,786.52014,817.5458,812.71063,708.7546,0.154052734375,-0.0205078125,0.9898681640625,-9.144134521484375,23.424835205078125,27.223052978515625,1,1.0,1.0,1.0,1.0,10.00
2024-10-11 20:45:12.848,0.8682849,0.7319519,0.85772085,0.6624523,0.20156772,0.2222891,0.4470416,0.414272,0.6176845,-0.046858136,0.7355171,0.6357326,0.6172907,-0.02611056,0.28064406,0.60535866,0.09961011,-0.37478727,0.08654654,0.06396542,808.68134,803.0403,784.10254,811.9048,563.69965,0.154052734375,-0.0205078125,0.9898681640625,-9.144134521484375,23.424835205078125,27.223052978515625,1,1.0,1.0,1.0,1.0,10.00
2024-10-11 20:45:12.849,0.8682849,0.7319519,0.85772085,0.6624523,0.20156772,0.2222891,0.4470416,0.414272,0.6176845,-0.046858136,0.7355171,0.6357326,0.6172907,-0.02611056,0.28064406,0.60535866,0.09961011,-0.37478727,0.08654654,0.06396542,818.7546,785.31134,749.85345,830.4396,580.2198,0.154052734375,-0.0205078125,0.9898681640625,-9.144134521484375,23.424835205078125,27.223052978515625,1,1.0,1.0,1.0,1.0,10.00
2024-10-11 20:45:12.850,0.8682849,0.7319519,0.85772085,0.6624523,0.20156772,0.2222891,0.4470416,0.414272,0.6176845,-0.046858136,0.7355171,0.6357326,0.6172907,-0.02611056,0.28064406,0.60535866,0.09961011,-0.37478727,0.08654654,0.06396542,826.0073,783.69965,769.59705,832.4542,686.99634,0.154052734375,-0.0205078125,0.9898681640625,-9.144134521484375,23.424835205078125,27.223052978515625,1,1.0,1.0,1.0,1.0,10.00
2024-10-11 20:45:12.850,0.8682849,0.7319519,0.85772085,0.6624523,0.20156772,0.2222891,0.4470416,0.414272,0.6176845,-0.046858136,0.7355171,0.6357326,0.6172907,-0.02611056,0.28064406,0.60535866,0.09961011,-0.37478727,0.08654654,0.06396542,825.6044,791.3553,817.9487,820.3663,587.8755,0.154052734375,-0.0205078125,0.9898681640625,-9.144134521484375,23.424835205078125,27.223052978515625,1,1.0,1.0,1.0,1.0,10.00
2024-10-11 20:45:12.852,0.8682849,0.7319519,0.85772085,0.6624523,0.20156772,0.2222891,0.4470416,0.414272,0.6176845,-0.046858136,0.7355171,0.6357326,0.6172907,-0.02611056,0.28064406,0.60535866,0.09961011,-0.37478727,0.08654654,0.06396542,822.381,797.8022,825.6044,820.3663,487.14285,0.12353515625,-0.03839111328125,0.98382568359375,-7.31231689453125,26.669769287109375,28.27728271484375,1,1.0,1.0,1.0,1.0,10.00
2024-10-11 20:45:12.853,0.8682849,0.7319519,0.85772085,0.6624523,0.20156772,0.2222891,0.4470416,0.414272,0.6176845,-0.046858136,0.7355171,0.6357326,0.6172907,-0.02611056,0.28064406,0.60535866,0.09961011,-0.37478727,0.08654654,0.06396542,814.3223,816.337,809.4872,803.8461,568.5348,0.12353515625,-0.03839111328125,0.98382568359375,-7.31231689453125,26.669769287109375,28.27728271484375,1,1.0,1.0,1.0,1.0,10.00
2024-10-11 20:45:12.854,0.8682849,0.7319519,0.85772085,0.6624523,0.20156772,0.2222891,0.4470416,0.414272,0.6176845,-0.046858136,0.7355171,0.6357326,0.6172907,-0.02611056,0.28064406,0.60535866,0.09961011,-0.37478727,0.08654654,0.06396542,801.02563,815.9341,809.0842,791.3553,701.0989,0.12353515625,-0.03839111328125,0.98382568359375,-7.31231689453125,26.669769287109375,28.27728271484375,1,1.0,1.0,1.0,1.0,10.00
2024-10-11 20:45:12.854,0.8838163,0.8519887,0.89184535,0.7336377,0.2168878,0.27769884,0.47725978,0.41286188,0.61519843,-0.029495558,0.73490125,0.6736958,0.6420851,-0.052008174,0.28997222,0.6172282,0.093789734,-0.3774352,0.08650896,0.083697796,801.02563,810.293,810.696,786.9231,562.8938,0.12353515625,-0.03839111328125,0.98382568359375,-7.31231689453125,26.669769287109375,28.27728271484375,1,1.0,1.0,1.0,1.0,10.00
2024-10-11 20:45:12.861,0.8838163,0.8519887,0.89184535,0.7336377,0.2168878,0.27769884,0.47725978,0.41286188,0.61519843,-0.029495558,0.73490125,0.6736958,0.6420851,-0.052008174,0.28997222,0.6172282,0.093789734,-0.3774352,0.08650896,0.083697796,796.1905,805.8608,807.0696,778.46155,370.69598,0.12353515625,-0.03839111328125,0.98382568359375,-7.31231689453125,26.669769287109375,28.27728271484375,1,1.0,1.0,1.0,1.0,10.00
2024-10-11 20:45:12.862,0.8838163,0.8519887,0.89184535,0.7336377,0.2168878,0.27769884,0.47725978,0.41286188,0.61519843,-0.029495558,0.73490125,0.6736958,0.6420851,-0.052008174,0.28997222,0.6172282,0.093789734,-0.3774352,0.08650896,0.083697796,807.8755,805.4579,802.23444,789.7436,603.1868,0.12353515625,-0.03839111328125,0.98382568359375,-7.31231689453125,26.669769287109375,28.27728271484375,1,1.0,1.0,1.0,1.0,10.00
2024-10-11 20:45:12.862,0.8838163,0.8519887,0.89184535,0.7336377,0.2168878,0.27769884,0.47725978,0.41286188,0.61519843,-0.029495558,0.73490125,0.6736958,0.6420851,-0.052008174,0.28997222,0.6172282,0.093789734,-0.3774352,0.08650896,0.083697796,838.0952,801.02563,784.5055,822.7839,873.5531,0.12353515625,-0.03839111328125,0.98382568359375,-7.31231689453125,26.669769287109375,28.27728271484375,1,1.0,1.0,1.0,1.0,10.00
2024-10-11 20:45:12.863,0.8838163,0.8519887,0.89184535,0.7336377,0.2168878,0.27769884,0.47725978,0.41286188,0.61519843,-0.029495558,0.73490125,0.6736958,0.6420851,-0.052008174,0.28997222,0.6172282,0.093789734,-0.3774352,0.08650896,0.083697796,816.7399,805.8608,775.64105,811.9048,680.14655,0.12353515625,-0.03839111328125,0.98382568359375,-7.31231689453125,26.669769287109375,28.27728271484375,1,1.0,1.0,1.0,1.0,10.00
2024-10-11 20:45:12.864,0.8838163,0.8519887,0.89184535,0.7336377,0.2168878,0.27769884,0.47725978,0.41286188,0.61519843,-0.029495558,0.73490125,0.6736958,0.6420851,-0.052008174,0.28997222,0.6172282,0.093789734,-0.3774352,0.08650896,0.083697796,792.1612,803.8461,795.38464,787.72894,590.293,0.12353515625,-0.03839111328125,0.98382568359375,-7.31231689453125,26.669769287109375,28.27728271484375,1,1.0,1.0,1.0,1.0,10.00
2024-10-11 20:45:12.865,0.8838163,0.8519887,0.89184535,0.7336377,0.2168878,0.27769884,0.47725978,0.41286188,0.61519843,-0.029495558,0.73490125,0.6736958,0.6420851,-0.052008174,0.28997222,0.6172282,0.093789734,-0.3774352,0.08650896,0.083697796,800.6227,795.78754,805.4579,799.81683,812.3077,0.12353515625,-0.03839111328125,0.98382568359375,-7.31231689453125,26.669769287109375,28.27728271484375,1,1.0,1.0,1.0,1.0,10.00
2024-10-11 20:45:12.866,0.8838163,0.8519887,0.89184535,0.7336377,0.2168878,0.27769884,0.47725978,0.41286188,0.61519843,-0.029495558,0.73490125,0.6736958,0.6420851,-0.052008174,0.28997222,0.6172282,0.093789734,-0.3774352,0.08650896,0.083697796,792.5641,796.99634,810.293,800.2198,1043.1868,0.12353515625,-0.03839111328125,0.98382568359375,-7.31231689453125,26.669769287109375,28.27728271484375,1,1.0,1.0,1.0,1.0,10.00
2024-10-11 20:45:12.866,0.8838163,0.8519887,0.89184535,0.7336377,0.2168878,0.27769884,0.47725978,0.41286188,0.61519843,-0.029495558,0.73490125,0.6736958,0.6420851,-0.052008174,0.28997222,0.6172282,0.093789734,-0.3774352,0.08650896,0.083697796,776.04395,796.1905,813.5165,786.52014,698.2784,0.12353515625,-0.03839111328125,0.98382568359375,-7.31231689453125,26.669769287109375,28.27728271484375,1,1.0,1.0,1.0,1.0,10.00
2024-10-11 20:45:12.868,0.8838163,0.8519887,0.89184535,0.7336377,0.2168878,0.27769884,0.47725978,0.41286188,0.61519843,-0.029495558,0.73490125,0.6736958,0.6420851,-0.052008174,0.28997222,0.6172282,0.093789734,-0.3774352,0.08650896,0.083697796,765.56775,793.36993,810.696,773.22345,558.46155,0.08599853515625,-0.0413818359375,0.99456787109375,-4.18701171875,27.731475830078125,32.3297119140625,1,1.0,1.0,1.0,1.0,10.00
2024-10-11 20:45:12.869,0.8838163,0.8519887,0.89184535,0.7336377,0.2168878,0.27769884,0.47725978,0.41286188,0.61519843,-0.029495558,0.73490125,0.6736958,0.6420851,-0.052008174,0.28997222,0.6172282,0.093789734,-0.3774352,0.08650896,0.083697796,773.6264,795.38464,808.2784,755.4945,693.44324,0.08599853515625,-0.0413818359375,0.99456787109375,-4.18701171875,27.731475830078125,32.3297119140625,1,1.0,1.0,1.0,1.0,10.00
2024-10-11 20:45:12.870,0.8838163,0.8519887,0.89184535,0.7336377,0.2168878,0.27769884,0.47725978,0.41286188,0.61519843,-0.029495558,0.73490125,0.6736958,0.6420851,-0.052008174,0.28997222,0.6172282,0.093789734,-0.3774352,0.08650896,0.083697796,786.1172,796.1905,813.1135,765.56775,663.6264,0.08599853515625,-0.0413818359375,0.99456787109375,-4.18701171875,27.731475830078125,32.3297119140625,1,1.0,1.0,1.0,1.0,10.00
2024-10-11 20:45:12.871,0.8838163,0.8519887,0.89184535,0.7336377,0.2168878,0.27769884,0.47725978,0.41286188,0.61519843,-0.029495558,0.73490125,0.6736958,0.6420851,-0.052008174,0.28997222,0.6172282,0.093789734,-0.3774352,0.08650896,0.083697796,767.1795,802.23444,817.5458,763.5531,568.5348,0.08599853515625,-0.0413818359375,0.99456787109375,-4.18701171875,27.731475830078125,32.3297119140625,1,1.0,1.0,1.0,1.0,10.00
2024-10-11 20:45:12.872,0.8838163,0.8519887,0.89184535,0.7336377,0.2168878,0.27769884,0.47725978,0.41286188,0.61519843,-0.029495558,0.73490125,0.6736958,0.6420851,-0.052008174,0.28997222,0.6172282,0.093789734,-0.3774352,0.08650896,0.083697796,759.92676,801.8315,798.20514,764.7619,523.8095,0.08599853515625,-0.0413818359375,0.99456787109375,-4.18701171875,27.731475830078125,32.3297119140625,1,1.0,1.0,1.0,1.0,10.00
2024-10-11 20:45:12.873,0.8838163,0.8519887,0.89184535,0.7336377,0.2168878,0.27769884,0.47725978,0.41286188,0.61519843,-0.029495558,0.73490125,0.6736958,0.6420851,-0.052008174,0.28997222,0.6172282,0.093789734,-0.3774352,0.08650896,0.083697796,764.7619,793.7729,776.8498,774.0293,701.50183,0.08599853515625,-0.0413818359375,0.99456787109375,-4.18701171875,27.731475830078125,32.3297119140625,1,1.0,1.0,1.0,1.0,10.00
2024-10-11 20:45:12.873,0.8838163,0.8519887,0.89184535,0.7336377,0.2168878,0.27769884,0.47725978,0.41286188,0.61519843,-0.029495558,0.73490125,0.6736958,0.6420851,-0.052008174,0.28997222,0.6172282,0.093789734,-0.3774352,0.08650896,0.083697796,751.8681,794.17584,806.6667,753.8828,763.5531,0.08599853515625,-0.0413818359375,0.99456787109375,-4.18701171875,27.731475830078125,32.3297119140625,1,1.0,1.0,1.0,1.0,10.00
2024-10-11 20:45:12.874,0.8838163,0.8519887,0.89184535,0.7336377,0.2168878,0.27769884,0.47725978,0.41286188,0.61519843,-0.029495558,0.73490125,0.6736958,0.6420851,-0.052008174,0.28997222,0.6172282,0.093789734,-0.3774352,0.08650896,0.083697796,762.74725,796.99634,828.4249,763.5531,612.8571,0.08599853515625,-0.0413818359375,0.99456787109375,-4.18701171875,27.731475830078125,32.3297119140625,1,1.0,1.0,1.0,1.0,10.00
2024-10-11 20:45:12.875,0.8838163,0.8519887,0.89184535,0.7336377,0.2168878,0.27769884,0.47725978,0.41286188,0.61519843,-0.029495558,0.73490125,0.6736958,0.6420851,-0.052008174,0.28997222,0.6172282,0.093789734,-0.3774352,0.08650896,0.083697796,758.71796,804.65204,818.3516,766.77655,545.16486,0.08599853515625,-0.0413818359375,0.99456787109375,-4.18701171875,27.731475830078125,32.3297119140625,1,1.0,1.0,1.0,1.0,10.00
2024-10-11 20:45:12.876,0.8838163,0.8519887,0.89184535,0.7336377,0.2168878,0.27769884,0.47725978,0.41286188,0.61519843,-0.029495558,0.73490125,0.6736958,0.6420851,-0.052008174,0.28997222,0.6172282,0.093789734,-0.3774352,0.08650896,0.083697796,750.65936,805.05493,817.9487,763.95605,740.989,0.08599853515625,-0.0413818359375,0.99456787109375,-4.18701171875,27.731475830078125,32.3297119140625,1,1.0,1.0,1.0,1.0,10.00
2024-10-11 20:45:12.876,0.8838163,0.8519887,0.89184535,0.7336377,0.2168878,0.27769884,0.47725978,0.41286188,0.61519843,-0.029495558,0.73490125,0.6736958,0.6420851,-0.052008174,0.28997222,0.6172282,0.093789734,-0.3774352,0.08650896,0.083697796,751.06226,801.8315,820.3663,774.0293,639.45056,0.08599853515625,-0.0413818359375,0.99456787109375,-4.18701171875,27.731475830078125,32.3297119140625,1,1.0,1.0,1.0,1.0,10.00
2024-10-11 20:45:12.877,0.8838163,0.8519887,0.89184535,0.7336377,0.2168878,0.27769884,0.47725978,0.41286188,0.61519843,-0.029495558,0.73490125,0.6736958,0.6420851,-0.052008174,0.28997222,0.6172282,0.093789734,-0.3774352,0.08650896,0.083697796,749.45056,803.8461,804.65204,762.74725,447.65567,0.08599853515625,-0.0413818359375,0.99456787109375,-4.18701171875,27.731475830078125,32.3297119140625,1,1.0,1.0,1.0,1.0,10.00
2024-10-11 20:45:12.905,0.8838163,0.8519887,0.89184535,0.7336377,0.2168878,0.27769884,0.47725978,0.41286188,0.61519843,-0.029495558,0.73490125,0.6736958,0.6420851,-0.052008174,0.28997222,0.6172282,0.093789734,-0.3774352,0.08650896,0.083697796,765.16486,801.4286,807.8755,758.315,558.0586,0.03594970703125,-0.05029296875,0.99468994140625,-4.628143310546875,27.14080810546875,32.711029052734375,1,1.0,1.0,1.0,1.0,10.00
2024-10-11 20:45:12.907,0.8838163,0.8519887,0.89184535,0.7336377,0.2168878,0.27769884,0.47725978,0.41286188,0.61519843,-0.029495558,0.73490125,0.6736958,0.6420851,-0.052008174,0.28997222,0.6172282,0.093789734,-0.3774352,0.08650896,0.083697796,767.1795,804.2491,827.2161,767.98535,861.4652,0.03594970703125,-0.05029296875,0.99468994140625,-4.628143310546875,27.14080810546875,32.711029052734375,1,1.0,1.0,1.0,1.0,10.00
2024-10-11 20:45:12.909,0.8838163,0.8519887,0.89184535,0.7336377,0.2168878,0.27769884,0.47725978,0.41286188,0.61519843,-0.029495558,0.73490125,0.6736958,0.6420851,-0.052008174,0.28997222,0.6172282,0.093789734,-0.3774352,0.08650896,0.083697796,765.56775,808.68134,800.6227,769.59705,724.87177,0.03594970703125,-0.05029296875,0.99468994140625,-4.628143310546875,27.14080810546875,32.711029052734375,1,1.0,1.0,1.0,1.0,10.00
2024-10-11 20:45:12.911,0.8838163,0.8519887,0.89184535,0.7336377,0.2168878,0.27769884,0.47725978,0.41286188,0.61519843,-0.029495558,0.73490125,0.6736958,0.6420851,-0.052008174,0.28997222,0.6172282,0.093789734,-0.3774352,0.08650896,0.083697796,776.8498,809.89014,782.8938,773.22345,430.32968,0.03594970703125,-0.05029296875,0.99468994140625,-4.628143310546875,27.14080810546875,32.711029052734375,1,1.0,1.0,1.0,1.0,10.00
2024-10-11 20:45:12.912,0.8838163,0.8519887,0.89184535,0.7336377,0.2168878,0.27769884,0.47725978,0.41286188,0.61519843,-0.029495558,0.73490125,0.6736958,0.6420851,-0.052008174,0.28997222,0.6172282,0.093789734,-0.3774352,0.08650896,0.083697796,772.4176,805.8608,819.15753,792.1612,628.1685,0.03594970703125,-0.05029296875,0.99468994140625,-4.628143310546875,27.14080810546875,32.711029052734375,1,1.0,1.0,1.0,1.0,10.00
2024-10-11 20:45:12.913,0.8838163,0.93214726,0.9293822,0.84175795,0.2168878,0.31454548,0.50388,0.43532884,0.61519843,-0.0011747052,0.73490125,0.71491486,0.6420851,-0.072703555,0.2999977,0.63141817,0.093789734,-0.3769981,0.09489427,0.107151,777.6557,805.05493,835.2747,803.0403,1081.4652,0.03594970703125,-0.05029296875,0.99468994140625,-4.628143310546875,27.14080810546875,32.711029052734375,1,1.0,1.0,1.0,1.0,10.00
2024-10-11 20:45:12.920,0.8838163,0.93214726,0.9293822,0.84175795,0.2168878,0.31454548,0.50388,0.43532884,0.61519843,-0.0011747052,0.73490125,0.71491486,0.6420851,-0.072703555,0.2999977,0.63141817,0.093789734,-0.3769981,0.09489427,0.107151,775.64105,809.4872,819.15753,795.38464,1202.3444,0.03594970703125,-0.05029296875,0.99468994140625,-4.628143310546875,27.14080810546875,32.711029052734375,1,1.0,1.0,1.0,1.0,10.00
2024-10-11 20:45:12.921,0.8838163,0.93214726,0.9293822,0.84175795,0.2168878,0.31454548,0.50388,0.43532884,0.61519843,-0.0011747052,0.73490125,0.71491486,0.6420851,-0.072703555,0.2999977,0.63141817,0.093789734,-0.3769981,0.09489427,0.107151,769.19415,805.4579,809.0842,785.31134,832.0513,0.03594970703125,-0.05029296875,0.99468994140625,-4.628143310546875,27.14080810546875,32.711029052734375,1,1.0,1.0,1.0,1.0,10.00
2024-10-11 20:45:12.922,0.8838163,0.93214726,0.9293822,0.84175795,0.2168878,0.31454548,0.50388,0.43532884,0.61519843,-0.0011747052,0.73490125,0.71491486,0.6420851,-0.072703555,0.2999977,0.63141817,0.093789734,-0.3769981,0.09489427,0.107151,778.0586,801.8315,822.7839,786.9231,670.87915,0.03594970703125,-0.05029296875,0.99468994140625,-4.628143310546875,27.14080810546875,32.711029052734375,1,1.0,1.0,1.0,1.0,10.00
2024-10-11 20:45:12.922,0.8838163,0.93214726,0.9293822,0.84175795,0.2168878,0.31454548,0.50388,0.43532884,0.61519843,-0.0011747052,0.73490125,0.71491486,0.6420851,-0.072703555,0.2999977,0.63141817,0.093789734,-0.3769981,0.09489427,0.107151,767.5824,801.4286,810.696,792.5641,1074.6154,0.03594970703125,-0.05029296875,0.99468994140625,-4.628143310546875,27.14080810546875,32.711029052734375,1,1.0,1.0,1.0,1.0,10.00
2024-10-11 20:45:12.923,0.8838163,0.93214726,0.9293822,0.84175795,0.2168878,0.31454548,0.50388,0.43532884,0.61519843,-0.0011747052,0.73490125,0.71491486,0.6420851,-0.072703555,0.2999977,0.63141817,0.093789734,-0.3769981,0.09489427,0.107151,769.19415,803.44324,790.9524,793.7729,837.6923,0.03594970703125,-0.05029296875,0.99468994140625,-4.628143310546875,27.14080810546875,32.711029052734375,1,1.0,1.0,1.0,1.0,10.00
2024-10-11 20:45:12.924,0.8838163,0.93214726,0.9293822,0.84175795,0.2168878,0.31454548,0.50388,0.43532884,0.61519843,-0.0011747052,0.73490125,0.71491486,0.6420851,-0.072703555,0.2999977,0.63141817,0.093789734,-0.3769981,0.09489427,0.107151,778.46155,806.26373,801.8315,788.93774,418.64468,0.03594970703125,-0.05029296875,0.99468994140625,-4.628143310546875,27.14080810546875,32.711029052734375,1,1.0,1.0,1.0,1.0,10.00
2024-10-11 20:45:12.925,0.8838163,0.93214726,0.9293822,0.84175795,0.2168878,0.31454548,0.50388,0.43532884,0.61519843,-0.0011747052,0.73490125,0.71491486,0.6420851,-0.072703555,0.2999977,0.63141817,0.093789734,-0.3769981,0.09489427,0.107151,774.83514,807.0696,806.6667,784.90845,536.30035,0.03594970703125,-0.05029296875,0.99468994140625,-4.628143310546875,27.14080810546875,32.711029052734375,1,1.0,1.0,1.0,1.0,10.00
2024-10-11 20:45:12.926,0.8838163,0.93214726,0.9293822,0.84175795,0.2168878,0.31454548,0.50388,0.43532884,0.61519843,-0.0011747052,0.73490125,0.71491486,0.6420851,-0.072703555,0.2999977,0.63141817,0.093789734,-0.3769981,0.09489427,0.107151,779.2674,803.44324,811.50183,790.54944,641.06226,0.03594970703125,-0.05029296875,0.99468994140625,-4.628143310546875,27.14080810546875,32.711029052734375,1,1.0,1.0,1.0,1.0,10.00
2024-10-11 20:45:12.926,0.8838163,0.93214726,0.9293822,0.84175795,0.2168878,0.31454548,0.50388,0.43532884,0.61519843,-0.0011747052,0.73490125,0.71491486,0.6420851,-0.072703555,0.2999977,0.63141817,0.093789734,-0.3769981,0.09489427,0.107151,783.2967,801.4286,817.5458,769.59705,585.4579,0.03594970703125,-0.05029296875,0.99468994140625,-4.628143310546875,27.14080810546875,32.711029052734375,1,1.0,1.0,1.0,1.0,10.00
2024-10-11 20:45:12.927,0.8838163,0.93214726,0.9293822,0.84175795,0.2168878,0.31454548,0.50388,0.43532884,0.61519843,-0.0011747052,0.73490125,0.71491486,0.6420851,-0.072703555,0.2999977,0.63141817,0.093789734,-0.3769981,0.09489427,0.107151,792.1612,799.011,802.6374,758.71796,577.8022,0.03594970703125,-0.05029296875,0.99468994140625,-4.628143310546875,27.14080810546875,32.711029052734375,1,1.0,1.0,1.0,1.0,10.00
2024-10-11 20:45:12.928,0.8838163,0.93214726,0.9293822,0.84175795,0.2168878,0.31454548,0.50388,0.43532884,0.61519843,-0.0011747052,0.73490125,0.71491486,0.6420851,-0.072703555,0.2999977,0.63141817,0.093789734,-0.3769981,0.09489427,0.107151,793.36993,797.3993,805.05493,779.2674,699.0842,0.03594970703125,-0.05029296875,0.99468994140625,-4.628143310546875,27.14080810546875,32.711029052734375,1,1.0,1.0,1.0,1.0,10.00
2024-10-11 20:45:12.929,0.8838163,0.93214726,0.9293822,0.84175795,0.2168878,0.31454548,0.50388,0.43532884,0.61519843,-0.0011747052,0.73490125,0.71491486,0.6420851,-0.072703555,0.2999977,0.63141817,0.093789734,-0.3769981,0.09489427,0.107151,792.5641,800.2198,801.4286,786.1172,700.293,0.03594970703125,-0.05029296875,0.99468994140625,-4.628143310546875,27.14080810546875,32.711029052734375,1,1.0,1.0,1.0,1.0,10.00
2024-10-11 20:45:12.929,0.8838163,0.93214726,0.9293822,0.84175795,0.2168878,0.31454548,0.50388,0.43532884,0.61519843,-0.0011747052,0.73490125,0.71491486,0.6420851,-0.072703555,0.2999977,0.63141817,0.093789734,-0.3769981,0.09489427,0.107151,793.36993,801.4286,796.99634,770.80585,710.7692,0.03594970703125,-0.05029296875,0.99468994140625,-4.628143310546875,27.14080810546875,32.711029052734375,1,1.0,1.0,1.0,1.0,10.00
2024-10-11 20:45:12.930,0.8838163,0.93214726,0.9293822,0.84175795,0.2168878,0.31454548,0.50388,0.43532884,0.61519843,-0.0011747052,0.73490125,0.71491486,0.6420851,-0.072703555,0.2999977,0.63141817,0.093789734,-0.3769981,0.09489427,0.107151,794.9817,802.23444,813.1135,766.77655,631.39197,0.03594970703125,-0.05029296875,0.99468994140625,-4.628143310546875,27.14080810546875,32.711029052734375,1,1.0,1.0,1.0,1.0,10.00
2024-10-11 20:45:12.931,0.8838163,0.93214726,0.9293822,0.84175795,0.2168878,0.31454548,0.50388,0.43532884,0.61519843,-0.0011747052,0.73490125,0.71491486,0.6420851,-0.072703555,0.2999977,0.63141817,0.093789734,-0.3769981,0.09489427,0.107151,798.20514,798.20514,801.02563,779.67035,846.1539,0.03594970703125,-0.05029296875,0.99468994140625,-4.628143310546875,27.14080810546875,32.711029052734375,1,1.0,1.0,1.0,1.0,10.00
2024-10-11 20:45:12.931,0.8838163,0.93214726,0.9293822,0.84175795,0.2168878,0.31454548,0.50388,0.43532884,0.61519843,-0.0011747052,0.73490125,0.71491486,0.6420851,-0.072703555,0.2999977,0.63141817,0.093789734,-0.3769981,0.09489427,0.107151,792.5641,796.5934,792.1612,783.2967,902.96704,0.03594970703125,-0.05029296875,0.99468994140625,-4.628143310546875,27.14080810546875,32.711029052734375,1,1.0,1.0,1.0,1.0,10.00
2024-10-11 20:45:12.932,0.8838163,0.93214726,0.9293822,0.84175795,0.2168878,0.31454548,0.50388,0.43532884,0.61519843,-0.0011747052,0.73490125,0.71491486,0.6420851,-0.072703555,0.2999977,0.63141817,0.093789734,-0.3769981,0.09489427,0.107151,793.7729,800.6227,792.1612,782.0879,589.89014,0.03594970703125,-0.05029296875,0.99468994140625,-4.628143310546875,27.14080810546875,32.711029052734375,1,1.0,1.0,1.0,1.0,10.00
2024-10-11 20:45:12.933,0.8838163,0.93214726,0.9293822,0.84175795,0.2168878,0.31454548,0.50388,0.43532884,0.61519843,-0.0011747052,0.73490125,0.71491486,0.6420851,-0.072703555,0.2999977,0.63141817,0.093789734,-0.3769981,0.09489427,0.107151,806.6667,804.2491,786.1172,786.9231,638.6447,0.03594970703125,-0.05029296875,0.99468994140625,-4.628143310546875,27.14080810546875,32.711029052734375,1,1.0,1.0,1.0,1.0,10.00
2024-10-11 20:45:12.973,0.8838163,0.93214726,0.9293822,0.84175795,0.2168878,0.31454548,0.50388,0.43532884,0.61519843,-0.0011747052,0.73490125,0.71491486,0.6420851,-0.072703555,0.2999977,0.63141817,0.093789734,-0.3769981,0.09489427,0.107151,803.8461,803.44324,797.3993,792.1612,672.49084,-0.01702880859375,-0.05828857421875,1.00006103515625,-4.807586669921875,26.191253662109375,31.335296630859375,1,1.0,1.0,1.0,1.0,10.00
2024-10-11 20:45:12.975,0.8838163,0.93214726,0.9293822,0.84175795,0.2168878,0.31454548,0.50388,0.43532884,0.61519843,-0.0011747052,0.73490125,0.71491486,0.6420851,-0.072703555,0.2999977,0.63141817,0.093789734,-0.3769981,0.09489427,0.107151,794.57874,802.23444,811.9048,801.4286,568.1319,-0.01702880859375,-0.05828857421875,1.00006103515625,-4.807586669921875,26.191253662109375,31.335296630859375,1,1.0,1.0,1.0,1.0,10.00
2024-10-11 20:45:12.978,0.8838163,0.93214726,0.9293822,0.84175795,0.2168878,0.31454548,0.50388,0.43532884,0.61519843,-0.0011747052,0.73490125,0.71491486,0.6420851,-0.072703555,0.2999977,0.63141817,0.093789734,-0.3769981,0.09489427,0.107151,801.4286,807.8755,811.0989,807.0696,534.68866,-0.01702880859375,-0.05828857421875,1.00006103515625,-4.807586669921875,26.191253662109375,31.335296630859375,1,1.0,1.0,1.0,1.0,10.00
2024-10-11 20:45:12.980,0.8838163,0.93214726,0.9293822,0.84175795,0.2168878,0.31454548,0.50388,0.43532884,0.61519843,-0.0011747052,0.73490125,0.71491486,0.6420851,-0.072703555,0.2999977,0.63141817,0.093789734,-0.3769981,0.09489427,0.107151,799.011,803.8461,808.2784,828.8278,601.5751,-0.01702880859375,-0.05828857421875,1.00006103515625,-4.807586669921875,26.191253662109375,31.335296630859375,1,1.0,1.0,1.0,1.0,10.00
2024-10-11 20:45:12.980,0.8838163,0.93214726,0.9293822,0.84175795,0.2168878,0.31454548,0.50388,0.43532884,0.61519843,-0.0011747052,0.73490125,0.71491486,0.6420851,-0.072703555,0.2999977,0.63141817,0.093789734,-0.3769981,0.09489427,0.107151,803.44324,799.41394,790.54944,845.7509,673.69965,-0.01702880859375,-0.05828857421875,1.00006103515625,-4.807586669921875,26.191253662109375,31.335296630859375,1,1.0,1.0,1.0,1.0,10.00
2024-10-11 20:45:12.981,0.8838163,0.93214726,0.9293822,0.84175795,0.2168878,0.31454548,0.50388,0.43532884,0.61519843,-0.0011747052,0.73490125,0.71491486,0.6420851,-0.072703555,0.2999977,0.63141817,0.093789734,-0.3769981,0.09489427,0.107151,807.47253,805.05493,779.67035,825.6044,759.92676,-0.01702880859375,-0.05828857421875,1.00006103515625,-4.807586669921875,26.191253662109375,31.335296630859375,1,1.0,1.0,1.0,1.0,10.00
2024-10-11 20:45:12.982,0.8838163,0.93214726,0.9293822,0.84175795,0.2168878,0.31454548,0.50388,0.43532884,0.61519843,-0.0011747052,0.73490125,0.71491486,0.6420851,-0.072703555,0.2999977,0.63141817,0.093789734,-0.3769981,0.09489427,0.107151,803.0403,803.0403,796.1905,791.75824,720.0366,-0.01702880859375,-0.05828857421875,1.00006103515625,-4.807586669921875,26.191253662109375,31.335296630859375,1,1.0,1.0,1.0,1.0,10.00
2024-10-11 20:45:12.983,1.0135238,0.96947575,0.9577861,0.95492053,0.5005258,0.330485,0.50908583,0.4876739,0.87188506,0.03956778,0.73050296,0.7472572,0.6365828,-0.08428358,0.30046904,0.6472594,0.13902566,-0.37136754,0.10466976,0.13251609,809.4872,796.5934,805.05493,768.3883,960.18317,-0.01702880859375,-0.05828857421875,1.00006103515625,-4.807586669921875,26.191253662109375,31.335296630859375,1,1.0,1.0,1.0,1.0,10.00
2024-10-11 20:45:12.989,1.0135238,0.96947575,0.9577861,0.95492053,0.5005258,0.330485,0.50908583,0.4876739,0.87188506,0.03956778,0.73050296,0.7472572,0.6365828,-0.08428358,0.30046904,0.6472594,0.13902566,-0.37136754,0.10466976,0.13251609,805.05493,801.02563,810.293,777.6557,1048.022,-0.01702880859375,-0.05828857421875,1.00006103515625,-4.807586669921875,26.191253662109375,31.335296630859375,1,1.0,1.0,1.0,1.0,10.00
2024-10-11 20:45:12.990,1.0135238,0.96947575,0.9577861,0.95492053,0.5005258,0.330485,0.50908583,0.4876739,0.87188506,0.03956778,0.73050296,0.7472572,0.6365828,-0.08428358,0.30046904,0.6472594,0.13902566,-0.37136754,0.10466976,0.13251609,810.696,805.8608,812.3077,797.8022,645.89746,-0.01702880859375,-0.05828857421875,1.00006103515625,-4.807586669921875,26.191253662109375,31.335296630859375,1,1.0,1.0,1.0,1.0,10.00
2024-10-11 20:45:12.991,1.0135238,0.96947575,0.9577861,0.95492053,0.5005258,0.330485,0.50908583,0.4876739,0.87188506,0.03956778,0.73050296,0.7472572,0.6365828,-0.08428358,0.30046904,0.6472594,0.13902566,-0.37136754,0.10466976,0.13251609,832.4542,807.47253,807.0696,808.2784,494.3956,-0.01702880859375,-0.05828857421875,1.00006103515625,-4.807586669921875,26.191253662109375,31.335296630859375,1,1.0,1.0,1.0,1.0,10.00
2024-10-11 20:45:12.992,1.0135238,0.96947575,0.9577861,0.95492053,0.5005258,0.330485,0.50908583,0.4876739,0.87188506,0.03956778,0.73050296,0.7472572,0.6365828,-0.08428358,0.30046904,0.6472594,0.13902566,-0.37136754,0.10466976,0.13251609,832.0513,809.89014,808.2784,808.68134,719.6337,-0.01702880859375,-0.05828857421875,1.00006103515625,-4.807586669921875,26.191253662109375,31.335296630859375,1,1.0,1.0,1.0,1.0,10.00
2024-10-11 20:45:13.023,1.0135238,0.96947575,0.9577861,0.95492053,0.5005258,0.330485,0.50908583,0.4876739,0.87188506,0.03956778,0.73050296,0.7472572,0.6365828,-0.08428358,0.30046904,0.6472594,0.13902566,-0.37136754,0.10466976,0.13251609,816.7399,811.0989,790.54944,811.50183,768.3883,-0.05487060546875,-0.074951171875,0.9974365234375,-3.222503662109375,21.42852783203125,29.0399169921875,1,1.0,1.0,1.0,1.0,10.00
2024-10-11 20:45:13.025,1.0135238,0.96947575,0.9577861,0.95492053,0.5005258,0.330485,0.50908583,0.4876739,0.87188506,0.03956778,0.73050296,0.7472572,0.6365828,-0.08428358,0.30046904,0.6472594,0.13902566,-0.37136754,0.10466976,0.13251609,809.4872,812.3077,774.0293,805.8608,528.24176,-0.05487060546875,-0.074951171875,0.9974365234375,-3.222503662109375,21.42852783203125,29.0399169921875,1,1.0,1.0,1.0,1.0,10.00
2024-10-11 20:45:13.027,1.0135238,0.96947575,0.9577861,0.95492053,0.5005258,0.330485,0.50908583,0.4876739,0.87188506,0.03956778,0.73050296,0.7472572,0.6365828,-0.08428358,0.30046904,0.6472594,0.13902566,-0.37136754,0.10466976,0.13251609,808.68134,806.26373,800.6227,808.2784,487.94873,-0.05487060546875,-0.074951171875,0.9974365234375,-3.222503662109375,21.42852783203125,29.0399169921875,1,1.0,1.0,1.0,1.0,10.00
2024-10-11 20:45:13.029,1.0135238,0.96947575,0.9577861,0.95492053,0.5005258,0.330485,0.50908583,0.4876739,0.87188506,0.03956778,0.73050296,0.7472572,0.6365828,-0.08428358,0.30046904,0.6472594,0.13902566,-0.37136754,0.10466976,0.13251609,809.4872,800.6227,817.9487,800.2198,652.3443,-0.05487060546875,-0.074951171875,0.9974365234375,-3.222503662109375,21.42852783203125,29.0399169921875,1,1.0,1.0,1.0,1.0,10.00
2024-10-11 20:45:13.030,1.0135238,0.96947575,0.9577861,0.95492053,0.5005258,0.330485,0.50908583,0.4876739,0.87188506,0.03956778,0.73050296,0.7472572,0.6365828,-0.08428358,0.30046904,0.6472594,0.13902566,-0.37136754,0.10466976,0.13251609,805.4579,798.60803,800.2198,790.14655,751.06226,-0.05487060546875,-0.074951171875,0.9974365234375,-3.222503662109375,21.42852783203125,29.0399169921875,1,1.0,1.0,1.0,1.0,10.00
2024-10-11 20:45:13.030,1.0135238,0.96947575,0.9577861,0.95492053,0.5005258,0.330485,0.50908583,0.4876739,0.87188506,0.03956778,0.73050296,0.7472572,0.6365828,-0.08428358,0.30046904,0.6472594,0.13902566,-0.37136754,0.10466976,0.13251609,801.02563,799.41394,792.1612,800.6227,770.40295,-0.05487060546875,-0.074951171875,0.9974365234375,-3.222503662109375,21.42852783203125,29.0399169921875,1,1.0,1.0,1.0,1.0,10.00
2024-10-11 20:45:13.031,1.0135238,0.96947575,0.9577861,0.95492053,0.5005258,0.330485,0.50908583,0.4876739,0.87188506,0.03956778,0.73050296,0.7472572,0.6365828,-0.08428358,0.30046904,0.6472594,0.13902566,-0.37136754,0.10466976,0.13251609,803.44324,798.60803,792.1612,805.4579,771.2088,-0.05487060546875,-0.074951171875,0.9974365234375,-3.222503662109375,21.42852783203125,29.0399169921875,1,1.0,1.0,1.0,1.0,10.00
2024-10-11 20:45:13.032,1.0135238,0.96947575,0.9577861,0.95492053,0.5005258,0.330485,0.50908583,0.4876739,0.87188506,0.03956778,0.73050296,0.7472572,0.6365828,-0.08428358,0.30046904,0.6472594,0.13902566,-0.37136754,0.10466976,0.13251609,799.011,799.011,796.1905,821.1722,970.65936,-0.05487060546875,-0.074951171875,0.9974365234375,-3.222503662109375,21.42852783203125,29.0399169921875,1,1.0,1.0,1.0,1.0,10.00
2024-10-11 20:45:13.033,1.0135238,0.96947575,0.9577861,0.95492053,0.5005258,0.330485,0.50908583,0.4876739,0.87188506,0.03956778,0.73050296,0.7472572,0.6365828,-0.08428358,0.30046904,0.6472594,0.13902566,-0.37136754,0.10466976,0.13251609,800.6227,802.6374,804.65204,823.1868,970.65936,-0.05487060546875,-0.074951171875,0.9974365234375,-3.222503662109375,21.42852783203125,29.0399169921875,1,1.0,1.0,1.0,1.0,10.00
2024-10-11 20:45:13.034,1.0135238,0.96947575,0.9577861,0.95492053,0.5005258,0.330485,0.50908583,0.4876739,0.87188506,0.03956778,0.73050296,0.7472572,0.6365828,-0.08428358,0.30046904,0.6472594,0.13902566,-0.37136754,0.10466976,0.13251609,809.0842,801.4286,797.8022,799.011,725.6777,-0.05487060546875,-0.074951171875,0.9974365234375,-3.222503662109375,21.42852783203125,29.0399169921875,1,1.0,1.0,1.0,1.0,10.00
2024-10-11 20:45:13.035,1.0135238,0.96947575,0.9577861,0.95492053,0.5005258,0.330485,0.50908583,0.4876739,0.87188506,0.03956778,0.73050296,0.7472572,0.6365828,-0.08428358,0.30046904,0.6472594,0.13902566,-0.37136754,0.10466976,0.13251609,810.293,799.011,794.17584,787.72894,803.44324,-0.05487060546875,-0.074951171875,0.9974365234375,-3.222503662109375,21.42852783203125,29.0399169921875,1,1.0,1.0,1.0,1.0,10.00
2024-10-11 20:45:13.036,1.0135238,0.96947575,0.9577861,0.95492053,0.5005258,0.330485,0.50908583,0.4876739,0.87188506,0.03956778,0.73050296,0.7472572,0.6365828,-0.08428358,0.30046904,0.6472594,0.13902566,-0.37136754,0.10466976,0.13251609,810.293,797.3993,793.36993,801.02563,952.1245,-0.05487060546875,-0.074951171875,0.9974365234375,-3.222503662109375,21.42852783203125,29.0399169921875,1,1.0,1.0,1.0,1.0,10.00
2024-10-11 20:45:13.060,1.0135238,0.96947575,0.9577861,0.95492053,0.5005258,0.330485,0.50908583,0.4876739,0.87188506,0.03956778,0.73050296,0.7472572,0.6365828,-0.08428358,0.30046904,0.6472594,0.13902566,-0.37136754,0.10466976,0.13251609,799.41394,798.20514,789.34064,813.5165,695.4579,-0.07781982421875,-0.07635498046875,1.001953125,-1.757049560546875,17.114410400390625,24.224853515625,1,1.0,1.0,1.0,1.0,10.00
2024-10-11 20:45:13.061,1.0135238,0.96947575,0.9577861,0.95492053,0.5005258,0.330485,0.50908583,0.4876739,0.87188506,0.03956778,0.73050296,0.7472572,0.6365828,-0.08428358,0.30046904,0.6472594,0.13902566,-0.37136754,0.10466976,0.13251609,799.81683,799.011,785.7143,815.5311,484.32236,-0.07781982421875,-0.07635498046875,1.001953125,-1.757049560546875,17.114410400390625,24.224853515625,1,1.0,1.0,1.0,1.0,10.00
2024-10-11 20:45:13.062,1.0135238,0.96947575,0.9577861,0.95492053,0.5005258,0.330485,0.50908583,0.4876739,0.87188506,0.03956778,0.73050296,0.7472572,0.6365828,-0.08428358,0.30046904,0.6472594,0.13902566,-0.37136754,0.10466976,0.13251609,804.65204,798.60803,793.7729,817.9487,608.8278,-0.07781982421875,-0.07635498046875,1.001953125,-1.757049560546875,17.114410400390625,24.224853515625,1,1.0,1.0,1.0,1.0,10.00
2024-10-11 20:45:13.062,1.0135238,0.96947575,0.9577861,0.95492053,0.5005258,0.330485,0.50908583,0.4876739,0.87188506,0.03956778,0.73050296,0.7472572,0.6365828,-0.08428358,0.30046904,0.6472594,0.13902566,-0.37136754,0.10466976,0.13251609,804.65204,801.4286,804.65204,817.5458,665.64105,-0.07781982421875,-0.07635498046875,1.001953125,-1.757049560546875,17.114410400390625,24.224853515625,1,1.0,1.0,1.0,1.0,10.00
2024-10-11 20:45:13.063,1.0135238,0.96947575,0.9577861,0.95492053,0.5005258,0.330485,0.50908583,0.4876739,0.87188506,0.03956778,0.73050296,0.7472572,0.6365828,-0.08428358,0.30046904,0.6472594,0.13902566,-0.37136754,0.10466976,0.13251609,805.4579,799.41394,800.2198,811.50183,540.7326,-0.07781982421875,-0.07635498046875,1.001953125,-1.757049560546875,17.114410400390625,24.224853515625,1,1.0,1.0,1.0,1.0,10.00
2024-10-11 20:45:13.064,1.0135238,0.96947575,0.9577861,0.95492053,0.5005258,0.330485,0.50908583,0.4876739,0.87188506,0.03956778,0.73050296,0.7472572,0.6365828,-0.08428358,0.30046904,0.6472594,0.13902566,-0.37136754,0.10466976,0.13251609,799.011,796.99634,793.7729,806.6667,670.4762,-0.07781982421875,-0.07635498046875,1.001953125,-1.757049560546875,17.114410400390625,24.224853515625,1,1.0,1.0,1.0,1.0,10.00
2024-10-11 20:45:13.065,1.0135238,0.96947575,0.9577861,0.95492053,0.5005258,0.330485,0.50908583,0.4876739,0.87188506,0.03956778,0.73050296,0.7472572,0.6365828,-0.08428358,0.30046904,0.6472594,0.13902566,-0.37136754,0.10466976,0.13251609,809.89014,799.81683,788.93774,799.41394,1037.5458,-0.07781982421875,-0.07635498046875,1.001953125,-1.757049560546875,17.114410400390625,24.224853515625,1,1.0,1.0,1.0,1.0,10.00
2024-10-11 20:45:13.066,1.0135238,0.96947575,0.9577861,0.95492053,0.5005258,0.330485,0.50908583,0.4876739,0.87188506,0.03956778,0.73050296,0.7472572,0.6365828,-0.08428358,0.30046904,0.6472594,0.13902566,-0.37136754,0.10466976,0.13251609,810.293,798.20514,789.7436,793.7729,953.3333,-0.07781982421875,-0.07635498046875,1.001953125,-1.757049560546875,17.114410400390625,24.224853515625,1,1.0,1.0,1.0,1.0,10.00
2024-10-11 20:45:13.067,1.0135238,0.96947575,0.9577861,0.95492053,0.5005258,0.330485,0.50908583,0.4876739,0.87188506,0.03956778,0.73050296,0.7472572,0.6365828,-0.08428358,0.30046904,0.6472594,0.13902566,-0.37136754,0.10466976,0.13251609,791.75824,796.1905,797.8022,794.57874,634.61536,-0.07781982421875,-0.07635498046875,1.001953125,-1.757049560546875,17.114410400390625,24.224853515625,1,1.0,1.0,1.0,1.0,10.00
2024-10-11 20:45:13.068,1.1366367,0.9753865,0.9593327,1.0496105,0.72358686,0.32830068,0.47035205,0.564109,0.98082846,0.10442912,0.71895516,0.79809415,0.65048826,-0.08140023,0.28657904,0.66453815,0.1720749,-0.35776752,0.110680595,0.1606595,792.96704,799.011,805.8608,798.60803,568.1319,-0.07781982421875,-0.07635498046875,1.001953125,-1.757049560546875,17.114410400390625,24.224853515625,1,1.0,1.0,1.0,1.0,10.00
2024-10-11 20:45:13.075,1.1366367,0.9753865,0.9593327,1.0496105,0.72358686,0.32830068,0.47035205,0.564109,0.98082846,0.10442912,0.71895516,0.79809415,0.65048826,-0.08140023,0.28657904,0.66453815,0.1720749,-0.35776752,0.110680595,0.1606595,796.1905,792.1612,804.2491,807.47253,751.4652,-0.07781982421875,-0.07635498046875,1.001953125,-1.757049560546875,17.114410400390625,24.224853515625,1,1.0,1.0,1.0,1.0,10.00
2024-10-11 20:45:13.076,1.1366367,0.9753865,0.9593327,1.0496105,0.72358686,0.32830068,0.47035205,0.564109,0.98082846,0.10442912,0.71895516,0.79809415,0.65048826,-0.08140023,0.28657904,0.66453815,0.1720749,-0.35776752,0.110680595,0.1606595,802.6374,789.7436,794.17584,810.293,1034.7252,-0.07781982421875,-0.07635498046875,1.001953125,-1.757049560546875,17.114410400390625,24.224853515625,1,1.0,1.0,1.0,1.0,10.00
2024-10-11 20:45:13.077,1.1366367,0.9753865,0.9593327,1.0496105,0.72358686,0.32830068,0.47035205,0.564109,0.98082846,0.10442912,0.71895516,0.79809415,0.65048826,-0.08140023,0.28657904,0.66453815,0.1720749,-0.35776752,0.110680595,0.1606595,804.2491,799.011,774.43225,800.6227,768.7912,-0.0975341796875,-0.07635498046875,1.00738525390625,-0.590667724609375,12.060089111328125,18.101348876953125,1,1.0,1.0,1.0,1.0,10.00
2024-10-11 20:45:13.078,1.1366367,0.9753865,0.9593327,1.0496105,0.72358686,0.32830068,0.47035205,0.564109,0.98082846,0.10442912,0.71895516,0.79809415,0.65048826,-0.08140023,0.28657904,0.66453815,0.1720749,-0.35776752,0.110680595,0.1606595,802.23444,799.41394,776.8498,790.54944,541.53845,-0.0975341796875,-0.07635498046875,1.00738525390625,-0.590667724609375,12.060089111328125,18.101348876953125,1,1.0,1.0,1.0,1.0,10.00
2024-10-11 20:45:13.079,1.1366367,0.9753865,0.9593327,1.0496105,0.72358686,0.32830068,0.47035205,0.564109,0.98082846,0.10442912,0.71895516,0.79809415,0.65048826,-0.08140023,0.28657904,0.66453815,0.1720749,-0.35776752,0.110680595,0.1606595,803.44324,794.17584,800.2198,782.0879,621.31866,-0.0975341796875,-0.07635498046875,1.00738525390625,-0.590667724609375,12.060089111328125,18.101348876953125,1,1.0,1.0,1.0,1.0,10.00
2024-10-11 20:45:13.079,1.1366367,0.9753865,0.9593327,1.0496105,0.72358686,0.32830068,0.47035205,0.564109,0.98082846,0.10442912,0.71895516,0.79809415,0.65048826,-0.08140023,0.28657904,0.66453815,0.1720749,-0.35776752,0.110680595,0.1606595,800.6227,798.20514,807.0696,780.07324,550.80585,-0.0975341796875,-0.07635498046875,1.00738525390625,-0.590667724609375,12.060089111328125,18.101348876953125,1,1.0,1.0,1.0,1.0,10.00
2024-10-11 20:45:13.080,1.1366367,0.9753865,0.9593327,1.0496105,0.72358686,0.32830068,0.47035205,0.564109,0.98082846,0.10442912,0.71895516,0.79809415,0.65048826,-0.08140023,0.28657904,0.66453815,0.1720749,-0.35776752,0.110680595,0.1606595,806.6667,798.20514,799.011,796.1905,455.31134,-0.0975341796875,-0.07635498046875,1.00738525390625,-0.590667724609375,12.060089111328125,18.101348876953125,1,1.0,1.0,1.0,1.0,10.00
2024-10-11 20:45:13.081,1.1366367,0.9753865,0.9593327,1.0496105,0.72358686,0.32830068,0.47035205,0.564109,0.98082846,0.10442912,0.71895516,0.79809415,0.65048826,-0.08140023,0.28657904,0.66453815,0.1720749,-0.35776752,0.110680595,0.1606595,804.65204,795.78754,797.8022,801.02563,601.1722,-0.0975341796875,-0.07635498046875,1.00738525390625,-0.590667724609375,12.060089111328125,18.101348876953125,1,1.0,1.0,1.0,1.0,10.00
2024-10-11 20:45:13.082,1.1366367,0.9753865,0.9593327,1.0496105,0.72358686,0.32830068,0.47035205,0.564109,0.98082846,0.10442912,0.71895516,0.79809415,0.65048826,-0.08140023,0.28657904,0.66453815,0.1720749,-0.35776752,0.110680595,0.1606595,801.8315,797.3993,801.4286,801.02563,690.6227,-0.0975341796875,-0.07635498046875,1.00738525390625,-0.590667724609375,12.060089111328125,18.101348876953125,1,1.0,1.0,1.0,1.0,10.00
2024-10-11 20:45:13.083,1.1366367,0.9753865,0.9593327,1.0496105,0.72358686,0.32830068,0.47035205,0.564109,0.98082846,0.10442912,0.71895516,0.79809415,0.65048826,-0.08140023,0.28657904,0.66453815,0.1720749,-0.35776752,0.110680595,0.1606595,799.41394,796.5934,796.5934,803.44324,580.2198,-0.0975341796875,-0.07635498046875,1.00738525390625,-0.590667724609375,12.060089111328125,18.101348876953125,1,1.0,1.0,1.0,1.0,10.00
2024-10-11 20:45:13.084,1.1366367,0.9753865,0.9593327,1.0496105,0.72358686,0.32830068,0.47035205,0.564109,0.98082846,0.10442912,0.71895516,0.79809415,0.65048826,-0.08140023,0.28657904,0.66453815,0.1720749,-0.35776752,0.110680595,0.1606595,800.2198,797.3993,793.36993,797.8022,443.62637,-0.0975341796875,-0.07635498046875,1.00738525390625,-0.590667724609375,12.060089111328125,18.101348876953125,1,1.0,1.0,1.0,1.0,10.00
2024-10-11 20:45:13.085,1.1366367,0.9753865,0.9593327,1.0496105,0.72358686,0.32830068,0.47035205,0.564109,0.98082846,0.10442912,0.71895516,0.79809415,0.65048826,-0.08140023,0.28657904,0.66453815,0.1720749,-0.35776752,0.110680595,0.1606595,798.20514,794.9817,785.7143,795.78754,494.3956,-0.0975341796875,-0.07635498046875,1.00738525390625,-0.590667724609375,12.060089111328125,18.101348876953125,1,1.0,1.0,1.0,1.0,10.00
2024-10-11 20:45:13.086,1.1366367,0.9753865,0.9593327,1.0496105,0.72358686,0.32830068,0.47035205,0.564109,0.98082846,0.10442912,0.71895516,0.79809415,0.65048826,-0.08140023,0.28657904,0.66453815,0.1720749,-0.35776752,0.110680595,0.1606595,795.38464,795.78754,766.77655,796.1905,593.91943,-0.0975341796875,-0.07635498046875,1.00738525390625,-0.590667724609375,12.060089111328125,18.101348876953125,1,1.0,1.0,1.0,1.0,10.00
2024-10-11 20:45:13.087,1.1366367,0.9753865,0.9593327,1.0496105,0.72358686,0.32830068,0.47035205,0.564109,0.98082846,0.10442912,0.71895516,0.79809415,0.65048826,-0.08140023,0.28657904,0.66453815,0.1720749,-0.35776752,0.110680595,0.1606595,803.0403,796.5934,777.6557,798.60803,561.685,-0.0975341796875,-0.07635498046875,1.00738525390625,-0.590667724609375,12.060089111328125,18.101348876953125,1,1.0,1.0,1.0,1.0,10.00
2024-10-11 20:45:13.194,1.1366367,0.9753865,0.9593327,1.0496105,0.72358686,0.32830068,0.47035205,0.564109,0.98082846,0.10442912,0.71895516,0.79809415,0.65048826,-0.08140023,0.28657904,0.66453815,0.1720749,-0.35776752,0.110680595,0.1606595,805.05493,795.38464,798.60803,803.0403,548.3883,-0.0975341796875,-0.07635498046875,1.00738525390625,-0.590667724609375,12.060089111328125,18.101348876953125,1,1.0,1.0,1.0,1.0,10.00
2024-10-11 20:45:13.195,1.1366367,0.9753865,0.9593327,1.0496105,0.72358686,0.32830068,0.47035205,0.564109,0.98082846,0.10442912,0.71895516,0.79809415,0.65048826,-0.08140023,0.28657904,0.66453815,0.1720749,-0.35776752,0.110680595,0.1606595,807.8755,794.57874,807.47253,807.0696,655.9707,-0.0975341796875,-0.07635498046875,1.00738525390625,-0.590667724609375,12.060089111328125,18.101348876953125,1,1.0,1.0,1.0,1.0,10.00
2024-10-11 20:45:13.196,1.1366367,0.9753865,0.9593327,1.0496105,0.72358686,0.32830068,0.47035205,0.564109,0.98082846,0.10442912,0.71895516,0.79809415,0.65048826,-0.08140023,0.28657904,0.66453815,0.1720749,-0.35776752,0.110680595,0.1606595,805.4579,793.7729,801.8315,815.12823,1005.31134,-0.0975341796875,-0.07635498046875,1.00738525390625,-0.590667724609375,12.060089111328125,18.101348876953125,1,1.0,1.0,1.0,1.0,10.00
2024-10-11 20:45:13.197,1.1366367,0.9753865,0.9593327,1.0496105,0.72358686,0.32830068,0.47035205,0.564109,0.98082846,0.10442912,0.71895516,0.79809415,0.65048826,-0.08140023,0.28657904,0.66453815,0.1720749,-0.35776752,0.110680595,0.1606595,794.17584,793.7729,801.02563,809.4872,902.5641,-0.0975341796875,-0.07635498046875,1.00738525390625,-0.590667724609375,12.060089111328125,18.101348876953125,1,1.0,1.0,1.0,1.0,10.00
2024-10-11 20:45:13.198,1.1366367,0.9753865,0.9593327,1.0496105,0.72358686,0.32830068,0.47035205,0.564109,0.98082846,0.10442912,0.71895516,0.79809415,0.65048826,-0.08140023,0.28657904,0.66453815,0.1720749,-0.35776752,0.110680595,0.1606595,801.8315,789.7436,808.2784,812.71063,503.26007,-0.0975341796875,-0.07635498046875,1.00738525390625,-0.590667724609375,12.060089111328125,18.101348876953125,1,1.0,1.0,1.0,1.0,10.00
2024-10-11 20:45:13.198,1.1366367,0.9753865,0.9593327,1.0496105,0.72358686,0.32830068,0.47035205,0.564109,0.98082846,0.10442912,0.71895516,0.79809415,0.65048826,-0.08140023,0.28657904,0.66453815,0.1720749,-0.35776752,0.110680595,0.1606595,818.3516,792.96704,797.8022,838.9011,776.4469,-0.0975341796875,-0.07635498046875,1.00738525390625,-0.590667724609375,12.060089111328125,18.101348876953125,1,1.0,1.0,1.0,1.0,10.00
2024-10-11 20:45:13.199,1.1366367,0.9753865,0.9593327,1.0496105,0.72358686,0.32830068,0.47035205,0.564109,0.98082846,0.10442912,0.71895516,0.79809415,0.65048826,-0.08140023,0.28657904,0.66453815,0.1720749,-0.35776752,0.110680595,0.1606595,808.2784,802.23444,789.7436,832.4542,1147.9487,-0.0975341796875,-0.07635498046875,1.00738525390625,-0.590667724609375,12.060089111328125,18.101348876953125,1,1.0,1.0,1.0,1.0,10.00
2024-10-11 20:45:13.200,1.1366367,0.9753865,0.9593327,1.0496105,0.72358686,0.32830068,0.47035205,0.564109,0.98082846,0.10442912,0.71895516,0.79809415,0.65048826,-0.08140023,0.28657904,0.66453815,0.1720749,-0.35776752,0.110680595,0.1606595,799.011,807.47253,785.31134,793.36993,768.3883,-0.0975341796875,-0.07635498046875,1.00738525390625,-0.590667724609375,12.060089111328125,18.101348876953125,1,1.0,1.0,1.0,1.0,10.00
2024-10-11 20:45:13.201,1.1366367,0.9753865,0.9593327,1.0496105,0.72358686,0.32830068,0.47035205,0.564109,0.98082846,0.10442912,0.71895516,0.79809415,0.65048826,-0.08140023,0.28657904,0.66453815,0.1720749,-0.35776752,0.110680595,0.1606595,807.0696,808.68134,788.1319,774.0293,510.51282,-0.0975341796875,-0.07635498046875,1.00738525390625,-0.590667724609375,12.060089111328125,18.101348876953125,1,1.0,1.0,1.0,1.0,10.00
2024-10-11 20:45:13.201,1.1366367,0.9753865,0.9593327,1.0496105,0.72358686,0.32830068,0.47035205,0.564109,0.98082846,0.10442912,0.71895516,0.79809415,0.65048826,-0.08140023,0.28657904,0.66453815,0.1720749,-0.35776752,0.110680595,0.1606595,807.8755,811.50183,772.8205,769.59705,579.41394,-0.0975341796875,-0.07635498046875,1.00738525390625,-0.590667724609375,12.060089111328125,18.101348876953125,1,1.0,1.0,1.0,1.0,10.00
2024-10-11 20:45:13.202,1.1366367,0.9753865,0.9593327,1.0496105,0.72358686,0.32830068,0.47035205,0.564109,0.98082846,0.10442912,0.71895516,0.79809415,0.65048826,-0.08140023,0.28657904,0.66453815,0.1720749,-0.35776752,0.110680595,0.1606595,803.8461,810.293,774.43225,771.2088,610.4396,-0.0975341796875,-0.07635498046875,1.00738525390625,-0.590667724609375,12.060089111328125,18.101348876953125,1,1.0,1.0,1.0,1.0,10.00
2024-10-11 20:45:13.203,1.2375948,0.96570724,0.91691446,1.126485,0.87809294,0.3125847,0.36965826,0.64362234,1.010434,0.19736977,0.6924119,0.8940591,0.66101915,-0.064824834,0.26106104,0.68518627,0.20736076,-0.33683676,0.11411323,0.20359403,805.05493,813.91943,782.49084,775.2381,568.5348,-0.0975341796875,-0.07635498046875,1.00738525390625,-0.590667724609375,12.060089111328125,18.101348876953125,1,1.0,1.0,1.0,1.0,10.00
2024-10-11 20:45:13.209,1.2375948,0.96570724,0.91691446,1.126485,0.87809294,0.3125847,0.36965826,0.64362234,1.010434,0.19736977,0.6924119,0.8940591,0.66101915,-0.064824834,0.26106104,0.68518627,0.20736076,-0.33683676,0.11411323,0.20359403,796.5934,814.7253,760.32965,766.77655,590.696,-0.0941162109375,-0.07879638671875,1.0035400390625,1.36077880859375,10.833892822265625,10.4974365234375,1,1.0,1.0,1.0,1.0,10.00
2024-10-11 20:45:13.210,1.2375948,0.96570724,0.91691446,1.126485,0.87809294,0.3125847,0.36965826,0.64362234,1.010434,0.19736977,0.6924119,0.8940591,0.66101915,-0.064824834,0.26106104,0.68518627,0.20736076,-0.33683676,0.11411323,0.20359403,792.1612,809.4872,765.16486,779.2674,622.52747,-0.0941162109375,-0.07879638671875,1.0035400390625,1.36077880859375,10.833892822265625,10.4974365234375,1,1.0,1.0,1.0,1.0,10.00
2024-10-11 20:45:13.211,1.2375948,0.96570724,0.91691446,1.126485,0.87809294,0.3125847,0.36965826,0.64362234,1.010434,0.19736977,0.6924119,0.8940591,0.66101915,-0.064824834,0.26106104,0.68518627,0.20736076,-0.33683676,0.11411323,0.20359403,797.8022,805.8608,786.52014,790.54944,639.45056,-0.0941162109375,-0.07879638671875,1.0035400390625,1.36077880859375,10.833892822265625,10.4974365234375,1,1.0,1.0,1.0,1.0,10.00
2024-10-11 20:45:13.212,1.2375948,0.96570724,0.91691446,1.126485,0.87809294,0.3125847,0.36965826,0.64362234,1.010434,0.19736977,0.6924119,0.8940591,0.66101915,-0.064824834,0.26106104,0.68518627,0.20736076,-0.33683676,0.11411323,0.20359403,793.7729,805.05493,794.17584,782.49084,632.6007,-0.0941162109375,-0.07879638671875,1.0035400390625,1.36077880859375,10.833892822265625,10.4974365234375,1,1.0,1.0,1.0,1.0,10.00
2024-10-11 20:45:13.212,1.2375948,0.96570724,0.91691446,1.126485,0.87809294,0.3125847,0.36965826,0.64362234,1.010434,0.19736977,0.6924119,0.8940591,0.66101915,-0.064824834,0.26106104,0.68518627,0.20736076,-0.33683676,0.11411323,0.20359403,791.75824,803.0403,796.5934,788.93774,625.34796,-0.0941162109375,-0.07879638671875,1.0035400390625,1.36077880859375,10.833892822265625,10.4974365234375,1,1.0,1.0,1.0,1.0,10.00
2024-10-11 20:45:13.213,1.2375948,0.96570724,0.91691446,1.126485,0.87809294,0.3125847,0.36965826,0.64362234,1.010434,0.19736977,0.6924119,0.8940591,0.66101915,-0.064824834,0.26106104,0.68518627,0.20736076,-0.33683676,0.11411323,0.20359403,805.05493,801.4286,788.93774,800.2198,693.44324,-0.0941162109375,-0.07879638671875,1.0035400390625,1.36077880859375,10.833892822265625,10.4974365234375,1,1.0,1.0,1.0,1.0,10.00
2024-10-11 20:45:13.214,1.2375948,0.96570724,0.91691446,1.126485,0.87809294,0.3125847,0.36965826,0.64362234,1.010434,0.19736977,0.6924119,0.8940591,0.66101915,-0.064824834,0.26106104,0.68518627,0.20736076,-0.33683676,0.11411323,0.20359403,813.91943,804.2491,769.19415,806.26373,713.1868,-0.0941162109375,-0.07879638671875,1.0035400390625,1.36077880859375,10.833892822265625,10.4974365234375,1,1.0,1.0,1.0,1.0,10.00
2024-10-11 20:45:13.214,1.2375948,0.96570724,0.91691446,1.126485,0.87809294,0.3125847,0.36965826,0.64362234,1.010434,0.19736977,0.6924119,0.8940591,0.66101915,-0.064824834,0.26106104,0.68518627,0.20736076,-0.33683676,0.11411323,0.20359403,800.2198,803.0403,780.87915,813.91943,697.8755,-0.0941162109375,-0.07879638671875,1.0035400390625,1.36077880859375,10.833892822265625,10.4974365234375,1,1.0,1.0,1.0,1.0,10.00
2024-10-11 20:45:13.215,1.2375948,0.96570724,0.91691446,1.126485,0.87809294,0.3125847,0.36965826,0.64362234,1.010434,0.19736977,0.6924119,0.8940591,0.66101915,-0.064824834,0.26106104,0.68518627,0.20736076,-0.33683676,0.11411323,0.20359403,796.1905,801.02563,803.44324,809.0842,684.9817,-0.0941162109375,-0.07879638671875,1.0035400390625,1.36077880859375,10.833892822265625,10.4974365234375,1,1.0,1.0,1.0,1.0,10.00
2024-10-11 20:45:13.216,1.2375948,0.96570724,0.91691446,1.126485,0.87809294,0.3125847,0.36965826,0.64362234,1.010434,0.19736977,0.6924119,0.8940591,0.66101915,-0.064824834,0.26106104,0.68518627,0.20736076,-0.33683676,0.11411323,0.20359403,802.6374,801.02563,805.4579,801.02563,744.21246,-0.0941162109375,-0.07879638671875,1.0035400390625,1.36077880859375,10.833892822265625,10.4974365234375,1,1.0,1.0,1.0,1.0,10.00
2024-10-11 20:45:13.216,1.2375948,0.96570724,0.91691446,1.126485,0.87809294,0.3125847,0.36965826,0.64362234,1.010434,0.19736977,0.6924119,0.8940591,0.66101915,-0.064824834,0.26106104,0.68518627,0.20736076,-0.33683676,0.11411323,0.20359403,809.89014,803.8461,798.60803,805.05493,697.47253,-0.0941162109375,-0.07879638671875,1.0035400390625,1.36077880859375,10.833892822265625,10.4974365234375,1,1.0,1.0,1.0,1.0,10.00
2024-10-11 20:45:13.217,1.2375948,0.96570724,0.91691446,1.126485,0.87809294,0.3125847,0.36965826,0.64362234,1.010434,0.19736977,0.6924119,0.8940591,0.66101915,-0.064824834,0.26106104,0.68518627,0.20736076,-0.33683676,0.11411323,0.20359403,812.71063,806.26373,791.3553,813.91943,552.4176,-0.0941162109375,-0.07879638671875,1.0035400390625,1.36077880859375,10.833892822265625,10.4974365234375,1,1.0,1.0,1.0,1.0,10.00
2024-10-11 20:45:13.218,1.2375948,0.96570724,0.91691446,1.126485,0.87809294,0.3125847,0.36965826,0.64362234,1.010434,0.19736977,0.6924119,0.8940591,0.66101915,-0.064824834,0.26106104,0.68518627,0.20736076,-0.33683676,0.11411323,0.20359403,809.4872,805.05493,784.5055,815.5311,587.47253,-0.1002197265625,-0.07830810546875,0.99920654296875,2.811279296875,7.6263427734375,5.2935791015625,1,1.0,1.0,1.0,1.0,10.00
2024-10-11 20:45:13.219,1.2375948,0.96570724,0.91691446,1.126485,0.87809294,0.3125847,0.36965826,0.64362234,1.010434,0.19736977,0.6924119,0.8940591,0.66101915,-0.064824834,0.26106104,0.68518627,0.20736076,-0.33683676,0.11411323,0.20359403,817.9487,805.05493,776.4469,804.2491,735.34796,-0.1002197265625,-0.07830810546875,0.99920654296875,2.811279296875,7.6263427734375,5.2935791015625,1,1.0,1.0,1.0,1.0,10.00
2024-10-11 20:45:13.220,1.2375948,0.96570724,0.91691446,1.126485,0.87809294,0.3125847,0.36965826,0.64362234,1.010434,0.19736977,0.6924119,0.8940591,0.66101915,-0.064824834,0.26106104,0.68518627,0.20736076,-0.33683676,0.11411323,0.20359403,823.5897,812.71063,793.36993,806.26373,636.2271,-0.1002197265625,-0.07830810546875,0.99920654296875,2.811279296875,7.6263427734375,5.2935791015625,1,1.0,1.0,1.0,1.0,10.00
2024-10-11 20:45:13.221,1.2375948,0.96570724,0.91691446,1.126485,0.87809294,0.3125847,0.36965826,0.64362234,1.010434,0.19736977,0.6924119,0.8940591,0.66101915,-0.064824834,0.26106104,0.68518627,0.20736076,-0.33683676,0.11411323,0.20359403,820.7692,812.3077,806.26373,799.41394,641.4652,-0.1002197265625,-0.07830810546875,0.99920654296875,2.811279296875,7.6263427734375,5.2935791015625,1,1.0,1.0,1.0,1.0,10.00
2024-10-11 20:45:13.222,1.2375948,0.96570724,0.91691446,1.126485,0.87809294,0.3125847,0.36965826,0.64362234,1.010434,0.19736977,0.6924119,0.8940591,0.66101915,-0.064824834,0.26106104,0.68518627,0.20736076,-0.33683676,0.11411323,0.20359403,809.89014,806.6667,793.36993,784.90845,780.87915,-0.1002197265625,-0.07830810546875,0.99920654296875,2.811279296875,7.6263427734375,5.2935791015625,1,1.0,1.0,1.0,1.0,10.00
2024-10-11 20:45:13.223,1.2375948,0.96570724,0.91691446,1.126485,0.87809294,0.3125847,0.36965826,0.64362234,1.010434,0.19736977,0.6924119,0.8940591,0.66101915,-0.064824834,0.26106104,0.68518627,0.20736076,-0.33683676,0.11411323,0.20359403,804.65204,801.4286,788.1319,794.57874,811.9048,-0.1002197265625,-0.07830810546875,0.99920654296875,2.811279296875,7.6263427734375,5.2935791015625,1,1.0,1.0,1.0,1.0,10.00
2024-10-11 20:45:13.223,1.2375948,0.96570724,0.91691446,1.126485,0.87809294,0.3125847,0.36965826,0.64362234,1.010434,0.19736977,0.6924119,0.8940591,0.66101915,-0.064824834,0.26106104,0.68518627,0.20736076,-0.33683676,0.11411323,0.20359403,806.6667,796.99634,795.78754,804.65204,751.8681,-0.1002197265625,-0.07830810546875,0.99920654296875,2.811279296875,7.6263427734375,5.2935791015625,1,1.0,1.0,1.0,1.0,10.00
2024-10-11 20:45:13.224,1.2375948,0.96570724,0.91691446,1.126485,0.87809294,0.3125847,0.36965826,0.64362234,1.010434,0.19736977,0.6924119,0.8940591,0.66101915,-0.064824834,0.26106104,0.68518627,0.20736076,-0.33683676,0.11411323,0.20359403,806.6667,800.2198,803.0403,798.20514,690.6227,-0.1002197265625,-0.07830810546875,0.99920654296875,2.811279296875,7.6263427734375,5.2935791015625,1,1.0,1.0,1.0,1.0,10.00
2024-10-11 20:45:13.225,1.2375948,0.96570724,0.91691446,1.126485,0.87809294,0.3125847,0.36965826,0.64362234,1.010434,0.19736977,0.6924119,0.8940591,0.66101915,-0.064824834,0.26106104,0.68518627,0.20736076,-0.33683676,0.11411323,0.20359403,799.81683,802.23444,801.4286,786.9231,818.7546,-0.1002197265625,-0.07830810546875,0.99920654296875,2.811279296875,7.6263427734375,5.2935791015625,1,1.0,1.0,1.0,1.0,10.00
2024-10-11 20:45:13.226,1.2375948,0.96570724,0.91691446,1.126485,0.87809294,0.3125847,0.36965826,0.64362234,1.010434,0.19736977,0.6924119,0.8940591,0.66101915,-0.064824834,0.26106104,0.68518627,0.20736076,-0.33683676,0.11411323,0.20359403,800.2198,799.41394,790.14655,790.9524,830.0366,-0.1002197265625,-0.07830810546875,0.99920654296875,2.811279296875,7.6263427734375,5.2935791015625,1,1.0,1.0,1.0,1.0,10.00
2024-10-11 20:45:13.227,1.2375948,0.96570724,0.91691446,1.126485,0.87809294,0.3125847,0.36965826,0.64362234,1.010434,0.19736977,0.6924119,0.8940591,0.66101915,-0.064824834,0.26106104,0.68518627,0.20736076,-0.33683676,0.11411323,0.20359403,808.2784,795.38464,788.1319,796.99634,636.2271,-0.1002197265625,-0.07830810546875,0.99920654296875,2.811279296875,7.6263427734375,5.2935791015625,1,1.0,1.0,1.0,1.0,10.00
2024-10-11 20:45:13.228,1.2375948,0.96570724,0.91691446,1.126485,0.87809294,0.3125847,0.36965826,0.64362234,1.010434,0.19736977,0.6924119,0.8940591,0.66101915,-0.064824834,0.26106104,0.68518627,0.20736076,-0.33683676,0.11411323,0.20359403,806.6667,800.6227,797.8022,801.8315,602.381,-0.1002197265625,-0.07830810546875,0.99920654296875,2.811279296875,7.6263427734375,5.2935791015625,1,1.0,1.0,1.0,1.0,10.00
2024-10-11 20:45:13.259,1.2375948,0.96570724,0.91691446,1.126485,0.87809294,0.3125847,0.36965826,0.64362234,1.010434,0.19736977,0.6924119,0.8940591,0.66101915,-0.064824834,0.26106104,0.68518627,0.20736076,-0.33683676,0.11411323,0.20359403,808.68134,800.6227,793.36993,808.2784,738.5714,-0.09765625,-0.07794189453125,1.00225830078125,3.581390380859375,7.200164794921875,2.953338623046875,1,1.0,1.0,1.0,1.0,10.00
2024-10-11 20:45:13.260,1.3218516,0.94996756,0.81369585,1.1889143,0.98186594,0.29166314,0.20555785,0.7059799,1.010434,0.22631402,0.58797747,0.9863596,0.66957617,-0.043184947,0.23074307,0.7107981,0.23517041,-0.31505468,0.11858608,0.27715015,815.12823,797.8022,792.5641,812.71063,796.99634,-0.09765625,-0.07794189453125,1.00225830078125,3.581390380859375,7.200164794921875,2.953338623046875,1,1.0,1.0,1.0,1.0,10.00
2024-10-11 20:45:13.266,1.3218516,0.94996756,0.81369585,1.1889143,0.98186594,0.29166314,0.20555785,0.7059799,1.010434,0.22631402,0.58797747,0.9863596,0.66957617,-0.043184947,0.23074307,0.7107981,0.23517041,-0.31505468,0.11858608,0.27715015,814.3223,803.0403,772.4176,824.7985,663.6264,-0.09765625,-0.07794189453125,1.00225830078125,3.581390380859375,7.200164794921875,2.953338623046875,1,1.0,1.0,1.0,1.0,10.00
2024-10-11 20:45:13.267,1.3218516,0.94996756,0.81369585,1.1889143,0.98186594,0.29166314,0.20555785,0.7059799,1.010434,0.22631402,0.58797747,0.9863596,0.66957617,-0.043184947,0.23074307,0.7107981,0.23517041,-0.31505468,0.11858608,0.27715015,804.65204,803.8461,769.19415,824.3956,542.74725,-0.09765625,-0.07794189453125,1.00225830078125,3.581390380859375,7.200164794921875,2.953338623046875,1,1.0,1.0,1.0,1.0,10.00
2024-10-11 20:45:13.268,1.3218516,0.94996756,0.81369585,1.1889143,0.98186594,0.29166314,0.20555785,0.7059799,1.010434,0.22631402,0.58797747,0.9863596,0.66957617,-0.043184947,0.23074307,0.7107981,0.23517041,-0.31505468,0.11858608,0.27715015,799.011,800.2198,803.44324,812.71063,751.4652,-0.09765625,-0.07794189453125,1.00225830078125,3.581390380859375,7.200164794921875,2.953338623046875,1,1.0,1.0,1.0,1.0,10.00
2024-10-11 20:45:13.269,1.3218516,0.94996756,0.81369585,1.1889143,0.98186594,0.29166314,0.20555785,0.7059799,1.010434,0.22631402,0.58797747,0.9863596,0.66957617,-0.043184947,0.23074307,0.7107981,0.23517041,-0.31505468,0.11858608,0.27715015,803.8461,795.38464,806.26373,797.3993,1216.4469,-0.09765625,-0.07794189453125,1.00225830078125,3.581390380859375,7.200164794921875,2.953338623046875,1,1.0,1.0,1.0,1.0,10.00
2024-10-11 20:45:13.270,1.3218516,0.94996756,0.81369585,1.1889143,0.98186594,0.29166314,0.20555785,0.7059799,1.010434,0.22631402,0.58797747,0.9863596,0.66957617,-0.043184947,0.23074307,0.7107981,0.23517041,-0.31505468,0.11858608,0.27715015,803.0403,795.38464,796.5934,788.1319,1210.8059,-0.09765625,-0.07794189453125,1.00225830078125,3.581390380859375,7.200164794921875,2.953338623046875,1,1.0,1.0,1.0,1.0,10.00
2024-10-11 20:45:13.271,1.3218516,0.94996756,0.81369585,1.1889143,0.98186594,0.29166314,0.20555785,0.7059799,1.010434,0.22631402,0.58797747,0.9863596,0.66957617,-0.043184947,0.23074307,0.7107981,0.23517041,-0.31505468,0.11858608,0.27715015,809.4872,797.3993,801.4286,794.57874,825.2015,-0.09765625,-0.07794189453125,1.00225830078125,3.581390380859375,7.200164794921875,2.953338623046875,1,1.0,1.0,1.0,1.0,10.00
2024-10-11 20:45:13.272,1.3218516,0.94996756,0.81369585,1.1889143,0.98186594,0.29166314,0.20555785,0.7059799,1.010434,0.22631402,0.58797747,0.9863596,0.66957617,-0.043184947,0.23074307,0.7107981,0.23517041,-0.31505468,0.11858608,0.27715015,805.8608,796.99634,805.8608,797.8022,655.9707,-0.09765625,-0.07794189453125,1.00225830078125,3.581390380859375,7.200164794921875,2.953338623046875,1,1.0,1.0,1.0,1.0,10.00
2024-10-11 20:45:13.272,1.3218516,0.94996756,0.81369585,1.1889143,0.98186594,0.29166314,0.20555785,0.7059799,1.010434,0.22631402,0.58797747,0.9863596,0.66957617,-0.043184947,0.23074307,0.7107981,0.23517041,-0.31505468,0.11858608,0.27715015,797.3993,800.6227,801.4286,799.41394,623.73627,-0.09765625,-0.07794189453125,1.00225830078125,3.581390380859375,7.200164794921875,2.953338623046875,1,1.0,1.0,1.0,1.0,10.00
2024-10-11 20:45:13.273,1.3218516,0.94996756,0.81369585,1.1889143,0.98186594,0.29166314,0.20555785,0.7059799,1.010434,0.22631402,0.58797747,0.9863596,0.66957617,-0.043184947,0.23074307,0.7107981,0.23517041,-0.31505468,0.11858608,0.27715015,801.8315,802.23444,794.17584,802.23444,564.90845,-0.09765625,-0.07794189453125,1.00225830078125,3.581390380859375,7.200164794921875,2.953338623046875,1,1.0,1.0,1.0,1.0,10.00
2024-10-11 20:45:13.274,1.3218516,0.94996756,0.81369585,1.1889143,0.98186594,0.29166314,0.20555785,0.7059799,1.010434,0.22631402,0.58797747,0.9863596,0.66957617,-0.043184947,0.23074307,0.7107981,0.23517041,-0.31505468,0.11858608,0.27715015,801.02563,797.8022,799.011,799.41394,724.87177,-0.09765625,-0.07794189453125,1.00225830078125,3.581390380859375,7.200164794921875,2.953338623046875,1,1.0,1.0,1.0,1.0,10.00
2024-10-11 20:45:13.305,1.3218516,0.94996756,0.81369585,1.1889143,0.98186594,0.29166314,0.20555785,0.7059799,1.010434,0.22631402,0.58797747,0.9863596,0.66957617,-0.043184947,0.23074307,0.7107981,0.23517041,-0.31505468,0.11858608,0.27715015,803.8461,794.57874,795.38464,802.23444,782.0879,-0.1038818359375,-0.0631103515625,0.99639892578125,5.211334228515625,4.972076416015625,3.730926513671875,1,1.0,1.0,1.0,1.0,10.00
2024-10-11 20:45:13.306,1.3218516,0.94996756,0.81369585,1.1889143,0.98186594,0.29166314,0.20555785,0.7059799,1.010434,0.22631402,0.58797747,0.9863596,0.66957617,-0.043184947,0.23074307,0.7107981,0.23517041,-0.31505468,0.11858608,0.27715015,803.44324,797.3993,786.1172,801.4286,570.9524,-0.1038818359375,-0.0631103515625,0.99639892578125,5.211334228515625,4.972076416015625,3.730926513671875,1,1.0,1.0,1.0,1.0,10.00
2024-10-11 20:45:13.307,1.3218516,0.94996756,0.81369585,1.1889143,0.98186594,0.29166314,0.20555785,0.7059799,1.010434,0.22631402,0.58797747,0.9863596,0.66957617,-0.043184947,0.23074307,0.7107981,0.23517041,-0.31505468,0.11858608,0.27715015,801.8315,798.20514,796.1905,791.75824,584.2491,-0.1038818359375,-0.0631103515625,0.99639892578125,5.211334228515625,4.972076416015625,3.730926513671875,1,1.0,1.0,1.0,1.0,10.00
2024-10-11 20:45:13.308,1.3218516,0.94996756,0.81369585,1.1889143,0.98186594,0.29166314,0.20555785,0.7059799,1.010434,0.22631402,0.58797747,0.9863596,0.66957617,-0.043184947,0.23074307,0.7107981,0.23517041,-0.31505468,0.11858608,0.27715015,795.38464,796.1905,796.1905,796.99634,670.07324,-0.1038818359375,-0.0631103515625,0.99639892578125,5.211334228515625,4.972076416015625,3.730926513671875,1,1.0,1.0,1.0,1.0,10.00
2024-10-11 20:45:13.309,1.3218516,0.94996756,0.81369585,1.1889143,0.98186594,0.29166314,0.20555785,0.7059799,1.010434,0.22631402,0.58797747,0.9863596,0.66957617,-0.043184947,0.23074307,0.7107981,0.23517041,-0.31505468,0.11858608,0.27715015,800.6227,798.60803,788.93774,808.2784,667.25275,-0.1038818359375,-0.0631103515625,0.99639892578125,5.211334228515625,4.972076416015625,3.730926513671875,1,1.0,1.0,1.0,1.0,10.00
2024-10-11 20:45:13.310,1.3218516,0.94996756,0.81369585,1.1889143,0.98186594,0.29166314,0.20555785,0.7059799,1.010434,0.22631402,0.58797747,0.9863596,0.66957617,-0.043184947,0.23074307,0.7107981,0.23517041,-0.31505468,0.11858608,0.27715015,809.4872,797.8022,788.5348,807.0696,662.01465,-0.1038818359375,-0.0631103515625,0.99639892578125,5.211334228515625,4.972076416015625,3.730926513671875,1,1.0,1.0,1.0,1.0,10.00
2024-10-11 20:45:13.310,1.3218516,0.94996756,0.81369585,1.1889143,0.98186594,0.29166314,0.20555785,0.7059799,1.010434,0.22631402,0.58797747,0.9863596,0.66957617,-0.043184947,0.23074307,0.7107981,0.23517041,-0.31505468,0.11858608,0.27715015,811.50183,794.9817,794.9817,796.1905,671.28204,-0.1038818359375,-0.0631103515625,0.99639892578125,5.211334228515625,4.972076416015625,3.730926513671875,1,1.0,1.0,1.0,1.0,10.00
2024-10-11 20:45:13.311,1.3218516,0.94996756,0.81369585,1.1889143,0.98186594,0.29166314,0.20555785,0.7059799,1.010434,0.22631402,0.58797747,0.9863596,0.66957617,-0.043184947,0.23074307,0.7107981,0.23517041,-0.31505468,0.11858608,0.27715015,809.0842,793.36993,799.81683,799.41394,781.28204,-0.1038818359375,-0.0631103515625,0.99639892578125,5.211334228515625,4.972076416015625,3.730926513671875,1,1.0,1.0,1.0,1.0,10.00
2024-10-11 20:45:13.312,1.3218516,0.94996756,0.81369585,1.1889143,0.98186594,0.29166314,0.20555785,0.7059799,1.010434,0.22631402,0.58797747,0.9863596,0.66957617,-0.043184947,0.23074307,0.7107981,0.23517041,-0.31505468,0.11858608,0.27715015,796.5934,790.9524,790.14655,800.6227,839.304,-0.1038818359375,-0.0631103515625,0.99639892578125,5.211334228515625,4.972076416015625,3.730926513671875,1,1.0,1.0,1.0,1.0,10.00
2024-10-11 20:45:13.312,1.3218516,0.94996756,0.81369585,1.1889143,0.98186594,0.29166314,0.20555785,0.7059799,1.010434,0.22631402,0.58797747,0.9863596,0.66957617,-0.043184947,0.23074307,0.7107981,0.23517041,-0.31505468,0.11858608,0.27715015,801.8315,793.7729,786.9231,793.36993,666.04395,-0.1038818359375,-0.0631103515625,0.99639892578125,5.211334228515625,4.972076416015625,3.730926513671875,1,1.0,1.0,1.0,1.0,10.00
2024-10-11 20:45:13.313,1.3218516,0.94996756,0.81369585,1.1889143,0.98186594,0.29166314,0.20555785,0.7059799,1.010434,0.22631402,0.58797747,0.9863596,0.66957617,-0.043184947,0.23074307,0.7107981,0.23517041,-0.31505468,0.11858608,0.27715015,804.2491,796.5934,789.7436,798.60803,664.43225,-0.1038818359375,-0.0631103515625,0.99639892578125,5.211334228515625,4.972076416015625,3.730926513671875,1,1.0,1.0,1.0,1.0,10.00
2024-10-11 20:45:13.314,1.3218516,0.94996756,0.81369585,1.1889143,0.98186594,0.29166314,0.20555785,0.7059799,1.010434,0.22631402,0.58797747,0.9863596,0.66957617,-0.043184947,0.23074307,0.7107981,0.23517041,-0.31505468,0.11858608,0.27715015,795.38464,796.1905,792.1612,815.12823,689.011,-0.1038818359375,-0.0631103515625,0.99639892578125,5.211334228515625,4.972076416015625,3.730926513671875,1,1.0,1.0,1.0,1.0,10.00
2024-10-11 20:45:13.349,1.3218516,0.94996756,0.81369585,1.1889143,0.98186594,0.29166314,0.20555785,0.7059799,1.010434,0.22631402,0.58797747,0.9863596,0.66957617,-0.043184947,0.23074307,0.7107981,0.23517041,-0.31505468,0.11858608,0.27715015,793.36993,794.9817,799.011,819.15753,655.9707,-0.080322265625,-0.0428466796875,1.00030517578125,7.678680419921875,4.18701171875,6.616973876953125,1,1.0,1.0,1.0,1.0,10.00
2024-10-11 20:45:13.350,1.3218516,0.94996756,0.81369585,1.1889143,0.98186594,0.29166314,0.20555785,0.7059799,1.010434,0.22631402,0.58797747,0.9863596,0.66957617,-0.043184947,0.23074307,0.7107981,0.23517041,-0.31505468,0.11858608,0.27715015,788.93774,799.41394,795.78754,799.81683,603.1868,-0.080322265625,-0.0428466796875,1.00030517578125,7.678680419921875,4.18701171875,6.616973876953125,1,1.0,1.0,1.0,1.0,10.00
2024-10-11 20:45:13.350,1.3218516,0.94996756,0.81369585,1.1889143,0.98186594,0.29166314,0.20555785,0.7059799,1.010434,0.22631402,0.58797747,0.9863596,0.66957617,-0.043184947,0.23074307,0.7107981,0.23517041,-0.31505468,0.11858608,0.27715015,787.72894,799.41394,798.20514,795.78754,699.0842,-0.080322265625,-0.0428466796875,1.00030517578125,7.678680419921875,4.18701171875,6.616973876953125,1,1.0,1.0,1.0,1.0,10.00
2024-10-11 20:45:13.351,1.3868059,0.9363313,0.6377274,1.2366294,1.0464549,0.27450958,0.014291038,0.7424622,1.010434,0.23249374,0.41258004,1.0727601,0.678411,-0.02459274,0.20409618,0.74238455,0.25076726,-0.30191684,0.12198727,0.37711835,791.75824,795.78754,799.41394,800.2198,794.57874,-0.080322265625,-0.0428466796875,1.00030517578125,7.678680419921875,4.18701171875,6.616973876953125,1,1.0,1.0,1.0,1.0,10.00
2024-10-11 20:45:13.358,1.3868059,0.9363313,0.6377274,1.2366294,1.0464549,0.27450958,0.014291038,0.7424622,1.010434,0.23249374,0.41258004,1.0727601,0.678411,-0.02459274,0.20409618,0.74238455,0.25076726,-0.30191684,0.12198727,0.37711835,796.1905,796.99634,772.4176,810.293,681.3553,-0.080322265625,-0.0428466796875,1.00030517578125,7.678680419921875,4.18701171875,6.616973876953125,1,1.0,1.0,1.0,1.0,10.00
2024-10-11 20:45:13.359,1.3868059,0.9363313,0.6377274,1.2366294,1.0464549,0.27450958,0.014291038,0.7424622,1.010434,0.23249374,0.41258004,1.0727601,0.678411,-0.02459274,0.20409618,0.74238455,0.25076726,-0.30191684,0.12198727,0.37711835,803.0403,799.011,775.64105,808.68134,664.83514,-0.080322265625,-0.0428466796875,1.00030517578125,7.678680419921875,4.18701171875,6.616973876953125,1,1.0,1.0,1.0,1.0,10.00
2024-10-11 20:45:13.360,1.3868059,0.9363313,0.6377274,1.2366294,1.0464549,0.27450958,0.014291038,0.7424622,1.010434,0.23249374,0.41258004,1.0727601,0.678411,-0.02459274,0.20409618,0.74238455,0.25076726,-0.30191684,0.12198727,0.37711835,811.0989,795.38464,812.71063,779.2674,711.1722,-0.080322265625,-0.0428466796875,1.00030517578125,7.678680419921875,4.18701171875,6.616973876953125,1,1.0,1.0,1.0,1.0,10.00
2024-10-11 20:45:13.361,1.3868059,0.9363313,0.6377274,1.2366294,1.0464549,0.27450958,0.014291038,0.7424622,1.010434,0.23249374,0.41258004,1.0727601,0.678411,-0.02459274,0.20409618,0.74238455,0.25076726,-0.30191684,0.12198727,0.37711835,812.71063,792.96704,809.89014,772.8205,953.3333,-0.080322265625,-0.0428466796875,1.00030517578125,7.678680419921875,4.18701171875,6.616973876953125,1,1.0,1.0,1.0,1.0,10.00
2024-10-11 20:45:13.362,1.3868059,0.9363313,0.6377274,1.2366294,1.0464549,0.27450958,0.014291038,0.7424622,1.010434,0.23249374,0.41258004,1.0727601,0.678411,-0.02459274,0.20409618,0.74238455,0.25076726,-0.30191684,0.12198727,0.37711835,795.78754,796.5934,805.4579,796.5934,888.46155,-0.080322265625,-0.0428466796875,1.00030517578125,7.678680419921875,4.18701171875,6.616973876953125,1,1.0,1.0,1.0,1.0,10.00
2024-10-11 20:45:13.362,1.3868059,0.9363313,0.6377274,1.2366294,1.0464549,0.27450958,0.014291038,0.7424622,1.010434,0.23249374,0.41258004,1.0727601,0.678411,-0.02459274,0.20409618,0.74238455,0.25076726,-0.30191684,0.12198727,0.37711835,788.1319,799.41394,803.8461,802.23444,499.6337,-0.080322265625,-0.0428466796875,1.00030517578125,7.678680419921875,4.18701171875,6.616973876953125,1,1.0,1.0,1.0,1.0,10.00
2024-10-11 20:45:13.363,1.3868059,0.9363313,0.6377274,1.2366294,1.0464549,0.27450958,0.014291038,0.7424622,1.010434,0.23249374,0.41258004,1.0727601,0.678411,-0.02459274,0.20409618,0.74238455,0.25076726,-0.30191684,0.12198727,0.37711835,800.6227,797.8022,803.8461,785.31134,589.4872,-0.080322265625,-0.0428466796875,1.00030517578125,7.678680419921875,4.18701171875,6.616973876953125,1,1.0,1.0,1.0,1.0,10.00
2024-10-11 20:45:13.364,1.3868059,0.9363313,0.6377274,1.2366294,1.0464549,0.27450958,0.014291038,0.7424622,1.010434,0.23249374,0.41258004,1.0727601,0.678411,-0.02459274,0.20409618,0.74238455,0.25076726,-0.30191684,0.12198727,0.37711835,805.8608,796.99634,809.4872,778.86444,733.3333,-0.080322265625,-0.0428466796875,1.00030517578125,7.678680419921875,4.18701171875,6.616973876953125,1,1.0,1.0,1.0,1.0,10.00
2024-10-11 20:45:13.431,1.3868059,0.9363313,0.6377274,1.2366294,1.0464549,0.27450958,0.014291038,0.7424622,1.010434,0.23249374,0.41258004,1.0727601,0.678411,-0.02459274,0.20409618,0.74238455,0.25076726,-0.30191684,0.12198727,0.37711835,813.1135,799.81683,807.0696,788.1319,628.5714,-0.080322265625,-0.0428466796875,1.00030517578125,7.678680419921875,4.18701171875,6.616973876953125,1,1.0,1.0,1.0,1.0,10.00
2024-10-11 20:45:13.432,1.3868059,0.9363313,0.6377274,1.2366294,1.0464549,0.27450958,0.014291038,0.7424622,1.010434,0.23249374,0.41258004,1.0727601,0.678411,-0.02459274,0.20409618,0.74238455,0.25076726,-0.30191684,0.12198727,0.37711835,819.15753,792.1612,810.293,803.0403,574.57874,-0.080322265625,-0.0428466796875,1.00030517578125,7.678680419921875,4.18701171875,6.616973876953125,1,1.0,1.0,1.0,1.0,10.00
2024-10-11 20:45:13.433,1.3868059,0.9363313,0.6377274,1.2366294,1.0464549,0.27450958,0.014291038,0.7424622,1.010434,0.23249374,0.41258004,1.0727601,0.678411,-0.02459274,0.20409618,0.74238455,0.25076726,-0.30191684,0.12198727,0.37711835,807.0696,794.17584,808.2784,810.293,707.9487,-0.080322265625,-0.0428466796875,1.00030517578125,7.678680419921875,4.18701171875,6.616973876953125,1,1.0,1.0,1.0,1.0,10.00
2024-10-11 20:45:13.434,1.3868059,0.9363313,0.6377274,1.2366294,1.0464549,0.27450958,0.014291038,0.7424622,1.010434,0.23249374,0.41258004,1.0727601,0.678411,-0.02459274,0.20409618,0.74238455,0.25076726,-0.30191684,0.12198727,0.37711835,798.60803,809.0842,805.8608,801.4286,749.45056,-0.080322265625,-0.0428466796875,1.00030517578125,7.678680419921875,4.18701171875,6.616973876953125,1,1.0,1.0,1.0,1.0,10.00
2024-10-11 20:45:13.435,1.3868059,0.9363313,0.6377274,1.2366294,1.0464549,0.27450958,0.014291038,0.7424622,1.010434,0.23249374,0.41258004,1.0727601,0.678411,-0.02459274,0.20409618,0.74238455,0.25076726,-0.30191684,0.12198727,0.37711835,811.50183,809.0842,803.8461,808.68134,738.97437,-0.080322265625,-0.0428466796875,1.00030517578125,7.678680419921875,4.18701171875,6.616973876953125,1,1.0,1.0,1.0,1.0,10.00
2024-10-11 20:45:13.435,1.3868059,0.9363313,0.6377274,1.2366294,1.0464549,0.27450958,0.014291038,0.7424622,1.010434,0.23249374,0.41258004,1.0727601,0.678411,-0.02459274,0.20409618,0.74238455,0.25076726,-0.30191684,0.12198727,0.37711835,813.91943,805.05493,809.4872,826.0073,811.50183,-0.080322265625,-0.0428466796875,1.00030517578125,7.678680419921875,4.18701171875,6.616973876953125,1,1.0,1.0,1.0,1.0,10.00
2024-10-11 20:45:13.436,1.3868059,0.9363313,0.6377274,1.2366294,1.0464549,0.27450958,0.014291038,0.7424622,1.010434,0.23249374,0.41258004,1.0727601,0.678411,-0.02459274,0.20409618,0.74238455,0.25076726,-0.30191684,0.12198727,0.37711835,800.6227,804.65204,803.8461,818.3516,925.12823,-0.080322265625,-0.0428466796875,1.00030517578125,7.678680419921875,4.18701171875,6.616973876953125,1,1.0,1.0,1.0,1.0,10.00
2024-10-11 20:45:13.437,1.3868059,0.9363313,0.6377274,1.2366294,1.0464549,0.27450958,0.014291038,0.7424622,1.010434,0.23249374,0.41258004,1.0727601,0.678411,-0.02459274,0.20409618,0.74238455,0.25076726,-0.30191684,0.12198727,0.37711835,792.5641,798.60803,806.6667,807.47253,1160.0366,-0.080322265625,-0.0428466796875,1.00030517578125,7.678680419921875,4.18701171875,6.616973876953125,1,1.0,1.0,1.0,1.0,10.00
2024-10-11 20:45:13.438,1.3868059,0.9363313,0.6377274,1.2366294,1.0464549,0.27450958,0.014291038,0.7424622,1.010434,0.23249374,0.41258004,1.0727601,0.678411,-0.02459274,0.20409618,0.74238455,0.25076726,-0.30191684,0.12198727,0.37711835,782.0879,790.14655,814.7253,807.8755,908.20514,-0.080322265625,-0.0428466796875,1.00030517578125,7.678680419921875,4.18701171875,6.616973876953125,1,1.0,1.0,1.0,1.0,10.00
2024-10-11 20:45:13.439,1.3868059,0.9363313,0.6377274,1.2366294,1.0464549,0.27450958,0.014291038,0.7424622,1.010434,0.23249374,0.41258004,1.0727601,0.678411,-0.02459274,0.20409618,0.74238455,0.25076726,-0.30191684,0.12198727,0.37711835,794.17584,790.9524,816.337,815.5311,639.85345,-0.080322265625,-0.0428466796875,1.00030517578125,7.678680419921875,4.18701171875,6.616973876953125,1,1.0,1.0,1.0,1.0,10.00
2024-10-11 20:45:13.440,1.3868059,0.9363313,0.6377274,1.2366294,1.0464549,0.27450958,0.014291038,0.7424622,1.010434,0.23249374,0.41258004,1.0727601,0.678411,-0.02459274,0.20409618,0.74238455,0.25076726,-0.30191684,0.12198727,0.37711835,808.68134,793.7729,827.619,811.9048,766.3736,-0.080322265625,-0.0428466796875,1.00030517578125,7.678680419921875,4.18701171875,6.616973876953125,1,1.0,1.0,1.0,1.0,10.00
2024-10-11 20:45:13.441,1.3868059,0.9363313,0.6377274,1.2366294,1.0464549,0.27450958,0.014291038,0.7424622,1.010434,0.23249374,0.41258004,1.0727601,0.678411,-0.02459274,0.20409618,0.74238455,0.25076726,-0.30191684,0.12198727,0.37711835,795.38464,790.54944,823.9927,796.99634,717.619,-0.080322265625,-0.0428466796875,1.00030517578125,7.678680419921875,4.18701171875,6.616973876953125,1,1.0,1.0,1.0,1.0,10.00
2024-10-11 20:45:13.469,1.3868059,0.9363313,0.6377274,1.2366294,1.0464549,0.27450958,0.014291038,0.7424622,1.010434,0.23249374,0.41258004,1.0727601,0.678411,-0.02459274,0.20409618,0.74238455,0.25076726,-0.30191684,0.12198727,0.37711835,788.1319,786.1172,821.978,789.34064,596.337,-0.0892333984375,-0.01153564453125,1.007080078125,8.097381591796875,4.373931884765625,11.84326171875,1,1.0,1.0,1.0,1.0,10.00
